index division length width area intensity CMx CMy
0 0 50.1804 14.3283 719 167.572 183.209 497.862
1 0 52.1325 14.5399 758 171.661 184.728 496.806
2 0 54.1178 14.7641 799 171.975 185.718 496.537
3 0 55.1404 14.5447 802 163.742 184.35 497.243
4 0 58.0407 14.4898 841 167.784 185.057 494.337
5 0 57.1014 14.9383 853 170.758 186.408 494.913
6 0 60.146 14.8638 894 173.937 185.268 494.815
7 0 62.0608 14.5663 904 168.535 184.743 495.569
8 0 64.0998 15.3667 985 164.695 186.844 495.073
9 0 67.0634 14.9113 1000 168.621 185.608 495.463
10 0 67.0605 15.1207 1014 170.211 186.235 495.765
11 0 70.0696 15.1278 1060 170.497 183.898 495.24
12 0 72.1244 15.1821 1095 172.079 183.276 495.209
13 0 74.1503 15.0775 1118 170.782 183.168 494.806
14 0 75.0891 15.2885 1148 170.639 183.99 494.21
15 0 77.1022 15.1487 1168 165.493 179.153 493.527
16 0 80.1338 14.9001 1194 169.036 180.798 493.191
17 0 83.1083 15.1128 1256 168.848 181.231 492.048
18 0 86.1954 15.2908 1318 168.611 180.069 489.989
19 0 88.105 15.2886 1347 169.39 180.001 488.822
20 0 92.0795 14.9328 1375 166.747 179.142 488.397
21 0 95.1342 14.9683 1424 166.885 178.634 486.73
22 0 96.1082 15.5034 1490 163.79 177.49 485.93
23 0 100.162 15.0456 1507 164.537 178.157 483.522
24 0 102.132 15.0393 1536 169.611 177.768 482.201
25 0 106.191 14.9824 1591 169.475 178.341 480.569
26 0 109.279 14.8245 1620 168.017 177.562 478.506
27 0 115.136 14.965 1723 160.005 179.236 476.595
28 1 59.0996 14.4333 853 166.981 175.184 502.217
29 0 63.093 14.2171 897 167.28 177.246 499.683
30 0 63.0703 14.3173 903 169.676 178.726 497.894
31 0 66.0865 14.1784 937 173.901 178.49 495.973
32 0 68.0472 14.3724 978 174.758 179.772 493.556
33 0 72.0885 14.3851 1037 169.169 181.348 490.558
34 0 74.0559 14.5701 1079 163.141 181.243 488.115
35 0 76.0493 14.8456 1129 172.859 180.893 485.478
36 0 80.0517 14.8529 1189 172.399 181.22 482.968
37 0 83.0323 14.7653 1226 177.491 182.416 480.802
38 0 85.0696 14.9525 1272 173.053 182.033 479.242
39 0 88.0639 14.9323 1315 171.493 182.589 477.517
40 0 91.0979 15.1815 1383 177.348 182.925 476.377
41 0 94.0937 15.0595 1417 177.821 185.287 474.479
42 0 96.1122 15.0553 1447 181.324 185.547 473.218
43 0 100.085 15.2769 1529 174.286 185.837 471.599
44 0 103.135 15.1355 1561 172.122 184.426 470.739
45 0 106.165 15.1368 1607 180.928 184.236 469.737
46 0 111.131 15.1713 1686 169.388 184.381 467.11
47 0 114.113 15.248 1740 172.355 185.653 464.866
48 0 119.22 15.4337 1840 174.531 185.835 463.261
49 0 126.129 15.1353 1909 172.299 184.92 461.037
50 0 130.143 14.9836 1950 170.461 184.546 459.908
51 0 135.197 15.1039 2042 176.991 185.059 457.925
52 0 139.23 15.3271 2134 171.439 184.111 456.149
53 1 78.0536 14.2723 1114 171.057 183.092 486.338
54 0 83.0857 14.0217 1165 176.116 181.814 485.574
55 0 86.0638 14.2104 1223 171.826 181.986 484.173
56 0 89.1756 14.0734 1255 176.355 180.936 483.174
57 0 92.1153 13.8739 1278 171.195 183.294 482.804
58 0 95.1894 14.0562 1338 174.692 181.1 480.008
59 0 97.3106 14.2739 1389 169.008 182.922 479.103
60 0 102.207 14.0695 1438 170.133 181.921 477.535
61 0 105.326 14.1276 1488 172.497 182.848 475.741
62 0 109.233 14.0434 1534 168.892 182.486 473.866
63 0 113.131 14.0634 1591 174.204 182.317 472.009
64 0 117.199 14.1895 1663 165.357 182.937 469.99
65 0 121.217 14.0491 1703 167.984 183.617 468.1
66 0 124.187 14.5345 1805 173.563 182.073 464.927
67 0 131.116 14.2088 1863 174.79 183.202 462.133
68 0 135.26 14.5719 1971 164.552 181.443 458.863
69 0 139.166 14.3067 1991 172.212 181.906 456.753
70 1 65.1452 12.9557 844 166.051 182.135 493.2
71 0 68.1374 13.3994 913 166.065 182.871 491.476
72 0 70.1355 13.2743 931 158.39 182.277 490.039
73 0 71.125 13.877 987 162.229 181.251 488.16
74 0 74.0666 13.5959 1007 162.355 181.233 487.036
75 0 77.1155 13.6159 1050 159.491 180.514 485.467
76 0 77.0804 13.8427 1067 162.867 182.341 484.324
77 0 81.1032 13.9945 1135 163.656 183.301 481.834
78 0 85.247 13.8656 1182 158.912 183.587 480.591
79 0 88.0856 13.941 1228 161.259 183.113 478.049
80 0 91.1581 13.7563 1254 159.742 183.895 476.604
81 0 93.1432 14.0322 1307 169.107 183.405 475.04
82 0 98.1867 13.953 1370 162.805 184.881 473.56
83 0 101.184 13.9646 1413 164.762 184.557 471.927
84 0 103.316 13.8314 1429 160.162 184.254 470.055
85 0 108.177 13.6721 1479 156.401 183.915 468.406
86 0 112.325 13.7458 1544 151.986 183.314 466.835
87 1 61.1266 13.2185 808 152.207 183.078 490.813
88 0 63.099 13.5026 852 146.913 182.197 489.587
89 0 66.0905 12.8158 847 155.187 182.388 489.104
90 0 67.0717 13.3588 896 147.339 183.975 488.317
91 0 72.0582 13.3781 964 142.929 184.22 486.984
92 0 74.139 13.3668 991 152.095 185.958 486.083
93 0 76.0796 13.407 1020 153.99 185.66 484.592
94 0 80.1249 13.4041 1074 154.046 183.881 482.717
95 0 84.1096 13.4111 1128 148.679 183.805 481.758
96 0 88.1085 13.2223 1165 48.8747 182.911 479.948
97 0 89.0814 13.6055 1212 147.957 183.882 478.995
98 0 94.0456 13.1107 1233 154.946 184.955 477.216
99 1 50.0353 12.0715 604 143.536 183.843 499.154
100 0 51.0621 12.5142 639 147.374 184.114 499.369
101 0 52.0485 12.7381 663 152.465 184.938 498.131
102 0 53.055 12.8734 683 143.044 182.236 497.619
103 0 54.0451 13.1187 709 149.525 182.973 496.329
104 0 56.0832 13.48 756 144.718 183.552 495.607
105 0 58.0566 13.2801 771 141.165 182.837 494.633
106 0 59.0975 13.4185 793 148.757 183.729 493.909
107 0 62.1852 13.2507 824 143.992 184.103 492.256
108 0 64.093 13.4492 862 149.026 183.059 491.049
109 0 65.0862 13.6742 890 144.11 182.888 490.192
110 0 69.0468 13.4402 928 143.536 183.159 488.501
111 0 71.0908 13.6164 968 143.885 182.22 487.528
112 0 74.0434 13.5866 1006 145.979 182.692 485.546
113 0 75.0762 13.4663 1011 149.866 181.74 484.247
114 0 77.0808 13.3496 1029 148.28 183.913 483.653
115 0 81.0937 13.0713 1060 148.999 182.521 481.578
116 0 82.1573 13.4985 1109 146.228 183.101 480.046
117 1 44.0555 11.1223 490 146.4 183.1 499.445
118 0 47.0672 11.7279 552 150.42 182.792 498.699
119 0 49.0364 12.2154 599 145.426 186.06 497.748
120 0 48.0475 13.0912 629 149.919 183.324 496.739
121 0 52.1711 12.6315 659 151.08 184.352 496.15
122 0 51.1384 13.0821 669 156.897 183.643 495.797
123 0 52.1361 13.2921 693 149.89 184.905 495.166
124 0 54.0962 13.1432 711 155.006 183.667 494.236
125 0 56.0857 13.2654 744 152.981 185.118 493.562
126 0 58.052 13.4707 782 152.879 184.857 492.563
127 0 59.123 13.7341 812 151.091 185.743 492.435
128 0 62.1322 13.6483 848 152.252 185.075 491.649
129 0 63.1231 13.9727 882 148.088 184.302 490.252
130 0 67.1138 13.3802 898 152.865 184.543 489.47
131 0 67.2078 13.555 911 152.116 184.636 488.594
132 0 71.0986 13.4039 953 152.918 184.03 487.07
133 0 74.0945 13.3748 991 151.943 184.594 485.647
134 0 75.1113 13.5 1014 148.946 183.613 484.563
135 0 78.071 13.7311 1072 146.173 184.341 482.445
136 0 81.1609 13.4794 1094 147.011 184.402 480.973
137 0 85.089 13.386 1139 147.478 183.731 480.462
138 1 44.037 11.7174 516 146.079 183.667 500.506
139 0 47.0235 12.0365 566 154.224 184.053 499.557
140 0 49.0959 12.6691 622 150.831 182.661 498.513
141 0 50.0209 12.7347 637 145.562 183.358 498.011
142 0 51.0249 13.2876 678 153.176 184.454 497.413
143 0 53.0504 13.1007 695 148.594 183.423 496.763
144 0 53.1491 13.528 719 151.309 185.623 495.997
145 1 70.1717 13.5525 951 134.95 185.933 488.817
146 0 72.0978 13.8839 1001 135.365 184.381 487.77
147 0 75.1319 13.9887 1051 134.425 184.351 485.814
148 0 78.163 13.9964 1094 141.36 184.058 484.714
149 0 79.1638 14.1226 1118 141.966 184.653 484.116
150 0 81.2123 14.3451 1165 141.221 183.488 483.427
151 0 86.1975 13.7939 1189 139.13 181.775 482.274
152 0 87.266 14.3699 1254 142.204 184.273 480.57
153 1 49.1377 13.4927 663 144.244 184.725 499.914
154 0 51.1525 14.3493 734 139.204 182.858 498.307
155 0 53.1025 14.3684 763 137.007 181.936 496.952
156 0 55.0629 14.547 801 142.017 182.418 496.491
157 0 55.0563 14.5306 800 145.724 183.31 495.648
158 0 58.1452 14.223 827 144.562 184.958 495.258
159 0 58.15 14.9785 871 141.571 183.331 493.164
160 0 59.1824 15.2072 900 142.689 184.404 492.176
161 0 62.2376 15.1998 946 145.863 186.111 491.557
162 0 65.0796 14.7665 961 147.185 183.904 490.55
163 0 66.0849 15.0413 994 143.5 184.616 490.653
164 0 68.1607 15.3608 1047 133.319 186.102 489.668
165 0 70.0675 15.2139 1066 150.905 184.681 488.37
166 0 71.1068 15.4275 1097 149.253 186.104 487.47
167 0 74.0804 15.6182 1157 145.514 183.943 486.99
168 0 77.1456 15.3217 1182 152.215 184.603 485.454
169 0 79.1307 15.6576 1239 145.693 184.346 484.807
170 0 82.155 15.3855 1264 153.877 183.29 483.601
171 0 86.1513 15.2174 1311 150.368 183.194 482.262
172 0 87.2744 15.5601 1358 151.875 184.891 481.068
173 0 91.1625 15.3901 1403 154.432 182.919 479.927
174 0 94.0874 15.5175 1460 155.914 184.636 478.742
175 0 98.1772 15.6146 1533 157.874 185.194 477.117
176 1 48.0693 15.2488 733 165.759 184.023 501.319
177 0 50.0323 15.3901 770 164.753 184.295 500.048
178 0 52.076 15.7078 818 159.54 184.249 499.238
179 0 53.0584 15.6432 830 168.208 185.659 499.163
180 0 55.0886 15.5931 859 165.686 186.377 498.106
181 0 55.1262 16.1085 888 162.509 184.84 497.785
182 0 56.0988 16.364 918 172.683 184.916 496.77
183 0 60.1948 15.5827 938 168.839 184.054 495.799
184 0 63.0867 15.7085 991 165.964 186.13 494.266
185 0 63.074 16.5203 1042 171.168 185.872 493.115
186 0 66.0836 16.1311 1066 171.856 184.289 492.223
187 0 68.1638 16.0202 1092 168.493 185.549 490.962
188 0 71.0819 15.869 1128 171.632 185.047 489.961
189 0 74.2136 15.8327 1175 166.749 184.261 487.899
190 0 77.1079 15.8479 1222 169.676 183.386 486.552
191 0 78.1302 16.2549 1270 169.554 184.967 486.01
192 0 82.2254 15.8224 1301 164.029 185.535 483.914
193 0 86.3905 15.7425 1360 165.655 186.442 482.748
194 1 37.2778 15.9881 596 173.649 186.065 505.317
195 0 38.3564 15.7992 606 169.47 184.452 504.683
196 0 40.0416 15.6088 625 172.091 185.934 504.246
197 0 42.0977 16.2717 685 176.797 185.699 503.058
198 0 41.1345 16.8715 694 171.648 183.882 502.288
199 0 43.255 16.3912 709 171.921 184.083 501.058
200 0 45.3931 16.8748 766 174.79 184.727 500.952
201 0 47.1157 16.746 789 168.83 185.712 500.324
202 0 49.2666 16.3397 805 172.918 185.441 499.324
203 0 50.1717 16.3837 822 164.984 185.745 498.897
204 0 53.1551 16.2731 865 164.61 183.755 496.109
205 0 55.0937 16.5718 913 171.589 184.682 495.089
206 0 55.2089 16.7546 925 168.836 185.386 494.166
207 0 59.0834 16.5698 979 164.572 185.793 492.684
208 0 62.2115 16.2671 1012 175.819 185.125 491.878
209 0 61.137 16.7983 1027 164.661 184.861 490.618
210 0 67.3055 16.1354 1086 170.569 185.035 489.528
211 0 68.1807 16.4416 1121 163.358 184.873 487.938
212 0 72.5139 16.0659 1165 166.678 185.003 486.942
213 0 74.6662 16.1921 1209 172.009 184.031 485.466
214 1 32.2689 15.9906 516 173.62 183.682 503.913
215 0 34.3592 16.3566 562 173.146 183.283 504.203
216 0 35.7586 16.1919 579 171.71 185.112 502.988
217 0 36.534 16.3409 597 163.893 184.313 502.667
218 0 35.4482 17.18 609 165.01 185.158 502.409
219 0 39.7315 16.3346 649 169.166 186.485 501.946
220 0 40.5826 16.5095 670 176.793 185.587 501.54
221 0 40.7348 16.8407 686 172.066 185.606 500.945
222 0 43.7145 16.9509 741 171.278 185.113 499.934
223 0 44.7175 16.6825 746 175.068 184.984 499.003
224 0 47.5967 16.6818 794 169.503 185.05 498.321
225 0 47.6363 17.1718 818 174.894 186.109 497.653
226 0 47.5686 17.5116 833 173.223 185.532 496.8
227 0 50.9353 17.1787 875 177.616 185.253 495.661
228 0 53.7045 16.777 901 173.593 184.679 495.07
229 0 52.3665 17.664 925 176.062 184.709 494.41
230 0 56.4953 17.1519 969 173.737 184.711 493.262
231 0 58.5241 17.0699 999 169.545 186.359 492.481
232 0 60.5232 17.0513 1032 176.064 186.579 491.786
233 0 61.6931 17.1494 1058 175.459 186.425 490.945
234 0 63.2501 17.3438 1097 176.218 186.399 490.165
235 0 65.6641 16.8585 1107 167.546 185.948 489.112
236 0 68.3707 16.4252 1123 173.598 185.051 488.353
237 0 70.6863 16.5379 1169 177.013 184.336 487.601
238 0 72.5837 16.7944 1219 171.279 184.568 486.121
239 0 75.7728 16.3119 1236 173.954 184.659 484.725
240 0 77.838 16.483 1283 169.109 184.062 483.686
241 0 81.8664 16.2704 1332 174.729 184.847 482.117
242 0 83.6128 16.3013 1363 167.932 186.174 480.828
243 0 85.655 16.7649 1436 172.175 185.318 479.994
244 0 89.467 16.33 1461 171.159 186.214 478.656
245 0 92.4868 16.4131 1518 169.165 186.117 477.246
246 1 37.9115 17.1452 650 180.295 186.925 501.072
247 0 41.5233 16.4727 684 171.642 186.297 499.645
248 0 41.8734 17.1469 718 182.773 185.671 499.851
249 0 43.3962 16.8679 732 175.247 185.1 499.029
250 0 44.6736 16.7884 750 177.577 185.557 498.907
251 0 45.6609 17.1482 783 179.64 185.204 498.386
252 0 46.3669 17.2105 798 181.848 185.401 498.016
253 0 46.5472 17.2298 802 179.267 184.489 497.328
254 0 47.3441 17.5946 833 174.065 184.427 496.768
255 0 50.5393 16.8582 852 170.477 184.678 496.113
256 0 52.5013 17.3519 911 185.008 184.766 495.09
257 0 54.9161 16.6071 912 184.225 186.059 494.705
258 0 55.361 16.9795 940 179.873 186.805 493.533
259 1 102.001 16.392 1672 178.376 185.31 472.978
260 0 105.616 16.5505 1748 181.052 185.824 471.337
261 0 108.534 16.6307 1805 178.406 186.03 469.866
262 0 109.953 16.8072 1848 178.901 184.052 468.371
263 0 115.871 16.5271 1915 176.026 186.015 466.451
264 1 68.3842 16.2903 1114 177.718 184.767 487.239
265 0 69.7322 17.0366 1188 182.487 184.408 485.923
266 0 73.503 16.3939 1205 174.017 185.049 484.116
267 0 75.561 16.4238 1241 168.456 186.549 482.81
268 0 81.6277 15.926 1300 173.35 186.992 481.274
269 0 82.6934 16.1682 1337 172.737 185.029 480.221
270 0 83.5845 16.6777 1394 178.342 185.984 479.104
271 0 86.7356 16.3485 1418 174.921 184.808 477.4
272 0 89.1757 16.3385 1457 174.129 185.354 476.445
273 0 92.6285 16.5392 1532 178.673 186.196 475.216
274 0 95.7844 16.2657 1558 178.877 185.804 473.212
275 0 99.7481 15.8299 1579 178.046 184.593 472.018
276 0 103.672 15.7806 1636 177.724 185.611 470.419
277 0 106.631 15.4832 1651 177.229 185.159 468.346
278 0 110.591 15.4985 1714 169.648 185.558 466.896
279 0 115.733 15.5012 1794 178.739 185.056 464.897
280 0 119.61 15.3499 1836 177.996 185.258 463.668
281 0 119.151 15.9209 1897 181.32 185.837 461.189
282 0 129.997 15.1618 1971 175.494 185.533 458.027
283 1 182.754 15.7206 2873 171.407 186.175 432.11
284 1 196.472 15.3763 3021 171.517 186.424 423.331
285 1 32.106 13.2063 424 158.974 186.465 503.469
286 0 32.1042 12.8955 414 162.283 185.949 503.36
287 0 32.0739 13.5624 435 161.497 185.637 503.175
288 0 32.1213 14.2585 458 158.354 186.681 502.987
289 0 36.2784 14.0855 511 146.583 185.004 501.196
290 0 37.499 14.7737 554 151.188 186.747 500.942
291 0 37.1574 15.1787 564 152.468 186.053 501.066
292 0 37.23 15.6594 583 152.859 186.806 500.168
293 0 41.3089 15.6383 646 147.782 186.108 498.646
294 0 42.2682 16.5136 698 145.291 186.59 497.447
295 0 45.4623 16.3652 744 142.14 186.159 496.323
296 0 44.2561 16.9468 750 140.963 187.131 496.251
297 0 49.479 17.0173 842 137.599 186.81 493.659
298 0 50.4933 17.329 875 138.998 185.103 492.496
299 0 53.3286 16.6515 888 136.026 184.757 490.693
300 0 54.4436 17.137 933 136.095 186.513 490.151
301 0 57.4606 16.7767 964 138.029 185.79 489.277
302 0 58.6234 17.2627 1012 138.781 187.025 487.936
303 0 59.1763 17.4225 1031 139.123 187.639 487.206
304 0 60.4589 17.0364 1030 143.521 186.047 487.101
305 0 61.5869 16.9679 1045 147.101 186.949 486.615
306 0 64.3135 17.197 1106 142.771 186.086 485.242
307 0 67.4731 16.9845 1146 147.764 185.593 483.024
308 0 71.3116 17.1361 1222 140.322 186.007 480.228
309 0 72.4624 17.2779 1252 142.975 186.447 479.793
310 0 78.399 16.416 1287 148.688 186.577 477.459
311 0 77.6922 17.4277 1354 145.157 187.266 475.419
312 1 38.191 12.8564 491 170.878 185.967 497.073
313 0 39.2314 13.0763 513 173.957 187.499 497.055
314 0 40.2449 13.2936 535 173.073 184.903 496.789
315 0 41.3325 13.2583 548 170.743 185.226 496.92
316 0 42.3594 13.5271 573 172.042 186.077 494.22
317 0 43.3925 13.689 594 172.458 186.237 494.263
318 0 44.3925 14.124 627 171.904 186.279 492.781
319 0 46.3062 13.9722 647 173.352 187.564 492.054
320 0 49.5688 13.5367 671 169.776 188.098 491.969
321 0 51.3764 13.5082 694 166.33 187.994 490.97
322 0 51.3422 13.8093 709 170.446 186.052 489.953
323 0 52.5758 13.8657 729 173.882 187.158 489.461
324 0 54.4934 13.6347 743 177.895 187.868 489.073
325 0 57.7801 14.5379 840 170.63 188.31 484.085
326 0 59.5496 14.1395 842 171.276 187.861 483.279
327 0 60.5752 13.9826 847 171.697 187.091 482.929
328 0 62.5189 13.4519 841 168.904 188.309 482.549
329 0 63.7332 13.5094 861 173.655 185.328 481.806
330 0 65.5578 13.7589 902 166.045 186.459 482
331 0 67.5323 13.7268 927 168.444 186.524 481.426
332 0 70.4711 13.7219 967 168.466 187.063 479.677
333 0 71.6479 13.5943 974 171.892 187.156 479.072
334 0 76.4953 13.0727 1000 174.646 187.874 479.178
335 0 78.7707 13.0759 1030 170.782 188.184 478.316
336 0 79.4515 13.3289 1059 170.146 188.068 477.435
337 1 45.2445 13.0624 591 171.32 189.636 494.134
338 0 48.3315 13.0557 631 166.338 188.182 492.398
339 0 50.2363 13.0981 658 166.424 188.78 492.081
340 0 51.6582 12.8731 665 169.988 190.152 491.531
341 0 52.3658 13.2911 696 166.254 188.05 490.468
342 0 53.4427 12.8362 686 172.348 187.695 490.362
343 0 56.2559 12.8164 721 166.871 186.571 489.412
344 0 57.3686 13.3174 764 170.418 186.694 488.493
345 0 60.4993 12.777 773 174.397 186.727 487.424
346 0 62.4263 13.0554 815 165.974 188.89 486.692
347 0 65.3356 12.9332 845 168.027 187.342 484.982
348 0 67.6943 12.778 865 170.896 188.597 484.348
349 0 69.4186 13.2097 917 174.894 187.218 482.483
350 0 71.4547 13.0152 930 173.595 186.957 481.501
351 0 74.4554 12.8399 956 165.52 187.509 480.017
352 1 41.4826 11.0649 459 156.664 186.329 495.612
353 0 42.2909 12.1303 513 166.333 187.604 494.628
354 0 42.3663 12.5335 531 165.927 187.893 494.48
355 0 44.484 12.1167 539 168.243 186.271 494.087
356 0 45.2958 12.1645 551 166.399 186.374 493.136
357 0 46.3286 12.6488 586 166.788 185.966 492.746
358 0 50.3398 11.9587 602 167.439 187.512 491.349
359 0 50.3541 12.6703 638 161.31 188.553 490.368
360 0 51.3745 12.73 654 164.774 188.751 489.843
361 0 54.3955 12.4459 677 162.127 188.121 488.597
362 0 56.3009 12.7174 716 164.369 188.816 487.246
363 0 58.2774 12.4233 724 157.829 187.805 486.751
364 0 59.4249 12.6715 753 157.886 186.268 485.352
365 0 61.333 12.9131 792 161.168 186.045 484.515
366 0 63.2998 12.9384 819 161.937 187.101 484.057
367 0 65.457 12.7717 836 159.063 188.78 482.683
368 0 66.2569 13.1307 870 165.166 187.218 481.899
369 0 69.323 13.2856 921 158.562 187.27 480.277
370 0 72.3059 13.1663 952 154.692 187.484 478.707
371 0 76.2382 12.9856 990 154.897 185.799 478.021
372 0 76.2382 12.9856 990 167.596 182.799 478.021
373 1 41.0874 11.1226 457 157.86 186.611 495.488
374 0 43.2468 11.7003 506 163.324 187.907 494.018
375 0 44.2009 12.1038 535 160.396 187.121 493.497
376 0 45.1164 11.9912 541 155.53 187.872 492.423
377 0 46.2254 12.4391 575 155.089 186.99 491.984
378 0 50.2036 12.2302 614 162.318 187.498 490.72
379 0 52.1361 12.5057 652 162.83 186.575 489.91
380 0 52.1258 12.7768 666 164.523 186.857 489.282
381 0 54.0759 12.8708 696 156.154 187.227 487.77
382 0 56.1277 12.8635 722 160.331 185.63 486.726
383 0 58.0728 12.7771 742 159.699 186.71 486.105
384 0 58.2197 13.4319 782 165.192 187.591 485.531
385 0 61.1578 13.2935 813 165.381 186.117 484.649
386 0 64.265 12.8841 828 168.152 185.97 484.094
387 0 66.1391 12.9575 857 163.401 185.673 482.94
388 0 67.1239 13.1101 880 160.575 187.002 481.668
389 0 70.3549 13.3608 940 163.935 187.935 480.379
390 0 73.1318 13.1407 961 162.129 186.564 479.413
391 0 72.1912 13.5335 977 167.251 186.381 478.752
392 0 75.2407 13.49 1015 163.967 186.637 477.943
393 0 78.1866 13.3655 1045 163.033 186.361 476.53
394 0 81.1414 13.1499 1067 161.018 184.421 474.845
395 0 86.0811 13.0342 1122 162.946 184.55 473.202
396 0 87.035 13.3969 1166 160.988 186.105 471.943
397 1 48.2068 11.9278 575 157.123 186.042 491.583
398 0 49.0703 12.2477 601 159.544 185.902 490.554
399 0 51.1619 12.6266 646 155.895 186.316 489.693
400 0 53.199 12.5566 668 159.043 187.132 489.211
401 0 54.1333 12.968 702 158.001 186.675 488.627
402 0 56.2174 12.6829 713 157.511 186.541 488.098
403 0 58.2418 12.7228 741 161.3 186.953 486.725
404 0 58.1649 13.1007 762 154.56 185.752 486.227
405 0 61.0584 12.7583 779 158.516 186.01 485.856
406 0 62.1572 13.2084 821 160.75 186.657 485.18
407 0 65.148 13.2621 864 157.726 187.368 483.913
408 0 67.0288 13.0243 873 149 188.192 482.967
409 0 68.1709 13.3048 907 158.332 186.423 481.922
410 0 71.1172 13.302 946 160.438 186.971 481.209
411 0 73.2155 13.3442 977 157.376 186.588 479.894
412 0 76.1617 13.1825 1004 161.601 187.318 478.501
413 0 79.1536 13.2906 1052 155.756 186.625 477.693
414 0 81.1051 13.612 1104 153.301 186.741 476.371
415 0 83.1326 13.4364 1117 154.158 186.641 474.75
416 0 87.2128 13.1861 1150 162.543 187.024 474.172
417 0 88.3456 13.9339 1231 154.628 186.565 472.047
418 0 93.4865 13.3067 1244 152.732 184.805 470.438
419 0 93.276 13.6584 1274 158.112 184.948 469.513
420 0 99.0749 13.3334 1321 158.883 185.782 467.79
421 0 101.287 13.5654 1374 156.051 184.983 465.881
422 0 106.142 13.3595 1418 158.655 185.057 463.43
423 0 111.245 13.1781 1466 161.936 185.726 462.016
424 1 55.0552 11.7882 649 146.649 185.462 488.912
425 0 57.145 11.9346 682 150.119 185.059 487.955
426 0 59.0585 12.7839 755 154.445 187.246 487.841
427 0 62.0614 12.4071 770 153.638 185.76 486.521
428 0 62.0741 12.7267 790 155.851 187.59 485.735
429 0 65.0617 12.8954 839 149.178 184.925 484.092
430 0 67.0632 12.7939 858 146.547 187.529 482.762
431 0 70.2156 13.3589 938 144.866 186.247 481.093
432 0 72.0909 13.0113 938 144.133 186.835 480.358
433 0 73.101 12.941 946 147.69 187.003 479.096
434 0 76.0699 13.1852 1003 151.649 187.602 477.325
435 0 77.1588 13.1028 1011 151.801 187.016 476.806
436 0 81.087 13.097 1062 145.212 187.484 475.223
437 0 83.0906 13.3589 1110 146.593 188.117 473.832
438 0 86.1725 13.1596 1134 152.944 188.959 472.661
439 0 90.1284 13.1479 1185 148.536 188.5 471.39
440 0 93.296 13.7519 1283 152.723 187.871 469.757
441 0 94.2197 13.4154 1264 154.331 188.312 468.983
442 0 99.1646 14.007 1389 153.181 185.471 466.691
443 0 101.31 13.7104 1389 157.585 186.559 465.093
444 0 105.205 13.4214 1412 150.392 185.174 463.491
445 0 108.211 13.5384 1465 158.481 185.965 461.784
446 0 112.214 13.5901 1525 152.575 186.561 459.151
447 0 117.311 13.5707 1592 155.353 187.873 457.1
448 1 62.1673 11.6782 726 150.494 187.857 485.669
449 0 64.1837 12.7758 820 147.712 186.602 484.02
450 0 65.0914 12.4901 813 149.929 186.866 482.865
451 0 67.1706 12.3864 832 145.06 185.599 481.512
452 0 70.2079 12.6482 888 145.868 186.193 479.725
453 0 74.2657 12.4822 927 148.646 186.765 478.276
454 0 77.1436 12.0814 932 148.227 186.914 476.876
455 0 77.212 12.6794 979 148.986 187.219 476.133
456 0 81.3033 13.013 1058 150.25 186.054 474.23
457 0 86.299 12.9318 1116 150.838 187.795 472.573
458 0 88.361 13.1393 1161 151.73 186.128 471.005
459 0 88.453 13.1708 1165 154.53 187.865 470.06
460 0 94.304 13.0217 1228 150.47 187.141 467.935
461 0 96.3237 13.3404 1285 150.781 188.118 466.695
462 0 99.3817 12.8394 1276 150.16 187.609 464.397
463 1 52.3614 11.0578 579 147.321 188.378 487.979
464 0 55.3629 11.4156 632 149.185 188.307 487.342
465 0 57.362 11.9417 685 152.438 188.419 486.312
466 0 58.3109 12.5019 729 150.232 186.872 485.217
467 0 60.2022 12.757 768 153.91 187.352 484.105
468 0 63.1223 12.3728 781 156.19 186.899 483.191
469 0 64.1002 12.9485 830 148.502 187.847 481.465
470 0 67.0796 12.9249 867 156.657 185.67 480.576
471 0 68.122 13.5052 920 151.833 186.949 479.182
472 0 70.1288 13.2043 926 161.782 187.913 478.311
473 0 71.1294 13.3559 950 161.592 185.041 476.843
474 0 75.1589 13.0657 982 162.878 185.922 476.205
475 0 78.1308 13.4774 1053 162.108 186.538 474.356
476 0 81.2395 13.5648 1102 158.647 186.488 472.95
477 0 84.284 13.4782 1136 162.023 186.969 471.276
478 0 87.3606 13.2096 1154 159.366 186.589 470.299
479 0 92.2952 13.4027 1237 157.825 185.734 468.508
480 0 92.3864 13.6167 1258 162.819 185.714 467.186
481 0 96.2449 13.0916 1260 163.979 187.209 465.887
482 0 101.42 12.9659 1315 166.185 188.441 463.675
483 1 52.0577 12.0635 628 156.253 187.325 487.524
484 0 55.1394 12.0785 666 156.027 185.596 486.327
485 0 55.1537 12.3473 681 152.093 186.454 485.618
486 0 58.1304 12.2827 714 157.782 187.402 484.812
487 0 59.1554 12.5432 742 155.555 187.249 483.784
488 0 61.1533 12.4768 763 153.347 185.401 482.592
489 0 64.2373 12.3916 796 157.165 185.068 481.655
490 0 63.1923 12.913 816 156.811 187.553 480.642
491 0 68.0673 12.5758 856 159.331 187.308 479.475
492 0 67.1738 12.9664 871 154.378 187.315 478.945
493 0 70.1046 12.7666 895 152.121 187.704 477.745
494 0 72.0817 13.1517 948 154.052 187.55 476.215
495 0 75.0852 12.9453 972 156.191 187.798 475.17
496 0 78.1069 12.9822 1014 154.916 188.416 474.043
497 0 80.1122 13.0567 1046 156.257 186.475 472.294
498 0 84.1011 12.8298 1079 155.872 187.317 470.926
499 0 86.2012 13.1901 1137 147.153 188.851 469.184
500 0 89.2013 13.0267 1162 153.376 189.222 468.808
501 1 46.1 10.9978 507 152.943 188.359 490.888
502 0 47.0822 11.6392 548 155.876 186.684 489.679
503 0 49.0614 11.8627 582 156.369 188.32 488.988
504 0 49.2138 12.5575 618 156.183 187.55 488.604
505 0 52.2051 12.1636 635 158.339 187.455 487.77
506 0 54.4324 12.07 657 147.732 187.995 486.796
507 0 55.1161 12.4646 687 151.782 185.317 486.09
508 0 56.1308 12.5065 702 159.034 186.635 485.318
509 0 59.1023 12.5714 743 155.594 187.087 484.423
510 0 60.0441 12.8572 772 152.729 187.864 483.203
511 0 63.0259 12.836 809 158.559 186.75 482.34
512 0 63.0901 13.2826 838 165.891 187.685 480.924
513 0 63.1889 13.0244 823 153.388 187.773 480.243
514 0 67.0792 13.0294 874 156.563 186.9 479.733
515 0 69.1601 13.2012 913 158.958 190.036 479.119
516 0 72.1218 12.6037 909 148.266 187.868 477.618
517 0 74.1658 12.9575 961 157.06 187.394 476.714
518 0 77.2167 13.1707 1017 157.396 186.338 475.675
519 0 79.0917 13.1746 1042 153.345 187.785 473.69
520 0 83.1269 13.317 1107 156.166 186.234 472.265
521 0 85.2229 13.1537 1121 155.374 186.483 471.319
522 0 86.2502 13.7159 1183 152.058 187.096 470.272
523 0 91.1899 13.4883 1230 151.747 187.227 468.277
524 0 94.2142 13.2146 1245 158.117 185.617 467.263
525 0 97.2249 13.3608 1299 150.411 186.095 464.816
526 0 100.235 13.3685 1340 156.367 187.772 464.046
527 0 103.216 13.3991 1383 153.069 185.786 461.967
528 0 107.274 13.4888 1447 146.381 187.326 460.194
529 0 109.373 13.3762 1463 155.799 186.939 459.202
530 0 113.356 13.5943 1541 147.719 186.081 456.724
531 0 116.422 13.6659 1591 158.03 186.901 455.297
532 0 121.292 13.9168 1688 156.02 186.379 453.325
533 1 61.1563 11.5115 704 146.176 185.719 483.98
534 0 64.1951 11.9947 770 152.009 186.752 482.983
535 0 65.0865 12.5833 819 154.835 188.419 482.388
536 0 68.0644 12.9583 882 151.873 185.924 481.65
537 0 69.1274 12.788 884 145.314 187.881 479.886
538 0 73.0724 12.8776 941 146.921 188.074 479.179
539 0 73.1316 12.9766 949 147.874 189.143 478.055
540 0 76.1499 12.633 962 145.628 188.648 477.004
541 0 79.1297 13.1556 1041 147.788 188.911 475.211
542 0 82.1411 12.6246 1037 146.303 187.34 474.84
543 0 85.1591 12.7761 1088 149.625 187.574 473.543
544 0 87.149 13.0237 1135 148.222 185.901 471.736
545 0 89.1676 12.8858 1149 141.762 186.059 470.225
546 0 94.2898 13.151 1240 150.178 188.24 468.209
547 0 97.1838 12.8108 1245 144.719 187.578 467.059
548 0 99.2465 13.3808 1328 148.711 188.292 465.087
549 0 103.111 13.2673 1368 150.132 185.803 463.663
550 0 107.151 12.991 1392 151.116 186.504 461.894
551 0 109.156 12.9814 1417 154.629 186.773 460.622
552 1 60.152 11.3047 680 151.694 187.456 483.919
553 0 63.1804 12.2981 777 145.335 188.505 479.946
554 0 66.1368 12.7614 844 154.488 189.945 478.917
555 0 67.0403 12.6491 848 152.229 188.361 478.367
556 0 69.0452 12.7742 882 157.946 189.477 476.356
557 0 70.0599 13.046 914 151.003 189.002 479.148
558 0 74.0228 12.7393 943 153.256 186.501 478.077
559 0 77.1584 12.6104 973 155.165 189.401 477.681
560 0 79.0892 12.6187 998 152.202 187.38 476.088
561 0 82.1098 12.6903 1042 161.984 188.018 475.105
562 0 84.1032 12.9484 1089 156.731 188.219 473.691
563 0 86.0792 13.0926 1127 159.472 186.996 472.406
564 0 88.1329 13.23 1166 152.604 186.858 471.016
565 0 93.1741 12.8684 1199 158.267 187.909 469.598
566 0 95.0572 12.7502 1212 154.541 187.226 467.934
567 1 48.0289 11.2432 540 156.202 188.941 490.33
568 0 52.1458 11.5446 602 145.962 187.61 488.922
569 0 54.051 11.8777 642 151.866 186.991 488.818
570 0 55.0732 12.1656 670 153.324 186.99 487.355
571 0 57.1234 12.2717 701 152.225 186.387 486.541
572 0 58.0134 12.4282 721 150.682 186.746 484.895
573 0 58.1109 12.8203 745 154.266 186.035 484.928
574 0 61.0496 12.6782 774 154.447 186.756 483.424
575 0 62.0768 12.7423 791 154.689 186.772 482.802
576 0 65.0564 12.7582 830 159.724 184.81 480.625
577 0 67.1804 12.6376 849 161.707 185.928 480.327
578 0 68.075 13.1032 892 160.461 185.696 478.371
579 0 71.2285 13.1829 939 157.376 186.855 477.488
580 0 73.2702 13.3342 977 153.676 186.015 474.389
581 0 75.258 13.3142 1002 145.309 186.364 474.648
582 0 78.2707 13.4916 1056 153.149 186.511 473.613
583 0 81.1939 13.4616 1093 152.832 185.801 472.081
584 0 82.1975 13.4311 1104 157.062 186.026 470.12
585 0 86.2039 13.6189 1174 148.698 187.429 468.197
586 0 90.1619 13.3648 1205 154.052 185.051 466.973
587 0 92.2464 13.3447 1231 160.421 186.461 464.998
588 0 96.3798 13.3534 1287 152.539 186.333 463.165
589 1 51.2666 11.7035 600 156.743 185.235 484.307
590 0 54.3029 12.154 660 157.011 185.458 483.768
591 0 55.2392 12.4368 687 150.809 187.183 484.581
592 0 57.1975 12.2208 699 155.614 185.701 484.25
593 0 61.1896 12.5838 770 157.904 187.752 482.788
594 0 61.2368 12.9171 791 159.874 187.32 482.458
595 0 61.1669 12.9645 793 160.12 187.887 481.728
596 0 64.3868 12.8753 829 154.513 187.423 480.912
597 0 65.2094 13.4797 879 162.755 188.193 478.635
598 0 69.1023 13.2123 913 162.253 188.411 478.813
599 0 71.2574 13.3039 948 158.196 188.941 477.14
600 0 73.2541 13.3235 976 161.192 188.349 476.343
601 0 75.2112 13.4687 1013 161.091 188.387 475.352
602 0 77.2002 13.4974 1042 161.164 189.208 473.801
603 0 80.2501 13.4953 1083 154.579 189.404 472.834
604 0 82.1075 13.7624 1130 160.069 188.976 471.454
605 0 86.1988 13.6545 1177 156.949 190.255 470.304
606 0 88.3151 13.6104 1202 161.3 189.488 468.927
607 0 92.2062 13.7084 1264 160.273 190.128 467.41
608 0 93.3358 14.2282 1328 149.091 189.965 466.093
609 0 98.3189 14.1173 1388 161.13 189.268 464.122
610 0 101.395 13.9751 1417 158.927 189.927 462.454
611 0 104.394 14.4549 1509 155.314 188.697 460.938
612 1 54.2617 12.5134 679 156.112 188.754 486.053
613 0 56.1553 12.8928 724 148.645 188.511 484.996
614 0 59.0964 12.5388 741 156.63 187.179 484.259
615 0 60.0308 12.96 778 152.134 188.887 483.285
616 0 62.1695 13.0128 809 153.556 188.629 482.292
617 0 64.0964 13.1833 845 155.846 187.929 481.349
618 0 67.2933 13.1365 884 151.673 187.446 479.627
619 0 68.1773 13.5382 923 149.377 189.544 479.003
620 0 71.2249 13.5206 963 150.801 188.184 478.304
621 0 72.2857 13.4882 975 145.246 187.697 477.454
622 0 76.0814 13.3278 1014 143.936 187.384 475.896
623 0 78.1038 13.5077 1055 147.528 186.427 475.14
624 0 81.1845 13.4262 1090 144.48 186.585 473.244
625 0 83.1629 13.4074 1115 150.561 186.271 472.622
626 0 86.1033 13.5883 1170 150.055 187.854 471.035
627 0 89.1315 13.5193 1205 149.622 188.347 469.738
628 0 91.2577 13.6427 1245 145.052 186.599 467.856
629 0 95.3302 13.6893 1305 154.196 185.8 466.602
630 0 96.1617 13.9037 1337 148.314 185.316 465.313
631 1 50.1529 12.422 623 151.801 184.745 488.056
632 0 52.1553 12.6354 659 147.97 185.076 487.402
633 0 52.1339 12.8323 669 153.341 185.17 486.946
634 0 54.1023 12.6242 683 151.539 185.523 486.095
635 0 56.0887 12.7298 714 149.647 188.003 485.269
636 0 58.1073 12.649 735 155.293 185.884 484.449
637 0 60.1317 12.8219 771 149.3 186.009 482.665
638 0 61.1456 12.969 793 145.56 185.361 482.137
639 0 64.1231 13.0374 836 152.225 186.671 481.307
640 0 66.187 13.0237 862 153.84 186.781 480.411
641 0 68.0896 13.1885 898 150.447 187.529 479.507
642 0 68.188 13.5068 921 152.745 186.01 478.052
643 0 71.2056 13.5663 966 146.504 187.981 477.45
644 0 74.2083 13.3813 993 151.466 186.97 475.915
645 0 75.3957 13.6215 1027 153.516 187.341 474.84
646 0 79.236 13.3399 1057 163.033 186.721 473.51
647 0 81.3387 13.5237 1100 160.386 188.212 472.16
648 0 85.3527 13.3798 1142 165.303 184.064 470.52
649 0 87.3304 13.718 1198 158.028 187.334 468.759
650 0 91.2462 13.2718 1211 160.191 186.341 468.637
651 1 48.0766 11.7105 563 160.938 188.252 490.277
652 0 49.0635 12.2494 601 157.326 188.448 489.556
653 0 50.0875 12.4183 622 156.281 187.989 489.505
654 0 53.1007 12.1844 647 149.692 187.672 488.495
655 0 53.0262 12.6164 669 166.786 187.758 488.209
656 0 56.1373 12.4516 699 163.98 188.227 487.389
657 0 57.1049 12.5208 715 164.975 189.281 487.476
658 0 57.1634 12.9803 742 167.155 186.031 487.022
659 0 59.2465 13.0809 775 165.108 187.323 485.932
660 0 63.1477 13.1438 830 167.871 186.893 485.416
661 0 64.1999 13.2711 852 167.988 186.048 484.349
662 0 67.131 13.0193 874 171.882 186.882 483.489
663 0 68.1826 13.2878 906 170.227 187.288 482.442
664 0 70.1439 13.3725 938 165.046 186.618 481.055
665 0 73.176 13.3787 979 172.399 187.593 480.914
666 0 75.2346 13.5177 1017 171.144 185.855 479.368
667 0 79.1249 13.1817 1043 163.865 185.569 477.577
668 0 80.2318 13.6729 1097 162.631 185.527 476.563
669 0 83.1353 13.472 1120 169.56 189.329 475.301
670 0 87.1164 13.2581 1155 162.3 187.797 474.155
671 0 89.1953 13.476 1202 166.287 189.334 472.41
672 1 49.1225 11.5629 568 168.224 187.724 492.854
673 0 49.0682 12.3094 604 163.987 186.217 492.758
674 0 50.0933 12.876 645 166.84 186.175 491.352
675 0 51.0893 13.036 666 161.907 187.063 490.922
676 0 54.1657 12.7018 688 165.061 185.4 489.92
677 0 55.0942 12.9778 715 160.857 187.613 489.283
678 0 56.077 13.0178 730 161.462 185.944 488.288
679 0 57.087 13.0152 743 161.581 186.849 487.859
680 0 59.0311 13.1626 777 160.417 186.199 486.658
681 0 62.0305 12.9775 805 164.032 185.922 486.265
682 0 64.0785 12.9373 829 163.965 186.999 485.517
683 0 66.0767 13.1816 871 159.157 188.852 484.032
684 0 67.0462 13.1998 885 159.681 188.715 483.725
685 0 69.1282 13.2363 915 161.718 188.148 482.35
686 0 70.1813 13.3796 939 164.793 187.744 481.823
687 0 73.1282 13.3601 977 159.241 187.312 480.025
688 0 76.1597 13.4717 1026 166.87 189.314 479.55
689 0 77.4055 13.4874 1044 160.255 188.378 478.163
690 0 81.3472 13.0552 1062 160.678 187.547 477.073
691 0 82.2596 13.1413 1081 164.73 187.949 475.94
692 0 85.2347 12.9994 1108 162.752 187.493 474.241
693 0 86.2822 13.3979 1156 160.302 185.923 472.114
694 0 92.1706 13.0627 1204 160.234 187.44 470.67
695 1 46.1533 11.9818 553 159.06 188.199 492.465
696 0 47.2533 11.9357 564 161.654 190.057 491.768
697 0 51.1018 12.6023 644 156.616 188.321 490.236
698 0 51.0874 12.782 653 155.977 188.505 490.129
699 0 53.1584 13.0741 695 161.658 188.837 489.075
700 0 53.1 12.9002 685 161.096 188.457 488.816
701 0 54.0563 13.0975 708 158.373 186.62 487.935
702 0 57.0592 12.8638 734 165.777 189.233 487.556
703 0 57.2002 13.3216 762 159.644 188.13 486.406
704 0 59.0503 13.9203 822 157.601 186.798 485.3
705 0 62.0993 13.4784 837 163.254 188.035 484.152
706 0 63.1883 13.8633 876 160.938 188.13 483.078
707 0 65.249 13.778 899 166.92 187.914 481.747
708 0 68.1334 13.7231 935 164.222 187.617 481.313
709 0 68.2322 14.0549 959 167.635 186.339 480.576
710 0 71.1455 14.0979 1003 169.645 188.339 478.587
711 0 74.1479 13.8372 1026 160.625 189.151 477.349
712 0 78.2726 13.7213 1074 172.718 189.146 476.609
713 0 80.5352 13.758 1108 172.005 188.572 474.576
714 0 83.3563 13.7482 1146 171.339 189.237 473.519
715 0 86.3579 13.8725 1198 166.404 188.772 471.189
716 0 87.2001 13.8417 1207 161.69 188.128 470.105
717 0 90.2358 14.1186 1274 166.712 187.024 468.733
718 0 95.1037 13.7219 1305 162.633 190.328 467.71
719 1 49.0678 12.3095 604 163.762 187.404 489.482
720 0 51.0397 12.4413 635 155.962 186.499 488.698
721 0 52.0436 12.8354 668 157.795 189.115 487.66
722 0 53.0697 13.2844 705 156.898 187.949 487.329
723 0 55.0673 13.2928 732 152.108 187.914 486.325
724 0 56.1119 13.5622 761 155.668 189.331 485.388
725 0 58.0292 13.3381 774 151.672 189.755 484.687
726 0 61.0911 13.0297 796 158.01 189.166 483.668
727 0 63.1036 13.0579 824 150.867 187.95 482.152
728 0 64.0686 13.7041 878 147.697 189.436 481.271
729 0 66.1271 13.4136 887 155.873 187.955 479.947
730 0 69.0901 13.5909 939 158.565 187.866 478.99
731 0 71.0588 13.1159 932 149.82 187.769 477.868
732 0 72.076 13.9852 1008 154.314 186.9 476.407
733 0 76.0681 13.225 1006 152.097 188.161 475.301
734 0 80.1237 13.3793 1072 155.177 186.279 473.382
735 0 82.1689 13.241 1088 152.869 186.744 471.358
736 0 86.1194 13.2491 1141 156.851 188.559 469.934
737 0 88.2139 13.2179 1166 143.189 186.78 468.747
738 1 46.0223 11.8855 547 149.612 189.446 490.073
739 0 48.1503 12.2325 589 145.64 190.228 489.594
740 0 48.1173 12.7397 613 147.223 187.312 489
741 0 50.0427 12.6092 631 141.74 189.431 487.911
742 0 53.1144 12.8025 680 147.36 189.399 487.29
743 0 53.1016 12.9375 687 138.876 189.53 486.447
744 0 55.106 12.9024 711 146.537 185.639 485.183
745 0 55.0577 12.9501 713 148.421 187.669 484.805
746 0 57.0234 13.0823 746 150.452 188.397 483.981
747 0 60.1108 13.0925 787 149.912 188.447 483.018
748 0 60.0616 13.7692 827 147.619 187.111 482.037
749 0 63.0978 13.4395 848 147.759 186.104 481.233
750 0 65.0615 13.5718 883 151.803 187.002 480.591
751 0 67.0579 13.0186 873 151.301 187.898 479.53
752 0 68.0476 13.7551 936 141.178 189.024 478.982
753 0 73.0574 13.4825 985 155.255 186.94 477.515
754 0 74.0362 13.8716 1027 153.115 187.537 475.872
755 0 75.059 13.9091 1044 144.586 188.845 475.624
756 0 78.1031 14.0071 1094 148.632 187.979 474.824
757 0 80.0764 14.099 1129 151.742 189.736 472.794
758 0 83.1421 13.7596 1144 155.386 186.911 471.578
759 0 86.0761 13.9063 1197 154.802 188.333 470.366
760 0 88.1311 14.0019 1234 155.9 187.278 468.51
761 0 90.1367 14.2894 1288 156.285 187.117 467.431
762 0 94.1324 14.129 1330 157.456 186.91 465.843
763 0 96.0957 14.4335 1387 160.509 187.976 464.953
764 0 98.1381 14.6121 1434 158.056 188.657 464.071
765 0 103.155 14.0953 1454 162.604 187.312 461.785
766 0 107.076 14.5598 1559 161.836 187.586 460.012
767 0 109.103 14.6742 1601 167.552 187.776 458.448
768 0 112.112 14.7085 1649 166.011 188.85 456.927
769 0 117.198 14.7528 1729 167.861 188.837 454.722
770 0 120.21 15.0238 1806 167.164 188.883 452.554
771 0 123.11 14.8972 1834 168.948 188.95 450.894
772 0 127.157 14.8792 1892 169.129 186.81 448.475
773 0 132.203 15.0753 1993 163.462 187.965 445.564
774 0 136.307 14.8049 2018 168.664 189.064 443.623
775 0 142.203 15.056 2141 174.019 188.118 441.716
776 0 148.429 15.1924 2255 169.734 188.592 438.806
777 0 151.135 15.1321 2287 173.906 190.081 436.22
778 0 160.195 14.8007 2371 173.052 188.857 433.735
779 0 165.342 15.1081 2498 164.122 188.493 429.734
780 0 173.295 14.9398 2589 14.0997 189.342 426.538
781 0 179.288 14.7584 2646 168.613 187.683 424.074
782 0 185.3 14.8786 2757 169.161 187.71 420.914
783 0 192.253 14.9022 2865 171.942 187.225 417.807
784 0 198.294 15.3106 3036 169.709 189.335 414.057
785 0 205.341 15.1017 3101 165.584 188.915 410.69
786 1 154.193 14.1122 2176 166.659 187.203 436.127
787 0 159.435 14.1124 2250 172.037 184.457 432.537
788 0 165.41 14.4187 2385 168.507 186.481 429.595
789 0 173.396 14.1584 2455 176.138 187.228 427.516
790 0 178.387 14.1098 2517 151.802 186.532 424.959
791 0 187.251 14.4619 2708 169.002 184.7 420.179
792 0 194.284 14.4222 2802 161.483 187.118 417.725
793 0 202.32 14.2003 2873 166.52 187.08 413.895
794 0 210.326 14.3254 3013 166.82 187.474 409.118
795 0 219.405 14.2567 3128 168.587 185.952 406.11
796 1 51.0436 12.0289 614 155.647 187.59 489.995
797 0 53.1597 12.5283 666 158.943 189.084 488.688
798 0 56.1592 12.2687 689 153.28 189.064 487.508
799 0 57.2469 12.1229 694 149.633 187.718 486.464
800 0 60.241 12.5662 757 152.436 188.609 485.952
801 0 61.0978 12.57 768 155.158 188.292 485.302
802 0 64.0856 12.4833 800 152.181 187.414 483.926
803 0 67.0577 12.273 823 149.582 188.903 482.391
804 0 67.0949 12.8624 863 153.611 186.687 482.039
805 0 71.0474 12.3298 876 159.93 186.793 480.887
806 0 71.0546 12.9619 921 156.52 185.368 480.644
807 0 74.1669 12.6876 941 157.655 185.823 478.544
808 0 76.0954 12.642 962 150.034 187.194 477.586
809 1 39.0517 11.3439 443 148.454 186.3 495.625
810 0 41.0546 12.0571 495 150.517 187.046 496.143
811 0 41.0663 12.2972 505 141.004 187.972 496.061
812 0 41.0558 12.69 521 149.774 188.303 495.461
813 0 45.0292 12.4142 559 145.444 188.222 494.776
814 0 44.1231 12.3745 546 151.615 187.317 494.11
815 0 47.0459 12.541 590 151.864 188.193 493.593
816 0 46.0807 12.9772 598 154.577 187.542 493.562
817 0 49.083 12.815 629 158.89 187.134 493.283
818 0 49.1019 12.8305 630 157.186 186.878 492.487
819 0 51.1386 13.043 667 159.838 186.715 491.735
820 0 53.0405 13.1786 699 160.109 186.504 490.76
821 0 54.1299 13.3568 723 163.116 187.355 490.521
822 0 56.1502 13.357 750 158.029 188.337 489.427
823 0 56.1375 13.7698 773 161.799 189.724 488.507
824 0 59.1056 13.3321 788 166.301 188.242 488.03
825 0 59.2251 14.0819 834 166.223 188.191 486.825
826 0 62.1727 13.7359 854 164.012 187.39 485.938
827 0 64.0938 13.9327 893 164.841 188.094 484.791
828 0 63.1329 14.5408 918 163.816 188.423 484.458
829 0 67.1454 14.1782 952 166.602 187.942 482.924
830 0 69.3217 14.2524 988 165.123 188.629 481.857
831 0 69.1159 14.5697 1007 168.005 188.735 480.67
832 0 73.2405 14.1042 1033 169.227 187.682 479.431
833 0 76.1748 14.3617 1094 169.724 187.335 477.519
834 0 78.1934 14.7711 1155 169.089 186.838 475.489
835 0 81.3305 14.4718 1177 171.38 186.679 474.123
836 0 85.2355 14.3954 1227 169.393 187.393 471.975
837 0 85.2768 14.623 1247 168.169 187.325 470.823
838 0 90.2869 14.3653 1297 170.413 186.303 468.727
839 0 94.2369 14.4211 1359 163.069 187.855 467.398
840 1 49.1526 13.2445 651 168.785 188.716 488.797
841 0 50.1124 13.2901 666 166.075 187.868 487.809
842 0 53.1327 13.4192 713 165.129 188.525 487.205
843 0 54.1337 13.2819 719 171.89 189.21 486.384
844 0 54.1861 13.8227 749 165.864 188.931 485.684
845 0 56.1234 13.8979 780 174.217 187.953 484.818
846 0 59.0428 13.6003 803 172.197 187.827 483.778
847 0 59.0716 14.0846 832 171.293 186.662 483.275
848 0 61.0805 14.2271 869 171.105 187.864 481.705
849 0 65.0243 13.7795 896 169.699 188.818 480.797
850 0 66.0957 13.9343 921 165.675 186.496 479.853
851 0 68.1066 14.1249 962 167.619 188.586 479.155
852 0 70.1082 13.8215 969 162.234 187.255 477.846
853 0 71.0447 14.2727 1014 169.055 186.416 477.172
854 0 74.0684 14.2301 1054 167.519 188.267 475.932
855 0 77.1235 14.1461 1091 166.337 187.379 474.404
856 0 80.1009 14.1946 1137 167.835 186.581 473.509
857 0 83.0757 14.1437 1175 163.296 187.564 472.091
858 0 85.0813 14.0336 1194 162.29 186.862 470.495
859 0 88.2081 14.3184 1263 159.877 186.481 468.428
860 0 91.3663 14.2175 1299 168.592 185.667 467.881
861 0 93.2509 14.1232 1317 164.958 185.215 466.95
862 0 93.2509 14.1232 1317 174.032 184.215 466.95
863 0 101.139 14.218 1438 160.777 186.821 462.978
864 0 104.3 14.1132 1472 162.752 188.516 461.359
865 0 108.253 14.309 1549 162.294 189.094 459.453
866 0 109.191 14.7814 1614 163.138 188.759 457.283
867 0 114.22 14.367 1641 163.555 188.779 455.634
868 0 119.52 14.3406 1714 166.053 188.525 453.246
869 0 123.269 14.2209 1753 163.338 187.94 451.484
870 0 127.247 14.1221 1797 160.351 186.318 449.377
871 0 131.12 14.5287 1905 154.771 188.353 447.359
872 0 138.324 14.2347 1969 162.414 187.506 444.853
873 0 142.151 14.7309 2094 162.536 187.034 442.328
874 0 144.249 14.8286 2139 172.396 186.799 439.833
875 0 151.378 14.4539 2188 168.045 185.519 437.802
876 0 156.172 14.6249 2284 171.404 189.639 435.287
877 0 162.277 14.7957 2401 171.02 188.754 432.557
878 0 166.297 14.7207 2448 174.246 187.908 430.096
879 0 170.331 14.9944 2554 169.343 188.045 427.937
880 0 178.354 14.9086 2659 169.338 188.296 424.508
881 0 183.291 14.9598 2742 170.871 187.325 422.175
882 0 189.451 15.2282 2885 169.197 187.972 419.021
883 0 195.264 15.2204 2972 169.733 187.361 416.53
884 0 200.309 14.9369 2992 169.261 186.877 413.898
885 0 205.271 15.2384 3128 162.112 185.491 410.462
886 0 209.182 15.2164 3183 166.819 186.655 408.358
887 0 216.323 15.255 3300 169.458 187.123 404.296
888 0 223.304 15.5259 3467 162.557 188.421 401.335
889 0 229.293 15.4737 3548 167.981 187.52 398.302
890 0 233.266 15.4759 3610 164.42 186.377 394.995
891 0 241.455 15.6095 3769 164.332 186.805 391.071
892 0 247.373 15.4342 3818 163.592 185.428 387.34
893 0 255.426 15.5309 3967 162.762 186.065 383.778
894 0 263.454 15.7598 4152 166.279 187.443 379.617
895 0 267.551 15.8176 4232 162.876 186.863 375.866
896 0 273.49 15.5216 4245 157.817 187.011 372.436
897 0 280.537 15.866 4451 162.592 187.57 369.335
898 0 287.46 15.3273 4406 160.602 187.024 365.315
899 0 294.756 15.7588 4645 167.653 186.323 362.219
900 0 301.52 15.5844 4699 162.571 186.548 358.038
901 0 308.369 15.6047 4812 165.6 186.458 354.612
902 0 314.651 15.487 4873 164.924 186.746 351.625
903 0 321.446 15.7351 5058 164.446 185.933 348.264
904 0 328.555 15.7051 5160 162.449 185.387 345.079
905 0 334.577 15.533 5197 163.674 186.48 341.042
906 0 341.428 15.5787 5319 161.537 187.886 337.898
907 0 349.69 15.5881 5451 166 185.594 334.521
908 0 356.49 15.8181 5639 163.55 187.428 331.721
909 0 363.786 15.5119 5643 165.039 186.826 327.197
910 0 370.041 15.4469 5716 156.394 187.951 323.14
911 0 377.932 15.5001 5858 164.907 186.15 319.167
912 0 384.892 15.4901 5962 163.829 186.556 316.163
913 0 392.797 15.5373 6103 157.065 185.131 308.449
914 0 397.95 15.6678 6235 152.86 184.362 307.251
915 0 406.107 15.4688 6282 159.856 185.462 305.448
916 0 412.24 15.263 6292 159.058 185.04 301.354
917 0 419.154 15.4549 6478 154.538 186.738 297.551
918 0 414.148 15.8132 6549 156.829 185.075 289.484
919 0 0 0 0 -nan -nan -nan
920 0 54.3521 57.1459 3106 23.3419 177.187 583.639
921 1 29.4154 57.589 1694 22.1812 172.362 594.373
922 0 44.6543 35.2038 1572 21.869 172.175 594.857
923 0 24.4141 68.444 1671 21.31 165.118 594.629
