index division length width area intensity CMx CMy
0 0 54.1601 14.9372 809 168.005 334.748 492.901
1 0 58.0729 14.654 851 172.42 334.415 491.75
2 0 60.0692 14.9661 899 172.839 335.455 490.838
3 0 61.1431 14.6869 898 174.843 335.67 491.517
4 0 63.2279 14.9301 944 170.186 336.397 489.26
5 0 65.1524 15.011 978 164.919 337.975 489.091
6 0 65.1068 15.6051 1016 169.167 336.555 489.068
7 0 70.0775 14.9406 1047 168.323 336.063 488.702
8 0 73.2087 14.5338 1064 162.65 336.082 488.31
9 0 75.1252 14.9218 1121 171.757 336.345 488.422
10 0 77.237 15.0705 1164 171.604 336.61 488.159
11 0 80.2418 15.0296 1206 171.163 332.192 487.359
12 0 82.2005 14.8783 1223 171.673 332.697 487.007
13 0 86.2799 14.847 1281 172.329 330.367 486.483
14 1 44.1588 13.4741 595 180.316 333.297 506.766
15 0 45.1039 13.5465 611 172.08 333.861 506.488
16 0 47.0883 13.6764 644 175.543 333.842 506.62
17 0 48.1647 13.7445 662 176.082 333.171 505.631
18 0 49.1454 13.9993 688 175.685 332.081 505.14
19 0 51.1186 13.3807 684 175.728 331.133 504.494
20 0 54.0783 13.7208 742 180.477 329.84 504.028
21 0 53.2039 14.2847 760 174.808 329.812 503.368
22 0 58.1038 13.8201 803 176.239 329.659 502.438
23 0 59.3057 13.9447 827 175.115 329.933 501.52
24 0 61.1998 13.9053 851 171.565 330.825 499.439
25 0 63.286 13.8103 874 171.786 331.133 498.406
26 0 66.192 13.8838 919 175.916 330.45 496.464
27 0 69.2464 13.9069 963 168.803 329.448 494.793
28 0 71.1968 13.9051 990 163.355 329.006 493.067
29 0 72.3006 14.1354 1022 170.768 330.204 491.324
30 0 75.3194 13.7017 1032 170.317 330.334 488.453
31 0 79.1703 13.8309 1095 168.013 330.254 485.868
32 0 82.353 13.6364 1123 165.481 331.36 483.964
33 0 85.3794 13.4927 1152 164.252 331.484 480.204
34 1 45.2173 12.0529 545 168.062 333.631 498.727
35 0 44.2508 12.497 553 156.382 335.009 497.257
36 0 46.2881 12.7679 591 152.181 334.614 494.848
37 0 49.2033 12.1943 600 150.587 336.307 494.083
38 0 52.2663 12.5128 654 154.459 335.859 492.621
39 0 52.1358 12.9278 674 149.886 335.154 491.39
40 0 53.189 12.9162 687 146.281 335.607 490.406
41 0 56.1526 12.4126 697 141.133 337.288 489.218
42 0 59.1234 12.5331 741 153.177 336.861 487.895
43 0 61.1707 12.9964 795 148.303 337.091 487.143
44 0 62.1356 13.1648 818 156.293 337.377 486.802
45 0 64.1565 13.3268 855 153.86 336.961 486.421
46 0 67.1667 12.8486 863 157.217 334.64 485.13
47 0 68.1956 13.5053 921 157.132 335.661 484.071
48 0 71.187 13.4013 954 155.074 337.301 483.755
49 0 74.1853 13.5876 1008 172.239 337.847 483.137
50 0 76.2269 13.5385 1032 168.918 337.568 483.09
51 0 78.2768 13.8228 1082 173.327 337.092 482.492
52 0 82.3226 13.4835 1110 169.371 335.856 482.023
53 0 84.1652 13.5448 1140 171.299 335.909 481.636
54 0 87.3109 13.7898 1204 176.566 334.449 480.767
55 0 90.2659 13.6264 1230 162.426 334.439 478.84
56 0 93.3387 13.3278 1244 167.736 335.605 478.289
57 0 98.2562 13.6684 1343 168.962 334.608 476.602
58 0 101.307 13.6516 1383 168.756 335.187 474.967
59 0 105.44 13.4674 1420 165.08 333.157 472.466
60 0 109.433 13.4603 1473 167.913 332.817 471.529
61 0 113.305 13.6623 1548 166.975 333.202 468.489
62 1 58.3245 12.3962 723 159.56 334.512 495.279
63 0 60.3239 12.3334 744 164.012 333.884 494.501
64 0 62.1566 12.9512 805 161.703 336.176 492.963
65 0 63.3311 13.0742 828 152.821 333.232 491.698
66 0 66.3587 13.1256 871 169.758 334.2 490.07
67 0 69.3055 13.188 914 155.561 333.399 488.687
68 0 71.3006 12.819 914 168.118 333.27 488.023
69 0 73.2375 13.7771 1009 170.882 333.049 486.138
70 0 77.3686 13.1707 1019 166.578 333.464 484.628
71 0 78.3127 13.5099 1058 165.048 334.351 482.467
72 0 83.3704 13.41 1118 171.498 332.791 480.983
73 0 86.4325 12.7036 1098 163.454 333.987 478.849
74 0 89.4636 13.3127 1191 164.247 334.898 476.458
75 0 93.2564 13.1358 1225 164.13 333.528 474.045
76 0 97.3299 13.2333 1288 164.689 333.78 472.71
77 0 101.3 12.9911 1316 166.109 335.391 470.778
78 1 54.3835 11.9154 648 167.654 334.631 493.395
79 0 58.4029 11.9686 699 163.914 335.282 491.924
80 0 56.2751 12.9187 727 161.735 336.769 490.382
81 0 61.2515 12.3099 754 168.29 335.046 490.077
82 0 62.1703 12.5462 780 169.713 336.792 488.569
83 0 64.4818 12.4686 804 167.471 338.984 487.428
84 0 67.2707 12.3828 833 169.199 337.224 486.23
85 0 70.241 12.4144 872 170.373 336.846 485.411
86 0 72.5784 12.5519 911 167.459 337.348 483.939
87 0 73.2961 12.7565 935 164.714 335.024 482.973
88 0 76.3331 12.7075 970 166.633 334.985 481.502
89 0 79.1782 12.6803 1004 170.567 335.077 480.811
90 0 82.231 12.5622 1033 164.046 335.12 479.585
91 0 85.3981 12.6701 1082 165.086 335.697 477.927
92 0 86.3772 12.9317 1117 159.68 337.456 476.06
93 0 90.24 13.0208 1175 164.066 335.383 474.814
94 0 93.3719 12.9482 1209 163.993 334.86 473.286
95 0 96.3661 12.7327 1227 162.933 335.261 472.315
96 1 52.2453 11.1206 581 160.435 335.892 494.959
97 0 54.2243 11.895 645 156.195 335.445 493.487
98 0 56.1821 11.8721 667 159.099 333.933 492.646
99 0 58.262 11.6542 679 156.04 333.518 492.498
100 0 57.2833 12.2549 702 156.081 335.617 491.434
101 0 59.1849 12.3004 728 150.102 336.161 490.224
102 0 62.2177 12.1991 759 156.659 334.586 489.216
103 0 64.1841 12.1214 778 154.566 334.432 488.663
104 0 65.2127 12.2369 798 157.555 332.833 487.897
105 0 67.2042 12.5439 843 149.427 332.711 486.431
106 0 69.3173 12.2769 851 148.723 333.367 485.761
107 0 71.2544 12.5326 893 151.691 335.128 484.281
108 0 74.2605 12.4562 925 149.59 334.703 482.206
109 0 75.1787 12.61 948 149.788 334.985 481.686
110 0 77.3513 12.2558 948 151.495 334.115 480.491
111 0 81.2309 12.4337 1010 151.73 335.13 479.003
112 0 83.2492 12.4326 1035 153.172 334.761 477.439
113 0 86.244 12.4762 1076 151.796 335.101 475.523
114 1 46.3271 10.5554 489 146.679 335.546 495.56
115 0 47.2065 11.1425 526 150.928 335.15 494.405
116 0 49.1827 11.2438 553 147.642 335.895 493.597
117 0 51.2427 11.5724 593 147.556 336.346 492.157
118 0 51.2046 11.8544 607 143.133 336.155 491.287
119 0 52.2296 11.9856 626 142.134 336.519 490.27
120 0 56.215 11.5805 651 142.04 337.74 488.871
121 0 57.2497 11.9826 686 144.993 337.679 488.267
122 0 58.2532 12.068 703 147.364 339.108 488.053
123 0 60.1925 12.0281 724 146.972 337.279 486.796
124 0 61.3882 12.3151 756 146.138 337.742 486.05
125 0 63.2917 12.6241 799 142.521 336.427 484.603
126 0 65.3138 12.7844 835 145.911 336.469 484.176
127 0 67.3105 12.5241 843 143.998 337.979 483.197
128 0 70.3187 13.1259 923 146.112 337.633 481.862
129 0 72.5117 12.4669 904 147.232 336.871 480.778
130 0 73.2488 12.6965 930 148.478 335.659 479.811
131 0 76.2951 12.8187 978 147.724 336.043 479.157
132 0 78.1655 12.7678 998 148.425 334.776 477.26
133 0 82.3739 12.5161 1031 149.171 334.571 475.92
134 0 85.3627 12.8159 1094 146.766 335.245 474.203
135 0 86.4304 13.2708 1147 148.902 335.054 473.111
136 0 88.3422 13.1647 1163 148.559 337.923 471.666
137 0 92.2525 13.2679 1224 145.761 336.258 470.038
138 0 95.2883 13.3909 1276 149.853 335.625 468.111
139 0 101.208 12.9436 1310 144.256 335.128 466.865
140 1 52.1555 10.7371 560 154.941 336.65 491.561
141 0 55.2012 11.2316 620 152.911 336.006 490.808
142 0 57.119 11.7474 671 155.232 335.319 489.897
143 0 58.1908 12.1153 705 154.112 335.54 488.698
144 0 60.2378 12.102 729 152.521 334.536 487.593
145 1 75.1971 13.0457 981 164.024 335.767 479.675
146 0 76.285 13.1087 1000 157.829 334.744 478.95
147 0 78.4167 12.7906 1003 160.527 334.862 478.632
148 0 80.3162 13.2352 1063 164.889 335.584 476.806
149 0 83.3128 13.1672 1097 164.613 334.27 475.843
150 0 85.3036 13.2468 1130 164.122 334.586 475.043
151 0 88.3077 13.3171 1176 159.548 334.945 473.489
152 0 92.2722 13.2759 1225 160.125 334.897 472.401
153 0 95.228 13.0844 1246 160.623 334.443 470.973
154 0 96.2818 13.3566 1286 158.282 334.058 469.512
155 0 98.2358 13.5083 1327 162.54 334.832 467.953
156 0 102.319 13.194 1350 164.099 333.73 467.198
157 0 104.245 13.4204 1399 167.74 333.399 465.147
158 0 108.338 13.3748 1449 163.34 334.324 464.139
159 0 111.299 13.3783 1489 161.241 335.551 461.125
160 0 115.353 13.463 1553 170.005 336.073 460.062
161 1 63.2318 11.703 740 162.673 336.262 487.096
162 0 66.2615 11.9979 795 162.757 336.523 486.42
163 0 67.2204 12.4367 836 161.742 335.385 485.964
164 0 69.391 12.408 861 168.791 335.254 485.28
165 0 71.189 12.3755 881 167.347 332.776 484.198
166 0 73.2664 12.3112 902 166.253 336.7 483.55
167 0 75.1581 12.4138 933 162.652 335.764 482.626
168 0 78.1524 12.3349 964 164.052 335.096 480.944
169 0 81.301 12.2016 992 164.037 334.202 480.195
170 0 84.2479 12.5344 1056 164.552 335.264 478.396
171 0 87.1752 12.3544 1077 158.946 334.673 477.076
172 0 89.2568 12.5929 1124 157.47 334.84 474.848
173 0 90.245 12.8206 1157 151.795 334.172 473.596
174 1 48.1149 10.4333 502 153.424 335.966 497.177
175 0 50.3368 10.4695 527 147.949 335.378 496.579
176 0 51.2045 11.1904 573 149.442 335.525 495.424
177 0 53.2831 11.1855 596 156.728 334.795 494.48
178 0 53.3767 11.2221 599 159.765 335.351 494.715
179 0 54.4198 11.595 631 156.352 335.525 493.162
180 0 55.389 11.8796 658 161.733 336.483 492.853
181 0 56.3981 11.9508 674 153.85 333.414 491.607
182 0 61.2072 11.6816 715 161.456 335.705 491.324
183 0 61.2605 11.9 729 155.628 336.211 490.365
184 0 62.2551 12.0151 748 155.472 335.035 489.344
185 0 64.2985 12.0376 774 157.664 335.612 488.477
186 0 67.3188 12.2848 827 158.698 336.531 486.667
187 0 70.3762 11.7227 825 155.048 335.308 485.907
188 0 72.262 11.7074 846 149.966 336.141 484.287
189 0 73.1953 12.1593 890 153.158 336.452 482.717
190 0 76.2836 11.7457 896 150.557 336.952 482.084
191 0 78.2882 12.173 953 160.641 336.906 480.979
192 0 79.484 12.3421 981 149.257 338.219 479.295
193 0 83.4284 12.1781 1016 152.463 337.967 478.127
194 0 86.2948 12.0517 1040 152.62 335.795 476.748
195 0 90.3148 11.9582 1080 154.757 337.095 475.496
196 0 92.244 12.12 1118 155.076 336.055 473.886
197 1 48.0954 10.5 505 146.05 337.55 494.125
198 0 50.0459 10.6302 532 146.233 337.994 493.513
199 0 52.0487 10.9321 569 147.141 337.425 492.163
200 0 52.0324 11.2238 584 145.125 335.991 491.634
201 0 54.0132 11.5342 623 144.467 338.576 490.727
202 0 55.0522 11.4618 631 146.293 338.464 490.011
203 0 58.014 11.7041 679 148.857 337.056 489.337
204 0 57.0342 11.9753 683 143.561 336.209 487.154
205 0 61.1314 11.5325 705 150.918 335.827 486.359
206 0 63.0329 11.8986 750 145.177 335.845 485.123
207 0 64.0962 12.3876 794 152.7 336.336 483.508
208 0 67.045 12.0367 807 152.888 337.237 483.316
209 0 69.0866 11.7678 813 150.244 338.545 481.718
210 0 71.1915 11.9115 848 79.4917 335.802 480.236
211 0 74.1636 11.7308 870 155.143 337.024 479.385
212 0 76.1153 11.7847 897 156.774 337.899 478.04
213 0 79.1428 12.1173 959 159.392 336.678 476.234
214 0 81.1297 12.5108 1015 156.733 337.2 474.351
215 1 46.0964 10.1526 468 149.528 336.707 493.84
216 0 45.1763 11.0235 498 151.502 336.741 491.783
217 0 47.0947 11.5724 545 151.468 336.451 491.022
218 0 49.221 11.5804 570 149.218 338.026 490.279
219 0 51.2697 11.6443 597 151.91 338.208 489.668
220 0 52.2143 11.9316 623 150.546 335.917 488.745
221 0 54.1507 11.5234 624 147.793 335.989 487.83
222 0 55.1914 11.741 648 152.864 336.938 487.154
223 0 58.1346 12.1098 704 151.233 336.435 485.322
224 0 59.103 11.9791 708 149.284 338.517 484.825
225 0 61.1313 12.1051 740 149.434 335.069 484.123
226 0 62.0893 12.4659 774 149.567 334.997 482.528
227 0 65.144 12.173 793 146.889 336.301 481.45
228 0 67.1803 12.1762 818 143.142 334.642 479.973
229 0 68.1525 12.4427 848 147.317 336.894 478.948
230 0 70.2211 12.8309 901 150.595 337.008 477.648
231 0 74.1113 12.5352 929 152.779 336.753 476.285
232 0 77.1327 12.485 963 150.992 337.553 474.784
233 0 79.2804 12.6765 1005 149.994 337.993 473.356
234 0 82.224 13.0619 1074 152.587 338.024 472.207
235 1 41.0347 10.8445 445 158.117 335.796 494.117
236 0 40.2618 11.45 461 152.065 337.425 493.388
237 0 44.213 11.422 505 156.154 336.624 493.285
238 0 44.3552 11.2276 498 157.088 336.333 493.159
239 0 44.2179 12.0539 533 156.298 339.722 492.251
240 0 46.3825 12.0951 561 160.424 335.54 491.701
241 0 48.3026 11.9041 575 162.628 337.17 490.664
242 0 49.1611 12.2455 602 158.246 338.008 489.686
243 0 50.1768 12.0972 607 159.755 337.748 489.282
244 0 53.2202 12.1382 646 162.687 338.619 488.32
245 0 53.2308 12.0795 643 162.017 337.176 487.571
246 0 55.2845 12.2638 678 158.448 337.239 487.258
247 0 55.3143 12.2391 677 158.408 337.427 485.997
248 0 56.1798 12.7092 714 146.69 339.644 485.464
249 0 59.2239 12.3936 734 156.857 336.753 483.826
250 0 61.3304 12.4245 762 157.953 337.516 483.268
251 0 61.1234 12.7774 781 154.393 335.828 482.68
252 0 64.1279 12.3971 795 140.747 338.409 481.887
253 0 66.1 12.5719 831 147.445 337.923 480.505
254 0 69.262 12.8642 891 155.492 338.238 480.013
255 0 68.2929 13.1785 900 153.736 335.254 479.002
256 0 73.1063 12.516 915 153.668 336.019 477.877
257 0 74.089 13.0519 967 159.41 334.663 476.672
258 0 77.2882 12.6928 981 150.793 334.501 475.304
259 0 79.1509 13.3416 1056 156.217 336.305 473.08
260 0 81.2959 12.6698 1030 156.976 336.736 472.485
261 0 84.2547 12.8895 1086 156.092 335.251 470.855
262 0 88.3178 13.0325 1151 159.928 337.567 469.172
263 0 90.2274 12.9672 1170 150.217 336.882 468.499
264 1 50.1916 11.2369 564 156.885 335.027 489.601
265 0 50.2499 11.6617 586 153.855 336.474 489.111
266 0 51.2528 12.0774 619 151.809 336.029 487.903
267 0 54.1707 11.9437 647 155.076 335.62 487.467
268 0 55.265 11.9425 660 155.109 334.486 486.747
269 0 57.2431 12.3508 707 157.383 335.586 485.489
270 0 59.2544 12.1341 719 158.163 336.292 485.264
271 0 58.2233 12.5551 731 158.752 336.29 484.661
272 0 61.2519 12.3261 755 152.764 336.028 483.189
273 0 62.3484 12.5905 785 148.808 335.418 482.303
274 0 63.192 12.3908 783 155.086 336.465 481.867
275 0 65.3256 12.9046 843 152.173 335.789 480.651
276 0 69.4615 12.4098 862 144.899 335.278 478.86
277 0 72.4929 12.1943 884 152.031 336.208 478.656
278 0 74.463 12.6371 941 144.433 337.13 476.532
279 0 76.5215 12.4802 955 146.068 336.349 475.84
280 0 80.3605 12.6181 1014 151.872 336.169 475.087
281 1 42.2829 10.548 446 149.247 336.361 493.901
282 0 44.2296 10.4229 461 148.21 336.384 493.881
283 0 44.3561 10.9568 486 145.025 335.916 493.233
284 0 46.2196 11.3588 525 140.821 336.922 493.107
285 0 46.2925 11.8378 548 144.409 336.354 492.418
286 0 47.1845 11.8259 558 144.22 335.181 492.33
287 0 50.3572 12.0936 609 145.911 336.616 491.762
288 0 51.203 11.6985 599 149.114 335.584 491.917
289 0 51.203 11.6985 599 155.336 334.584 491.917
290 0 54.3908 12.2079 664 147.041 337.623 491.035
291 0 55.2581 12.0525 666 141.599 336.623 490.014
292 0 56.3615 12.4021 699 144.707 335.298 488.542
293 0 58.3181 12.5004 729 145.956 336.14 487.639
294 0 59.187 12.6548 749 148.192 337.093 486.724
295 0 61.2583 12.733 780 146.299 336.801 485.814
296 0 63.2498 12.6483 800 145.458 338.01 485.338
297 0 65.3332 12.7959 836 145.657 337.325 484.199
298 0 67.4778 12.5819 849 143.186 337.976 483.014
299 0 69.3595 13.2065 916 147.017 336.104 482.126
300 0 70.1428 12.8167 899 147.029 336.073 481.285
301 0 72.3551 13.0882 947 141.963 336.55 480.1
302 0 76.3827 12.9218 987 147.489 336.584 478.573
303 0 78.3092 12.7954 1002 142.492 335.788 477.06
304 0 82.5245 12.4327 1026 145.538 336.596 475.712
305 0 84.4181 12.4263 1049 144.983 335.561 474.285
306 1 43.2068 10.415 450 146.351 335.822 495.424
307 0 44.3163 10.8087 479 149.376 337.645 494.745
308 0 46.2736 11.2591 521 148.67 337.514 494.198
309 0 47.2942 11.5659 547 149.148 337.207 493.479
310 0 48.3418 12.2048 590 151.314 338.351 493.139
311 0 50.2928 12.0295 605 153.664 338.461 491.562
312 0 53.334 11.9999 640 149.466 338.373 491.202
313 0 53.255 12.3556 658 152.558 337.421 490.746
314 0 56.2233 12.2725 690 156.168 336.604 489.642
315 0 55.2967 12.5143 692 156.415 337.212 489.52
316 0 58.2622 12.4266 724 158.61 338.189 488.334
317 0 59.2959 12.6653 751 159.855 335.362 487.527
318 0 60.2759 12.7912 771 161.617 337.952 486.569
319 0 63.3487 12.7232 806 160.821 335.87 484.731
320 0 65.151 12.448 811 156.223 337.845 484.774
321 0 67.251 12.55 844 161.694 337.423 483.743
322 0 69.2178 12.7857 885 154.261 338.089 482.551
323 0 70.2696 13.3913 941 152.881 337.781 481.149
324 0 73.372 12.8251 941 157.128 336.328 479.303
325 0 77.2504 12.699 981 161.749 337.186 478.444
326 0 77.2688 13.2136 1021 149.916 337.055 476.867
327 0 80.2686 12.807 1028 160.472 337.396 476.056
328 0 83.2022 13.2929 1106 155.769 338.038 474.079
329 0 84.2381 13.2007 1112 159.481 337.1 473.722
330 0 87.4115 12.9502 1132 160.237 339.089 471.958
331 0 91.2307 13.1863 1203 160.769 337.438 470.376
332 0 93.2214 13.3982 1249 161.79 337.151 469.371
333 0 96.2646 13.2551 1276 159.586 337.52 467.504
334 0 98.2392 13.345 1311 162.282 337.786 465.618
335 0 100.199 13.5331 1356 163.397 336.826 464.038
336 0 105.332 13.3862 1410 167.199 336.561 463.019
337 0 107.261 13.4532 1443 167.031 338.172 460.809
338 0 110.213 13.737 1514 163.031 337.148 458.9
339 0 113.214 13.6733 1548 169.293 336.014 457.442
340 0 116.25 13.4795 1567 165.276 337.77 455.493
341 0 121.264 13.6809 1659 163.572 337.878 453.24
342 0 127.242 13.2739 1689 170.259 337.102 450.652
343 0 131.207 13.7874 1809 167.306 336.577 448.407
344 0 136.208 13.8024 1880 166.918 336.043 445.774
345 0 140.171 13.5834 1904 167.902 336.255 443.315
346 1 73.127 12.0339 880 166.358 336.3 476.943
347 0 76.1153 12.0081 914 159.679 337.362 475.701
348 0 77.1242 12.253 945 168.663 337.836 474.549
349 0 81.1314 12.2764 996 165.242 336.501 473.082
350 0 83.0779 12.6628 1052 162.536 336.501 470.695
351 0 86.1942 12.263 1057 165.075 337.062 469.289
352 0 88.1455 12.4794 1100 161.193 337.265 467.835
353 0 92.1223 12.8525 1184 160.519 335.432 465.322
354 0 96.1046 12.5384 1205 164.374 336.428 464.334
355 0 98.2566 12.4674 1225 153.691 336.165 462.941
356 0 101.218 12.3397 1249 160.969 334.825 461.928
357 1 55.0749 10.2951 567 147.797 337.178 483.771
358 0 57.1948 11.2598 644 150.5 336.016 482.716
359 0 59.144 11.7172 693 155.403 336.222 481.657
360 0 60.2097 11.8087 711 148.44 334.879 481.297
361 0 64.1695 11.6255 746 149.304 336.454 480.382
362 0 63.2519 12.221 773 147.314 335.697 478.109
363 0 67.0729 12.1062 812 145.273 335.855 477.425
364 0 70.2162 11.7494 825 148.835 336.393 475.893
365 0 72.2145 12.0613 871 146.101 337.226 473.983
366 0 76.1057 12.0884 920 152.101 338.08 472.547
367 0 77.2371 12.2998 950 148.692 337.842 471.263
368 0 78.2283 12.2079 955 139.155 337.363 471.065
369 0 81.1381 12.1891 989 148.392 337.283 470.122
370 0 85.1431 12.4144 1057 151.922 336.555 467.682
371 0 87.1911 12.7307 1110 149.363 336.726 466.513
372 0 91.163 12.6477 1153 147.467 336.536 464.213
373 0 94.1544 13.0424 1228 159.367 336.727 463.25
374 0 97.2026 12.582 1223 150.171 337.103 461.524
375 0 99.2191 13.1023 1300 150.23 338.357 459.167
376 1 53.0799 10.5313 559 153.234 338.85 484.243
377 0 55.0963 11.0897 611 154.465 337.807 484.007
378 0 57.15 11.3561 649 154.015 338.254 483.8
379 0 57.1599 11.774 673 154.464 339.322 483.354
380 0 60.1932 11.2139 675 156.751 336.692 482.356
381 0 60.1549 11.6366 700 153.663 337.379 481.986
382 0 61.2671 11.7681 721 153.305 337.624 480.534
383 0 63.201 12.1042 765 154.358 335.736 479.778
384 0 66.1465 11.8676 785 151.405 337.213 478.496
385 0 68.2259 12.0922 825 155.994 335.914 477.845
386 0 70.2343 12.202 857 104.519 336.091 476.627
387 0 72.3245 12.1397 878 154.384 335.82 475.705
388 0 73.2019 12.3904 907 154.59 335.051 474.314
389 0 75.3162 12.2683 924 154.692 335.769 473.29
390 0 79.2761 12.0591 956 151.431 335.846 472.153
391 0 81.2467 12.4067 1008 151.573 335.473 470.245
392 0 83.2177 12.3772 1030 154.879 336.062 469.442
393 0 86.3068 12.3976 1070 154.557 335.601 467.861
394 0 90.1405 12.3807 1116 152.911 335.961 466.98
395 0 91.1719 12.5038 1140 150.76 334.079 465.069
396 1 48.2487 10.4252 503 150.467 336.083 488.336
397 0 48.1752 10.9392 527 143.59 335.345 487.761
398 0 50.2579 11.3813 572 143.642 334.392 486.612
399 0 50.3556 11.2202 565 149.536 335.03 486.754
400 0 51.2918 11.1129 570 147.807 335.526 486.705
401 0 53.3816 11.4646 612 148.544 335.66 486.461
402 0 53.31 11.6676 622 146.691 336.339 485.818
403 0 54.2804 12.1222 658 148.579 334.125 484.884
404 0 57.3682 11.156 640 151.911 335.817 484.911
405 0 60.3612 11.4974 694 147.092 336.242 483.958
406 0 61.2128 12.089 740 147.882 336.209 482.622
407 0 62.3234 11.9698 746 148.358 336.095 482.374
408 0 64.2375 11.8155 759 149.2 336.759 481.771
409 0 67.146 12.2122 820 152.02 335.605 480.271
410 0 66.2057 12.3252 816 154.233 335.393 480.431
411 0 70.2073 12.2637 861 151.44 335.801 479.36
412 0 71.2146 12.1885 868 150.295 336.863 477.903
413 0 74.2538 12.2687 911 150.335 336.496 476.127
414 0 75.174 12.7704 960 151.392 336.016 475.389
415 0 80.1929 12.0335 965 152.051 336.266 474.533
416 0 82.2302 12.392 1019 150.58 336.865 473.232
417 0 83.2312 12.6275 1051 150.918 334.985 472.019
418 0 87.2794 12.523 1093 152.695 336.258 469.821
419 0 90.2663 12.8952 1164 152.72 336.135 469.011
420 0 93.1648 13.2883 1238 152.821 336.503 466.4
421 0 96.2058 12.4733 1200 156.862 335.591 466.16
422 0 99.2757 12.7524 1266 159.259 335.331 464.156
423 0 103.17 12.9107 1332 159.175 335.358 461.884
424 0 106.21 12.6824 1347 159.31 335.665 460.32
425 0 110.18 13.006 1433 152.932 336.796 458.596
426 1 58.0647 10.7983 627 150.679 336.955 484.939
427 0 59.1108 11.3854 673 146.183 335.013 484.114
428 0 61.2683 11.3599 696 156.501 337.333 482.843
429 0 63.118 11.7874 744 152.406 336.129 482.504
430 0 65.1305 11.6535 759 151.764 335.108 480.846
431 0 66.1344 11.7337 776 154.144 335.3 479.71
432 0 69.1214 12.0223 831 142.951 333.898 478.775
433 0 71.1956 11.5457 822 154.751 336.085 477.906
434 0 72.1904 12.3701 893 153.217 336.801 476.161
435 0 74.1215 12.1827 903 153.813 335.895 475.514
436 0 76.1188 12.2046 929 155.845 336.089 473.999
437 0 80.1325 11.8803 952 145.229 335.543 472.454
438 0 83.1491 11.8221 983 148.447 334.282 470.826
439 1 44.0417 9.64995 425 147.678 335.864 490.541
440 0 45.0416 9.85756 444 149.669 336.146 489.905
441 0 45.0356 10.5916 477 143.273 335.212 488.893
442 0 49.0154 10.6905 524 139.113 336.055 487.92
443 0 48.0164 11.7668 565 142.331 335.915 487.559
444 0 51.1666 11.1596 571 142.767 336.263 487.778
445 0 52.1959 11.8017 616 138.453 337.078 486.261
446 0 54.1231 11.5847 627 143.944 337.198 485.648
447 0 53.1433 12.0617 641 134.105 336.076 484.399
448 0 57.1313 11.7624 672 134.487 335.414 482.932
449 0 57.1574 11.897 680 144.215 334.112 482.887
450 0 58.2079 11.9915 698 137.956 336.054 481.855
451 0 61.1804 12.0463 737 139.114 335.525 480.602
452 0 61.2189 11.9081 729 139.158 333.235 479.317
453 0 65.2297 12.111 790 141.927 335.329 479.22
454 0 66.0956 12.2399 809 143.532 335.272 477.712
455 0 68.0955 12.2916 837 137.748 336.228 476.142
456 0 71.1919 12.3469 879 137.358 336.052 475.511
457 0 71.1064 12.7696 908 139.086 337.313 473.836
458 0 74.0688 12.6099 934 141.065 336.171 473.091
459 0 75.0876 12.8117 962 141.795 335.294 471.72
460 0 78.1637 12.8704 1006 142.413 335.663 469.898
461 0 80.2633 12.9698 1041 142.854 334.027 468.824
462 0 82.2622 12.9829 1068 139.131 334.982 466.356
463 0 85.1429 12.7198 1083 145.392 334.986 466.25
464 0 89.0947 12.8403 1144 139.537 334.733 463.985
465 0 93.2546 12.7179 1186 147.257 334.526 463.281
466 1 50.0726 11.0639 554 150.511 336.029 484.058
467 0 52.1354 11.3934 594 147.406 335.18 482.582
468 0 53.0781 11.9447 634 145.926 334.768 482.446
469 0 56.0726 12.1271 680 152.632 335.259 482.263
470 0 56.1426 12.0051 674 152.218 335.608 481.734
471 0 56.1184 12.4915 701 155.518 335.696 480.796
472 0 59.1192 12.4156 734 155.01 335.903 479.692
473 0 63.1782 12.5043 790 158.485 334.92 479.225
474 0 64.2861 12.5688 808 159.639 335.531 478.509
475 0 64.1954 12.6022 809 157.36 334.674 478.068
476 0 67.188 12.8297 862 158.65 336.959 477.687
477 0 69.2595 12.6914 879 160.234 335.794 475.701
478 0 71.1552 12.9716 923 154.963 337.846 474.35
479 0 72.09 12.7896 922 153.181 337.356 473.55
480 0 74.1605 12.419 921 152.377 335.649 472.418
481 0 77.2273 12.9747 1002 158.459 338.224 470.814
482 0 79.1581 12.6582 1002 153.33 337.159 469.94
483 0 83.1722 12.913 1074 152.294 336.112 468.427
484 0 86.2424 12.662 1092 157.04 337.498 467.844
485 0 89.19 12.7032 1133 155.134 335.135 465.401
486 0 92.3793 12.5136 1156 154.33 335.688 464.644
487 0 94.1706 12.9021 1215 156.621 335.943 462.416
488 1 50.0539 10.7884 540 153.002 335.778 485.213
489 0 51.081 11.4132 583 149.431 335.288 483.906
490 0 52.123 12.4513 649 152.609 336.291 483.305
491 0 55.1775 12.1426 670 155.999 335.227 482.464
492 0 56.3021 12.3441 695 149.954 336.41 481.81
493 0 59.2476 11.8823 704 149.188 336.656 481.088
494 0 60.2181 12.3053 741 146.816 336.301 479.918
495 0 63.2101 12.5138 791 151.731 336.114 479.105
496 0 64.154 12.4856 801 150.119 335.02 478.723
497 0 65.1796 12.4886 814 147.584 334.646 477.233
498 0 66.1732 13.0264 862 150.616 334.986 475.986
499 0 68.1481 12.9864 885 151.854 335.419 474.529
500 0 70.0869 12.5273 878 139.253 336.273 473.609
501 0 72.1789 12.8708 929 148.59 336.727 473.244
502 0 76.1716 12.5112 953 144.898 336.508 471.402
503 0 79.1332 12.599 997 147.999 337.097 469.871
504 0 80.1383 12.9401 1037 144.701 336.586 469.124
505 0 84.1689 12.6175 1062 139.045 336.637 467.339
506 0 86.2433 12.9517 1117 143.562 335.898 466.543
507 0 90.1936 12.6062 1137 147.466 335.931 465.221
508 1 44.1546 10.5765 467 144.465 338.077 487.936
509 0 46.1678 10.96 506 141.607 336.806 486.769
510 0 47.1678 11.6393 549 143.383 335.341 486.428
511 0 48.2091 11.8235 570 133.865 336.353 485.637
512 0 50.169 11.7005 587 136.758 337.143 485.002
513 0 50.2922 12.1689 612 141.258 337.109 484.6
514 0 52.1803 11.8052 616 141.625 335.269 483.557
515 0 52.2252 12.1397 634 136.811 337.697 482.678
516 0 54.1586 12.168 659 140.472 335.384 482.56
517 0 54.1134 12.751 690 130.875 336.755 481.068
518 0 58.1744 12.2391 712 135.774 336.105 480.959
519 0 59.1225 12.0766 714 140.294 335.982 480.412
520 0 59.1203 12.5169 740 144.43 334.778 479.608
521 0 61.1155 12.7955 782 141.994 334.384 478.849
522 0 65.1646 12.4454 811 144.249 335.723 477.703
523 0 66.1629 12.6204 835 145.995 337.202 477.32
524 0 69.2297 12.9858 899 146.613 334.756 476.464
525 0 72.1872 12.9663 936 149.823 335.476 475.11
526 0 73.1085 12.967 948 151.934 334.935 474.822
527 0 76.2226 12.8177 977 153.192 334.449 474.074
528 0 78.1771 12.9322 1011 148.452 334.343 472.719
529 0 79.2215 13.4181 1063 154.805 334.161 471.711
530 0 83.2884 12.8469 1070 145.396 334.178 470.946
531 0 86.2828 13.224 1141 153.653 334.399 469.208
532 0 90.2585 13.14 1186 160.332 335.331 468.503
533 0 89.2598 13.4775 1203 164.973 335.228 467.053
534 0 95.3112 12.9366 1233 165.707 334.387 466.227
535 1 48.084 12.4782 600 162.867 333.512 488.585
536 0 48.1754 12.5583 605 162.506 334.463 488.064
537 0 51.1689 12.4294 636 164.197 334.513 487.483
538 0 51.108 13.0117 665 166.847 336.138 486.355
539 0 55.093 12.6513 697 152.518 335.796 485.482
540 0 56.0993 12.567 705 160.132 337.315 484.461
541 0 59.1222 12.9055 763 163.203 335.921 484.055
542 0 60.0823 12.7658 767 161.498 335.379 483.33
543 0 62.1089 12.9933 807 157.134 335.261 481.68
544 0 63.1102 13.009 821 170.906 336.618 480.458
545 0 65.0667 12.71 827 165.291 337.137 479.913
546 0 68.2167 13.1493 897 166.62 336.555 478.894
547 0 69.0687 13.1319 907 161.198 335.648 477.363
548 0 72.1197 12.9368 933 167.84 335.445 476.744
549 0 74.2508 12.6598 940 157.091 336.321 475.546
550 0 76.1448 13.1591 1002 166.072 335.053 474.347
551 0 79.2074 13.1175 1039 162.926 336.473 472.818
552 0 84.1369 13.0026 1094 163.387 336.583 471.033
553 0 84.176 12.8065 1078 162.625 337.205 470.221
554 0 89.1658 12.931 1153 159.434 337.894 467.921
555 1 47.0816 11.5119 542 155.221 337.627 489.218
556 0 47.0326 11.8854 559 159.018 337.12 488.569
557 0 49.152 12.0239 591 158.692 337.543 488.267
558 0 49.1913 12.2786 604 153.563 338.358 487.487
559 0 53.1205 12.2175 649 158.61 339.627 486.624
560 0 55.1722 12.035 664 153.973 339.179 485.611
561 0 56.2596 12.7445 717 157.127 337.556 484.411
562 0 57.1776 12.5399 717 154.999 338.382 483.365
563 0 60.1001 12.4126 746 158.706 339.444 482.767
564 0 61.1017 12.7656 780 157.105 338.971 481.824
565 0 64.0793 12.5157 802 160.843 338.626 480.483
566 0 66.1358 12.5651 831 162.365 340.296 479.575
567 0 68.0973 12.5703 856 150.445 340.604 478.438
568 0 70.0934 12.626 885 162.897 340.026 477.518
569 0 73.0945 12.8327 938 160.732 339.661 476.325
570 0 74.07 12.3667 916 154.795 338.588 474.559
571 0 77.0649 12.7295 981 158.179 339.379 473.978
572 0 79.0917 13.0229 1030 149.919 338.736 472.279
573 0 82.2634 12.8854 1060 156.642 339.075 471.549
574 0 85.2577 12.773 1089 162.68 338.872 470.836
575 0 87.2041 12.9122 1126 162.41 339.861 469.112
576 0 89.2037 12.9367 1154 157.365 340.066 466.931
577 0 92.1413 12.9801 1196 160.98 339.341 465.892
578 1 50.1589 11.5632 580 151.664 339.605 486.438
579 0 52.1308 11.8356 617 152.3 341.196 485.167
580 0 53.1684 12.0372 640 154.97 339.853 484.616
581 0 55.1212 11.6471 642 149.961 340.042 483.537
582 0 57.0807 12.2809 701 149.591 339.451 482.686
583 0 57.1544 12.265 701 152.067 339.404 482.036
584 0 59.13 12.2611 725 149.952 339.999 481.124
585 0 60.1251 12.5405 754 150.485 339.187 479.443
586 0 65.1737 12.4437 811 145.321 340.425 478.312
587 0 66.1622 12.2578 811 138.996 338.76 476.846
588 0 67.1178 12.5302 841 119.082 339.571 476.169
589 0 70.1132 12.8649 902 149.102 339.943 474.325
590 0 70.0882 12.627 885 152.666 338.354 474.12
591 0 73.1149 12.7197 930 148.109 338.09 472.689
592 0 76.1238 12.5848 958 149.668 338.414 472.032
593 0 78.1025 12.8421 1003 152.701 337.921 470.799
594 0 81.2471 12.6528 1028 152.107 337.724 469.613
595 0 84.1518 12.7151 1070 151.924 339.434 467.498
596 0 87.1675 12.9635 1130 158.622 337.336 466.318
597 0 89.4283 12.8259 1147 147.48 336.915 464.598
598 0 93.1616 12.7413 1187 147.051 338.047 463.401
599 1 48.1878 11.1231 536 152.159 338.438 485.043
600 0 50.1044 11.6956 586 157.952 338.891 484.939
601 0 53.1951 11.6928 622 153.365 339.384 483.688
602 0 54.3389 11.9436 649 148.476 337.222 482.775
603 0 56.244 11.7524 661 147.856 337.899 481.923
604 0 57.2743 12.2219 700 151.427 338.596 481.016
605 0 58.1894 12.339 718 148.724 336.962 480.001
606 0 61.158 12.296 752 147.492 339.005 478.757
607 0 64.1979 12.0253 772 147.856 336.974 477.819
608 0 65.1897 12.6247 823 146.379 339.734 477.158
609 0 67.1963 12.5602 844 142.552 336.12 475.654
610 0 69.2274 12.495 865 142.531 337.268 474.119
611 0 72.2863 12.326 891 144.328 335.951 473.323
612 0 73.2511 12.5459 919 140.218 336.745 472.542
613 0 76.1368 12.5038 952 141.548 338.337 470.227
614 0 77.1959 12.397 957 137.494 336.96 470.322
615 0 82.1717 12.413 1020 139.796 336.523 468.13
616 0 85.1128 12.6186 1074 137.141 337.278 466.638
617 1 45.3218 10.3041 467 142.887 336.411 486.743
618 0 46.0885 10.3713 478 142.291 333.82 485.667
619 0 47.1039 10.2327 482 146.82 338.12 485.168
620 0 50.1943 11.1367 559 144.504 337.658 483.968
621 0 51.1562 11.3965 583 141.863 338.48 483.789
622 0 52.1589 12.0593 629 147.191 337.107 482.736
623 0 55.1109 12.5021 689 144.702 337.354 481.456
624 0 56.2447 12.7123 715 141.235 337.648 480.705
625 0 58.3294 12.738 743 142.367 337.483 479.619
626 0 59.1801 13.197 781 140.508 338.213 478.7
627 0 62.1609 12.6285 785 140.475 338.652 478.591
628 0 64.2994 12.6906 816 144.458 338.099 477.485
629 0 65.1207 13.1448 856 145.363 338.466 476.359
630 0 67.0948 13.3244 894 147.877 338.586 475.362
631 0 68.1098 13.3608 910 151.695 337.325 474.701
632 0 71.1621 13.5044 961 149.282 339.684 474.251
633 0 73.1754 13.3378 976 151.699 340.576 473.172
634 0 75.1558 13.8645 1042 143.881 339.121 471.323
635 0 78.1171 13.4542 1051 155.271 338.923 470.997
636 0 78.0937 13.9576 1090 150.799 339.319 469.664
637 0 82.1223 13.9548 1146 155.723 339.14 468.893
638 0 85.152 14.1864 1208 159.545 339.509 467.281
639 0 88.0885 14.2357 1254 163.23 338.01 465.995
640 0 90.1414 14.0113 1263 164.12 338.876 464.654
641 0 96.2591 13.9104 1339 160.801 338.572 462.641
642 0 98.1305 14.1342 1387 165.846 339.981 460.987
643 0 101.176 14.2821 1445 157.103 339.298 459.095
644 0 105.188 13.9749 1470 163.407 340.484 457.525
645 1 56.0917 12.0874 678 166.063 339.802 482.4
646 0 57.2493 12.9434 741 165.344 340.202 481.695
647 0 59.2437 12.6427 749 160.498 338.27 480.66
648 0 61.203 12.6791 776 158.549 339.789 480.715
649 0 62.1194 13.3292 828 162.287 340.539 479.349
650 0 66.2321 12.6525 838 166.08 339.562 479.246
651 0 69.3577 12.8176 889 161.996 339.723 477.787
652 0 68.1903 12.9637 884 166.187 340.05 477.926
653 0 71.2016 13.5109 962 160.064 339.478 476.252
654 0 72.1812 13.4938 974 170.666 338.817 475.142
655 0 75.1377 13.4154 1008 170.663 340.198 474.306
656 0 79.1244 13.3587 1057 170.585 339.08 472.643
657 0 81.1671 12.9486 1051 163.595 339.909 472.073
658 0 85.1232 12.711 1082 173.504 340.017 471.103
659 0 86.1696 13.1833 1136 173.156 339.357 470.019
660 0 90.2406 13.0872 1181 168.446 340.462 468.739
661 1 47.1312 12.2 575 171.619 338.878 489.414
662 0 49.2164 12.1911 600 167.967 339.477 489.36
663 0 49.267 12.7672 629 169.161 340.229 488.289
664 0 51.2444 12.6843 650 165.375 339.211 488.068
665 0 52.3424 12.4564 652 169.991 339.561 487.848
666 0 53.3377 12.5615 670 171.654 337.576 487.493
667 0 53.1596 12.6224 671 172.422 337.966 486.776
668 0 56.3304 12.5332 706 168.098 337.558 485.667
669 0 57.2641 12.6781 726 164.738 338.93 485.46
670 0 57.2317 13.5939 778 174.168 339.157 484.513
671 0 60.2258 13.3996 807 174.061 340.61 483.011
672 0 61.2844 12.8744 789 166.896 340.733 483.004
673 0 64.2805 12.7099 817 170.185 339.436 482.223
674 0 67.345 13.0373 878 169.4 338.73 480.534
675 0 69.4734 13.1273 912 169.977 338.35 479.742
676 0 70.3548 13.2187 930 164.808 337.923 478.54
677 0 73.3428 13.1165 962 167.052 338.471 477.869
678 0 74.2279 12.6502 939 167.556 338.555 477.076
679 0 78.3534 12.6861 994 171.391 337.414 475.85
680 0 81.3527 12.9682 1055 160.12 337.417 473.203
681 0 83.3171 13.1306 1094 163.818 339.337 471.435
682 0 86.4567 12.7231 1100 161.994 338.369 470.865
683 1 48.3056 11.2202 542 151 339.823 489.216
684 0 49.2114 12.2939 605 151.922 339.357 487.914
685 0 52.225 11.6036 606 155.639 339.101 487.88
686 0 52.2555 11.7882 616 151.805 339.164 486.281
687 0 54.2078 12.4336 674 156.871 339.473 485.846
688 0 55.2504 12.4162 686 155.262 339.141 484.835
689 0 57.1335 12.6196 721 151.026 340.155 483.526
690 0 59.1809 12.3689 732 148.258 337.676 482.865
691 0 62.1453 12.342 767 148.652 339.029 481.597
692 0 63.2395 12.0336 761 145.512 340.586 480.499
693 0 66.1155 12.5387 829 153.566 338.166 478.56
694 0 66.1055 12.9036 853 156.792 338.923 477.904
695 0 70.1095 12.4377 872 150.092 339.948 476.896
696 0 73.1471 12.2356 895 156.884 339.218 476.206
697 0 74.1264 13.0183 965 154.764 337.972 473.765
698 0 77.1288 12.9264 997 158.384 338.388 472.841
699 0 79.232 12.8357 1017 154.717 337.814 471.442
700 1 40.3747 10.7988 436 151.963 339.124 490.388
701 0 44.1686 11.3203 500 155.54 340.626 489.76
702 0 46.0571 11.7029 539 142.176 338.852 488.499
703 0 47.0474 11.6478 548 149.699 339.091 488.086
704 0 48.0556 11.7572 565 141.733 339.982 486.968
705 0 50.1106 12.0933 606 154.688 339.802 486.815
706 0 50.084 12.0398 603 150.232 339.022 486.109
707 0 52.0932 12.42 647 152.87 337.168 484.699
708 0 52.1293 11.7592 613 156.083 338.778 485.295
709 0 54.0628 12.3005 665 152.281 336.877 483.943
710 0 56.0444 12.5793 705 155.157 338.437 482.982
711 0 57.0556 12.7069 725 151.626 339.468 481.897
712 0 59.0728 12.8316 758 154.214 338.664 481.479
713 0 59.1392 13.0032 769 158.022 337.503 480.538
714 0 63.0806 12.8566 811 162.097 337.619 479.708
715 0 64.1941 12.9295 830 165.372 337.784 478.996
716 0 66.2536 13.0408 864 159.105 338.83 477.152
717 0 68.1133 13.0518 889 158.568 339.063 476.655
718 0 71.2804 13.2014 941 153.103 339.162 475.706
719 0 72.1637 13.3585 964 158.812 338.312 474.173
720 0 75.1634 13.1447 988 155.68 338.183 473.046
721 0 77.2327 13.2068 1020 153.87 338.133 471.578
722 0 80.1046 13.2327 1060 156.505 337.495 470.364
723 0 85.2054 12.9335 1102 158.888 338.114 468.822
724 1 41.0598 11.1301 457 146.923 338.902 489.816
725 0 45.1861 11.2424 508 151.482 337.927 488.787
726 0 45.1661 11.6237 525 151.187 337.482 488.356
727 0 46.1344 12.0518 556 144.773 337.583 487.414
728 0 48.2753 11.248 543 152.471 337.586 487.059
729 0 48.1803 11.4777 553 141.68 337.913 486.085
730 0 50.14 11.8867 596 147 336.852 485.715
731 0 53.1993 11.6355 619 148.472 338.669 484.296
732 0 54.2937 11.7325 637 148.402 337.645 484.013
733 0 52.3267 12.3264 645 144.44 337.216 483.183
734 0 56.1383 11.9882 673 148.889 337.611 482.149
735 0 59.1857 11.8272 700 144.1 336.143 480.371
736 0 59.1627 11.7811 697 146.527 339.202 480.373
737 0 60.274 12.2275 737 146.901 339.939 478.878
738 0 61.2242 12.6911 777 146.901 338.952 477.885
739 0 66.1535 12.0931 800 150.966 337.145 477.426
740 0 69.1018 12.3296 852 149.488 338.073 476.026
741 0 71.1455 11.6803 831 155.933 335.671 475.101
742 0 75.1776 12.0648 907 151.889 337.465 472.813
743 1 42.0845 10.4789 441 140.19 339.129 489.277
744 0 44.1575 10.7796 476 149.649 339.861 488.355
745 0 45.2212 11.1452 504 147.22 337.238 487.498
746 0 46.2738 11.4103 528 145.809 338.14 486.428
747 0 46.1802 11.4984 531 145.414 338.723 486.546
748 0 49.2869 11.3215 558 145.487 338.443 485.609
749 0 52.3577 11.1349 583 148.66 336.506 485.009
750 0 52.251 11.9424 624 148.423 336.923 484.375
751 0 51.2401 12.8415 658 150.325 336.46 483.535
752 0 56.2363 11.9674 673 146.467 337.97 483.351
753 0 57.19 11.8902 680 149.478 336.741 482.079
754 0 57.1116 12.747 728 140.997 338.291 480.405
755 0 59.1002 12.1996 721 147.128 337.037 479.978
756 0 61.0991 12.3079 752 147.481 338.327 479.314
757 0 62.1747 12.6418 786 145.674 336.067 478.688
758 0 66.2268 12.8045 848 138.65 338.585 476.985
759 0 67.1322 12.8106 860 135.094 337.099 476.074
760 0 70.2128 12.633 887 139.411 336.639 474.205
761 0 71.1885 13.1763 938 143.934 335.525 473.225
762 0 73.1804 13.0636 956 139.394 336.553 472.81
763 0 77.1743 12.569 970 143.531 336.934 471.222
764 0 79.1324 12.6623 1002 138.942 336.771 469.879
765 1 39.097 10.5123 411 145.842 336.647 489.684
766 0 42.2614 10.6717 451 139.319 337.029 489.069
767 0 43.1491 10.7766 465 146.267 335.933 488.587
768 0 43.2199 11.6381 503 142.7 335.085 487.642
769 0 48.3052 11.8621 573 145.056 337.119 486.272
770 0 48.1994 12.0748 582 145.632 336.399 485.637
771 0 50.1905 12.4127 623 145.936 338.175 485.138
772 0 52.2419 12.6527 661 147.201 335.619 484.16
773 0 54.3506 12.7321 692 150.288 334.637 482.734
774 0 55.2167 12.7317 703 151.366 334.051 482.593
775 0 57.1451 12.4245 710 151.976 334.206 481.665
776 0 59.214 12.953 767 147.817 335.49 480.61
777 0 60.3086 12.9998 784 148.01 334.029 479.983
778 0 63.235 12.6354 799 150.762 335.37 479.528
779 0 65.355 12.7305 832 147.917 334.333 477.952
780 0 67.1863 12.7556 857 148.244 333.774 477.226
781 0 69.1982 12.587 871 154.018 333.766 475.92
782 0 72.3122 12.8194 927 151.89 334.321 475.093
783 0 73.2755 12.9238 947 153.038 332.902 473.805
784 0 76.112 12.8363 977 154.671 333.024 472.665
785 0 79.13 12.827 1015 154.066 333.313 471.423
786 0 82.2157 13.0875 1076 152.894 332.485 469.582
787 0 86.2539 12.9154 1114 151.072 332.784 467.905
788 0 88.1889 12.8474 1133 148.343 331.388 465.744
789 1 46.0316 11.1445 513 151.725 331.799 487.084
790 0 48.2036 11.4722 553 147.403 332.345 485.978
791 0 48.211 12.1342 585 144.797 332.412 485.868
792 0 52.0877 11.9606 623 144.944 335.422 484.639
793 0 53.1503 11.7215 623 139.156 334.591 483.496
794 0 54.1868 12.6968 688 144.035 335.301 483.118
795 0 56.1733 12.6395 710 136.742 332.318 482.385
796 0 59.1019 12.47 737 143.322 332.799 481.722
797 0 59.2241 12.9001 764 137.643 332.958 481.105
798 0 62.2697 12.8955 803 145.115 333.796 480.461
799 0 63.3028 12.7956 810 136.822 334.8 478.881
800 0 67.2663 12.9188 869 139.946 335.069 478.4
801 0 69.2902 13.2919 921 147.815 334.951 477.256
802 0 71.3672 13.1013 935 147.819 335.232 476.083
803 0 74.2558 13.0495 969 147.249 335.26 474.246
804 0 77.3226 13.3855 1035 145.833 332.67 473.489
805 0 80.294 13.4007 1076 147.602 333.467 472.099
806 0 83.2727 13.0895 1090 147.29 334.412 471.384
807 0 86.2282 13.5455 1168 147.948 334.98 469.243
808 0 88.3436 13.6512 1206 148.081 333.215 468.114
809 1 46.1351 11.5747 534 153.577 333.67 489.187
810 0 47.1022 11.6555 549 149.829 333.403 489.004
811 0 49.136 12.2924 604 147.179 334.369 487.435
812 0 49.1356 12.3129 605 154.008 333.567 487.853
813 0 51.1027 12.3868 633 150.626 333.302 487.464
814 0 51.1578 12.999 665 156.752 334.343 486.734
815 0 54.1272 12.2489 663 151.308 334.163 485.471
816 0 55.0763 12.6552 697 162.795 333.412 485.74
817 0 55.0771 13.2178 728 159.828 333.951 485.56
818 0 58.1618 13.0498 759 155.03 334.779 484.169
819 0 60.1746 13.3113 801 154.216 336.689 483.605
820 0 62.1341 13.1168 815 162.389 335.047 482.84
821 0 63.1 13.645 861 165.547 335.466 481.793
822 0 65.1761 13.5172 881 165.42 335.921 480.38
823 0 69.114 13.3547 923 164.976 334.115 479.346
824 0 71.1411 13.8317 984 168.641 334.673 478.044
825 0 73.1254 13.5521 991 167.317 334.571 476.226
826 0 77.1156 13.6937 1056 172.317 332.757 475.304
827 0 78.1096 13.8779 1084 169.967 335.168 473.462
828 0 82.1178 13.6998 1125 172.911 334.304 471.773
829 0 84.2363 13.9014 1171 157.11 335.971 469.721
830 0 87.2553 14.0163 1223 170.083 333.962 467.814
831 0 89.3707 13.9084 1243 165.88 335.637 466.163
832 0 94.2839 14.0639 1326 167.733 335.316 464.268
833 0 97.3463 13.7139 1335 168.312 336.087 462.691
834 0 100.417 13.8921 1395 167.103 337.03 460.618
835 0 103.525 14.045 1454 168.437 335.468 459.739
836 1 52.0816 12.6724 660 167.814 335.121 483.974
837 0 55.1551 12.5102 690 170.226 335.897 482.923
838 0 57.1507 12.6508 723 169.159 335.119 481.835
839 0 60.1945 13.0244 784 163.413 336.696 480.328
840 0 61.086 12.5724 768 167.546 336.247 479.608
841 0 62.1292 13.1017 814 161.166 336.356 478.222
842 0 65.0682 13.1093 853 166.038 335.624 476.986
843 0 66.0861 13.0133 860 168.65 337.11 476.815
844 0 68.1207 12.7274 867 162.585 338.014 475.444
845 0 71.0797 12.8869 916 167.139 335.345 473.808
846 0 75.1171 13.0197 978 161.43 336.536 472.83
847 0 76.0831 12.6572 963 163.443 338.24 471.636
848 0 79.154 12.9873 1028 163.096 335.277 470.337
849 0 80.0824 13.4611 1078 160.032 338.045 468.375
850 0 85.2397 13.069 1114 159.346 335.955 466.899
851 0 87.2927 13.197 1152 160.865 335.699 465.684
852 0 90.1372 13.3019 1199 155.515 336.48 464.064
853 0 92.1309 13.4483 1239 156.996 335.809 462.041
854 1 49.0704 11.7994 579 160.135 337.15 483.321
855 0 52.0876 12.2678 639 156.03 337.374 481.997
856 0 55.1983 12.1743 672 157.631 337.183 482.738
857 0 54.1836 12.3469 669 163.155 336.916 482.771
858 0 56.3117 12.857 724 160.561 337.351 481.517
859 0 59.3358 12.4714 740 157.872 334.499 480.499
860 0 61.2175 12.5781 770 161.748 336.236 479.283
861 0 63.3881 12.5891 798 162.912 335.281 478.578
862 0 64.3394 12.9003 830 164.782 337.169 477.664
863 0 66.3558 13.3221 884 156.197 337.122 476.897
864 0 69.4406 13.2919 923 166.321 336.901 475.246
865 0 73.3239 13.4063 983 161.936 337.992 473.821
866 0 75.2778 13.2709 999 168.248 338.281 472.501
867 0 78.4542 13.0649 1025 160.903 336.594 471.717
868 0 81.3424 13.1051 1066 168.384 336.29 470.207
869 0 84.3378 13.3392 1125 163.252 336.183 468.809
870 0 87.323 13.158 1149 170.344 336.891 467.532
871 1 47.1346 11.5626 545 168.716 338.068 486.695
872 0 48.2097 12.2797 592 168.73 337.289 486.24
873 0 50.2246 12.5237 629 165.638 335.658 485.266
874 0 50.203 12.6088 633 164.675 336.694 483.883
875 0 51.1781 12.818 656 166.072 336.367 483.97
876 0 52.1547 13.1723 687 167.952 337.253 482.806
877 0 54.2199 12.9657 703 162.068 336.085 481.664
878 0 55.2212 12.8755 711 165.194 335.962 481.111
879 0 58.2586 12.8736 750 171.329 335.428 480.752
880 0 59.157 13.0838 774 164.026 336.575 479.332
881 0 61.0833 12.8677 786 171.719 334.274 479.438
882 0 62.1987 13.7945 858 170.392 336.267 477.698
883 0 66.2317 13.3471 884 171.852 336.67 477.088
884 0 69.1443 13.2477 916 169.445 335.398 475.217
885 0 71.1673 13.6017 968 169.924 336.562 473.636
886 0 72.1541 13.4712 972 161.628 335.39 473.036
887 0 76.1994 13.3859 1020 166.19 336.327 471.516
888 0 77.2764 13.3935 1035 169.438 335.426 470.7
889 0 81.2783 13.4968 1097 164.493 334.251 468.524
890 0 85.2218 13.4003 1142 165.933 336.274 467.327
891 0 88.1985 13.4469 1186 167.656 336.739 466.21
892 0 92.1944 13.4607 1241 171.289 336.216 463.742
893 0 96.2423 13.227 1273 164.376 336.837 462.464
894 1 52.2957 12.4293 650 173.848 338.434 483.677
895 0 53.2302 13.0941 697 167.692 334.864 481.961
896 0 55.318 12.5095 692 169.775 338.059 482.188
897 0 56.1387 13.3241 748 169.968 336.838 480.889
898 0 59.1587 12.8975 763 168.122 336.632 479.446
899 0 60.1487 13.184 793 162.936 336.158 478.474
900 0 62.1765 13.2526 824 157.083 336.16 476.964
901 0 65.2873 13.2032 862 163.056 337.58 476.169
902 0 68.2843 13.5463 925 162.606 337.914 475.335
903 0 72.2357 13.3037 961 167.185 337.156 473.305
904 0 74.1151 13.7354 1018 168.204 337.092 471.529
905 0 75.2139 13.7608 1035 166.459 335.72 470.559
906 0 79.3285 14.0051 1111 164.723 337.116 469.503
907 0 83.1867 13.5839 1130 167.963 336.358 467.527
908 0 85.1983 13.9674 1190 169.964 335.389 465.723
909 0 90.2452 13.4744 1216 170.184 337.614 464.198
910 0 92.1565 13.8786 1279 166.338 335.744 462.644
911 0 96.1118 14.067 1352 171.745 336.04 460.342
912 1 52.116 12.9711 676 169.679 336.716 481.725
913 0 56.1261 13.0064 730 172.374 336.104 481.053
914 0 56.1029 13.3326 748 167.094 336.599 479.955
915 0 58.1174 13.249 770 166.326 338.916 479.496
916 0 60.1258 13.189 793 172.264 335.489 478.815
917 0 62.222 13.5001 840 166.967 336.521 477.814
918 0 64.1952 13.4901 866 166.126 337.463 476.808
919 0 66.1491 13.4545 890 165.809 337.081 476.088
920 0 68.0942 13.8631 944 166.365 337.218 474.591
921 0 71.1829 13.669 973 166.936 337.618 473.823
922 0 73.2013 13.7566 1007 168.943 336.273 472.791
923 0 73.2459 14.1987 1040 166.521 336.552 472.008
924 0 77.3508 14.0787 1089 168.072 338.44 470.421
925 0 79.127 14.0407 1111 169.159 337.714 469.837
926 0 83.1835 13.6686 1137 163.468 337.936 468.544
927 0 85.164 13.9613 1189 170.859 338.431 468.467
928 0 87.1694 14.3858 1254 170.589 336.872 465.708
929 0 89.1565 14.3343 1278 162.088 338.691 464.98
930 0 92.2528 14.5578 1343 165.086 337.039 463.652
931 0 96.2751 14.0535 1353 167.421 336.98 462.409
932 0 99.1114 14.1659 1404 167.65 337.112 460.907
933 0 103.142 13.8838 1432 160.27 338.816 458.78
934 0 107.137 13.8607 1485 170.45 338.252 457.769
935 1 57.0416 13.0081 742 170.987 338.404 482.003
936 0 60.2097 12.4233 748 169.675 340.32 481.215
937 0 62.2398 12.484 777 167.026 338.848 480.247
938 0 63.2112 13.2571 838 166.027 340.536 479.502
939 0 66.2902 12.8375 851 164.353 338.885 478.201
940 0 67.3766 12.8828 868 166.172 337.563 477.497
941 0 70.1877 12.894 905 164.234 336.175 476.438
942 0 73.1523 12.7679 934 163.606 336.593 475.752
943 0 76.2432 13.0372 994 165.496 337.935 473.809
944 0 77.19 13.2012 1019 161.17 336.67 473.04
945 0 80.2686 13.0188 1045 165.53 337.024 472.272
946 0 83.1974 13.3418 1110 169.008 337.39 470.195
947 0 86.2556 12.9731 1119 164.178 337.024 469.029
948 0 90.2508 13.4957 1218 165.495 337.712 467.126
949 0 92.2102 12.8511 1185 172.8 335.657 466.332
950 0 95.3343 13.1118 1250 163.543 336.96 464.302
951 0 99.3568 12.6111 1253 167.185 336.305 462.657
952 0 103.218 12.5463 1295 166.337 337.364 461.408
953 1 56.1179 11.2442 631 128.209 336.899 484.044
954 0 56.1112 11.4772 644 156.63 337.402 483.679
955 0 59.3326 12.0507 715 158.038 336.649 482.903
956 0 59.322 12.3563 733 155.502 336.231 482.319
957 0 61.316 11.9708 734 152.895 335.568 481.146
958 0 64.374 12.2099 786 158.48 335.305 480.117
959 0 65.1996 12.8528 838 156.327 337.87 478.484
960 0 68.2328 12.4427 849 152.784 338.206 477.181
961 0 70.2979 12.6462 889 148.574 337.305 475.637
962 0 72.3343 12.3316 892 157.913 336.744 475.226
963 0 74.3955 12.7293 947 155.837 337.755 473.568
964 0 76.365 13.2783 1014 153.542 339.231 472.476
965 0 78.3271 12.7797 1001 157.207 337.137 471.5
966 0 81.2402 12.74 1035 157.719 336.193 470.41
967 0 85.2957 12.9549 1105 154.799 338.126 468.193
968 0 87.5402 12.7827 1119 158.464 337.545 466.713
969 0 91.3923 12.8238 1172 156.85 338.054 464.473
970 0 95.3008 13.1583 1254 158.774 338.039 463
971 1 53.2602 11.7161 624 155.851 338.223 483.351
972 0 54.0959 11.4981 622 152.068 338.014 483.227
973 0 56.2072 12.0447 677 153.677 336.093 481.654
974 0 57.2656 12.119 694 150.171 336.411 480.726
975 0 60.2477 11.7847 710 157.723 337.534 480.456
976 0 60.2092 12.5064 753 155.404 336.948 479.42
977 0 62.2943 12.5051 779 158.516 337.779 478.659
978 0 63.157 12.6669 800 152.481 336.76 477.371
979 0 66.2956 12.3689 820 160.349 334.679 477.305
980 0 66.4795 12.6505 841 152.235 335.303 476.746
981 0 68.2882 12.7401 870 158.129 336.268 475.656
982 0 69.229 12.5959 872 151.495 336.509 474.146
983 0 71.1882 12.9235 920 159.583 337.502 473.689
984 0 72.2309 12.9584 936 156.212 337.045 472.625
985 0 75.3165 12.6002 949 158.06 337.609 472.079
986 0 78.2789 12.992 1017 161.449 337.403 470.969
987 0 80.2354 12.6877 1018 157.138 338.53 469.339
988 0 82.3886 13.0722 1077 159.208 337.103 468.536
989 0 87.4283 12.8219 1121 162.456 337.384 466.681
990 0 87.4006 13.1578 1150 156.501 337.61 465.165
991 0 92.4032 13.3004 1229 161.535 337.277 463.535
992 0 96.4865 12.9345 1248 165.301 337.636 462.316
993 0 99.3253 13.038 1295 166.438 338.263 460.091
994 1 50.0714 11.8031 591 160.997 338.804 483.831
995 0 53.0369 11.5203 611 157.836 337.728 483.183
996 0 53.3883 11.4445 611 162.26 335.224 482.871
997 0 56.224 11.4364 643 159.722 335.034 481.913
998 0 58.2227 11.9541 696 158.602 336.427 480.782
999 0 58.2685 12.3566 720 144.71 337.286 480.367
1000 0 61.3675 12.3518 758 142.838 337.588 479.673
1001 0 63.2338 12.1454 768 146.134 337.362 478.811
1002 0 63.2067 12.91 816 142.593 336.484 477.102
1003 0 66.3394 12.7677 847 149.673 334.93 476.77
1004 0 69.3285 12.5634 871 130.506 335.036 475.665
1005 0 70.3829 12.9009 908 143.39 336.583 474.244
1006 0 70.258 13.1515 924 146.365 334.962 473.078
1007 0 74.1869 12.9268 959 140.414 335.038 472.233
1008 0 76.3009 12.9487 988 148.446 336.471 470.664
1009 0 79.2762 13.1944 1046 145.427 337.153 469.145
1010 0 81.1519 13.407 1088 155.346 337.002 468.009
1011 0 85.3163 12.9284 1103 152.656 337.471 467.012
1012 0 88.4351 13.1396 1162 146.597 336.898 465.292
1013 0 91.278 13.2672 1211 152.259 337.587 464.481
1014 0 92.3595 13.6532 1261 152.39 337.998 462.965
1015 0 97.4772 13.4493 1311 153.605 336.061 461.771
1016 0 99.2826 13.5472 1345 152.218 335.599 461.272
1017 0 102.299 13.5583 1387 158.694 337.057 459.388
1018 1 57.157 12.1945 697 150.707 336.085 481.912
1019 0 58.2033 12.6453 736 148.539 335.857 481.117
1020 0 59.2069 12.9715 768 154.111 337.954 480.073
1021 0 62.1581 12.8061 796 161.902 334.695 479.584
1022 0 63.1697 13.2659 838 156.34 335.933 478.266
1023 0 65.2933 13.2479 865 151.924 336.847 477.872
1024 0 67.1062 12.9198 867 160.36 335.233 476.736
1025 0 70.1435 12.9021 905 152.832 337.635 475.906
1026 0 71.1316 13.3836 952 158.461 337.765 474.506
1027 0 74.2834 13.085 972 150.245 337.188 474.11
1028 0 75.2768 13.55 1020 169.755 337.512 472.744
1029 0 77.1882 13.3699 1032 167.29 337.993 471.894
1030 0 80.1666 13.7089 1099 169.782 337.788 470.333
1031 0 83.3027 13.9131 1159 163.944 337.028 469.565
1032 0 85.2738 13.7322 1171 163.751 337.348 467.803
1033 0 88.2971 13.3526 1179 160.464 336.684 466.265
1034 0 91.1509 13.6148 1241 168.142 336.2 464.446
1035 0 96.2976 13.2714 1278 155.758 336.698 463.192
1036 0 97.1668 13.5128 1313 163.447 335.486 461.831
1037 0 99.319 13.4617 1337 157.581 336.268 460.275
1038 1 58.0856 11.9823 696 154.54 337.313 481.279
1039 0 60.1371 12.7542 767 152.834 337.361 479.739
1040 0 62.0741 12.7912 794 155.576 336.61 478.649
1041 0 62.0451 12.8938 800 154.859 336.649 477.826
1042 0 65.0887 12.7211 828 154.442 338.844 477.339
1043 0 67.1115 13.0827 878 148.311 337.528 476.063
1044 0 69.0963 12.895 891 145.412 337.836 475.535
1045 0 70.1285 12.9477 908 150.244 338.022 474.458
1046 0 74.0943 13.0239 965 145.858 337.52 472.61
1047 0 75.0471 13.3116 999 150.153 337.771 472.249
1048 0 76.0915 13.6283 1037 151.396 338.172 470.852
1049 0 79.0972 13.1231 1038 148.592 337.036 469.988
1050 0 82.1508 13.5604 1114 145.591 335.679 468.43
1051 0 84.1429 13.5603 1141 147.429 337.057 467.157
1052 0 87.1027 13.2258 1152 146.997 340.531 466.024
1053 0 91.1381 13.1449 1198 150.098 338.394 464.697
1054 0 94.1002 13.3581 1257 147.873 337.511 462.172
1055 0 98.0469 13.1366 1288 148.411 336.644 461.135
1056 0 101.247 13.2152 1338 148.602 337.828 459.442
1057 1 49.0587 11.2926 554 147.922 336.706 485.206
1058 0 52.0393 12.1447 632 145.041 336.606 483.31
1059 0 55.0571 12.0965 666 140.659 337.201 483.02
1060 0 55.1145 12.6464 697 142.605 337.595 481.822
1061 0 57.0606 12.6357 721 148.387 335.384 481.753
1062 0 59.1116 12.6879 750 143.863 337.333 480.541
1063 0 61.025 12.9947 793 141.448 336.743 479.834
1064 0 63.0453 12.7527 804 146.122 337.214 478.944
1065 0 65.0767 13.123 854 142.093 337.047 477.993
1066 0 66.2265 13.2726 879 140.951 337.451 476.771
1067 0 69.1249 13.3671 924 134.363 337.206 475.909
1068 0 69.0818 13.7084 947 147.715 338.135 475.437
1069 0 72.2206 13.6111 983 146.81 338.295 473.883
1070 0 72.1605 14.1213 1019 145.763 337.729 472.709
1071 0 77.2104 13.5344 1045 144.526 337.363 471.521
1072 0 80.1245 13.8285 1108 146.463 336.081 470.325
1073 0 81.0485 14.189 1150 138.637 335.57 469.692
1074 0 84.1937 13.659 1150 148.737 336.717 468.844
1075 0 86.2783 14.1866 1224 145.231 337.349 466.873
1076 0 91.1732 13.5895 1239 146.789 335.057 465.785
1077 0 91.1707 13.7873 1257 151.454 336.345 464.045
1078 0 96.2276 13.7798 1326 146.43 335.64 462.854
1079 0 100.158 13.8382 1386 151.659 334.458 461.852
1080 0 102.108 13.9657 1426 148.118 335.789 460.158
1081 0 106.193 13.6544 1450 150.918 335.473 458.829
1082 1 58.1295 12.0421 700 148.634 336.147 482.95
1083 0 60.0726 12.3018 739 145.327 339.501 481.425
1084 0 60.0954 12.7464 766 149.446 338.772 480.743
1085 0 63.0959 12.901 814 142.376 338.194 479.502
1086 0 65.1175 12.9151 841 132.968 337.785 478.117
1087 0 69.0918 12.9538 895 147.784 336.589 476.825
1088 0 69.0679 13.3202 920 148.474 336.85 476.14
1089 0 74.0878 12.9981 963 152.769 337.793 474.625
1090 0 77.1918 12.9159 997 153.046 336.9 472.641
1091 0 78.2322 12.987 1016 149.008 337.075 471.216
1092 0 80.1145 13.1062 1050 153.016 337.262 470.373
1093 0 84.1386 13.4183 1129 150.392 336.376 468.569
1094 0 88.1682 13.0206 1148 148.909 337.461 467.621
1095 0 89.1171 13.1176 1169 159.033 337.825 467.002
1096 0 93.1164 13.1771 1227 154.341 336.476 464.989
1097 0 96.2544 13.1111 1262 160.035 336.421 463.897
1098 0 100.1 13.0969 1311 159.307 337.211 462.189
1099 0 103.113 13.1603 1357 159.262 336.107 460.614
1100 1 57.0256 11.8719 677 148.57 336.867 483.111
1101 0 59.0325 12.2136 721 156.118 336.3 481.827
1102 0 60.017 12.1632 730 157.899 336.212 481.027
1103 0 61.0605 12.6759 774 160.652 337.357 480.386
1104 0 63.083 12.6976 801 152.006 336.589 478.74
1105 0 67.0495 12.6623 849 157.488 337.042 477.843
1106 0 69.1528 12.7399 881 157.192 335.94 476.973
1107 0 70.2424 13.126 922 158.252 338.373 475.275
1108 0 74.0939 12.916 957 155.451 336.879 474.003
1109 0 76.0736 13.132 999 121.885 337.383 472.418
1110 0 79.1116 12.9058 1021 156.718 337.461 471.68
1111 0 81.1468 12.9642 1052 158.033 336.061 469.988
1112 0 82.188 12.8851 1059 151.613 335.798 468.469
1113 0 88.0978 12.8267 1130 146.42 337.224 467.962
1114 0 89.185 13.0964 1168 152.378 336.191 465.932
1115 0 93.2213 13.0228 1214 140.193 336.609 464.341
1116 0 96.1583 13.1034 1260 152.979 336.183 461.701
1117 0 100.28 13.3726 1341 147.562 333.871 460.518
1118 0 103.248 13.0269 1345 149.754 335.173 458.954
1119 1 62.0399 11.2508 698 150.549 335.732 479.837
1120 0 63.0863 12.047 760 149.336 334.355 478.734
1121 0 66.1022 12.3445 816 150.184 334.892 476.949
1122 0 66.0673 12.4419 822 150.624 335.567 477.482
1123 0 67.0882 12.7444 855 152.685 334.614 476.829
1124 0 70.1892 12.623 886 158.65 334.809 477.614
1125 0 71.0809 13.0978 931 158.743 335.617 476.244
1126 0 71.0715 13.5357 962 161.046 336.619 476.417
1127 0 73.1052 13.761 1006 161.592 336.944 476.196
1128 0 74.1153 14.2616 1057 162.683 335.205 475.293
1129 0 74.0733 14.3642 1064 164.7 335.827 474.758
1130 0 76.0788 14.6033 1111 169.57 335.562 474.287
1131 0 76.1526 15.1801 1156 164.979 335.593 473.722
1132 0 78.0505 15.0672 1176 166.224 334.987 473.378
1133 0 78.0773 15.4975 1210 165.928 333.004 473.008
1134 0 80.1887 15.5259 1245 164.308 333.923 472.716
1135 0 81.1369 15.9853 1297 167.853 334.192 472.234
1136 0 82.0719 15.6692 1286 167.638 335.057 471.942
1137 0 82.1827 16.4755 1354 159.507 334.304 471.236
1138 0 83.2005 16.1417 1343 161.698 333.44 471.557
1139 0 82.0674 16.7667 1376 161.085 332.437 471.098
1140 0 79.2037 16.224 1285 162.412 334.616 471.972
1141 0 84.1408 16.8765 1420 159.865 334.875 470.364
1142 0 84.2416 16.88 1422 161.37 334.838 469.977
1143 0 86.2722 16.3552 1411 166.774 333.906 470.147
1144 0 80.2233 16.3294 1310 170.098 334.834 471.279
1145 1 154.376 10.9862 1696 156.219 335.206 456.54
1146 0 155.227 11.4027 1770 150.423 334.988 454.194
1147 0 150.27 11.2997 1698 154.938 334.857 456.671
1148 0 149.187 11.4621 1710 153.718 334.909 456.224
1149 0 150.348 11.4933 1728 154.236 334.41 456.552
1150 1 170.236 11.4312 1946 141.347 334.338 445.662
1151 0 170.328 12.0121 2046 139.346 333.836 443.393
1152 0 170.181 11.5877 1972 140.732 332.375 445.717
1153 0 170.197 11.5631 1968 141.886 334.564 446.827
1154 0 170.294 10.9282 1861 141.26 334.545 451.055
1155 1 244.437 6.54157 1599 163.783 335.068 444.441
1156 0 250.15 6.39216 1599 164 332.613 439.926
1157 0 254.241 6.62363 1684 158.692 332.973 433.989
1158 0 258.143 6.6281 1711 157.233 333.596 428.842
1159 0 260.263 6.62408 1724 152.945 332.201 426.742
1160 1 198.251 9.96716 1976 134.542 333.025 440.377
1161 0 210.274 12.2983 2586 122.574 333.727 422.847
1162 0 212.468 12.3831 2631 122.168 334.315 421.382
1163 0 214.431 11.7334 2516 123.537 335.174 422.097
1164 0 216.49 12.0791 2615 126.842 335.343 421.708
1165 0 217.311 11.8448 2574 126.28 333.576 421.232
1166 0 220.295 12.0157 2647 123.177 333.968 418.96
1167 0 220.468 11.6253 2563 121.194 333.012 422.006
1168 0 223.34 12.331 2754 120.585 332.257 417.394
1169 0 224.557 12.1573 2730 118.682 333.045 416.787
1170 0 227.4 11.8821 2702 116.983 334.08 416.334
1171 0 228.372 11.5732 2643 121.105 332.209 418.889
1172 0 229.244 11.0843 2541 124.479 333.901 421.49
1173 0 234.399 11.1306 2609 124.563 334.218 416.801
1174 0 234.42 11.4026 2673 119.944 332.078 415.854
1175 1 285.178 5.9647 1701 165.244 332.332 430.562
1176 0 286.084 5.91785 1693 161.899 332.954 433.51
1177 0 294.242 5.96109 1754 158.279 333.865 429.101
1178 0 296.251 6.42023 1902 161.629 334.481 418.868
1179 0 302.209 6.64109 2007 160.686 333.532 409.792
1180 0 303.141 6.8417 2074 151.275 333.047 397.469
1181 0 308.192 6.85287 2112 155.25 333.955 392.376
1182 0 308.242 7.06911 2179 148.101 333.759 386.785
1183 0 311.246 6.98161 2173 149.536 332.218 383.667
1184 0 315.124 7.28919 2297 150.125 333.154 379.798
1185 0 320.146 7.17486 2297 147.128 333.648 376.868
1186 0 322.21 7.20337 2321 152.783 332.706 374.235
1187 0 328.116 7.30839 2398 150.218 333.708 369.986
1188 0 333.255 7.34573 2448 148.748 332.382 366.558
1189 0 333.134 6.61295 2203 156.469 332.718 380.438
1190 0 332.201 6.5924 2190 153.173 332.758 381.216
1191 0 84.1155 17.6305 1483 167.525 334.966 469.069
1192 0 83.091 17.9923 1495 169.256 333.56 468.788
1193 0 84.2111 17.5274 1476 159.486 333.205 468.838
1194 0 84.1406 17.5658 1478 168.334 331.535 468.887
1195 0 84.115 17.4047 1464 162.512 330.967 469.528
1196 0 84.0873 17.5294 1474 163.197 332.531 468.838
1197 0 84.1549 17.6936 1489 161.069 333.137 469.091
1198 0 85.0958 17.6389 1501 166.305 332.897 468.732
1199 0 84.2552 17.352 1462 164.497 333.697 469.084
1200 0 83.0978 17.341 1441 163.684 333.801 469.33
1201 0 83.1161 17.2048 1430 160.44 334.543 469.22
1202 0 82.15 17.0176 1398 159.957 333.196 469.373
1203 0 82.1709 17.488 1437 161.534 334.82 469.715
1204 0 83.1597 17.1958 1430 153.862 334.366 469.276
1205 0 83.1906 17.0933 1422 163.78 332.285 469.586
1206 0 83.1614 17.5803 1462 163.414 334.133 469.566
1207 0 84.139 17.2809 1454 143.251 334.801 469.956
1208 0 84.1298 17.2709 1453 162.063 332.716 469.86
1209 0 82.1208 17.3038 1421 166.021 333.235 469.972
1210 0 84.0498 17.3112 1455 167.97 333.892 470.087
1211 0 84.1026 17.4668 1469 166.306 333.611 469.899
1212 0 83.1724 17.6381 1467 165.457 332.493 470.022
1213 0 84.1133 17.524 1474 166.45 333.851 470.023
1214 0 84.1147 17.5356 1475 163.002 334.559 470.224
1215 0 83.0791 17.5736 1460 161.702 334.18 470.315
1216 0 83.0562 17.735 1473 160.433 335.512 469.691
1217 0 84.1389 17.5305 1475 157.752 334.144 470.483
1218 0 84.1811 17.5693 1479 161.62 334.109 469.873
