index division length width area intensity CMx CMy
0 0 64.0595 15.3919 986 93.9128 837.511 426.773
1 0 66.0378 15.5366 1026 98.8567 838.672 426.322
2 0 69.0644 15.3046 1057 102.233 838.884 426.453
3 0 69.0644 15.3046 1057 178.981 839.884 426.453
4 0 73.104 15.3206 1120 105.629 843.194 429.488
5 0 76.0947 15.2047 1157 106.222 844.46 429.742
6 0 79.1338 15.2653 1208 112.483 843.011 431.873
7 0 81.0692 15.1106 1225 115.553 841.305 433.549
8 0 83.1368 15.6128 1298 108.34 841.186 435.724
9 0 87.0656 14.759 1285 112.427 839.072 437.543
10 0 91.0775 15.1629 1381 109.494 840.007 439.554
11 0 94.0799 15.0404 1415 112.088 838.293 441.229
12 1 50.0657 13.8818 695 109.311 836.717 464.744
13 0 50.0612 14.1027 706 121.254 836.965 467.285
14 0 54.0623 13.8914 751 109.609 837.707 468.77
15 0 54.04 13.9526 754 113.521 838.138 470.444
16 0 55.0759 14.362 791 119.647 836.43 472.493
17 0 58.1494 14.394 837 114.679 837.521 474.342
18 0 61.0585 14.1667 865 108.729 834.992 475.908
19 0 62.0446 14.3284 889 115.017 833.738 477.796
20 0 65.0244 14.2716 928 111.819 836.728 479.794
21 0 66.0798 14.4068 952 118.522 834.832 481.644
22 0 69.0701 14.1016 974 115.95 838.164 483.338
23 0 70.0751 14.6557 1027 113.077 835.881 484.907
24 0 71.0423 14.7377 1047 118.461 835.606 485.983
25 0 75.0576 14.2824 1072 124.561 833.943 485.135
26 0 79.0768 14.4543 1143 117.957 835.202 482.979
27 0 83.1282 14.3513 1193 121.614 834.604 480.962
28 0 84.0985 14.7089 1237 119.637 836.146 478.76
29 0 89.1049 14.3651 1280 119.195 836.231 476.068
30 0 93.088 13.9438 1298 118.488 836.036 473.455
31 0 95.0676 14.0847 1339 120.774 837.164 470.564
32 0 96.1393 14.5206 1396 114.595 836.547 468.506
33 0 100.114 14.4635 1448 114.18 837.544 465.275
34 0 105.139 14.2669 1500 116.305 839.288 461.867
35 0 108.086 14.4329 1560 120.521 837.187 460.131
36 1 52.1408 13.9622 728 115.964 839.723 485.044
37 0 55.0628 14.0022 771 113.698 839.271 483.339
38 0 57.0257 13.7657 785 114.724 841.469 482.595
39 0 58.1402 14.0178 815 112.242 841.449 481.572
40 0 61.1053 13.7795 842 111.808 842.132 480.122
41 0 63.0536 13.8929 876 111.323 840.718 478.997
42 0 65.0478 13.9743 909 115.246 841.059 478.444
43 0 68.1367 13.8985 947 113.197 842.875 477.301
44 0 70.0606 14.0307 983 114.174 840.886 476.511
45 0 72.087 13.8999 1002 116.834 842.463 475.537
46 0 75.0658 14.1876 1065 111.428 841.222 473.438
47 0 78.119 14.1707 1107 114.006 841.601 472.986
48 0 80.0755 14.0492 1125 110.388 842.355 472.119
49 0 84.103 14.1731 1192 106.723 841.277 471.244
50 0 87.1142 13.8783 1209 109.488 840.034 470.449
51 0 89.1447 13.9997 1248 112.147 841.825 469.132
52 0 94.1857 13.6751 1288 108.905 840.865 468.385
53 0 96.1878 14.0351 1350 106.967 842.295 467.79
54 0 100.103 14.1654 1418 104.638 840.224 466.52
55 0 104.178 14.0433 1463 111.727 840.686 465.396
56 0 108.227 14.1 1526 109.306 840.927 464.258
57 0 111.101 14.1763 1575 111.02 839.202 462.615
58 1 56.0314 13.421 752 109.181 841.351 488.919
59 0 58.0462 13.4892 783 109.507 841.705 488.317
60 0 61.02 13.1924 805 111.535 841.872 487.651
61 0 63.0508 13.2116 833 105.936 841.25 486.467
62 0 66.0655 13.1536 869 100.101 841.467 485.287
63 0 67.0911 13.6978 919 108.647 840.801 484.094
64 0 68.0345 13.7871 938 111.783 839.397 482.645
65 0 72.0674 13.6955 987 108.785 838.499 481.46
66 0 75.0715 13.6803 1027 110.251 839.893 479.713
67 0 79.1471 13.557 1073 108.796 840.153 477.612
68 0 82.1141 13.4812 1107 110.255 838.571 476.065
69 0 85.166 13.4443 1145 114.112 839.136 474.322
70 0 88.1355 13.2637 1169 112.367 837.441 473.099
71 0 91.0882 13.2948 1211 115.431 838.48 471.107
72 0 93.287 13.5817 1267 112.693 840.27 469.457
73 0 97.1464 13.526 1314 107.748 838.318 468.516
74 0 99.1826 13.8028 1369 110.28 839.541 466.358
75 0 103.178 13.3943 1382 112.693 840.826 464.699
76 1 56.1035 12.8334 720 108.058 837.396 486.083
77 0 57.1152 12.9388 739 105.468 839.744 485.204
78 0 60.2904 12.9871 783 111.891 841.208 484.124
79 0 62.2279 13.1613 819 106.411 840.299 482.672
80 0 64.2838 12.8182 824 108.325 840.953 481.296
81 0 65.2211 13.2166 862 110.509 840.908 480.51
82 0 67.2106 13.2866 893 111.353 841.411 479.474
83 0 71.3082 13.3084 949 109.163 841.306 477.815
84 0 73.1335 13.2497 969 115.204 840.37 476.262
85 0 76.1657 13.2212 1007 109.566 842.745 475.344
86 0 79.1207 13.4984 1068 113.237 840.44 472.844
87 0 81.2997 12.7553 1037 113.265 843.343 473.271
88 1 43.2141 12.3571 534 118.507 840.91 490.966
89 0 43.2075 12.683 548 107.015 842.173 491.182
90 0 46.1518 12.2639 566 114.378 841.29 490.071
91 0 47.2748 12.7764 604 121.377 843.038 489.629
92 0 49.1053 12.4223 610 117.018 842.584 489.211
93 0 49.1053 12.4223 610 170.048 842.584 489.211
94 0 52.0941 12.3239 642 115.925 842.293 487.907
95 0 52.0499 12.8723 670 110.79 841.718 487.136
96 0 54.0554 13.1347 710 113.577 840.765 486.455
97 0 57.1628 12.5256 716 118.465 840.959 486.045
98 0 59.1675 12.9632 767 119.196 841.323 484.849
99 0 62.1125 12.9121 802 112.9 840.835 483.81
100 0 64.2583 13.1189 843 108.847 840.724 482.422
101 0 66.3026 12.8502 852 112.157 842.137 481.975
102 0 67.1299 13.6899 919 102.743 841.487 479.787
103 0 70.3297 13.4651 947 115.998 842.75 478.143
104 0 72.2337 13.304 961 113.666 841.012 477.43
105 0 76.3982 13.3904 1023 110.03 840.5 475.569
106 0 79.4271 12.9427 1028 115.33 840.978 474.794
107 0 82.5479 13.2408 1093 112.769 839.202 472.21
108 0 85.4226 13.5913 1161 108.304 841.517 470.622
109 0 88.4003 13.8235 1222 114.324 841.284 468.237
110 0 90.3287 13.6059 1229 111.881 840.771 466.587
111 0 94.2985 13.4361 1267 111.959 841.293 465.231
112 1 49.2374 12.2468 603 116.4 841.98 487.551
113 0 49.0499 13.0276 639 116.786 840.703 487.247
114 0 50.2445 12.7974 643 112.215 841.596 486.266
115 0 52.1508 12.6364 659 112.991 840.778 485.279
116 0 55.1645 13.0338 719 117.673 840.809 483.829
117 0 56.2507 13.1732 741 109.974 841.664 482.669
118 0 58.3035 13.3611 779 105.78 841.47 481.747
119 0 59.2652 13.2118 783 110.142 841.861 480.262
120 0 61.2881 13.3794 820 111.332 840.633 479.517
121 0 65.4302 13.3425 873 114.267 840.686 477.913
122 0 67.3858 13.1778 888 100.855 841.872 477.123
123 0 69.3001 13.4488 932 111.265 841.068 475.061
124 0 70.4669 13.3396 940 108.841 842.505 474.255
125 0 74.3879 13.3221 991 103.378 842.875 473.322
126 0 76.343 13.4393 1026 112.701 842.458 472.184
127 0 80.2508 13.1712 1057 107.498 843.169 470.652
128 0 83.3254 13.2733 1106 113.648 843.383 470.029
129 0 87.3236 13.261 1158 105.917 843.669 468.394
130 0 90.4218 13.5144 1222 118.393 843.638 466.459
131 1 47.2524 12.1052 572 114.561 843.874 486.441
132 0 48.2155 12.7967 617 112.759 841.008 485.449
133 0 50.1488 12.2236 613 124.026 843.173 484.801
134 0 51.1644 12.6064 645 118.602 841.087 484.273
135 0 53.0936 12.3179 654 117.561 841.054 483.417
136 0 55.155 12.619 696 123.172 841.756 482.671
137 0 56.0859 12.784 717 118.794 841.789 482.392
138 0 59.1326 12.7003 751 122.105 842.944 481.625
139 0 59.0759 13.4234 793 109.818 842.994 480.545
140 0 61.1344 13.2658 811 121.755 840.566 479.809
141 0 65.0848 13.3211 867 111.256 841.122 478.683
142 0 66.1533 13.3176 881 116.377 839.988 477.522
143 0 68.1088 13.1701 897 111.984 841.95 475.964
144 0 72.1088 13.1607 949 108.242 839.682 474.925
145 1 92.1321 12.862 1185 104.462 842.826 463.528
146 0 97.2745 13.0044 1265 105.904 842.632 462.326
147 1 50.1065 11.0964 556 98.7842 840.128 484.48
148 0 53.0969 11.3943 605 113.759 841.931 483.812
149 0 52.1821 12.1114 632 103.753 840.794 483.256
150 0 54.201 11.7157 635 105.572 840.06 483.757
151 0 55.2164 12.3876 684 103.751 838.924 483.121
152 0 57.17 12.1917 697 101.472 839.501 482.439
153 0 59.1803 12.031 712 93.736 838.381 481.699
154 0 61.1602 12.2465 749 100.471 839.721 481.001
155 0 61.1602 12.2465 749 169.765 841.721 481.001
156 0 63.1559 12.4296 785 99.1083 839.716 479.724
157 0 66.1382 12.1413 803 99.3985 839.809 478.131
158 0 69.192 12.3569 855 96.5778 839.8 477.57
159 0 70.1568 12.5861 883 94.7656 838.593 475.52
160 0 73.105 12.4889 913 97.069 840.3 474.114
161 0 75.1474 12.4023 932 106.958 839.957 473.959
162 0 78.1421 12.4389 972 99.3909 843.519 473.146
163 0 79.2159 12.6111 999 98.8819 841.591 472.039
164 0 80.3539 12.5445 1008 109.344 842.109 471.227
165 0 84.2542 12.8896 1086 100.771 841.823 469.461
166 1 45.0971 10.7102 483 106.311 840.576 490.586
167 0 46.1523 11.2021 517 95.0251 840.76 489.839
168 0 47.2396 11.4099 539 105.725 839.64 488.989
169 0 50.1956 11.4153 573 99.6108 840.318 488.866
170 0 51.1895 11.6821 598 95.0702 840.04 487.992
171 0 52.2404 11.4279 597 98.057 839.384 487.889
172 0 54.2062 11.6223 630 94.9349 839.638 487.008
173 0 55.1848 11.7967 651 103.602 840.897 486.243
174 0 57.1494 11.9161 681 97.7489 841.671 485.533
175 0 59.1241 12.0594 713 100.436 841.23 484.948
176 0 61.264 12.0789 740 88.0176 840.277 483.738
177 0 61.2287 12.2981 753 92.749 841 482.873
178 0 62.1682 12.6431 786 95.6896 840.115 482.048
179 0 65.2156 12.5277 817 101.764 837.813 480.699
180 0 68.324 12.0602 824 91.2464 840.248 480.098
181 0 70.1919 12.2236 858 113.379 841.005 478.781
182 0 72.1539 12.113 874 99.2208 841.635 477.794
183 0 74.2567 12.3356 916 103.04 842.009 476.461
184 0 77.3419 12.4124 960 100.01 839.043 474.882
185 0 79.4146 12.0255 955 97.578 840.84 474.142
186 0 81.3092 12.4586 1013 105.723 841.29 472.448
187 0 83.5396 12.4013 1036 108.037 841.387 470.615
188 1 42.1874 10.5482 445 103.818 841.097 491.796
189 0 44.2919 11.1307 493 100.396 843.059 490.46
190 0 46.2892 11.3633 526 95.8346 842.038 490.253
191 0 46.2582 11.7385 543 94.86 841.383 489.418
192 0 49.19 11.4048 561 101.988 841.282 488.351
193 0 49.1984 11.7483 578 99.8737 840.661 488.306
194 0 50.2237 12.4045 623 97.0658 841.156 487.974
195 0 51.1285 12.185 623 94.6661 840.746 487.339
196 0 53.2211 12.495 665 90.803 842.102 485.675
197 0 54.1455 12.4295 673 105.302 842.275 484.813
198 0 56.0842 12.3029 690 90.7855 842.191 483.738
199 0 57.1934 12.3616 707 99.5644 840.14 482.314
200 0 59.1522 12.6454 748 96.1618 839.126 482.016
201 0 61.2307 12.3304 755 92.2715 840.907 481.187
202 0 63.2136 12.0702 763 102.779 840.595 480.228
203 0 65.3401 12.412 811 85.2207 840.515 478.818
204 0 65.1931 13.0842 853 97.4936 843.185 476.828
205 0 69.2305 12.7978 886 90.974 842.931 475.699
206 0 69.2419 13.229 916 91.6594 841.857 474.099
207 0 73.2257 13.4516 985 92.7178 840.474 472.158
208 0 74.2945 13.2311 983 96.058 841.144 471.331
209 0 78.2013 13.2351 1035 98.9237 839.908 469.982
210 0 79.2895 13.2426 1050 94.22 841.41 469.248
211 0 83.2065 13.0759 1088 97.6425 839.422 467.758
212 0 85.3901 12.9055 1102 97.8993 840.261 466.591
213 0 87.2951 13.2653 1158 98.1649 840.78 464.773
214 0 90.221 13.7662 1242 115.046 841.821 463.577
215 0 90.221 13.7662 1242 174.887 842.821 463.577
216 1 49.0774 11.8996 584 103.092 840.469 483.717
217 0 48.0268 12.3681 594 99.8047 840.3 483.247
218 0 51.0756 12.0606 616 107.638 839.244 483.154
219 0 51.0868 12.4298 635 102.888 841.257 482.301
220 0 54.0722 12.0949 654 108.538 841.372 481.58
221 0 54.2666 12.4754 677 107.301 840.137 480.542
222 0 57.1835 12.5561 718 100.036 841.336 479.18
223 0 58.1403 12.2634 713 103.212 839.739 478.604
224 0 58.2243 13.1732 767 106.785 839.802 478.229
225 0 60.2157 13.2524 798 99.9511 841.409 476.917
226 0 61.2572 13.4351 823 109.046 841.358 475.272
227 0 66.3685 12.521 831 105.699 841.229 474.008
228 0 68.2114 12.8424 876 99.7534 842.465 473.28
229 0 70.2266 12.9865 912 102.537 840.862 471.648
230 0 74.4187 12.7656 950 107.096 840.894 469.973
231 0 77.247 12.6089 974 101.823 840.302 468.997
232 0 80.2533 12.7098 1020 103.354 841.754 467.242
233 0 82.2577 12.6675 1042 102.972 841.833 465.95
234 0 84.2024 12.9569 1091 104.082 840.955 464.181
235 1 44.1446 11.2585 497 99.4406 841.561 484.807
236 0 43.1206 11.549 498 110.448 841.873 484.785
237 0 46.1596 11.2003 517 102.538 838.985 484.338
238 0 48.1839 11.0203 531 109.911 840.874 483.776
239 0 49.1233 11.5017 565 107.46 841.529 482.887
240 0 48.2227 11.9653 577 102.133 842.794 482.861
241 0 51.1665 11.8046 604 105.788 841.528 481.993
242 0 52.1674 12.1532 634 116.839 841.842 480.871
243 0 53.1671 12.188 648 104.273 840.85 480.026
244 0 55.0831 12.1453 669 113.586 839.291 478.937
245 0 56.1059 12.2803 689 108.255 839.237 479.234
246 0 57.1307 12.6902 725 103.799 839.523 477.833
247 0 60.0972 12.2468 736 99.4375 841.167 476.633
248 0 62.0455 12.2007 757 99.9194 842.631 476.485
249 0 64.0732 12.8603 824 108.864 838.737 474.573
250 0 66.1724 12.3768 819 113.228 841.347 473.741
251 0 66.094 12.5881 832 111.852 840.59 472.898
252 0 71.1099 12.3049 875 111.962 841.834 472.28
253 0 72.0737 12.5843 907 111.114 841.859 470.574
254 0 74.1975 12.898 957 101.33 842.934 469.99
255 0 77.1936 12.501 965 115.238 843.514 468.169
256 0 77.1936 12.501 965 166.826 844.514 468.169
257 0 83.2287 12.9763 1080 116.204 845.037 465.029
258 0 85.4681 13.0575 1116 114.763 842.892 463.119
259 0 90.3771 12.813 1158 113.694 840.984 461.639
260 1 47.3132 10.7792 510 109.988 838.604 483.473
261 0 49.1432 11.4563 563 101.805 840.657 482.863
262 0 51.2066 11.8149 605 106.64 841.04 481.545
263 0 51.1843 11.6833 598 101.334 842.127 481.197
264 0 53.1491 11.797 627 112.764 839.781 480.959
265 0 53.1 12.0716 641 110.488 841.58 480.183
266 0 56.1669 11.8041 663 102.78 841.106 478.872
267 0 57.2886 12.0617 691 108.635 841.498 478.232
268 0 59.1927 12.113 717 117.25 840.745 476.82
269 0 60.2939 12.323 743 110.007 840.787 476.349
270 0 63.2423 12.5075 791 108.01 840.431 475.736
271 0 65.2994 12.2819 802 106.296 841.335 474.571
272 0 66.2348 12.2896 814 108.612 839.862 473.316
273 0 66.2348 12.2896 814 165.106 838.862 473.316
274 0 70.3053 12.6022 886 104.742 842.212 470.842
275 0 73.2259 12.2224 895 118.903 842.134 470.265
276 0 76.1976 12.3101 938 101.345 841.05 468.811
277 0 77.2902 12.7312 984 113.254 841.551 467.713
278 0 81.2093 12.5601 1020 112.114 841.703 466.71
279 0 81.2448 12.3946 1007 116.901 840.763 465.427
280 0 84.214 12.5632 1058 112.924 840.562 464.493
281 1 42.0298 10.897 458 111.69 840.651 485.168
282 0 45.1026 11.4849 518 112.475 838.782 484.598
283 0 46.0654 11.9613 551 111.172 840.162 484.84
284 0 48.1168 11.5552 556 109.667 838.786 484.428
285 0 47.0715 12.0668 568 125.572 841.533 484.107
286 0 50.0801 12.2404 613 112.902 839.064 483.61
287 0 50.1217 12.3699 620 110.524 840.413 482.945
288 0 53.2127 11.9144 634 112.276 839.05 482.79
289 0 54.2105 12.4146 673 103.565 839.654 482.374
290 0 57.1793 12.1373 694 122.147 841.086 481.689
291 0 57.2432 12.543 718 114.845 841.084 480.875
292 0 58.3359 12.668 739 119.993 842.173 479.959
293 0 61.335 12.3421 757 116.197 841.781 479.481
294 0 63.2488 12.6801 802 109.86 840.092 478.118
295 0 65.2696 12.6705 827 117.681 840.382 477.064
296 0 67.3827 12.941 872 112.062 838.607 476.006
297 0 69.5027 13.0211 905 116.478 840.881 475.116
298 0 70.4592 12.9011 909 112.794 840.605 473.653
299 0 73.173 13.1743 964 112.011 841.396 472.368
300 0 76.3721 12.989 992 112.109 841.219 471.645
301 0 79.255 13.1601 1043 115.223 839.597 469.71
302 0 82.2839 12.9916 1069 112.321 840.36 468.827
303 0 85.3075 13.0821 1116 107.418 840.383 467.258
304 0 88.2782 13.2082 1166 115.089 839.734 465.883
305 1 44.0231 12.448 548 119.214 840.859 486.75
306 0 46.0181 12.1691 560 119.32 838.779 486.838
307 0 46.128 12.1401 560 117.352 839.954 486.218
308 0 48.1504 12.5025 602 120.093 840.341 485.641
309 0 48.0844 12.998 625 116.997 839.174 485.075
310 0 51.0728 12.7661 652 115.37 841.808 484.676
311 0 53.2701 12.8402 684 111.342 840.746 483.371
312 0 54.22 12.5415 680 110.887 841.401 483.088
313 0 55.2086 12.8603 710 112.752 842.986 482.093
314 0 57.1349 12.8643 735 120.454 840.887 481.286
315 0 58.1055 12.8215 745 119.341 840.277 480.697
316 0 60.1662 13.0472 785 115.251 840.884 479.126
317 0 62.2677 13.1529 819 111.579 840.832 478.477
318 0 63.1791 13.5013 853 110.528 840.57 476.78
319 0 67.2069 13.079 879 119.495 841.98 475.638
320 0 68.1383 13.4432 916 123.753 842.273 474.79
321 0 71.1139 13.2604 943 127.938 841.102 473.646
322 0 73.0783 13.3692 977 116.312 843.077 472.211
323 0 76.1464 13.2377 1008 116.832 842.501 470.804
324 0 79.1119 13.7147 1085 118.03 842.909 469.277
325 0 80.1176 13.605 1090 128.892 840.843 467.763
326 0 85.1949 13.5806 1157 131.835 841.285 465.381
327 0 88.1161 13.1645 1160 126.648 841.464 464.217
328 0 90.0559 13.0475 1175 113.968 841.095 462.946
329 0 93.2706 13.2839 1239 125.744 841.937 461.295
330 1 50.08 12.0208 602 118.199 841.533 482.696
331 0 51.0987 12.0943 618 124.777 844.362 482.076
332 0 51.1319 12.1646 622 145.857 844.643 481.656
333 0 53.1283 12.611 670 129.951 841.972 480.491
334 0 54.0391 12.5835 680 128.451 841.274 479.281
335 0 57.1065 12.503 714 132.94 841.08 478.028
336 0 56.1119 12.7959 718 129.014 841.699 477.657
337 0 60.0726 12.5348 753 135.963 841.701 475.801
338 0 62.2076 12.4101 772 131.212 841.706 474.92
339 0 63.0917 12.7592 805 130.029 840.911 474.191
340 0 64.1383 12.8005 821 133.893 840.415 473.426
341 0 64.1396 13.4394 862 131.262 842.128 471.588
342 0 69.1216 13.0061 899 128.618 841.199 470.412
343 0 72.151 12.4461 898 132.709 842.894 469.347
344 0 73.1209 13.0058 951 127.333 842.992 468.233
345 0 76.062 12.7528 970 129.99 843.263 466.788
346 0 79.1141 12.9812 1027 130.172 841.527 465.34
347 0 82.0667 13.0869 1074 129.728 842.305 465.009
348 0 85.0572 12.9795 1104 132.046 840.469 463.379
349 1 46.0987 11.2585 519 132.119 841.476 482.825
350 0 48.0807 11.4807 552 134.917 841.114 481.716
351 0 50.1125 11.8932 596 124.544 841.3 480.5
352 0 49.085 12.3052 604 144.995 843.068 479.783
353 0 52.0646 12.1388 632 128.229 843.085 478.847
354 0 53.1917 12.2576 652 135.867 840.613 478.248
355 0 54.164 12.4621 675 133.89 840.97 477.514
356 0 56.1872 12.8321 721 133.918 842.399 477.051
357 0 58.1783 12.4961 727 147.402 842.714 475.942
358 0 62.1618 12.3388 767 140.322 841.665 476.239
359 0 63.1056 12.7722 806 138.159 842.239 474.293
360 0 66.1798 12.738 843 137.846 843.358 473.598
361 0 66.2554 12.965 859 142.391 841.717 472.356
362 0 68.2653 12.9055 881 138.109 842.269 471.413
363 0 72.1287 12.9491 934 136.596 840.964 470.039
364 0 76.2706 12.495 953 135.619 842.39 469.081
365 0 78.26 12.714 995 137.274 841.829 467.143
366 0 81.3372 12.5896 1024 132.412 841.956 465.667
367 0 84.1993 12.803 1078 143.207 841.985 464.519
368 0 86.2714 12.7736 1102 132.475 842.18 463.515
369 0 90.2692 12.6621 1143 143.992 845.697 461.054
370 1 48.2428 11.3385 547 141.87 843.269 482.064
371 0 49.1539 11.5962 570 136.774 841.089 481.56
372 0 52.1351 11.7196 611 140.931 843.759 480.678
373 0 51.1087 12.0723 617 138.964 842.368 479.592
374 0 54.1382 12.3203 667 131.781 842.85 478.606
375 0 56.1299 12.1148 680 132.319 840.859 477.309
376 0 57.1184 12.4653 712 127.579 839.478 476.312
377 0 60.2463 12.0671 727 124.495 839.966 476.162
378 0 61.11 12.3711 756 127.733 839.456 475.321
379 0 60.254 13.0448 786 124.758 839.313 474.492
380 0 64.1591 12.4067 796 127.861 840.859 473.107
381 0 67.2343 12.5829 846 130.918 840.616 472.284
382 0 70.2805 12.4786 877 121.964 843.684 470.488
383 0 72.3645 12.7549 923 127.146 842.47 468.93
384 0 75.3486 12.6081 950 125.14 842.82 468.348
385 0 76.215 12.7796 974 135.144 841.221 467.458
386 0 78.2086 12.7735 999 126.129 842.707 466.286
387 0 81.1998 12.9803 1054 120.135 842.787 464.928
388 0 85.3521 12.8175 1094 126.956 843.25 463.382
389 0 89.4173 12.7492 1140 123.71 842.272 462.357
390 0 90.3469 12.5738 1136 128.1 841.885 460.078
391 1 45.2273 10.7899 488 128.955 840.627 482.334
392 0 46.163 11.546 533 124.229 841.869 482.026
393 0 47.099 11.2954 532 128.402 841.714 481.652
394 0 49.1169 11.6864 574 125.334 841.164 480.918
395 0 48.022 12.3693 594 117.81 840.406 479.938
396 0 52.0661 11.6775 608 122.049 840.095 479.066
397 0 54.0526 11.5258 623 126.732 841.823 479.095
398 0 55.0505 11.4622 631 123.417 840.393 478.23
399 0 56.0283 11.8155 662 121.758 842.098 477.103
400 0 58.1138 11.9593 695 134.154 840.852 476.709
401 0 59.0455 12.0754 713 134.335 839.491 475.729
402 0 61.0958 11.8175 722 136.256 839.63 475.723
403 0 63.043 11.8649 748 128.066 841.307 474.512
404 0 64.1847 12.1524 780 139.887 838.959 473.647
405 0 64.0837 12.905 827 135.871 839.357 473.716
406 0 66.0373 12.3566 816 147.064 840.224 472.873
407 0 69.1676 12.3324 853 144.791 839.442 471.638
408 0 72.0629 12.3642 891 141.945 840.327 471.25
409 0 74.0688 12.5829 932 137.306 839.499 469.353
410 0 77.1722 12.5823 971 131.48 840.286 468.62
411 0 80.0725 12.139 972 127.128 839.279 467.579
412 0 83.1275 12.8237 1066 127.356 838.969 465.488
413 0 87.2435 12.3906 1081 132.813 839.864 462.608
414 1 45.0249 11.1272 501 127.188 839.743 485.098
415 0 46.0174 11.5826 533 137.465 842.535 484.285
416 0 46.0174 11.5826 533 159.762 844.535 484.285
417 0 50.0935 12.297 616 129.859 840.95 482.727
418 0 52.0721 11.945 622 125.714 842.701 482.079
419 0 52.1322 12.4107 647 138.573 839.646 481.074
420 0 54.0687 12.6876 686 131.284 841.787 480.23
421 0 56.1284 12.5427 704 136.553 839.723 479.572
422 0 58.1391 12.7281 740 133.907 841.391 478.743
423 0 60.1315 12.7388 766 130.803 839.561 477.714
424 0 62.2294 12.5503 781 129.787 841.758 477.365
425 0 64.0692 12.7206 815 131.547 840.746 475.654
426 0 66.1374 12.5043 827 140.792 839.792 475.372
427 0 70.1411 12.5176 878 124.371 840.446 474.11
428 0 71.1461 12.2846 874 121.918 839.953 472.707
429 0 73.1392 12.5241 916 115.852 841.14 471.555
430 0 75.1953 13.0061 978 119.313 841.635 470.013
431 0 76.1054 13.1659 1002 110.344 840.265 468.684
432 1 43.0324 10.7129 461 128.935 841.458 485.996
433 0 44.1327 11.0576 488 116.846 839.801 485.102
434 0 46.0888 12.1071 558 116.025 841.412 484.24
435 0 45.2086 12.4313 562 116.669 842.653 483.956
436 0 49.2074 11.7259 577 124.345 842.529 483.298
437 0 50.1827 12.2353 614 131.184 845.435 481.824
438 0 52.1352 12.2374 638 127.621 841.685 481.458
439 0 52.1358 12.6592 660 130.412 842.465 480.976
440 0 54.0627 12.467 674 129.274 840.752 480.122
441 0 55.1189 12.7905 705 134.711 841.499 479.252
442 0 56.1619 12.8735 723 126.221 840.633 478.349
443 0 60.1126 12.5431 754 137.085 840.796 477.542
444 0 59.1477 13.0859 774 132.075 840.96 477.066
445 0 62.1776 13.1076 815 134.502 842.049 475.51
446 0 63.1806 12.9787 820 129.639 842.59 474.699
447 0 66.158 12.8329 849 128.028 842.615 473.557
448 0 68.0848 12.9544 882 131.391 843.715 472.204
449 0 70.1542 12.9002 905 142.041 842.317 470.83
450 0 72.2313 13.0276 941 148.606 842.034 470.191
451 0 75.143 13.0551 981 152.217 842.747 468.504
452 0 77.1587 13.0381 1006 151.462 841.549 467.487
453 0 79.1625 12.9733 1027 152.034 840.469 466.524
454 0 82.1778 13.2518 1089 160.272 841.149 464.978
455 0 84.1866 13.4226 1130 151.163 842.198 463.507
456 0 86.1253 13.5849 1170 147.477 840.925 462.472
457 0 86.1253 13.5849 1170 184.026 839.925 462.472
458 0 92.1735 13.6373 1257 156.998 840.422 458.73
459 0 94.2036 13.301 1253 148.152 844.266 458.291
460 0 98.2887 13.5316 1330 145.126 842.972 456.458
461 0 99.296 14.0489 1395 156.308 843.698 454.408
462 0 103.181 13.8398 1428 143.314 842.821 452.289
463 0 106.318 13.7135 1458 149.951 841.46 451.112
464 0 109.22 13.7429 1501 142.089 842.214 450.203
465 0 109.22 13.7429 1501 178.132 843.214 450.203
466 0 115.108 13.6481 1571 162.75 841.259 446.194
467 1 64.1387 12.052 773 150.106 840.257 472.087
468 0 66.1611 12.2126 808 163.609 842.161 471.009
469 0 68.1716 12.6446 862 147.306 839.758 469.582
470 0 70.1382 12.4469 873 148.865 840.325 468.173
471 0 72.1816 12.4686 900 144.501 842.222 467.574
472 0 74.2182 12.6384 938 147.204 841.112 465.848
473 0 77.2437 12.5318 968 140.799 840.865 464.076
474 0 80.0991 12.5719 1007 143.522 840.331 463.673
475 0 83.2348 12.699 1057 137.472 841.625 462.257
476 0 86.0879 12.6615 1090 143.978 842.166 460.264
477 0 89.1163 12.882 1148 138.11 844.098 458.033
478 0 93.2189 12.712 1185 150.415 840.367 456.617
479 0 95.1729 12.8188 1220 141.514 841.376 454.941
480 0 100.124 12.8541 1287 136.519 840.779 452.946
481 0 104.238 12.7976 1334 141.273 842.752 449.903
482 1 54.0939 11.5725 626 141.371 842.324 475.126
483 0 56.0155 12.0859 677 140.21 842.659 473.551
484 0 58.0642 11.9351 693 137.079 841.659 473.541
485 0 58.0512 12.3684 718 137.678 839.841 471.584
486 0 61.0541 12.0876 738 137.629 841.446 471.593
487 0 63.0279 12.2009 769 137.545 840.2 470.204
488 0 65.0583 11.9124 775 133.529 842.938 468.985
489 0 67.1077 12.5172 840 131.167 841.987 468.011
490 0 69.1613 12.1166 838 127.445 842.183 467.115
491 0 70.0471 12.563 880 138.257 839.783 465.299
492 0 73.0843 12.6703 926 133.73 841.746 464.733
493 0 75.1119 12.741 957 123.928 842.159 464.104
494 0 77.0782 13.0387 1005 126.571 841.464 461.74
495 0 81.117 12.6977 1030 134.77 842.047 461.03
496 0 82.0646 13.2579 1088 138.387 842.505 460.269
497 0 85.1501 13.2942 1132 134.679 840.631 459.18
498 0 88.1721 13.0994 1155 138.544 842.972 457.325
499 0 90.2212 13.4447 1213 141.311 841.796 455.651
500 0 94.2156 13.3736 1260 134.831 843.637 454.827
501 0 96.2192 13.1367 1264 133.024 841.277 454.39
502 0 97.0547 13.7551 1335 139.69 843.099 452.012
503 0 102.162 13.2143 1350 137.612 841.387 450.661
504 0 104.267 13.6093 1419 129.515 841.937 448.636
505 0 108.27 13.6695 1480 145.775 841.597 446.821
506 0 112.268 13.4143 1506 146.408 842.44 444.566
507 0 117.331 13.3554 1567 150.218 841.283 442.541
508 1 63.1512 11.6704 737 144.661 842.129 469.982
509 0 65.1433 11.6512 759 144.954 841.484 468.7
510 0 68.2208 12.1224 827 142.93 840.29 467.954
511 0 70.092 11.9985 841 144.992 840.855 466.886
512 0 73.0677 11.7836 861 151.138 840.296 465.931
513 0 74.1867 11.9833 889 150.494 840.117 464.553
514 0 76.171 12.1569 926 146.897 841.371 462.941
515 0 80.1748 12.4104 995 145.004 840.749 461.19
516 0 81.1349 12.2019 990 140.001 841.094 460.692
517 0 85.1681 12.3051 1048 136.727 841.972 458.871
518 0 88.2789 12.4039 1095 138.931 841.436 458.08
519 0 92.1753 12.2701 1131 129.134 840.161 455.945
520 0 96.2123 12.3893 1192 132.784 842.242 453.999
521 0 99.1568 12.4752 1237 130.855 840.839 452.951
522 0 102.104 12.3011 1256 136.088 840.981 450.821
523 0 104.29 12.5803 1312 134.133 842.269 449.136
524 0 108.16 12.5647 1359 134.334 842.978 447.844
525 0 111.118 12.5722 1397 139.958 842.223 446.404
526 0 116.209 12.4431 1446 123.483 840.32 445.006
527 0 119.138 12.9933 1548 133.78 839.808 443.613
528 0 124.249 13.0544 1622 123.797 840.65 440.696
529 1 67.1363 11.3054 759 129.565 840.648 469.372
530 0 70.115 11.5667 811 121.205 841.255 468.54
531 0 71.2342 12.1992 869 125.563 840.953 468.159
532 0 74.1875 12.2797 911 119.462 841.181 466.402
533 0 75.1182 12.6068 947 131.176 839.889 465.186
534 0 80.1405 11.9914 961 136.43 843.246 464.701
535 0 83.1531 12.2665 1020 130.226 840.104 462.905
536 0 83.1531 12.2665 1020 171.281 837.104 462.905
537 0 88.1927 12.5974 1111 135.003 840.993 461.548
538 0 91.1304 12.3888 1129 126.601 841.542 459.965
539 0 95.1255 12.4467 1184 138.231 841.219 458.085
540 0 95.1255 12.4467 1184 168.947 840.219 458.085
541 0 102.119 12.6127 1288 131.293 840.669 453.83
542 0 106.186 12.5911 1337 128.779 841.263 452.968
543 0 109.32 12.4772 1364 124.338 841.89 450.966
544 0 112.343 12.5954 1415 137.069 839.24 448.782
545 1 62.0353 11.4935 713 130.836 839.365 475.153
546 0 65.089 11.7685 766 123.198 839.92 473.427
547 0 66.1771 11.5146 762 130.123 841.911 472.654
548 0 67.1004 12.0566 809 127.871 841.659 471.551
549 0 69.1828 11.8382 819 127.255 842.788 470.737
550 0 70.1157 11.9089 835 126.109 841.976 469.362
551 0 73.1162 12.063 882 125.567 842.037 469.098
552 0 75.1402 11.8179 888 124.161 841.845 468.193
553 0 75.0971 12.3174 925 122.611 841.604 467.255
554 0 79.0952 12.0488 953 124.264 841.547 465.978
555 0 81.1329 12.0913 981 127.022 842.751 464.948
556 0 84.1036 12.009 1010 125.354 841.428 464.117
557 0 85.0848 12.4111 1056 127.811 841.483 462.607
558 0 88.2244 12.2302 1079 123.83 842.488 461.336
559 0 91.276 12.0842 1103 125.555 842.778 459.751
560 1 48.1304 10.3261 497 129.435 842.913 481.736
561 0 49.2772 10.999 542 127.887 843.188 480.727
562 0 49.208 12.0306 592 125.024 844.419 480.497
563 0 51.0625 11.5936 592 126.157 844.534 479.821
564 0 53.1502 11.1194 591 125.853 843.43 479.181
565 0 54.1432 11.3034 612 129.925 843.567 478.35
566 0 57.0855 11.3164 646 125.941 844.096 477.598
567 0 56.1598 11.8946 668 130.055 842.737 476.527
568 0 60.0484 11.7405 705 129.204 842.872 476.33
569 0 61.0622 11.9878 732 120.96 843.245 475.115
570 0 64.1236 11.9457 766 125.983 844.162 473.71
571 0 64.0717 12.0802 774 127.625 842.451 473.031
572 0 66.0724 12.4409 822 129.067 842.894 472.051
573 0 67.1051 12.622 847 125.98 843.321 471.62
574 0 69.0734 12.6677 875 127.73 843.93 469.785
575 0 72.255 12.622 912 129.009 844.557 469.17
576 0 73.2446 12.7381 933 126.562 843.687 468.124
577 0 76.1922 12.9147 984 132.619 845.374 466.952
578 0 78.1177 13.1468 1027 135.199 844.971 465.21
579 0 79.2903 13.1164 1040 133.737 843.79 463.945
580 0 83.3343 13.3198 1110 134.11 845.068 462.549
581 0 86.2777 13.2363 1142 132.126 843.918 460.889
582 0 90.3403 13.1613 1189 135.746 842.749 459.518
583 0 93.3227 13.2337 1235 132.054 844.06 457.407
584 0 97.2376 13.0505 1269 123.637 844.942 455.876
585 0 97.2415 13.1528 1279 124.408 843.312 454.238
586 0 103.303 13.2039 1364 127.018 843.194 452.471
587 1 53.0644 11.4766 609 131.202 843.708 476.834
588 0 55.1277 12.3531 681 135.665 842.408 475.554
589 0 55.084 12.6352 696 135.006 844.287 475.072
590 0 55.0188 13.141 723 135.196 843.591 474.239
591 0 59.0425 12.4487 735 137.795 844.365 473.959
592 0 60.0739 12.8508 772 133.89 843.214 473.154
593 0 62.0434 13.007 807 128.454 842.916 472.187
594 0 65.1437 12.8485 837 136.558 844.257 470.949
595 0 68.0647 12.591 857 132.932 841.978 470.568
596 0 70.0762 12.8432 900 139.722 842.384 468.218
597 0 70.1691 12.9829 911 134.315 843.25 467.75
598 0 72.1298 13.5034 974 139.413 842.201 466.188
599 0 76.1443 13.3168 1014 140.392 842.872 465.139
600 0 78.0729 13.2184 1032 141.073 844.626 463.88
601 0 80.1799 13.6693 1096 141.453 845.716 462.408
602 0 84.0904 12.879 1083 146.886 845.38 462.099
603 0 87.1447 13.6325 1188 139.414 844.816 459.618
604 0 90.1872 13.6161 1228 137.622 844.143 458.182
605 0 92.3958 13.4746 1245 143.202 845.176 457.26
606 0 96.2694 13.6076 1310 147.418 846.283 455.495
607 1 47.1731 12.4435 587 144.135 844.898 478.993
608 0 47.1139 12.7775 602 150.819 844.967 479.184
609 0 48.0716 13.3759 643 140.143 845.138 477.994
610 0 50.1406 13.2228 663 147.706 845.214 477.789
611 0 52.1523 13.0771 682 143.424 845.499 476.868
612 0 52.1087 13.4143 699 150.398 843.82 476.076
613 0 57.0815 12.6486 722 150.331 842.349 475.37
614 0 57.1189 13.2531 757 152.059 845.683 474.696
615 0 59.0869 13.5394 800 153.302 844.219 473.806
616 0 58.12 14.0915 819 157.203 844.614 472.929
617 0 62.0895 13.4 832 154.928 842.773 472.27
618 0 64.1411 13.5482 869 146.157 842.476 471.267
619 0 66.2258 13.4389 890 153.684 842.998 469.787
620 0 67.0901 14.0408 942 152.789 845.116 469.012
621 0 69.0518 13.8012 953 152.44 843.501 468.678
622 0 71.1387 13.7619 979 160.939 843.41 467.343
623 0 75.106 13.5941 1021 162.033 844.935 466.571
624 0 77.0748 13.7269 1058 151.766 845.083 464.611
625 0 80.1565 13.7731 1104 151.902 843.043 463.755
626 0 81.0824 14.0474 1139 159.954 844.202 462.341
627 0 83.1097 13.9695 1161 159.178 844.712 461.487
628 0 86.2108 13.8498 1194 157.584 842.284 459.724
629 0 90.1002 13.7514 1239 158.567 842.885 458.195
630 0 94.1301 13.5982 1280 155.89 844.735 457.61
631 0 96.1873 13.7128 1319 158.974 842.332 455.411
632 1 50.0659 12.6433 633 157.874 845.55 477.239
633 0 53.249 12.8078 682 159.043 846.688 477
634 0 55.0281 12.8116 705 160.196 845.891 475.888
635 0 56.0602 13.0217 730 164.844 844.764 475.089
636 0 58.121 13.3687 777 160.55 845.435 474.497
637 0 61.1472 12.8706 787 164.332 846.432 473.172
638 0 63.0963 13.1386 829 160.07 847.497 472.7
639 0 65.2153 13.1718 859 158.943 845.455 471.622
640 0 67.2605 13.247 891 160.263 843.661 470.733
641 0 70.326 13.2526 932 156.557 844.151 469.021
642 0 71.2564 13.1778 939 161.67 844.764 467.575
643 0 74.3004 13.6608 1015 158.666 844.393 465.809
644 0 78.2251 13.3589 1045 155.37 843.72 464.453
645 0 81.2829 13.2008 1073 148.547 842.871 463.632
646 0 84.3462 13.5157 1140 154.539 842.342 461.677
647 0 88.2655 13.3348 1177 153.976 844.944 460.227
648 1 48.2456 11.4207 551 156.601 845.503 480.403
649 0 51.1143 12.3253 630 151.103 845.917 479.363
650 0 51.1947 12.4232 636 147.855 845.303 479.354
651 0 53.1567 12.7735 679 149.495 845.541 478.221
652 0 55.1353 12.5147 690 157.745 845.006 477.628
653 0 57.2497 12.821 734 148.526 844.854 476.82
654 0 58.1203 12.6118 733 155.008 844.046 476.273
655 0 60.1405 12.7867 769 149.835 843.964 475.26
656 0 63.153 12.6835 801 157.755 843.375 473.929
657 0 66.1706 12.634 836 155.609 844.144 472.574
658 0 68.086 12.9395 881 150.192 843.168 472.112
659 0 68.1571 13.3368 909 160.18 843.578 471.362
660 0 73.087 12.7519 932 157.313 845.236 469.982
661 0 73.1556 13.4781 986 159.975 843.939 469.383
662 0 78.0905 12.4087 969 169.336 843.262 468.878
663 0 80.1059 13.2949 1065 164.884 844.65 466.921
664 0 83.4004 13.1894 1100 162.961 847.003 465.221
665 0 87.3369 12.9155 1128 167.104 844.1 463.099
666 1 45.1665 12.2879 555 161.459 846.036 484.184
667 0 46.2076 12.5304 579 163.13 845.344 483.098
668 0 49.2766 12.1559 599 166.063 845.346 482.205
669 0 50.1528 12.0831 606 169.482 844.348 482.309
670 0 52.1416 12.5044 652 170.687 843.773 481.184
671 0 52.0749 12.5972 656 162.745 843.598 479.723
672 0 54.3069 12.8713 699 166.089 845.941 479.933
673 0 57.1586 12.4041 709 170.702 844.708 479.23
674 0 57.143 13.02 744 164.114 843.918 478.477
675 0 59.1547 12.8139 758 160.268 845.67 477.394
676 0 61.1041 12.7324 778 162.389 845.132 476.666
677 0 61.1041 12.7324 778 169.181 844.132 476.666
678 0 64.1566 13.3268 855 168.65 844.131 474.813
679 0 68.1424 12.738 868 166.783 845.024 473.831
680 0 70.2203 13.0731 918 161.231 844.261 472.359
681 0 72.1702 12.9971 938 164.115 845.724 471.403
682 0 74.2622 12.8194 952 167.397 844.638 470.354
683 0 75.309 12.9334 974 164.415 844.616 469.655
684 0 78.1932 13.1341 1027 168.93 845.723 468.179
685 0 82.1155 13.0304 1070 166.507 843.735 466.736
686 0 85.2632 12.913 1101 161.362 845.062 465.115
687 0 87.2707 12.8451 1121 167.185 845.211 464.016
688 1 46.309 11.7256 543 168.901 847.052 483.888
689 0 47.2261 11.8578 560 163.898 846.489 483.421
690 0 48.2129 12.0715 582 93.7973 845.256 483.337
691 0 49.0567 12.4142 609 161.823 844.791 482.34
692 0 51.0385 12.1869 622 162.823 843.879 481.058
693 0 52.0805 12.3847 645 168.74 844.643 480.304
694 0 54.1314 12.4327 673 165.996 846.033 479.199
695 0 55.1493 12.3483 681 168.075 846.483 478.64
696 0 57.2496 12.6464 724 165.612 844.902 477.894
697 0 60.1865 12.5942 758 167.051 845.934 476.265
698 0 61.1127 12.9597 792 157.427 846.308 474.759
699 0 63.1978 12.9118 816 164.8 844.956 473.989
700 0 65.1084 12.7173 828 171.302 844.366 473.333
701 0 68.2088 13.0042 887 169.947 845.785 472.099
702 0 70.1057 12.6381 886 167.368 844.676 471.315
703 0 73.1907 13.0481 955 164.931 844.423 469.004
704 0 75.1309 12.964 974 170.428 844.968 467.636
705 0 78.1143 13.2626 1036 169.642 844.792 466.634
706 0 80.0688 13.2011 1057 165.882 844.734 464.626
707 0 80.0688 13.2011 1057 173.382 844.734 464.626
708 1 44.0982 12.5175 552 168.67 843.801 482.063
709 0 47.0726 12.0877 569 172.232 845.318 480.937
710 0 48.1193 12.469 600 169.698 845.587 480.598
711 0 50.1096 12.4926 626 170.006 845.152 479.591
712 0 51.1399 12.5538 642 173.45 844.84 478.676
713 0 53.2175 12.4019 660 170.412 846.488 477.867
714 0 55.2802 12.5 691 169.182 844.735 477.207
715 0 55.1329 12.5333 691 167.184 845.37 476.22
716 0 57.079 12.2462 699 165.996 844.303 475.554
717 0 58.187 12.4942 727 160.257 843.545 474.593
718 0 61.1243 12.6137 771 160.387 843.597 474.012
719 0 61.0801 12.6228 771 159.45 845.166 472.564
720 0 66.1342 12.399 820 163.628 845.074 471.527
721 0 68.1516 12.4575 849 155.81 845.655 470.372
722 0 68.1424 12.4886 851 153.847 847.732 469.931
723 0 69.1259 12.5423 867 158.127 845.308 468.576
724 0 73.1364 12.6339 924 154.953 846.528 467.294
725 0 75.1672 12.4256 934 158.628 845.456 466.145
726 0 80.3161 12.3886 995 160.584 846.151 464.385
727 1 41.0551 11.1314 457 156.46 843.941 484.131
728 0 43.1347 11.383 491 153.534 842.959 482.548
729 0 44.2549 11.8631 525 150.276 845.2 481.655
730 0 46.2102 11.9454 552 151.547 843.111 480.531
731 0 47.2072 12.0744 570 155.809 842.986 480.153
732 0 48.2023 12.4268 599 156.798 843.209 479.225
733 0 49.2038 12.56 618 151.621 843.706 478.759
734 0 51.1869 12.0148 615 154.166 845.249 478.167
735 0 53.1633 12.2453 651 149.845 845.108 477.197
736 0 55.1977 12.1382 670 154.157 845.697 476.021
737 0 56.2139 12.2568 689 148.904 844.927 475.562
738 0 58.0874 12.6017 732 153.608 845.171 474.828
739 0 59.0858 12.5411 741 153.999 846.848 474.772
740 0 60.0556 13.1878 792 153.207 844.711 472.784
741 0 63.042 12.8486 810 156.14 844.075 471.925
742 0 66.0682 12.7141 840 156.645 844.095 470.75
743 0 69.0735 12.4939 863 158.731 843.99 469.612
744 0 69.2117 12.9747 898 150.488 845.213 467.929
745 0 72.2049 12.6446 913 156.47 844.051 467.373
746 0 75.2168 13.029 980 156.19 845.66 465.564
747 0 79.2333 12.6967 1006 158.699 844.039 464.574
748 1 43.0921 11.0229 475 154.937 846.977 482.712
749 0 44.1466 11.7789 520 161.452 847.167 482.415
750 0 44.1184 12.3984 547 158.718 846.748 481.66
751 0 46.0252 12.2541 564 162.904 843.009 480.695
752 0 47.1261 12.3711 583 154.746 843.163 480.007
753 0 49.0384 12.2761 602 162.201 844.794 479.088
754 0 51.0883 12.4882 638 159.182 844.02 478.103
755 0 53.2468 12.6393 673 160.639 844.333 477.464
756 0 53.3979 12.9219 690 160.813 844.839 476.542
757 0 55.2102 12.7875 706 160.122 844.561 476.312
758 0 57.2093 12.8476 735 161.747 844.988 475.113
759 0 59.1575 12.8809 762 168.701 844.322 474.971
760 0 61.1988 13.1212 803 163.981 844.606 473.275
761 0 64.0845 12.9048 827 162.285 844.768 472.073
762 0 66.209 13.1553 871 169.305 845.072 471.436
763 0 68.362 13.3261 911 167.46 846.471 469.666
764 0 72.3702 12.9059 934 173.241 845.53 468.514
765 0 75.2872 13.2957 1001 170.518 844.664 467.081
766 0 78.2363 13.1525 1029 167.777 845.132 465.794
767 0 81.1444 12.9645 1052 160.955 844.562 464.128
768 0 82.3555 13.6239 1122 171.181 843.724 462.286
769 1 39.207 11.8346 464 166.567 845.276 483.373
770 0 42.3999 12.0991 513 167.203 844.786 482.903
771 0 42.1453 12.7654 538 167.457 844.861 482.21
772 0 44.1566 12.8633 568 170.255 845.377 481.415
773 0 45.0739 13.1562 593 165.779 845.066 480.39
774 0 48.1448 12.504 602 158.52 845.066 480.256
775 0 47.249 13.7357 649 169.381 841.556 479.06
776 0 50.066 13.2226 662 163.518 843.663 478.509
777 0 52.1251 13.1798 687 160.741 845.499 477.983
778 0 53.0418 13.216 701 165.843 843.331 476.869
779 0 54.0479 13.7656 744 160.8 843.198 475.09
780 0 55.2053 13.9842 772 166.048 844.854 474.81
781 0 58.0977 13.615 791 159.777 843.957 473.838
782 0 58.0977 13.615 791 162.722 842.957 473.838
783 0 61.1276 14.0035 856 164.446 843.762 472.078
784 0 63.1878 13.9742 883 164.071 844.684 471.574
785 0 66.1645 13.9803 925 164.085 843.768 470.508
786 0 68.1846 14.2408 971 168.119 843.976 469.702
787 0 71.1687 14.3181 1019 168.333 847.659 467.779
788 0 74.3576 13.6234 1013 170.841 845.272 467.334
789 0 77.2184 14.1288 1091 166.717 846.937 465.833
790 0 79.1493 14.1126 1117 165.491 844.794 464.806
791 0 81.1712 14.2538 1157 167.296 846.476 463.437
792 0 84.1471 14.439 1215 165.08 847.209 462.509
793 0 89.2754 13.8112 1233 161.5 846.729 460.888
794 1 46.1449 12.8725 594 172.751 846.997 481.17
795 0 48.1954 12.8228 618 170.604 846.644 481.29
796 0 48.0493 13.611 654 173.937 845.179 481.255
797 0 52.1569 13.191 688 175.052 846.756 480.485
798 0 53.0949 13.0898 695 173.289 846.325 480.105
799 0 53.0461 13.328 707 166.605 845.522 479.345
800 0 55.0952 13.1953 727 170.466 845.304 478.916
801 0 57.0616 13.7746 786 169.636 845.917 478.001
802 0 59.1408 13.4425 795 174.01 846.518 477.248
803 0 61.0997 13.6007 831 171.268 845.215 475.727
804 0 63.1478 13.4763 851 171.793 848.031 475.115
805 0 65.1159 14.144 921 169.216 846.073 473.454
806 0 69.1263 13.7574 951 167.389 847.379 473.231
807 0 69.2705 13.4401 931 169.252 843.963 472.068
808 0 72.1193 13.2558 956 164.287 843.597 470.837
809 0 73.124 13.7301 1004 164.11 845.351 469.395
810 0 75.2491 13.5151 1017 166.251 845.859 468.601
811 0 80.2607 13.506 1084 165.991 845.796 467.069
812 0 82.1108 13.5549 1113 166.786 846.151 466.314
813 1 43.1238 12.7308 549 169.889 845.348 484.594
814 0 44.0928 12.4057 547 168.817 844.665 484.009
815 0 45.158 13.176 595 164.881 843.178 483.44
816 0 48.0699 12.7315 612 167.237 843.98 483.134
817 0 48.0874 13.018 626 167.644 843.96 482.776
818 0 48.1862 13.3648 644 173.812 844.096 482.009
819 0 51.1283 13.0652 668 165.052 844.382 481.084
820 0 53.0683 12.9267 686 169.684 846.344 480.792
821 0 55.0853 12.6894 699 170.894 845.592 480.027
822 0 56.05 12.9706 727 170.249 846.231 478.825
823 0 58.1177 13.4555 782 171.615 844.673 477.028
824 0 59.2034 13.8506 820 167.082 846.763 476
825 0 62.065 13.5181 839 170.774 844.857 474.97
826 0 65.1494 13.446 876 168.937 845.211 473.804
827 0 65.1122 13.7762 897 161.625 844.281 472.232
828 0 69.1907 13.3255 922 159.274 845.436 471.067
829 0 73.1281 13.4832 986 164.41 845.723 469.423
830 0 75.1421 13.7473 1033 170.682 846.216 468.223
831 0 78.1409 13.4373 1050 169.439 846.058 466.84
832 0 80.2926 13.7497 1104 166.336 845.219 465.159
833 0 84.1725 13.5199 1138 159.096 846.866 463.108
834 0 88.1771 13.4389 1185 164.639 846.171 461.302
835 1 46.2024 12.0989 559 156.784 846.44 481.608
836 0 47.168 12.4237 586 163.294 848.087 480.123
837 0 49.2564 12.1812 600 160.563 847.482 479.3
838 0 51.1855 12.4645 638 161.47 846.527 479.017
839 0 50.1249 13.227 663 163.308 845.416 477.995
840 0 52.102 12.9362 674 164.298 846.174 476.558
841 0 56.1191 12.4735 700 162.264 844.747 475.267
842 0 58.0851 12.6022 732 158.458 847.474 474.182
843 0 60.0417 12.8577 772 161.421 846.824 473.437
844 0 62.0647 12.6964 788 152.354 845.104 472.195
845 0 63.0732 12.4776 787 158.379 846.44 471.827
846 0 65.0714 13.0011 846 151.783 847.109 470.352
847 0 68.1303 13.254 903 152.736 844.058 468.957
848 0 70.1261 13.1335 921 154.23 846.859 468.193
849 0 74.1997 12.9246 959 153.785 845.259 466.484
850 0 77.0774 12.8183 988 154.162 845.633 465.446
851 0 80.0872 13.0108 1042 152.755 845.166 463.551
852 0 83.1339 13.1475 1093 151.485 844.688 462.678
853 0 86.1352 12.8054 1103 160.957 843.58 461.163
854 1 46.117 12.2948 567 158.716 845.201 480.58
855 0 47.1331 12.4753 588 159.175 845.99 479.35
856 0 49.144 12.4532 612 164.263 844.281 478.667
857 0 49.0871 12.488 613 165.028 843.984 478.814
858 0 49.0712 13.2664 651 155.937 845.057 478.164
859 0 53.134 12.8919 685 164.177 845.304 476.689
860 0 56.1777 12.6741 712 162.09 844.653 476.007
861 0 56.054 13.0767 733 160.482 844.03 475.769
862 0 58.1433 13.0024 756 163.44 846.319 474.288
863 0 60.0668 12.8524 772 162.652 846.175 473.9
864 0 61.1721 13.3721 818 160.886 845.35 472.363
865 0 63.0817 13.1893 832 165.099 846.44 471.641
866 0 65.0608 13.2645 863 162.07 845.877 470.83
867 0 67.074 13.3435 895 168.177 845.648 469.582
868 0 68.1663 13.7898 940 159.782 844.965 468.953
869 0 72.2007 13.3378 963 160.319 844.408 467.467
870 0 73.2031 13.7972 1010 157.851 843.783 466.28
871 0 76.1912 13.348 1017 162.769 845.757 465.487
872 0 78.1229 13.722 1072 168.154 845.786 463.572
873 0 81.13 13.4106 1088 168.271 846.949 462.262
874 0 83.1564 13.8654 1153 159.111 846.276 460.527
875 0 86.0527 13.852 1192 165.304 847.161 459.808
876 0 89.0863 13.8742 1236 168.854 845.324 458.032
877 0 92.2188 13.7933 1272 160.542 846.611 455.849
878 0 95.1119 13.7207 1305 174.48 844.785 454.426
879 0 99.2873 13.8286 1373 166.971 845.056 453.698
880 0 104.26 14.1569 1476 168.11 845.414 451.236
881 0 107.108 13.9485 1494 164.541 846.878 450.166
882 1 57.0764 13.2279 755 160.581 847.445 473.367
883 0 61.0947 13.029 796 159.477 845.607 473.06
884 0 62.2466 13.2698 826 164.712 845.617 472.008
885 0 65.0441 13.4678 876 153.202 846.267 470.174
886 0 68.1037 13.2592 903 163.605 846.752 469.816
887 0 69.1447 13.7393 950 162.278 845.773 468.726
888 0 73.078 13.3693 977 160.129 845.93 467.248
889 0 75.0898 13.2908 998 158.534 846.689 466.017
890 0 77.0982 14.1249 1089 161.172 846.167 464.263
891 0 78.2964 14.3812 1126 161.7 847.071 463.05
892 0 84.3142 13.6632 1152 160.289 847.826 461.275
893 0 86.2216 13.7205 1183 153.745 847.333 460.339
894 0 89.1628 14.2436 1270 161.632 848.323 458.198
895 0 93.1961 14.3246 1335 159.303 846.487 456.504
896 0 96.1739 14.193 1365 163.072 847.526 454.979
897 0 99.2974 14.3005 1420 156.036 845.77 453.182
898 0 103.178 13.9856 1443 163.813 845.523 451.817
899 0 105.346 14.552 1533 158.916 845.924 450.36
900 0 109.308 14.3173 1565 157.44 846.104 448.934
901 0 114.514 13.9284 1595 159.133 848.783 447.21
902 1 58.144 12.8474 747 166.237 847.829 474.74
903 0 60.0949 12.9628 779 164.589 847.08 473.198
904 0 62.0595 13.2292 821 161.341 846.102 472.67
905 0 64.0589 13.4251 860 160.01 844.867 471.494
906 0 67.0515 13.6611 916 159.132 845.437 470.644
907 0 69.1642 13.6487 944 156.319 845.839 469.53
908 0 72.1384 13.6543 985 152.409 845.51 467.478
909 0 73.0718 13.8768 1014 149.173 846.396 465.605
910 0 77.1534 13.7907 1064 150.381 845.523 465.025
911 0 79.0935 13.7053 1084 142.399 845.775 463.37
912 0 82.0933 13.7283 1127 144.572 845.948 462.106
913 0 84.0683 14.1433 1189 143.542 843.963 460.714
914 0 88.0866 13.8727 1222 138.324 846.594 458.413
915 0 91.3499 13.5961 1242 136.681 846.5 457.483
916 0 95.1505 13.6626 1300 131.965 845.781 455.666
917 0 96.2097 13.8448 1332 134.887 844.475 454.088
918 0 99.238 14.1075 1400 132.48 845.226 452.629
919 0 104.345 14.0208 1463 131.128 843.559 450.607
920 0 106.458 14.1652 1508 130.99 845.996 448.897
921 0 109.366 14.0903 1541 135.808 844.781 447.82
922 0 113.18 14.3841 1628 134.362 845.554 444.785
923 0 118.304 13.9302 1648 135.223 846.66 443.53
924 0 124.391 14.1811 1764 126.845 844.922 440.692
925 0 128.257 14.0265 1799 136.063 846.237 438.574
926 0 133.27 14.3093 1907 135.975 848.506 436.788
927 0 133.27 14.3093 1907 170.852 850.506 436.788
928 1 73.2154 12.9071 945 136.134 846.088 467.041
929 0 77.1924 13.5894 1049 132.038 846.297 465.279
930 0 79.1413 13.6338 1079 134.107 846.613 464.121
931 0 80.2389 13.9334 1118 136.434 846.001 463.265
932 0 83.0936 13.7435 1142 139.265 845.153 462.304
933 0 86.1416 13.6519 1176 140.048 845.424 461.07
934 0 89.2399 13.6598 1219 144.307 846.112 460.006
935 0 89.2399 13.6598 1219 176.567 845.112 460.006
936 0 94.2239 13.8075 1301 143.85 844.311 457.328
937 0 98.1566 14.049 1379 147.339 844.695 455.872
938 0 101.251 14.1529 1433 149.39 845.533 454.225
939 0 103.114 14.0232 1446 148.907 845.488 452.75
940 0 109.187 13.9394 1522 148.108 843.356 451.164
941 0 111.252 13.9773 1555 139.973 845.326 449.826
942 0 115.196 13.8893 1600 150.345 844.489 447.964
943 0 121.143 13.8349 1676 149.409 844.909 445.233
944 1 62.0589 12.9071 801 152.554 844.896 473.834
945 0 63.1468 13.2707 838 155.835 845.036 473.44
946 0 67.0393 13.0968 878 153.74 842.73 471.876
947 0 66.1099 13.5078 893 153.758 844.816 471.831
948 0 70.0945 13.2963 932 156.946 843.701 470.72
949 0 72.0872 13.7334 990 159.031 844.285 469.769
950 0 74.1738 13.401 994 161.282 845.149 468.672
951 0 76.1484 13.4212 1022 157.703 845.326 467.926
952 0 79.1401 13.4319 1063 154.935 843.183 466.277
953 0 82.1557 13.7544 1130 154.655 843.92 465.394
954 0 82.279 13.831 1138 156.864 845.705 463.993
955 0 87.1384 13.7138 1195 157.906 845.676 462.546
956 0 88.1105 13.6079 1199 154.482 845.44 461.398
957 0 91.2038 13.6617 1246 160.355 843.698 460.348
958 0 93.1949 13.7561 1282 158.369 844.38 459.145
959 0 95.0971 13.8595 1318 156.056 845.134 457.523
960 0 99.1015 13.7939 1367 165.608 844.95 456.202
961 0 100.069 14.0503 1406 159.661 846.488 455.081
962 0 104.472 13.8218 1444 162.659 845.445 453.799
963 0 105.142 14.5327 1528 159.822 847.177 452.665
964 0 110.25 14.2585 1572 161.707 844.95 450.441
965 0 113.185 14.3659 1626 162.899 843.833 448.41
966 0 118.188 14.5615 1721 160.032 845.278 445.458
967 0 121.409 14.5129 1762 164.358 844.911 443.672
968 0 125.275 14.7915 1853 163.149 846.086 441.509
969 0 130.35 14.8217 1932 166.635 844.705 439.171
970 0 135.167 14.5819 1971 160.135 844.654 436.07
971 0 140.14 14.4855 2030 171.182 847.056 432.456
972 0 147.194 14.6066 2150 163.177 845.32 429.953
973 1 79.0691 13.0013 1028 168.642 846.414 463.526
974 0 82.2175 13.6954 1126 165.338 845.957 461.672
975 0 86.1748 13.4262 1157 167.471 844.362 460.729
976 0 88.2081 13.7516 1213 168.881 845.73 458.904
977 0 92.3301 13.625 1258 171.725 847.363 457.421
978 0 95.3228 13.6693 1303 168.765 846.2 455.529
979 0 99.198 13.8612 1375 171.493 847.93 454.263
980 0 100.403 14.1529 1421 167.148 846.129 452.692
981 0 105.229 14.1121 1485 169.549 843.504 450.884
982 0 107.378 14.0904 1513 168.917 842.959 449.114
983 0 113.352 13.6477 1547 170.638 842.973 447.235
984 0 115.331 14.1852 1636 165.012 844.213 445.361
985 0 121.311 13.6674 1658 171.082 844.46 443.336
986 0 125.434 13.824 1734 165.674 845.607 439.864
987 1 69.1624 12.1309 839 161.909 845.278 468.045
988 0 72.2728 12.7572 922 158.266 843.982 465.701
989 0 73.2772 12.9781 951 165.054 844.7 465.557
990 0 74.1709 13.0644 969 161.618 843.251 464.993
991 0 79.1398 12.9518 1025 158.423 843.071 463.671
992 0 82.1651 12.9008 1060 161.897 842.76 462.304
993 0 84.1961 12.8391 1081 163.955 844.636 460.318
994 0 86.1501 12.989 1119 160.982 844.482 459.157
995 0 89.2271 13.2471 1182 161.084 842.81 457.814
996 0 91.262 13.2147 1206 162.11 844.056 456.458
997 0 95.2923 13.0965 1248 161.304 843.474 455.103
998 0 98.2783 13.4923 1326 158.799 843.661 453.173
999 0 101.261 13.3121 1348 166.532 843.586 451.992
1000 0 102.316 13.7418 1406 166.151 843.018 450.78
1001 0 109.322 13.6295 1490 165.979 845.7 448.796
1002 0 112.366 13.6696 1536 162.719 845.556 446.997
1003 0 115.296 13.6778 1577 165.566 844.468 444.943
1004 0 120.279 13.5767 1633 162.715 844.709 443.145
1005 0 123.291 13.9994 1726 157.213 844.805 440.976
1006 1 68.2768 12.2882 839 167.24 845.496 468.84
1007 0 71.1916 12.951 922 150.344 844.986 466.957
1008 0 73.1201 12.7051 929 167.152 844.033 466.659
1009 0 76.1044 13.1398 1000 162.707 846.403 465.188
1010 0 77.094 13.2047 1018 163.951 846.09 464.223
1011 0 80.0772 13.1498 1053 166.89 847.47 463.506
1012 0 82.138 13.1973 1084 164.436 843.852 462.434
1013 0 83.1591 13.4321 1117 161.499 844.555 461.568
1014 0 88.2063 13.1056 1156 168.725 845.07 460.322
1015 0 90.2216 13.4779 1216 169.324 844.84 458.417
1016 0 91.1827 13.5223 1233 169.901 844.787 457.673
1017 0 96.1991 13.576 1306 169.175 843.541 455.698
1018 0 98.2979 13.398 1317 167.961 842.011 454.185
1019 0 103.197 13.3337 1376 165.896 844.733 452.582
1020 0 106.168 13.0265 1383 170.894 843.166 450.972
1021 0 108.299 13.4997 1462 168.479 843.718 449.817
1022 0 111.22 13.5857 1511 163.522 844.116 447.261
1023 1 60.1148 12.0104 722 159.309 842.69 474.145
1024 0 62.1108 12.7353 791 160.284 844.626 473.054
1025 0 65.1232 12.6683 825 157.04 844.272 472.115
1026 0 66.1868 12.8273 849 162.131 844.73 471.147
1027 0 70.1642 12.8128 899 160.61 845.13 469.932
1028 0 71.1851 13.0505 929 155.89 846.027 468.743
1029 0 74.2142 12.9086 958 153.925 844.183 467.847
1030 0 75.1448 13.3476 1003 163.019 845.774 466.283
1031 0 78.2797 13.0302 1020 159.358 842.902 465.695
1032 0 80.22 13.2511 1063 165.209 842.906 463.96
1033 0 84.3199 13.1167 1106 163.204 845.948 462.524
1034 0 87.1327 13.2671 1156 155.475 843.747 461.013
1035 0 91.1209 13.1583 1199 161.735 845.324 459.649
1036 0 95.2461 13.5439 1290 163.444 843.331 458.178
1037 0 95.2461 13.5439 1290 170.715 841.331 458.178
1038 0 100.206 13.1829 1321 160.473 844.323 455.651
1039 0 103.153 13.7079 1414 162.278 843.24 453.093
1040 0 107.197 13.5638 1454 160.647 844.716 451.856
1041 0 110.09 13.7978 1519 160.724 844.278 450.106
1042 1 58.1085 12.7692 742 143.605 844.964 475.679
1043 0 60.051 13.0722 785 160.67 845.502 475.166
1044 0 62.1138 12.7669 793 158.072 846.438 474.678
1045 0 64.1883 13.3046 854 154.187 846.502 472.638
1046 0 64.135 13.534 868 155.342 846.002 472.082
1047 0 68.1093 13.5958 926 150.89 843.446 470.72
1048 0 69.1443 13.3633 924 157.755 845.252 470.803
1049 0 73.15 13.3425 976 152.676 845.758 469.28
1050 0 76.1687 13.2994 1013 149.815 846.07 467.796
1051 0 78.1266 13.5933 1062 155.546 846.01 466.893
1052 0 79.1212 13.7131 1085 155.218 845.977 466.426
1053 0 82.0487 13.7845 1131 155.076 845.738 464.615
1054 0 85.0966 13.9489 1187 156.81 845.16 463.029
1055 0 86.0767 14.0108 1206 160.826 846.454 461.961
1056 0 90.0873 14.1751 1277 158.262 846.639 460.223
1057 0 92.0729 13.9563 1285 159.707 847.485 458.851
1058 0 96.1272 13.8774 1334 163.016 846.816 457.628
1059 0 100.27 13.7728 1381 166.779 843.789 455.608
1060 0 100.156 14.178 1420 157.327 843.306 454.961
1061 0 107.162 13.6522 1463 163.066 843.491 452.511
1062 0 108.258 13.9389 1509 165.768 845.201 450.748
1063 1 57.3975 12.5267 719 165.182 842.577 476.107
1064 0 59.1171 13.3295 788 162.137 844.711 474.81
1065 0 62.0911 13.3513 829 158.205 844.241 474.657
1066 0 62.1112 13.5563 842 163.449 844.834 474.254
1067 0 65.2387 13.5043 881 168.688 846.42 472.775
1068 0 66.1931 13.3851 886 163.758 845.859 472.244
1069 0 69.1475 13.6809 946 166.527 846.993 470.691
1070 0 71.304 13.7019 977 165.776 845.233 469.721
1071 0 72.2121 13.8758 1002 167.277 844.395 468.081
1072 0 77.3041 13.7509 1063 152.957 843.782 467.431
1073 0 79.2315 13.2775 1052 167.747 844.456 466.488
1074 0 81.3103 13.6637 1111 168.902 845.781 465.196
1075 0 84.3348 13.6836 1154 166.907 845.477 464.261
1076 0 87.1897 13.8548 1208 168.895 844.721 463.024
1077 0 90.2255 13.699 1236 176.046 845.32 460.743
1078 0 93.2808 14.0436 1310 172.663 845.486 459.719
1079 0 95.3518 14.1161 1346 172.818 843.498 458.256
1080 0 99.2858 13.9093 1381 164.497 842.768 456.256
1081 0 103.284 13.8549 1431 168.945 843.877 454.928
1082 0 106.305 14.0821 1497 165.426 844.921 452.967
1083 1 55.0361 12.6826 698 160.414 845.235 478.318
1084 0 59.2296 12.6457 749 163.605 846.226 477.045
1085 0 60.2747 12.7251 767 157.194 845.196 475.98
1086 0 61.1604 13.0477 798 162.533 844.559 475.172
1087 0 65.202 12.791 834 159.776 844.031 474.236
1088 0 65.3135 12.5395 819 161.89 846.426 473.238
1089 0 69.3462 12.8342 890 163.124 845.273 471.621
1090 0 71.152 12.916 919 160.066 845.822 470.025
1091 0 74.4154 13.0484 971 163.732 844.632 468.758
1092 0 75.3429 13.1399 990 164.549 846.604 467.885
1093 0 78.309 13.1019 1026 161.9 846.215 466.871
1094 0 82.3487 12.6049 1038 159.393 845.247 464.938
1095 0 84.2575 13.0552 1100 156.761 845.593 464.108
1096 0 88.4368 13.0602 1155 154.683 844.829 461.545
1097 0 90.2803 13.2366 1195 160.4 843.646 460.269
1098 0 94.29 13.1509 1240 150.573 842.624 458.475
1099 0 97.5518 12.8752 1256 155.798 843.432 457.367
1100 0 101.187 13.0155 1317 151.909 844.612 455.569
1101 0 103.301 13.2816 1372 154.918 844.015 453.622
1102 0 106.226 13.0854 1390 155.286 846.308 452.209
1103 1 55.1516 11.8582 654 154.213 845.491 477.28
1104 0 57.1964 12.1336 694 152.785 845.078 476.151
1105 0 60.2456 12.6482 762 152.627 846.68 474.618
1106 0 61.3326 12.5382 769 151.537 844.753 473.52
1107 0 63.4846 12.6015 800 145.37 843.558 472.642
1108 0 66.3147 12.2748 814 146.376 842.475 471.096
1109 0 68.4085 12.5423 858 149.329 844.041 470.112
1110 0 69.3072 12.9712 899 149.033 844.572 469.21
1111 0 73.2721 12.4604 913 148.712 844.001 467.83
1112 0 76.4249 12.5875 962 143.444 844.144 466.33
1113 0 77.479 12.5453 972 139.208 843.156 465.364
1114 0 81.392 12.5811 1024 144.347 842.571 463.931
1115 0 85.806 12.4234 1066 143.211 842.753 461.457
1116 0 87.354 12.581 1099 138.313 844.672 459.806
1117 0 90.246 12.3994 1119 140.71 843.277 458.225
1118 0 93.4635 12.3792 1157 140.438 842.953 456.971
1119 1 51.2857 10.6462 546 140.581 842.018 477.617
1120 0 54.5487 10.5594 576 143.828 841.342 477.155
1121 0 53.1492 11.8158 628 136.396 841.137 476.406
1122 0 56.2455 11.6809 657 137.642 841.353 474.686
1123 0 58.3485 11.5341 673 136.426 841.643 474.669
1124 0 59.3942 12.1056 719 138.392 841.606 473.903
1125 0 62.4927 12.1614 760 136.029 842.837 472.004
1126 0 64.4276 12.3084 793 133.835 842.56 470.884
1127 0 66.3285 12.2572 813 137.251 840.154 470.269
1128 0 69.2896 12.9024 894 133.39 839.969 468.76
1129 0 72.5014 12.717 922 138.279 839.976 468.076
1130 0 71.6135 12.8048 917 138.047 839.631 466.015
1131 0 75.5591 13.0494 986 138.408 842.003 464.78
1132 0 78.611 13.1534 1034 141.75 840.89 464.132
1133 0 81.6656 13.2981 1086 135.984 839.971 462.515
1134 0 83.5531 13.1054 1095 143.815 841.055 461.274
1135 0 88.53 13.3401 1181 142.256 843.305 459.533
1136 0 89.4198 13.8895 1242 138.114 841.89 458.494
1137 0 93.3602 13.4426 1255 146.073 840.61 457.563
1138 0 95.4741 13.2287 1263 143.128 840.484 455.869
1139 0 99.7612 13.5223 1349 149.058 841.354 454.824
1140 0 102.508 13.7746 1412 146.852 843.29 452.749
1141 0 107.469 13.6504 1467 139.409 841.346 450.442
1142 0 112.317 13.7913 1549 149.538 840.196 448.52
1143 1 59.5209 12.063 718 151.192 839.825 475.253
1144 0 62.3985 12.0355 751 153.501 841.895 473.927
1145 0 62.3729 12.6177 787 152.492 838.743 473.49
1146 0 65.4333 12.8681 842 155.107 840.558 472.378
1147 0 67.5479 12.7909 864 151.253 844.097 471.708
1148 0 68.2959 13.0901 894 155.565 840.957 470.457
1149 0 72.4278 12.9784 940 152.8 840.362 469.14
1150 0 73.3004 13.1787 966 153.986 839.39 468.403
1151 0 75.5285 12.5383 947 157.739 839.984 467.405
1152 0 77.3389 13.6025 1052 150.959 839.728 466.263
1153 0 79.3791 13.5804 1078 147.664 841.986 464.673
1154 0 83.2936 13.1583 1096 151.973 839.138 464.328
1155 0 85.1859 13.4529 1146 147.183 838.727 463.296
1156 0 85.1607 13.9853 1191 153.195 839.354 461.412
1157 0 89.159 13.504 1204 145.175 839.664 460.394
1158 0 93.1507 13.709 1277 145.405 839.859 458.352
1159 0 95.1328 13.3287 1268 145.878 837.45 457.502
1160 0 95.1328 13.3287 1268 164.159 835.45 457.502
1161 0 101.144 13.5648 1372 146.962 838.015 453.963
1162 0 105.188 13.4521 1415 149.902 838.079 452.625
1163 0 107.203 13.5537 1453 149.587 836.265 450.33
1164 0 110.144 13.9091 1532 143.57 838.394 449.133
1165 0 116.335 13.7018 1594 147.021 836.535 446.557
1166 0 118.194 13.6386 1612 146.288 835.988 444.756
1167 1 65.1044 11.3971 742 145.509 838.55 472.132
1168 0 66.1029 12.4957 826 146.258 837.625 470.929
1169 0 71.0567 12.6096 896 141.307 836.296 469.122
1170 0 72.0389 12.8264 924 137.547 837.642 468.291
1171 0 76.1848 12.7059 968 139.536 838.522 466.499
1172 0 77.0558 12.77 984 142.28 838.256 466.108
1173 0 80.1137 12.6945 1017 142.151 837.838 464.464
1174 0 83.1916 12.934 1076 140.966 838.559 462.863
1175 0 86.0713 12.5594 1081 136.595 837.456 461.678
1176 0 88.1177 13.3231 1174 136.412 838.141 460.501
1177 0 91.0736 12.7699 1163 129.102 838.883 458.169
1178 0 94.1772 13.2835 1251 131.292 838.01 457.106
1179 0 98.0489 13.3097 1305 135.029 836.454 454.505
1180 0 101.089 13.0579 1320 133.895 838.052 453.358
1181 0 103.136 13.2835 1370 138.484 836.607 452.201
1182 0 105.17 13.2927 1398 127.265 838.336 449.7
1183 0 111.071 13.4329 1492 133.14 837.281 448.67
1184 0 113.133 13.6035 1539 137.255 838.871 446.483
1185 0 117.123 13.5584 1588 132.314 838.836 444.635
1186 0 121.194 13.7631 1668 128.962 837.721 442.022
1187 0 126.168 13.7832 1739 135.922 838.549 440.611
1188 0 130.134 14.0317 1826 136.882 839.323 438.305
1189 0 135.087 13.7097 1852 135.993 838.739 436.598
1190 1 76.0415 11.7304 892 130.392 837.17 466.83
1191 0 75.1259 12.0198 903 136.136 838.891 466.496
1192 0 79.1693 12.1512 962 137.31 839.251 465.796
1193 0 83.0927 12.0107 998 133.48 837.985 464.331
1194 0 85.0926 12.269 1044 133.307 838.949 463.709
1195 0 90.2182 12.0042 1083 135.513 839.452 461.783
1196 0 91.0875 12.4166 1131 136.788 839.137 459.861
1197 0 94.0793 12.5213 1178 138.884 838.309 458.852
1198 0 98.0948 12.4675 1223 141.294 839.808 456.93
1199 0 102.092 12.2537 1251 136.582 840.976 455.935
1200 0 105.216 12.4696 1312 137.857 842.456 453.776
1201 0 108.101 12.6733 1370 140.058 841.123 451.48
1202 0 112.095 12.7927 1434 142.347 840.898 449.584
1203 1 63.1252 11.0574 698 139.971 839.805 474.44
1204 0 66.0634 11.4738 758 140.748 839.058 473.297
1205 0 69.0225 11.2137 774 138.455 841.552 472.572
1206 0 69.0225 11.2137 774 160.211 843.552 472.572
1207 0 72.0539 11.1167 801 137.874 839.467 470.634
1208 0 75.092 11.5592 868 135.171 840.35 468.917
1209 0 79.1071 11.4528 906 140.738 842.882 467.363
1210 0 82.1563 11.612 954 139.791 843.012 466.106
1211 0 83.1177 11.8988 989 135.52 841.27 465.534
1212 0 88.2015 11.8025 1041 134.169 842.466 463.91
1213 0 88.2591 12.0781 1066 138.879 840.141 462.419
1214 0 92.1411 11.732 1081 135.443 841.63 461.314
1215 0 94.2965 12.2486 1155 137.173 841.383 460.279
1216 0 99.3 12.5781 1249 137.33 842.502 456.996
1217 0 102.265 12.1938 1247 142.059 840.956 457.029
1218 0 103.339 12.4155 1283 141.578 841.214 455.503
1219 0 108.34 12.553 1360 130.118 841.211 453.608
1220 0 110.453 12.3763 1367 140.326 841.472 451.999
1221 0 112.526 13.0103 1464 138.682 841.187 450.6
1222 0 116.418 12.4552 1450 143.612 841.928 448.486
1223 0 116.418 12.4552 1450 174.625 841.928 448.486
1224 0 122.57 13.3067 1631 143.043 840.785 442.825
1225 0 126.385 12.6043 1593 143.473 839.876 440.016
1226 0 131.315 12.748 1674 145.603 840.725 437.6
1227 1 72.2904 11.3155 818 145.692 839.551 468.004
1228 0 75.2264 11.8708 893 142.383 840.217 466.567
1229 0 78.4104 11.4908 901 143.455 839.287 468.542
1230 0 80.2846 12.219 981 140.834 839.678 466.415
1231 0 82.4532 12.1038 998 144.253 841.358 465.836
1232 0 84.3365 12.296 1037 141.576 840.283 463.924
1233 0 87.5639 12.3224 1079 144.532 840.639 462.554
1234 0 90.5436 12.4912 1131 148.379 840.61 461.121
1235 0 92.5091 12.4961 1156 148.325 840.887 460.826
1236 0 94.4262 12.9096 1219 148.62 840.984 458.85
1237 0 98.4211 12.5888 1239 146.12 840.78 457.856
1238 0 101.401 12.8203 1300 150.268 840.652 456.222
1239 0 105.442 12.6989 1339 151.555 839.952 454.724
1240 0 107.431 12.7895 1374 148.566 841.914 452.063
1241 0 111.235 12.55 1396 146.982 842.137 450.789
1242 1 60.2731 10.5354 635 153.847 841.477 476.814
1243 0 61.1754 11.1156 680 149.11 839.887 475.79
1244 0 64.0499 12.178 780 148.113 839.304 474.569
1245 0 65.0804 11.9391 777 148.448 838.865 473.441
1246 0 68.1398 12.1368 827 150.065 840.253 472.641
1247 0 68.042 12.4629 848 152.797 842.288 472.726
1248 0 71.067 12.1012 860 147.119 841.643 472.287
1249 0 72.1318 12.5326 904 148.108 841.269 470.482
1250 0 74.1048 12.6308 936 149.909 841.281 470.012
1251 0 75.0965 12.3974 931 140.537 840.22 469.12
1252 0 78.1164 12.6606 989 140.171 842.863 467.368
1253 0 78.1663 12.3583 966 149.709 841.135 466.59
1254 0 82.1517 12.4769 1025 141.618 840.918 465.089
1255 0 85.1802 12.4325 1059 138.603 842.02 463.386
1256 0 88.1319 12.5948 1110 140.795 840.856 462.012
1257 0 91.2178 12.9909 1185 134.591 843.549 460.862
1258 0 93.1654 12.6549 1179 138.838 845.513 458.707
1259 0 99.2263 12.3657 1227 142.153 843.896 456.95
1260 0 101.125 12.6082 1275 132.09 843.97 455.024
1261 1 55.1869 10.3104 569 138.309 844.104 479.689
1262 0 56.1562 10.2749 577 132.506 845.017 479.605
1263 0 60.2018 11.013 663 132.35 845.222 476.054
1264 0 59.1388 12.0057 710 123.086 843.865 472.483
1265 0 62.1457 12.0041 746 129.092 842.855 472.378
1266 0 64.16 11.6739 749 123.806 841.601 472.148
1267 0 66.2171 12.1721 806 122.964 842.97 470.53
1268 0 68.0278 12.0098 817 125.545 844.204 471.269
1269 0 70.0591 11.89 833 129.217 843.83 470.982
1270 0 71.1484 12.2701 873 127.963 842.699 469.845
1271 0 75.1143 12.5009 939 122.947 844.822 470.394
1272 0 77.109 12.0868 932 129.443 844.212 469.146
1273 0 79.1505 12.1414 961 125.655 843.145 468.831
1274 0 81.1676 12.3818 1005 123.381 842.154 467.157
1275 0 83.1524 12.2306 1017 128.45 842.701 466.151
1276 0 86.1558 12.1988 1051 127.838 841.569 464.732
1277 0 89.1785 12.4918 1114 129.404 842.858 462.869
1278 0 92.2957 12.6116 1164 127.265 841.866 462.153
1279 0 95.1918 12.7427 1213 125.272 841.891 460.94
1280 0 97.3129 12.9068 1256 121.226 841.681 459.143
1281 0 101.198 12.8263 1298 121.709 841.985 457.752
1282 0 102.307 12.8828 1318 117.278 843.517 455.6
1283 0 108.279 13.2251 1432 118.451 843.221 452.456
1284 0 111.364 12.6522 1409 117.627 843.826 452.106
1285 1 61.1795 11.6215 711 120.027 843.143 476.731
1286 0 63.0272 12.4867 787 117.349 839.94 474.961
1287 0 65.1195 12.4847 813 120.466 841.407 474.203
1288 0 66.0555 13.413 886 119.061 841.828 472.641
1289 0 68.1641 12.5433 855 121.704 841.366 471.381
1290 0 72.1034 12.6346 911 112.516 843.101 470.767
1291 0 74.092 12.7679 946 120.6 840.174 470.198
1292 0 77.074 12.728 981 131.414 840.113 467.997
1293 0 80.0946 12.9222 1035 126.579 839.215 466.881
1294 0 82.1024 13.0325 1070 125.851 839.299 464.648
1295 0 85.1349 13.0381 1110 127.114 839.06 464.149
1296 0 89.1721 13.1543 1173 125.983 839.676 463.078
1297 0 90.2803 13.4359 1213 132.167 840.784 461.41
1298 0 94.2158 13.2356 1247 130.36 839.123 459.764
1299 0 97.1097 13.1089 1273 135.138 840.633 457.516
1300 0 101.163 12.6232 1277 129.394 840.203 456.594
1301 0 105.151 13.1239 1380 132.149 841.507 453.969
1302 0 107.113 13.1264 1406 132.9 840.597 452.446
1303 0 111.15 13.3783 1487 129.992 841.754 451.251
1304 1 64.0579 11.5052 737 128.148 840.701 474.031
1305 0 67.0521 12.0056 805 129.57 841.508 472.25
1306 0 70.0553 12.2046 855 126.006 841.509 471.763
1307 0 71.0719 12.7336 905 121.839 841.913 470.964
1308 0 73.1003 12.7086 929 127.323 840.222 470.137
1309 0 75.0742 12.814 962 125.608 841.055 469.175
1310 0 76.1555 13.2886 1012 124.524 841.592 468.486
1311 0 81.1728 13.1818 1070 123.055 841.236 466.732
1312 0 82.116 12.7259 1045 125.253 840.732 466.4
1313 0 84.0517 13.2537 1114 124.547 840.255 464.436
1314 0 87.0995 13.4444 1171 122.64 840.571 463.023
1315 0 91.0845 13.1416 1197 118.546 841.011 461.989
1316 0 92.1242 13.5686 1250 119.346 841.798 460.61
1317 0 97.2302 13.6377 1326 120.781 842.198 459.289
1318 0 99.284 14.0909 1399 120.447 841.59 458.074
1319 0 103.273 13.4111 1385 118.895 841.222 456.487
1320 0 107.185 13.4907 1446 126.308 839.611 454.003
1321 1 56.1519 12.3059 691 131.093 843.381 478.564
1322 0 59.1226 12.6348 747 129.558 842.076 477.181
1323 0 60.0877 12.7647 767 129.452 840.282 477.795
1324 0 58.0464 13.3169 773 125.345 841.406 477.038
1325 0 62.1583 12.983 807 132.151 839.976 475.825
1326 0 64.1045 13.5248 867 130.465 839.167 475.788
1327 0 66.0525 12.8534 849 128.834 840.11 471.741
1328 0 67.1453 13.5974 913 127.912 839.169 470.767
1329 0 70.1849 13.094 919 128.996 840.004 468.974
1330 0 73.1926 13.2937 973 129.276 840.938 467.228
1331 0 74.1249 13.4503 997 128.279 840.687 466.459
1332 0 78.1778 13.367 1045 131 841.248 464.866
1333 0 80.0648 13.0644 1046 131.883 842.287 463.543
1334 0 80.2035 13.8273 1109 130.377 843.284 462.665
1335 0 82.0644 13.6478 1120 134.031 841.781 461.544
1336 0 87.3339 13.4083 1171 131.453 840.702 459.844
1337 0 89.3227 13.5688 1212 125.205 841.79 458.373
1338 0 92.2526 13.3546 1232 135.326 842.418 456.494
1339 0 95.5146 13.3383 1274 126.85 842.325 454.485
1340 0 98.1952 13.4222 1318 128.517 840.128 452.908
1341 0 102.312 13.6348 1395 134.502 840.303 451.858
1342 1 58.1564 11.9161 693 134.512 841.553 474.152
1343 0 60.0424 12.5578 754 132.076 841.472 474.479
1344 0 59.0974 12.9447 765 129.348 842.038 473.725
1345 0 62.1309 13.3589 830 128.611 842.219 471.693
1346 0 64.3309 13.0264 838 131.236 840.252 469.928
1347 0 67.0727 12.6877 851 130.716 840.928 470.056
1348 0 68.3491 13.0945 895 134.279 841.293 468.222
1349 0 72.2651 12.98 938 127.306 841.532 465.7
1350 0 74.2657 13.3978 995 133.889 842.561 465.095
1351 0 74.3093 13.7668 1023 134.124 843.427 463.919
1352 0 78.2738 13.44 1052 135.064 840.804 462.625
1353 0 80.2706 13.4171 1077 133.182 840.072 461.731
1354 0 82.3268 13.7501 1132 133.32 840.497 461.163
1355 0 85.2882 13.9644 1191 135.992 840.212 459.042
1356 0 89.1713 13.6479 1217 140.193 839.774 458.02
1357 0 92.3112 13.7686 1271 133.311 839.19 456.056
1358 0 95.2358 13.8498 1319 137.569 840.551 454.764
1359 0 99.3456 13.8406 1375 138.841 839.471 452.517
1360 0 101.31 13.8979 1408 136.695 837.851 451.239
1361 0 106.152 13.8763 1473 142.949 840.249 449.425
1362 0 111.099 13.9425 1549 141.33 840.916 448.595
1363 1 62.1268 12.3296 766 147.372 840.005 475.906
1364 0 65.0561 12.5738 818 144.811 838.605 474.446
1365 0 65.1709 13.1194 855 138.648 840.284 474.828
1366 0 68.1808 13.1855 899 142.369 840.041 473.383
1367 0 69.1866 13.2829 919 143.494 840.579 471.825
1368 0 73.2402 13.326 976 137.739 840.905 470.484
1369 0 75.1575 13.2921 999 144.184 840.093 469.82
1370 0 77.2723 13.7436 1062 134.192 840.785 468.233
1371 0 78.2632 14.0807 1102 72.8603 838.511 467.224
1372 0 81.2356 13.467 1094 136.761 837.074 465.381
1373 0 85.1591 13.5981 1158 134.66 837.944 464.518
1374 0 86.2615 14.143 1220 135.332 839.243 462.749
1375 0 90.2471 14.0503 1268 137.78 839.822 461.006
1376 0 93.3535 13.722 1281 135.867 840.575 459.457
1377 0 97.3897 13.6667 1331 133.92 838.794 457.597
1378 0 98.3155 13.6499 1342 138.588 837.884 455.918
1379 0 103.343 13.3923 1384 135.134 840.484 455.215
1380 0 108.39 13.4606 1459 127.262 839.988 453.422
1381 0 112.277 13.4133 1506 133.185 840.695 451.43
1382 1 60.1945 12.2602 738 134.894 841.049 476.363
1383 0 63.1116 12.264 774 133.017 840.221 475.426
1384 0 66.1221 12.6584 837 147.184 840.053 473.452
1385 0 66.2148 12.7917 847 136.855 838.301 472.254
1386 0 70.0834 13.0559 915 137.379 838.739 471.407
1387 0 73.1182 12.9653 948 138.66 838.478 470.052
1388 0 75.1166 13.1662 989 139.373 838.66 469.072
1389 0 78.2111 13.1311 1027 140.043 839.622 467.731
1390 0 79.1936 13.2839 1052 136.558 840.123 467.293
1391 0 81.1217 13.2764 1077 135.773 836.799 465.057
1392 0 83.4991 13.4612 1124 134.042 837.875 463.972
1393 0 86.1297 13.6422 1175 133.764 837.23 462.488
1394 0 90.1792 13.573 1224 133.536 836.595 461.033
1395 0 94.1406 13.4692 1268 132.629 839.318 459.028
1396 0 96.0725 13.5835 1305 129.301 839.438 457.152
1397 0 101.189 13.4402 1360 129.41 840.576 456.24
1398 0 102.202 14.0995 1441 132.97 837.763 454.746
1399 1 58.0751 11.4163 663 126.849 839.119 478.735
1400 0 60.119 12.1925 733 127.532 840.05 477.634
1401 0 61.0602 12.8562 785 133.383 838.758 475.743
1402 0 63.0698 13.3027 839 133.703 839.703 474.259
1403 0 67.1252 12.8566 863 133.072 840.864 473.965
1404 0 69.2019 13.0054 900 132.162 839.033 473.292
1405 0 70.1544 13.2707 931 131.959 839.23 472.342
1406 0 73.027 13.4608 983 133.951 838.827 470.449
1407 0 75.113 13.3665 1004 130.289 839.012 469.449
1408 0 78.1041 13.0723 1021 129.043 838.991 468.412
1409 0 81.1997 13.4237 1090 126.197 839.656 467.073
1410 0 84.2288 14.1757 1194 129.574 838.705 466.028
1411 0 87.0649 13.8632 1207 128.135 837.806 465.505
1412 0 89.0863 14.166 1262 126.339 837.566 463.694
1413 0 94.2192 13.7658 1297 131.419 838.066 462.79
1414 0 95.1044 14.1424 1345 129.465 837.386 461.447
1415 0 100.111 14.384 1440 128.808 839.08 458.64
1416 0 102.132 14.0896 1439 132.937 838.84 457.823
1417 0 106.216 14.6777 1559 126.347 836.981 455.666
1418 0 110.317 14.3315 1581 132.436 840.327 453.324
1419 0 113.15 14.8829 1684 129.568 837.717 452.552
1420 0 116.275 14.4227 1677 133.734 838.516 450.626
1421 0 120.348 14.6076 1758 128.006 838.78 448.534
1422 1 66.3451 13.4147 890 138.84 838.521 474.884
1423 0 68.2071 13.1951 900 134.796 838.741 474.064
1424 0 68.1955 13.9745 953 133.432 838.894 473.257
1425 0 72.0984 13.648 984 133.451 837.79 471.946
1426 0 74.1745 13.7244 1018 134.18 838.528 470.962
1427 0 75.163 14.3555 1079 131.187 838.972 469.462
1428 0 79.201 14.3685 1138 135.904 839.185 467.582
1429 0 81.2635 14.1392 1149 139.506 837.736 466.836
1430 0 82.2201 14.2666 1173 143.743 838.431 465.5
1431 0 85.0788 14.563 1239 138.781 839.586 463.718
1432 0 89.1104 14.4203 1285 138.595 839.708 463.05
1433 0 92.1042 14.5053 1336 143.412 840.284 461.663
1434 0 95.3066 14.5111 1383 137.119 838.922 459.683
1435 0 99.2641 14.8291 1472 142.361 838.208 457.595
1436 0 102.211 14.9005 1523 146.717 839.163 456.246
1437 0 107.151 14.5963 1564 146.569 839.543 453.922
1438 0 110.104 14.9313 1644 141.827 838.561 452.072
1439 0 115.19 14.3415 1652 140.162 838.186 450.117
1440 1 62.0657 13.5018 838 154.112 839.053 475.062
1441 0 65.0297 13.6553 888 156.358 839.337 473.948
1442 0 67.0322 13.8739 930 149.286 838.956 473.292
1443 0 68.0654 14.0159 954 150.819 836.369 472.086
1444 0 72.0381 13.9371 1004 149.876 839.531 471.188
1445 0 73.0369 14.2941 1044 152.238 840.056 470.057
1446 0 76.1915 14.0436 1070 153.768 837.81 468.994
1447 0 78.1494 14.2547 1114 153.523 837.469 467.943
1448 0 81.0663 14.6177 1185 146.311 838.323 465.812
1449 0 84.13 14.3706 1209 154.994 837.553 464.748
1450 0 86.1389 14.465 1246 152.912 838.72 463.443
1451 0 88.0892 14.4513 1273 157.651 840.741 462.781
1452 0 92.0942 14.3657 1323 159.822 840.215 460.961
1453 0 94.1473 14.8066 1394 152.738 838.991 459.376
1454 0 98.2646 14.4915 1424 157.546 840.303 457.831
1455 0 101.201 14.4465 1462 159.239 838.964 456.327
1456 0 105.159 14.1501 1488 156.408 839.603 454.737
1457 0 107.288 14.6335 1570 148.044 839.425 452.827
1458 0 111.185 14.7053 1635 152.862 838.581 451.199
1459 0 116.137 14.4571 1679 152.718 839.956 449.613
1460 1 63.1078 13.4373 848 155.325 838.12 474.65
1461 0 65.0696 13.5086 879 148.835 839.122 473.209
1462 0 67.1361 13.5843 912 155.895 837.623 472.397
1463 0 69.0518 13.5116 933 148.737 838.548 471.099
1464 0 73.0469 13.7035 1001 152.066 837.356 469.822
1465 0 75.0688 13.8673 1041 149.842 839.221 468.075
1466 0 78.1009 13.9051 1086 152.118 840.006 467.145
1467 0 78.324 14.1974 1112 150.754 837.641 466.066
1468 0 83.2713 14.1345 1177 153.879 837.621 464.515
1469 0 84.2003 14.3111 1205 153.113 838.08 463.636
1470 0 89.1469 14.2013 1266 145.852 838.006 462.486
1471 0 90.2198 14.6199 1319 155.228 838.682 460.498
1472 0 94.1187 14.6836 1382 155.308 837.11 459.443
1473 0 96.1677 14.1316 1359 153.583 838.888 458.734
1474 0 100.388 14.4738 1453 153.826 839.192 456.553
1475 0 104.107 14.3602 1495 165.042 838.688 454.738
1476 0 106.133 14.5102 1540 163.495 838.321 453.083
1477 0 111.292 14.6372 1629 157.859 837.787 450.7
1478 0 116.191 14.545 1690 153.666 839.092 449.12
1479 1 63.1961 13.1337 830 158.478 838.748 474.61
1480 0 64.3701 13.3292 858 162.473 838.448 473.79
1481 0 66.1201 13.5662 897 166.847 838.648 473.258
1482 0 71.2607 13.3173 949 164.073 837.996 472.675
1483 0 71.1844 13.6968 975 162.643 836.402 470.963
1484 0 76.2082 13.3319 1016 161.065 837.401 469.852
1485 0 78.2139 13.6421 1067 155.788 836.342 468.129
1486 0 80.2418 13.4593 1080 162.97 839.244 467.301
1487 0 83.239 14.0559 1170 161.275 837.846 465.809
1488 0 86.2872 14.0461 1212 160.765 839.219 464.564
1489 0 89.1376 14.0233 1250 155.802 839.35 463.698
1490 0 92.1417 14.1304 1302 152.872 837.985 462.004
1491 0 95.4799 13.7097 1309 161.021 837.979 460.092
1492 0 97.1731 14.1397 1374 155.782 837.788 459.173
1493 0 101.218 13.8612 1403 153.051 837.009 457.342
1494 0 103.198 14.1185 1457 158.759 838.537 455.786
1495 0 109.261 13.9391 1523 160.251 839.445 455.074
1496 0 111.53 14.6329 1632 156.265 838.76 450.917
1497 0 115.313 14.3349 1653 155.183 838.166 448.56
1498 0 120.747 14.0211 1693 152.773 838.284 446.41
1499 0 125.45 13.9339 1748 150.902 838.185 444.547
1500 0 128.39 14.2534 1830 150.875 837.217 442.478
1501 0 133.484 14.3388 1914 158.094 838.867 439.2
1502 0 139.759 14.1744 1981 153.079 838.961 436.488
1503 1 82.4027 12.5724 1036 157.113 836.685 465.878
1504 0 84.4489 13.0019 1098 155.445 839.096 464.786
1505 0 88.5494 13.3937 1186 157.456 837.608 462.712
1506 0 92.3937 12.7823 1181 157.81 839.345 461.652
1507 0 94.4413 13.2781 1254 149.854 838.124 460.148
1508 0 98.2557 13.2613 1303 150.849 836.583 457.48
1509 0 102.427 13.5609 1389 146.047 838.44 455.602
1510 0 105.321 13.3686 1408 149.55 839.856 453.817
1511 0 107.481 13.3233 1432 145.913 838.441 451.899
1512 0 112.411 13.1304 1476 154.032 838.065 450.173
1513 0 115.663 13.522 1564 147.752 837.611 447.664
1514 0 118.284 13.8733 1641 144.917 838.225 446.754
1515 0 123.455 13.2113 1631 152.015 839.202 445.428
1516 1 80.5496 12.5513 1011 152.256 835.009 462.974
1517 0 83.882 12.8514 1078 152.7 837.975 462.712
1518 0 86.5346 13.1508 1138 147.329 838.119 461.917
1519 0 87.523 13.0937 1146 148.41 837.444 461.065
1520 0 89.5492 13.4675 1206 147.751 838.277 459.959
1521 0 91.5209 13.5597 1241 154.009 837.681 458.987
1522 0 96.7509 13.4779 1304 150.432 839.936 457.811
1523 0 98.5248 13.6514 1345 148.858 837.779 454.867
1524 0 101.62 13.698 1392 142.258 838.593 453.703
1525 0 105.475 13.9559 1472 147.029 838.558 452.486
1526 0 107.398 13.8457 1487 149.136 837.639 450.485
1527 0 110.19 13.4676 1484 147.792 837.844 450.202
1528 0 114.198 13.7744 1573 148.921 838.383 448.643
1529 0 117.253 13.6457 1600 148.049 837.646 446.381
1530 1 59.2273 12.6293 748 144.59 838.329 475.282
1531 0 62.1863 12.9128 803 132.286 838.46 474.431
1532 0 64.4038 12.4061 799 144.691 837.139 473.681
1533 0 66.3468 13.0978 869 146.468 837.516 472.549
1534 0 66.3192 13.1335 871 148.459 836.89 472.176
1535 0 69.3589 13.2788 921 149.887 835.635 471.318
1536 0 71.266 13.3163 949 148.235 836.784 470.008
1537 0 74.3446 13.128 976 150.13 838.26 469.674
1538 0 76.3837 13.4322 1026 150.246 836.854 468.001
1539 0 77.4085 13.629 1055 147.911 839.931 467.252
1540 0 78.2377 14.1108 1104 151.934 838.425 466.208
1541 0 80.3515 13.9636 1122 152.996 837.994 465.19
1542 0 84.2519 14.148 1192 150.568 837.636 463.753
1543 0 86.1872 13.9 1198 152.291 837.287 461.575
1544 0 88.1247 14.071 1240 148.71 837.278 461.191
1545 0 90.2191 14.1544 1277 147.991 838.648 459.548
1546 0 92.2904 14.021 1294 152.427 834.495 459.296
1547 0 94.183 14.4506 1361 157.638 836.611 457.237
1548 0 98.1598 13.8957 1364 157.242 836.927 455.957
1549 0 101.159 14.2944 1446 154.432 835.925 454.453
1550 0 105.182 14.4227 1517 149.93 838.412 452.488
1551 0 106.113 14.6071 1550 148.257 837.13 451.466
1552 0 113.14 14.2213 1609 152.109 837.742 449.245
1553 1 62.0746 13.0488 810 161.711 835.689 474.201
1554 0 63.1129 13.1669 831 149.363 837.425 473.288
1555 0 66.0479 13.3994 885 155.017 838.288 471.965
1556 0 67.2342 13.4753 906 157.604 835.477 470.891
1557 0 70.0709 13.786 966 156.465 836.465 469.492
1558 0 71.1105 13.7532 978 150.547 837.245 468.653
1559 0 73.077 13.8895 1015 149.523 838.542 467.364
1560 0 76.0838 13.748 1046 162.586 838.418 466.844
1561 0 79.1385 13.5838 1075 154.933 837.498 465.949
1562 0 82.2074 13.8917 1142 164.211 835.907 463.937
1563 0 85.1237 13.7212 1168 158.739 837.818 462.535
1564 0 88.1146 13.9591 1230 161.292 838.354 461.472
1565 0 90.0971 13.8961 1252 165.633 838.78 460.491
1566 0 92.1109 14.5911 1344 159.719 837.984 458.224
1567 0 98.1658 14.0782 1382 164.408 836.457 456.514
1568 0 100.088 14.1975 1421 168.701 836.979 454.393
1569 0 104.143 14.0288 1461 163.165 840.362 452.225
1570 1 54.2083 12.8209 695 164.945 839.812 477.563
1571 0 56.1388 13.0569 733 169.78 840.408 476.102
1572 0 57.1179 13.5859 776 172.521 839.568 475.255
1573 0 61.0653 13.068 798 172.703 837.143 474.461
1574 0 63.1332 13.4161 847 165.754 837.303 473.573
1575 0 63.1199 13.7358 867 169.059 837.201 472.379
1576 0 65.1138 13.8834 904 162.538 836.32 471.689
1577 0 68.1223 13.8281 942 167.122 835.551 470.67
1578 0 70.3588 14.0849 991 169.423 837.11 469.899
1579 0 73.1897 14.0594 1029 170.7 837.086 468.477
1580 0 74.1872 14.423 1070 170.707 837.485 467.473
1581 0 78.1738 13.8282 1081 169.993 838.228 466.46
1582 0 81.157 13.9236 1130 168.581 838.724 464.611
1583 0 83.3059 14.4047 1200 168.277 835.765 463.233
1584 0 85.3691 13.9746 1193 171.256 836.76 462.449
1585 0 88.3217 13.949 1232 171.273 837.08 461.466
1586 0 90.3689 14.0978 1274 172.88 836.228 459.943
1587 0 94.1938 14.2154 1339 167.4 836.699 458.052
1588 0 95.2469 14.1212 1345 167.343 836.366 456.937
1589 0 100.173 14.0556 1408 58.9602 836.518 455.031
1590 0 103.338 13.8671 1433 169.277 836.676 453.055
1591 0 106.429 13.7275 1461 170.862 837.539 452.693
1592 1 59.0697 12.5107 739 170.053 837.915 474.269
1593 0 63.1347 12.6872 801 163.481 837.134 473.241
1594 0 66.125 12.6125 834 160.578 837.928 471.833
1595 0 67.0807 12.9545 869 164.72 838.061 470.869
1596 0 70.1307 12.6621 888 160.541 837.666 470.149
1597 0 72.0765 12.7781 921 161.138 837.735 468.542
1598 0 74.1735 13.1179 973 165.378 839.124 467.428
1599 0 77.064 12.9113 995 162.218 839.317 466.101
1600 0 80.1645 12.9484 1038 162.077 836.484 465.014
1601 0 82.0972 13.1917 1083 161.086 837.112 463.421
1602 0 84.151 13.1668 1108 163.856 837.973 462.162
1603 0 88.1844 13.0409 1150 155.75 836.978 460.224
1604 0 92.1742 12.9863 1197 162.787 837.86 458.901
1605 0 96.1878 13.1306 1263 162.975 836.321 457.686
1606 0 98.3448 13.168 1295 164.62 836.353 455.82
1607 0 101.349 13.1723 1335 164.524 838.902 454.327
1608 0 105.455 12.906 1361 162.78 837.945 452.926
1609 0 111.152 13.0721 1453 164.915 837.865 450.467
1610 1 62.1341 11.282 701 152.599 837.397 474.566
1611 0 63.1326 11.9114 752 156.576 835.366 474.924
1612 0 65.2215 12.0972 789 155.307 836.632 473.904
1613 0 69.1099 12.0243 831 159.462 836.915 472.323
1614 0 72.0934 12.5809 907 157.4 836.72 470.793
1615 0 72.2085 12.0623 871 159.915 835.474 469.883
1616 0 74.1011 12.7798 947 154.046 836.826 469.208
1617 0 78.1571 12.6156 986 156.605 836.788 468.017
1618 0 80.2392 12.5126 1004 161.865 836.748 467.106
1619 0 82.2761 12.7133 1046 161.767 836.961 465.14
1620 0 85.1535 12.3894 1055 161.418 839.177 464.458
1621 0 88.1693 13.1792 1162 160.071 839.6 462.712
1622 0 90.0871 12.7876 1152 158.264 837.444 461.408
1623 0 92.1309 12.9815 1196 157.426 837.309 459.839
1624 0 96.1138 12.9742 1247 158.927 838.068 459.03
1625 0 99.0873 13.1803 1306 155.201 837.511 456.223
1626 0 101.173 13.2052 1336 159.317 837.412 455.027
1627 0 107.138 13.17 1411 154.259 836.926 453.775
1628 1 58.167 11.2607 655 157.247 837.905 479.663
1629 0 60.1726 11.9988 722 157.036 838.157 478.431
1630 0 62.1851 11.916 741 160.548 836.808 478.302
1631 0 62.1487 12.277 763 161.991 837.792 476.862
1632 0 64.0787 12.391 794 160.487 837.753 476.126
1633 0 66.1953 12.3876 820 157.807 839.105 475.651
1634 0 70.1216 12.2929 862 154.294 840.421 474.246
1635 0 69.1025 12.9807 897 157.961 838.689 473.955
1636 0 71.1267 12.7519 907 160.057 838.007 472.485
1637 0 74.0674 12.7587 945 156.711 837.363 470.257
1638 0 75.1593 12.7862 961 164.245 837.065 469.886
1639 0 79.2001 12.5379 993 159.303 838.022 469.042
1640 0 82.1333 12.9302 1062 158.955 839.374 466.9
1641 0 84.0925 12.95 1089 155.247 838.985 466.326
1642 0 87.1373 12.4631 1086 152.813 838.701 465.095
1643 0 90.1541 13 1172 156.605 838.895 462.976
1644 0 91.2566 13.0949 1195 152.591 839.152 462.014
1645 0 95.3055 12.7799 1218 158.804 839.269 460.545
1646 0 98.1355 12.6458 1241 151.222 839.6 458.743
1647 0 101.208 12.8646 1302 154.704 838.122 457.276
1648 0 104.09 12.7485 1327 158.419 839.641 455.655
1649 1 60.1569 11.071 666 156.168 839.101 478.425
1650 0 62.109 11.7696 731 153.796 839.275 477.413
1651 0 64.1159 12.1811 781 150.776 840.288 475.766
1652 0 67.1145 12.203 819 148.805 838.366 474.838
1653 0 68.056 12.4162 845 147.799 838.627 473.762
1654 0 70.2019 12.6492 888 151.843 838.989 472.747
1655 0 73.2598 12.4352 911 148.947 838.805 471.476
1656 0 75.1676 12.5187 941 149.611 838.506 470.67
1657 0 78.234 12.6927 993 149.505 840.237 468.912
1658 0 80.23 12.8381 1030 149.195 839.099 468.191
1659 0 79.3135 13.0621 1036 149.648 838.746 467.168
1660 0 82.2738 12.9324 1064 66.1504 837.784 465.666
1661 0 86.2354 12.8601 1109 150.06 837.928 463.409
1662 0 91.2361 12.6595 1155 145.494 837.46 462.006
1663 0 93.2827 13.1536 1227 152.157 835.57 460.059
1664 0 98.2354 13.1724 1294 145.502 836.777 458.41
1665 0 100.296 12.822 1286 148.896 837.656 457.176
1666 0 105.14 12.9637 1363 148.056 837.479 454.799
1667 1 57.0867 10.9658 626 150.843 835.66 479.546
1668 0 58.1439 11.3683 661 148.327 838.126 478.147
1669 0 61.1252 11.7137 716 149.644 837.61 477.338
1670 0 62.0756 12.2109 758 147.148 838.942 476.562
1671 0 63.083 12.2062 770 142.408 838.596 476.048
1672 0 66.2438 12.0766 800 141.654 838.274 474.281
1673 0 69.1821 12.0696 835 143.743 839.048 474.05
1674 0 70.4679 12.5305 883 145.8 837.957 473.144
1675 0 73.2716 12.2694 899 145.013 835.713 471.354
1676 0 75.1849 12.7951 962 148.528 837.396 469.923
1677 0 77.3692 12.7182 984 148.768 836.838 469.256
1678 0 80.2309 12.8379 1030 144.511 837.243 468.018
1679 0 83.3762 12.5575 1047 147.297 840.922 467.418
1680 0 84.4144 13.1376 1109 146.088 838.633 465.985
1681 0 86.3299 13.2862 1147 150.152 839.459 464.907
1682 0 91.2603 13.1273 1198 148.602 837.366 463.149
1683 0 92.2523 12.9644 1196 149.05 838.813 462.018
1684 0 96.272 13.1502 1266 148.325 838.22 459.329
1685 0 98.3674 13.0124 1280 146.51 839.305 458.502
1686 0 102.366 13.1294 1344 144.284 838.917 456.743
1687 0 104.407 13.0355 1361 145.602 837.584 455.908
1688 0 109.307 13.3661 1461 133.004 837.267 453.43
1689 1 57.2715 11.1225 637 148.917 838.496 478.826
1690 0 60.0493 12.2399 735 147.912 838.344 479.019
1691 0 62.1373 12.0218 747 149.78 840.032 477.9
1692 0 63.0655 12.051 760 144.489 836.87 476.758
1693 0 64.0763 12.4695 799 147.793 838.17 475.578
1694 0 68.0361 12.2288 832 143.385 837.337 474.916
1695 0 68.0514 12.4759 849 143.661 838.505 473.353
1696 0 70.0254 12.7382 892 145.626 839.268 472.469
1697 0 74.0691 12.6504 937 142.709 839.285 471.894
1698 0 75.065 12.9088 969 142.456 839.24 470.05
1699 0 76.1435 12.8442 978 137.045 838.361 469.262
1700 0 81.1406 12.7926 1038 143.175 839.087 468.127
1701 0 83.1409 12.8817 1071 138.775 838.72 466.839
1702 0 85.1907 12.6657 1079 140.222 836.646 465.921
1703 0 85.1973 13.0286 1110 134.865 838.274 463.793
1704 0 90.1766 13.2407 1194 139.919 838.679 462.116
1705 0 92.3294 13.1486 1214 142.359 839.849 461.03
1706 0 95.1745 13.0707 1244 141.026 840.052 459.617
1707 0 99.1848 12.7439 1264 141.965 836.786 458.539
1708 0 101.4 13.1163 1330 148.313 839.075 456.877
1709 1 57.2667 11.2806 646 138.582 838.046 479.093
1710 0 58.152 11.6075 675 141.77 837.852 478.606
1711 0 60.042 12.1748 731 133.483 838.216 476.881
1712 0 62.1061 12.3659 768 137.447 839.348 476.323
1713 0 64.2482 12.8408 825 134.749 839.333 476.274
1714 0 66.3815 12.8349 852 133.124 839.331 474.384
1715 0 67.2871 12.9 868 134.793 838.156 474.136
1716 0 72.2862 12.2983 889 135.354 837.544 473.731
1717 0 73.2309 13.2321 969 130.851 837.901 471.474
1718 0 75.2544 12.7567 960 134.3 838.549 470.322
1719 0 79.1942 13.006 1030 132.56 839.713 468.844
1720 0 82.2818 13.3687 1100 134.687 838.526 467.276
1721 0 84.1624 13.0343 1097 138.057 839.054 466.157
1722 0 86.4577 13.1047 1133 136.995 837.891 465.018
1723 0 90.2515 13.3627 1206 130.273 839.968 463.3
1724 0 94.1831 13.1765 1241 137.378 838.49 462.313
1725 0 96.2425 13.1751 1268 137.728 839.927 460.862
1726 0 98.2425 13.4565 1322 140.781 837.426 458.983
1727 0 102.174 13.4281 1372 138.413 838.267 457.591
1728 0 104.193 13.5998 1417 142.415 839.29 456.634
1729 0 108.332 13.7263 1487 145.466 839.106 454.976
1730 0 111.302 13.7914 1535 143.562 837.974 453.319
1731 0 114.192 13.8451 1581 142.268 837.431 452.283
1732 0 118.253 13.8855 1642 142.518 838.909 450.663
1733 0 123.309 13.5595 1672 142.08 838.033 448.584
1734 0 125.208 13.9129 1742 142.32 835.516 446.382
1735 0 131.217 13.8473 1817 140.495 836.893 442.87
1736 1 72.1769 12.5525 906 143.886 838.287 471.994
1737 0 75.2833 13.0706 984 142.157 838.299 470.892
1738 0 76.1561 13.1572 1002 142.125 837.236 470.654
1739 0 79.0602 13.1672 1041 145.531 836.852 470.19
1740 0 84.2212 13.2389 1115 147.573 837.807 467.746
1741 0 86.1388 13.2345 1140 144.988 838.115 467.264
1742 0 89.0486 13.195 1175 148.6 837.797 465.366
1743 0 91.2205 13.6373 1244 149.034 838.628 463.506
1744 0 95.107 13.406 1275 150.134 839.966 462.256
1745 0 98.1167 13.8101 1355 150.318 839.483 460.849
1746 0 100.178 14.8235 1485 141.302 838.155 457.428
1747 0 104.16 13.6905 1426 147.823 839.287 457.89
1748 0 105.206 14.1247 1486 144.026 836.719 456.575
1749 0 112.276 13.9835 1570 146.473 838.046 453.717
1750 0 115.15 13.8254 1592 150.876 838.853 451.693
1751 0 118.188 14.2739 1687 152.981 837.992 450.996
1752 0 124.438 15.9678 1987 140.255 838.77 445.766
1753 0 126.317 13.957 1763 156.466 838.351 445.356
1754 0 130.316 13.9737 1821 147.007 837.332 442.971
1755 1 73.242 12.643 926 150.261 837.165 470.928
1756 0 76.1823 13.3233 1015 149.791 839.029 469.633
1757 0 78.1074 13.2894 1038 150.59 839.48 469.314
1758 0 81.2094 13.3482 1084 154.709 838.185 467.924
1759 0 83.1232 13.3416 1109 152.89 837.645 466.116
1760 0 86.2154 13.6519 1177 148.613 836.955 464.926
1761 0 89.1562 13.5605 1209 152.907 837.551 462.736
1762 0 92.2415 13.8766 1280 146.949 837.669 460.773
1763 0 94.2011 14.0126 1320 148.794 836.679 459.64
1764 0 99.1885 13.8121 1370 145.004 838.328 457.701
1765 0 103.147 14.106 1455 148.276 838.258 456.234
1766 0 106.162 13.6866 1453 148.838 837.29 454.329
1767 0 109.202 13.8825 1516 148.704 837.116 453.09
1768 0 110.195 13.9207 1534 148.246 837.136 451.603
1769 0 114.254 14.0652 1607 150.486 838.394 450.446
1770 0 117.211 14.4697 1696 155.345 839.55 447.71
1771 0 122.171 14.6844 1794 149.243 837.732 446.557
1772 0 126.285 13.9288 1759 158.259 837.732 444.621
1773 0 131.102 14.5306 1905 156.623 838.384 440.916
1774 0 135.101 14.293 1931 155.955 838.509 439.088
1775 0 139.158 14.2859 1988 161.556 838.38 437.682
1776 0 142.176 14.5031 2062 155.209 838.899 435.171
1777 0 150.175 14.1701 2128 148.131 838.828 432.953
1778 1 81.1171 13.1045 1063 152.293 837.433 467.407
1779 0 85.166 13.2447 1128 154.666 835.944 465.12
1780 0 88.1751 13.2691 1170 159.165 837.441 463.453
1781 0 91.1498 13.3626 1218 151.941 835.956 462.612
1782 0 93.1838 13.2534 1235 157.915 837.082 461.322
1783 0 97.0861 13.7919 1339 150.842 837.004 458.709
1784 0 100.126 13.5829 1360 142.556 836.239 457.625
1785 0 102.125 13.7185 1401 146.194 836.89 456.465
1786 0 105.184 13.7378 1445 151.091 836.33 454.731
1787 0 111.183 13.6892 1522 145.753 837.299 452.745
1788 0 114.154 13.7534 1570 144.711 837.873 449.896
1789 0 118.158 13.6004 1607 145.632 837.777 448.778
1790 0 122.093 14.0467 1715 145.302 839.194 446.166
1791 0 125.257 13.636 1708 145.986 837.749 444.745
1792 0 131.081 13.7396 1801 146.702 837.203 443.013
1793 1 72.089 13.3585 963 140.971 838.778 471.509
1794 0 75.09 13.7035 1029 142.879 837.415 470.146
1795 0 79.0627 13.268 1049 145.766 837.765 468.977
1796 0 81.1154 13.5733 1101 143.749 838.358 468.064
1797 0 84.0694 13.4889 1134 146.218 837.262 466.404
1798 0 87.1191 13.4528 1172 147.635 839.148 465.086
1799 0 89.0425 13.7575 1225 147.762 837.879 463.753
1800 0 92.1641 14.051 1295 149.756 836.812 462.61
1801 0 96.1003 13.7877 1325 148.726 834.929 460.537
1802 0 99.1924 14.0434 1393 147.327 838.357 459.926
1803 0 101.243 13.9565 1413 154.387 837.339 458.139
1804 0 105.167 13.9968 1472 144.279 837.518 456.173
1805 0 109.109 13.8211 1508 152.692 835.655 454.466
1806 0 112.193 13.869 1556 148.988 836.474 452.632
1807 0 116.152 14.2571 1656 144.611 838.789 450.792
1808 0 119.121 14.1453 1685 152.36 837.409 449.358
1809 0 122.205 14.0829 1721 149.559 838.336 447.65
1810 0 126.168 14.4569 1824 149.811 838.948 444.87
1811 0 129.208 14.3645 1856 154.159 836.909 443.195
1812 0 135.272 14.3784 1945 151.133 839.906 441.568
1813 0 138.239 14.7426 2038 153.74 838.474 439.024
1814 0 143.395 14.6239 2097 151.421 837.638 437.113
1815 0 148.17 14.3281 2123 157.306 838.339 434.82
1816 0 153.307 14.546 2230 153.353 838.312 431.326
1817 0 160.401 14.6383 2348 155.974 838.482 428.721
1818 0 165.325 14.6499 2422 153.579 839.318 426.168
1819 1 88.0862 13.396 1180 156.414 839.052 464.592
1820 0 91.4586 13.6455 1248 158.881 838.107 462.909
1821 0 94.2487 13.7402 1295 159.435 838.297 461.135
1822 0 97.2159 13.6809 1330 164.292 839.102 459.744
1823 0 100.199 14.0221 1405 158.148 839.399 457.379
1824 0 102.182 13.9458 1425 156.503 837.626 455.999
1825 0 107.229 13.9515 1496 154.509 839.591 453.691
1826 0 111.34 14.0201 1561 156.359 838.789 452.161
1827 0 114.103 13.9962 1597 154.568 838.613 450.098
1828 0 118.334 13.8844 1643 146.139 838.285 448.403
1829 0 123.218 13.9103 1714 144.868 839.076 446.748
1830 1 73.1095 12.9258 945 149.285 839.135 471.476
1831 0 75.1008 13.3288 1001 145.593 838.245 469.839
1832 0 77.128 13.3415 1029 149.156 837.323 468.84
1833 0 79.1384 13.3311 1055 142.834 839.314 466.501
1834 0 81.1622 13.6886 1111 138.526 838.679 465.87
1835 0 86.1379 13.3971 1154 141.144 838.715 463.931
1836 0 88.1122 13.5055 1190 147.017 839.356 462.433
1837 0 90.1552 13.7762 1242 129.986 839.616 461.634
1838 0 94.1921 13.3132 1254 149.964 839.296 459.959
1839 0 98.2323 13.7328 1349 145.435 836.987 457.603
1840 0 102.179 13.447 1374 143.87 838.887 455.781
1841 0 104.164 13.5651 1413 148.057 838.188 455.386
1842 0 107.216 13.9718 1498 149.907 836.986 453.069
1843 0 109.133 13.8364 1510 148.852 837.402 451.084
1844 0 115.155 13.6685 1574 151.925 836.233 448.02
1845 0 118.364 13.788 1632 147.409 837.849 446.002
1846 0 125.266 13.6829 1714 144.113 837.326 444.596
1847 1 64.2346 12.6879 815 139.644 837.103 474.189
1848 0 66.0826 13.1653 870 143.691 839.353 474.057
1849 0 69.1163 12.8913 891 142.851 838.044 473.02
1850 0 71.1518 13.3798 952 145.03 838.582 471.588
1851 0 74.2826 13.0582 970 143.486 836.943 470.881
1852 0 76.1232 13.2286 1007 147.143 837.367 469.556
1853 0 76.1369 13.4889 1027 147.316 836.833 467.564
1854 0 81.2133 12.9782 1054 150.639 837.193 466.977
1855 0 83.1792 13.3206 1108 144.072 837.559 465.476
1856 0 87.147 12.9092 1125 155.508 839.158 464.219
1857 0 90.2786 13.3033 1201 145.969 836.228 462.268
1858 0 91.1397 13.2324 1206 154.623 836.726 461.187
1859 0 96.3323 13.4223 1293 154.121 836.694 459.506
1860 0 99.2965 13.3137 1322 151.462 836.272 458.52
1861 0 101.337 13.164 1334 157.226 836.615 456.69
1862 0 104.377 13.6141 1421 156.738 836.357 454.378
1863 0 109.109 13.4453 1467 154.884 838.654 452.384
1864 0 109.149 13.7152 1497 158.545 838.635 450.79
1865 0 115.186 13.6648 1574 151.232 836.743 449.202
1866 0 119.253 13.5259 1613 158.997 838.113 447.286
1867 1 63.2539 12.4894 790 157.815 837.423 474.534
1868 0 67.2888 12.8848 867 152.146 836.483 472.39
1869 0 70.1854 12.9087 906 150.493 837.847 470.848
1870 0 71.2107 12.5824 896 157.56 838.295 470.363
1871 0 74.4007 13.2257 984 153.893 838.704 468.052
1872 0 77.2734 12.6822 980 148.653 839.041 467.309
1873 0 78.5302 12.925 1015 155.033 837.728 466.29
1874 0 79.1492 13.2155 1046 153.233 838.094 465.06
1875 0 84.3168 12.9274 1090 151.354 836.86 463.532
1876 0 86.2396 13.277 1145 155.635 837.518 461.866
1877 0 89.513 13.3053 1191 155.122 838.095 458.946
1878 0 91.4544 13.329 1219 157.678 839.889 458.651
1879 0 93.4446 13.9976 1308 148.398 840.153 457.375
1880 0 95.3989 14.0044 1336 159.161 839.317 456.911
1881 0 100.422 14.0408 1410 153.974 838.347 454.775
1882 0 103.343 13.9342 1440 157.001 840.084 453.658
1883 0 105.258 13.9467 1468 161.348 839.514 452.683
1884 0 107.213 13.8882 1489 160.97 838.983 452.038
1885 0 111.21 13.9016 1546 162.947 836.457 449.379
1886 0 116.216 13.8793 1613 158.679 838.883 447.818
1887 0 117.284 14.0087 1643 156.783 838.799 446.304
1888 0 122.328 14.1831 1735 154.506 838.625 444.261
1889 0 127.294 14.2819 1818 151.213 838.98 441.746
1890 0 131.215 14.099 1850 160.142 839.114 440.323
1891 0 136.319 13.9526 1902 157.767 838.485 438.318
1892 0 142.168 14.2366 2024 155.469 839.216 435.972
1893 1 83.0945 12.8288 1066 161.002 838.721 465.15
1894 0 85.2516 13.2901 1133 159.167 837.921 463.82
1895 0 87.2407 13.308 1161 164.815 837.157 462.366
1896 0 90.2824 13.2252 1194 161.343 838.033 460.631
1897 0 93.1125 13.4246 1250 159.603 837.743 459.667
1898 0 97.2347 13.1743 1281 160.97 839.151 457.498
1899 0 99.256 13.6717 1357 151.735 839.328 456.266
1900 0 102.427 13.4047 1373 166.345 837.401 454.866
1901 0 103.142 13.9032 1434 150.402 838.858 452.573
1902 0 109.264 13.4353 1468 159.221 839.044 452.021
1903 0 110.508 13.6732 1511 162.715 839.031 450.778
1904 0 113.334 13.7735 1561 158.484 837.393 448.737
1905 0 117.517 13.8278 1625 158.759 837.988 447.302
1906 0 120.241 14.2298 1711 164.338 837.785 445.164
1907 0 126.539 13.9641 1767 158.921 839.831 442.946
1908 0 132.248 13.7998 1825 158.947 837.922 439.762
1909 0 136.442 13.6762 1866 164.529 838.588 438.187
1910 0 142.245 13.8564 1971 163.702 839.143 435.916
1911 1 79.1445 12.5593 994 154.474 837.699 466.818
1912 0 81.3477 12.9321 1052 156.316 837.25 465.605
1913 0 81.2986 13.432 1092 157.402 838.88 464.415
1914 0 86.3332 13.2394 1143 158.805 840.036 463.297
1915 0 90.2496 13.3075 1201 154.337 836.601 461.888
1916 0 93.2636 13.1348 1225 153.583 837.531 460.436
1917 0 97.1866 13.5101 1313 151.727 837.732 457.911
1918 0 99.2689 13.6599 1356 155.696 839.737 457.063
1919 0 102.332 13.6125 1393 154.813 837.42 454.922
1920 0 106.457 13.63 1451 151.345 836.242 453.666
1921 0 107.137 13.6461 1462 154.748 837.18 452.731
1922 0 111.345 13.8668 1544 147.146 837.227 450.395
1923 0 114.313 14.1192 1614 152.643 836.448 448.932
1924 0 117.268 13.7122 1608 157.072 837.146 448.421
1925 0 121.475 13.9205 1691 52.6777 840.754 446.314
1926 0 124.24 14.1661 1760 156.889 840.235 444.844
1927 0 129.299 13.7356 1776 156.947 838.048 442.82
1928 0 132.187 14.2677 1886 153.96 836.446 440.236
1929 0 137.385 14.2955 1964 168.65 837.425 438.172
1930 0 142.312 13.8288 1968 165.79 838.037 435.684
1931 0 145.267 14.05 2041 159.284 837.799 433.898
1932 1 83.139 12.4611 1036 163.786 837.324 465.434
1933 0 86.1607 12.7785 1101 159.767 838.672 464.074
1934 0 90.2878 12.8367 1159 171.456 838.741 463.136
1935 0 93.2114 12.6701 1181 162.503 837.29 461.884
1936 0 94.1374 13.2147 1244 170.213 837.814 460.048
1937 0 99.1708 13.028 1292 169.8 838.942 458.704
1938 0 102.346 13.2492 1356 164.849 838.017 457.277
1939 0 104.197 13.1674 1372 166.151 839.301 455.735
1940 0 108.262 13.4396 1455 163.83 838.735 453.755
1941 0 112.187 13.2101 1482 166.811 838.178 451.418
1942 0 116.284 13.1231 1526 164.727 838.764 450.203
1943 0 117.306 13.3497 1566 162.086 839.328 448.462
1944 0 124.248 13.2155 1642 164.161 837.34 446.472
1945 0 128.15 13.4998 1730 164.136 837.565 444.267
1946 0 133.237 13.3071 1773 159.968 837.02 441.94
1947 1 77.2266 11.2396 868 154.659 836.824 470.393
1948 0 78.2504 12.1661 952 155.388 837.725 468.97
1949 0 81.1916 12.4767 1013 153.127 838.686 467.886
1950 0 83.1976 12.3441 1027 148.344 839.319 466.247
1951 0 87.2511 12.6875 1107 152.365 839.165 464.298
1952 0 90.245 12.4882 1127 146.227 838.282 462.386
1953 0 94.2195 12.5027 1178 147.754 839.293 461.013
1954 0 98.342 12.7107 1250 149.871 838.77 459.066
1955 0 100.243 12.9684 1300 148.168 837.246 456.676
1956 0 104.307 12.6837 1323 147.773 838.323 455.624
1957 0 106.375 12.9824 1381 147.063 839.717 453.942
1958 0 110.333 12.7795 1410 147.476 840.064 452.178
1959 0 114.454 12.6252 1445 143.392 839.531 450.223
1960 0 116.354 13.0464 1518 144.035 837.383 448.279
1961 0 121.523 13.1168 1594 147.827 839.194 445.907
1962 0 125.192 12.8523 1609 143.616 838.305 442.772
1963 0 130.339 12.5825 1640 143.691 839.478 441.992
1964 1 79.263 10.7869 855 144.073 841.828 468.967
1965 0 82.2259 11.6751 960 143.107 840.49 466.793
1966 0 84.2794 12.5891 1061 14.6352 840.022 465.713
1967 0 86.4634 12.8031 1107 143.014 839.463 464.33
1968 0 89.4055 12.5943 1126 141.869 840.509 462.955
1969 0 93.5226 12.8418 1201 147.143 839.777 460.485
1970 0 96.3735 13.0638 1259 149.871 841.119 459.861
1971 0 99.3111 13.2614 1317 150.199 840.956 457.844
1972 0 101.6 13.3366 1355 154.273 838.818 456.635
1973 0 104.427 13.1192 1370 155.026 840.057 455.992
1974 0 107.444 13.3652 1436 156.817 838.286 453.792
1975 0 110.41 13.3231 1471 159.31 841.36 451.738
1976 0 113.408 13.7115 1555 154.902 839.714 449.852
1977 0 117.299 13.5722 1592 156.173 838.348 449.056
1978 0 119.696 13.3254 1595 164.208 839.108 447.698
1979 0 123.547 13.6466 1686 162.301 839.695 445.399
1980 0 127.19 13.8769 1765 160.066 839.106 443.254
1981 0 131.405 13.6525 1794 163.136 836.099 440.163
1982 0 136.488 13.5543 1850 164.991 838.771 438.472
1983 1 78.3687 12.4667 977 161.203 839.899 467.449
1984 0 79.1902 13.4107 1062 153.213 839.435 466.768
1985 0 82.3359 12.9713 1068 159.085 837.398 466.071
1986 0 85.5137 12.7465 1090 164.387 839.784 463.906
1987 0 87.5544 13.0547 1143 162.225 838.147 463.505
1988 0 88.4038 13.1782 1165 160.444 837.593 462.804
1989 0 92.3481 13.5249 1249 162.364 838.428 460.788
1990 0 94.3188 13.4544 1269 159.251 839.022 460.002
1991 0 98.2585 13.3424 1311 158.364 838.46 457.843
1992 0 101.317 13.591 1377 152.784 839.351 455.975
1993 0 102.318 13.8099 1413 152.191 840.483 454.527
1994 0 106.415 14.03 1493 151.015 840.762 452.93
1995 0 108.252 14.1983 1537 150.523 838.777 451.76
1996 0 113.513 13.5667 1540 152.701 839.421 450.705
1997 0 115.427 14.1995 1639 146.811 839.774 448.758
1998 0 120.418 13.9514 1680 143.601 840.2 446.548
1999 0 121.297 13.8503 1680 145.221 839.116 444.961
2000 0 126.454 14.1237 1786 141.043 839.974 443.362
2001 0 132.274 13.7895 1824 147.667 838.708 439.853
2002 0 134.242 14.1536 1900 145.527 840.445 438.002
2003 0 138.276 13.7768 1905 141.685 838.24 434.356
2004 0 144.423 14.2567 2059 142.792 837.154 431.216
2005 1 77.1809 11.92 920 143.789 838.327 466.02
2006 0 80.1695 11.9497 958 139.847 838.074 464.944
2007 0 83.1421 12.9056 1073 141.815 838.757 465.461
2008 0 85.2036 12.5347 1068 143.881 838.113 464.108
2009 0 87.2319 12.8393 1120 135.815 839.858 463.291
2010 0 90.2023 13.0928 1181 141.605 838.709 461.902
2011 0 93.3108 13.021 1215 138.169 839.308 460.419
2012 0 95.2136 13.538 1289 144.659 839.998 458.413
2013 0 98.2137 13.1957 1296 145.856 840.374 456.955
2014 0 100.144 13.4407 1346 138.32 838.84 455.821
2015 0 105.149 13.2859 1397 140.881 838.898 454.112
2016 0 105.285 13.5727 1429 138.314 840.275 452.644
2017 0 110.279 13.4386 1482 135.418 837.993 451.067
2018 0 111.291 14.0442 1563 128.035 837.681 448.883
2019 0 118.324 13.2687 1570 138.497 838.368 447.61
2020 0 121.389 13.7163 1665 140.176 839.463 445.412
2021 0 124.178 13.8672 1722 141.342 836.889 444.089
2022 0 130.276 13.2949 1732 138.532 837.417 441.49
2023 1 73.2946 11.7471 861 136.785 839.632 471.046
2024 0 76.23 12.2262 932 135.285 839.104 469.899
2025 0 78.195 12.6095 986 135.269 838.908 468.042
2026 0 80.2397 12.5873 1010 132.546 839.517 468.554
2027 0 82.2156 12.5037 1028 135.259 836.298 467.09
2028 0 86.2246 12.3863 1068 134.547 836.606 465.795
2029 0 88.3243 12.4541 1100 135.355 838.447 464.271
2030 0 90.2103 12.5152 1129 127.818 838.93 462.578
2031 0 93.172 12.9975 1211 134.082 839.121 461.063
2032 0 95.2996 12.7283 1213 133.561 838.387 459.986
2033 0 98.3311 13.0783 1286 135.082 839.404 458.665
2034 0 101.149 13.2874 1344 130.318 840.003 456.592
2035 0 103.308 13.2517 1369 132.791 840.249 456.164
2036 0 107.256 12.997 1394 136.1 839.859 455.035
2037 0 111.293 13.1724 1466 132.535 838.945 452.887
2038 0 112.177 13.2648 1488 135.63 838.051 450.995
2039 0 117.181 13.2188 1549 140.459 837.442 449.063
2040 0 121.141 13.4307 1627 141.73 838.52 447.031
2041 0 125.101 13.5411 1694 135.197 837.697 445.274
2042 0 130.192 13.8104 1798 137.731 838.047 442.018
2043 0 133.162 13.6826 1822 138.406 837.454 440.149
2044 0 141.352 13.3496 1887 141.335 838.773 437.328
2045 0 145.316 13.3365 1938 142.954 837.761 435.053
2046 1 86.2591 12.0799 1042 137.902 836.765 466.118
2047 0 89.2924 12.1959 1089 132.452 838.632 464.568
2048 0 90.2314 12.6563 1142 140.187 841.476 463.376
2049 0 93.2283 12.4747 1163 138.238 838.322 461.843
2050 0 97.6209 12.7841 1248 134.924 839.752 460.843
2051 0 100.434 12.7149 1277 138.479 839.049 459.32
2052 0 102.347 12.9168 1322 141.539 839.287 458.133
2053 0 105.276 12.9659 1365 139.751 838.173 455.55
2054 0 108.24 12.8326 1389 142.977 839.807 454.948
2055 0 111.378 13.2252 1473 139.399 841.069 452.329
2056 0 114.186 13.0489 1490 146.109 839.176 451.23
2057 0 116.427 13.1756 1534 146.25 839.165 450.362
2058 0 121.327 13.0309 1581 149.613 839.874 448.649
2059 0 122.432 13.3054 1629 151.491 840.638 447.171
2060 0 128.394 13.2872 1706 149.737 841.726 445.313
2061 0 132.307 13.2873 1758 152.081 839.195 443.4
2062 0 135.382 13.5911 1840 151.114 839.82 442.301
2063 1 74.4908 11.545 860 144.044 839.159 471.981
2064 0 78.2567 12.1906 954 145.587 838.847 470.288
2065 0 80.4019 12.139 976 142.239 839.679 469.363
2066 0 84.5614 12.5234 1059 145.093 839.324 467.562
2067 0 84.353 12.6848 1070 145.264 839.122 467.118
2068 0 88.4056 12.635 1117 147.108 839.188 465.75
2069 0 92.348 12.4746 1152 143.143 839.252 463.954
2070 0 93.546 12.7424 1192 145.735 838.844 462.919
2071 0 97.4386 12.726 1240 146.306 839.559 460.393
2072 0 99.5168 13.2942 1323 142.215 839.435 458.72
2073 0 104.449 12.8388 1341 139.283 841.148 456.74
2074 0 106.407 12.6777 1349 147.728 839.804 455.668
2075 0 110.427 13.0674 1443 139.343 839.389 453.29
2076 0 114.687 12.9396 1484 142.332 839.533 451.554
2077 0 118.473 13.0916 1551 142.283 840.303 449.508
2078 0 120.715 13.2129 1595 136.372 837.945 446.897
2079 0 126.777 13.6144 1726 137.602 839.002 445.452
2080 0 129.465 13.4322 1739 136.288 838.798 444.16
2081 0 132.533 13.5665 1798 141.494 838.823 443.023
2082 0 136.342 13.5468 1847 145.561 837.824 440.027
2083 0 141.668 13.6799 1938 136.746 838.836 437.578
2084 0 146.503 13.6925 2006 143.616 838.893 435.212
2085 0 151.609 13.7657 2087 139.706 837.943 432.579
2086 1 88.4099 12.8492 1136 134.692 840.784 464.12
2087 0 91.6156 13.0764 1198 134.706 839.553 462.98
2088 0 91.5472 13.3046 1218 131.654 840.778 462.487
2089 0 95.4832 13.2903 1269 135.739 841.03 460.563
2090 0 98.6543 13.2584 1308 128.001 840.463 459.158
2091 0 102.759 13.3321 1370 138.076 838.825 457.126
2092 0 105.398 13.9186 1467 135.645 839.567 455.991
2093 0 108.212 13.8247 1496 137.499 842.058 455.178
2094 0 110.397 14.0674 1553 132.542 841.549 452.853
2095 0 115.502 13.9045 1606 132.215 839.491 450.246
2096 0 117.389 14.0728 1652 136.74 841.044 448.964
2097 0 122.432 13.8607 1697 138.689 839.586 447.431
2098 0 126.582 13.9435 1765 139.011 840.613 445.167
2099 1 70.4513 12.3915 873 133.515 839.172 473.418
2100 0 73.5302 12.6207 928 135.672 839.7 473.028
2101 0 74.2833 12.9908 965 135.745 839.3 471.613
2102 0 77.4742 13.0237 1009 132.103 841.022 470.922
2103 0 77.4334 13.1597 1019 143.62 840.581 469.701
2104 0 82.492 13.1164 1082 143.799 840.548 469.19
2105 0 85.251 13.4309 1145 144.729 839.688 467.754
2106 0 88.3652 13.4442 1188 145.934 839.335 466.189
2107 0 88.3652 13.4442 1188 173.287 839.335 466.189
2108 0 92.4086 13.6135 1258 155.789 839.864 463.458
2109 0 95.3167 13.282 1266 151.391 840.094 462.367
2110 0 98.301 13.5604 1333 158.591 838.942 461.062
2111 0 101.293 13.8509 1403 154.689 838.825 458.663
2112 0 103.369 13.4954 1395 158 839.351 457.076
2113 0 107.361 13.4407 1443 154.771 841.408 456.604
2114 0 109.357 14.0732 1539 150.983 839.871 454.199
2115 0 112.227 13.7578 1544 152.832 841.991 453.257
2116 0 117.363 14.0334 1647 149.798 839.142 450.958
2117 0 119.435 14.1834 1694 148.388 841.318 449.726
2118 0 123.453 14.0539 1735 148.567 841.111 447.793
2119 0 128.236 14.0133 1797 147.975 841.392 444.884
2120 0 133.473 14.1751 1892 143.937 839.317 442.193
2121 0 136.448 14.2765 1948 145.373 839.656 439.388
2122 0 142.267 14.0721 2002 145.835 841.91 437.621
2123 0 148.597 14.4149 2142 141.916 841.698 434.557
2124 0 154.356 14.1103 2178 139.624 840.823 431.796
2125 0 161.578 13.9375 2252 137.806 840.209 428.443
2126 0 167.678 14.1999 2381 143.631 840.34 426.272
2127 1 94.3266 13.1246 1238 138.599 841.232 462.829
2128 0 96.3828 13.4049 1292 140.237 840.411 461.21
2129 0 98.4387 12.81 1261 133.792 840.363 460.447
2130 0 103.404 12.8041 1324 129.697 839.872 458.252
2131 0 107.499 13.1257 1411 137.599 840.046 455.936
2132 0 110.373 13.2098 1458 140.651 839.778 454.645
2133 0 112.322 13.5058 1517 143.438 837.622 453.11
2134 0 116.466 13.4117 1562 143.794 839.022 451.737
2135 0 119.295 13.3618 1594 148.3 840.424 450.482
2136 0 123.313 13.6725 1686 140.798 839.77 448.098
2137 0 129.39 13.3473 1727 149.752 841.218 445.333
2138 0 133.409 13.3274 1778 136.888 839.817 442.961
2139 1 71.2429 12.5486 894 147.096 838.444 473.187
2140 0 73.332 13.2821 974 134.284 839.61 471.861
2141 0 74.2587 13.5472 1006 137.727 839.972 471.822
2142 0 76.3478 13.2682 1013 147.839 839.677 470.291
2143 0 80.4969 13.1931 1062 148.564 838.761 468.706
2144 0 82.3925 13.5449 1116 150.2 839.782 467.021
2145 0 85.361 13.7065 1170 146.998 838.571 465.885
2146 0 86.4053 13.8533 1197 141.546 840.038 465.428
2147 0 90.3721 13.7874 1246 154.897 839.311 463.62
2148 0 91.4265 13.8581 1267 149.806 841.8 462.755
2149 0 96.3016 13.8108 1330 146.268 839.168 460.765
2150 0 98.2787 14.4589 1421 157.11 838.754 459.562
2151 0 99.2832 14.5946 1449 153.52 839.146 457.234
2152 0 104.291 14.239 1485 155.377 840.519 456.55
2153 0 106.274 14.265 1516 151.082 839.614 454.81
2154 0 110.383 14.033 1549 160.076 841.067 453.631
2155 0 114.344 14.5439 1663 158.481 841.964 451.508
2156 0 120.373 16.615 2000 147.266 840.034 446.574
2157 0 121.247 14.9282 1810 158.19 839.399 446.681
2158 0 126.294 14.6246 1847 159.605 840.974 444.765
2159 0 130.309 14.1433 1843 157.381 840.651 443.142
2160 1 69.1544 13.3759 925 161.69 841.303 472.264
2161 0 73.2699 13.6755 1002 157.812 841.631 470.328
2162 0 75.1745 13.3024 1000 165.457 840.295 471.944
2163 0 78.2542 13.1878 1032 168.007 841.09 470.506
2164 0 80.2229 13.5373 1086 164.799 841.508 469.35
2165 0 82.2182 13.7074 1127 166.956 841.005 468.035
2166 0 83.1764 14.2949 1189 169.072 840.436 467.092
2167 0 87.4107 13.98 1222 169.392 839.428 465.833
2168 0 88.3479 14.092 1245 171.072 840.844 464.923
2169 0 92.3285 13.9285 1286 172.121 839.477 464.008
2170 0 95.2582 14.2875 1361 167.678 840.367 462.381
2171 0 96.1989 14.2725 1373 171.328 842.466 461.155
2172 0 99.3038 14.4103 1431 171.27 841.038 459.284
2173 0 104.153 14.3634 1496 164.356 840.343 457.568
2174 0 106.195 14.3604 1525 162.552 842.132 456.222
2175 0 110.219 14.5438 1603 161.78 840.666 454.557
2176 0 113.218 14.291 1618 166.671 840.044 453.705
2177 0 115.24 14.7432 1699 163.893 839.884 451.76
2178 0 120.221 14.7644 1775 163.033 840.622 448.188
2179 0 124.271 14.565 1810 169.14 839.177 446.942
2180 0 130.29 14.3602 1871 161.989 838.221 444.551
2181 0 135.305 14.4637 1957 162.863 838.455 441.941
2182 1 76.2299 13.6036 1037 159.284 839.29 469.929
2183 0 79.1099 14.3598 1136 160.048 838.124 467.846
2184 0 84.1777 13.721 1155 158.145 840.416 467.429
2185 0 87.1637 13.9967 1220 153.423 840.98 465.676
2186 0 87.1939 14.2097 1239 161.717 840.731 464.692
2187 0 90.0994 14.1843 1278 161.308 838.528 463.159
2188 0 95.1643 13.7972 1313 158.924 839.145 462.379
2189 0 98.162 13.9769 1372 164.37 839.47 460.236
2190 0 101.242 14.2135 1439 154.091 840.434 458.771
2191 0 103.21 14.2816 1474 152.528 838.848 457.376
2192 0 106.137 14.1703 1504 161.131 839.602 456.139
2193 0 109.312 14.5181 1587 156.052 840.87 453.834
2194 0 112.156 14.248 1598 160.416 838.531 452.385
2195 0 115.419 14.5036 1674 157.519 839.333 451.278
2196 0 119.249 14.3146 1707 159.551 839.946 449.53
2197 0 124.342 14.4118 1792 151.734 838.854 447.086
2198 0 128.328 14.5487 1867 154.561 839.724 444.314
2199 0 131.436 14.5089 1907 158.209 839.185 442.569
2200 0 136.573 14.5343 1985 154.25 838.86 440.347
2201 0 142.679 14.4801 2066 152 840.614 437.537
2202 1 82.2117 12.8935 1060 151.489 839.656 467.036
2203 0 87.1616 14.1232 1231 153.162 840.808 464.832
2204 0 89.1743 14.0175 1250 148.89 839.129 462.992
2205 0 93.4167 13.8947 1298 152.972 839.449 462.889
2206 0 96.4398 14.0295 1353 154.933 838.247 461.067
2207 0 98.3702 14.3844 1415 150.985 837.639 459.078
2208 0 103.348 13.9819 1445 157.357 837.608 457.448
2209 0 106.364 14.0368 1493 155.437 837.198 456.061
2210 0 110.455 14.2682 1576 151.497 837.973 453.987
2211 0 112.385 14.4325 1622 154.961 836.668 451.954
2212 0 115.294 14.4587 1667 152.101 840.371 450.584
2213 0 118.26 14.4934 1714 149.361 838.186 449.338
2214 0 125.436 14.35 1800 146.946 838.961 446.158
2215 0 129.403 14.5437 1882 150.096 836.453 443.732
2216 0 134.195 14.4491 1939 150.957 837.112 442.041
2217 0 137.309 14.3472 1970 154.224 836.179 440.306
2218 1 77.1542 13.2851 1025 156.666 836.54 470.06
2219 0 79.3056 14.1982 1126 150.138 837.816 468.135
2220 0 83.1417 14.337 1192 152.502 837.831 466.428
2221 0 88.1206 14.117 1244 140.175 834.936 464.757
2222 0 90.1308 14.3791 1296 151.225 835.731 463.455
2223 0 93.15 14.3425 1336 157.549 835.847 462.017
2224 0 98.3993 14.4513 1422 152.774 834.873 460.161
2225 0 100.274 14.5003 1454 149.953 835.665 459.188
2226 0 103.434 14.792 1530 151.473 833.121 457.139
2227 0 106.386 14.485 1541 153.71 836.564 455.234
2228 0 110.273 14.7543 1627 150.906 835.687 453.616
2229 0 111.228 14.9153 1659 148.674 835.701 451.558
2230 0 116.122 14.6484 1701 148.864 836.784 450.51
2231 0 123.19 14.4574 1781 154.393 835.031 448.272
2232 0 126.228 14.347 1811 154.533 834.126 445.489
2233 1 72.1559 13.4847 973 154.966 833.569 470.899
2234 0 74.0538 13.9358 1032 152.131 834.219 468.755
2235 0 76.1507 14.3006 1089 155.28 835.579 468.587
2236 0 81.1967 13.8676 1126 156.757 835.202 466.994
2237 0 81.1552 14.6756 1191 156.117 836.239 465.401
2238 0 86.2377 14.4252 1244 148.281 835.386 463.838
2239 0 88.1201 14.7526 1300 151.496 837.225 462.396
2240 0 91.1884 14.5084 1323 150.965 836.187 460.774
2241 0 93.145 14.6438 1364 155.42 835.952 459.565
2242 0 98.1174 14.6253 1435 154.054 835.456 458
2243 0 101.188 14.7942 1497 156.841 837.764 456.292
2244 0 104.222 14.8338 1546 154.234 836.825 453.798
2245 0 107.084 14.8481 1590 154.01 835.113 452.8
2246 0 107.222 15.0156 1610 158.019 834.325 451.553
2247 0 113.214 14.7067 1665 156.656 835.667 449.874
2248 0 116.225 14.7301 1712 159.956 837.01 448.335
2249 0 122.227 15.0949 1845 153.841 836.998 445.88
2250 0 125.396 14.9366 1873 148.986 837.019 443.52
2251 0 129.336 14.8915 1926 158.648 838.288 441.272
2252 0 136.346 14.6759 2001 155.637 838.509 438.319
2253 1 79.2072 13.673 1083 150.229 837.224 465.58
2254 0 83.2438 13.9109 1158 142.75 839.973 464.261
2255 0 83.2438 13.9109 1158 179.957 842.973 464.261
2256 0 88.1914 13.7542 1213 156.875 839.216 461.597
2257 0 92.1791 14.0596 1296 149.075 839.351 459.684
2258 0 96.1158 14.212 1366 144.231 837.638 457.548
2259 0 99.1053 13.9145 1379 153.154 837.934 455.959
2260 0 101.1 14.5401 1470 147.034 838.692 455.471
2261 0 104.126 14.4152 1501 153.687 837.112 454.504
2262 0 107.291 14.3908 1544 153.418 838.077 452.608
2263 0 110.077 14.7715 1626 142.29 838.857 450.996
2264 0 114.158 14.4011 1644 138.874 839.967 449.472
2265 0 117.274 14.3425 1682 150.347 841.114 447.662
2266 0 122.137 14.4265 1762 151.064 840.078 445.216
2267 0 124.31 14.48 1800 155.28 839.256 443.879
2268 0 128.253 14.2999 1834 152.766 840.028 441.064
2269 1 75.0648 12.4959 938 153.06 840.493 468.013
2270 0 77.2272 12.9359 999 147.37 839.899 468.415
2271 0 80.196 12.9932 1042 155.538 838.996 466.206
2272 0 82.2733 12.896 1061 151.876 841.833 464.606
2273 0 85.2592 13.0074 1109 151.07 840.067 463.361
2274 0 87.279 12.8095 1118 155.336 841.124 460.775
2275 0 92.189 13.494 1244 152.363 840.218 459.705
2276 0 95.3085 13.2412 1262 152.879 841.661 457.799
2277 0 97.2535 13.4083 1304 153.54 841.766 456.753
2278 0 101.185 13.3715 1353 152.364 839.432 454.808
2279 0 104.295 13.3946 1397 160.951 838.311 453.353
2280 0 107.214 13.4311 1440 153.719 839.092 451.399
2281 0 111.436 13.7208 1529 156.971 838.878 450.12
2282 0 114.303 13.7704 1574 153.334 839.257 448.454
2283 0 118.504 13.5439 1605 154.368 838.541 445.527
2284 0 123.311 13.2834 1638 155.358 837.991 443.78
2285 0 128.287 13.6257 1748 154.362 838.57 440.533
2286 0 132.308 13.2796 1757 146.119 840.358 439.061
2287 1 77.3306 11.7159 906 140.593 839.09 466.809
2288 0 81.1716 11.7775 956 145.677 840.852 466.527
2289 0 82.2279 11.7235 964 145.912 840.566 465.469
2290 0 85.1395 12.086 1029 144.813 839.787 464.22
2291 0 88.2943 12.2658 1083 144.394 840.334 462.551
2292 0 90.2103 12.3378 1113 146.456 836.715 461.379
2293 0 95.3444 12.2189 1165 144.112 839.319 460.071
2294 0 98.2778 12.5562 1234 141.281 836.871 457.815
2295 0 100.265 12.7861 1282 138.641 836.331 455.598
2296 0 104.322 12.7778 1333 144.857 836.456 454.671
2297 0 108.276 12.8376 1390 144.865 836.517 453.153
2298 0 111.147 12.8298 1426 143.44 838.289 451.565
2299 0 116.323 12.4739 1451 145.751 837.731 449.493
2300 0 119.246 12.4868 1489 144.702 836.985 448.228
2301 0 122.297 12.7886 1564 139.825 838 445.357
2302 0 125.365 12.7867 1603 148.029 838.357 443.135
2303 0 131.214 12.613 1655 144.99 838.077 440.954
2304 0 137.345 12.7344 1749 141.102 837.39 438.442
2305 0 141.306 12.5756 1777 143.165 836.802 436.259
2306 1 84.1072 11.6994 984 139.914 836.656 465.01
2307 0 87.2503 12.0802 1054 134.469 838.368 463.528
2308 0 90.406 12.112 1095 134.51 838.457 462.147
2309 0 91.2119 12.7944 1167 142.163 837.355 460.479
2310 0 96.2462 12.7693 1229 130.413 837.578 457.847
2311 0 100.221 12.4825 1251 139.536 836.466 456.348
2312 0 102.277 12.9061 1320 135.638 835.139 453.854
2313 0 105.263 12.8251 1350 142.15 835.451 452.499
2314 0 110.283 12.7672 1408 141.764 835.734 449.667
2315 0 113.325 12.848 1456 146.005 836.728 448.242
2316 0 116.325 12.9637 1508 138.822 836.951 447.744
2317 0 119.365 12.776 1525 144.159 836.782 445.296
2318 0 121.283 13.2253 1604 143.039 837.345 442.995
2319 0 127.454 13.0243 1660 145.625 835.188 441.631
2320 0 130.708 12.9985 1699 145.662 835.441 439.888
2321 0 134.261 13.146 1765 147.234 836.398 439.055
2322 0 140.34 13.6098 1910 152.258 838.247 436.458
2323 1 78.228 11.5687 905 133.598 838.379 469.223
2324 0 81.2087 12.5725 1021 148.34 838.507 467.381
2325 0 82.2534 13.0086 1070 141.047 838.023 466.875
2326 0 86.1507 12.9773 1118 144.818 837.461 465.489
2327 0 89.3708 13.0356 1165 148.072 837.709 462.57
2328 0 90.3826 12.7126 1149 145.558 838.763 461.793
2329 0 92.3695 13.1429 1214 145.14 838.43 459.121
2330 0 97.4355 13.1164 1278 143.067 837.426 458.908
2331 0 99.4411 13.1535 1308 145.22 838.255 457.443
2332 0 102.28 13.0035 1330 146.786 839.093 456.192
2333 0 106.526 13.1799 1404 136.028 836.612 453.524
2334 0 109.419 13.5534 1483 124.053 837.268 450.981
2335 0 110.423 13.3396 1473 122.454 838.771 450.012
2336 0 114.386 13.6381 1560 150.903 838.522 449.49
2337 0 115.476 13.6392 1575 150.61 838.48 447.486
2338 0 121.433 14.6747 1782 146.428 838.474 443.787
2339 0 128.342 16.2535 2086 137.957 839.923 439.356
2340 0 130.282 15.4281 2010 134.964 837.368 440.206
2341 0 137.2 16.6836 2289 135.601 837.759 435.879
2342 1 77.1377 12.173 939 142.423 838.761 469.596
2343 0 80.1924 12.5573 1007 144.042 837.565 468.17
2344 0 83.1142 12.6092 1048 136.334 838.357 467.186
2345 0 85.2482 12.9622 1105 136.816 839.844 466.251
2346 0 88.1857 12.6324 1114 144.226 841.142 464.706
2347 0 90.3119 13.2208 1194 132.836 840.081 463.303
2348 0 94.4115 13.4412 1269 140.428 841.149 461.846
2349 0 97.2918 13.2899 1293 142.787 840.185 460.428
2350 0 99.3445 13.8911 1380 150.501 840.772 459.056
2351 0 101.284 13.4079 1358 151.707 839.38 457.526
2352 0 103.273 13.8081 1426 150.884 840.126 456.21
2353 0 109.303 13.6593 1493 147.71 838.921 454.262
2354 0 111.247 13.7442 1529 153.986 841.236 452.422
2355 0 113.265 13.773 1560 156.747 840.51 450.422
2356 0 117.384 13.6901 1607 153.171 840.741 449.662
2357 0 119.291 13.6977 1634 151.603 840.272 448.523
2358 0 122.335 14.2151 1739 161.283 840.45 446.315
2359 0 128.217 13.8593 1777 149.369 840.021 443.214
2360 0 131.137 14.1684 1858 153.2 841.118 443.536
2361 0 137.235 13.8376 1899 157.293 840.738 439.76
2362 0 141.243 14.1742 2002 153.016 840.421 437.63
2363 1 82.1179 12.1654 999 160.894 837.584 467.679
2364 0 84.1858 13.0426 1098 154.364 838.813 465.582
2365 0 88.2259 12.8194 1131 151.615 839.36 464.101
2366 0 89.2598 13.3319 1190 157.459 839.205 463.407
2367 0 92.192 13.1682 1214 148.346 840.392 461.305
2368 0 93.2141 13.1096 1222 160.239 839.79 460.831
2369 0 98.2372 13.1417 1291 157.342 839.642 457.228
2370 0 102.169 13.4972 1379 148.872 839.515 457.197
2371 0 105.177 13.368 1406 151.852 842.261 454.871
2372 0 108.266 13.6054 1473 139.166 839.464 453.007
2373 0 112.249 13.4433 1509 151.693 839.517 451.885
2374 0 115.206 13.6451 1572 159.703 839.405 449.949
2375 0 120.191 13.5535 1629 160.045 840.15 448.6
2376 0 123.171 13.3473 1644 157.331 840.061 445.502
2377 0 127.245 13.4466 1711 155.864 841.109 443.722
2378 0 130.239 13.767 1793 157.564 840.185 441.632
2379 1 71.141 12.4401 885 150.903 839.141 470.088
2380 0 76.1759 12.4186 946 151.628 840.12 467.914
2381 0 79.0485 12.8782 1018 146.825 838.85 468.764
2382 0 80.0796 12.9871 1040 145.272 838.895 467.366
2383 0 83.1653 12.9982 1081 145.965 840.577 466.063
2384 0 87.1348 13.1291 1144 148.34 839.964 464.562
2385 0 89.1239 13.0717 1165 150.478 839.409 463.47
2386 0 91.1993 13.1799 1202 149.872 839.165 461.779
2387 0 93.2729 13.1871 1230 152.245 837.954 461.194
2388 0 97.1221 13.169 1279 153.971 838.715 459.585
2389 0 99.1482 13.4042 1329 151.561 839.119 458.205
2390 0 102.255 13.5935 1390 153.43 838.704 455.945
2391 0 107.208 13.5624 1454 154.398 839.85 454.569
2392 0 108.116 13.652 1476 141.559 838.937 453.521
2393 0 112.257 13.4601 1511 152.735 838.764 451.656
2394 0 115.175 13.6836 1576 153.824 838.772 450.244
2395 0 118.351 13.8402 1638 156.473 837.512 448.65
2396 0 122.192 13.8879 1697 153.197 838.832 446.976
2397 0 124.244 13.9805 1737 154.169 839.979 445.093
2398 0 127.325 14.082 1793 154.829 839.638 443.677
2399 0 132.225 14.2787 1888 154.228 838.924 440.997
2400 0 135.183 14.0476 1899 159.155 840.183 438.397
2401 0 141.241 14.2239 2009 152.732 837.845 436.251
2402 0 146.239 14.5173 2123 147.947 838.719 433.544
2403 0 151.423 14.3704 2176 155.719 839.362 429.936
2404 1 65.0927 11.6296 757 143.028 840.266 476.162
2405 0 66.0837 12.0453 796 141.307 838.383 474.388
2406 0 67.1221 12.6635 850 145.004 836.539 472.705
2407 0 70.1066 12.6094 884 146.264 836.758 472.337
2408 0 74.2863 12.5864 935 144.586 837.573 470.69
2409 0 76.1569 12.6581 964 150.109 837.232 470.271
2410 0 77.1218 13.148 1014 143.428 839.365 469.051
2411 0 79.1201 12.8033 1013 143.041 837.863 467.459
2412 0 83.0943 12.8649 1069 154.262 838.848 465.875
2413 0 86.0934 13.1021 1128 152.325 841.816 465.714
2414 0 88.0952 13.2243 1165 144.339 839.584 464.159
2415 0 91.1764 13.4355 1225 143.343 842.526 462.077
2416 0 94.1731 13.2947 1252 142.394 840.883 460.085
2417 0 96.2262 13.0837 1259 154.625 839.857 458.635
2418 0 102.232 13.039 1333 151.576 841.376 457.365
2419 0 105.238 13.2652 1396 149.458 840.325 455.787
2420 0 108.302 13.4531 1457 149.389 839.964 453.317
2421 0 112.107 13.6922 1535 153.36 839.518 451.974
2422 1 64.1083 12.1357 778 151.28 838.512 476.08
2423 0 67.1126 12.2928 825 150.31 839.264 474.813
2424 0 69.0761 12.4645 861 146.816 839.425 473.623
2425 0 72.1121 12.7163 917 150.392 839.954 471.928
2426 0 71.1569 12.9151 919 147.998 840.686 471.32
2427 0 75.1153 12.6339 949 148.942 840.166 471.035
2428 0 77.0892 13.1536 1014 148.33 838.265 467.671
2429 0 80.1495 12.9633 1039 151.313 840.614 466.582
2430 0 83.0747 12.88 1070 150.228 838.95 466.078
2431 0 84.1486 13.3692 1125 147.254 838.228 465.57
2432 0 85.1047 13.4423 1144 153.968 839.913 464.798
2433 0 89.1173 13.2073 1177 157.408 838.349 463.78
2434 0 91.0883 13.4485 1225 151.92 838.325 462.048
2435 0 93.1545 13.5367 1261 157.635 839.606 461.192
2436 0 97.2536 13.655 1328 152.612 838.088 459.611
2437 0 100.285 13.6511 1369 163.192 840.996 457.618
2438 0 103.142 13.6898 1412 163.396 839.988 455.477
2439 0 107.252 13.6595 1465 168.076 838.659 455.259
2440 0 109.291 13.9994 1530 168.532 841.024 451.273
2441 0 111.244 14.0681 1565 170.093 839.398 450.521
2442 0 117.147 13.8458 1622 161.166 839.067 448.304
2443 0 120.156 14.3231 1721 167.109 840.098 446.85
2444 0 125.124 13.8583 1734 168.057 839.943 444.74
2445 0 128.379 13.873 1781 168.578 840.916 443.35
2446 1 75.1483 12.9344 972 164.219 840.051 470.111
2447 0 79.3306 12.971 1029 166.016 838.915 468.246
2448 0 80.1948 13.5296 1085 169.128 838.498 467.453
2449 0 83.1379 13.5438 1126 161.957 838.632 466.31
2450 0 85.1947 13.698 1167 151.141 840.27 464.623
2451 0 89.317 13.3793 1195 163.417 839.4 463.714
2452 0 91.3244 13.7532 1256 164.282 839.282 462.241
2453 0 95.4828 14.0235 1339 159.735 840.01 459.622
2454 0 98.2417 13.7925 1355 166.912 840.715 459.02
2455 0 99.3669 14.2502 1416 163.332 840.753 457.838
2456 0 105.502 13.7154 1447 165.549 841.347 454.736
2457 0 107.409 13.9466 1498 156.983 842.431 452.794
2458 0 110.682 14.2932 1582 161.261 842.796 450.977
2459 0 114.651 14.313 1641 168.381 843.009 449.13
2460 0 117.463 13.9789 1642 162.867 841.174 448.41
2461 0 122.5 13.8368 1695 164.161 839.612 445.825
2462 0 126.673 14.5414 1842 161.504 840.377 442.323
2463 0 128.547 14.6717 1886 158.96 842.298 440.867
2464 0 133.496 14.4873 1934 157.078 840.744 437.806
2465 0 139.541 14.3542 2003 159.93 840.464 435.467
2466 0 143.77 14.1128 2029 164.649 841.022 433.716
2467 0 148.69 14.3319 2131 157.808 841.158 430.076
2468 1 84.4491 12.6112 1065 165.562 841.023 462.835
2469 0 87.3933 13.3763 1169 160.631 838.837 461.062
2470 0 89.661 13.5845 1218 152.736 840.709 461.28
2471 0 92.7145 13.8921 1288 155.6 840.114 458.197
2472 0 96.5659 13.5037 1304 158.966 841.71 456.4
2473 0 100.504 13.5317 1360 158.105 841.413 455.112
2474 0 104.675 13.7378 1438 157.514 841.161 452.485
2475 0 106.656 13.5857 1449 157.322 843.378 451.575
2476 0 108.668 13.6931 1488 154.858 840.703 449.947
2477 0 113.663 13.6632 1553 157.479 839.259 448.196
2478 0 115.617 14.0637 1626 152.919 840.624 445.738
2479 0 120.417 14.0678 1694 156.443 839.157 444.107
2480 0 125.425 13.8569 1738 152.446 840.594 442.186
2481 0 129.304 13.9516 1804 159.189 840.856 440.038
2482 0 132.388 14.2007 1880 162.81 841.85 438.41
2483 0 139.388 14.0112 1953 152.37 839.996 435.648
2484 0 144.578 13.9994 2024 156.548 842.368 432.945
2485 0 149.451 14.1853 2120 159.267 842.953 430.521
2486 1 86.3326 12.9847 1121 154.687 842.83 461.888
2487 0 88.3236 13.6657 1207 154.404 842.059 459.823
2488 0 92.3027 13.1632 1215 156.297 842.243 458.165
2489 0 95.3791 13.6508 1302 149.449 840.647 456.472
2490 0 97.3679 13.6082 1325 148.457 842.004 455.243
2491 0 100.426 13.4427 1350 151.524 839.52 453.89
2492 0 103.309 13.5032 1395 150.692 839.862 451.505
2493 0 108.37 13.9245 1509 155.718 842.857 449.637
2494 0 112.382 13.5252 1520 153.593 840.812 448.376
2495 0 113.38 13.9619 1583 25.3923 842.049 446.774
2496 0 118.432 14.0165 1660 142.905 842.984 444.784
2497 0 121.337 14.4804 1757 150.288 841.37 442.799
2498 0 124.378 14.464 1799 153.52 839.865 441.551
2499 0 128.239 14.4418 1852 153.432 840.485 440.025
2500 0 131.251 14.5371 1908 141.763 841.929 438.354
2501 0 136.348 14.441 1969 152.319 840.5 435.426
2502 0 142.221 14.4071 2049 154.34 840.126 434.181
2503 0 147.309 14.8463 2187 153.429 840.61 430.799
2504 0 152.341 15.8854 2420 141.498 842.432 425.113
2505 0 157.245 14.436 2270 157.837 839.765 425.042
2506 0 163.51 14.3967 2354 152.406 841.59 422.459
2507 1 91.3854 13.175 1204 149.318 842.398 456.879
2508 0 95.4502 13.8397 1321 151.706 842.336 455.393
2509 0 95.1999 14.2017 1352 159.044 842.011 453.094
2510 0 98.2819 14.4889 1424 155.124 841.509 452.034
2511 0 103.378 14.5775 1507 158.702 843.065 450.822
2512 0 106.388 14.4377 1536 156.555 842.333 448.542
2513 0 110.28 14.2093 1567 160.974 841.937 446.755
2514 0 112.505 14.2305 1601 150.667 843.04 445.239
2515 0 116.322 14.4168 1677 164.897 842.123 444.112
2516 0 121.462 14.4243 1752 164.89 841.834 441.684
2517 0 123.298 14.542 1793 160.872 843.342 439.496
2518 0 127.38 14.7197 1875 166.584 842.363 437.544
2519 0 131.374 14.6833 1929 160.577 842.543 435.799
2520 0 135.129 14.8599 2008 159.745 842.748 433.012
2521 0 142.294 14.8003 2106 161.906 842.05 431.231
2522 0 145.251 15.0911 2192 160.67 843.079 428.998
2523 0 150.286 14.9049 2240 150.304 841.753 426.229
2524 0 155.258 14.8527 2306 161.78 841.707 423.864
2525 0 162.383 14.8538 2412 163.148 842.213 420.555
2526 0 167.33 14.8928 2492 164.604 843.504 417.895
2527 0 173.488 15.0788 2616 160.312 842.356 414.894
2528 0 178.445 15.6183 2787 163.544 842.147 410.198
2529 0 186.161 14.9709 2787 161.296 842.668 408.594
2530 1 102.223 14.1065 1442 162.209 843.939 448.739
2531 0 104.301 14.3047 1492 163.614 844.062 447.124
2532 0 108.078 14.8596 1606 167.491 844.095 444.725
2533 0 111.318 14.5349 1618 171.65 844.949 443.714
2534 0 114.267 14.5799 1666 170.807 843.837 442.376
2535 0 115.431 15.0653 1739 163.452 843.346 439.707
2536 0 123.24 14.776 1821 171.357 843.434 437.839
2537 0 127.286 14.8721 1893 163.973 842.686 435.706
2538 0 130.168 14.804 1927 170.636 845.924 433.509
2539 0 136.164 14.6368 1993 168.634 843.914 432.104
2540 0 141.298 14.9189 2108 167.035 843.681 428.81
2541 0 144.238 14.9613 2158 172.527 842.741 427.521
2542 0 149.149 15.1861 2265 169.938 843.314 424.262
2543 0 155.201 14.929 2317 164.696 844.262 421.428
2544 0 161.256 15.0382 2425 171.04 842.854 419.025
2545 1 91.1262 14.3427 1307 167.793 842.817 451.425
2546 0 94.1172 14.6944 1383 162.602 843.685 448.978
2547 0 100.179 14.2345 1426 171.56 843.82 448.461
2548 0 100.288 14.7475 1479 173.293 843.249 446.624
2549 0 106.264 14.6804 1560 174.307 844.753 444.442
2550 0 110.245 14.6764 1618 173.217 844.258 443.684
2551 0 114.332 14.7903 1691 166.866 842.329 440.857
2552 0 115.188 15.2013 1751 171.394 842.839 439.284
2553 0 121.232 14.8393 1799 164.506 843.529 437.67
2554 0 123.186 15.2291 1876 169.502 842.803 435.199
2555 0 129.255 14.8698 1922 166.228 845.127 433.424
2556 0 135.251 14.9278 2019 174.83 844.673 430.948
2557 0 140.203 14.964 2098 169.632 845.13 427.59
2558 0 144.336 14.9651 2160 166.668 842.735 425.486
2559 0 151.151 14.8792 2249 173.729 843.297 423.764
2560 0 156.292 14.9784 2341 171.9 844.332 421.056
2561 1 90.1601 13.953 1258 162.967 843.476 452.954
2562 0 93.1107 14.5204 1352 166.047 843.775 451.22
2563 0 96.1669 14.2461 1370 171.921 844.191 449.95
2564 0 101.242 14.2827 1446 165.546 843.186 447.831
2565 0 103.238 14.3649 1483 173.629 844.038 446.615
2566 0 107.179 14.4431 1548 167.288 842.594 444.705
2567 0 110.107 14.3315 1578 161.184 843.362 443.314
2568 0 113.173 14.6766 1661 171.879 843.523 441.621
2569 0 118.194 14.7554 1744 168.325 842.57 439.912
2570 0 120.214 14.8319 1783 169.626 840.608 438.498
2571 0 124.126 14.6303 1816 171.365 840.507 436.773
2572 0 127.117 15.1357 1924 177.626 841.092 435.024
2573 0 131.49 15.3091 2013 176.925 843.055 433.306
2574 0 136.213 15.05 2050 165.769 843.287 430.754
2575 0 141.292 15.2309 2152 165.622 843.824 428.65
2576 0 146.289 15.4147 2255 169.745 845.288 426.392
2577 0 151.266 15.1918 2298 172.161 844.956 424.237
2578 0 157.259 14.9054 2344 171.889 845.094 421.863
2579 0 163.449 15.3442 2508 166.488 841.435 417.72
2580 1 89.1608 14.6701 1308 167.576 842.004 454.006
2581 0 92.2215 15.0182 1385 170.59 843.241 451.825
2582 0 96.4471 14.5365 1402 172.904 845.033 451.061
2583 0 98.3724 14.9839 1474 174.847 843.188 449.229
2584 0 102.374 14.9256 1528 167.749 843.35 447.75
2585 0 105.297 14.7202 1550 173.669 843.545 446.416
2586 0 110.375 15.1212 1669 167.63 842.196 444.443
2587 0 112.369 15.0575 1692 163.316 842.372 443.387
2588 0 114.185 15.2384 1740 168.964 843.416 441.717
2589 0 119.191 15.3955 1835 166.834 845.342 439.636
2590 0 123.168 15.1662 1868 165.716 844.185 438.154
2591 0 126.41 15.1096 1910 168.005 843.992 436.238
2592 0 130.34 15.4518 2014 166.936 842.733 433.61
2593 0 134.379 15.5233 2086 164.201 845.221 431.713
2594 0 139.634 15.383 2148 163.88 843.833 429.513
2595 0 145.552 15.0186 2186 162.471 844.336 427.322
2596 0 148.621 15.2266 2263 166.922 844.247 425.132
2597 0 151.35 15.4543 2339 166.842 842.494 423.814
2598 0 154.397 15.5509 2401 169.591 842.937 421.562
2599 0 162.342 15.7877 2563 168.472 843.4 418.614
2600 0 168.323 15.8148 2662 169.535 843.211 415.277
2601 0 171.316 15.9063 2725 169.129 843.228 412.879
2602 0 178.33 15.9479 2844 166.42 844.894 410.131
2603 0 184.292 15.6274 2880 165.672 843.437 408.204
2604 0 189.234 16.0331 3034 164.476 841.98 404.414
2605 0 194.433 16.1341 3137 169.469 841.387 401.291
2606 0 201.257 16.1336 3247 168.939 842.005 398.961
2607 0 207.304 16.2177 3362 162.942 841.797 395.428
2608 0 215.372 16.4599 3545 167.385 841.813 391.397
2609 0 222.446 16.0938 3580 169.344 842.129 388.481
2610 1 234.325 18.2738 4282 159.304 844.027 378.976
2611 0 242.317 17.0892 4141 157.882 844.705 377.167
2612 0 247.431 16.5016 4083 160.002 846.326 373.166
2613 0 258.377 16.9055 4368 159.755 843.851 368.116
2614 1 59.1199 13.0751 773 166.436 843.536 466.699
2615 0 60.1729 13.428 808 161.712 844.053 466.071
2616 0 63.1122 13.3889 845 164.863 842.219 464.25
2617 0 65.2387 13.5656 885 166.577 844.476 463.294
2618 0 67.092 13.7572 923 166.452 841.867 462.986
2619 0 69.188 14.2799 988 164.514 842.379 461.531
2620 0 72.1308 13.9053 1003 165.006 843.866 460.086
2621 0 75.2858 13.7343 1034 164.11 844.653 458.742
2622 0 77.0929 13.9312 1074 169.361 845.107 457.398
2623 0 80.2759 14.2508 1144 166.034 846.739 456.063
2624 0 81.241 14.1062 1146 165.312 846.835 455.335
2625 0 85.2027 14.0019 1193 165.035 844.71 453.847
2626 0 88.345 14.2283 1257 166.428 846.208 452.244
2627 0 91.2412 14.1932 1295 167.024 844.659 450.961
2628 0 92.1826 14.6774 1353 168.526 845.388 449.407
2629 0 96.4838 14.3651 1386 168.861 847.155 448.074
2630 0 100.259 14.7119 1475 169.15 846.27 445.712
2631 0 103.37 14.7141 1521 174.216 847.577 444.101
2632 0 107.285 15.0068 1610 170.097 847.624 441.832
2633 0 111.364 14.3853 1602 174.151 848.034 440.401
2634 0 114.645 14.6452 1679 169.329 846.122 438.744
2635 0 118.523 14.5372 1723 173.161 845.611 436.368
2636 0 124.547 14.9903 1867 164.776 846.028 433.791
2637 1 74.3669 13.1107 975 169.292 844.248 457.79
2638 0 76.2246 13.5258 1031 165.097 843.842 456.619
2639 0 78.3388 13.9139 1090 167.613 846.006 455.761
2640 0 81.3869 13.9212 1133 172.452 844.748 454.673
2641 0 84.3423 14.1566 1194 166.028 846.236 453.397
2642 0 86.3352 14.0383 1212 163.653 846.256 452.313
2643 0 89.28 14.0569 1255 166.328 844.841 450.781
2644 0 92.4678 14.0265 1297 165.513 843.986 449.347
2645 0 94.246 14.0802 1327 168.831 844.152 448.206
2646 0 96.4138 14.4378 1392 171.636 842.642 446.583
2647 0 100.435 14.4969 1456 162.529 844.249 444.122
2648 0 104.371 14.4868 1512 169.243 845.948 442.929
2649 0 107.312 14.3041 1535 171.202 844.454 441.055
2650 0 110.328 14.4659 1596 158.429 845.265 438.721
2651 0 113.285 14.7416 1670 159.254 844.962 437.293
2652 0 118.543 14.5854 1729 164.415 844.224 436.266
2653 0 120.438 14.4389 1739 169.57 845.311 435.007
2654 0 123.385 14.548 1795 157.313 844.83 432.014
2655 0 129.351 14.8511 1921 158.293 845.78 429.837
2656 0 132.332 14.5694 1928 163.552 843.494 428.221
2657 0 137.425 14.779 2031 161.763 844.483 425.395
2658 0 143.378 14.7861 2120 156.652 842.744 422.805
2659 0 148.431 14.6465 2174 161.841 844.861 420.787
2660 0 155.468 14.5753 2266 162.961 843.629 417.46
2661 1 95.3002 13.001 1239 162.357 845.177 447.144
2662 0 97.1224 14.0235 1362 158.543 844.394 445.645
2663 0 100.158 14.0178 1404 159.476 843.697 444.571
2664 0 103.322 14.2273 1470 165.025 843.858 442.251
2665 0 107.157 13.9795 1498 163.744 844.736 440.761
2666 0 110.167 14.3872 1585 156.644 845.586 439.423
2667 0 112.266 14.3676 1613 158.539 846.668 436.86
2668 0 118.129 14.4503 1707 158.172 845.697 435.49
2669 0 121.228 14.6088 1771 160.466 845.442 433.245
2670 0 127.23 14.289 1818 156.068 845.252 430.974
2671 0 129.2 14.9071 1926 156.593 844.019 428.636
2672 0 135.188 14.5132 1962 155.299 844.046 426.238
2673 0 140.323 14.6163 2051 149.439 846.37 424.015
2674 0 145.284 14.4338 2097 158.003 845.124 421.144
2675 0 150.326 14.6415 2201 157.714 846.087 418.324
2676 0 155.262 14.8395 2304 160.931 847.41 415.663
2677 0 160.31 14.8275 2377 159.859 847.055 412.737
2678 0 166.26 14.736 2450 161.433 846.703 410.004
2679 0 174.127 14.7479 2568 162.167 847.297 407.647
2680 0 180.375 15.124 2728 163.069 847.727 404.889
2681 0 185.088 14.847 2748 161.525 844.429 401.191
2682 0 190.298 14.9923 2853 160.081 843.815 397.286
2683 0 197.353 15.338 3027 159.235 846.143 395.054
2684 0 202.283 14.9592 3026 158.796 845.072 392.111
2685 0 210.284 15.2794 3213 162.082 842.783 388.485
2686 0 217.537 15.0595 3276 166.267 845.4 385.434
2687 0 226.517 15.7648 3571 160.446 844.562 380.428
2688 0 235.48 16.1415 3801 158.994 844.901 375.619
2689 0 242.285 15.3291 3714 162.848 842.859 372.976
2690 1 177.271 14.396 2552 166.735 847.991 404.222
2691 0 182.265 14.7862 2695 164.469 846.378 401.448
2692 0 189.346 14.6293 2770 159.577 844.863 397.878
2693 0 195.18 15.0118 2930 163.174 845.276 394.721
2694 0 202.242 14.7497 2983 160.475 846.791 391.15
2695 0 210.344 15.0991 3176 164.578 845.51 386.666
2696 0 220.512 14.9334 3293 166.377 844.483 382.154
2697 0 228.433 14.8884 3401 161.436 843.923 376.793
2698 0 240.367 15.2558 3667 162.168 845.133 371.905
2699 0 248.434 15.3844 3822 162.646 845.988 366.367
2700 0 259.449 15.6177 4052 157.754 845.894 361.999
2701 0 256.473 14.2549 3656 172.854 846.795 361.273
2702 0 257.527 14.4606 3724 165.241 846.37 362.154
2703 1 27.0148 8.77296 237 132.312 847.954 479.557
2704 0 26.0078 8.72816 227 132.467 847.52 479.727
2705 0 27.0655 8.46095 229 130.782 845.943 480.153
2706 0 28.0756 8.15654 229 128.083 848.611 479.76
2707 0 28.0752 9.04714 254 131.354 847 478.988
2708 0 30.1329 8.69482 262 126.412 847.95 478.16
2709 0 27.0901 8.49019 230 125.196 848.148 479.374
2710 0 27.0903 8.74851 237 123.034 848.017 478.633
2711 0 25.1097 9.31911 234 126.949 847.889 478.756
2712 0 25.0694 8.33687 209 127.55 846.21 479.167
2713 0 27.0797 8.78887 238 122.223 847.92 478.664
2714 0 28.0638 9.0508 254 122.346 845.63 478.287
2715 0 29.1403 7.96147 232 124.069 847.28 478.091
2716 0 27.1344 9.17653 249 119.221 846.185 477.558
2717 0 28.1223 8.92531 251 121.797 846.406 477.179
2718 0 26.0215 8.80042 229 125.747 848.28 477.983
2719 0 28.3406 8.2567 234 125.462 846.086 478.547
2720 0 26.1901 7.75101 203 129.522 845.808 479.197
2721 0 24.0986 7.63529 184 123.636 845.554 479.728
2722 0 25.182 7.82304 197 123.97 844.452 479.269
2723 0 26.2694 7.57536 199 127.141 846.191 478.709
2724 0 28.1576 7.8842 222 125.072 846.743 477.523
2725 0 29.2937 7.85152 230 123.778 846.856 477.687
2726 0 28.3354 8.25822 234 129.752 846.756 477.376
2727 0 29.21 8.35329 244 128.115 845.332 476.77
2728 0 27.3806 7.92531 217 125.35 846.599 477.525
2729 0 28.1797 8.12641 229 129.559 844.175 477.52
2730 0 28.2662 7.67701 217 131.088 845.576 476.373
2731 0 28.1745 7.59552 214 125.883 845.355 477.201
2732 0 30.2281 7.67499 232 129.983 845.983 476.746
2733 0 31.249 7.68024 240 131.492 846.525 476.625
2734 0 35.3374 7.92361 280 133.957 843.425 475.779
2735 0 32.4099 9.10217 295 130.871 845.414 476.468
2736 0 32.4544 8.56586 278 133.91 844.392 477.299
2737 0 33.3585 8.57354 286 135.538 843.839 477.825
2738 0 32.5146 8.8883 289 130.062 844.498 478.408
2739 0 34.4925 8.46561 292 128.233 843.634 478.342
2740 0 35.519 8.41803 299 123.552 843.482 477.967
2741 0 33.3781 9.04785 302 126.907 843.58 479.066
2742 0 38.1116 13.7491 524 109.819 844.99 475.647
2743 0 44.215 12.7332 563 106.718 843.714 475.689
2744 0 34.5056 9.33181 322 129.907 846.438 479.624
2745 0 36.4438 8.58858 313 129.272 846.115 478.243
2746 0 36.2881 8.84588 321 124.539 845.23 479.975
2747 0 34.3292 9.35063 321 129.433 846.835 479.056
2748 0 38.4692 8.70826 335 128.663 845.331 478.672
2749 0 38.3395 8.55515 328 126.802 844.079 479.052
2750 0 38.2932 9.5056 364 120.643 843.146 477.86
2751 0 38.3436 8.7107 334 125.524 845.404 479.805
2752 0 37.3676 8.72413 326 128.313 846.356 479.88
2753 0 40.1745 8.36352 336 122.277 844.67 479.324
2754 0 37.2797 8.2887 309 120.204 847.353 480.786
2755 0 37.1903 8.41618 313 125.888 845.853 480.556
2756 0 34.1082 6.86053 234 122.261 842.983 482.436
2757 0 33.0954 7.73522 256 115.242 845.699 480.672
2758 0 336.01 16.2257 5452 139.498 845.401 318.485
2759 0 346.132 16.0344 5550 137.718 845.609 313.337
2760 0 358.165 16.0987 5766 141.201 846.168 307.2
2761 0 372.228 16.3959 6103 135.555 843.021 300.914
2762 0 384.359 16.4508 6323 139.226 844.578 293.038
2763 0 396.969 16.039 6367 138.092 843.639 285.562
2764 0 411.624 16.7507 6895 135.377 843.324 277.63
2765 1 205.711 12.4933 2570 141.94 841.646 393.746
2766 0 210.489 12.6372 2660 136.377 843.698 389.946
2767 0 218.422 12.6773 2769 131.659 843.221 385.348
2768 0 226.56 12.6766 2872 134.99 843.485 381.816
2769 0 235.859 15.1277 3568 128.082 845.752 376.168
2770 0 241.691 15.1433 3660 129.525 846.289 370.593
2771 0 251.809 15.333 3861 123.617 845.598 366.439
2772 0 258.685 15.3816 3979 125.356 844.979 362.699
2773 1 199.396 12.0966 2412 128.621 845.351 401.104
2774 0 204.501 12.797 2617 130.757 844.872 398.814
2775 0 207.306 13.5741 2814 123.635 844.595 394.612
2776 0 212.585 13.143 2794 123.055 845.711 390.855
2777 0 217.621 13.0686 2844 125.379 845.722 388.364
2778 0 226.503 13.3861 3032 127.469 845.205 384.104
2779 0 235.616 13.331 3141 126.201 846.537 379.51
2780 0 241.761 13.2072 3193 124.906 844.773 375.352
2781 1 47.2515 8.84627 418 98.6794 846.548 479.469
2782 0 44.1119 8.41043 371 105.226 844.022 481.288
2783 0 43.132 8.87973 383 102.188 846.587 481.603
2784 0 46.2786 9.24832 428 100.89 846.318 480.079
2785 0 45.2461 9.06156 410 103.798 846.693 480.237
2786 0 45.2756 9.29861 421 102.031 846.012 479.988
2787 0 46.1229 8.5424 394 98.236 848.452 480.437
2788 0 49.1517 9.3181 458 98.4738 847.749 478.648
2789 0 50.5779 9.72756 492 105.134 847.254 477.894
2790 0 54.5849 9.59973 524 104.16 848.492 479.372
2791 0 53.5603 9.70868 520 103.627 847.517 479.342
2792 0 52.4085 9.52136 499 102.032 847.758 480.301
2793 0 53.4259 9.54593 510 102.316 846.1 479.645
2794 0 53.3302 9.54432 509 101.674 848.387 481.238
2795 0 56.341 9.06976 511 102.458 847.759 481.442
2796 0 55.2232 9.3258 515 104.359 847.27 480.379
2797 0 52.4238 9.74749 511 101.104 847.309 481.511
2798 0 47.1015 9.63876 454 99.9846 847.698 480.546
2799 0 50.0716 10.3052 516 97.8469 848.454 480.667
2800 0 49.2722 9.62003 474 100.384 848.114 479.994
2801 0 49.1482 8.97287 441 103.274 848.184 478.583
2802 0 47.0573 9.39281 442 102.335 847.027 481.129
2803 0 47.1613 9.62653 454 102.806 847.815 481.156
2804 0 48.0741 9.81819 472 105.6 845.837 480.261
2805 0 48.0629 10.0077 481 96.9439 847.738 481.118
2806 0 48.1056 9.41678 453 108.179 846.088 481.472
2807 0 49.0648 8.86583 435 107.29 847.674 480.922
2808 0 48.0667 9.17476 441 111.014 847.823 482.007
2809 0 48.0708 9.46521 455 107.11 845.58 482.163
2810 0 50.0562 9.56925 479 111.276 847.509 481.386
2811 0 50.071 9.56642 479 106.749 847.912 482.1
2812 0 49.0537 9.56096 469 109.953 846.399 482.055
2813 0 48.1163 9.26922 446 106.352 847.202 483.531
2814 0 50.0558 9.12981 457 107.604 845.783 482.411
2815 0 49.0901 8.86126 435 115.301 846.938 480.975
2816 0 50.1133 8.87988 445 115.169 847.031 482.584
2817 0 53.1402 8.59989 457 111.893 846.635 482.805
2818 0 55.0648 8.97124 494 109.925 850.213 481.668
2819 0 54.102 8.90909 482 111.413 847.986 480.232
2820 0 57.142 8.52262 487 117.031 848.415 479.092
2821 0 57.0954 8.52959 487 113.538 847.926 480.16
2822 0 57.0432 8.8354 504 113.012 847.903 479.669
2823 0 60.0412 9.04379 543 119.245 847.409 481.832
2824 0 63.2705 9.29343 588 116.032 845.738 484.24
2825 0 68.2671 8.59858 587 119.709 846.165 482.537
2826 0 66.3344 9.52748 632 113.647 844.826 483.59
2827 0 66.2844 8.46353 561 114.638 845.806 485.333
2828 0 67.4464 8.30288 560 119.273 846.852 485.866
2829 0 67.3854 8.54784 576 116.068 842.559 485.602
2830 0 68.3462 9.3202 637 117.862 845.479 484.691
2831 0 70.3977 9.54577 672 116.67 845.68 483.481
2832 1 42.2072 8.88473 375 118.603 843.277 497.749
2833 0 40.1144 9.72218 390 115.208 843.072 497.282
2834 0 40.0503 10.0124 401 120.681 846.504 499.249
2835 0 41.1479 9.84254 405 119.521 843.543 497.37
2836 0 39.2034 10.0757 395 123.192 844.337 497.937
2837 0 40.085 9.75428 391 123.877 843.57 499.243
2838 0 42.1269 9.87493 416 122.594 843.668 498.877
2839 1 71.344 9.86768 704 125.178 842.58 485.763
2840 0 71.4088 10.3489 739 117.192 842.344 484.609
2841 0 71.6084 9.14696 655 120.979 845.424 487.444
2842 0 70.3345 9.04251 636 116.539 844.657 487.542
2843 0 70.2828 9.40487 661 118.657 845.831 488.486
2844 0 72.6993 9.66996 703 122.792 844.098 486.151
2845 0 71.566 9.43185 675 124.102 842.447 487.197
2846 0 69.7523 9.4047 656 123.893 843.649 488.965
2847 0 72.5471 9.41457 683 126.936 842.977 487.246
2848 0 72.5962 10.1934 740 120.504 842.669 486.526
2849 0 70.5717 10.089 712 118.042 842.902 487.055
2850 0 70.6627 9.49582 671 124.696 844.252 488.107
2851 0 73.8485 9.66844 714 129.434 844.02 487.922
2852 1 45.0552 10.4538 471 133.69 842.803 499.149
2853 0 44.09 10.4332 460 123.911 841.459 498.417
2854 0 41.4476 11.3396 470 138.013 841.808 499.796
2855 0 43.581 10.8075 471 139.469 841.756 499.58
2856 0 42.2672 10.8122 457 137.786 841.387 500.035
2857 0 43.3207 11.1263 482 130.048 843.073 499.373
