index division length width area intensity CMx CMy
0 0 83.1297 16.1194 1340 113.585 235.305 470.558
1 1 41.0112 13.728 563 127.501 236.503 491.712
2 0 44.0357 14.1022 621 129.006 236.663 490.457
3 0 45.043 14.4306 650 132.423 238.768 492.055
4 0 47.0514 14.1547 666 131.05 240.98 491.368
5 0 47.1486 14.4437 681 131.031 242.207 490.072
6 0 49.0948 14.4618 710 135.818 240.738 491.089
7 0 51.0441 14.5756 744 135.337 239.027 491.239
8 0 51.0583 14.9633 764 127.546 238.87 491.539
9 0 55.0427 14.189 781 129.836 236.791 491.88
10 0 54.103 14.8051 801 129.473 237.784 492.23
11 0 57.0424 14.6032 833 129.616 236.01 492.321
12 0 58.2187 14.8749 866 119.955 234.381 492.699
13 0 60.0716 14.3828 864 133.72 234.591 492.624
14 0 62.124 14.7608 917 120.764 235.301 492.067
15 0 63.0712 14.9513 943 123.414 235.784 491.014
16 0 66.016 14.6934 970 130.459 233.92 491.211
17 0 67.1261 15.0016 1007 126.752 234.966 490.088
18 0 71.0757 14.5901 1037 120.565 232.487 489.287
19 0 73.1558 14.8314 1085 125.992 231.179 488.735
20 0 75.0941 14.6882 1103 123.254 234.053 487.958
21 0 78.0889 14.7652 1153 129.281 232.159 486.512
22 0 80.0746 14.8986 1193 125.687 235.371 485.284
23 0 83.1543 14.5873 1213 124.903 233.139 483.817
24 0 85.072 14.764 1256 129.804 232.882 482.201
25 0 89.0756 14.628 1303 134.684 231.258 481.1
26 0 92.1676 14.8425 1368 129.428 232.443 478.615
27 0 95.1594 15.0169 1429 130.969 231.861 476.593
28 0 98.0861 14.946 1466 129.383 233.395 474.958
29 0 103.104 14.8589 1532 126.44 233.461 471.849
30 0 106.096 14.9204 1583 125.5 233.318 468.783
31 0 110.068 14.9272 1643 127.719 234.465 466.048
32 0 114.184 15.0809 1722 120.698 233.913 462.689
33 0 119.178 15.0699 1796 121.158 234.808 458.67
34 0 124.195 15.0409 1868 123.132 236.463 455.403
35 0 127.146 15.2345 1937 129.622 234.425 452.464
36 0 132.151 15.051 1989 124.525 236.919 449.299
37 0 137.119 15.337 2103 122.564 236.37 446.258
38 0 143.216 15.3684 2201 122.335 238.623 443.486
39 0 148.148 15.1605 2246 120.562 238.472 440.786
40 0 151.188 15.3319 2318 120.246 239.247 438.42
41 0 159.315 15.0645 2400 119.484 237.822 434.907
42 0 164.144 14.9381 2452 124.649 238.171 433.252
43 1 82.0477 14.4428 1185 123.932 240.113 472.494
44 0 85.1357 14.4828 1233 125.531 238.085 471.359
45 0 86.093 14.6121 1258 128.172 239.731 470.149
46 0 90.068 14.478 1304 123.291 238.471 467.985
47 0 93.0774 14.3536 1336 125.296 238.84 467.828
48 0 98.1397 14.4896 1422 119.316 239.582 465.854
49 0 102.071 14.4018 1470 116.72 238.47 464.503
50 0 105.208 14.1338 1487 120.875 237.215 463.739
51 0 109.181 14.1508 1545 123.662 238.976 461.982
52 0 113.289 13.9996 1586 120.779 238.042 460.203
53 0 117.161 14.288 1674 117.891 239.51 459.869
54 0 121.305 14.3193 1737 116.676 237.353 458.424
55 0 125.254 14.267 1787 125.885 237.89 456.36
56 0 130.218 14.1148 1838 124.176 238.194 455.175
57 1 66.1041 13.7813 911 126.592 236.481 485.046
58 0 70.1078 13.3366 935 124.274 238.364 484.08
59 0 72.0859 13.47 971 125.131 238.867 483.007
60 0 73.1017 13.7069 1002 128.125 239.054 482.004
61 0 76.0835 13.6692 1040 121.65 238.463 480.686
62 0 78.0789 13.6913 1069 115.849 238.614 479.408
63 0 81.2106 13.8775 1127 125.291 237.954 477.617
64 0 85.1564 13.3284 1135 128.966 236.631 476.158
65 0 87.1055 13.6616 1190 125.513 235.787 474.989
66 0 91.1214 13.6082 1240 126.864 237.198 472.522
67 0 93.1338 13.6041 1267 125.789 237.562 470.93
68 0 98.1408 13.8067 1355 125.069 235.914 468.111
69 0 101.086 13.1374 1328 131.189 236.559 466.62
70 0 105.222 13.3147 1401 128.157 234.759 463.819
71 0 110.246 13.5243 1491 128.329 235.93 461.665
72 0 112.117 13.4681 1510 127.84 237.619 459.703
73 0 119.243 13.309 1587 121.108 235.653 457.125
74 0 122.223 13.729 1678 122.421 237.099 453.605
75 0 128.228 13.3044 1706 124.668 238.482 451.815
76 1 72.0938 12.3034 887 122.018 235.033 478.038
77 0 75.0791 12.7599 958 118.327 237.531 476.296
78 0 76.1848 13.1916 1005 126.221 239.15 474.673
79 0 80.0622 13.1398 1052 119.929 238.342 473.094
80 0 83.1217 13.0291 1083 120.723 238.887 470.907
81 0 85.1274 12.8983 1098 122.902 238.813 470.18
82 0 88.2078 12.9354 1141 124.693 239.33 468.179
83 0 90.1486 12.9231 1165 122.405 239.255 467.308
84 0 94.156 13.159 1239 128.303 238.192 465.473
85 0 96.11 13.2556 1274 122.713 240.698 464.147
86 0 99.1759 13.5013 1339 127.134 238.453 462.394
87 0 101.363 13.6736 1386 124.151 241.227 461.798
88 0 103.165 13.6577 1409 132.3 238.596 459.916
89 0 108.268 14.0022 1516 118.036 239.767 458.491
90 0 112.212 13.6616 1533 126.983 238.749 457.257
91 0 116.178 13.5912 1579 138.129 240.45 455.438
92 0 118.184 13.7921 1630 130.176 239.98 453.256
93 0 123.129 13.5792 1672 126.78 239.133 451.432
94 0 128.247 13.895 1782 127.328 239.741 449.29
95 0 133.24 13.9973 1865 121.528 239.049 447.057
96 0 137.184 13.7261 1883 126.4 238.118 444.981
97 0 143.31 14.179 2032 127.763 238.348 441.528
98 0 149.282 13.9467 2082 131.498 238.843 439.32
99 0 156.319 13.997 2188 123.882 238.334 435.668
100 0 163.27 13.9769 2282 119.132 238.216 433.351
101 1 70.1202 13.0205 913 119.663 240.115 478.917
102 0 75.0934 12.8107 962 110.474 239.199 476.433
103 0 77.1636 13.1927 1018 124.102 240.362 474.821
104 0 81.2852 13.1389 1068 119.684 238.539 473.095
105 0 84.3957 13.0338 1100 117.851 238.111 472.076
106 0 84.3957 13.0338 1100 178.103 237.111 472.076
107 0 91.3844 12.825 1172 119.55 236.964 468.373
108 0 93.2177 12.6585 1180 116.682 239.374 466.62
109 0 97.2207 12.8573 1250 122.279 238.956 464.506
110 0 100.382 12.9107 1296 118.621 238.415 462.385
111 1 53.033 12.1057 642 114.989 239.704 486.164
112 0 55.0748 12.3468 680 118.172 240.281 485.01
113 0 57.0494 12.1474 693 119.189 239.038 484.169
114 0 57.0683 12.9844 741 111.486 239.825 482.132
115 0 62.1865 12.3339 767 112.245 238.769 481.059
116 0 63.161 12.8244 810 119.636 238.786 479.335
117 0 66.2545 12.4973 828 111.339 239.681 478.252
118 0 68.1486 12.7515 869 107.929 239.389 476.292
119 0 70.2408 12.9554 910 111.39 239.765 474.413
120 0 73.3482 12.9519 950 113.046 238.392 472.726
121 0 74.2985 12.9208 960 118.565 238.289 472.194
122 0 78.3054 13.1409 1029 102.503 239.729 470.882
123 0 81.4734 12.8508 1047 114.936 238.754 469.074
124 0 84.3583 13.253 1118 110.418 240.101 466.506
125 0 87.3176 12.9642 1132 106.647 240.495 465.411
126 0 92.5106 13.0255 1205 114.832 240.07 463.657
127 1 46.2537 11.8045 546 108.418 240.786 486.921
128 0 47.2152 11.7123 553 115.87 240.685 485.107
129 0 50.0999 12.2954 616 106.029 241.968 486.297
130 0 52.1563 12.0216 627 119.718 241.734 485.514
131 0 53.0883 12.2061 648 114.119 242.304 484.796
132 0 53.0887 12.9594 688 113.626 239.249 483.719
133 0 54.0832 13.1279 710 123.575 241.508 483.113
134 0 58.1123 12.734 740 117.22 239.304 482.241
135 0 58.1965 13.2654 772 113.523 239.193 481.82
136 0 61.0821 13.1463 803 120.94 239.796 479.716
137 0 63.1219 13.1175 828 116.755 240.08 479.744
138 0 65.2479 13.2878 867 119.03 241.119 478.833
139 0 67.2121 13.2119 888 107.628 241.02 477.807
140 0 69.1492 13.0587 903 119.66 238.392 476.793
141 0 71.0932 13.1518 935 110.587 238.798 475.774
142 0 72.1688 13.5516 978 115.624 237.87 475.036
143 0 77.1471 13.2733 1024 110.296 240.012 473.845
144 0 79.134 13.812 1093 105.887 237.688 471.43
145 0 78.1582 12.7306 995 103.491 240.603 470.467
146 0 80.1598 12.3503 990 106.472 240.465 471.092
147 0 79.2989 12.7114 1008 100.573 238.291 470.858
148 1 54.2588 11.6479 632 114.829 240.563 484.358
149 0 57.0272 12.0819 689 104.138 239.427 483.56
150 0 59.0407 12.8725 760 102.378 238.817 482.878
151 0 60.0907 13.0969 787 104.039 236.967 482.163
152 0 62.0308 12.8968 800 102.539 237.311 481.676
153 0 63.0973 13.2018 833 94.5318 236.095 480.292
154 0 66.0735 13.4396 888 100.392 237.441 479.068
155 0 68.1501 13.2942 906 107.649 237.683 478.299
156 0 70.1225 13.1484 922 100.588 237.352 477.806
157 0 72.0767 13.4163 967 102.279 237.616 476.149
158 0 74.1445 13.2579 983 103.107 237.583 475.286
159 0 75.0364 13.3935 1005 104.358 236.268 474.361
160 0 79.1536 13.3917 1060 103.84 238.096 472.513
161 0 82.1658 13.3876 1100 113.77 237.98 472.07
162 0 83.1303 13.4608 1119 106.538 241.322 471.353
163 0 86.097 13.299 1145 107.378 239.285 470.962
164 0 90.1568 13.4211 1210 117.56 239.876 468.988
165 1 43.0784 12.3264 531 110.395 239.876 490.589
166 0 45.1238 12.5433 566 116.482 239.069 490.014
167 0 48.1539 12.2316 589 106.258 238.995 489.496
168 0 49.0431 12.438 610 118.052 237.77 488.895
169 0 51.1471 12.552 642 112.408 238.129 488.64
170 0 52.2519 12.5163 654 107.659 237.791 486.968
171 0 53.151 12.5115 665 111.107 236.976 487.406
172 0 53.3672 12.9293 690 107.296 237.268 486.309
173 0 57.1454 12.2144 698 115.431 238.645 485.692
174 0 60.1201 12.4085 746 108.204 239.379 484.799
175 0 61.1548 12.7055 777 109.417 238.852 484.197
176 0 62.2098 12.5864 783 96.2439 237.879 482.891
177 0 64.2462 12.4677 801 99.397 238.673 481.581
178 0 67.2872 12.0825 813 102.931 237.776 480.208
179 0 68.2134 12.6661 864 108.718 235.742 478.61
180 0 72.206 12.312 889 97.0551 237.928 478.35
181 0 74.1998 12.2372 908 120.819 238.769 477.018
182 1 39.141 10.1939 399 104.038 239.461 494.88
183 0 39.0412 10.7322 419 107.654 239.857 494.883
184 0 41.0636 11.1291 457 104.123 236.794 493.604
185 0 44.0423 11.3527 500 99.46 238.77 492.642
186 0 45.1863 11.6407 526 108.367 239.059 491.433
187 0 47.1017 11.7406 553 109.356 238.716 490.495
188 0 48.1641 11.6477 561 107.426 238.084 489.617
189 0 49.0847 11.8571 582 106.067 240.141 488.435
190 0 50.073 12.1423 608 100.674 238.882 488.087
191 0 53.1793 11.7151 623 96.626 238.568 487.148
192 0 54.0732 11.9098 644 103.531 238.59 486.088
193 0 54.0755 11.9093 644 101.517 238.036 485.915
194 0 56.0849 11.9283 669 98.5949 238.529 485.079
195 0 58.0591 12.2289 710 93.5507 238.132 484.331
196 0 59.1027 12.3006 727 92.0179 239.001 482.984
197 0 62.0518 12.1511 754 104.355 239.255 481.885
198 0 64.0779 11.923 764 90.1531 239.38 480.524
199 0 68.1452 11.5195 785 98.2726 237.217 478.624
200 0 69.1237 11.8773 821 94.9659 236.177 478.286
201 0 72.1492 12.1554 877 90.4367 238.022 476.956
202 0 75.1406 12.3236 926 99.406 237.686 474.799
203 0 78.22 11.9023 931 85.232 237.583 473.985
204 0 81.2354 11.9406 970 98.2062 240.446 471.077
205 0 83.4938 12.2165 1020 90.851 240.088 469.549
206 1 46.1525 10.5086 485 92.1959 239.291 488.755
207 0 47.2713 10.9792 519 92.9846 238.15 487.773
208 0 47.1614 11.9377 563 94.341 238.831 486.735
209 0 48.2344 12.149 586 96.6604 237.189 485.705
210 0 52.1967 11.5908 605 91.2149 238.82 485.04
211 0 54.2537 11.8333 642 92.4844 236.893 483.754
212 0 55.1848 11.9417 659 92.1093 237.586 482.572
213 0 57.2934 11.5371 661 93.413 238.289 481.536
214 0 56.426 12.193 688 108.955 238.938 480.776
215 0 59.1993 12.0778 715 103.001 239.305 480.551
216 0 61.1563 11.953 731 97.6265 238.382 478.234
217 0 62.1705 12.2727 763 91.097 238.214 477.391
218 0 66.3023 11.5079 763 98.789 237.076 476.945
219 0 68.25 11.7802 804 90.4527 239.144 474.991
220 0 70.211 11.7645 826 94.9274 239.341 474.17
221 1 36.1448 9.32361 337 96.0653 239.027 490.861
222 0 37.097 9.86602 366 90.7213 238.716 490.107
223 0 38.124 10.3872 396 90.8788 236.606 489.278
224 0 39.1079 10.9441 428 94.6892 236.855 488.909
225 0 43.2299 10.6871 462 87.3225 238.751 487.946
226 0 42.185 11.0466 466 92.6223 238.8 487.21
227 0 43.1146 11.2259 484 89.2314 238.717 486.138
228 0 44.3118 11.3739 504 84.5357 239.569 485.367
229 0 45.2157 11.7658 532 86.047 238.385 484.774
230 0 47.2062 11.7357 554 90.1336 238.276 483.511
231 0 49.237 11.597 571 85.5937 237.778 483.25
232 0 48.1478 12.4201 598 88.5284 239.14 482.334
233 0 52.1767 11.7869 615 87.148 239.2 481.722
234 0 53.1994 12.0866 643 88.2348 238.569 480.832
235 0 54.1939 12.0124 651 88.2965 239.054 480.413
236 0 55.2117 12.4249 686 97.9781 239.284 479.824
237 0 56.1842 12.4234 698 91.0946 237.309 479.344
238 0 59.1644 12.2033 722 96.6163 239.1 478.864
239 0 61.1494 12.5594 768 94.1133 239.793 477.781
240 0 61.1253 12.7607 780 89.3026 240.987 477.463
241 0 63.1689 12.7753 807 93.3321 239.762 476.193
242 0 62.1003 13.446 835 102.517 239.854 475.606
243 0 67.1427 13.0766 878 90.2938 238.595 474.362
244 0 68.0905 13.0855 891 99.0303 237.481 473.331
245 0 68.0363 13.6986 932 95.3273 237.231 472.55
246 0 73.0977 13.4341 982 91.6263 237.559 471.37
247 0 75.1546 13.4124 1008 87.1776 239.263 470.75
248 0 74.1598 13.9159 1032 88.2684 240.48 469.354
249 0 80.2229 13.7118 1100 97.52 236.628 467.971
250 0 82.1946 13.2734 1091 100.958 239.183 467.411
251 0 85.2778 13.5088 1152 99.0903 238.474 465.804
252 0 88.3143 13.5539 1197 99.6341 239.576 464.581
253 0 90.1726 13.8623 1250 98.5072 239.49 463.038
254 0 92.2812 13.7298 1267 91.2028 240.021 462.054
255 0 96.4694 13.8593 1337 100.744 240.426 458.806
256 1 49.1524 11.4542 563 102.913 238.719 483.769
257 0 50.2698 12.0749 607 105.023 242.036 482.878
258 0 52.14 12.6007 657 103.11 239.738 481.557
259 0 54.1889 12.6594 686 103.411 238.284 480.466
260 0 54.2146 13.1699 714 99.7535 235.826 480.099
261 0 59.1255 12.7187 752 93.9987 237.783 478.545
262 0 60.2495 13.0126 784 98.5026 238.209 477.546
263 0 60.3986 13.1791 796 94.2224 239.155 476.874
264 0 64.191 13.0081 835 103.922 237.564 475.374
265 0 67.1331 12.8104 860 101.786 239.107 474.341
266 0 67.1466 13.6418 916 94.6932 238.672 473.026
267 0 71.1522 13.1549 936 100.779 238.983 472.39
268 0 73.2732 12.8287 940 112.622 238.643 470.877
269 0 75.294 13.2946 1001 105.278 238.599 469.978
270 0 77.2028 13.471 1040 105.212 238.08 469.036
271 0 81.3298 13.6235 1108 102.971 239.05 467.052
272 0 83.3064 13.6844 1140 104.617 237.394 466.391
273 0 86.1867 13.5984 1172 107.879 236.84 464.978
274 0 89.325 13.8595 1238 101.571 239.817 462.527
275 0 92.348 13.8173 1276 114.466 239.877 461.479
276 0 94.313 14.0172 1322 99.0431 238.806 460.106
277 0 98.2586 13.841 1360 109.975 239.301 458.498
278 0 101.257 13.8657 1404 109.238 239.449 457.838
279 0 104.246 13.9286 1452 112.31 238.38 456.158
280 0 107.225 14.1478 1517 109.601 238.227 454.958
281 0 109.326 14.4156 1576 105.977 238.009 452.756
282 0 114.217 14.061 1606 108.027 237.086 452.186
283 0 119.162 14.2747 1701 107.106 238.586 449.861
284 1 60.1324 12.1232 729 107.285 237.258 479.004
285 0 62.1115 12.8318 797 121.417 239.813 477.231
286 0 64.0914 12.7942 820 111.416 237.333 477.937
287 0 65.242 13.0437 851 107.318 238.482 477.394
288 0 66.242 13.3601 885 109.682 237.348 476.471
289 0 68.291 13.5889 928 101.405 237.503 476.005
290 0 70.1523 13.1998 926 122.469 238.927 475.242
291 0 72.2557 13.4384 971 113.945 238.401 474.432
292 0 74.2105 13.6908 1016 118.956 239.455 472.66
293 0 75.1682 14.0352 1055 114.486 239.112 471.929
294 0 79.3523 13.9 1103 109.483 237.596 470.24
295 0 81.1136 13.8571 1124 117.756 237.753 469.791
296 0 85.159 13.7977 1175 111.431 235.811 468.057
297 0 87.2275 13.5622 1183 116.111 238.198 467.184
298 0 89.266 14.0255 1252 109.744 237.986 465.57
299 0 94.3276 13.4637 1270 110.136 238.997 464.071
300 0 96.3527 13.9176 1341 108.241 238.91 462.476
301 0 99.3108 13.7246 1363 112.244 237.327 461.707
302 0 101.212 14.03 1420 107.244 237.989 459.499
303 0 104.357 14.1725 1479 102.239 238.074 458.172
304 0 107.31 13.9036 1492 109.902 237.439 456.381
305 0 111.245 14.0141 1559 113.77 238.933 453.997
306 0 117.34 14.0788 1652 111.723 237.027 452.093
307 0 119.321 13.9707 1667 107.598 238.12 450.302
308 0 124.375 14.1186 1756 110.344 238.496 447.612
309 0 130.292 13.9303 1815 108.431 237.23 445.629
310 0 133.394 13.9661 1863 107.338 239.8 444.097
311 0 139.286 13.878 1933 105.109 238.231 440.788
312 1 79.1475 12.2935 973 103.402 239.054 470.856
313 0 82.2592 12.6916 1044 103.204 240.563 469.288
314 0 84.322 12.6302 1065 110.611 238.377 468.269
315 0 87.1581 12.7928 1115 108.716 237.88 466.865
316 0 90.2268 12.9341 1167 104.969 238.578 465.069
317 0 94.2575 13.1661 1241 100.728 238.483 462.673
318 0 96.2501 13.0597 1257 99.3158 238.322 461.002
319 0 99.2228 12.7894 1269 107.356 239.63 459.489
320 0 103.178 13.0261 1344 110.133 239.961 458.374
321 0 107.209 12.7322 1365 113.021 238.772 456.211
322 0 110.103 12.7517 1404 101.724 240.736 454.157
323 1 56.0625 11.3088 634 99.2855 240.096 480.421
324 0 59.0806 11.7128 692 100.512 240.316 479.399
325 0 62.0812 12.081 750 107.128 238.412 477.748
326 0 62.1003 12.1578 755 112.24 237.685 476.268
327 0 65.0995 12.1814 793 105.546 238.024 475.512
328 0 68.0683 11.9145 811 94.8385 237.686 474.424
329 0 69.0888 12.2885 849 105.019 238.543 472.799
330 0 70.1256 12.5632 881 99.025 238.715 471.837
331 0 72.1172 12.6738 914 104.022 240.931 470.952
332 0 75.0906 12.6114 947 120.698 241.193 469.436
333 0 79.0735 12.5326 991 108.608 238.517 468.093
334 0 80.0857 13.1234 1051 107.428 237.785 466.872
335 0 83.0748 13.0966 1088 111.617 237.763 464.954
336 0 87.1832 12.8236 1118 107.843 238.541 463.24
337 0 90.1428 12.813 1155 115.48 238.599 461.343
338 0 93.12 12.8007 1192 110.367 238.69 460.028
339 0 96.1218 12.9003 1240 109.076 238.064 458.068
340 0 100.14 12.6024 1262 113.043 237.597 456.589
341 0 103.072 12.535 1292 110.968 239.211 454.488
342 0 104.093 13.2285 1377 107.588 238.245 452.69
343 0 110.178 12.8974 1421 109.827 239.885 451.391
344 1 58.0856 11.3281 658 103.678 239.556 477.695
345 0 62.1275 11.7983 733 103.381 239.984 475.367
346 0 61.0636 12.1513 742 105.399 237.997 474.817
347 0 65.0368 12.3007 800 105.16 238.454 474.328
348 0 68.0509 12.329 839 106.231 236.7 471.983
349 0 71.0496 12.062 857 105.977 237.47 471.485
350 0 73.0537 12.2102 892 108.999 237.272 469.9
351 0 75.0614 12.1367 911 101.303 237.256 468.482
352 0 77.1218 12.759 984 116.648 239.987 468.124
353 0 81.0946 12.5779 1020 104.048 240.023 466.101
354 0 81.1345 13.1017 1063 109.896 237.377 465.317
355 0 84.2994 12.7759 1077 109.346 238.087 464.68
356 0 88.2685 12.7452 1125 110.886 239.626 462.913
357 0 90.1929 12.4843 1126 119.321 239.557 461.076
358 0 94.2437 12.5632 1184 113.689 239.07 459.1
359 1 51.1367 11.0293 564 112.459 239.379 480.966
360 0 52.1092 11.7829 614 111.153 240.516 480.021
361 0 54.1084 12.2901 665 114.138 239.206 478.968
362 0 56.1449 12.2896 690 109.158 239.486 478.048
363 0 58.1405 11.799 686 111.641 238.245 477.717
364 0 59.1042 12.5372 741 109.753 239.796 476.517
365 0 59.1309 12.5653 743 113.023 239.168 476.036
366 0 61.1113 13.0909 800 108.276 239.166 475.081
367 0 64.0981 12.6213 809 119.129 239.23 473.91
368 0 67.14 12.4665 837 108.493 239.486 473.318
369 0 70.1606 12.3146 864 118.369 242.955 471.858
370 0 71.1066 12.8961 917 116.927 240.26 470.635
371 0 74.2523 13.0905 972 112.53 238.737 469.041
372 0 76.1162 13.1115 998 119.518 241.596 468.647
373 0 80.11 12.9447 1037 118.675 240.369 466.823
374 0 81.1718 12.8123 1040 116.602 240.804 466.001
375 0 85.0876 13.1864 1122 117.069 238.898 464.48
376 0 87.1752 13.5818 1184 114.367 237.416 462.543
377 0 90.3469 13.3596 1207 112.499 237.881 461.496
378 0 92.1448 12.9253 1191 119.453 237.265 460.249
379 1 47.0885 11.6377 548 116.042 236.883 481.965
380 0 50.0796 11.8212 592 115.774 238.583 481.086
381 0 51.0528 11.5958 592 122.895 237.861 480.591
382 0 53.0073 12.0927 641 113.395 241.095 479.067
383 0 54.0655 12.4848 675 119.459 239.981 478.507
384 0 56.0444 12.3474 692 118.773 240.127 478.316
385 0 57.0258 12.5557 716 129.461 238.425 477.295
386 0 59.0646 12.5964 744 120.491 239.839 476.849
387 0 60.0765 12.8503 772 116.526 240.087 475.136
388 0 60.06 12.8372 771 127.057 240.455 475.049
389 0 63.0888 12.7598 805 124.909 239.383 474.735
390 0 65.046 12.7602 830 128.319 238.963 473.975
391 0 67.0324 12.6357 847 131.787 237.83 471.937
392 0 70.0855 12.8415 900 127.77 239.307 470.989
393 0 71.18 12.8407 914 134.209 239.986 470.165
394 0 73.0587 12.9074 943 133.102 239.271 469.066
395 0 77.0717 12.8063 987 124.678 238.467 467.469
396 0 77.0875 13.2836 1024 129.025 238.4 465.967
397 0 81.2476 12.8373 1043 135.448 240.127 465.9
398 0 85.069 12.8366 1092 132.066 238.68 463.866
399 0 87.2302 12.8854 1124 133.276 240.536 462.667
400 0 91.1509 13.0992 1194 146.561 239.057 460.492
401 0 93.2518 12.8684 1200 149.011 237.476 459.336
402 0 96.1757 13.1842 1268 149.886 237.605 458.057
403 0 100.232 12.9799 1301 140.611 239.168 455.699
404 1 51.1943 11.5833 593 153.653 236.956 479.944
405 0 53.1393 11.7427 624 147.312 237.681 480.936
406 0 56.1083 11.763 660 156.115 238.682 479.8
407 0 57.136 12.094 691 150.45 237.891 479.324
408 0 58.1024 12.1682 707 148.81 238.658 478.956
409 0 61.0686 12.2976 751 142.86 237.522 477.887
410 0 63.1088 12.3279 778 137.416 238 476.955
411 0 64.0554 12.5985 807 130.181 236.979 476.683
412 0 66.0672 12.6387 835 133.153 236.614 475.576
413 0 68.0827 12.7345 867 137.841 237.376 474.302
414 0 71.1025 12.489 888 133.954 237.73 473.913
415 0 74.1139 12.6832 940 143.404 240.401 472.361
416 0 75.1037 12.8356 964 139.411 239.057 471.56
417 0 77.0571 13.0034 1002 139.964 238.106 470.315
418 0 80.0665 12.7644 1022 136.293 239.987 469.641
419 0 84.0608 12.7051 1068 151.199 236.964 467.93
420 0 87.1041 13.0878 1140 142.851 238.984 466.218
421 0 90.0705 12.8788 1160 151.442 236.953 464.397
422 0 93.0733 12.9038 1201 149.481 238.528 463.434
423 0 96.062 12.7522 1225 147.801 236.694 461.971
424 0 100.133 12.753 1277 145.922 239.037 460.718
425 1 51.0893 12.4684 637 151.738 237.604 483.133
426 0 54.1407 12.5045 677 159.773 236.999 482.52
427 0 55.1598 12.8717 710 142.303 238.228 481.245
428 0 56.0754 12.8042 718 136.359 237.724 480.543
429 0 57.1196 12.9203 738 128.844 238.855 479.39
430 0 58.1063 13.1999 767 133.69 239.231 478.563
431 0 61.1094 12.8949 788 124.424 237.967 477.221
432 0 64.1204 13.3343 855 143.108 239.811 476.105
433 0 66.0914 12.9669 857 131.457 238.028 475.335
434 0 68.1325 13.1655 897 132.628 239.527 473.882
435 0 71.181 13.1215 934 128.881 240.155 472.516
436 0 72.0932 13.219 953 134.964 240.102 472.044
437 0 74.1036 13.2922 985 141.933 242.922 470.175
438 0 78.0934 13.0869 1022 137.536 239.166 469.752
439 0 78.1544 13.5629 1060 140.147 239.776 468.73
440 0 81.1211 13.4737 1093 137.746 238.029 467.025
441 0 85.0428 13.5108 1149 142.909 238.862 466.096
442 0 88.0871 13.2483 1167 132.562 237.863 464.614
443 0 91.1432 13.5282 1233 142.675 238.066 462.818
444 0 92.1454 13.826 1274 136.708 238.338 461.708
445 0 96.2878 13.6777 1317 138.051 239.32 459.704
446 0 99.142 13.8488 1373 131.746 239.996 457.174
447 1 51.0714 12.3748 632 130.101 239.824 481.108
448 0 53.1032 13.0124 691 129.87 240.818 479.949
449 0 53.1405 12.9656 689 141.964 239.89 479.193
450 0 56.1742 12.8885 724 146.706 239.791 478.077
451 0 58.0989 13.0639 759 148.163 240.331 476.358
452 0 60.2198 12.936 779 144.48 239.078 475.564
453 0 63.2113 12.7825 808 142.66 237.912 475.04
454 0 63.1636 13.3146 841 151.285 238.618 473.446
455 0 65.1306 13.4192 874 140.153 239.676 473.071
456 0 67.1253 13.5269 908 135.047 238.415 471.715
457 0 68.161 13.7615 938 135.844 238.652 470.405
458 0 72.1508 13.4718 972 140.301 237.808 468.766
459 0 74.0792 13.4586 997 129.867 241.491 467.291
460 0 76.1859 13.5196 1030 128.011 240.085 465.815
461 0 80.1253 13.3915 1073 138.379 240.774 464.429
462 0 81.1804 13.6363 1107 126.631 240.036 462.726
463 0 84.075 13.6426 1147 130.949 239.189 461.947
464 0 87.125 13.6471 1189 124.133 239.96 460.379
465 0 91.1109 13.4122 1222 133.295 239.612 459.211
466 0 92.0986 13.453 1239 142.366 238.888 457.816
467 0 95.1998 13.2773 1264 131.687 237.488 455.749
468 1 47.054 12.05 567 143.646 239.691 480
469 0 49.0884 12.3451 606 131.276 236.863 478.777
470 0 50.0748 12.8008 641 131.232 237.53 477.509
471 0 51.1265 12.9287 661 127.657 239.266 477.824
472 0 52.1075 12.7813 666 131.721 238.156 476.776
473 0 54.1216 13.1371 711 123.858 237.94 475.993
474 0 54.0806 13.3505 722 129.017 237.468 475.42
475 0 58.0685 13.0708 759 124.215 238.82 474.324
476 0 59.0754 13.5082 798 129.687 239.432 473.167
477 0 62.1773 13.1881 820 126.424 241.409 472.593
478 0 62.129 13.2627 824 139.112 237.533 471.809
479 0 66.1199 13.1882 872 129.759 238.374 470.46
480 0 67.1773 13.1741 885 126.998 237.966 469.066
481 0 70.2317 13.3416 937 131.862 240.01 468.288
482 0 72.2813 13.3506 965 131.606 238.837 467.565
483 0 74.1284 13.1933 978 134.866 239.265 466.141
484 0 78.277 13.5289 1059 130.552 239.567 465.06
485 0 80.3491 13.4413 1080 132.634 237.688 463.344
486 0 83.3202 13.3821 1115 133.276 239.228 461.773
487 0 86.418 13.6546 1180 130.66 237.903 459.797
488 0 89.3331 13.7015 1224 126.85 240.6 458.444
489 0 92.2685 13.5474 1250 127.7 239.622 457.96
490 0 94.3125 13.8794 1309 120.798 239.703 456.523
491 0 98.2799 13.5735 1334 133.334 237.361 454.249
492 0 102.27 13.8849 1420 128 239.19 452.216
493 0 102.27 13.8849 1420 164.125 240.19 452.216
494 0 110.254 13.868 1529 122.026 238.549 448.534
495 1 56.1709 12.9605 728 134.416 239.08 474.033
496 0 60.4599 13.2319 800 137.532 239.445 472.841
497 0 60.2073 13.5034 813 135.603 237.423 472.504
498 0 63.2618 13.6101 861 137.652 239.792 470.257
499 0 65.2068 13.7256 895 141.061 238.664 469.559
500 0 68.252 13.4795 920 134.89 240.534 469.085
501 0 70.4318 13.6728 963 131.425 238.352 468.616
502 0 72.3982 13.7711 997 138.681 240.142 467.326
503 0 75.2491 13.7676 1036 136.64 238.45 466.363
504 0 75.39 13.8878 1047 131.256 239.06 465.288
505 0 80.5398 13.6703 1101 150.158 238.733 463.762
506 0 80.3629 14.0612 1130 149.881 239.658 462.912
507 0 84.275 13.7051 1155 157.407 238.585 461.258
508 0 88.3949 13.7451 1215 152.246 239.605 459.644
509 0 90.3221 14.0054 1265 154.187 238.88 457.79
510 0 93.3939 14.0159 1309 155.384 237.297 456.53
511 0 96.502 13.5852 1311 158.004 237.924 454.985
512 0 101.266 13.8645 1404 163.036 237.432 453.086
513 1 52.1901 13.3359 696 168.835 237.448 475.405
514 0 53.1617 13.6565 726 165.262 238.773 474.674
515 0 54.1436 13.7597 745 166.158 237.868 474.035
516 0 59.3946 13.4524 799 155.822 238.29 472.732
517 0 61.4763 13.6963 842 152.808 239.159 470.789
518 0 63.3145 13.5198 856 157.321 238.756 470.71
519 0 64.1397 13.9227 893 146.13 237.544 469.401
520 0 68.2011 13.6801 933 153.448 239.544 467.887
521 0 70.3473 13.5044 950 152.262 238.222 467.691
522 0 71.1426 14.1547 1007 156.37 238.443 466.365
523 0 74.1457 14.1208 1047 156.301 239.876 464.884
524 0 77.159 14.1007 1088 156.733 240.467 463.283
525 0 80.2862 13.9376 1119 163.595 239.626 462.044
526 0 82.0995 14.1414 1161 145.227 237.876 460.922
527 0 85.2042 13.9899 1192 159.523 237.635 460.235
528 0 87.1265 14.083 1227 149.472 238.493 458.835
529 0 91.1709 14.3576 1309 156.293 238.747 456.848
530 0 95.1644 14.1439 1346 150.536 239.334 455.978
531 0 98.0667 14.327 1405 156.684 238.506 454.398
532 0 100.114 14.2937 1431 150.236 238.748 452.526
533 0 104.067 14.4137 1500 164.925 237.415 451.185
534 0 106.161 14.3273 1521 172.459 240.828 449.982
535 0 111.205 14.4507 1607 163.699 237.753 448.045
536 0 115.199 14.3837 1657 161.6 240.617 447.101
537 0 119.176 14.4073 1717 169.933 238.778 444.188
538 0 121.208 14.7515 1788 156.619 239.091 442.458
539 0 127.269 14.7011 1871 170.994 238.534 439.931
540 0 132.183 14.4648 1912 160.728 237.359 437.931
541 0 137.311 14.5582 1999 163.216 238.1 435.273
542 0 141.253 14.7253 2080 159.912 238.843 432.774
543 0 147.201 14.2662 2100 154.623 239.377 430.313
544 1 74.0691 13.2039 978 171.272 236.641 464.985
545 0 78.0469 13.3638 1043 169.945 236.423 463.814
546 0 81.1885 13.6719 1110 159.296 236.617 462.396
547 0 83.0844 13.6849 1137 169.954 239.082 461.263
548 0 84.1479 14.1061 1187 167.37 238.952 459.953
549 0 89.2308 13.919 1242 165.97 240.217 458.15
550 0 93.2493 14.1556 1320 160.789 239.7 456.448
551 0 94.3295 14.1207 1332 164.348 239.835 454.76
552 0 99.2943 14.1499 1405 159.504 239.569 452.856
553 0 104.338 13.5713 1416 158.378 239.471 451.84
554 0 106.268 13.8235 1469 162.041 239.18 449.323
555 0 109.364 14.1088 1543 165.09 240.504 448.376
556 0 114.468 13.8641 1587 163.309 239.268 445.73
557 0 119.538 14.0959 1685 165.191 239.254 443.047
558 0 124.377 13.8369 1721 162.193 239.83 440.566
559 0 129.265 14.0564 1817 163.192 240.277 437.995
560 1 73.1378 12.4833 913 173.834 240.69 465.516
561 0 75.2379 12.9323 973 171.184 239.789 464.262
562 0 78.0839 12.6531 988 169.472 240.871 462.919
563 0 79.1392 12.9266 1023 171.868 242.01 461.745
564 0 84.2007 12.9928 1094 166.115 240.994 460.082
565 0 86.3741 12.7469 1101 172.678 241.404 458.5
566 0 89.2066 12.9811 1158 167.196 241.904 456.876
567 0 93.1964 12.876 1200 172.116 240.787 455.345
568 0 96.2484 12.7898 1231 170.167 240.925 453.751
569 0 97.1985 12.9735 1261 160.563 241.236 451.013
570 0 102.337 12.8887 1319 165.371 242.159 450.04
571 0 108.417 12.8946 1398 163.989 240.315 446.949
572 0 112.261 12.9252 1451 165.815 240.938 445.113
573 1 63.0676 11.3053 713 159.415 240.93 471.624
574 0 66.1861 11.7245 776 158.137 241.707 470.961
575 0 68.0975 11.8507 807 158.679 241.545 470.253
576 0 69.0523 12.1502 839 153.014 240.255 469.124
577 0 73.0676 12.2352 894 158.55 242.057 467.828
578 0 74.0965 12.4297 921 159.64 241.899 466.368
579 0 77.2573 12.3742 956 155.988 241.598 464.851
580 0 79.2529 12.3024 975 159.358 243.08 463.342
581 0 83.2603 12.4069 1033 154.309 242.099 461.268
582 0 86.337 12.1385 1048 158.143 240.856 460.264
583 0 88.2802 12.415 1096 154.406 242.202 458.964
584 0 90.1698 12.3212 1111 143.447 243.119 457.014
585 1 49.0473 9.78648 480 139.256 242.125 479.169
586 0 50.1431 10.6296 533 141.218 240.792 478.625
587 0 52.1623 10.8699 567 144.501 240.974 477.459
588 0 53.1447 10.7819 573 146.595 239.429 476.707
589 0 54.1417 11.1559 604 147.406 242.43 475.56
590 0 55.1751 11.2913 623 147.143 241.568 475.626
591 0 57.1006 11.3309 647 150.558 242.34 474.41
592 0 59.122 11.2648 666 144.908 240.944 473.884
593 0 61.1858 11.081 678 140.612 240.608 472.587
594 0 64.1427 11.2562 722 149.108 241.708 471.367
595 0 66.3128 11.4005 756 144.271 239.656 470.519
596 0 68.143 11.6813 796 149.373 239.937 468.864
597 0 71.1589 11.13 792 143.927 240.292 467.902
598 0 73.2101 11.3236 829 147.615 239.279 466.115
599 0 76.1127 11.3647 865 146.561 240.131 464.578
600 0 76.1308 11.651 887 146.938 241.793 463.691
601 1 40.0159 9.37128 375 145.781 242.112 483.187
602 0 43.0248 9.34345 402 146.525 241.716 481.925
603 0 43.0116 9.99731 430 138.947 241.144 481.186
604 0 44.0956 10.8628 479 134.777 240.61 480.516
605 0 47.0332 10.2693 483 139.812 241.731 479.238
606 0 45.0522 11.1648 503 143.694 242.427 478.408
607 0 49.0364 10.482 514 137.494 241.282 478.376
608 0 51.0573 10.4588 534 143.234 242.043 477.927
609 0 49.0878 10.8785 534 136.787 242.262 477.161
610 0 52.1681 10.8304 565 143.827 242.519 476.381
611 0 54.2282 10.7877 585 137.303 242.791 475.465
612 0 57.2485 11.3016 647 141.862 241.053 474.83
613 0 56.1202 11.7248 658 141.897 239.667 474.404
614 0 58.2727 11.3947 664 144.598 243.273 474.086
615 0 61.252 11.5751 709 145.207 241.767 473.075
616 0 62.1992 11.6883 727 148.246 242.105 472.004
617 0 65.2767 11.9185 778 143.023 240.481 471.614
618 0 66.1379 12.1413 803 135.118 240.133 469.42
619 0 68.18 11.8217 806 141.031 240.655 469.132
620 0 72.1046 11.5804 835 139.856 242.572 467.966
621 0 73.1492 12.0439 881 135.311 240.965 467.571
622 0 73.082 12.3697 904 141.992 241.023 466.156
623 0 77.0995 11.5435 890 144.494 242.526 466.356
624 0 79.2139 11.8287 937 135.3 242.782 464.678
625 0 80.2927 12.442 999 134.999 240.669 462.744
626 0 84.3102 11.944 1007 142.678 241.939 461.304
627 0 86.2865 11.8327 1021 141.681 242.561 460.18
628 0 88.2037 12.0176 1060 139.399 240.138 458.963
629 0 91.1716 12.2955 1121 140.31 240.636 457.187
630 0 93.2015 12.2101 1138 138.768 242.38 456.503
631 0 97.2827 12.0268 1170 143.774 239.862 455.319
632 0 97.2025 12.7157 1236 138.182 242.844 453.53
633 0 101.264 12.5514 1271 143.304 244.145 452.072
634 0 106.149 12.7651 1355 143.189 243.773 449.879
635 0 109.153 12.7069 1387 147.844 242.55 448.538
636 0 111.252 12.8088 1425 147.582 243.069 446.528
637 0 116.215 12.8813 1497 149.33 244.074 443.918
638 1 65.2349 11.0217 719 147.855 244.668 471.462
639 0 66.1678 11.1384 737 147.052 242.588 470.357
640 0 68.1687 12.1757 830 144.169 240.855 468.83
641 0 71.1433 11.8915 846 140.279 241.552 468.236
642 0 73.1108 11.9955 877 144.834 242.094 466.731
643 0 76.1274 11.8092 899 145.808 241.851 465.44
644 0 79.1017 12.1742 963 141.774 240.858 463.222
645 0 82.1217 11.9457 981 135.836 239.979 462.738
646 0 84.1282 12.16 1023 142.69 239.505 461.372
647 0 86.0955 12.37 1065 143.557 241.161 459.314
648 0 89.1268 12.0278 1072 145.549 241.563 458.835
649 0 91.094 12.4267 1132 143.223 242.232 456.257
650 0 96.1666 12.3536 1188 137.966 241.466 454.395
651 0 98.3143 12.46 1225 141.168 242.093 453.266
652 1 54.1454 10.4533 566 151.489 241.041 475.963
653 0 55.0643 10.7147 590 141.868 241.002 475.873
654 0 58.0469 10.9739 637 145.08 240.295 475.116
655 0 59.0883 11.9821 708 137.766 240.383 474.008
656 0 62.0754 11.5021 714 146.476 239.339 473.796
657 0 63.0739 11.9384 753 142.596 240.398 472.248
658 0 64.0675 12.1747 780 138.532 239.418 471.992
659 0 68.0558 12.3281 839 144.517 239.989 470.625
660 0 70.0913 12.2554 859 139.687 241.462 470.119
661 0 72.0779 12.3339 889 142.998 240.247 468.858
662 0 74.2023 12.439 923 146.486 240.151 468.164
663 0 76.1258 12.4005 944 145.727 241.627 466.468
664 0 80.0577 12.4785 999 142.875 243.264 465.237
665 0 81.069 12.6312 1024 145.101 240.352 464.759
666 0 84.0712 12.4299 1045 142.339 242.192 464.8
667 0 87.0743 12.2998 1071 145.06 241.824 463.463
668 0 89.041 12.7806 1138 144.785 241.658 460.996
669 0 92.167 13.0307 1201 146.172 240.658 459.779
670 0 98.1004 12.6911 1245 148.148 240.197 457.369
671 0 101.066 12.3979 1253 139.864 239.926 455.541
672 0 105.16 12.305 1294 146.697 242.489 453.42
673 1 54.0964 11.1468 603 145.808 240.692 478.499
674 0 56.0937 11.6769 655 140.321 240.266 478.234
675 0 57.0332 11.958 682 138.16 241.906 476.89
676 0 59.2001 12.3142 729 133.443 241.955 476.824
677 0 61.1897 12.1426 743 138.607 244.299 475.287
678 0 65.1616 12.1851 794 139.166 241.052 474.574
679 0 66.1502 12.3809 819 138.846 241.974 473.479
680 0 67.1615 12.5816 845 136.722 241.133 472.446
681 0 71.1632 12.647 900 136.604 243.169 470.832
682 0 73.1146 12.4052 907 139.836 241.751 470.068
683 0 75.1565 12.76 959 135.845 241.725 469.51
684 0 76.1975 12.6776 966 142.244 242.981 468.209
685 0 80.1755 12.6971 1018 139.998 240.895 466.617
686 0 82.1606 12.7798 1050 134.675 242.323 465.208
687 0 85.053 12.9566 1102 138.792 242.463 463.879
688 0 88.1546 13.1814 1162 139.418 244.367 462.304
689 0 89.1483 13.1579 1173 138.902 243.973 461.393
690 0 94.1597 13.0311 1227 79.2852 242.915 459.245
691 0 96.2023 13.2325 1273 139.148 242.973 457.712
692 0 100.373 12.7724 1282 140.52 241.667 456.487
693 0 103.226 12.7972 1321 145.635 242.479 454.535
694 0 107.228 12.935 1387 142.588 243.833 452.851
695 1 55.1923 11.2697 622 138.862 244.011 478.219
696 0 58.2522 11.7764 686 136.092 242.259 476.306
697 0 59.121 11.7217 693 134.608 243.935 475.525
698 0 62.1443 11.8756 738 127.263 244.244 474.596
699 0 63.1714 12.4423 786 131.141 242.709 473.449
700 0 66.3005 12.2171 810 134.236 242.005 472.535
701 0 66.0843 12.6202 834 134.004 243.532 472.417
702 0 70.4212 12.1412 855 131.667 242.491 471.041
703 0 70.1819 12.3251 865 133.277 242.385 469.225
704 0 73.4006 12.5748 923 135.507 243.032 468.088
705 0 73.2363 12.7532 934 138.693 242.895 467.285
706 0 79.2682 12.4262 985 134.12 242.742 465.502
707 0 80.2793 12.7679 1025 132.903 243.525 463.669
708 0 84.3403 12.58 1061 137.935 242.143 462.023
709 0 87.2718 12.5814 1098 139.688 243.628 460.868
710 0 90.2149 12.8471 1159 139.281 243.955 459.791
711 1 48.2614 11.2927 545 140.327 243.231 480.121
712 0 49.2049 11.8281 582 143.407 242.4 479.44
713 0 50.0479 12.0884 605 142.405 244.246 478.848
714 0 52.1624 12.0585 629 143.614 242.515 478.03
715 0 53.3064 12.1186 646 143.093 243.172 476.567
716 0 54.1898 12.8068 694 141.798 242.111 476.246
717 0 56.4217 13.3459 753 136.748 241.113 474.709
718 0 56.2241 13.1794 741 143.711 241.254 474.579
719 0 59.2116 13.0211 771 141.96 242.861 473.821
720 0 62.3678 12.6027 786 149.623 242.56 472.747
721 0 62.3272 13.2687 827 142.149 243.133 471.773
722 0 65.3512 12.9301 845 139.534 245.626 470.535
723 0 65.2407 12.9214 843 146.339 243.147 469.941
724 0 70.4202 12.752 898 143.673 244.303 468.86
725 0 71.2554 13.0376 929 146.784 243.213 467.441
726 0 73.3058 12.9867 952 149.29 243.812 466.059
727 0 75.2333 13.0262 980 146.326 242.196 465.508
728 0 78.1938 13.377 1046 142.62 241.064 463.513
729 0 82.2707 12.9572 1066 138.941 242.944 462.57
730 0 85.2055 12.8278 1093 141.082 240.781 460.964
731 0 86.1597 12.8482 1107 144.513 240.82 458.988
732 0 91.2841 13.0143 1188 143.155 240.939 456.771
733 0 94.1739 12.8698 1212 135.927 241.597 454.821
734 0 96.2483 12.7691 1229 137.024 243.122 453.814
735 1 49.2195 10.7681 530 130.313 243.685 477.611
736 0 52.165 11.0802 578 131.505 244.073 476.685
737 0 52.1336 11.7007 610 126.834 242.477 475.916
738 0 56.0866 11.6427 653 128.848 242.778 475.173
739 0 58.1025 11.7207 681 128.558 244.442 474.075
740 0 58.076 12.122 704 130.287 242.919 473.501
741 0 61.0674 12.2979 751 129.702 242.266 471.819
742 0 62.1222 12.3305 766 129.651 242.369 471.722
743 0 64.1129 12.2128 783 130.964 242.171 470.815
744 0 66.0635 12.4426 822 123.859 243.391 469.366
745 0 68.0557 12.4163 845 128.386 242.088 468.675
746 0 70.072 12.6727 888 128.357 243.658 466.898
747 0 74.0615 12.4356 921 129.343 241.77 466.034
748 0 75.1189 12.407 932 123.741 244.519 465.475
749 0 77.2094 12.6151 974 129.742 244.513 464.683
750 0 78.1007 12.7912 999 128.52 244.141 462.867
751 0 81.2031 12.6473 1027 132.205 241.396 462.492
752 0 85.1109 12.6306 1075 123.94 241.323 460.667
753 1 42.0793 10.8605 457 132.661 243.009 481.361
754 0 45.1778 10.5583 477 132.218 242.176 480.151
755 0 47.288 11.3982 539 130.354 242.354 479.306
756 0 49.2603 11.5509 569 129.812 242.747 478.469
757 0 48.0668 12.545 603 128.652 242.015 478.461
758 0 51.0357 12.4814 637 130.074 242.655 477.261
759 0 51.1162 12.7357 651 137.614 242.038 476.406
760 0 54.0594 12.2828 664 135.81 242.258 475.218
761 0 56.0681 12.2708 688 135.352 242.43 474.193
762 0 57.076 12.4396 710 142.335 242.692 473.966
763 0 59.0345 12.3995 732 140.749 244.051 473.359
764 0 60.0471 12.7733 767 144.692 243.047 471.913
765 0 62.1037 12.9461 804 143.825 242.17 470.866
766 0 64.1515 12.9381 830 140.882 242.683 470.367
767 0 68.0684 12.5609 855 134.822 242.17 469.146
768 0 68.1734 12.9376 882 144.633 241.229 467.947
769 0 70.0567 13.4605 943 135.192 242.929 466.798
770 0 73.2178 13.3438 977 138.973 242.673 464.629
771 0 76.3425 13.0334 995 140.159 242.908 463.997
772 0 80.3467 13.0559 1049 142.444 243.706 462.665
773 0 83.2154 12.75 1061 139.353 243.343 460.299
774 0 85.1821 12.9252 1101 132.815 243.339 459.15
775 0 88.2536 12.8607 1135 143.911 239.893 457.807
776 1 48.0147 10.9758 527 136.901 241.981 478.795
777 0 49.3672 11.303 558 135.898 242.941 476.554
778 0 49.0408 12.0512 591 137.971 241.365 476.756
779 0 51.1886 12.4246 636 134.022 241.184 475.586
780 0 54.0937 12.0532 652 139.839 242.785 475.136
781 0 56.1337 12.1318 681 133.674 241.965 474.426
782 0 58.1242 12.026 699 139.605 243.763 473.77
783 0 60.1933 12.2937 740 138.651 241.751 472.308
784 0 62.1175 12.5568 780 137.365 242.891 471.208
785 0 64.0927 12.1543 779 140.091 242.036 470.926
786 0 66.1834 12.2992 814 141.921 241.958 469.908
787 0 66.0817 13.0142 860 141.392 246.009 467.865
788 0 69.1149 12.7324 880 142.927 243.608 466.805
789 0 69.1351 13.423 928 142.181 245.235 466.235
790 0 75.1225 12.6327 949 142.2 242.82 465.745
791 0 77.1958 12.8245 990 143.978 244.282 464.119
792 0 79.2597 13.1214 1040 142.501 244.96 463.559
793 0 81.1622 13.1465 1067 138.499 244.421 461.669
794 0 86.175 12.8808 1110 146.974 244.64 460.459
795 0 88.259 12.8825 1137 146.01 244.04 459.438
796 0 89.1767 13.1761 1175 151.137 242.522 458.112
797 0 93.2153 13.0343 1215 151.901 244.136 456.765
798 0 97.2794 12.9421 1259 149.89 243.701 455.171
799 0 100.374 13.2704 1332 143.116 242.882 453.712
800 0 103.181 13.1032 1352 148.059 242.682 452.882
801 0 104.294 13.4044 1398 149.167 243.353 450.86
802 0 108.308 13.3786 1449 153.256 243.932 449.015
803 1 60.2703 10.8345 653 150.884 242.453 474.574
804 0 61.2576 11.8516 726 148.882 245.566 473.913
805 0 63.0951 11.9502 754 152.103 244.337 473.45
806 0 65.048 12.3294 802 149.087 245.515 472.618
807 0 65.0689 12.7403 829 148.732 241.948 471.814
808 0 67.1494 12.4201 834 145.077 241.159 471.583
809 0 70.1089 12.6517 887 144.463 242.982 469.821
810 0 73.2386 12.4388 911 145.497 243.618 468.892
811 0 74.2659 12.4418 924 146.859 243.521 468.088
812 0 76.2131 12.6487 964 147.61 243.749 466.952
813 0 78.0982 12.6636 989 149.089 243.029 466.204
814 0 81.309 12.5078 1017 145.979 242.236 465.076
815 0 83.1082 13.0673 1086 144.868 240.655 463.693
816 0 86.2035 12.9809 1119 145.391 241.639 463.128
817 0 89.2204 12.7325 1136 145.685 241.572 461.61
818 0 91.2081 12.9155 1178 152.278 242.043 460.43
819 0 95.256 12.7866 1218 145.018 242.02 458.897
820 0 96.263 12.7775 1230 149.547 243.542 457.354
821 0 100.237 12.6201 1265 148.556 243.004 456.174
822 1 54.0643 11.5603 625 151.174 243.51 478.371
823 0 56.0261 11.6731 654 151.924 241.882 476.298
824 0 58.0371 12.1646 706 147.05 245.067 474.973
825 0 58.1065 12.6492 735 149.985 242.71 475.89
826 0 61.0674 12.5599 767 149.568 243.057 474.597
827 0 62.0594 12.7942 794 142.145 241.94 472.903
828 0 64.0417 12.6792 812 138.857 243.123 472.915
829 0 66.0336 13.0691 863 144.91 243.371 471.364
830 0 70.087 12.7841 896 152.321 243.812 469.717
831 0 72.045 12.5338 903 151.126 243.698 468.478
832 0 75.1495 12.7878 961 148.015 242.727 466.742
833 0 76.0738 13.1583 1001 140.578 244.465 465.653
834 0 79.1262 12.8782 1019 148.679 243.91 463.613
835 0 80.1463 12.7891 1025 146.707 244.287 462.852
836 0 84.042 12.6484 1063 154.208 245.278 460.736
837 0 88.0584 13.1504 1158 149.162 244.815 458.829
838 0 91.0975 12.6238 1150 156.567 243.934 457.677
839 1 46.0243 11.5808 533 158.235 242.266 479.689
840 0 49.0377 11.5217 565 158.899 243.048 478.294
841 0 49.2028 11.9505 588 156.094 241.784 477.495
842 0 52.1051 11.6687 608 154.895 244.599 476.886
843 0 54.1151 12.1593 658 158.476 244.226 476.04
844 0 55.0931 12.1249 668 151.19 242.561 475
845 0 55.1602 12.364 682 156.842 243.808 473.944
846 0 59.1498 12.0372 712 152.82 244.445 473.213
847 0 58.2166 12.5909 733 156.332 241.314 472.4
848 0 62.0916 12.2883 763 155.431 244.115 471.712
849 0 62.1358 12.3922 770 157.513 242.465 471.214
850 0 63.1659 12.8709 813 154.737 242.953 469.482
851 0 67.0966 12.713 853 154.572 242.537 468.3
852 0 68.0502 12.4467 847 153.602 242.128 467.809
853 0 71.0742 12.5362 891 159.947 241.07 466.281
854 0 73.1165 12.6921 928 157.883 242.956 465.656
855 0 74.1103 12.9132 957 158.608 243.489 464.451
856 0 77.0733 12.8709 992 163.461 241.721 463.419
857 0 79.1203 12.7022 1005 161.29 241.399 462.368
858 0 83.1353 12.7503 1060 154.21 242.535 460.51
859 0 85.0854 13.0222 1108 160.465 242.716 459.487
860 0 89.1184 12.7471 1136 158.2 242.179 457.519
861 1 49.0986 10.652 523 157.279 241.337 478.264
862 0 49.0902 11.6724 573 155.387 243.426 476.962
863 0 50.0438 11.8696 594 149.803 243.104 477.478
864 0 53.1475 11.421 607 151.01 243.288 476.297
865 0 53.0726 11.6821 620 153.724 244.316 476.053
866 0 54.0921 11.9241 645 152.003 243.651 474.899
867 0 54.1554 12.3534 669 156.357 242.913 474.254
868 0 58.1516 11.9343 694 148.197 242.536 473.223
869 0 60.1003 11.9966 721 147.251 241.85 472.322
870 0 60.183 12.03 724 147.986 241.311 472.048
871 0 63.1463 12.083 763 149.646 243.115 470.675
872 0 65.069 12.4176 808 155.366 242.949 469.49
873 0 67.0725 12.6579 849 154.406 244.451 468.14
874 0 67.1389 12.8688 864 149.152 243.588 467.104
875 0 72.1039 12.5513 905 153.604 244.325 466.346
876 0 74.1086 12.6706 939 156.094 242.249 464.951
877 0 77.0577 12.4582 960 148.841 243.606 463.356
878 0 79.139 12.8508 1017 161.083 241.807 462.297
879 0 81.1148 12.8213 1040 156.148 242.106 461.839
880 0 84.1582 12.7855 1076 160.303 242.409 459.674
881 0 86.2546 12.8573 1109 155.819 243.581 458.156
882 0 89.2299 12.7648 1139 150.601 244.409 456.312
883 0 91.2739 12.8076 1169 151.264 242.608 455.339
884 0 96.4398 12.8474 1239 154.45 242.448 453.808
885 0 97.3224 12.7925 1245 145.791 243.282 451.388
886 0 101.404 12.5636 1274 157.578 243.757 450.406
887 0 104.2 13.3205 1388 154.688 242.937 448.128
888 0 108.406 12.8314 1391 154.038 243.049 447.157
889 1 59.1445 11.1591 660 154.605 243.715 472.048
890 0 61.1184 11.9931 733 153.199 243.072 470.804
891 0 65.0799 11.9392 777 152.359 244.806 470.018
892 0 66.1204 12.3563 817 149.091 245.492 469.398
893 0 66.1238 12.6581 837 143.736 244.965 468.613
894 0 69.2338 12.4217 860 152.227 245.973 467.423
895 0 71.1483 12.6075 897 150.885 244.058 466.404
896 0 75.0457 12.7656 958 152.968 244.978 464.931
897 0 77.1108 12.6182 973 148.344 243.298 463.881
898 0 79.1085 12.7673 1010 154.695 242.934 462.168
899 0 83.1074 12.3455 1026 152.578 243.322 461.412
900 0 84.0856 12.5586 1056 153.008 243.319 460.318
901 0 88.1947 12.8579 1134 150.733 246.137 458.439
902 0 91.2462 12.8553 1173 156.665 245.396 457.184
903 0 96.1493 12.4494 1197 155.555 244.789 455.031
904 1 50.0836 11.2013 561 155.118 244.433 477.923
905 0 51.033 11.9922 612 153.225 242.977 476.761
906 0 54.103 11.8847 643 154.712 243.624 476.109
907 0 55.2238 12.1506 671 153.368 244.024 474.987
908 0 55.0183 12.3232 678 150.695 243.832 474.378
909 0 59.0687 12.4601 736 145.996 244.542 473.163
910 0 58.113 12.7338 740 149.469 243.77 472.486
911 0 61.0579 12.4636 761 142.283 243.991 471.707
912 0 61.1006 12.5858 769 147.163 243.636 470.547
913 0 65.1947 12.3783 807 146.783 241.373 469.814
914 0 66.14 12.9574 857 142.534 244.078 468.679
915 0 68.2076 12.8578 877 141.734 243.975 467.55
916 0 72.1232 12.9778 936 137.743 243.217 466.339
917 0 75.1246 12.6057 947 142.122 242.116 464.973
918 0 76.1656 12.8405 978 141.717 242.874 463.679
919 0 80.1902 12.9442 1038 141.112 241.158 461.955
920 0 82.2207 12.3813 1018 144.111 243.688 460.892
921 0 84.159 13.0348 1097 148.672 242.37 459.936
922 0 88.1837 12.8709 1135 149.003 243.262 458.634
923 0 90.2534 13.0965 1182 148.893 244.341 457.831
924 1 49.0957 11.3859 559 144.465 243.204 477.909
925 0 49.0485 12.0289 590 151.502 244.317 477.895
926 0 51.0593 12.1036 618 149.45 246.613 477.495
927 0 53.1053 12.0704 641 142.51 243.557 476.885
928 0 53.189 12.2018 649 148.305 243.928 476.088
929 0 54.1606 12.8137 694 144.226 244.278 475.483
930 0 58.1127 12.3037 715 145.66 244.564 474.803
931 0 57.0818 12.9463 739 145.825 243.838 474.532
932 0 61.129 12.6617 774 146.314 242.868 473.353
933 0 62.072 12.4372 772 148.163 242.979 472.788
934 0 62.1551 13.4019 833 149.852 243.466 472.497
935 0 65.1332 13.4494 876 152.765 243.418 471.471
936 0 68.1481 13.0745 891 148.972 241.525 470.452
937 0 71.1581 12.6479 900 153.921 241.95 469.639
938 0 71.1682 13.1379 935 155.507 242.75 468.569
939 0 74.1176 12.9389 959 154.3 242.727 467.146
940 0 76.1201 13.0714 995 154.671 240.393 466.919
941 0 79.2014 13.1816 1044 144.699 242.182 465.898
942 0 79.2167 13.482 1068 155.432 241.517 465.096
943 0 81.1168 13.3388 1082 155.439 242.178 463.882
944 0 85.2236 13.1302 1119 156.857 242.163 462.656
945 0 88.2358 13.1013 1156 160.498 242.228 461.195
946 0 92.1512 13.3476 1230 153.996 240.441 459.492
947 0 95.2343 12.8945 1228 154.099 242.445 458.247
948 1 50.1907 11.9743 601 155.935 241.468 479.488
949 0 52.1094 12.6657 660 157.441 241.965 478.758
950 0 54.2377 12.2609 665 161.982 243.057 478.445
951 0 54.1758 12.8471 696 155.635 243.251 478.221
952 0 55.093 13.0507 719 153.91 240.964 476.951
953 0 58.0545 13.2117 767 153.081 241.218 476.613
954 0 59.0243 13.181 778 153.174 242.937 475.314
955 0 61.0661 12.8385 784 155.032 242.816 474.673
956 0 61.0866 13.4563 822 148.984 242.681 473.836
957 0 64.0317 13.181 844 157.391 240.961 472.928
958 0 64.0505 13.8641 888 151.811 241.814 472.283
959 0 68.0421 13.5798 924 149.697 242.75 471.025
960 0 70.1802 13.4938 947 159.428 242.862 469.995
961 0 71.0689 13.5784 965 154.795 244.488 468.996
962 0 74.1422 13.5281 1003 156.502 243.268 467.771
963 0 75.1397 13.7211 1031 154.602 244.963 467.168
964 0 77.1242 13.8867 1071 155.5 242.703 465.687
965 0 80.1885 13.6054 1091 157.899 241.555 464.46
966 0 80.1885 13.6054 1091 170.161 240.555 464.46
967 0 84.2021 13.5982 1145 159.687 242.684 461.301
968 0 88.15 13.8287 1219 157.224 243.844 460.109
969 0 91.1422 13.9014 1267 158.546 242.663 457.966
970 0 95.2931 13.7785 1313 150.66 242.723 455.622
971 0 97.2659 13.7664 1339 159.414 245.093 453.99
972 0 98.1962 13.9415 1369 151.977 243.374 453.092
973 0 102.328 13.789 1411 151.939 244.36 450.993
974 1 55.1849 11.9598 660 151.498 243.967 474.721
975 0 57.0919 12.4361 710 150.107 242.454 474.268
976 0 60.1012 11.9465 718 150.017 243.618 473.703
977 0 61.0804 12.5736 768 151.736 245.23 472.564
978 0 64.056 12.333 790 147.773 243.878 471.151
979 0 64.0865 12.3895 794 152.15 245.936 470.941
980 0 67.0743 12.4936 838 145.328 243.495 469.697
981 0 69.0876 12.7809 883 147.655 240.892 468.056
982 0 71.1654 12.492 889 146.55 240.691 467.72
983 0 74.2227 12.5838 934 147.426 240.725 465.834
984 0 76.2825 12.7552 973 144.02 242.028 465.029
985 0 78.2237 12.8733 1007 148.862 242.247 463.378
986 0 82.2241 12.5875 1035 145.914 243.448 462.429
987 0 83.188 13.1269 1092 143.174 242.855 460.766
988 0 89.2939 13.0804 1168 142.263 241.654 459.106
989 0 92.1233 12.7655 1176 150.946 241.804 457.342
990 0 95.1177 12.5424 1193 147.863 240.508 456.045
991 0 97.1372 13.1463 1277 143.692 240.411 454.357
992 1 51.0968 11.8598 606 148.35 240.439 475.96
993 0 55.039 12.1005 666 148.135 242.32 473.821
994 0 57.0724 12.4053 708 144.602 242.397 473.918
995 0 57.0682 12.8268 732 145.425 240.004 473.22
996 0 59.2904 12.8183 760 144.784 241.32 472.434
997 0 59.1372 13.2573 784 142.667 240.776 471.906
998 0 63.0775 12.8255 809 142.245 240.983 471.366
999 0 66.1738 12.5881 833 146.873 240.938 470.439
1000 0 68.0764 13.3673 910 144.794 240.326 468.756
1001 0 70.3583 13.1044 922 145.804 243.142 467.884
1002 0 73.1597 12.9716 949 143.255 243.092 467.062
1003 0 73.2049 13.1549 963 147.227 242.106 465.676
1004 0 75.2422 13.3834 1007 145.065 242.252 464.664
1005 0 78.2756 13.2097 1034 141.707 242.165 463.817
1006 0 81.1897 13.2776 1078 149.641 242.805 462.096
1007 0 84.1812 13.3997 1128 137.477 242.418 460.286
1008 0 86.2972 13.5114 1166 150.411 241.813 459.738
1009 0 88.1859 13.5963 1199 148.846 244.132 457.978
1010 0 92.1159 13.6241 1255 145.653 243.743 456.432
1011 0 96.326 13.2882 1280 148.273 245.57 454.587
1012 0 98.2051 13.0543 1282 147.949 241.965 453.392
1013 0 101.271 13.2812 1345 143.932 242.563 452.57
1014 0 104.296 13.4329 1401 149.929 242.886 451.026
1015 0 108.333 13.6708 1481 147.906 242.853 449.165
1016 1 58.0971 11.6701 678 149.54 242.729 471.068
1017 0 60.0479 12.3735 743 147.588 241.455 469.685
1018 0 64.0573 12.4732 799 146.183 239.484 470.667
1019 0 67.1044 12.5029 839 144.132 242.153 468.946
1020 0 68.0506 12.4319 846 147.732 240.567 469.377
1021 0 71.1198 12.6547 900 145.91 241.12 467.441
1022 0 73.1824 12.8719 942 140.294 241.318 466.244
1023 0 76.2425 12.8931 983 139.611 240.217 465.53
1024 0 76.1844 13.1129 999 143.308 242.27 464.6
1025 0 78.1208 13.0055 1016 142.054 241.229 463.247
1026 0 83.1193 12.8971 1072 145.961 241.607 462.208
1027 0 84.1188 12.7795 1075 147.444 242.137 461.321
1028 0 87.1856 13.0526 1138 142.352 243.116 460.17
1029 0 90.2721 13.0273 1176 140.746 241.577 458.885
1030 0 92.3764 13.0553 1206 150.116 243.228 457.961
1031 0 95.2281 13.2314 1260 144.7 240.54 455.65
1032 0 97.2551 13.2949 1293 151.449 240.35 455.295
1033 0 99.1455 13.0314 1292 152.351 243.271 453.512
1034 0 106.261 13.2316 1406 143.129 240.936 450.592
1035 0 109.191 13.3253 1455 147.822 242.524 448.423
1036 0 113.329 13.2358 1500 152.033 240.467 447.301
1037 0 117.37 13.3169 1563 147.926 242.5 444.873
1038 1 62.1637 11.0515 687 146.185 241.926 472.87
1039 0 66.1621 11.8043 781 148.991 240.597 471.396
1040 0 66.2213 12.0354 797 147.487 241.735 470.662
1041 0 69.1038 12.4885 863 146.926 241.73 468.594
1042 0 70.3032 12.4034 872 127.639 242.233 468.55
1043 0 73.2613 12.4076 909 144.756 242.552 467.227
1044 0 77.2494 13.0098 1005 138.793 243.745 466.028
1045 0 79.2064 12.8525 1018 138.283 243.745 464.597
1046 0 81.2528 12.8488 1044 138.937 243.281 463.244
1047 0 84.261 12.8173 1080 136.898 240.793 462.936
1048 0 85.1458 13.0247 1109 142.516 242.358 461.41
1049 0 88.2458 13.0771 1154 136.225 242.951 459.984
1050 0 93.1809 13.0499 1216 133.445 243.334 457.593
1051 0 97.2252 12.7745 1242 139.178 243.364 456.304
1052 0 98.2001 13.2383 1300 136.245 243.834 455.042
1053 0 101.224 12.8526 1301 137.055 243.545 452.337
1054 0 106.322 13.1205 1395 136.518 243.087 451.539
1055 1 59.1107 10.6241 628 145.847 244.715 474.771
1056 0 62.0831 11.4685 712 141.213 244.784 474.111
1057 0 62.0835 12.0322 747 139.06 244.818 473.537
1058 0 65.0423 12.3919 806 139.545 244.16 472.609
1059 0 66.0722 12.3501 816 143.925 241.722 471.103
1060 0 68.0859 12.6752 863 132.906 241.29 470.458
1061 0 70.0523 12.3051 862 138.966 241.278 469.706
1062 0 72.1169 12.5768 907 141.225 242.946 468.899
1063 0 72.0525 13.1154 945 137.429 240.202 467.467
1064 0 76.1128 12.915 983 137.615 242.505 465.817
1065 0 78.3185 13.3813 1048 132.418 241.696 463.809
1066 0 81.1416 13.2731 1077 136.521 242.319 462.773
1067 0 83.0828 13.2278 1099 139.418 243.79 461
1068 0 87.2736 13.0853 1142 135.161 242.85 461.004
1069 0 89.2155 13.2152 1179 138.583 243.958 459.297
1070 0 94.1671 13.4017 1262 138.43 242.691 456.268
1071 0 97.3015 12.9083 1256 141.084 241.764 455.717
1072 0 101.29 13.4465 1362 127.99 241.198 453.526
1073 0 105.158 13.3989 1409 139.612 241.784 452.236
1074 0 108.147 13.3984 1449 140.476 243.055 450.997
1075 1 58.0797 11.6736 678 141.99 242.65 475.476
1076 0 59.1752 12.4376 736 143.16 241.826 473.13
1077 0 60.1429 12.9857 781 146.335 242.685 473.151
1078 0 62.2604 12.6565 788 145.448 242.541 472.702
1079 0 65.0862 13.1057 853 144.646 240.562 471.889
1080 0 68.1522 13.3084 907 135.873 240.308 470.676
1081 0 70.1609 13.2125 927 141.201 241.331 470.176
1082 0 73.1094 13.4319 982 137.909 242.327 468.827
1083 0 74.3128 13.2548 985 134.151 242.625 467.763
1084 0 77.2037 13.4449 1038 140.23 243.6 466.983
1085 0 78.2677 13.5305 1059 137.065 242.795 465.799
1086 0 79.2401 14.0964 1117 142.292 242.035 464.783
1087 0 83.307 13.8044 1150 144.316 241.767 461.918
1088 0 85.1886 13.7929 1175 145.466 244.015 462.356
1089 0 89.4734 14.0824 1260 150.268 242.802 459.847
1090 0 91.1582 14.2609 1300 149.551 243.213 459.148
1091 0 94.2767 13.9059 1311 156.762 241.892 457.925
1092 0 96.4853 14.282 1378 157.132 244.015 455.92
1093 0 102.289 14.3319 1466 154.574 243.634 453.306
1094 0 105.573 13.9619 1474 153.496 242.611 452.864
1095 0 106.279 14.3867 1529 153.848 242.912 450.725
1096 0 111.265 14.1374 1573 153.355 242.15 449.64
1097 1 59.2926 12.7166 754 159.805 241.326 475.385
1098 0 59.1576 13.3372 789 150.733 239.966 475.029
1099 0 61.2503 13.6489 836 156.135 240.604 474.3
1100 0 63.1564 13.7595 869 153.548 241.768 473.189
1101 0 66.3052 13.6038 902 156.528 241.183 472.192
1102 0 65.0726 14.4454 940 154.588 243.643 471.007
1103 0 71.1705 13.559 965 155.03 242.492 469.85
1104 0 72.2334 13.9686 1009 154.17 241.932 469.077
1105 0 74.3012 13.8087 1026 158.465 243.784 468.02
1106 0 77.2653 13.8872 1073 156.284 241.971 466.79
1107 0 78.1303 14.207 1110 152.124 240.891 465.023
1108 0 82.175 14.2866 1174 151.311 239.789 463.517
1109 0 84.1257 13.9315 1172 158.516 241.297 462.487
1110 0 87.0859 14.2847 1244 156.291 241.899 461.42
1111 0 92.2488 13.7346 1267 157.662 241.474 459.792
1112 0 94.1364 14.3515 1351 149.806 241.646 458.34
1113 0 96.069 14.3126 1375 147.099 240.692 457.061
1114 0 99.1923 14.3358 1422 154.258 240.107 455.847
1115 0 102.189 14.3558 1467 154.29 240.346 453.907
1116 0 105.357 14.3417 1511 149.541 242.163 452.026
1117 1 57.139 13.0559 746 152.895 240.72 476.769
1118 0 60.0669 13.4017 805 150.765 240.314 476.007
1119 0 61.1551 13.6048 832 151.075 239.411 474.582
1120 0 65.3452 13.5129 883 154.977 238.801 473.532
1121 0 66.0878 13.936 921 148.814 238.545 472.218
1122 0 70.1343 13.4741 945 150.534 239.171 471.578
1123 0 72.1351 13.8767 1001 148.448 239.558 470.137
1124 0 75.2369 13.7433 1034 152.212 239.465 468.923
1125 0 76.4215 14.2892 1092 152.249 240.746 467.313
1126 0 78.0909 14.0477 1097 150.991 240.484 466.868
1127 0 80.1456 14.3364 1149 155.682 237.982 466.046
1128 0 84.2807 14.0008 1180 154.983 237.664 465.474
1129 0 87.2727 13.7958 1204 159.198 237.775 463.603
1130 0 91.2315 13.9974 1277 154.118 237.297 462.113
1131 0 94.3712 13.9449 1316 154.367 239.837 460.483
1132 0 97.25 14.0463 1366 157.53 238.83 458.946
1133 0 101.236 13.9871 1416 152.554 237.922 457.123
1134 0 103.186 14.2849 1474 156.858 238.858 455.514
1135 0 108.256 13.9854 1514 156.789 241.102 453.476
1136 1 57.1486 13.9111 795 154.78 239.516 478.018
1137 0 60.0945 13.6618 821 161.773 238.487 477.172
1138 0 62.0822 13.8204 858 156.618 238.315 475.107
1139 0 64.0589 14.0808 902 162.569 239.053 474.57
1140 0 66.1047 13.7358 908 160.895 240.972 473.589
1141 0 69.084 13.8817 959 151.823 239.115 471.98
1142 0 72.0579 13.9194 1003 164.045 237.704 470.665
1143 0 71.1505 14.5185 1033 161.889 237.587 470.266
1144 0 75.1061 14.4729 1087 163.762 239.526 468.954
1145 0 79.1954 13.9528 1105 165.485 236.694 468.029
1146 0 80.1387 14.3501 1150 168.689 238.363 467.055
1147 0 84.1277 14.5493 1224 162.007 241.96 465.086
1148 0 87.1725 14.1214 1231 172.543 238.813 463.91
1149 0 91.2078 13.9133 1269 171.518 238.13 462.455
1150 0 93.1382 14.355 1337 171.428 237.228 460.402
1151 0 96.212 14.52 1397 172.135 237.842 458.288
1152 0 99.1402 14.5451 1442 170.697 237.491 457.172
1153 0 103.265 14.2158 1468 167.978 239.89 454.89
1154 0 108.21 14.1854 1535 172.757 237.037 453.079
1155 1 55.1526 14.1788 782 169.1 236.696 478.178
1156 0 57.1368 14.334 819 174.415 237.052 477.12
1157 0 61.1146 13.8101 844 166.411 237.333 475.68
1158 0 61.1535 13.9322 852 169.261 237.475 474.898
1159 0 63.1348 14.4453 912 168.315 235.084 474.1
1160 0 66.1184 14.5043 959 170.177 232.202 472.698
1161 0 69.2076 14.1169 977 169.089 235.694 472.035
1162 0 70.1489 14.398 1010 174.011 235.954 470.821
1163 0 73.1786 14.4988 1061 173.111 234.106 469.551
1164 0 75.0645 14.5741 1094 168.496 236.264 468.978
1165 0 78.2221 14.8679 1163 172.794 234.405 466.999
1166 0 81.1628 14.588 1184 172.73 233.955 465.866
1167 0 83.1461 14.6609 1219 172.176 236.367 465.264
1168 0 87.1028 14.4657 1260 175.767 235.375 463.629
1169 0 91.0702 14.4943 1320 170.721 234.098 462.474
1170 0 93.1535 14.46 1347 167.048 235.488 460.656
1171 0 97.3808 14.3252 1395 169.172 236.452 459.027
1172 0 100.264 14.382 1442 171.543 236.136 457.494
1173 0 106.229 14.0734 1495 170.874 235.639 456.127
1174 1 57.1303 14.1781 810 173.988 236.238 477.886
1175 0 60.2135 14.2327 857 163.89 235.088 476.547
1176 0 60.0729 14.9984 901 166.767 235.759 476.383
1177 0 64.2072 14.4999 931 155.858 236.504 474.75
1178 0 66.118 14.5649 963 157.163 235.568 473.785
1179 0 67.0415 15.0205 1007 159.98 234.001 472.194
1180 0 69.1159 15.2353 1053 154.992 235.558 470.808
1181 0 73.1257 14.8511 1086 157.9 234.168 470.216
1182 0 76.0845 14.5365 1106 144.331 235.977 468.253
1183 0 77.0768 14.985 1155 152.012 234.931 467.799
1184 0 81.1912 14.8784 1208 154.815 236.507 466.263
1185 0 84.0819 14.8546 1249 148.801 236.556 464.324
1186 0 88.2565 14.8771 1313 146.187 235.396 462.933
1187 0 91.0951 15.127 1378 154.372 236.245 460.732
1188 0 94.1132 14.812 1394 156.061 236.956 459.67
1189 0 98.1363 14.969 1469 153.244 236.408 458.12
1190 0 103.231 14.453 1492 155.126 235.006 455.555
1191 0 104.14 14.9894 1561 158.256 236.454 453.761
1192 1 54.1037 15.2854 827 165.035 236.703 477.555
1193 0 56.1226 14.9494 839 162.303 235.729 476.464
1194 0 60.0895 14.7946 889 160.378 236.66 475.97
1195 0 62.255 14.9386 930 162.183 237.245 474.116
1196 0 65.1676 14.6085 952 163.883 236.691 472.768
1197 0 67.1878 15.1069 1015 166.104 235.933 471.742
1198 0 70.0944 14.6517 1027 170.106 237.49 469.928
1199 0 73.3205 14.8117 1086 162.345 238.6 468.659
1200 0 75.2763 14.8254 1116 165.174 240.054 467.992
1201 0 79.1524 14.8069 1172 167.875 238.773 465.873
1202 0 79.1524 14.8069 1172 177.426 237.773 465.873
1203 0 86.1554 14.4971 1249 171.809 237.93 462.878
1204 0 88.2327 14.6318 1291 175.534 237.119 461.521
1205 0 93.2701 14.5277 1355 170.212 239.582 459.035
1206 0 97.1244 14.6513 1423 168.278 237.398 457.5
1207 0 100.208 14.8192 1485 168.092 237.252 455.621
1208 0 104.226 14.766 1539 166.819 238.044 453.249
1209 1 51.1207 13.3801 684 176.136 240.022 479.56
1210 0 52.1572 13.977 729 174.023 240.333 478.148
1211 0 55.2708 13.8228 764 168.355 238.58 477.433
1212 0 56.1362 14.5361 816 166.386 239.641 476.195
1213 0 59.1556 14.6225 865 171.299 237.267 475.409
1214 0 61.2922 14.7817 906 165.577 238.812 474.269
1215 0 62.0962 14.8157 920 169.091 238.449 473.264
1216 0 65.1034 14.8226 965 171.239 239.616 471.949
1217 0 67.1183 14.8097 994 173.412 237.939 471.463
1218 0 69.0595 15.0595 1040 172.194 238.319 469.912
1219 0 70.1122 15.2327 1068 159.167 238.19 468.952
1220 0 74.1022 14.8579 1101 170.429 238.426 468.121
1221 0 77.2046 14.8437 1146 168.199 238.202 467.017
1222 0 79.0864 15.3503 1214 169.155 238.891 465.217
1223 0 81.1015 15.1045 1225 175.318 239.985 464.689
1224 0 86.1047 14.8076 1275 171.583 237.758 462.665
1225 0 89.0743 14.8079 1319 168.844 236.968 460.6
1226 0 91.1094 15.0808 1374 170.301 237.794 459.458
1227 0 94.1003 14.7502 1388 173.89 236.405 458.691
1228 0 96.1915 15.3652 1478 170.494 237.164 457.074
1229 0 99.1553 15.4303 1530 171.279 236.595 455.469
1230 0 104.148 15.0171 1564 168.815 236.924 453.209
1231 0 109.158 15.0699 1645 167.857 238.776 451.609
1232 0 114.133 14.8862 1699 165.333 237.86 450.147
1233 0 116.313 15.0542 1751 169.708 238.511 448.273
1234 1 63.0933 13.1393 829 175.246 238.364 475.186
1235 0 65.1247 13.6047 886 170.907 238.695 474.042
1236 0 67.0402 13.5143 906 171.77 238.649 473.386
1237 0 69.1557 13.607 941 167.187 238.44 472.32
1238 0 73.1132 13.3218 974 172.386 238.428 471.243
1239 0 75.1038 13.8209 1038 173.053 237.784 469.484
1240 0 79.1052 13.5769 1074 167.412 239.649 468.213
1241 0 80.0505 13.9162 1114 164.399 239.872 466.68
1242 0 84.1079 13.768 1158 168.111 239.521 464.878
1243 0 86.2274 13.7311 1184 165.077 238.35 463.825
1244 0 89.1902 13.7347 1225 169.438 237.866 461.866
1245 0 92.1488 13.7929 1271 166.234 237.487 459.857
1246 1 50.0904 11.8186 592 161.497 239.476 482.39
1247 0 53.089 11.622 617 160.692 241.379 481.699
1248 0 55.0436 11.5726 637 150.451 240.692 481.061
1249 0 56.0985 11.4798 644 153.663 240.134 480.503
1250 0 59.0627 11.4285 675 158.394 239.676 479.37
1251 0 60.2774 11.4968 693 148.9 238.659 477.651
1252 0 63.0984 11.3791 718 150.55 241.429 476.631
1253 0 63.2014 11.7561 743 158.977 239.643 475.76
1254 0 66.1593 11.5479 764 154.233 239.3 474.843
1255 0 70.223 11.3068 794 151.402 240.363 472.945
1256 0 72.2478 11.4329 826 155.873 239.142 472.035
1257 0 74.404 11.236 836 151.742 241.032 471.014
1258 0 77.2729 11.6211 898 155.783 242.988 469.223
1259 0 80.3714 11.5464 928 162.31 241.689 468.248
1260 1 45.1548 9.69996 438 146.966 242.053 487.297
1261 0 45.0954 9.93448 448 157.141 242.257 486.362
1262 0 46.0827 10.4161 480 151.527 243.248 486.256
1263 0 46.1071 11.1263 513 150.433 242.756 484.967
1264 0 48.0584 10.9034 524 144.538 242.389 484.782
1265 0 52.1405 10.9128 569 149.522 241.39 483.52
1266 0 51.033 11.0713 565 144.007 240.046 483.405
1267 0 53.0611 10.7423 570 143.219 241.212 483.505
1268 0 55.1233 10.54 581 146.46 241.657 482.902
1269 0 57.1619 10.9863 628 148.357 241.078 481.731
1270 0 58.1644 11.0893 645 148.848 239.997 480.329
1271 0 60.1465 10.7238 645 146.028 242.132 480.338
1272 0 62.1601 10.843 674 149.622 241.647 479.528
1273 0 65.2119 10.7036 698 146.225 241.35 477.865
1274 0 66.294 10.7853 715 144.185 240.354 477.083
1275 0 69.228 11.0504 765 145.796 240.733 475.837
1276 0 71.1817 11.0281 785 148.962 239.558 474.181
1277 0 74.2999 11.2786 838 150.999 240.942 472.882
1278 0 78.3519 11.0655 867 149.111 239.83 471.586
1279 1 41.0532 9.67037 397 151.698 240.028 489.504
1280 0 42.2284 10.0406 424 150.307 239.795 488.828
1281 0 44.1116 10.3147 455 152.033 240.281 487.824
1282 0 44.1302 11.0355 487 144.84 241.949 487.016
1283 0 48.1278 10.6799 514 148.591 241.638 486.506
1284 0 46.0695 10.8749 501 147.683 242.19 485.174
1285 0 50.0667 10.9054 546 148.956 241.687 484.67
1286 0 52.1823 10.9232 570 149.805 238.798 483.079
1287 0 53.1583 11.4752 610 150.736 239.07 482.372
1288 0 54.0552 11.4327 618 152.898 239.691 481.654
1289 0 56.1254 11.4743 644 154.349 239.012 481.174
1290 0 57.0613 11.7067 668 145.448 240.841 480.258
1291 0 58.1111 12.0459 700 154.803 237.769 480.071
1292 0 61.0588 11.9393 729 166.413 237.711 479.167
1293 0 62.1606 12.4516 774 160.916 236.566 478.3
1294 0 65.1173 12.0398 784 165.028 236.781 477.003
1295 0 66.2077 12.5212 829 166.59 236.428 476.884
1296 0 67.1134 12.5757 844 166.287 236.887 476.107
1297 0 69.0993 13.6036 940 168.395 237.79 474.4
1298 0 70.1312 12.7475 894 170.757 237.531 473.744
1299 0 73.1896 12.7614 934 174.161 238.928 473.259
1300 0 73.1815 12.8038 937 169.445 238.587 471.883
1301 0 76.1156 12.9277 984 174.019 239.801 471.406
1302 0 80.1514 12.7134 1019 172.006 238.889 469.816
1303 0 82.208 13.0523 1073 172.897 239.966 467.903
1304 0 84.1235 13.1236 1104 170.624 238.767 466.884
1305 0 86.2203 13.0712 1127 175.528 239.05 465.566
1306 0 89.2696 12.7927 1142 172.123 238.545 463.654
1307 0 91.2736 12.9062 1178 166.22 238.956 462.883
1308 0 95.3511 12.9626 1236 174.833 237.379 461.414
1309 0 98.3665 13.165 1295 171.216 238.239 459.266
1310 0 101.2 12.9941 1315 172.091 238.701 456.351
1311 0 104.515 13.0316 1362 170.893 238.442 457.046
1312 0 107.344 13.2285 1420 170.792 237.893 455.117
1313 1 57.0738 12.37 706 177.164 237.222 479.799
1314 0 59.1008 12.7748 755 172.615 237.611 477.906
1315 0 60.1946 12.7586 768 164.914 238.82 478.755
1316 0 62.3055 13.5783 846 164.043 239.079 477.664
1317 0 64.295 13.1114 843 168.566 239.492 476.845
1318 0 66.1741 13.1471 870 168.901 239.077 475.8
1319 0 68.1568 13.2195 901 161.761 238.816 474.681
1320 0 70.2134 13.2738 932 172.044 237.407 473.912
1321 0 71.1108 13.6126 968 176.482 240.62 472.584
1322 0 74.1607 13.4303 996 176.392 239.361 471.735
1323 0 75.1909 15.4806 1164 162.78 238.39 468.742
1324 0 78.2246 13.832 1082 165.533 239.277 469.07
1325 0 81.1574 13.825 1122 173.959 237.913 468.169
1326 0 84.1557 14.5564 1225 168.538 237.067 466.577
1327 0 85.1864 13.7581 1172 169.544 237.793 465.89
1328 0 88.1647 13.7924 1216 169.663 236.818 465.017
1329 0 92.2365 14.8098 1366 160.993 237.376 461.725
1330 0 94.3083 14.6329 1380 164.264 238.271 460.788
1331 0 98.2064 13.9095 1366 163.582 237.919 460.215
1332 0 100.093 14.047 1406 168.073 238.427 458.939
1333 0 104.136 14.4138 1501 162.485 239.615 456.55
1334 0 106.371 14.0452 1494 162.485 240.085 455.864
1335 1 53.1948 13.0464 694 169.353 238.536 480.533
1336 0 53.1649 14.2387 757 161.517 237.495 479.412
1337 0 57.1453 13.5794 776 153.371 239.249 478.785
1338 0 57.0291 13.7824 786 165.49 239.95 478.084
1339 0 59.1013 14.0099 828 153.308 239.531 477.012
1340 0 62.0572 13.9226 864 152.928 237.441 475.669
1341 0 62.031 14.5572 903 159.351 237.615 474.421
1342 0 65.0477 14.2818 929 156.434 238.787 474.037
1343 0 68.1038 13.9346 949 155.377 239.027 473.157
1344 0 70.0255 14.2662 999 147.998 239.553 471.985
1345 0 73.0384 13.445 982 152.738 239.597 470.793
1346 0 75.1504 13.8655 1042 154.344 237.425 468.84
1347 0 77.0606 13.8722 1069 151.801 238.204 468.08
1348 0 80.1858 13.581 1089 157.697 238.379 466.879
1349 0 83.109 13.9816 1162 144.624 238.5 465.437
1350 0 85.3576 13.7891 1177 153.907 239.435 463.799
1351 1 47.1508 11.6435 549 157.078 240.437 482.497
1352 0 48.0196 12.3075 591 153.289 238.051 482.003
1353 0 49.0383 12.8063 628 147.016 237.379 481.151
1354 0 52.0429 12.5281 652 146.293 237.17 481.011
1355 0 54.041 12.9346 699 145.811 237.046 480.084
1356 0 55.1285 12.5525 692 150.214 236.572 479.728
1357 0 55.1285 12.5525 692 159.4 235.572 479.728
1358 0 58.1396 13.33 775 143.695 237.808 476.813
1359 0 61.1212 12.9578 792 143.696 236.756 475.823
1360 0 63.0426 12.8009 807 141.553 235.147 474.475
1361 0 66.0341 12.7207 840 146.625 237.49 473.465
1362 0 69.0893 12.8819 890 142.925 238.59 472.606
1363 0 69.1775 13.2413 916 145.973 237.596 470.344
1364 0 73.0534 13.1685 962 143.101 236.253 468.774
1365 0 75.1596 13.4514 1011 134.489 237.596 467.321
1366 0 79.1181 13.1449 1040 140.284 237.552 465.862
1367 0 80.1837 13.5314 1085 140.096 237.908 464.7
1368 0 84.1482 12.9177 1087 137.684 238.297 463.448
1369 0 86.1989 12.9816 1119 144.008 237.335 462.307
1370 0 90.1557 12.9332 1166 134.822 237.829 460.538
1371 1 46.1047 10.5629 487 74.9055 235.908 482.472
1372 0 47.1117 10.4857 494 139.761 234.585 482.095
1373 0 50.1504 10.7277 538 138.933 235.387 480.719
1374 0 51.1872 10.6863 547 140.812 236.464 480.362
1375 0 52.0522 11.5845 603 142.891 237.181 478.458
1376 0 53.19 12.4459 662 140.284 237.923 477.332
1377 0 58.1846 12.0479 701 139.94 236.08 476.556
1378 0 59.0634 12.749 753 144.939 235.323 475.052
1379 0 60.1189 12.7913 769 142.533 238.38 475.316
1380 0 63.0446 12.6894 800 136.83 237.756 473.776
1381 0 66.2399 12.9529 858 144.004 238.397 472.703
1382 0 67.1086 13.3813 898 147.095 238.64 471.677
1383 0 71.116 13.1335 934 148.446 237.857 470.948
1384 0 73.2557 13.6508 1000 167.794 237.547 469.76
1385 0 74.1706 13.9678 1036 157.989 235.824 469.249
1386 0 77.3016 13.9454 1078 162.296 236.233 468.352
1387 0 80.2577 13.9052 1116 166.533 236.068 466.385
1388 0 83.3058 13.9606 1163 170.212 236.248 465.856
1389 0 85.3661 14.1743 1210 170.627 237.181 463.936
1390 0 90.226 13.9317 1257 165.85 237.868 462.395
1391 0 92.5095 13.8472 1281 167.117 234.451 461.437
1392 0 96.1948 13.8989 1337 165.576 235.617 459.852
1393 0 98.355 14.1426 1391 164.946 234.889 457.381
1394 0 102.392 13.8585 1419 167.077 234.197 456.256
1395 1 54.2091 12.7654 692 165.312 237.077 480.033
1396 0 54.2091 12.7654 692 168.064 239.077 480.033
1397 0 58.1536 13.172 766 161.076 238.236 478.862
1398 0 61.1958 13.2035 808 167.553 235.651 477.61
1399 0 60.2068 13.5865 818 154.39 236.655 476.857
1400 0 62.3956 13.6708 853 155.469 237.584 475.211
1401 0 67.2188 13.5379 910 161.073 236.684 473.819
1402 0 67.3429 13.706 923 164.185 237.235 473.061
1403 0 70.175 13.2668 931 167.114 238.216 472.462
1404 0 72.1911 13.6166 983 165.182 236.526 471.001
1405 0 74.1769 13.697 1016 163.837 236.72 469.165
1406 0 76.1391 13.7511 1047 168.617 236.215 467.593
1407 0 79.1728 13.8053 1093 164.199 236.485 466.838
1408 0 83.2216 13.8546 1153 159.41 236.517 465.487
1409 0 85.2009 13.744 1171 159.612 237.17 464.329
1410 0 89.1764 13.7256 1224 167.331 236.18 463.055
1411 0 90.3452 13.9797 1263 163.696 235.593 462.705
1412 0 94.2933 13.7337 1295 162.931 235.358 460.978
1413 0 98.2772 13.8282 1359 166.839 235.822 459.579
1414 0 99.2366 13.7752 1367 167.192 235.196 458.718
1415 0 105.139 13.8864 1460 164.799 236.582 456.354
1416 1 55.0437 12.699 699 167.768 236.518 481.093
1417 0 56.0764 13.5886 762 159.525 234.753 479.592
1418 0 58.085 13.4802 783 165.748 238.059 478.682
1419 0 59.1016 13.8406 818 162.611 235.465 478.356
1420 0 62.0515 13.521 839 164.701 236.19 476.504
1421 0 64.1267 13.3798 858 159.182 236.256 475.784
1422 0 66.0493 13.4748 890 168.364 236.058 474.73
1423 0 68.0711 13.6181 927 161.828 236.36 473.584
1424 0 70.0517 13.7042 960 160.891 236.405 472.597
1425 0 73.0492 13.7305 1003 162.554 235.43 471.351
1426 0 76.0478 13.623 1036 161.518 236.175 469.378
1427 0 77.0873 13.9323 1074 158.356 236.445 468.044
1428 0 81.0989 13.428 1089 165.638 236.701 466.658
1429 0 84.1248 13.8009 1161 166.105 235.223 465.916
1430 0 86.1424 14.0349 1209 167.476 235.913 463.615
1431 0 91.0529 13.6844 1246 161.528 237.053 462.575
1432 0 94.1382 14.0963 1327 159.711 237.055 459.793
1433 0 97.4624 14.1798 1382 163.151 237.904 458.457
1434 0 100.519 14.1565 1423 155.186 236.453 456.855
1435 0 106.74 14.1559 1511 159.67 235.779 454.389
1436 1 55.3101 12.8186 709 167.937 236.714 479.271
1437 0 54.2323 13.4422 729 166.927 237.265 478.217
1438 0 57.1316 13.5127 772 160.821 236.356 477.548
1439 0 60.1491 13.5663 816 155.262 235.881 475.17
1440 0 62.1895 13.3624 831 169.12 236.756 474.556
1441 0 65.2456 13.5795 886 169.569 236.946 473.685
1442 0 66.1643 13.9803 925 162.334 236.666 472.72
1443 0 69.3092 13.952 967 162.345 233.831 470.994
1444 0 71.4745 13.8231 988 161.827 237.07 470.592
1445 0 73.4108 13.9761 1026 163.819 237.416 469.015
1446 0 74.2528 14.3429 1065 165.01 235.1 467.533
1447 0 79.5252 13.8195 1099 164.723 234.662 466.712
1448 0 80.271 13.9029 1116 159.609 235.434 464.586
1449 0 84.3673 14.022 1183 165.112 234.669 463.489
1450 0 86.3258 13.9587 1205 161.549 235.817 462.283
1451 0 89.2617 14.1494 1263 166.318 237.888 461.016
1452 0 92.413 14.1863 1311 168.746 237.277 459.541
1453 0 94.4964 14.318 1353 161.39 236.102 458.262
1454 0 99.3108 14.359 1426 164.015 237.472 455.778
1455 0 102.466 14.1218 1447 164.744 236.254 454.793
1456 0 105.205 13.8871 1461 163.322 236.822 452.773
1457 0 109.719 13.9629 1532 155.317 236.691 450.759
1458 1 57.3285 12.8557 737 160.091 236.129 477.495
1459 0 60.2125 12.9541 780 158.832 237.358 477.474
1460 0 62.132 13.1494 817 161.381 235.938 476.827
1461 0 64.0973 13.4951 865 154.251 236.898 475.328
1462 0 66.1881 13.5372 896 161.038 235.337 473.86
1463 0 70.125 13.2335 928 153.183 236.256 472.235
1464 0 73.1636 13.4493 984 157.167 235.2 471.297
1465 0 75.1621 13.4775 1013 154.965 237.057 469.977
1466 0 77.2184 13.4035 1035 158.228 237.85 467.598
1467 0 79.2541 13.9677 1107 154.458 235.439 466.51
1468 0 82.321 13.909 1145 158.9 235.507 464.999
1469 0 84.2543 13.7322 1157 159.287 235.895 462.933
1470 0 88.3816 14.3129 1265 148.436 235.846 461.14
1471 0 91.3866 13.8642 1267 159.83 236.436 459.811
1472 0 95.3528 13.7594 1312 161.001 234.729 458.905
1473 0 98.3865 13.5893 1337 156.591 236.587 457.337
1474 1 49.2934 12.3343 608 159.257 237.25 480.031
1475 0 50.2177 13.1428 660 170.664 236.882 479.476
1476 0 53.1606 13.0172 692 167.481 236.821 479.079
1477 0 55.3952 13.0878 725 163.964 236.299 478.848
1478 0 56.3156 12.9094 727 161.681 237.541 478.381
1479 0 57.0998 12.9773 741 165.896 237.012 477.387
1480 0 60.389 13.2806 802 164.996 236.852 476.848
1481 0 60.1415 14.017 843 169.491 237.093 475.792
1482 0 62.2231 13.9659 869 168.082 236.366 475.574
1483 0 64.334 13.6475 878 168.353 234.703 474.655
1484 0 68.3134 13.5552 926 166.671 235.635 473.694
1485 0 69.2295 13.4191 929 162.606 234.468 471.907
1486 0 71.2217 13.6897 975 168.989 237.405 471.609
1487 0 75.1669 13.8093 1038 170.179 236.001 470.53
1488 0 78.164 13.8171 1080 168.604 237.408 469.358
1489 0 81.2552 13.796 1121 163.696 237.351 468.246
1490 0 82.1496 13.9258 1144 163.389 235.979 467.086
1491 0 82.1496 13.9258 1144 175.955 234.979 467.086
1492 0 88.1911 13.9697 1232 165.509 235.885 463.939
1493 0 92.1075 13.9294 1283 160.82 235.122 462.311
1494 0 95.074 13.9891 1330 167.657 236.656 460.553
1495 0 100.093 14.1269 1414 166.883 237.377 459.495
1496 1 49.0707 12.3088 604 171.978 237.219 481.517
1497 0 52.0787 12.6155 657 170.234 236.476 480.376
1498 0 54.1428 12.6148 683 166.098 236.483 479.394
1499 0 56.1406 12.7537 716 165.211 236.489 479.113
1500 0 57.0366 12.7988 730 166.76 235.245 478.842
1501 0 59.1721 12.8101 758 175.515 236.83 477.992
1502 0 61.0972 13.012 795 169.844 236.882 476.723
1503 0 63.0649 13.0659 824 171.414 234.886 476.267
1504 0 63.104 13.2638 837 172.72 237.259 475.032
1505 0 67.0803 13.5509 909 174.127 235.777 473.868
1506 0 69.244 13.4597 932 173.652 237.387 473.241
1507 0 70.0703 13.515 947 168.545 236.131 471.699
1508 0 74.0546 13.1254 972 170.457 234.619 470.083
1509 0 76.1356 13.4891 1027 164.75 236.524 468.864
1510 0 80.0776 13.3246 1067 166.785 237.909 467.095
1511 0 81.0991 13.65 1107 161.664 236.507 465.927
1512 0 81.0991 13.65 1107 177.629 235.507 465.927
1513 0 86.1147 13.3078 1146 164.853 235.541 463.355
1514 1 44.0365 11.1044 489 160.252 236.734 485.127
1515 0 45.037 11.6571 525 161.107 238.023 484.261
1516 0 55.102 12.0141 662 154.06 232.755 479.625
1517 0 57.0706 11.9326 681 153.789 235.7 479.769
1518 0 58.0803 11.9662 695 148.976 235.835 479.112
1519 0 60.1152 12.0768 726 147.649 235.025 478.391
1520 0 62.1422 12.0852 751 147.712 235.965 477.796
1521 0 64.1244 12.3822 794 150.579 235.324 476.906
1522 0 66.0944 12.1342 802 148.388 237.433 476.392
1523 0 67.0532 12.1993 818 147.331 235.3 475.15
1524 1 35.0422 9.16037 321 145.053 235.586 491.47
1525 0 36.0224 9.52184 343 148.542 235.42 491.373
1526 0 37.0788 9.9248 368 147.25 234.378 490.864
1527 0 39.059 10.3945 406 143.18 235.704 489.82
1528 0 41.206 10.9207 450 144.967 236.078 489.173
1529 0 41.1954 11.5061 474 143.108 235.276 488.359
1530 0 43.1365 11.2202 484 142.2 236.295 488.25
1531 0 44.1932 11.4271 505 131.493 236.434 487.046
1532 0 46.0792 11.6104 535 142.497 235.204 486.763
1533 0 46.1208 11.9252 550 144.944 235.595 486.12
1534 0 48.3021 11.4281 552 145.806 234.822 485.596
1535 0 50.1631 11.2234 563 147.448 233.499 485.792
1536 0 51.0896 11.6854 597 143.831 234.633 484.049
1537 0 54.1511 11.4864 622 145.289 236.193 483.624
1538 0 55.1758 11.563 638 145.122 234.765 482.929
1539 0 54.1803 11.9416 647 141.949 237.835 483.066
1540 0 58.1063 11.9264 693 143.86 236.416 481.657
1541 0 58.1135 11.9766 696 144.453 235.921 480.734
1542 0 62.1766 11.6282 723 143.448 235.516 479.902
1543 0 64.1067 11.8084 757 141.143 235.248 477.919
1544 0 66.1247 11.5691 765 139.072 235.171 476.705
1545 0 70.1042 11.9536 838 137.943 236.613 474.714
1546 0 70.1068 12.3811 868 139.457 232.195 473.976
1547 0 75.1437 12.0968 909 143.271 234.205 472.989
1548 0 75.1238 12.1133 910 144.682 234.687 472.221
1549 1 40.0935 10.2012 409 147.807 233.795 489.885
1550 0 41.0488 9.8663 405 145.738 236.378 489.462
1551 0 43.2141 10.7372 464 142.526 235.095 488.144
1552 0 43.0635 11.3785 490 145.21 235.729 487.471
1553 0 45.0814 11.6456 525 148.31 233.541 486.299
1554 0 45.1746 11.8429 535 134.037 234.957 486.131
1555 0 46.082 11.8702 547 142.366 235.914 485.205
1556 0 50.1927 11.8344 594 141.062 233.15 484.074
1557 0 52.1787 11.6714 609 140.701 234.018 483.415
1558 0 53.1357 12.1011 643 134.499 234.956 482.734
1559 0 55.1032 12.159 670 135.757 236.249 481.494
1560 0 56.1154 12.0822 678 146.301 235.953 482.093
1561 0 57.0899 12.4365 710 140.013 234.959 480.842
1562 0 58.0774 12.6211 733 149.46 233.318 479.9
1563 0 62.0885 12.7077 789 142.094 235.229 478.814
1564 0 62.1109 12.9285 803 145.94 235.824 478.4
1565 0 65.088 12.9978 846 148.374 236.21 477.557
1566 0 68.1099 12.6413 861 147.009 235.265 476.439
1567 0 71.0847 12.7313 905 152.508 233.905 474.788
1568 0 73.0682 12.9057 943 156.993 234.286 474.357
1569 0 75.082 12.9991 976 151.315 237.495 472.846
1570 0 79.1201 13.3215 1054 149.148 236.798 471.384
1571 0 81.1447 13.0508 1059 154.489 237.625 470.673
1572 0 84.0482 13.1353 1104 158.186 236.649 468.821
1573 0 88.0962 12.9631 1142 157.499 234.181 468.036
1574 0 90.0629 13.0686 1177 153.254 234.494 466.188
1575 1 45.2499 11.6685 528 153.502 234.538 488.208
1576 0 47.0613 12.0694 568 146.025 234.347 486.928
1577 0 49.27 11.8734 585 152.583 233.128 486.482
1578 0 52.0471 12.2005 635 153.137 234.69 485.101
1579 0 54.2084 12.249 664 152.212 234.634 484.483
1580 0 55.192 12.5743 694 152.559 234.797 483.803
1581 0 57.1441 12.3897 708 150.798 235.417 482.609
1582 0 57.1543 12.51 715 151.664 235.892 482.043
1583 0 60.1707 12.0989 728 154.805 232.951 481.507
1584 0 63.1486 12.6052 796 151.206 234.072 480.41
1585 0 65.2219 12.4038 809 150.602 234.569 478.815
1586 0 65.1722 12.7048 828 152.989 233.597 478.22
1587 0 67.1251 12.7821 858 151.248 234.049 476.467
1588 0 71.1307 12.6668 901 145.844 233.885 475.28
1589 0 73.2059 12.7039 930 52.8419 233.9 473.944
1590 0 75.1891 12.9008 970 150.928 234.193 472.372
1591 0 80.2499 12.6604 1016 151.71 234.838 471.612
1592 0 81.2442 12.9732 1054 154.857 235.148 469.639
1593 0 86.2642 12.5544 1083 151.842 234.273 469.04
1594 0 89.3028 12.3064 1099 151.352 235.038 467.903
1595 1 47.059 11.6662 549 154.987 235.505 487.998
1596 0 46.1478 12.3299 569 151.288 235.032 487.049
1597 0 49.2558 11.9783 590 150.853 235.046 485.866
1598 0 49.2378 12.8763 634 155.549 236.442 485.577
1599 0 50.2065 12.4685 626 149.537 236.717 485.813
1600 0 52.1845 12.0151 627 152.482 233.941 485.44
1601 0 53.1805 12.4858 664 151.018 234.732 484.191
1602 0 54.0948 12.3857 670 153.566 235.539 484.245
1603 0 57.1427 12.425 710 147.213 234.676 482.113
1604 0 59.1001 12.5211 740 154.007 235.599 480.905
1605 0 59.373 12.7162 755 155.576 234.225 480.579
1606 0 62.241 12.7569 794 156.673 234.252 479.815
1607 0 64.1265 13.1303 842 153.861 236.716 478.836
1608 0 66.2833 13.1255 870 151.887 235.876 477.388
1609 0 69.1337 13.0906 905 153.824 235.657 476.293
1610 0 71.2589 13.2054 941 146.519 235.255 475.13
1611 0 73.1966 13.3476 977 153.872 233.096 473.484
1612 0 74.1214 13.4914 1000 155.234 234.576 472.674
1613 0 79.3343 12.9578 1028 160.332 234.766 470.697
1614 0 80.3443 13.2554 1065 161.998 234.578 469.112
1615 0 82.3388 13.6631 1125 160.164 233.479 466.621
1616 0 82.3388 13.6631 1125 169.715 232.479 466.621
1617 0 89.5161 13.573 1215 157.745 234.554 462.967
1618 1 47.528 11.8457 563 168.064 234.538 483.224
1619 0 50.421 12.3163 621 165.441 234.738 481.554
1620 0 50.3505 12.9095 650 159.678 236.822 478.617
1621 0 52.269 12.9522 677 159.064 236.975 471.904
1622 0 53.1152 13.2354 703 154.771 235.009 471.579
1623 0 56.3623 12.9519 730 154.266 234.981 472.266
1624 0 57.3446 13.0963 751 151.767 235.976 475.169
1625 0 59.3145 13.2851 788 149.83 235.5 473.877
1626 0 61.2332 13.4731 825 153.036 235.445 472.687
1627 0 64.287 14.0153 901 146.077 235.088 470.759
1628 0 64.2932 13.9206 895 155.066 235.885 474.032
1629 0 64.2939 14.216 914 157.617 236.014 473.102
1630 0 70.4675 13.2685 935 161.422 234.723 470.029
1631 0 71.3517 13.903 992 160.617 235.46 472.072
1632 0 75.2075 13.4428 1011 161.698 235.194 469.823
1633 0 76.1617 13.9309 1061 158.664 236.744 470.214
1634 0 79.2543 13.8668 1099 156.263 237.838 468.745
1635 0 79.2828 14.114 1119 162.617 236.27 468.236
1636 0 84.2078 13.5854 1144 163.603 235.606 465.524
1637 0 87.2831 13.5994 1187 161.86 234.951 465.176
1638 0 90.068 13.6342 1228 168.335 234.59 463.58
1639 1 48.1972 12.4281 599 163.728 235.746 484.28
1640 0 48.0277 13.3256 640 158.159 237.234 482.805
1641 0 52.131 12.3343 643 155.886 236.681 483.529
1642 0 52.2061 12.8529 671 153.085 236.469 482.697
1643 0 54.0861 12.9608 701 159.174 236.586 481.104
1644 0 55.0743 13.1277 723 154.682 236.682 479.793
1645 0 57.2368 12.9462 741 159.615 236.846 479.596
1646 0 59.1124 13.0768 773 150.208 237.367 475.957
1647 0 59.1938 13.6839 810 153.528 235.675 476.002
1648 0 64.2767 12.6951 816 156.985 237.373 474.551
1649 0 65.2625 13.1929 861 156.254 236.79 473.468
1650 0 67.3609 13.3757 901 154.589 236.785 472.2
1651 0 69.2245 13.319 922 154.431 237.862 470.056
1652 0 70.2935 13.7566 967 149.909 235.957 468.83
1653 0 75.4341 13.4024 1011 149.603 236.02 467.782
1654 0 75.2801 13.8948 1046 153.626 236.267 466.649
1655 0 80.3638 13.2522 1065 151.66 235.948 466.147
1656 0 83.239 13.3231 1109 151.166 235.5 464.863
1657 0 85.3512 13.5792 1159 151.406 237.299 463.885
1658 0 89.3468 13.3189 1190 150.297 236.184 462.46
1659 1 46.0988 11.7357 541 149.858 235.871 484.203
1660 0 47.1347 11.7536 554 65.9729 234.722 483.365
1661 0 49.1106 12.4006 609 147.028 234.803 481.916
1662 0 51.3105 12.4926 641 142.738 234.278 480.643
1663 0 53.0735 12.5675 667 149.159 232.745 480.492
1664 0 53.0934 12.9206 686 144.345 233.815 479.883
1665 0 57.1449 12.2146 698 147.001 234.736 479.312
1666 0 56.128 13.2376 743 145.318 234.515 477.81
1667 0 59.144 12.7486 754 149.59 232.382 477.552
1668 0 59.1189 13.0246 770 149.055 234.717 476.656
1669 0 61.1257 13.4804 824 150.704 234.268 475.89
1670 0 63.0824 13.3318 841 151.937 235.793 474.729
1671 0 67.2156 12.8542 864 146.251 235.238 473.921
1672 0 67.243 13.2951 894 147.2 234.969 472.914
1673 0 69.1377 13.3502 923 152.009 235.732 472.004
1674 0 73.3653 13.3987 983 151.878 234.886 470.744
1675 0 76.3375 13.27 1013 151.349 232.728 470.308
1676 0 77.4288 13.6383 1056 159.787 234.654 470.664
1677 0 81.3944 13.5636 1104 158.293 234.198 468.966
1678 0 84.4378 13.3826 1130 154.102 234.597 468.027
1679 0 88.3064 13.4871 1191 155.431 238.278 466.891
1680 0 91.241 13.4589 1228 155.486 236.075 465.034
1681 0 93.1739 13.5124 1259 160.874 236.92 464.363
1682 0 97.1666 13.801 1341 158.319 234.919 462.152
1683 1 48.0436 13.1131 630 154.937 236.356 486.2
1684 0 47.0982 13.4825 635 153.099 236.106 486.12
1685 0 49.1673 13.6879 673 149.871 237.033 485.272
1686 0 52.1137 12.8757 671 151.225 236.703 484.858
1687 0 52.0798 13.9594 727 149.457 235.385 484.011
1688 0 57.2252 13.543 775 135.965 235.045 483.075
1689 0 59.2635 13.4653 798 150.059 236.355 481.82
1690 0 60.1561 13.5148 813 152.331 235.95 481.059
1691 0 60.136 13.6524 821 154.814 237.44 480.208
1692 0 62.1811 13.9753 869 148.208 235.32 479.062
1693 0 67.1245 13.3334 895 154.041 236.558 478.134
1694 0 68.1601 13.747 937 151.589 235.617 476.774
1695 0 71.2438 13.9661 995 150.297 236.684 474.791
1696 0 74.3488 13.6788 1017 153.493 237.407 473.885
1697 0 73.3147 13.8035 1012 154.088 237.486 473.075
1698 0 76.3091 13.9302 1063 155.132 237.325 471.427
1699 0 81.555 13.7821 1124 146.182 236.529 469.22
1700 0 81.4096 13.9418 1135 155.885 237.283 467.757
1701 0 85.4781 13.9217 1190 153.145 236.813 466.739
1702 0 88.5942 13.7819 1221 153.341 234.682 465.64
1703 0 92.5237 14.2126 1315 146.165 236.17 463.013
1704 0 96.7022 13.7122 1326 153.541 236.447 462.19
1705 1 50.5118 12.4327 628 161.008 238.209 483.422
1706 0 54.2625 13.103 711 156.556 238.039 482.2
1707 0 56.2873 13.1824 742 158.617 234.805 481.531
1708 0 58.4632 13.4444 786 162.659 236.962 480.094
1709 0 58.2268 13.6878 797 155.501 235.695 479.917
1710 0 61.1823 13.7295 840 157.139 235.919 478.375
1711 0 64.2274 13.53 869 154.448 236.208 477.308
1712 0 66.2537 13.6294 903 155.838 237.767 476.302
1713 0 68.2837 13.8979 949 154.467 236.737 475.063
1714 0 69.463 14.0075 973 153.732 236.59 474.378
1715 0 73.414 13.4579 988 157.056 235.417 473.853
1716 0 76.4433 13.6179 1041 156.426 234.88 471.298
1717 0 79.5614 13.7127 1091 154.387 235.236 470.249
1718 0 81.4712 13.6613 1113 155.303 235.754 469.292
1719 0 85.3297 13.7701 1175 153.251 237.077 467.683
1720 0 86.2463 13.9948 1207 157.327 235.988 465.779
1721 0 91.1726 13.7103 1250 157.813 236.573 464.858
1722 1 44.064 12.5499 553 158.805 235.761 487.134
1723 0 45.1423 12.8261 579 149.259 237.501 486.149
1724 0 48.0414 13.1761 633 156.229 236.284 485.289
1725 0 50.1555 12.8201 643 156.504 237.706 485.146
1726 0 51.1594 13.1159 671 159.671 235.124 484.292
1727 0 53.1695 13.1654 700 157.174 235.983 483.596
1728 0 55.1364 13.4757 743 158.925 236.935 483.067
1729 0 56.2051 13.3618 751 164.362 236.698 481.844
1730 0 59.231 13.3714 792 159.069 235.509 481.107
1731 0 62.1432 13.3401 829 157.183 235.192 480.176
1732 0 61.4934 13.6275 838 160.569 236.874 479.253
1733 0 63.4095 13.6888 868 159.627 235.972 478.377
1734 0 66.3276 13.6595 906 160.511 233.332 477.251
1735 0 68.5554 13.9449 956 157.314 234.751 475.529
1736 0 72.3354 13.6586 988 159.988 235.961 473.376
1737 0 74.3451 13.8139 1027 159.683 235.726 472.27
1738 0 75.2112 14.1468 1064 159.44 234.706 471.366
1739 0 80.3052 13.7476 1104 160.372 234.775 469.608
1740 0 84.3722 13.8553 1169 162.918 235.851 466.918
1741 0 87.2408 13.6748 1193 158.398 235.968 466.707
1742 0 89.3669 13.9537 1247 162.639 235.448 464.531
1743 0 93.3924 13.4915 1260 164.109 236.172 462.06
1744 1 49.2713 11.7918 581 165.532 237.15 483.88
1745 0 52.3788 12.5432 657 162.563 236.624 482.865
1746 0 53.1892 12.653 673 157.914 235.684 482.764
1747 0 54.1226 13.0629 707 159.426 236.683 482.559
1748 0 55.0763 12.8549 708 157.669 234.355 482.17
1749 0 58.079 13.1201 762 159.134 235.424 480.766
1750 0 60.0603 13.1701 791 162.742 236.288 479.893
1751 0 63.1198 12.8011 808 167.399 235.441 479.197
1752 0 65.1271 12.775 832 165.429 236.345 478.423
1753 0 66.1586 13.12 868 169.63 235.902 476.851
1754 0 68.158 13.6448 930 158.083 234.719 475.552
1755 0 71.1845 13.7108 976 161.621 234.648 474.293
1756 0 72.2252 13.5825 981 163.853 236.281 473.655
1757 0 76.3509 13.6082 1039 163.114 236.628 472.12
1758 0 78.33 13.6346 1068 169.265 235.377 471.298
1759 0 81.2595 13.5123 1098 164.592 234.998 470.23
1760 0 83.1703 13.5625 1128 162.581 234.314 468.622
1761 0 88.3028 13.5896 1200 165.903 235.281 466.722
1762 0 90.2441 13.4635 1215 159.999 235.291 464.348
1763 0 92.2469 13.6048 1255 162.253 234.202 463.292
1764 1 48.1583 11.6076 559 157.1 235.878 486.055
1765 0 51.2637 11.4701 588 161.345 235.679 485.653
1766 0 52.055 12.1986 635 160.176 234.813 483.702
1767 0 52.0915 12.6508 659 160.572 234.731 482.906
1768 0 55.2027 12.2458 676 157.595 234.756 482.08
1769 0 57.1878 12.7475 729 158.17 235.889 481.177
1770 0 60.0797 12.4501 748 164.429 237.108 479.715
1771 0 61.3176 12.737 781 161.703 235.099 478.323
1772 0 63.1806 12.8837 814 166.151 235.158 477.635
1773 0 66.1396 12.9574 857 166.649 235.964 476.709
1774 0 65.2803 13.3118 869 165.672 236.04 476.094
1775 0 70.2802 13.0193 915 168.444 235.999 474.6
1776 0 73.2007 13.1693 964 160.828 236.272 472.745
1777 0 74.442 12.8825 959 155.809 236.365 471.127
1778 0 76.2306 13.2099 1007 160.93 234.942 469.613
1779 0 80.4295 13.403 1078 162.514 233.636 466.917
1780 0 83.396 12.9862 1083 169.729 235.018 467.064
1781 0 86.5808 13.5018 1169 159.475 233.829 462.79
1782 0 87.4614 13.3202 1165 168.803 234.927 463.402
1783 0 90.4597 13.343 1207 164.015 234.858 460.381
1784 0 93.3904 13.1277 1226 156.216 234.17 459.745
1785 0 96.672 13.3648 1292 158.565 234.799 457.577
1786 1 49.3367 11.2695 556 160.257 234.808 482.318
1787 0 51.2664 11.2939 579 154.763 235.66 481.525
1788 0 52.3931 11.7 613 152.44 235.954 481.812
1789 0 50.3874 12.3245 621 155.216 234.971 479.203
1790 0 54.2956 12.0084 652 158.252 237.044 478.192
1791 0 54.1453 12.2818 665 157.335 235.541 477.248
1792 0 56.3086 12.4137 699 157.149 235.216 476.801
1793 0 56.5256 12.5076 707 151.396 236.369 475.976
1794 0 59.0902 12.794 756 153.84 234.866 474.746
1795 0 60.2661 12.8099 772 155.975 235.18 473.543
1796 0 64.2889 12.926 831 151.483 235.807 472.487
1797 0 64.3243 12.8101 824 156.384 234.527 470.352
1798 0 67.3243 13.0265 877 154.985 236.266 469.089
1799 0 69.3348 13.0959 908 157.175 235.182 467.576
1800 0 72.3364 13.2575 959 158.725 234.367 466.762
1801 0 75.259 13.1413 989 157.05 232.414 465.271
1802 0 78.2678 13.1855 1032 154.432 235.79 464.508
1803 0 81.3032 13.0868 1064 161.462 234.623 463.326
1804 0 82.2299 13.0609 1074 152.555 234.775 461.685
1805 0 87.3902 12.9305 1130 158.92 232.936 460.069
1806 0 90.2995 13.1451 1187 154.382 233.748 458.449
1807 1 45.163 10.4732 473 151.22 236.032 483.214
1808 0 46.1339 11.3149 522 158.847 234.784 482.306
1809 0 51.2588 11.9394 612 149.588 235.992 484.918
1810 0 50.0534 12.0471 603 154.859 237.444 484.106
1811 0 52.1407 11.8142 616 158.782 235.503 483.956
1812 0 54.0794 12.0194 650 155.168 238.375 483.06
1813 0 54.1877 12.3275 668 158.238 236.903 482.814
1814 0 56.1862 12.1382 682 156.43 236.022 481.858
1815 0 56.1771 12.8878 724 158.653 236.699 481.047
1816 0 60.195 12.8084 771 154.786 236.711 479.331
1817 0 62.2058 12.6355 786 160.17 236.76 479.106
1818 0 64.2038 12.7563 819 157.201 237.562 477.928
1819 0 67.1033 12.4435 835 156.929 237.134 477.342
1820 0 69.1929 13.0505 903 157.569 236.295 475.857
1821 0 70.1505 13.1717 924 160.974 236.465 474.378
1822 0 71.1708 13.4184 955 165.711 237.426 474.054
1823 0 75.1578 12.9328 972 164.213 237.599 472.404
1824 0 78.2402 12.8578 1006 161.647 235.769 471.297
1825 0 80.1867 13.2566 1063 158.099 237.943 469.75
1826 0 80.2858 13.2278 1062 165.289 237.056 468.807
1827 0 84.245 12.6773 1068 164.549 235.922 467.512
1828 1 45.0385 10.8796 490 155.529 235.178 486.584
1829 0 45.0353 11.4133 514 152.426 235.903 486.638
1830 0 46.0387 11.903 548 158.878 236.126 486.148
1831 0 49.1676 11.2472 553 155.951 235.799 485.633
1832 0 49.0531 11.6812 573 162.372 234.7 485.422
1833 0 49.0965 12.3227 605 152.846 236.749 483.691
1834 0 51.1022 11.9564 611 152.66 236.005 484.358
1835 0 53.0828 12.0943 642 155.132 235.935 483.153
1836 0 54.0936 12.2196 661 161.489 236.793 482.575
1837 0 56.0378 12.3488 692 143.344 236.879 481.458
1838 0 56.1628 13.1226 737 160.809 236.483 481.29
1839 0 58.2487 12.6527 737 161.44 234.079 479.904
1840 0 61.1494 12.494 764 158.149 235.95 478.694
1841 0 62.101 12.9628 805 163.01 235.429 477.646
1842 0 64.0545 12.9733 831 165.937 234.206 477.422
1843 0 67.0367 12.7691 856 165.119 234.924 475.727
1844 0 69.1771 12.8366 888 169.093 234.342 474.053
1845 0 70.2639 13.0508 917 163.828 236.19 473.475
1846 0 72.2178 13.0577 943 162.488 235.653 472.538
1847 0 75.216 13.1488 989 159.725 235.417 470.808
1848 0 77.1985 13.407 1035 162.045 237.328 470.189
1849 0 80.2612 12.7584 1024 161.49 236.025 469.754
1850 0 83.2006 13.1369 1093 163.829 236.489 468.018
1851 0 85.3221 13.0916 1117 159.987 234.381 466.693
1852 1 45.2403 11.4942 520 161.31 233.779 483.788
1853 0 46.3419 11.9978 556 158.739 233.225 483.509
1854 0 47.1931 12.0145 567 159.268 234.065 485.519
1855 0 49.2082 12.2337 602 151.786 234.6 484.159
1856 0 51.1164 12.1292 620 160.553 236.145 484.353
1857 0 53.269 12.1647 648 151.404 233.21 483.341
1858 0 54.2341 11.8929 645 161.293 233.856 482.495
1859 0 57.2702 12.2926 704 158.217 233.882 482.054
1860 0 56.171 12.8892 724 155.613 233.461 480.917
1861 0 59.1211 12.7196 752 158.507 233.815 480.164
1862 0 59.181 13.0109 770 160.596 233.788 479.023
1863 0 62.1992 12.6207 785 159.534 236.073 478.457
1864 0 62.1479 13.0978 814 163.022 235.87 477.537
1865 0 66.1294 12.7175 841 155.402 234.051 475.883
1866 0 68.1444 12.9871 885 162.739 235.368 474.928
1867 0 71.1557 12.8451 914 162.838 234.756 474.115
1868 0 72.2064 12.7967 924 161.62 233.749 472.664
1869 0 74.1226 12.992 963 159.965 234.729 472.11
1870 0 78.0586 13.0415 1018 161.651 234.889 470.927
1871 0 79.1247 13.0048 1029 164.031 235.341 469.392
1872 0 82.1091 13.0314 1070 156.333 235.607 467.784
1873 0 87.0866 12.9641 1129 160.701 234.517 466.556
1874 0 89.1459 13.3377 1189 158.162 234.966 465.612
1875 0 91.1095 12.9185 1177 157.881 234.031 463.678
1876 0 93.0909 12.9014 1201 163.745 234.421 461.845
1877 1 49.0699 11.4327 561 156.316 234.822 483.472
1878 0 52.0279 11.9743 623 154.21 236.891 483.681
1879 0 52.1616 12.1545 634 145.972 237.532 483.58
1880 0 54.2329 12.0591 654 154.976 237.177 483.457
1881 0 54.135 12.4504 674 150.007 236.455 482.013
1882 0 56.2186 12.5581 706 150.296 238.144 481.234
1883 0 59.1793 12.8423 760 151.142 237.536 480.957
1884 0 58.166 12.4471 724 154.533 236.992 479.843
1885 0 61.2409 12.7366 780 151.799 234.559 478.924
1886 0 64.1257 12.9433 830 146.051 236.822 478.014
1887 0 64.2678 12.7435 819 145.407 236.763 476.534
1888 0 68.1922 12.7434 869 141.885 236.573 476.484
1889 0 70.191 12.7367 894 138.886 236.755 474.784
1890 0 71.199 13.0198 927 145.625 236.901 473.615
1891 0 72.1694 13.3159 961 142.119 236.356 472.739
1892 0 76.2838 12.5977 961 142.012 236.973 471.909
1893 0 78.4446 12.7351 999 144.433 236.405 470.326
1894 0 81.2007 12.6969 1031 143.779 235.754 468.767
1895 0 82.1782 13.0205 1070 147.303 234.568 467.474
1896 0 84.1451 12.6211 1062 144.564 235.711 466.018
1897 0 89.1769 12.3238 1099 143.305 235.141 464.485
1898 0 92.3627 12.386 1144 144.725 236.591 462.913
1899 1 49.188 9.33154 459 138.15 237.035 485.037
1900 0 50.1492 9.93038 498 147.713 235.227 483.884
1901 0 52.2181 10.6285 555 130.595 236.674 482.391
1902 0 55.4027 11.3352 628 136.29 236.944 480.608
1903 0 56.0914 11.9091 668 138.976 236.784 480.141
1904 0 57.2982 11.6234 666 136.796 235.135 479.422
1905 0 60.1426 11.7887 709 138.654 235.946 478.554
1906 0 62.353 12.1245 756 142.206 235.72 477.696
1907 0 63.2903 12.4348 787 139.391 237.765 475.976
1908 0 66.282 12.0998 802 139.814 235.894 474.651
1909 0 68.4241 12.4664 853 142.836 236.601 473.224
1910 0 71.2644 12.5308 893 143.088 236.946 472.674
1911 0 73.2762 12.2959 901 139.968 235.401 471.857
1912 0 74.3049 12.6237 938 141.157 234.875 470.736
1913 0 78.2733 12.6863 993 142.359 236.549 469.373
1914 0 82.3488 12.0585 993 147.979 237.757 468.18
1915 0 85.1467 12.3904 1055 144.891 234.311 466.622
1916 1 44.0687 10.5517 465 145.477 234.959 486.925
1917 0 45.3174 9.99617 453 147.305 235.243 486.294
1918 0 45.1139 10.9944 496 146.575 237.343 486.183
1919 0 48.0834 11.2513 541 143.259 235.53 484.823
1920 0 46.1144 11.4498 528 139.905 234.114 485.295
1921 0 48.219 11.3441 547 143.605 235.048 484.814
1922 0 49.1111 11.0769 544 140.3 235.101 483.682
1923 0 50.0907 11.2196 562 148.24 234.486 483.653
1924 0 53.1493 11.5147 612 148.979 235.1 483.01
1925 0 53.1253 11.727 623 49.8925 238.7 482.185
1926 0 56.0731 11.9487 670 148.607 238.11 481.64
1927 0 54.0706 12.4467 673 147.152 235.918 480.979
1928 0 57.0959 11.9448 682 145.177 234.362 479.908
1929 0 59.1038 12.5204 740 154.064 235.358 479.505
1930 0 62.1277 12.2168 759 149.56 235.801 477.98
1931 0 63.1421 12.6065 796 141.251 235.455 477.377
1932 0 68.125 12.1688 829 144.859 234.955 475.662
1933 0 67.1254 12.4841 838 142.029 236.187 474.728
1934 0 71.2047 12.2745 874 151.648 236.051 473.662
1935 0 74.3459 11.8769 883 143.29 234.857 471.455
1936 0 78.1529 12.3348 964 147.789 235.318 469.543
1937 0 80.3497 12.3585 993 147.341 236.523 468.412
1938 1 43.066 10.0311 432 145 235.146 487.25
1939 0 45.1178 10.1512 458 144.288 236.288 486.504
1940 0 46.1315 10.4484 482 141.554 235.529 486.039
1941 0 47.1242 11.2469 530 140.362 234.683 485.443
1942 0 49.0569 10.9057 535 134.746 235.578 485.564
1943 0 48.0653 11.0475 531 131.832 236.482 484.603
1944 0 50.1051 11.2763 565 134.34 234.568 484.278
1945 0 51.1953 12.0128 615 133.992 235.423 482.839
1946 0 51.1396 12.2214 625 132.939 235.048 482.589
1947 0 52.1334 12.2762 640 131.084 234.992 482.27
1948 0 55.1608 12.2007 673 135.461 235.727 481.577
1949 0 56.1668 12.1958 685 134.508 236.615 481.063
1950 0 56.0911 12.6758 711 129.529 237.198 480.893
1951 0 61.2167 12.1535 744 135.306 236.999 479.079
1952 0 61.1988 12.9088 790 128.592 236.111 478.603
1953 0 64.0513 12.4275 796 132.96 236.92 478.045
1954 0 64.1522 13.1718 845 135.876 236.178 476.306
1955 0 67.0671 12.495 838 138.305 234.681 475.334
1956 0 70.1128 12.8935 904 134.013 235.735 474.52
1957 0 72.0402 12.6179 909 136.184 236.359 473.299
1958 0 72.1743 13.0656 943 136.556 236.698 472.576
1959 0 74.1581 12.8509 953 133.571 236.233 470.05
1960 0 78.1129 12.5843 983 135.533 233.89 469.193
1961 0 80.1404 13.127 1052 138.639 235.916 467.101
1962 0 84.1317 12.3259 1037 135.622 234.932 466.339
1963 0 87.1831 12.4107 1082 134.638 236.271 464.886
1964 0 88.1118 12.8927 1136 136.204 238.382 463.697
1965 1 45.0363 10.1918 459 138.861 237.786 486.068
1966 0 48.0498 10.614 510 14.3235 236.549 484.108
1967 0 48.0503 10.8844 523 137.172 235.83 483.872
1968 0 47.1738 11.871 560 131.705 238.436 482.461
1969 0 50.0479 11.8487 593 137.636 236.437 481.89
1970 0 51.0468 13.517 690 132.403 237.913 480.377
1971 0 53.1012 12.0525 640 139.261 238.438 480.277
1972 0 53.0535 12.4591 661 138.654 236.38 480.177
1973 0 56.2771 12.4029 698 136.165 237.579 480.1
1974 0 58.0872 12.4468 723 136.736 235.747 478.835
1975 0 60.1081 13.3093 800 134.499 238.944 477.396
1976 0 60.0856 12.5488 754 136.829 238.061 477.939
1977 0 60.121 12.6911 763 137.822 236.469 476.976
1978 0 63.1594 12.3655 781 143.681 237.256 476.699
1979 0 66.1682 12.6647 838 141.659 237.764 475.246
1980 0 67.1132 12.6652 850 143.111 237.256 474.827
1981 0 68.1198 12.7716 870 145.425 234.344 473.613
1982 0 72.1456 12.8906 930 145.554 236.532 472.27
1983 0 76.1407 13.0022 990 143.744 237.452 471.106
1984 0 78.1191 13.2362 1034 146.031 237.229 470.193
1985 0 80.2182 13.4259 1077 148.233 235.211 468.33
1986 0 83.2453 12.9977 1082 155.768 237.555 466.51
1987 0 85.3632 13.3781 1142 155.344 235.88 466
1988 0 89.414 13.0181 1164 154.766 235.357 464.213
1989 1 48.1929 11.786 568 154.357 236.472 481.414
1990 0 50.3358 12.2577 617 152.113 236.465 482.306
1991 0 51.1262 12.9679 663 150.452 236.039 482.878
1992 0 54.3434 12.5866 684 145.292 236.896 480.332
1993 0 55.084 13.0165 717 144.269 238.847 480.584
1994 0 56.0785 13.1423 737 144.229 238.775 479.814
1995 0 59.2088 12.9879 769 143.343 236.287 478.39
1996 0 61.3408 13.0582 801 143.695 236.935 476.914
1997 0 63.2303 13.0475 825 139.201 237.121 476.292
1998 0 63.1906 13.1665 832 137.931 237.667 476.206
1999 0 65.191 13.238 863 137.947 236.796 476.045
2000 0 67.2415 13.2805 893 135.228 237.408 473.788
2001 0 72.1442 13.0017 938 141.082 236.182 473.242
2002 0 71.3014 13.3938 955 140.6 237.939 472.112
2003 0 74.3449 13.3701 994 135.881 235.783 470.871
2004 0 77.2087 13.47 1040 138.983 234.844 468.992
2005 0 80.354 13.2414 1064 143.979 235.87 467.907
2006 0 82.3077 13.4617 1108 139.011 235.557 466.751
2007 0 84.2009 13.7409 1157 140.814 236.121 464.82
2008 0 88.3724 13.5223 1195 141.326 235.259 463.744
2009 0 92.2844 13.4476 1241 132.692 236.785 461.496
2010 0 94.5278 13.5939 1285 139.338 235.676 459.971
2011 0 97.4183 13.4266 1308 137.586 236.305 458.35
2012 1 51.2358 11.4178 585 149.265 236.807 481.55
2013 0 52.0752 12.6164 657 140.457 238.306 481.616
2014 0 53.0836 12.7158 675 134.511 236.806 482.116
2015 0 55.1619 12.8349 708 137.006 237.04 480.74
2016 0 57.0923 12.5236 715 134.108 237.857 480.945
2017 0 59.088 12.9299 764 130.293 235.565 479.818
2018 0 62.051 13.1505 816 123.423 235.225 478.471
2019 0 64.1353 13.0194 835 136.01 235.913 477.489
2020 0 66.1217 13.1122 867 138.257 237.093 477.076
2021 0 68.0824 13.1018 892 140.762 234.686 475.585
2022 0 70.1784 13.2519 930 136.494 235.286 474.102
2023 0 72.0725 13.4587 970 140.262 237.379 473.239
2024 0 74.0624 13.5291 1002 142.096 236.752 472.345
2025 0 77.1728 13.2301 1021 144.342 236.369 470.887
2026 0 79.1412 13.5328 1071 142.041 237.148 470.827
2027 0 82.065 13.9036 1141 144.977 233.869 468.553
2028 0 86.0817 13.3943 1153 146.536 234.208 467.051
2029 0 89.1022 13.2096 1177 147.919 236.071 465.845
2030 0 91.122 13.4106 1222 139.228 236.642 463.613
2031 1 50.0613 11.7855 590 150.015 236.575 484.83
2032 0 51.0989 12.2116 624 145.157 237.072 484.603
2033 0 52.0496 12.4881 650 147.378 238.32 483.526
2034 0 54.135 12.4319 673 141.848 238.993 482.939
2035 0 55.0984 12.3597 681 145.546 239.203 481.75
2036 0 56.1245 12.6504 710 148.218 238.769 481.451
2037 0 59.191 12.7215 753 145.101 237.89 480.073
2038 0 61.1131 12.5505 767 148.528 237.091 478.86
2039 0 62.1112 12.7352 791 154.728 236.434 477.714
2040 0 65.0447 12.945 842 155.892 237.41 477.409
2041 0 67.1341 12.7357 855 149.363 236.664 475.854
2042 0 68.139 12.9882 885 153.695 236.878 474.731
2043 0 71.1849 12.896 918 152.083 235.736 473.557
2044 0 73.1959 13.2248 968 153.886 237.005 471.975
2045 0 75.1446 13.148 988 154.424 235.995 470.797
2046 0 80.1644 12.7488 1022 155.369 234.934 469.445
2047 0 82.184 12.6424 1039 150.337 236.127 468.07
2048 0 86.1185 12.7731 1100 158.134 238.974 466.593
2049 0 87.1794 12.8471 1120 155.422 235.734 465.061
2050 0 91.1292 12.817 1168 153.359 237.073 463.223
2051 0 94.2405 13.1154 1236 155.643 236.337 461.438
2052 1 49.0919 11.3461 557 158.072 237.28 484.115
2053 0 52.0983 12.1693 634 155.23 234.528 482.934
2054 0 54.0639 12.1893 659 154.263 236.686 482.75
2055 0 54.0347 12.566 679 152.093 237.68 481.54
2056 0 57.05 12.2699 700 158.77 235.823 481.233
2057 0 58.0694 12.4334 722 158.494 235.659 480.738
2058 0 60.0963 12.6464 760 160.83 236.503 479.904
2059 0 61.0511 13.0874 799 161.817 237.412 478.596
2060 0 64.1183 12.898 827 161.722 238.518 477.947
2061 0 66.0919 12.9365 855 163.477 235.789 476.738
2062 0 67.063 12.5703 843 166.059 236.432 476.483
2063 0 70.1671 12.684 890 159.867 235.758 474.573
2064 0 73.0518 12.7855 934 162.488 235.442 473.679
2065 0 73.1855 12.9944 951 159.791 236.409 472.306
2066 0 77.1284 12.8746 993 162.291 236.279 471.381
2067 0 79.1412 12.7367 1008 162.742 236.125 470.499
2068 0 81.1097 12.9208 1048 161.499 236.24 469.243
2069 0 84.2308 12.8932 1086 156.874 236.397 467.58
2070 0 88.1283 12.9584 1142 158.06 235.839 466.113
2071 1 45.0388 10.9905 495 158.323 236.331 487.499
2072 0 45.0372 11.6792 526 152.179 235.924 486.251
2073 0 48.13 12.0092 578 144.522 237.628 485.253
2074 0 51.0096 11.8801 606 151.281 236.285 484.376
2075 0 50.0811 12.0205 602 144.294 235.972 483.681
2076 0 50.0496 12.3677 619 147.448 237.33 483.527
2077 0 54.0779 12.2601 663 146.796 238.193 481.923
2078 0 55.104 12.4855 688 140.058 235.753 480.56
2079 0 57.072 12.1776 695 143.275 236.791 480.367
2080 0 59.0893 12.4388 735 137.623 236.567 479.691
2081 0 61.0853 12.8509 785 139.372 236.417 478.54
2082 0 63.0985 12.4884 788 144.31 235.503 477.056
2083 0 65.0903 12.5518 817 136.534 236.19 476.425
2084 0 67.1133 12.4565 836 142.805 236.163 475.672
2085 0 69.0682 12.5963 870 139.069 235.329 474.564
2086 0 70.0877 12.4986 876 138.917 237.966 472.715
2087 0 72.3501 12.9094 934 136.275 236.74 471.938
2088 0 75.075 12.5608 943 134.334 237.986 470.866
2089 0 78.0976 12.8941 1007 136.04 238.089 469.295
2090 0 81.1482 12.5203 1016 130.522 237.622 468.403
2091 0 82.1696 12.8758 1058 140.446 235.937 467.612
2092 0 86.1715 13.3223 1148 136.922 236.717 465.004
2093 0 91.1286 12.9158 1177 137.868 239.279 463.771
2094 0 92.1819 13.1696 1214 133.568 239.222 461.525
2095 0 96.2794 13.0038 1252 134.193 237.098 459.942
2096 0 98.1665 12.7742 1254 139.148 238.71 459.089
2097 1 53.1652 10.0065 532 144.331 237.857 482.803
2098 0 55.1869 11.2708 622 140.944 238.828 480.376
2099 0 57.2532 11.1784 640 136.805 237.277 479.308
2100 0 60.2661 11.3331 683 135.922 237.631 478.199
2101 0 59.1114 12.2311 723 133.134 237.726 476.759
2102 0 63.0352 12.4216 783 128.042 239.467 476.05
2103 0 65.075 12.816 834 138.193 238.63 475.517
2104 0 69.0616 12.1631 840 140.439 238.8 475.293
2105 0 69.0725 12.7981 884 140.829 237.938 473.536
2106 0 72.2366 12.8744 930 141.157 237.254 471.566
2107 0 74.1352 12.8549 953 146.103 237.227 470.476
2108 0 75.0712 13.1608 988 148.439 237.807 469.309
2109 0 78.0589 12.798 999 140.784 237.723 467.07
2110 0 80.1964 12.7063 1019 150.186 236.448 466.246
2111 0 83.1281 12.8837 1071 147.212 236.072 464.489
2112 0 87.0851 13.3662 1164 145.514 236.602 462.093
2113 0 90.1801 13.1515 1186 146.045 238.634 461.014
2114 0 93.1924 13.1878 1229 144.351 237.102 459.768
2115 0 94.1932 13.398 1262 144.421 239.118 458.46
2116 0 100.207 13.7216 1375 141.38 236.26 455.921
2117 0 102.129 13.3459 1363 140.919 238.508 455.817
2118 0 107.07 13.4958 1445 141.702 238.361 454.3
2119 1 58.0433 11.0952 644 142.23 238.039 474.334
2120 0 59.0692 11.7489 694 141.097 236.068 477.533
2121 0 62.0307 12.5099 776 138.83 236.464 477.602
2122 0 62.0886 12.4661 774 138.984 239.854 476.802
2123 0 64.1618 12.5776 807 136.107 239.7 475.939
2124 0 67.0932 12.5944 845 131.981 238.886 475.109
2125 0 69.0318 13.2113 912 128.573 238.519 473.516
2126 0 71.0418 13.3442 948 135.014 237.698 472.1
2127 0 74.1171 13.1414 974 130.679 238.582 470.712
2128 0 76.056 13.3586 1016 135.374 237.087 470.417
2129 0 79.1243 13.2703 1050 127.338 237.301 468.81
2130 0 81.1266 13.596 1103 122.995 236.868 467.987
2131 0 83.1359 13.508 1123 131.717 237.333 466.894
2132 0 87.1987 13.647 1190 134.06 236.933 465.53
2133 0 90.1843 13.7607 1241 136.262 235.145 463.976
2134 0 93.3269 13.7045 1279 134.39 236.785 462.291
2135 0 97.3879 14.3139 1394 132.248 238.197 460.11
2136 0 100.273 13.922 1396 130.312 237.499 458.855
2137 0 103.257 13.7715 1422 137.565 239.023 456.745
2138 0 104.433 13.559 1416 127.702 237.76 455.523
2139 0 109.309 13.6768 1495 136.854 236.13 453.484
2140 0 111.271 13.948 1552 127.084 237.335 451.968
2141 0 116.35 13.511 1572 131.791 237.794 450.494
2142 0 120.432 13.601 1638 138.551 237.526 449.048
2143 1 65.1742 12.2901 801 139.855 237.009 475.954
2144 0 69.1402 12.5976 871 139.45 237.809 473.994
2145 0 68.1484 13.2212 901 136.257 236.701 472.977
2146 0 73.2524 12.8323 940 129.6 238.055 471.622
2147 0 75.3083 13.1327 989 140.357 237.276 469.713
2148 0 79.2577 12.8946 1022 134.32 239.906 469.014
2149 0 82.2597 12.728 1047 130.244 237.038 466.887
2150 0 85.2489 13.0676 1114 139.64 236.483 464.359
2151 0 86.357 12.9231 1116 136.778 236.735 463.103
2152 0 90.2737 12.9717 1171 135.894 238.103 461.859
2153 0 94.5794 12.7829 1209 130.868 236.927 459.142
2154 0 96.2068 12.6394 1216 138.473 238.842 458.642
2155 0 100.268 12.8057 1284 137.195 239.607 456.844
2156 1 53.1458 11.4402 608 135.278 238.398 481.234
2157 0 53.259 11.6037 618 134.05 237.314 479.469
2158 0 55.2917 11.6473 644 132.798 237.635 476.694
2159 0 55.2233 11.4988 635 125.739 238.424 476.757
2160 0 58.3918 11.6968 683 127.208 239.158 475.297
2161 0 59.3018 11.5174 683 127.019 239.485 474.217
2162 0 60.4317 11.6992 707 131.255 238.065 473.167
2163 0 63.1326 12.2916 776 129.631 238.997 472.767
2164 0 64.3252 12.4213 799 127.497 239.382 471.911
2165 0 68.0747 12.4275 846 130.331 238.596 470.388
2166 0 67.0513 12.6918 851 135.288 237.817 470.007
2167 0 72.0667 12.6411 911 132.857 236.874 469.006
2168 0 72.2403 12.7491 921 135.897 238.416 467.838
2169 0 75.09 13.304 999 134.055 236.935 467.678
2170 0 79.1489 13.0135 1030 133.91 238.007 466.449
2171 0 82.2366 13.6192 1120 134.545 240.306 464.656
2172 0 83.1805 13.1401 1093 137.47 238.739 462.739
2173 0 87.2005 13.383 1167 132.302 237.877 461.367
2174 0 92.5434 13.5612 1255 132.241 239.504 459.925
2175 0 93.3059 13.4825 1258 135.324 238.425 459.538
2176 0 98.3057 13.4784 1325 139.314 237.956 457.873
2177 0 102.362 13.55 1387 137.762 237.371 455.775
2178 1 55.1336 11.7533 648 138.091 238.753 477.926
2179 0 58.1955 11.9597 696 141.353 236.889 477.136
2180 0 58.2194 12.2983 716 136.022 236.081 476.817
2181 0 61.2915 12.1713 746 142.343 236.255 475.98
2182 0 62.2398 12.6286 786 138.155 236.916 474.667
2183 0 63.1192 12.5635 793 143.486 235.818 473.33
2184 0 66.2419 12.6959 841 139.868 238.171 471.986
2185 0 69.1407 12.7132 879 137.141 238.878 471.112
2186 0 71.1258 13.0051 925 143.184 238.621 470.096
2187 0 74.112 12.9669 961 144.77 236.424 468.464
2188 0 76.2209 13.0673 996 143.584 237.027 467.884
2189 0 78.2963 13.3595 1046 149.767 237.159 466.532
2190 0 81.3444 13.3875 1089 143.364 237.769 464.557
2191 0 84.223 13.2387 1115 143.218 236.135 464.012
2192 0 88.549 13.4276 1189 153.298 236.762 464.338
2193 0 92.8042 13.4584 1249 150.108 238.062 461.339
2194 0 95.3947 13.5333 1291 153.3 235.983 460.693
2195 0 97.2546 13.5623 1319 152.396 236.751 459.238
2196 0 101.296 13.4556 1363 154.745 237.106 457.361
2197 1 51.3895 11.7339 603 150.403 235.29 480.891
2198 0 55.1442 12.1137 668 149.5 236.993 481.346
2199 0 56.0499 12.2391 686 151.313 235.85 480.697
2200 0 58.0901 12.0847 702 149.017 235.598 480.474
2201 0 57.0946 12.7508 728 143.098 237.71 479.861
2202 0 58.058 12.5392 728 140.761 236.592 478.864
2203 0 61.12 12.5327 766 144.704 237.838 478.043
2204 0 63.1406 12.2108 771 140.256 236.411 477.253
2205 0 66.1003 12.6626 837 143.297 236.86 476.333
2206 0 67.1149 12.7394 855 144.125 235.448 475.416
2207 0 69.0645 12.7562 881 143.114 234.9 473.608
2208 0 71.1302 12.8637 915 148.132 234.961 471.966
2209 0 74.2392 12.9312 960 147.416 234.877 471.798
2210 0 76.3553 12.9526 989 144.178 235.721 470.534
2211 0 78.2912 13.0027 1018 146.847 234.473 468.485
2212 0 81.4328 13.1642 1072 142.849 238.21 467.841
2213 0 84.5262 12.9546 1095 141.984 236.438 464.652
2214 0 87.5139 12.9351 1132 140.444 237.117 464.618
2215 0 90.4178 12.9289 1169 144.672 234.735 463.686
2216 0 92.423 13.3625 1235 143.161 235.462 460.68
2217 0 97.5468 12.8144 1250 147.203 234.476 459.118
2218 1 51.4493 10.5541 543 143.07 235.858 482.685
2219 0 53.0766 10.7957 573 139.421 236.873 481.74
2220 0 55.0303 11.4301 629 139.946 236.644 480.599
2221 0 56.1359 11.7928 662 128.997 233.728 479.926
2222 0 58.07 11.7444 682 137.944 234.352 479.205
2223 0 58.0758 12.3459 717 142.259 234.382 478.209
2224 0 62.1119 12.1072 752 139.406 233.636 476.632
2225 0 63.183 11.9811 757 136.082 234.094 475.744
2226 0 64.2612 11.9979 771 139.942 231.17 475.643
2227 0 66.1451 12.2005 807 139.028 234.518 475.037
2228 0 68.1684 11.9997 818 138.615 233.62 473.521
2229 0 69.1991 12.1389 840 137.033 233.681 471.681
2230 0 72.1229 12.1737 878 134.952 234.871 471.069
2231 0 76.1603 12.1454 925 141.298 233.173 469.91
2232 0 76.2386 12.5134 954 141.126 232.28 468.449
2233 0 79.1406 12.3198 975 139.414 231.572 467.119
2234 0 83.1989 11.9353 993 140.119 232.258 466.115
2235 0 85.1862 12.7133 1083 143.155 233.444 464.674
2236 0 88.1199 12.4263 1095 145.075 233.163 462.65
2237 1 48.0262 9.93208 477 146.335 234.461 484.038
2238 0 50.0851 10.1827 510 139.151 233.708 482.92
2239 0 52.0273 10.3023 536 140.892 235.455 481.91
2240 0 51.0258 11.2296 573 137.815 233.874 481.026
2241 0 54.1293 11.491 622 141.106 233.421 480.804
2242 0 54.1119 11.6795 632 136.141 232.351 480.551
2243 0 57.0945 11.4722 655 140.301 234.834 479.977
2244 0 57.0996 12.0316 687 136.98 233.897 478.464
2245 0 59.1001 11.6751 690 136.991 232.183 477.849
2246 0 61.1734 11.6554 713 138.9 231.184 477.951
2247 0 63.2018 11.9142 753 137.473 232.626 475.979
2248 0 64.1351 12.4425 798 140.875 233.998 475.063
2249 0 66.1429 12.473 825 135.287 234.034 474.333
2250 0 69.2076 11.8629 821 131.631 233.94 472.658
2251 0 70.0871 12.1706 853 141.185 235.271 471.944
2252 0 73.1071 12.215 893 137.766 235.554 470.853
2253 0 75.1594 12.0145 903 133.466 233.998 469.622
2254 0 75.1594 12.0145 903 144.766 231.998 469.622
2255 0 81.2176 12.3495 1003 131.892 234.906 467.01
2256 1 43.1901 9.65498 417 141.933 236.717 486.281
2257 0 43.103 10.4633 451 137.448 236.798 485.517
2258 0 47.1451 10.754 507 132.641 235.31 484.189
2259 0 49.0994 11.4462 562 139.831 236.05 482.482
2260 0 51.15 11.6715 597 132.941 237.214 481.876
2261 0 52.0855 11.6731 608 138.801 235.502 481.901
2262 0 53.049 11.9135 632 138.218 236.364 481.204
2263 0 53.2672 12.1651 648 130.083 237.034 480.241
2264 0 56.3202 11.9673 674 125.582 238.098 479.803
2265 0 58.248 12.2579 714 133.458 239.001 478.847
2266 0 59.2056 12.2792 727 135.92 237.994 477.758
2267 0 62.3658 12.2824 766 138.242 236.858 477.031
2268 0 62.3471 12.671 790 134.775 237.468 476.491
2269 0 65.3353 12.9486 846 135.909 237.571 475.408
2270 0 66.3009 13.0315 864 132.565 236.903 475.013
2271 0 68.266 12.7736 872 140.728 235.986 474.283
2272 0 70.2456 13.0684 918 136.182 238.863 472.606
2273 0 72.2721 12.9926 939 136.64 237.171 471.146
2274 0 74.2164 13.1507 976 138.799 238.13 470.588
2275 0 76.2226 13.3294 1016 140.012 237.236 469.44
2276 0 79.3277 13.2236 1049 139 238.681 468.637
2277 0 81.3117 13.1346 1068 141.792 238.972 468.347
2278 0 83.5484 13.5849 1135 139.201 236.504 466.127
2279 0 86.2651 13.5165 1166 148.606 235.385 465.457
2280 0 88.2696 13.4928 1191 141.362 236.374 463.668
2281 0 93.2535 12.9754 1210 146.768 236.193 462.521
2282 0 96.2113 13.3872 1288 142.392 236.445 461.13
2283 0 99.4489 13.2832 1321 144.619 235.848 459.195
2284 0 102.357 12.9253 1323 146.626 235.119 457.902
2285 0 105.385 13.389 1411 146.138 235.719 455.782
2286 1 57.2888 11.8871 681 139.316 237.72 477.725
2287 0 59.2502 12.8438 761 137.465 235.798 476.756
2288 0 60.3267 12.366 746 145.879 237.645 478.03
2289 0 62.4881 12.7864 799 143.133 237.438 477.202
2290 0 62.1957 13.0234 810 143.269 236.785 477.236
2291 0 65.3503 12.8844 842 143.303 237.24 475.089
2292 0 68.361 13.2239 904 144.012 233.736 474.321
2293 0 70.2384 12.6284 887 143.914 236.392 474.347
2294 0 73.2763 13.0602 957 141.552 233.768 472.673
2295 0 74.2302 13.1348 975 140.533 233.313 471.651
2296 0 77.3513 13.0573 1010 148.366 233.556 470.215
2297 0 80.2208 13.3756 1073 147.934 233.852 468.801
2298 0 83.3175 13.2025 1100 147.715 235.743 468.191
2299 0 84.2718 13.3022 1121 150.31 235.541 467.178
2300 0 87.2286 13.4245 1171 148.951 234.734 465.436
2301 0 92.1764 13.3874 1234 143.942 235.788 463.33
2302 0 95.2418 13.3765 1274 152.559 236.182 461.597
2303 0 97.1889 13.5612 1318 150.606 235.9 459.997
2304 0 102.341 13.797 1412 146.233 235.032 458.563
2305 0 104.357 13.5975 1419 148.428 234.414 456.865
2306 0 108.274 13.5305 1465 150.656 234.283 454.93
2307 0 112.218 13.447 1509 146.433 236.044 453.858
2308 0 114.278 13.2747 1517 148.613 236.35 451.994
2309 1 61.1468 13.0342 797 159.63 235.646 477.44
2310 0 67.1025 12.9354 868 145.942 234.842 476.036
2311 0 68.1586 13.1165 894 156.499 233.814 475.121
2312 0 70.0985 13.1957 925 150.068 232.349 473.779
2313 0 71.1239 13.3429 949 159.769 232.841 472.736
2314 0 74.041 13.6411 1010 157.385 233.242 471.688
2315 0 76.1198 13.6233 1037 160.806 234.153 470.99
2316 0 78.0932 13.5351 1057 153.494 234.322 469.655
2317 0 81.1119 13.7711 1117 156.262 234.339 467.522
2318 0 85.1905 13.8748 1182 155.063 234.838 466.469
2319 0 87.2415 13.5371 1181 161.251 232.603 465.477
2320 0 90.1716 13.685 1234 157.793 232.762 463.834
2321 0 93.0903 13.546 1261 159.474 233.563 462.935
2322 0 97.1676 13.6259 1324 166.715 235.462 460.584
2323 0 101.193 13.4891 1365 147.429 234.871 459.453
2324 0 104.133 13.5115 1407 167.115 235.213 456.895
2325 1 55.0523 11.4618 631 156.705 234.521 481.827
2326 0 57.0538 11.8309 675 160.348 234.19 481.124
2327 0 59.1936 12.2311 724 161.57 235.983 480.083
2328 0 60.0705 12.4187 746 158.272 237.098 479.63
2329 0 62.2195 12.6327 786 158.155 235.884 478.504
2330 0 62.0498 12.9573 804 157.205 234.882 477.585
2331 0 62.0973 13.1085 814 159.512 235.752 477.279
2332 0 67.1444 13.0465 876 157.888 236.475 475.646
2333 0 69.0672 12.7267 879 148.853 234.24 473.634
2334 0 69.3129 12.9269 896 136.622 235.275 471.704
2335 0 72.2393 12.5417 906 131.756 236.645 470.179
2336 0 75.3635 13.2425 998 160.729 236.36 470.144
2337 0 78.3484 13.3379 1045 158.114 236.442 469.173
2338 0 81.4536 13.4432 1095 157.854 236.549 467.64
2339 0 85.3052 13.3521 1139 157.283 237.816 466.619
2340 0 85.3395 13.8037 1178 148.286 235.015 464.726
2341 0 89.2422 13.581 1212 156.573 235.325 463.382
2342 0 92.2789 13.0474 1204 149.888 235.954 461.477
2343 0 96.2473 13.2887 1279 151.329 235.091 460.587
2344 1 53.1593 11.0235 586 144.215 236.575 481.584
2345 0 56.1465 11.7371 659 140.618 238.178 480.775
2346 0 58.19 12.0811 703 142.99 238.108 479.505
2347 0 60.1657 12.1332 730 131.786 237.116 478.196
2348 0 62.2067 12.4424 774 140.37 238.151 477.306
2349 0 64.1544 12.5634 806 140.442 237.28 476.458
2350 0 65.169 12.8896 840 148.735 237.749 476.296
2351 0 68.2434 12.5873 859 148.683 236.501 474.657
2352 0 69.2945 13.0313 903 144.024 237.866 473.781
2353 0 71.1904 12.9512 922 142.38 236.813 471.906
2354 0 73.3248 12.9561 950 148.599 238.973 470.919
2355 0 77.4675 12.5085 969 149.099 238.352 469.55
2356 0 79.494 12.9192 1027 145.066 238.736 468.09
2357 0 83.374 12.8098 1068 141.823 238.169 466.752
2358 0 85.3108 12.7182 1085 155.018 238.364 465.04
2359 0 89.3061 12.4292 1110 141.819 237.854 463.58
2360 1 47.03 10.1212 476 142.672 239.626 482.922
2361 0 49.0434 10.6844 524 144.544 239.298 481.233
2362 0 48.0588 11.5692 556 143.241 238.917 479.96
2363 0 53.1013 12.0336 639 147.836 235.074 482.358
2364 0 53.1593 12.6601 673 143.233 236.16 481.649
2365 0 55.2306 11.9499 660 144.72 236.82 480.518
2366 0 55.1407 12.6222 696 150.647 236.575 480.187
2367 0 59.1555 12.3742 732 140.962 237.799 478.352
2368 0 60.1545 12.4513 749 150.019 237.284 477.916
2369 0 62.1211 12.7171 790 146.735 237.084 476.844
2370 0 62.0526 13.2629 823 140.992 237.033 476.154
2371 0 67.1674 12.4763 838 143.104 240.177 475.399
2372 0 68.0531 12.9605 882 131.505 237.293 473.904
2373 0 69.1021 13.3426 922 144.668 237.322 473.434
2374 0 71.1138 12.8948 917 156.149 237.189 472.594
2375 0 75.2518 12.5711 946 156.613 237.776 471.818
2376 0 76.1093 12.9025 982 155.667 237.891 470.646
2377 0 78.0604 13.118 1024 155.269 238.829 469.85
2378 0 80.1357 13.0279 1044 158.964 237.958 468.749
2379 0 81.0855 13.4179 1088 156.019 237.016 467.4
2380 0 83.2394 13.8997 1157 157.429 237.754 465.823
2381 0 87.156 13.3095 1160 155.568 236.598 464.673
2382 0 90.2481 13.7731 1243 151.54 236.349 462.898
2383 0 93.1692 13.835 1289 154.143 237.898 460.953
2384 0 95.4066 13.8146 1318 157.997 237.566 459.644
2385 0 99.3757 13.8263 1374 160.014 236.862 456.533
2386 0 102.345 13.5619 1388 158.051 236.908 452.95
2387 0 104.433 13.8366 1445 160.34 235.764 451.47
2388 1 58.0633 11.8664 689 160.745 237.094 475.499
2389 0 59.1678 12.0167 711 158.976 237.128 474.447
2390 0 62.1069 12.0921 751 158.788 237.032 473.574
2391 0 64.1792 12.5274 804 158.601 238.062 472.688
2392 0 67.1424 12.2575 823 144.108 237.017 472.016
2393 0 67.1745 12.5941 846 155.538 237.065 470.54
2394 0 72.1525 12.432 897 154.81 236.865 469.717
2395 0 72.3141 12.8882 932 155.936 235.524 467.239
2396 0 76.2996 12.464 951 153.083 236.75 466.025
2397 0 77.112 12.5272 966 154.092 237.857 465.322
2398 0 80.2432 12.7861 1026 153.494 237.5 463.871
2399 0 83.2237 12.893 1073 153.499 236.59 462.027
2400 0 86.1717 12.3939 1068 156.637 237.777 460.482
2401 0 88.1911 12.7677 1126 150.876 235.005 458.697
2402 0 92.1112 12.2678 1130 148.941 235.749 457.357
2403 0 96.1798 12.8301 1234 152.741 236.302 455.857
2404 0 99.1515 12.7482 1264 147.363 236.852 453.885
2405 1 54.022 9.84783 532 144.553 234.645 477.258
2406 0 56.0918 10.7681 604 145.882 232.843 476.03
2407 0 57.2806 11.1556 639 147.638 234.534 475.311
2408 0 58.2486 11.9316 695 142.748 235.363 473.917
2409 0 61.2083 11.7141 717 143.662 234.816 474.077
2410 0 60.2264 12.0047 723 138.495 237.014 473.306
2411 0 64.2457 11.7051 752 136.549 235.597 471.927
2412 0 68.2102 11.8017 805 145.873 236.97 470.95
2413 0 69.1874 12.0831 836 146.264 239.999 470.199
2414 0 71.1413 12.2011 868 139.605 237.152 468.639
2415 0 72.2406 12.3061 889 139.755 240.309 467.403
2416 0 75.1821 12.4365 935 138.401 238.861 466.145
2417 0 78.2225 12.3622 967 149.433 237.825 465.578
2418 0 81.1111 12.0945 981 150.089 239.468 464.662
2419 0 84.1108 12.6975 1068 146.547 238.509 462.723
2420 0 88.2246 12.6609 1117 149.868 237.668 463.502
2421 0 91.2042 12.3569 1127 155.542 237.243 462.879
2422 0 94.2253 13.0008 1225 150.943 236.354 461.361
2423 1 52.1117 11.0915 578 154.408 237.898 482.433
2424 0 55.0599 11.1696 615 152.154 238.112 480.567
2425 0 55.2 11.7573 649 150.065 238.305 479.911
2426 0 57.0855 12.49 713 143.687 239.397 478.188
2427 0 58.1339 12.2476 712 147.437 238.795 478.588
2428 0 60.213 12.7049 765 145.242 236.953 476.715
2429 0 63.1503 12.0665 762 150.343 239.155 475.346
2430 0 65.0973 12.3354 803 147.756 237.064 475.148
2431 0 65.1556 12.2937 801 149.567 235.86 473.607
2432 0 67.1577 12.9844 872 151.903 237.477 472.884
2433 0 69.2051 13.1204 908 154.957 235.814 472.689
2434 0 73.1637 12.8069 937 148.696 235.764 471.316
2435 0 75.2091 13.1633 990 152.501 237.147 470.721
2436 0 78.2614 13.1355 1028 149.047 235.284 468.863
2437 0 81.1824 12.9215 1049 158.838 238.135 467.961
2438 0 82.176 12.9356 1063 159.98 237.257 465.93
2439 0 85.1641 12.9632 1104 162.216 236.078 465.652
2440 0 89.2364 13.1337 1172 161.895 238.392 463.397
2441 0 91.1481 13.3738 1219 160.85 237.015 462.202
2442 0 94.1893 12.8677 1212 154.993 236.426 460.701
2443 1 53.0664 12.3996 658 158.919 237.053 480.386
2444 0 57.1344 12.3568 706 155.484 236.963 479.629
2445 0 57.166 12.7174 727 154.292 238.111 478.993
2446 0 58.1936 12.9739 755 147.87 237.528 478.359
2447 0 60.1183 12.3423 742 152.146 236.333 477.702
2448 0 63.1368 12.6709 800 153.691 235.985 476.566
2449 0 62.1038 12.6562 786 149.534 236.142 475.805
2450 0 65.0641 12.9257 841 140.414 237.929 474.124
2451 0 67.0987 13.2342 888 150.502 236.795 473.918
2452 0 69.0472 13.1359 907 154.105 236.806 472.137
2453 0 72.0866 12.7208 917 153.192 237.628 471.244
2454 0 74.1773 12.8341 952 158.325 237.718 470.403
2455 0 77.247 13.049 1008 155.361 238.238 469.729
2456 0 79.1428 12.9386 1024 157.653 238.885 467.901
2457 0 82.3229 13.0219 1072 150.348 240.024 466.382
2458 0 85.1957 13.2518 1129 154.523 240.291 465.149
2459 0 89.2155 12.8229 1144 163.706 240.535 463.304
2460 0 91.4479 13.2753 1214 154.415 238.537 461.97
2461 0 93.2617 13.5854 1267 157.874 237.027 460.428
2462 0 97.1922 13.2109 1284 159.857 237.82 459.459
2463 0 99.317 13.5526 1346 157.082 239.675 457.249
2464 0 102.288 13.6868 1400 154.959 238.217 455.076
2465 1 56.0346 11.6714 654 161.596 238.451 478.485
2466 0 58.1633 12.6196 734 166.871 239.189 477.188
2467 0 59.0537 12.8527 759 158.047 238.967 476.354
2468 0 60.1042 12.9941 781 165.184 238.325 475.859
2469 0 62.1082 13.0901 813 163.129 236.21 474.369
2470 0 64.0808 13.2177 847 156.583 238.254 473.989
2471 0 65.2635 13.162 859 160.156 237.609 472.79
2472 0 68.0586 13.1945 898 163.22 239.242 471.749
2473 0 68.119 13.1975 899 165.008 238.864 471.201
2474 0 70.1374 13.5876 953 165.364 238.678 470.035
2475 0 72.1296 13.8224 997 161.461 240.882 468.802
2476 0 75.1173 13.5122 1015 159.346 238.121 468.171
2477 0 77.0594 13.5999 1048 161.846 236.698 466.15
2478 0 79.1721 13.8811 1099 157.736 238.069 463.945
2479 0 82.1122 13.7251 1127 161.728 236.812 463.675
2480 0 86.0833 13.7193 1181 156.638 238.12 461.867
2481 0 86.0862 14.1602 1219 163.267 238.432 460.606
2482 0 89.1264 14.1709 1263 168.538 239.47 459.424
2483 0 93.1995 13.9593 1301 157.94 237.647 457.175
2484 0 97.1747 14.2733 1387 161.216 239.951 455.369
2485 0 100.307 13.8974 1394 166.889 240.45 454.154
2486 0 103.301 13.9786 1444 161.916 240.377 452.37
2487 0 106.315 13.9961 1488 162.742 239.552 450.888
2488 0 109.187 14.3515 1567 162.493 239.752 448.519
2489 0 111.193 14.2815 1588 158.895 238.167 447.598
2490 0 115.24 14.4828 1669 154.092 239.513 445.849
2491 0 119.242 14.2567 1700 157.143 236.895 444.298
2492 0 122.318 14.2006 1737 157.961 237.265 441.014
2493 1 70.0927 12.5263 878 162.413 240.082 469.231
2494 0 71.0775 12.9999 924 159.393 238.048 467.842
2495 0 72.1147 13.3399 962 26.4844 239.656 466.259
2496 0 76.0954 12.918 983 150.195 240.607 464.859
2497 0 78.1366 13.0541 1020 159.345 238.874 464.251
2498 0 82.1803 13.4217 1103 159.869 237.406 462.282
2499 0 84.0519 13.4798 1133 161.249 237.928 461.501
2500 0 86.1094 13.2622 1142 149.576 239.383 460.187
2501 0 89.2277 13.5944 1213 159.27 237.909 458.178
2502 0 92.2307 13.3687 1233 163.982 237.576 457.395
2503 0 94.2006 13.8853 1308 162.673 237.94 455.896
2504 0 96.2576 13.8794 1336 154.951 239.473 454.334
2505 0 101.129 13.5372 1369 165.852 236.988 452.294
2506 0 105.121 13.7365 1444 158.569 238.823 450.612
2507 0 108.214 13.3902 1449 155.56 239.494 449.273
2508 0 112.225 13.3839 1502 159.636 239.335 446.411
2509 0 115.115 13.7688 1585 165.293 239.187 444.69
2510 0 121.175 13.6084 1649 160.91 238.761 442.047
2511 0 127.213 13.4577 1712 164.261 240.335 439.905
2512 0 130.159 13.4374 1749 162.894 239.656 437.193
2513 1 73.1023 12.2021 892 165.611 239.576 465.391
2514 0 74.0286 13.103 970 152.107 240.69 463.26
2515 0 77.0513 13.2769 1023 167.304 239.182 462.79
2516 0 81.0445 13.3877 1085 166.116 239.061 461.611
2517 0 83.0664 13.4591 1118 162.124 240.828 460.527
2518 0 85.0757 13.4939 1148 168.799 239.961 458.62
2519 0 90.1118 13.0615 1177 161.766 240.285 456.728
2520 0 91.1137 13.5216 1232 159.558 240.477 454.084
2521 0 95.1469 13.2952 1265 163.602 239.55 451.274
2522 0 98.1324 13.2372 1299 162.5 240.329 449.281
2523 0 101.198 12.9944 1315 152.535 239.033 446.364
2524 0 105.217 13.5149 1422 159.115 238.934 445.622
2525 0 108.23 13.5729 1469 160.82 239.413 443.223
2526 0 113.409 13.4029 1520 161.701 240.695 440.983
2527 0 117.324 13.3903 1571 158.074 239.691 439.268
2528 0 119.23 13.562 1617 162.473 239.412 437.762
2529 1 65.1354 10.7468 700 155.766 239.566 466.196
2530 0 68.0567 11.9165 811 147.457 240.984 463.978
2531 0 71.1471 11.8768 845 147.761 241.245 463.16
2532 0 71.0922 12.519 890 156.391 241.593 464.769
2533 0 74.1238 12.6545 938 157.691 242.251 462.37
2534 0 75.2093 12.658 952 157.194 241.218 462.124
2535 0 79.0988 12.4401 984 147.938 240.897 459.548
2536 0 81.0932 12.7631 1035 155.328 240.949 457.308
2537 0 84.1099 12.769 1074 151.604 240.166 457.661
2538 0 86.0902 13.0096 1120 155.817 243.461 456.464
2539 0 89.2353 13.2459 1182 153.321 241.293 455.375
2540 0 93.2116 13.0563 1217 153.101 241.509 453.366
2541 0 95.3407 13.2053 1259 156.912 240.518 451.926
2542 0 98.2691 12.9542 1273 155.031 241.126 450.422
2543 0 100.215 13.3213 1335 149.299 241.942 449.006
2544 0 104.23 13.1728 1373 154.13 240.517 446.122
2545 0 106.291 12.9926 1381 146.128 240.209 444.174
2546 0 111.241 13.2775 1477 139.794 241.409 441.611
2547 0 111.242 13.538 1506 147.387 241.434 440.139
2548 0 116.228 13.0863 1521 150.442 240.878 439.317
2549 1 63.0245 10.8529 684 152.858 242.911 466.016
2550 0 65.0786 12.4158 808 149.007 242.473 465.817
2551 0 69.1182 12.9054 892 141.326 240.559 464.71
2552 0 72.0483 12.1446 875 145.983 239.434 464.675
2553 0 72.062 12.3921 893 141.185 240.002 463.665
2554 0 75.1684 12.5984 947 144.358 239.441 461.769
2555 0 78.1146 12.6097 985 140.453 241.848 461.133
2556 0 80.056 12.9784 1039 148.754 241.492 459.583
2557 0 83.2041 12.7758 1063 145.689 242.026 457.961
2558 0 85.0981 13.0908 1114 143.672 239.866 456.594
2559 0 87.1121 13.0636 1138 151.617 240.782 455.168
2560 0 91.1517 12.9784 1183 152.272 241.516 454.01
2561 0 92.1956 13.3304 1229 143.945 240.74 451.625
2562 0 96.0813 12.6039 1211 150.524 240.884 449.849
2563 0 100.221 13.0611 1309 154.516 241.441 449.144
2564 0 103.24 13.0086 1343 149.405 240.453 446.711
2565 1 54.1385 11.9324 646 154.135 242.224 470.003
2566 0 56.2092 12.0087 675 150.99 240.391 469.924
2567 0 57.124 12.8492 734 145.948 241.365 471.173
2568 0 59.0734 12.5776 743 158.238 241.904 470.509
2569 0 60.0252 12.9779 779 154.435 241.268 469.09
2570 0 63.1026 12.5827 794 157.519 239.096 468.363
2571 0 65.0737 13.2311 861 155.897 238.64 467.357
2572 0 67.1132 13.3059 893 162.299 239.937 466.315
2573 0 69.1537 13.0723 904 166.291 241.179 465.494
2574 0 70.0827 13.213 926 156.31 241.292 464.355
2575 0 74.0483 13.3021 985 156.724 241.851 463.775
2576 0 76.0744 13.2896 1011 161.758 243.541 462.706
2577 0 75.0532 13.6703 1026 166.174 243.24 461.71
2578 0 81.0852 13.307 1079 163.688 243.438 460.441
2579 0 83.1322 13.3522 1110 162.948 239.167 458.423
2580 0 84.2395 13.6041 1146 159.37 239.929 458.095
2581 0 89.1176 13.1961 1176 164.969 241.24 456.315
2582 0 90.1461 13.6001 1226 166.303 242.931 455.183
2583 0 92.1643 13.6712 1260 170.252 241.133 453.685
2584 0 96.1445 13.6357 1311 163.165 241.468 452.126
2585 0 98.0982 13.9248 1366 167.213 241.663 450.052
2586 0 101.286 13.8618 1404 165.124 240.219 447.615
2587 0 105.202 13.8971 1462 157.789 240.443 446.137
2588 0 107.167 14.2115 1523 161.233 241.455 443.42
2589 0 112.295 13.6248 1530 161.71 243.482 442.089
2590 0 117.159 13.725 1608 158.763 242.119 439.711
2591 0 120.239 13.9056 1672 158.935 241.773 437.341
2592 1 69.1696 12.5633 869 159.64 240.365 462.06
2593 0 71.156 12.8029 911 154.077 243.315 461.91
2594 0 73.0589 13.1401 960 154.899 241.638 462.851
2595 0 75.1328 13.19 991 152.186 242.243 461.834
2596 0 78.1184 13.2747 1037 154.849 242.314 459.666
2597 0 82.1709 13.1068 1077 153.449 240.564 458.509
2598 0 84.2009 13.0284 1097 154.518 240.672 457.335
2599 0 88.1732 13.224 1166 153.75 241.026 455.021
2600 0 90.2405 13.1537 1187 155.304 240.538 452.836
2601 0 94.2494 13.1354 1238 153.124 240.574 450.928
2602 0 97.2279 13.1547 1279 149.614 242.299 450.842
2603 0 100.196 12.6652 1269 148.323 240.809 449.053
2604 1 55.0398 11.4463 630 146.322 239.905 471.754
2605 0 57.0331 12.1333 692 148.071 239.488 470.715
2606 0 60.0907 12.0984 727 148.406 239.272 469.146
2607 0 61.0912 12.5714 768 141.184 239.197 468.671
2608 0 64.1828 12.4644 800 145.351 239.321 467.681
2609 0 64.0432 12.9288 828 144.251 239.791 467.178
2610 0 67.0978 12.9214 867 146.45 241.461 466.268
2611 0 70.1408 12.7173 892 138.984 242.259 465.275
2612 0 70.0615 13.3882 938 135.278 244.054 464.104
2613 0 73.1083 13.1312 960 138.417 241.497 462.782
2614 0 75.1322 13.3099 1000 138.053 240.853 460.754
2615 0 79.1313 13.1427 1040 133.594 241.562 459.643
2616 0 79.0793 13.4801 1066 136.97 239.542 458.429
2617 0 83.0924 13.4669 1119 137.519 241.785 456.819
2618 0 86.0969 13.4267 1156 137.082 239.122 456.426
2619 0 90.1663 13.4973 1217 136.169 239.814 454.082
2620 0 92.107 13.7015 1262 136.295 241.694 453.258
2621 0 96.1251 13.5448 1302 135.31 241.894 451.283
2622 0 99.2683 13.6801 1358 139.195 242.448 448.618
2623 0 102.243 13.7124 1402 136.969 244.144 447.437
2624 0 106.315 13.8174 1469 134.572 244.11 446.008
2625 1 59.1724 11.8636 702 137.584 242.02 470.134
2626 0 60.0774 12.434 747 137.135 243.727 469.39
2627 0 61.0747 13.4098 819 136.255 242.319 467.597
2628 0 64.116 13.0233 835 139.861 243.114 467.043
2629 0 66.1095 13.2356 875 137.477 244.795 466.45
2630 0 65.069 13.5241 880 140.724 243.947 465.659
2631 0 70.0667 13.373 937 144.064 245.305 464.436
2632 0 72.0953 13.3851 965 141.502 245.088 463.755
2633 0 74.1986 13.41 995 142.415 245.373 461.676
2634 0 76.115 13.7555 1047 139.012 243.521 461.633
2635 0 76.0938 14.2456 1084 141.03 242.981 460.139
2636 0 81.0762 13.9005 1127 136.128 243.545 458.813
2637 0 84.1192 13.9445 1173 135.88 241.812 457.962
2638 0 86.2456 14.1457 1220 133.56 241.473 456.329
2639 0 90.2541 13.9606 1260 135.33 243.716 455.583
2640 0 91.2369 14.15 1291 140.594 242.429 454.125
2641 0 94.1244 14.0346 1321 135.129 243.833 453.335
2642 0 98.141 13.878 1362 133.471 243.791 451.827
2643 0 101.517 13.8105 1402 136.548 242.443 450.514
2644 0 103.512 13.7278 1421 137.374 241.657 448.785
2645 0 107.421 13.8892 1492 138.963 241.818 447.314
2646 0 111.338 13.8138 1538 143.572 240.267 445.427
2647 0 111.197 14.272 1587 136.403 241.894 443.23
2648 0 116.519 13.9806 1629 143.117 243.641 440.864
2649 1 63.1818 12.9626 819 145.022 242.331 467.304
2650 0 66.2395 13.2851 880 132.832 242.983 466.152
2651 0 68.2053 13.5033 921 135.345 242.404 464.748
2652 0 71.1522 13.7171 976 138.353 241.592 463.169
2653 0 73.3679 13.6027 998 141.951 242.711 462.291
2654 0 76.1827 13.5858 1035 133.596 242.148 459.699
2655 0 78.2153 13.3733 1046 137.167 243.195 459.319
2656 0 80.2574 13.6311 1094 140.789 240.927 458.093
2657 0 83.215 13.9278 1159 139.407 241.776 456.299
2658 0 86.3072 13.5099 1166 139.885 240.055 455.003
2659 0 89.3649 13.8309 1236 144.321 242.121 452.97
2660 0 91.315 13.8641 1266 146.87 240.934 451.779
2661 0 95.4131 14.0023 1336 146.662 242.463 448.847
2662 0 98.2574 13.77 1353 147.259 241.609 447.994
2663 0 100.409 13.8434 1390 149.77 241.141 447.118
2664 0 104.473 14.0993 1473 154.397 241.248 444.552
2665 0 108.593 13.9236 1512 154.211 242.087 441.165
2666 0 112.333 13.9407 1566 149.638 242.925 440.071
2667 0 114.436 14.1477 1619 152.032 243.944 438.405
2668 0 120.513 14.1229 1702 153.109 242.922 437.273
2669 1 65.3545 13.3273 871 158.63 242.656 462.708
2670 0 65.4202 14.1852 928 153.129 242.321 461.503
2671 0 68.3262 13.9185 951 157.094 241.176 460.618
2672 0 72.2386 13.7461 993 156.416 241.239 459.695
2673 0 75.3303 13.9386 1050 150.07 243.504 458.14
2674 0 78.4536 13.8553 1087 158.986 242.301 456.581
2675 0 79.388 14.2591 1132 160.277 243.226 456.111
2676 0 81.2736 13.9283 1132 166.655 244.508 455.067
2677 0 84.3621 14.3429 1210 162.121 244.151 454.274
2678 0 86.4097 14.7669 1276 162.258 243.81 452.67
2679 0 90.3378 14.0584 1270 165.854 244.306 452.097
2680 0 93.2459 14.2634 1330 167.308 244.869 450.882
2681 0 95.1721 14.5316 1383 162.832 241.505 449.074
2682 0 98.2751 14.612 1436 161.068 240.929 447.121
2683 0 102.213 14.6948 1502 159.603 243.238 445.983
2684 0 104.203 14.5102 1512 158.448 242.208 445.267
2685 0 107.179 14.667 1572 161.881 239.88 444.392
2686 0 110.191 14.7562 1626 163.84 242.507 442.442
2687 0 113.178 14.7732 1672 162.593 241.861 440.617
2688 0 119.102 14.4918 1726 162.893 242.21 437.766
2689 0 122.142 14.9334 1824 160.658 240.3 435.785
2690 0 128.405 14.8048 1901 159.474 245.511 433.33
2691 1 66.0326 12.5695 830 163.904 244.278 462.814
2692 0 69.1203 13.5127 934 154.667 242.698 461.283
2693 0 71.1429 13.2691 944 161.579 243.035 460.989
2694 0 72.0824 13.5678 978 155.136 244.472 459.97
2695 0 76.1149 13.4271 1022 159.775 243.048 457.617
2696 0 78.0769 13.4867 1053 161.442 242.034 456.549
2697 0 82.1452 13.6466 1121 156.626 241.555 454.561
2698 0 84.1997 13.6461 1149 158.892 242.689 453.391
2699 0 87.1865 13.6833 1193 158.888 243.462 451.238
2700 0 90.1934 13.6374 1230 155.943 243.178 450.096
2701 0 93.2871 13.5281 1262 164.861 243.937 448.319
2702 0 98.2503 13.5674 1333 157.654 243.477 446.517
2703 0 100.174 13.5465 1357 160.62 243.928 444.69
2704 0 103.192 13.7899 1423 156.019 243.505 442.937
2705 1 53.1444 12.0239 639 152.222 242.1 467.995
2706 0 55.0714 12.3294 679 149.168 244.234 466.726
2707 0 58.0634 12.4691 724 154.811 242.93 465.633
2708 0 59.192 12.8058 758 147.694 244.003 464.774
2709 0 62.263 12.6239 786 146.003 244.372 463.416
2710 0 64.2656 12.5106 804 146.97 243.985 462.002
2711 0 67.318 12.6712 853 149.961 243.828 461.455
2712 0 68.1798 12.9951 886 154.051 242.424 459.403
2713 0 69.2836 13.221 916 152.187 244.217 459.092
2714 0 73.142 13.3166 974 153.818 241.887 457.631
2715 0 75.4112 13.2739 1001 160.78 243.599 456.376
2716 0 78.2407 13.3051 1041 154.199 242.434 454.687
2717 0 78.3322 13.7491 1077 158.842 242.453 453.742
2718 0 82.3444 13.6014 1120 162.125 244.334 451.996
2719 0 83.3486 13.6655 1139 163.414 242.913 451.593
2720 0 88.5661 13.8766 1229 164.52 242.597 450.019
2721 0 89.3766 13.6054 1216 163.088 242.858 447.661
2722 0 94.4651 13.7299 1297 161.294 241.573 446.24
2723 0 97.5065 13.6811 1334 164.56 243.615 443.426
2724 0 100.685 13.5671 1366 160.993 243.529 442.701
2725 0 103.341 13.9248 1439 160.672 243.951 439.705
2726 0 105.5 14 1477 165.204 243.807 438.678
2727 1 62.643 12.4994 783 162.78 242.504 461.37
2728 0 62.4851 13.0911 818 157.682 243.625 459.438
2729 0 65.5108 12.8986 845 162.94 241.659 460.211
2730 0 68.6148 12.971 890 160.897 242.854 458.693
2731 0 69.4644 13.3162 925 157.082 242.765 457.621
2732 0 71.2692 13.2877 947 159.515 243.472 456.285
2733 0 75.5284 12.8826 973 161.207 244.034 455.849
2734 1 91.7277 13.6273 1250 162.397 241.269 446.903
2735 0 94.6985 13.6855 1296 158.459 243.019 446.628
2736 0 97.4454 13.741 1339 160.388 242.031 446.059
2737 0 99.5053 13.5772 1351 165.386 241.28 446.242
2738 0 102.553 13.7879 1414 159.516 241.699 444.492
2739 0 104.41 13.8876 1450 154.659 240.765 443.956
2740 0 107.566 13.9635 1502 150.38 240.782 441.941
2741 0 111.494 13.7228 1530 155.122 240.947 440.826
2742 0 116.714 13.7258 1602 159.029 242.194 438.814
2743 0 121.341 13.9689 1695 160.188 241.376 437.736
2744 0 125.576 14.0394 1763 159.679 243.582 435.421
2745 1 72.3555 12.3833 896 160.844 243.243 462.033
2746 0 75.318 13.0513 983 155.279 242.52 460.756
2747 0 78.3275 13.1755 1032 163.156 243.841 458.365
2748 0 80.3926 13.2599 1066 164.704 242.34 457.694
2749 0 82.5242 13.2204 1091 163.328 240.991 457.324
2750 0 86.4358 13.1658 1138 163.22 239.627 455.757
2751 0 90.4207 13.2492 1198 166.878 242.153 454.638
2752 0 93.4995 13.583 1270 169.423 243.315 452.918
2753 0 94.4635 13.4338 1269 165.103 241.678 452.184
2754 0 96.3946 13.6107 1312 163.566 244.349 450.816
2755 0 101.452 13.7405 1394 168.786 243.082 449.711
2756 0 105.318 13.7014 1443 162.252 240.53 447.356
2757 0 108.298 13.3244 1443 164.816 243.977 446.362
2758 1 61.138 12.0056 734 157.405 242.947 470.775
2759 0 63.1331 12.5132 790 155.178 243.28 469.734
2760 0 65.1714 12.5975 821 157.385 243.797 469.379
2761 0 66.0697 12.8198 847 155.145 240.889 469.155
2762 0 69.0798 13.0863 904 159.271 242.497 468.462
2763 0 70.1424 13.216 927 158.359 241.443 467.653
2764 0 73.1824 13.3775 979 161.339 241.639 466.401
2765 0 76.1109 13.8351 1053 163.116 239.025 465.336
2766 0 79.2521 13.375 1060 161.166 240.888 465.02
2767 0 80.3304 13.4694 1082 157.695 240.404 464.077
2768 0 82.3364 13.9185 1146 159.339 240.628 463.614
2769 0 85.3618 13.6244 1163 164.782 242.77 462.912
2770 0 87.2181 13.7472 1199 166.465 243.309 462.202
2771 0 91.2572 13.7962 1259 160.318 242.661 460.481
2772 0 93.3324 13.6394 1273 164.137 241.962 459.507
2773 0 95.213 13.8216 1316 160.063 242.396 458.505
2774 0 98.1866 14.0956 1384 165.72 241.935 456.835
2775 0 100.191 14.0631 1409 160.066 241.89 455.762
2776 0 103.173 13.8505 1429 157.565 242.922 455.115
2777 0 106.156 14.3374 1522 158.581 242.955 453.701
2778 0 108.249 14.171 1534 164.535 242.392 452.761
2779 0 111.208 14.7381 1639 160.889 243.744 450.6
2780 0 117.303 14.4583 1696 160.235 241.941 448.949
2781 0 119.381 14.4495 1725 163.138 243.195 447.815
2782 0 125.204 14.4485 1809 167.201 241.431 445.811
2783 0 129.349 14.2173 1839 164.105 243.987 444.098
2784 0 134.215 14.5438 1952 159.912 243.112 441.218
2785 0 139.224 14.3223 1994 166.06 243.427 440.851
2786 0 144.233 14.6083 2107 163.186 242.559 437.443
2787 0 147.265 14.8779 2191 158.396 244.874 434.848
2788 0 152.331 14.823 2258 154.949 243.827 432.707
2789 0 159.287 14.8098 2359 164.135 243.325 429.723
2790 0 165.207 14.6544 2421 162.171 244.822 427.257
2791 1 94.2078 13.0987 1234 157.321 243.5 463.46
2792 0 98.313 12.7959 1258 159.413 243.901 462.136
2793 0 101.201 13.3397 1350 157.604 242.513 459.627
2794 0 105.2 12.7757 1344 159.121 245.112 459.714
2795 0 107.3 13.4203 1440 157.226 244.667 457.044
2796 0 112.255 13.015 1461 161.985 244.031 455.541
2797 0 116.324 13.2131 1537 153.515 243.919 453.506
2798 0 120.186 12.9217 1553 158.719 243.355 451.991
2799 0 126.22 13.1992 1666 159.306 243.821 449.551
2800 0 130.224 12.8625 1675 159.269 243.573 447.344
2801 0 136.212 12.9578 1765 158.049 243.873 444.331
2802 1 77.0889 11.5711 892 152.078 242.126 474.724
2803 0 80.1252 12.1185 971 147.827 243.548 472.387
2804 0 83.1546 12.2663 1020 147.225 241.779 471.759
2805 0 86.0959 12.3467 1063 137.98 243.742 469.193
2806 0 88.1227 12.8798 1135 148.49 242.954 468.745
2807 0 90.0942 12.7311 1147 144.651 243.698 467.38
2808 0 92.2004 12.9392 1193 152.117 244.795 466.358
2809 0 99.1071 12.7438 1263 148.026 243.143 464.731
2810 0 102.098 12.9778 1325 153.107 245.05 462.68
2811 0 107.147 13.2528 1420 144.316 245.571 460.095
2812 0 108.118 13.18 1425 147.785 243.511 458.38
2813 0 113.109 12.7134 1438 147.467 243.734 458.349
2814 0 115.269 13.1084 1511 146.751 241.029 455.622
2815 0 120.279 13.4188 1614 153.451 242.548 454.728
2816 0 122.245 13.432 1642 155.672 242.157 452.887
2817 0 126.207 13.8107 1743 151.882 241.735 449.777
2818 0 131.298 14.0825 1849 149.101 245.107 447.753
2819 0 136.219 13.5443 1845 153.691 242.906 446.316
2820 0 141.156 14.8417 2095 153.089 243.368 441.998
2821 0 144.133 14.4935 2089 152.505 243.712 441.774
2822 0 149.296 14.2669 2130 154.033 243.681 438.727
2823 0 155.255 14.5631 2261 158.469 243.505 433.811
2824 0 161.203 14.1747 2285 154.917 242.422 433.285
2825 0 166.296 14.3719 2390 157.548 242.738 429.578
2826 0 171.328 14.2359 2439 154.267 241.989 427.296
2827 0 176.441 14.9285 2634 155.051 242.283 424.167
2828 0 183.399 15.2127 2790 156.823 243.578 421.088
2829 0 188.4 14.3259 2699 158.968 239.447 419.117
2830 0 194.586 14.9599 2911 159.196 241.906 413.745
2831 0 201.661 14.9954 3024 159.909 243.264 413.377
2832 1 39.2738 9.42105 370 138.373 240.476 494.77
2833 0 44.3979 9.82029 436 130.463 240.874 494.975
2834 0 45.1296 10.5917 478 137.082 245.607 494.935
2835 0 44.1363 11.2379 496 132.298 243.006 496.01
2836 0 46.1508 11.7441 542 135.017 243.956 495.587
2837 0 45.0754 11.8912 536 135.58 243.194 495.937
2838 0 47.1293 12.0095 566 135.413 243.286 495.73
2839 0 47.1506 12.1314 572 142.117 241.47 496.621
2840 0 48.0953 11.6435 560 136.748 241.068 496.164
2841 0 47.2679 12.5032 591 141.8 244.212 496.002
2842 0 50.1468 11.4863 576 139.427 243.722 496.061
2843 0 50.2773 12.0333 605 143.069 244.755 496.42
2844 0 49.1336 12.0081 590 144.905 242.536 496.447
2845 0 50.0908 12.6371 633 142.071 241.158 495.605
2846 0 50.1419 11.7666 590 143.958 242.317 496.59
2847 0 50.186 12.374 621 146.688 241.335 496.349
2848 0 51.2284 11.7123 600 143.703 240.938 496.22
2849 0 51.0944 12.5258 640 135.753 241.331 495.094
2850 0 49.1373 12.5974 619 145.351 242.775 495.667
2851 0 51.1318 12.6536 647 146.406 242.297 497.011
2852 0 51.0977 13.4644 688 144.709 242.241 495.891
2853 0 51.119 11.8742 607 140.456 241.01 496.755
2854 0 51.0689 12.2971 628 146.505 240.522 496.212
2855 0 50.0812 12.7193 637 146.29 240.457 496.381
2856 0 50.1221 12.7489 639 143.2 240.199 497.003
2857 0 52.1377 12.4095 647 138.966 241.903 496.428
2858 0 51.1513 12.16 622 135.686 242.772 496.955
2859 0 52.0635 12.5232 652 144.902 241.252 496.776
2860 0 52.1196 12.7975 667 148.747 240.709 496.652
2861 0 52.1926 12.9903 678 139.069 239.996 496.68
2862 0 52.1428 12.7726 666 143.344 239.922 497.173
2863 0 52.2174 12.4863 652 141.817 241.635 497.515
2864 0 53.1737 12.3181 655 141.463 241.995 496.942
2865 0 53.2109 12.4598 663 137.296 240.051 496.685
2866 0 54.2676 12.3462 670 140.549 240.763 496.846
2867 0 53.26 12.1855 649 132.926 240.032 496.706
2868 0 54.1566 12.2053 661 139.858 239.837 497.452
2869 0 52.1153 12.7218 663 135.665 241.9 497.321
2870 0 55.1412 13.8916 766 131.576 242.299 496.09
2871 0 54.184 12.5867 682 129.265 241.65 496.877
2872 0 55.3992 12.6356 700 141.227 241.19 497.264
2873 0 55.1722 12.7782 705 132.719 239.528 497.183
2874 0 54.112 13.6938 741 133.66 240.116 497.428
2875 0 55.3087 13.054 722 137.719 239.212 496.713
2876 0 56.3286 13.368 753 133.555 240.691 496.141
2877 0 56.2424 12.6239 710 137.248 241.692 496.625
2878 0 55.1351 13.2583 731 136.848 241.855 497.311
2879 0 61.2688 15.3586 941 125.061 240.599 493.837
2880 0 59.1327 14.6958 869 124.659 240.94 495.704
2881 0 58.2682 16.1838 943 113.171 240.936 493.92
2882 0 58.2208 12.3152 717 129.421 240.257 474.155
2883 0 58.0936 13.2028 767 131.733 242.346 472.953
2884 0 58.121 12.8353 746 130.15 240.56 474.233
2885 0 58.1564 12.8275 746 132.046 240.001 475.899
2886 0 58.1438 12.6239 734 134.223 240.168 478.41
2887 0 57.208 12.3759 708 135.74 241.532 477.254
2888 0 58.0957 12.5483 729 139.364 239.661 479.732
2889 0 57.1206 12.1497 694 137.857 240.062 481.634
2890 0 58.0832 12.1722 707 136.578 240.419 482.156
2891 0 58.2765 12.1147 706 131.742 238.724 481.817
2892 0 57.1187 12.0276 687 142.089 240 482.114
2893 0 56.0696 12.8233 719 128.27 240.453 481.537
2894 0 58.1071 12.477 725 135.359 240.059 480.659
2895 0 57.0731 12.4928 713 133.142 238.59 483.052
2896 0 58.1367 12.247 712 127.268 239.812 483.044
2897 0 56.1192 12.6516 710 133.23 240.348 482.961
2898 0 59.206 12.0258 712 128.309 240.485 485.192
2899 0 57.1823 12.5039 715 126.35 240.138 484.015
2900 0 57.2301 12.0741 691 129.269 239.291 485.399
2901 0 58.3043 12.1432 708 123.462 240.411 487.032
2902 0 58.0501 12.1447 705 127.413 239.696 486.454
2903 0 58.1246 12.7313 740 121.939 240.004 487.499
2904 0 58.1577 12.3457 718 123.642 240.326 486.953
2905 0 59.1078 12.012 710 119.107 240.203 487.568
2906 0 59.2316 12.2232 724 124.615 242.461 487.539
2907 0 60.2269 12.1208 730 118.588 239.86 487.178
2908 0 57.1265 12.7612 729 124.021 239.809 486.464
2909 0 60.1033 12.4286 747 125.415 240.967 486.842
2910 0 57.1966 12.4133 710 119.835 238.101 488.621
2911 0 60.1037 12.2954 739 118.631 240.632 487.651
2912 0 58.1571 12.2771 714 124.493 240.349 486.284
2913 0 59.3804 12.1252 720 123.903 240.793 488.638
2914 0 59.1645 12.0342 712 126.017 240.705 487.865
2915 0 60.2009 12.4915 752 115.154 240.23 487.582
2916 0 59.0884 12.0328 711 121.554 241.838 487.762
2917 0 60.1656 12.2495 737 121.248 241.028 488.297
2918 0 60.2031 12.0924 728 124.672 239.409 487.283
2919 0 61.1576 12.2634 750 122.013 240 488.305
2920 0 59.1678 12.4054 734 123.578 240.202 488.966
2921 0 58.1403 12.4698 725 123.603 241.266 489.314
2922 0 58.1737 12.3767 720 119.374 240.712 489.182
2923 0 61.1815 12.1442 743 121.358 239.312 488.953
2924 0 61.2348 11.8723 727 121.934 240.161 489.64
2925 0 61.286 12.2703 752 118.23 240.722 489.112
2926 0 61.1691 12.0486 737 117.696 238.518 489.619
2927 0 62.1193 12.2023 758 118.773 238.897 490.111
2928 0 60.1473 12.8019 770 113.522 239.566 490.105
2929 0 59.1954 12.974 768 115.988 238.807 490.081
2930 0 61.2439 12.3604 757 111.018 241.443 490.774
2931 0 61.1268 12.7931 782 112.953 240.189 490.693
2932 0 61.3279 12.2783 753 113.973 237.24 491.433
2933 0 62.1222 12.5076 777 37.0026 238.481 491.941
2934 0 60.1154 12.4095 746 115.701 240.731 491.354
2935 0 62.1807 12.2224 760 117.811 240.863 492.554
2936 0 60.142 12.4539 749 113.947 241.76 491.653
2937 0 61.1345 12.7097 777 112.937 241.183 491.336
2938 0 62.1157 12.1708 756 111.221 241.687 492.854
2939 0 61.0845 12.7037 776 114.412 238.5 492.978
2940 0 61.2262 12.5436 768 107.359 239.897 493.219
2941 0 60.2451 12.6981 765 112.159 240.077 493.277
2942 0 63.1051 12.6139 796 110.554 240.254 493.534
2943 0 60.1576 12.7997 770 113.016 240.434 493.87
2944 0 63.2511 12.3318 780 107.879 239.733 494.154
2945 0 63.0892 12.839 810 108.249 242.632 494.506
2946 0 61.1358 12.4968 764 104.418 241.245 495.305
2947 0 63.1589 12.5556 793 111.981 240.155 495.535
2948 0 60.1347 13.0707 786 112.363 239.686 496.149
2949 0 61.1048 13.2396 809 113.321 238.667 495.555
2950 0 63.2084 12.8622 813 108.146 239.989 496.304
2951 0 62.0754 12.5815 781 102.915 242.271 496.184
2952 0 61.2464 12.6212 773 105.939 241.695 496.783
2953 0 62.2418 12.837 799 112.185 243.417 496.461
2954 0 61.1469 12.5272 766 111.71 240.608 493.266
2955 0 61.2748 12.599 772 113.031 242.456 494.437
2956 0 62.2254 12.9208 804 112.501 242.534 492.781
2957 0 62.1717 12.6263 785 109.553 242.203 492.254
2958 0 61.1206 13.0398 797 109.207 241.732 492.762
2959 0 64.1461 11.848 760 117.425 241.58 493.216
2960 0 63.133 12.6558 799 118.446 240.598 493.393
2961 0 62.2107 12.5702 782 121.371 242.861 493.045
2962 0 63.129 13.0209 822 113.717 243.456 493.734
2963 0 62.2061 12.6515 787 118.536 241.46 493.773
2964 0 61.1232 13.2519 810 116.378 238.894 493.594
2965 0 63.168 12.6646 800 116.968 239.395 494.129
2966 0 64.1392 12.7067 815 117.855 241.129 493.818
2967 0 62.1291 12.5223 778 118.159 239.186 494.443
2968 0 61.2097 12.9555 793 110.697 239.913 495.023
2969 0 61.1778 13.2564 811 119.418 242.118 494.679
2970 0 62.1587 12.8864 801 116.345 242.316 494.478
2971 0 61.1309 12.8249 784 123.811 240.77 495.371
2972 0 62.16 13.0791 813 117.144 239.477 494.718
