index division length width area intensity CMx CMy
2619 0 48.2966 11.7399 567 140.928 687.377 453.875
2620 0 48.3148 11.6527 563 139.679 687.522 450.204
2621 0 50.3685 11.7931 594 139.901 685.273 450.692
2622 0 53.315 11.8728 633 142.893 685.414 448.084
2623 0 54.2621 11.8683 644 143.144 686.413 447.317
2624 0 55.3997 11.9134 660 143.489 685.691 447.732
2625 0 54.2795 12.2698 666 139.363 685.716 446.646
2626 0 58.2172 12.0583 702 139.162 686.105 445.226
2627 0 59.2321 12.4426 737 137.161 687.985 443.563
2628 0 61.262 12.3568 757 138.423 686.684 441.341
2629 0 61.2413 12.5569 769 136.176 687.886 442.408
2630 0 64.21 12.5214 804 134.501 688.596 442.01
2631 0 66.3426 12.1189 804 135.542 688.888 442.257
2632 0 69.6084 12.2399 852 136.309 688.157 442.089
2633 0 71.3606 12.3317 880 138.895 687.109 442.462
2634 0 73.3895 12.495 917 139.608 686.659 440.808
2635 0 77.3488 12.6828 981 138.768 688.32 439.691
2636 0 79.3411 12.692 1007 141.009 689.174 438.882
2637 0 82.2918 12.8081 1054 146.804 690.118 437.416
2638 0 84.3527 12.6967 1071 139.084 687.477 436.355
2639 0 89.3599 12.7014 1135 140.124 686.681 431.325
2640 0 47.294 11.8408 560 135.854 687.618 436.423
2641 0 49.235 11.8209 582 143.906 687.562 439.237
2642 0 50.3479 12.2349 616 142.997 686.636 439.31
2643 0 50.2413 12.44 625 139.555 685.894 440.645
2644 0 53.2688 12.0709 643 138.509 686.311 441.202
2645 0 53.2577 12.7306 678 136.999 686.254 440.746
2646 0 55.2606 12.5044 691 141.609 687.376 441.292
2647 0 56.1448 12.4143 697 139.736 686.786 442.129
2648 0 59.2239 12.3092 729 137.41 686.071 442.355
2649 0 59.178 12.0315 712 138.926 684.709 442.892
2650 0 62.1714 12.0152 747 140.009 687.292 441.839
2651 0 61.2796 12.5164 767 133.825 687.301 440.111
2652 0 64.1732 12.8403 824 126.234 687.863 441.075
2653 0 67.1893 12.6359 849 135.813 688.885 438.61
2654 0 70.37 12.2353 861 134.361 688.067 436.472
2655 0 71.3074 12.2147 871 137.594 686.295 437.258
2656 0 74.1847 12.0645 895 134.753 687.713 437.379
2657 1 41.2113 10.0215 413 135.189 686.574 455.23
2658 0 43.1577 10.6122 458 143.4 686.007 455.696
2659 0 43.2445 10.9147 472 134.517 686.75 455.911
2660 0 46.1693 11.1113 513 141.224 688.456 453.138
2661 0 46.1544 12.0032 554 130.995 688.68 442.448
2662 0 48.1354 12.5895 606 122.715 687.843 443.642
2663 0 52.2057 13.3319 696 126.537 686.713 443.79
2664 0 51.1757 12.5646 643 129.146 687.171 443.538
2665 0 53.2509 12.8449 684 130.222 689.715 442.82
2666 0 54.1335 12.9679 702 136.654 688.011 442.956
2667 0 55.2412 13.088 723 141.773 689.447 442.827
2668 0 57.1556 12.9996 743 134.083 685.509 441.641
2669 0 59.121 13.4977 798 138.976 688.196 441.044
2670 0 60.19 13.3411 803 142.984 688.296 441.273
2671 0 62.1394 13.1479 817 143.379 686.929 440.513
2672 0 64.2002 13.2398 850 147.133 685.901 439.28
2673 0 67.1468 13.7907 926 146.654 686.128 436.253
2674 0 68.1199 14.1662 965 147.292 684.681 436.487
2675 0 70.1219 14.1183 990 144.909 685.968 436.05
2676 0 70.3693 13.9407 981 153.43 685.454 436.364
2677 0 74.1999 13.9084 1032 138.172 685.628 436.935
2678 0 77.3257 13.8893 1074 145.546 686.335 436.791
2679 0 80.2417 13.6463 1095 147.07 685.067 437.461
2680 0 82.4478 13.9846 1153 143.781 685.69 437.413
2681 0 86.2491 13.8784 1197 147.046 685.816 435.998
2682 0 90.2829 13.3359 1204 144.056 687.277 434.9
2683 0 92.2757 14.2508 1315 153.447 686.411 432.949
2684 0 95.4014 13.9411 1330 147.249 686.312 429.876
2685 1 55.0392 17.0424 938 124.623 684.849 443.286
2686 0 55.0441 15.7692 868 133.545 684.577 443.624
2687 0 54.097 13.1615 712 154.89 685.893 440.322
2688 0 54.0825 13.4979 730 155.084 686.986 440.718
2689 0 57.0848 13.0858 747 154.428 686.131 442.343
2690 0 59.0633 13.6464 806 153.77 685.466 441.957
2691 0 60.0793 13.5155 812 161.012 685.511 442.304
2692 0 61.0759 14.1791 866 159.068 684.633 441.305
2693 0 63.1647 13.8527 875 151.181 685.296 439.984
2694 0 65.2838 14.1383 923 157.832 686.203 439.672
2695 0 68.1456 14.381 980 156.879 686.709 437.84
2696 0 70.2645 14.3458 1008 155.768 687.83 438.306
2697 0 72.2017 14.1963 1025 161.228 687.769 438.026
2698 0 73.1762 14.3762 1052 163.106 686.824 438.304
2699 0 78.3773 14.0219 1099 159.372 688.656 437.98
2700 0 81.2241 13.8875 1128 163.676 686.905 436.376
2701 0 82.2084 13.6482 1122 156.226 687.101 434.293
2702 0 85.2833 13.719 1170 152.852 686.187 433.52
2703 0 89.3816 14.0521 1256 151.029 684.778 432.173
2704 0 91.2719 14.1993 1296 155.569 686.118 430.368
2705 0 94.3632 14.2322 1343 153.765 687.579 428.182
2706 1 56.249 16.7292 941 129.62 685.574 442.364
2707 0 55.1038 17.1676 946 131.674 687.342 440.651
2708 0 56.2385 16.5012 928 141.828 686.134 440.943
2709 0 57.1239 15.055 860 141 686.322 440.423
2710 0 57.0789 13.2273 755 150.24 685.494 439.118
2711 0 59.1714 13.4018 793 156.246 686.588 440.614
2712 0 60.1517 13.4826 811 155.441 684.576 439.49
2713 0 62.2435 13.2865 827 155.589 685.016 440.389
2714 0 64.1742 13.7283 881 152.443 686.47 439.346
2715 0 65.3612 14.0297 917 155.191 686.764 439.334
2716 0 67.3258 13.8134 930 153.782 687.952 440.049
2717 0 70.3417 13.2923 935 143.105 687.072 438.637
2718 0 72.394 13.7442 995 154.375 687.927 437.921
2719 0 76.3131 13.7722 1051 151.66 687.413 437.049
2720 0 79.2243 13.6322 1080 156.604 686.468 436.081
2721 0 82.3211 13.7996 1136 159.934 688.134 435.362
2722 0 86.256 13.6686 1179 159.522 688.15 434.008
2723 0 89.3047 13.8067 1233 154.624 691.234 431.509
2724 0 46.2505 12.8431 594 154.163 686.628 440.55
2725 0 49.2078 12.8435 632 154.714 687.627 441.038
2726 0 50.096 12.8953 646 157.839 686.302 435.015
2727 0 51.1365 12.9262 661 154.888 688.796 436.564
2728 0 52.272 13.4106 701 156.746 686.227 437.544
2729 0 54.2005 13.3394 723 156.588 687.047 439.422
2730 0 55.1947 13.0447 720 164.089 687.597 440.986
2731 0 59.3075 12.9326 767 161.632 686.176 440.641
2732 0 59.1298 13.6141 805 155.755 687.61 440.963
2733 0 61.165 14.0276 858 151.77 686.568 439.569
2734 0 75.267 13.7909 1038 156.87 685.919 436.791
2735 0 77.2521 14.2391 1100 153.609 685.195 435.744
2736 0 79.1689 13.9701 1106 155.615 687.862 435.778
2737 0 83.291 14.1192 1176 156.765 687.597 433.992
2738 0 85.2292 14.3143 1220 159.026 687.402 432.818
2739 0 89.2204 13.9654 1246 157.609 686.681 432.767
2740 0 92.345 14.1318 1305 154.038 686.784 431.413
2741 0 47.1391 13.5981 641 154.956 687.22 436.028
2742 0 51.122 12.656 647 150.372 685.7 437.952
2743 0 51.0944 13.1717 673 151.349 686.789 436.138
2744 0 53.1948 13.178 701 150.351 686.378 437.096
2745 0 55.1253 13.551 747 139.495 685.051 436.111
2746 0 55.2268 13.7976 762 153.777 686.946 439.201
2747 0 58.1362 13.52 786 153.884 685.865 439.786
2748 0 61.2169 13.493 826 159.485 685.793 440.518
2749 0 62.179 14.1366 879 155.825 685.592 442.014
2750 0 64.1927 14.0514 902 162.87 686.325 442.384
2751 0 65.1303 14.2177 926 160.677 686.975 443.299
2752 0 70.2968 14.325 1007 162.488 685.7 443.979
2753 0 71.29 14.6725 1046 160.345 688.114 444.503
2754 0 74.181 14.2085 1054 160.914 686.847 444.782
2755 0 77.2975 14.4895 1120 161.366 685.238 443.594
2756 0 80.3196 14.2929 1148 164.72 687.678 443.166
2757 0 83.3284 14.1128 1176 162.196 687.702 442.261
2758 0 87.2717 14.0252 1224 161.756 688.13 441.593
2759 0 88.1797 14.9581 1319 164.942 687.274 440.055
2760 1 47.1191 13.0096 613 155.653 687.357 460.522
2761 0 49.3417 13.2748 655 160.209 685.814 460.809
2762 0 51.2471 12.9959 666 165.673 684.748 460.351
2763 0 53.204 13.0441 694 155.176 686.873 459.509
2764 0 53.2546 12.9191 688 167.278 685.17 458.608
2765 0 55.2616 13.807 763 154.944 685.861 456.834
2766 0 55.2285 13.924 769 163.655 685.906 456.914
2767 1 59.2583 13.6015 806 159.376 685.779 447.036
2768 0 61.3462 13.5135 829 155.606 685.338 449.119
2769 0 61.1221 14.0702 860 151.845 684.933 449.946
2770 0 65.266 13.5752 886 161.55 681.66 450.954
2771 0 66.3339 13.6883 908 156.601 684.266 452.197
2772 0 69.2865 13.8122 957 150.86 682.55 451.897
2773 0 71.2272 13.8992 990 156.562 683.865 451.622
2774 0 73.213 13.6998 1003 157.749 684.58 451.166
2775 0 76.1816 13.7172 1045 152.126 684.486 451.063
2776 0 78.3626 13.731 1076 149.921 687.465 450.496
2777 0 82.1912 13.5051 1110 151.377 685.535 449.399
2778 0 84.2567 13.625 1148 143.873 686.507 448.479
2779 0 86.2546 13.6109 1174 154.9 686.634 446.976
2780 1 47.1553 12.7239 600 149.552 685.355 466.832
2781 0 49.1237 12.438 611 150.733 684.987 465.087
2782 0 50.3173 12.6994 639 150.516 685.009 465.413
2783 0 51.241 12.8998 661 149.1 684.398 464.905
2784 0 52.3463 12.7803 669 149.972 684.559 464.774
2785 0 53.2511 13.4457 716 146.997 685.612 462.975
2786 0 56.2098 13.5208 760 149.078 685.632 462.641
2787 0 56.2723 13.9322 784 152.121 685.565 462.028
2788 0 59.2485 13.7725 816 148.04 685.206 455.585
2789 0 63.2158 13.2245 836 147.329 685.867 455.33
2790 0 63.2139 13.3831 846 150.293 685.375 456.721
2791 0 65.3855 13.4434 879 147.265 683.384 455.914
2792 0 68.3194 13.6711 934 153.061 684.05 456.149
2793 0 71.4188 13.4838 963 154.914 685.201 456.498
2794 0 72.4351 13.626 987 154.228 684.297 456.221
2795 0 75.2539 13.7136 1032 147.852 686.68 455.495
2796 0 77.3231 14.1484 1094 147.01 684.58 454.425
2797 0 81.191 13.8439 1124 155.239 686.349 453.475
2798 0 84.4089 13.4938 1139 153.822 684.349 452.949
2799 0 87.3419 14.1284 1234 155.03 683.656 450.969
2800 0 90.3617 13.7448 1242 150.13 684.266 450.403
2801 0 94.2881 13.9042 1311 154.933 684.034 448.7
2802 0 97.3075 13.6063 1324 152.17 686.438 447.684
2803 0 102.286 14 1432 156.834 685.034 444.017
2804 1 59.1239 15.1039 893 140.869 686.392 459.664
2805 0 58.0647 14.6216 849 143.769 684.722 458.59
2806 0 58.2364 14.2007 827 148.096 684.336 458.63
2807 0 58.1347 13.7267 798 155.041 685.452 459.202
2808 0 60.1324 13.6033 818 154.119 685.319 458.81
2809 0 62.185 13.8297 860 151.002 684.336 459.377
2810 0 65.2193 13.7689 898 155.716 686.141 459.821
2811 0 66.0958 14.2823 944 149.785 683.735 457.841
2812 0 69.3086 14.183 983 155.008 686.017 457.664
2813 0 71.1744 14.0359 999 158.048 684.744 456.916
2814 0 74.1434 14.2966 1060 158.309 684.077 456.98
2815 0 77.099 14.3971 1110 162.817 684.879 456.104
2816 0 79.1228 14.3195 1133 162.423 684.113 456.198
2817 0 84.289 14.5571 1227 157.572 687.482 454.667
2818 0 86.1518 14.4744 1247 158.455 686.982 453.583
2819 0 91.4171 14.1987 1298 161.599 687.634 452.612
2820 1 48.2424 12.7481 615 162.561 684.971 474.234
2821 0 48.2892 12.8807 622 154.162 686.283 473.492
2822 0 50.3451 13.5664 683 159.119 684.023 471.687
2823 0 52.1371 13.1768 687 163.316 683.866 471.01
2824 0 54.1706 13.1991 715 158.53 686.055 469.127
2825 1 57.1982 13.7067 784 158.992 683.179 457.635
2826 0 59.0842 13.4046 792 160.423 682.586 459.725
2827 0 61.1414 13.6405 834 158.87 684.433 460.809
2828 0 59.2209 14.2179 842 163.216 684.796 462.352
2829 0 62.1308 13.6486 848 170.443 684.092 463.646
2830 0 65.1547 14.2584 929 163.462 681.012 462.284
2831 0 67.1572 14.1161 948 164.204 683.903 461.768
2832 0 70.1815 14.0065 983 166.609 682.424 461.651
2833 0 72.2592 14.448 1044 161.521 681.58 461.344
2834 0 75.1098 14.4189 1083 164.641 683.44 461.722
2835 0 78.2784 13.7714 1078 159.781 682.174 461.752
2836 1 43.2571 12.2523 530 160.953 682.436 479.366
2837 0 44.2235 12.4821 552 162.558 682.089 479.103
2838 0 46.2118 12.724 588 157.52 682.536 478.976
2839 0 47.362 12.9006 611 164.381 683.221 476.93
2840 0 48.3354 13.158 636 161.723 684.808 475.986
2841 0 51.2217 14.7399 755 139.658 683.326 463.343
2842 0 53.1272 14.9641 795 152.166 683.469 464.454
2843 0 54.2657 14.9081 809 146.943 682.085 465.129
2844 0 56.198 14.7336 828 148.58 682.796 465.88
2845 0 56.2234 14.229 800 157.444 682.086 466.351
2846 0 58.1124 13.3879 778 155.744 683.42 467.814
2847 0 61.1548 13.1797 806 151.315 684.159 467.237
2848 0 60.2495 14.1246 851 162.628 685.877 468.132
2849 0 64.2135 13.751 883 159.194 685.214 468.077
2850 0 66.1467 13.591 899 163.872 685.611 467.05
2851 0 69.1643 14.2993 989 160.703 684.051 467.885
2852 0 70.2147 13.772 967 150.553 684.421 468.396
2853 0 72.1943 13.9762 1009 160.577 683.574 467.07
2854 0 76.1923 13.9384 1062 162.852 683.173 466.235
2855 0 78.2226 14.4204 1128 163.35 684.065 465.284
2856 0 80.2436 14.2317 1142 157.793 684.453 464.845
2857 0 83.1606 14.2375 1184 151.014 683.226 463.308
2858 0 88.1815 14.5722 1285 151.706 683.982 462.181
2859 0 89.1855 14.0942 1257 160.162 682.278 461.453
2860 0 94.3608 14.1266 1333 161.231 682.882 460.319
2861 0 96.2512 14.5245 1398 162.344 684.362 458.795
2862 0 97.3305 14.6922 1430 159.613 683.522 457.364
2863 0 53.2678 12.991 692 154.944 684.051 464.087
2864 0 53.1527 13.6776 727 144.902 683.726 464.418
2865 0 56.2074 13.717 771 151.9 681.968 465.209
2866 0 56.2273 14.0679 791 156.139 682.745 466.517
2867 0 59.1519 13.8457 819 158.237 682.944 468.403
2868 0 60.2008 13.754 828 157.442 682.489 469.876
2869 0 63.2456 14.1354 894 154.054 684.475 471.404
2870 0 66.3022 13.5742 900 154.089 682.926 473.138
2871 0 67.153 13.5809 912 159.136 682.908 471.664
2872 0 69.0956 13.7201 948 155.331 683.379 471.689
2873 0 72.1522 13.6933 988 156.082 683.242 470.619
2874 0 74.1187 13.7212 1017 162.888 684.293 469.354
2875 0 76.2014 13.7924 1051 150.828 685.178 468.711
2876 0 80.3002 13.6737 1098 159.473 683.244 468.092
2877 0 84.1656 13.5923 1144 160.268 681.014 466.529
2878 0 85.2138 14.0001 1193 159.08 683.346 465.881
2879 0 89.2538 14.1282 1261 155.402 683.444 465.398
2880 1 47.289 12.5611 594 157.582 682.673 486.609
2881 0 48.227 13.0425 629 161.437 680.949 486.749
2882 0 55.3638 13.0049 720 167.717 682.028 483.406
2883 0 56.2309 13.2845 747 167.245 680.27 483.485
2884 0 58.2212 13.38 779 163.612 678.485 483.211
2885 0 60.1927 12.975 781 161.891 681.291 482.699
2886 0 62.2696 13.2649 826 168.542 681.522 482.039
2887 0 62.3277 13.7018 854 169.529 681.22 481.788
2888 0 64.2858 13.3778 860 168.65 681.888 481.469
2889 0 67.2999 13.165 886 169.83 681.685 480.874
2890 0 69.3039 13.4192 930 171.194 679.353 479.642
2891 0 70.4405 13.9266 981 166.153 682.276 478.658
2892 0 72.2169 14.041 1014 166.589 681.276 478.109
2893 0 76.293 13.4482 1026 172.919 681.659 477.443
2894 0 79.3748 13.5433 1075 168.604 683.352 476.225
2895 0 81.2849 13.4219 1091 155.937 682.883 474.36
2896 0 82.5351 13.6185 1124 159.784 682.52 473.303
2897 0 87.426 13.5543 1185 159.821 683.63 472.206
2898 0 89.7681 13.3901 1202 159.679 682.885 471.36
2899 1 48.3855 11.6564 564 159.727 682.59 492.672
2900 0 49.298 11.9477 589 156.711 682.671 491.188
2901 0 49.2958 12.4149 612 151.701 683.136 490.544
2902 0 51.413 12.2926 632 158.633 683.016 489.693
2903 0 54.4091 12.4611 678 33.7242 682.521 488.692
2904 0 55.3343 12.6323 699 153.844 680.718 487.422
2905 1 58.215 12.8489 748 149.215 683.512 475.639
2906 0 60.1754 13.1449 791 153.142 682.094 477.891
2907 0 61.2082 12.9884 795 150.64 683.053 479.382
2908 0 62.2468 13.2216 823 154.254 681.159 480.293
2909 0 65.2306 12.9387 844 158.008 679.208 480.345
2910 0 67.3526 13.3625 900 155.712 681.36 479.622
2911 0 67.269 13.617 916 158.34 681.585 479.3
2912 0 70.3098 13.5258 951 157.197 682.426 477.283
2913 0 73.2433 13.4756 987 159.886 682.776 477.545
2914 0 77.3025 13.4278 1038 158.628 681.575 475.659
2915 0 78.1759 13.2394 1035 154.648 680.605 475.515
2916 0 81.2413 13.2322 1075 159.136 681.049 474.955
2917 0 84.2238 13.4404 1132 154.663 680.312 474.237
2918 1 44.2702 12.3108 545 155.609 679.374 493.314
2919 0 44.0837 12.7031 560 153.732 680.634 492.762
2920 0 48.4057 12.4779 604 155.955 681.169 491.697
2921 0 49.2807 12.8854 635 154.02 682.509 490.86
2922 0 50.2884 12.9056 649 147.313 682.729 489.356
2923 0 52.3011 13.1164 686 154.802 682.315 489.277
2924 0 53.2357 13.1866 702 153.289 680.879 484.681
2925 0 55.2 13.6051 751 155.285 683.486 482.799
2926 0 57.111 13.43 767 147.134 682.295 483.266
2927 0 59.2992 13.0187 772 157.755 683.982 483.627
2928 0 61.2977 13.1489 806 158.794 682.783 483.641
2929 0 61.3082 13.6197 835 154.822 681.923 483.337
2930 0 65.2062 13.5877 886 156.037 680.692 482.13
2931 0 67.2617 13.5887 914 160.019 681.445 479.206
2932 0 68.203 13.8557 945 155.512 683.781 478.969
2933 0 71.1749 13.8391 985 151.544 683.271 479.306
2934 0 71.1684 14.3182 1019 159.448 681.84 478.675
2935 0 75.3461 13.9091 1048 151.94 684.36 477.802
2936 0 75.2247 13.9582 1050 157.894 683.074 477.164
2937 0 79.104 14.2344 1126 166.522 681.475 476.96
2938 0 83.1397 13.9404 1159 161.766 681.221 475.071
2939 0 86.1776 13.9944 1206 165.073 683.151 474.716
2940 0 89.2253 13.8974 1240 166.4 680.598 473.013
2941 0 91.1574 14.1404 1289 157.714 682.223 470.864
2942 0 95.2098 13.8746 1321 93.7176 683.279 470.438
2943 1 50.209 12.6073 633 162.55 681.028 492.204
2944 0 51.2804 12.6559 649 159.162 679.316 490.538
2945 0 58.2114 15.4094 897 143.622 681.076 484.035
2946 0 57.183 16.3335 934 145.891 680.824 483.224
2947 0 59.1851 15.2234 901 144.489 679.375 482.721
2948 0 57.1145 13.5867 776 164.006 679.057 481.35
2949 0 60.1086 13.4922 811 161.261 679.275 482.215
2950 0 60.2122 13.4856 812 165.204 679.563 483.611
2951 0 63.138 13.8585 875 161.981 679.59 482.723
2952 0 66.1549 13.4835 892 163.093 678.669 481.629
2953 0 68.2391 13.5846 927 158.542 677.397 481.029
2954 0 69.1609 14.1409 978 164.966 678.025 479.793
2955 0 73.2372 13.6816 1002 160.106 677.152 479.143
2956 0 76.3606 13.6327 1041 160.516 677.931 478.951
2957 0 79.1461 13.6077 1077 161.496 677.033 478.355
2958 0 83.2951 13.5662 1130 165.524 677.698 477.281
2959 0 86.2494 13.774 1188 94.3552 680.962 475.64
2960 0 87.246 13.8459 1208 160.916 679.99 474.92
2961 0 93.5182 13.6016 1272 156.397 679.645 472.226
2962 0 95.3061 13.7662 1312 162.404 680.546 471.4
2963 0 99.3419 13.4586 1337 156.573 679.211 469.921
2964 0 53.2908 11.8595 632 160.127 680.242 478.03
2965 0 55.1593 12.2554 676 149.311 678.623 480.456
2966 0 57.1305 12.5852 719 123.691 676.544 484.456
2967 0 59.1396 12.6649 749 146.557 677.132 486.665
2968 0 61.2555 12.603 772 151.088 678.478 487.162
2969 0 62.1912 12.8475 799 155.28 676.872 487.06
2970 0 65.3239 12.5375 819 151.216 677.97 486.369
2971 0 66.2365 12.712 842 156.172 677.987 485.467
2972 0 68.2589 13.1704 899 157.239 678.077 483.952
2973 0 69.3729 13.3337 925 162.827 678.156 484.126
2974 0 73.2595 13.1997 967 158.415 678.292 482.659
2975 0 75.3557 13.0979 987 166.641 678.477 481.271
2976 0 78.2352 13.3316 1043 167.045 680.475 480.469
2977 0 80.3443 13.716 1102 161.271 679.909 480.098
2978 0 82.256 13.4337 1105 160.867 679.484 479.48
2979 0 85.4123 13.2299 1130 161.13 679.33 478.948
2980 0 88.2321 13.7138 1210 168.343 678.864 477.768
2981 0 90.3395 13.8699 1253 168.53 679.354 477.813
2982 0 94.6191 13.7499 1301 164.342 677.495 475.252
2983 0 97.516 13.9669 1362 164.811 679.612 472.416
2984 1 50.2331 12.442 625 165.806 678.251 493.349
2985 0 52.366 12.7373 667 162.237 677.844 492.849
2986 0 54.3922 12.943 704 160.433 677.604 491.919
2987 0 55.1345 12.7144 701 158.835 676.494 491.961
2988 0 55.2294 13.2538 732 163.1 676.954 491.033
2989 0 58.2095 12.8845 750 158.923 675.103 490.092
2990 0 60.2402 12.7656 769 156.495 676.296 489.925
2991 0 62.3053 12.503 779 158.958 677.159 489.24
2992 0 62.1783 13.0753 813 158.675 677.148 488.536
2993 0 63.1977 13.5132 854 159.658 676.549 486.883
2994 0 65.2628 13.5452 884 165.279 676.936 486.541
2995 0 67.3217 13.3538 899 166.363 676.09 487.499
2996 0 70.3055 13.7543 967 163.751 677.511 487.99
2997 0 71.2692 13.4701 960 161.83 677.019 488.936
2998 0 72.4625 13.4138 972 158.891 680.388 489.202
2999 0 76.2253 13.5782 1035 167.428 680.667 488.118
3000 0 79.1717 13.8812 1099 164.209 680.521 486.57
3001 0 80.308 13.8716 1114 156.081 680.961 485.543
3002 0 84.4442 13.8671 1171 162.307 680.589 484.633
3003 0 87.3466 13.6239 1190 162.845 680.739 483.785
3004 0 91.3212 13.7208 1253 161.125 680.026 481.915
3005 0 95.3408 13.7926 1315 154.027 680.797 480.29
3006 1 61.378 13.034 800 157.249 680.89 489.575
3007 0 52.1976 12.9316 675 162.961 679.413 484.69
3008 0 54.1892 12.8254 695 162.99 678.404 485.35
3009 0 55.1108 13.0283 718 160.39 677.662 486.34
3010 0 56.1178 13.5073 758 159.256 680.646 487.241
3011 0 57.1611 13.2083 755 163.777 680.938 487.407
3012 0 58.1507 13.8777 807 155.439 679.295 487.729
3013 0 60.194 14.0712 847 158.098 681.091 488.548
3014 0 63.1292 14.6525 925 145.2 680.036 489.319
3015 0 65.1119 14.5288 946 151.42 679.042 490.832
3016 0 65.1004 14.9922 976 163.053 680.905 491.728
3017 0 67.2304 14.9486 1005 159.917 679.375 492.403
3018 0 69.189 15.3204 1060 160.194 679.055 493.409
3019 0 72.2108 14.8039 1069 158.061 680.717 493.147
3020 0 74.129 14.151 1049 160.868 680.272 493.335
3021 0 76.1204 13.9253 1060 165.665 679.012 492.052
3022 0 78.1385 13.8984 1086 159.051 680.157 491.416
3023 0 82.1838 13.847 1138 164 679.088 491.205
3024 1 41.0482 12.5706 516 164.771 677.516 510.942
3025 0 45.1055 12.3932 559 166.671 678.351 509.667
3026 0 45.1842 13.0577 590 162.769 679.905 509.725
3027 0 47.2574 12.5694 594 163.786 679.136 508.483
3028 0 46.0884 13.3873 617 162.331 679.59 508.238
3029 0 49.1019 13.0952 643 160.938 680.485 507.521
3030 0 51.1435 13.2177 676 161.54 679.414 506.602
3031 0 53.1167 13.1032 696 158.234 680.838 505.568
3032 0 57.0694 16.0331 915 141.283 680.8 498.249
3033 0 57.0851 15.8185 903 139.117 679.969 497.633
3034 0 58.1004 14.9224 867 149.805 680.64 497.685
3035 0 60.1228 14.4371 868 156.849 680.641 498.134
3036 0 61.1415 13.5096 826 162.577 680.619 498.133
3037 0 62.1406 13.9361 866 151.997 680.576 499.001
3038 0 63.1479 13.9039 878 158.289 681.294 499.212
3039 0 66.124 13.4444 889 144.53 681.472 499.321
3040 0 68.1018 13.7001 933 154.995 680.61 497.719
3041 0 69.0596 13.7417 949 150.832 680.473 496.312
3042 0 72.1828 13.7706 994 152.269 680.304 496.359
3043 0 73.1622 13.9006 1017 148.729 679.777 496.485
3044 0 76.1029 13.7183 1044 146.222 679.758 495.483
3045 0 80.1657 13.5968 1090 145.912 678.456 494.383
3046 0 82.163 13.6193 1119 148.096 678.853 493.265
3047 0 88.2378 13.5316 1194 150.096 680.435 492.402
3048 0 90.3015 13.3885 1209 150.6 679.994 490.78
3049 0 94.2914 13.6916 1291 148.422 680.913 489.602
3050 1 48.2225 12.1727 587 146.53 678.157 511.739
3051 0 50.1222 12.4496 624 149.966 680.204 511.63
3052 0 51.1318 12.7318 651 151.485 680.492 510.272
3053 0 51.0744 13.4901 689 152.459 680.199 509.723
3054 0 53.1707 13.2028 702 147.642 678.91 509.442
3055 0 56.2255 13.4281 755 150.605 680.27 508.706
3056 0 57.1738 13.8525 792 155.434 680.239 506.976
3057 0 59.0762 13.5926 803 157.066 681.859 506.798
3058 0 61.1829 13.5495 829 149.338 680.142 506.206
3059 0 61.0623 14.1822 866 160.176 679.4 505.119
3060 0 64.0993 14.3059 917 161.288 678.969 504.02
3061 0 67.088 13.9667 937 162.544 679.034 503.571
3062 0 69.0803 14.0995 974 159.271 680.407 503.585
3063 0 73.1472 13.7668 1007 162.02 680.864 502.012
3064 0 74.1706 13.9543 1035 156.718 681.009 500.46
3065 0 77.1802 13.9803 1079 165.92 679.305 500.136
3066 0 79.1634 13.9332 1103 157.181 679.112 500.038
3067 0 80.1467 14.2114 1139 164.305 678.731 498.587
3068 0 84.2477 14.2556 1201 165.406 679.717 497.501
3069 0 88.0671 14.1029 1242 164.372 680.982 496.068
3070 1 44.0831 12.7033 560 163.111 678.761 518.577
3071 0 45.0343 12.9457 583 165.842 681.233 517.918
3072 0 46.0779 13.1733 607 168.563 678.084 517.484
3073 0 45.1197 13.9185 628 168.947 677.191 517.369
3074 0 49.0744 13.1637 646 163.667 677.825 516.215
3075 0 49.0534 13.9032 682 167.78 677.98 515.764
3076 0 51.0318 13.3054 679 160.735 676.533 515.153
3077 0 52.1282 13.5435 706 161.63 677.476 513.992
3078 0 54.231 13.7191 744 167.886 677.938 512.854
3079 0 59.2905 16.0228 950 153.216 679.225 507.406
3080 0 58.1547 15.9231 926 155.536 679.499 507.262
3081 0 58.1037 14.5602 846 165.739 679.228 507.338
3082 0 59.2288 14.52 860 160.657 679.171 507.437
3083 0 61.267 14.6245 896 163.744 678.996 507.007
3084 0 64.266 14.3622 923 158.369 679.025 507.365
3085 0 67.3258 14.1848 955 165.462 677.573 507.815
3086 0 68.2604 14.1517 966 161.682 676.593 507.612
3087 0 72.2289 14.2048 1026 160.276 677.501 506.588
3088 0 75.2349 13.9696 1051 158.902 678.369 505.357
3089 0 77.049 14.2766 1100 159.179 677.812 504.579
3090 0 80.1616 14.2587 1143 159.878 679.441 503.594
3091 0 84.1475 13.9517 1174 160.695 678.972 502.642
3092 0 87.148 14.1828 1236 164.765 679.897 501.096
3093 1 45.0336 13.9007 626 161.404 679.094 520.562
3094 0 47.0836 13.9114 655 161.122 677.772 519.757
3095 0 49.0831 13.6299 669 160.499 678.59 518.184
3096 0 49.1708 14.0937 693 161.212 677.844 516.828
3097 0 52.2181 13.9607 729 159.458 677.568 515.018
3098 0 53.0894 13.9764 742 159.65 677.842 514.557
3099 0 53.2571 14.3643 765 159.407 677.859 514.761
3100 0 57.1954 14.0046 801 159.273 677.464 513.956
3101 0 62.1685 16.7931 1044 141.727 677.681 509.133
3102 0 63.1566 15.9603 1008 145.766 678.029 509.276
3103 0 62.109 15.4084 957 149.444 676.856 509.765
3104 0 63.1442 14.8232 936 159.173 679.602 509.667
3105 0 67.1207 14.1685 951 162.819 679.814 509.305
3106 0 67.153 14.8914 1000 164.613 677.699 509.649
3107 0 70.1723 14.6211 1026 164.618 680.052 509.436
3108 0 73.2821 14.4919 1062 165.594 681.52 509.425
3109 0 75.4159 14.4002 1086 168.347 681.958 508.552
3110 0 77.1935 14.5997 1127 167.464 678.303 508.031
3111 0 81.1211 14.4722 1174 165.727 680.589 507.08
3112 0 84.1992 14.5132 1222 164.981 681.403 505.644
3113 0 87.4078 14.5067 1268 164.95 679.91 505.044
3114 1 44.1299 13.6642 603 162.909 679.337 525.57
3115 0 45.1952 14.0502 635 166.707 679.028 524.066
3116 0 47.159 13.8468 653 160.654 679.435 524.224
3117 0 48.5582 13.6537 663 168.688 679.416 524.603
3118 0 51.3563 13.9613 717 163.685 678.593 523.699
3119 0 52.1698 14.127 737 161.829 678.89 523.79
3120 0 53.2613 14.0064 746 164.972 678.375 523.512
3121 0 62.3152 17.4917 1090 145.057 680.252 517.27
3122 0 61.2763 17.5109 1073 145.98 679.747 517.308
3123 0 63.2856 17.3499 1098 146.01 679.596 517.474
3124 0 64.2476 16.3897 1053 152.429 677.889 517.561
3125 0 65.3597 15.5448 1016 151.57 679.094 518.129
3126 0 66.3559 14.6182 970 165.572 677.92 517.686
3127 0 67.4306 14.8004 998 167.923 676.582 517.836
3128 0 71.4653 14.3286 1024 170.609 677.486 517.614
3129 0 74.3074 14.5477 1081 171.856 678.784 516.385
3130 0 76.2952 14.3784 1097 163.977 678.17 515.548
3131 0 79.413 14.4561 1148 161.482 680.084 513.054
3132 0 81.3719 14.3661 1169 158.968 682.22 511.345
3133 0 84.6027 14.6213 1237 160.53 680.62 510.873
3134 0 88.5255 14.5382 1287 160.477 679.373 509.66
3135 0 91.3985 14.5845 1333 158.06 678.605 509.252
3136 0 93.6464 14.4159 1350 160.175 679.639 508.278
3137 1 49.2903 13.5321 667 167.036 681.312 529.123
3138 0 51.2427 13.8946 712 170.854 679.97 527.135
3139 0 53.3572 14 747 165.088 678.588 526.635
3140 0 55.1848 14.2068 784 159.77 676.782 525.869
3141 0 56.3096 13.7454 774 159.209 678.408 524.78
3142 0 58.219 13.7756 802 165.959 678.112 524.054
3143 0 59.5665 14.2362 848 166.132 677.545 523.197
3144 0 63.2566 13.9748 884 158.374 678.371 521.26
3145 0 66.2426 16.7415 1109 149.675 678.586 517.821
3146 0 68.2261 15.8004 1078 155.687 678.796 517.542
3147 0 69.2138 14.6647 1015 165.902 677.154 517.82
3148 0 72.2509 14.5465 1051 166.622 677.437 517.615
3149 0 74.2728 14.5275 1079 163.687 678.056 517.791
3150 0 76.3705 14.482 1106 164.41 679.25 516.383
3151 0 78.1141 14.5556 1137 160.799 679.704 516.143
3152 0 82.2431 14.0802 1158 168.209 679.829 515.326
3153 0 84.3284 14.7519 1244 165.932 680.151 513.892
3154 0 88.2413 14.1884 1252 162.28 679.903 512.428
3155 0 92.1922 14.2311 1312 167.714 680.913 509.089
3156 1 48.1761 13.3469 643 166.67 680.358 529.202
3157 0 48.1115 14.3209 689 159.282 679.251 526.586
3158 0 52.1361 13.4264 700 164.829 678.586 527.284
3159 0 51.0585 13.9448 712 164.962 678.506 527.824
3160 0 54.1933 13.9132 754 163.462 677.641 527.668
3161 0 56.2161 14.2486 801 160.662 678.703 526.754
3162 0 59.113 14.2608 843 162.378 676.969 525.202
3163 0 61.2874 14.1791 869 165.474 679.257 523.934
3164 0 62.4955 14.017 876 163.529 678.18 523.771
3165 0 66.3396 13.9133 923 164.508 678.815 521.759
3166 0 67.3001 14.6359 985 165.103 677.825 520.234
3167 0 70.492 14.2995 1008 172.73 677.911 519.812
3168 0 72.3496 14.4023 1042 171.149 677.611 519.822
3169 0 74.2388 14.3456 1065 167.171 677.634 517.975
3170 0 76.3963 14.5819 1114 162.852 676.853 517.004
3171 0 79.3242 14.5857 1157 168.74 678.24 516.339
3172 0 79.1973 15.051 1192 169.579 678.377 515.133
3173 0 82.1926 15.0257 1235 175.157 677.994 513.751
3174 0 86.2556 14.886 1284 170.793 676.581 513.004
3175 0 89.3181 15.0473 1344 169.032 676.297 511.954
3176 0 92.2723 14.6414 1351 172.298 676.683 511.03
3177 0 97.1638 14.563 1415 157.504 677.209 509.138
3178 1 51.156 13.6641 699 167.418 677.536 530.667
3179 0 53.2993 13.9026 741 168.294 676.452 529.379
3180 0 54.2995 13.7939 749 172.749 677.211 527.82
3181 0 54.3926 14.4321 785 173.284 677.108 526.51
3182 0 58.2994 14.3741 838 172.019 677.697 526.001
3183 0 61.3233 13.9914 858 172.618 676.796 524.657
3184 0 61.3999 14.7394 905 173.699 676.522 524.135
3185 0 66.3303 14.0358 931 175.779 678.55 523.402
3186 0 67.3632 14.4441 973 169.06 679.082 523.004
3187 0 69.2714 14.3927 997 160.863 677.861 521.626
3188 0 72.3365 14.322 1036 169.955 677.657 522.028
3189 0 75.2836 14.5848 1098 170.576 677.316 520.444
3190 0 76.2525 14.8585 1133 171.464 678.237 519.059
3191 0 83.2503 13.8498 1153 173.846 679.598 518.078
3192 0 85.2442 14.3118 1220 167.379 678.08 515.593
3193 0 88.3005 14.2128 1255 166.721 678.041 515.131
3194 0 91.2833 14.3947 1314 173.523 676.31 514.057
3195 0 96.3303 14.3257 1380 172.353 675.667 512.39
3196 0 97.3233 14.5803 1419 166.345 676.913 510.736
3197 0 101.201 14.5552 1473 165.116 677.899 508.689
3198 0 104.516 14.5528 1521 172.806 676.411 506.865
3199 0 51.1814 12.1724 623 162.852 675.827 513.729
3200 0 51.1322 13.5336 692 159.793 676.269 515.847
3201 0 54.055 13.0423 705 159.783 675.424 516.834
3202 0 54.1445 13.2239 716 161.617 675.02 519.323
3203 0 57.1329 13.3023 760 161.761 675.397 519.93
3204 0 58.0581 13.3315 774 165.426 676.84 520.979
3205 0 59.1948 13.8019 817 156.408 676.038 522.682
3206 0 62.2042 13.4878 839 164.027 675.557 523.665
3207 0 62.1601 13.7387 854 156.708 675.282 524.722
3208 0 65.3815 13.6124 890 160.544 676.249 524.393
3209 0 68.1476 13.5001 920 161.532 677.345 524.052
3210 0 70.2041 13.6317 957 158.932 676.425 523.933
3211 0 72.2321 13.6366 985 154.3 675.3 523.751
3212 0 74.2305 13.8218 1026 157.391 676.144 522.666
3213 0 77.3197 13.4765 1042 159.07 676.044 521.802
3214 0 78.2787 13.6563 1069 158.416 675.711 520.684
3215 0 81.2818 13.2994 1081 155.312 676.827 519.952
3216 0 82.2719 13.3703 1100 149.406 677.088 518.88
3217 0 86.2893 13.6402 1177 153.003 676.55 517.73
3218 0 91.3124 13.4593 1229 147.897 676.419 515.501
3219 1 47.2102 11.65 550 149.625 676.762 537.056
3220 0 50.1589 12.8591 645 152.535 677.532 535.364
3221 0 50.1946 13.5871 682 98.8622 677.542 534.802
3222 0 58.0544 16.364 950 125.521 676.61 527.261
3223 0 56.0506 13.2202 741 154.163 676.796 523.804
3224 0 57.0532 13.5312 772 154.391 675.8 524.865
3225 0 60.0422 13.224 794 44.869 675.821 526.984
3226 0 61.034 13.3368 814 152.376 675.824 527.877
3227 0 63.0717 13.8731 875 153.754 675.302 528.545
3228 0 64.0736 13.1255 841 154.273 676.724 529.71
3229 0 66.0898 13.5724 897 160.977 677.359 528.892
3230 0 67.0739 13.8504 929 160.316 678.629 528.313
3231 0 71.1235 13.3992 953 156.311 679.391 528.533
3232 0 73.174 13.8847 1016 160.232 677.689 527.034
3233 0 77.1465 13.7919 1064 159.469 676.832 525.617
3234 0 79.213 13.6468 1081 157.969 675.483 524.609
3235 0 83.1866 13.6801 1138 159.215 675.722 523.038
3236 0 85.141 13.5305 1152 160.861 676.099 522.343
3237 1 45.034 12.3684 557 163.729 673.946 542.19
3238 0 46.0541 12.5505 578 158.644 675.047 542.1
3239 0 47.152 13.1066 618 160.749 675.647 541.859
3240 0 49.1716 13.0156 640 159.083 675.806 540.986
3241 0 49.1367 13.2691 652 158.456 677.959 540.057
3242 0 52.1715 12.8806 672 156.56 675.382 539.71
3243 0 53.2182 13.3601 711 162.848 677.186 538.824
3244 0 56.176 13.1907 741 146.302 676.412 538.147
3245 0 58.1685 13.3749 778 142.461 675.706 537.447
3246 0 58.1328 13.624 792 153.279 675.338 537.237
3247 0 61.126 13.7585 841 154.429 676.087 536.059
3248 0 61.1364 13.8052 844 152.447 677.243 535.707
3249 0 64.1787 13.4936 866 155.911 675.475 534.954
3250 0 66.1568 13.5133 894 159.961 677.185 533.955
3251 0 68.1817 13.5227 922 155.229 674.912 532.497
3252 0 70.2277 13.5986 955 160.295 675.992 532.406
3253 0 71.2952 14.1384 1008 151.472 673.886 531.655
3254 0 74.2585 14.1129 1048 154.571 676.29 530.356
3255 0 77.3228 14.0709 1088 155.95 676.428 529.198
3256 0 80.3188 13.7079 1101 158.72 676.875 528.548
3257 0 81.1332 14.2359 1155 158.842 677.797 527.065
3258 0 83.3887 13.9467 1163 147.937 676.728 526.064
3259 0 86.3499 13.7464 1187 137.425 676.563 524.902
3260 0 89.2632 14.2052 1268 136.804 675.45 523.48
3261 0 92.4265 13.9354 1288 138.553 673.601 521.925
3262 0 96.2825 14.1459 1362 131.601 676.032 520.606
3263 0 98.2665 14.2877 1404 134.663 676.814 518.825
3264 0 104.143 14.3841 1498 141.949 674.02 500.245
3265 0 108.21 14.2963 1547 135.983 674.986 500.934
3266 1 57.1319 12.6549 723 145.577 673.31 529.628
3267 0 58.068 12.692 737 130.742 674.742 530.498
3268 0 60.1328 13.4536 809 137.409 674.918 531.257
3269 0 61.1587 13.3096 814 133.166 676.298 532.947
3270 0 62.1206 13.4416 835 138.354 674.843 534.102
3271 0 65.1731 13.702 893 149.215 674.193 532.83
3272 0 68.1689 13.5252 922 146.957 675.813 532.394
3273 0 70.3059 13.7542 967 146.468 675.246 532.43
3274 0 71.3458 13.3294 951 146.57 674.221 532.668
3275 0 73.2785 13.6875 1003 143.983 674.17 531.548
3276 0 75.3692 14.1304 1065 154.268 675.567 530.47
3277 0 79.2066 14.0392 1112 143.558 677.788 529.419
3278 0 82.1587 13.7052 1126 137.807 675.346 528.06
3279 0 86.2007 13.863 1195 134.294 676.825 526.654
3280 0 89.2107 13.8324 1234 140.258 675.768 525.673
3281 0 92.215 13.6529 1259 120.658 674.419 524
3282 0 94.3138 13.9958 1320 124.524 676.576 522.287
3283 1 52.2696 12.2825 642 127.874 675.606 542.913
3284 0 55.2074 12.7157 702 121.513 674.939 539.697
3285 0 57.2729 12.973 743 134.21 673.222 540.051
3286 0 58.0917 13.3582 776 131.307 671.296 539.539
3287 0 58.1333 13.7271 798 129.825 672.797 536.994
3288 0 62.1908 13.3621 831 132.995 674.029 536.297
3289 0 63.2111 13.7634 870 128.959 672.777 536.422
3290 0 65.1701 13.7026 893 25.9933 674.262 535.91
3291 0 69.0967 13.6475 943 131.121 674.188 536.518
3292 0 70.556 13.8897 980 131.811 674.983 535.692
3293 0 72.1277 14.0168 1011 125.792 674.605 535.782
3294 0 74.1969 14.1785 1052 131.794 675.106 535.083
3295 0 77.2148 14.1942 1096 134.491 673.488 533.943
3296 0 79.1445 14.4672 1145 128.548 673.653 532.128
3297 0 83.2252 14.0342 1168 135.539 675.428 531.247
3298 0 86.1796 14.5974 1258 134.184 674.023 529.798
3299 0 88.1664 14.6201 1289 135.514 674.775 529.14
3300 0 91.1038 14.478 1319 141.973 675.339 527.44
3301 0 93.2887 14.2675 1331 139.173 672.297 526.564
3302 0 97.2398 14.1814 1379 139.69 674.972 524.977
3303 0 100.334 14.2025 1425 139.301 675.533 522.302
3304 0 105.301 14.4158 1518 138.927 674.094 520.085
3305 1 55.072 15.6522 862 121.101 674.128 535.416
3306 0 55.1256 12.9523 714 149.958 673.581 531.36
3307 0 56.1934 13.2578 745 145.816 673.855 533.085
3308 0 56.2053 13.4863 758 138.393 674.368 533.828
3309 0 60.2285 13.9137 838 145.408 674.768 535.385
3310 0 60.1762 13.4771 811 146.725 672.678 537.815
3311 0 62.1643 13.4965 839 146.532 673.595 539.48
3312 0 64.1287 13.4261 861 140.915 674.303 538.548
3313 0 65.0698 14.0618 915 145.199 674.697 538.046
3314 0 66.2043 14.0021 927 147.05 675.915 537.241
3315 0 70.1342 14.1015 989 148.958 674.287 536.633
3316 0 73.1457 14.4506 1057 145.328 673.622 536.298
3317 0 76.2155 13.8161 1053 148.174 674.887 536.722
3318 0 78.1517 14.3183 1119 150.199 674.26 536.1
3319 0 81.1433 14.1232 1146 136.297 674.876 534.846
3320 0 83.2913 13.915 1159 127.611 675.5 534.305
3321 0 86.1713 14.0418 1210 140.579 675.473 532.115
3322 0 91.2198 13.3853 1221 136.798 677.292 531.123
3323 1 49.1058 11.7909 579 145.202 673.594 550.838
3324 0 50.0937 11.6781 585 137.438 675.337 549.378
3325 0 52.046 12.6427 658 139.919 674.266 534.456
3326 0 55.0954 13.1408 724 136.521 674.55 536.573
3327 0 56.2222 13.4644 757 133.022 675.567 538.09
3328 0 58.0593 13.1762 765 131.141 676.22 539.544
3329 0 61.1072 13.7791 842 150.646 676.368 541.517
3330 0 64.0673 13.5795 870 147.193 675.131 542.033
3331 0 64.0975 14.0879 903 144.103 674.051 542.445
3332 0 67.1879 13.6036 914 140.085 673.92 542.209
3333 0 69.1012 13.6467 943 145.694 675.644 541.299
3334 0 72.1437 14.083 1016 146.704 675.538 541.358
3335 0 74.1261 14.1516 1049 152.514 676.121 540.849
3336 0 77.2178 13.8699 1071 152.927 677.646 540.023
3337 0 78.1818 13.8779 1085 149.222 678.272 539.362
3338 0 81.0892 14.1326 1146 148.552 678.587 537.805
3339 0 86.1332 13.8042 1189 143.477 679.11 536.045
3340 0 88.1346 14.1602 1248 154.022 676.788 534.575
3341 0 90.1054 14.4386 1301 143.064 677.243 533.786
3342 0 95.1748 14.2054 1352 144.801 678.472 532.357
3343 0 100.122 14.5722 1459 159.059 677.072 531.997
3344 0 103.199 14.2444 1470 149.829 675.75 530.4
3345 0 105.236 14.5007 1526 148.364 677.069 528.399
3346 0 56.0586 12.9507 726 155.758 676.663 539.482
3347 0 58.0343 13.716 796 150.078 674.668 540.406
3348 0 60.0587 13.6866 822 155.841 677.684 544.015
3349 0 61.0861 14.013 856 153.662 677.234 546.567
3350 0 63.063 14.1446 892 160.719 676.395 547.266
3351 0 66.1131 13.734 908 155.805 679.371 546.727
3352 0 66.1176 14.3078 946 156.175 676.968 546.759
3353 0 70.1063 13.8361 970 153.588 676.288 546.469
3354 0 72.0662 14.3063 1031 154.281 676.495 546.628
3355 0 72.0831 14.844 1070 158.521 678.682 546.876
3356 0 77.1432 14.3759 1109 153.67 679.02 547.03
3357 0 79.2088 14.3545 1137 160.822 676.794 546.697
3358 0 81.2686 15.418 1253 155.05 677.294 544.926
3359 0 84.2356 14.9343 1258 163.879 678.208 544.781
3360 0 87.21 14.8836 1298 161.761 678.819 542.753
3361 0 90.1056 14.8271 1336 139.546 678.025 540.55
3362 0 93.2863 14.9968 1399 160.985 677.14 538.651
3363 0 97.1409 14.4738 1406 163.777 677.559 538.499
3364 0 101.194 14.5859 1476 165.999 679.568 537.04
3365 0 105.142 14.3996 1514 163.682 676.919 528.609
3366 0 108.204 14.5651 1576 164.479 677.225 528.749
3367 0 113.26 14.3299 1623 167.684 676.109 524.303
3368 1 61.0716 13.0175 795 165.875 677.582 552.64
3369 0 63.3088 13.8369 876 158.806 674.793 554.06
3370 0 65.1081 14.5758 949 160.217 677.073 551.582
3371 0 67.1503 14.1772 952 163.183 678.113 552.905
3372 0 69.1235 13.6857 946 153.306 677.62 551.545
3373 0 71.1494 13.9144 990 163.964 677.013 551.352
3374 0 74.1915 13.91 1032 153.89 675.638 549.868
3375 0 75.1929 14.2168 1069 159.939 677.422 549.917
3376 0 78.2684 14.067 1101 166.064 677.468 548.842
3377 0 81.1928 14.3609 1166 163.401 677.568 548.529
3378 0 84.2811 14.2262 1199 156.413 679.855 547.702
3379 0 88.2083 14.1823 1251 161.102 677.922 546.504
3380 0 90.1503 14.4425 1302 165.767 678.167 544.78
3381 0 93.075 14.3218 1333 164.267 677.449 543.398
3382 0 98.2071 14.4694 1421 168.118 677.682 541.753
3383 0 101.233 14.0172 1419 158.858 676.55 538.44
3384 1 104.491 14.5467 1520 162.941 678.809 526.262
3385 0 108.248 14.4207 1561 165.309 678.346 526.968
3386 1 59.1143 12.8903 762 156.585 675.524 553.533
3387 0 59.1282 13.513 799 164.892 675.662 553.952
3388 0 60.192 14.055 846 167.078 677.162 554.375
3389 0 64.1708 13.6511 876 163.183 676.364 553.13
3390 0 64.2429 13.8848 892 162.85 677.871 553.473
3391 0 66.1685 14.2364 942 159.887 677.829 552.665
3392 0 70.305 14.3233 1007 153.655 680.972 552.481
3393 0 71.2149 14.2105 1012 167.077 679.839 551.515
3394 0 75.5232 13.8103 1043 166.065 676.989 551.196
3395 0 78.2057 13.9504 1091 165.307 676.79 550.277
3396 0 80.4429 13.9975 1126 163.012 677.247 549.477
3397 0 83.4048 14.3037 1193 162.632 677.661 549.065
3398 0 86.3479 14.3721 1241 157.585 678.702 548.455
3399 0 87.3001 14.2268 1242 143.17 676.891 546.803
3400 0 92.4086 14.609 1350 136.27 678.149 545.372
3401 0 95.4812 14.5055 1385 132.69 678.648 543.951
3402 0 98.3698 14.5167 1428 127.541 676.766 541.681
3403 0 102.514 14.6225 1499 120.981 678.399 540.398
3404 0 106.288 14.5736 1549 132.874 677.628 538.094
3405 0 111.38 14.9309 1663 130.365 678.215 534.118
3406 1 113.258 15.213 1723 151.21 679.186 522.966
3407 0 119.585 14.7677 1766 149.152 677.673 523.648
3408 1 66.2912 13.3803 887 165.952 676.336 551.453
3409 0 69.1953 14.6397 1013 159.956 676.787 553.428
3410 0 67.3444 14.0917 949 159.697 677.003 555.486
3411 0 71.3112 14.0651 1003 160.288 675.432 554.828
3412 0 75.336 14.3358 1080 163.679 676.216 553.595
3413 0 75.3604 14.1719 1068 158.514 678.237 552.846
3414 0 78.1582 14.573 1139 164.613 676.893 550.744
3415 0 81.2732 14.5189 1180 167.74 676.702 550.424
3416 0 83.2507 14.4023 1199 159.87 676.148 548.766
3417 0 87.3455 14.2194 1242 166.328 676.448 547.225
3418 0 90.1337 14.301 1289 162.404 677.76 545.714
3419 0 93.1902 14.3577 1338 164.929 679.528 545.368
3420 0 96.4477 14.329 1382 136.257 679.488 543.868
3421 0 100.408 14.5008 1456 131.213 678.725 542.379
3422 0 103.317 14.4991 1498 153.997 679.358 540.021
3423 0 107.365 14.1852 1523 164.684 677.628 537.784
3424 1 56.2164 12.6476 711 163.796 676.259 562.868
3425 0 58.2358 13.1019 763 162.041 678.096 561.999
3426 0 61.2897 16.0712 985 140.378 677.346 556.141
3427 0 61.0978 14.0431 858 147.965 678.754 554.804
3428 0 63.0772 13.7768 869 155.476 678.328 554.648
3429 0 64.0432 13.8969 890 115.172 677.724 553.817
3430 0 64.1564 13.8568 889 157.652 678.369 553.849
3431 0 67.1299 14.1219 948 153.076 677.813 554.604
3432 0 71.229 13.8286 985 148.129 678.11 556.23
3433 0 74.2962 14.1595 1052 150.956 677.985 555.015
3434 0 75.2829 14.1466 1065 149.346 678.513 554.976
3435 0 79.1466 14.2141 1125 147.225 677.977 553.349
3436 0 80.1897 13.8796 1113 160.903 676.807 552.848
3437 0 83.1644 14.4293 1200 165.314 677.026 551.815
3438 0 87.2118 14.5622 1270 162.489 677.781 550.802
3439 0 89.1159 14.3745 1281 154.895 677.543 549.136
3440 0 96.2445 16.0217 1542 148.226 676.219 546.17
3441 0 95.2897 14.2932 1362 160.512 677.758 546.246
3442 0 48.0936 11.8727 571 146.622 677.389 553.24
3443 0 51.0628 12.1223 619 140.777 677.502 554.491
3444 0 53.0497 12.1772 646 143.486 677.119 555.805
3445 0 54.0715 12.0951 654 135.179 677.272 557.124
3446 0 54.0648 12.0411 651 132.052 676.585 558.507
3447 0 55.0715 12.9105 711 134.281 677.446 559.951
3448 0 56.0497 12.8993 723 140.876 676.156 560.447
3449 0 61.1984 12.1735 745 132.639 677.537 561.542
3450 0 60.1311 12.7555 767 129.894 677.318 562.043
3451 0 63.1544 12.6832 801 132.095 677.518 562.491
3452 0 65.0991 13.1645 857 136.714 677.229 562.154
3453 0 65.1035 12.9025 840 150.107 677.046 561.511
3454 0 69.1339 12.512 865 145.486 678.061 562.118
3455 0 69.1749 13.2129 914 145.553 677.476 560.22
3456 0 73.1904 12.7612 934 144.199 680.106 559.094
3457 0 76.1398 13.0024 990 137.902 678.548 558.203
3458 0 79.2413 12.2916 974 144.577 677.889 557.786
3459 0 81.2444 12.9978 1056 148.845 678.16 556.889
3460 0 83.1867 12.7304 1059 148.11 678.345 556.682
3461 0 87.1989 12.6148 1100 151.762 677.502 555.304
3462 1 48.2311 11.5693 558 131.667 676.706 574.851
3463 0 52.1726 11.7686 614 139.363 677.059 574.028
3464 0 52.1369 12.448 649 132.003 677.307 572.116
3465 0 55.1604 12.2008 673 131.501 676.495 571.93
3466 0 55.2142 12.3881 684 140.558 677.924 572.032
3467 0 56.1927 13.1156 737 140.739 677.696 570.414
3468 0 57.1661 13.1896 754 146.861 677.468 570.485
3469 0 59.134 12.9874 768 140.568 677.387 570.079
3470 0 61.2005 13.0718 800 144.331 678.148 569.13
3471 0 62.2105 12.9078 803 137.588 677.751 569.286
3472 0 66.1898 12.9778 859 143.279 676.333 567.814
3473 0 68.1554 12.9263 881 137.976 677.673 566.8
3474 0 69.177 13.2269 915 139.154 677.564 565.122
3475 0 72.2455 13.0942 946 141.091 677.533 564.699
3476 1 38.0476 10.3817 395 137.471 676.337 581.77
3477 0 37.1854 10.9452 407 127.442 676.806 582.806
3478 0 39.151 11.4429 448 118.48 676.301 582.234
3479 0 40.1603 11.9272 479 127.207 676.453 582.136
3480 0 41.1107 12.4299 511 119.301 677.37 580.624
3481 0 40.2046 12.2872 494 132.856 675.634 581.571
3482 0 44.2976 12.3709 548 125.759 677.938 581.363
3483 0 47.2557 12.6122 596 125.163 678.354 580.482
3484 0 45.2349 13.1093 593 119.467 678.727 580.133
3485 0 50.151 12.7615 640 109.897 677.65 578.43
3486 0 54.1551 15.5479 842 105.764 676.903 573.654
3487 0 55.2073 15.5052 856 117.388 679.033 572.877
3488 0 56.1879 16.0355 901 118.801 676.563 572.265
3489 0 55.1118 16.0583 885 132.511 677.604 572.13
3490 0 55.1201 14.9492 824 138.897 679.455 572.309
3491 0 57.0815 14.5756 832 143.267 678.438 572.403
3492 0 59.0756 14.1344 835 149.659 677.223 572.019
3493 0 61.075 14.3758 878 55.4738 677.826 570.702
3494 0 61.095 14.4693 884 139.304 677.769 570.413
3495 0 63.0847 14.7421 930 146.338 677.172 569.19
3496 0 67.1001 14.307 960 160.124 677.129 568.485
3497 0 67.12 14.6603 984 152.763 676.431 567.751
3498 0 67.2389 15.6011 1049 159.683 678.17 566.907
3499 0 73.0609 15.0559 1100 157.837 678.503 565.783
3500 0 74.1334 14.9056 1105 157.09 677.872 566.195
3501 0 79.1426 14.8087 1172 162.69 679.356 565.183
3502 0 80.1058 14.9802 1200 166.315 679.443 564.372
3503 0 82.089 14.8741 1221 166.665 679.596 563.708
3504 0 86.1163 15.1307 1303 150.52 678.966 562.783
3505 0 91.0658 15.099 1375 164.46 679.398 559.98
3506 0 94.1142 14.9393 1406 167.305 680.536 557.958
3507 0 96.0419 15.0247 1443 158.453 680.624 556.324
3508 0 99.1706 15.2666 1514 164.878 678.437 554.009
3509 0 102.073 15.2832 1560 164.08 676.467 547.651
3510 0 105.077 15.3316 1611 166.512 677.412 545.417
3511 0 110.276 15.7695 1739 161.569 678.296 542.961
3512 1 61.1062 13.9102 850 166.547 676.541 569.46
3513 0 62.1098 14.4905 900 161.689 676.491 569.147
3514 0 62.0976 14.5255 902 166.615 676.72 568.456
3515 0 64.0513 15.1753 972 165.746 677.28 569.362
3516 0 69.0537 14.7856 1021 167.878 677.094 568.019
3517 0 69.069 15.2746 1055 167.256 677.792 568.523
3518 0 74.2208 14.5781 1082 164.395 676.762 568.983
3519 0 76.0979 14.9019 1134 169.188 676.619 568.091
3520 0 79.0884 14.8441 1174 167.045 678.058 567.476
3521 0 81.0976 15.4135 1250 166.905 676.013 567.033
3522 0 84.1772 15.3842 1295 163.518 678.838 566.844
3523 0 88.0965 14.7565 1300 167.916 676.311 564.088
3524 0 90.1984 15.2774 1378 166.617 677.869 563.647
3525 0 95.2205 14.7867 1408 161.585 678.549 562.635
3526 0 99.3699 14.8234 1473 161.749 678.674 560.641
3527 0 102.247 14.9736 1531 165.242 677.716 557.993
3528 0 106.292 15.1658 1612 151.493 677.594 554.965
3529 0 109.302 14.9402 1633 156.275 676.595 554.107
3530 1 57.2083 13.547 775 154.942 676.79 577.707
3531 0 59.0669 15.8295 935 154.232 676.197 574.344
3532 0 62.0944 14.5585 904 153.491 678.227 573.536
3533 0 62.0372 13.4758 836 157.031 678.803 574.834
3534 0 65.1085 13.8999 905 163.904 678.314 573.821
3535 0 67.0476 13.9155 933 158.473 677.583 572.786
3536 0 70.1818 14.0492 986 160.252 678.98 571.75
3537 0 72.1164 14.0606 1014 160.153 676.941 571.325
3538 0 73.1315 14.7406 1078 158.308 675.4 570.94
3539 0 76.1914 14.3979 1097 158.504 677.978 571.151
3540 0 79.1596 14.5024 1148 161.125 678.101 569.257
3541 0 82.2243 14.4361 1187 170.304 678.021 569.515
3542 0 86.1687 14.3672 1238 164.532 677.122 568.634
3543 0 87.1446 14.6768 1279 168.64 679.253 567.444
3544 0 91.2517 14.1806 1294 165.65 677.44 565.443
3545 0 96.2756 14.3962 1386 165.69 679.66 562.9
3546 0 98.1878 14.2788 1402 161.671 678.53 560.991
3547 0 102.26 14.3361 1466 163.929 679.587 558.456
3548 0 106.236 14.2513 1514 164.696 677.871 556.548
3549 1 53.0496 13.1763 699 154.595 677.742 571.642
3550 0 58.0913 13.3411 775 152.32 677.946 573.103
3551 0 58.1096 13.6466 793 141.17 676.518 574.021
3552 0 61.1439 13.7381 840 144.008 678.158 575.326
3553 0 62.1156 13.8773 862 131.725 677.756 576.016
3554 0 65.1494 13.9219 907 136.913 677.012 576.814
3555 0 66.1366 14.4549 956 133.278 677.808 575.781
3556 0 70.0873 13.7685 965 128.155 678.99 574.822
3557 0 72.2079 14.1951 1025 130.628 677.913 574.324
3558 0 72.0716 15.0406 1084 124.655 679.219 574.039
3559 0 75.1337 14.4542 1086 130.424 679.164 573.574
3560 0 80.2299 14.4086 1156 163.838 678.775 572.566
3561 0 82.2024 14.4765 1190 160.113 679.832 572.041
3562 0 84.1817 14.5875 1228 144.633 677.751 570.356
3563 0 86.2124 14.6731 1265 139.749 678.825 570.462
3564 0 90.3331 14.5904 1318 148.781 679.743 568.826
3565 0 93.3039 14.6082 1363 147.478 678.274 567.275
3566 0 96.3468 14.6242 1409 150.751 678.177 565.879
3567 0 100.432 14.6069 1467 147.321 677.551 563.922
3568 0 104.483 14.6818 1534 149.133 677.559 556.281
3569 1 53.3074 12.85 685 151.745 675.39 578.285
3570 0 55.2122 13.4028 740 144.943 677.98 579.386
3571 0 56.244 13.4948 759 132.447 677.51 580.543
