index division length width area intensity CMx CMy
0 0 69.0761 15.9245 1100 142.355 598.39 439.286
1 0 70.1098 15.9892 1121 154.044 599.921 439.214
2 0 72.0712 16.0397 1156 144.99 601.529 440.942
3 0 75.0938 15.9401 1197 153.85 602.479 441.57
4 0 77.0734 16.1015 1241 151.625 603.282 442.45
5 0 80.083 15.946 1277 151.216 603.516 442.767
6 0 83.0923 16.0304 1332 155.256 603.972 444.438
7 0 85.0971 16.0405 1365 159.127 601.127 445.989
8 0 87.0784 16.0775 1400 160.142 599.998 447.593
9 0 92.0691 15.8251 1457 165.724 601.649 449.071
10 0 94.1589 16.1748 1523 165.336 598.864 450.37
11 0 98.1067 15.738 1544 166.316 597.832 451.751
12 0 101.167 15.7364 1592 168.687 600.508 453.183
13 1 54.0636 13.6876 740 170.753 599.526 480.581
14 0 56.0336 13.7596 771 180.48 598.275 482.769
15 0 56.121 14.0945 791 166.439 595.607 484.576
16 0 59.0644 14.5096 857 175.548 594.369 485.959
17 0 60.1416 14.6321 880 176.026 596.612 486.42
18 0 61.2077 14.508 888 177.83 598.735 485.436
19 0 63.1502 14.6001 922 180.134 596.487 485.211
20 0 67.0932 14.4128 967 174.705 595.942 484.2
21 0 69.0953 14.5596 1006 175.005 594.744 482.478
22 0 71.1875 14.3986 1025 175.302 595.165 481.857
23 0 72.1018 14.9511 1078 175.362 595.765 480.306
24 0 76.1468 14.6822 1118 173.794 595.546 478.679
25 0 78.1255 14.5407 1136 175.157 595.18 477.496
26 0 79.1163 14.8516 1175 170.503 595.198 475.844
27 0 83.1302 14.7359 1225 178.282 594.282 474.393
28 0 85.1463 15.2091 1295 171.646 595.14 472.457
29 0 87.3744 15.3477 1341 176.789 595.081 469.745
30 0 91.2083 14.9986 1368 172.631 597.124 467.51
31 0 93.3733 15.1007 1410 173.13 598.867 464.874
32 0 96.1362 14.8019 1423 165.93 599.309 462.103
33 0 100.293 14.8664 1491 177.623 599.355 460.111
34 0 103.143 14.8435 1531 168.766 600.747 456.877
35 0 107.199 14.7016 1576 166.956 599.869 454.49
36 0 111.393 14.9291 1663 167.767 600.673 451.089
37 0 115.312 14.7513 1701 174.055 600.641 449.752
38 0 119.342 14.714 1756 173.893 600.923 447.428
39 1 59.0536 14.4445 853 174.14 604.15 474.544
40 0 64.0729 14.1401 906 172.337 603.468 472.296
41 0 67.1184 14.1392 949 181.739 603.566 471.725
42 0 68.0685 14.2944 973 170.625 602.565 470.308
43 0 72.2141 13.9862 1010 174.748 603.041 470.004
44 0 73.092 14.3107 1046 180.628 601.488 469.104
45 0 76.0958 14.3766 1094 168.465 601.718 467.607
46 0 78.0614 14.1811 1107 171.406 600.669 466.905
47 0 82.0889 14.0092 1150 166.585 601.863 465.656
48 0 83.1256 14.46 1202 176.394 603.15 465.171
49 0 86.2316 14.3451 1237 177.575 602.774 463.816
50 0 90.0764 14.2324 1282 173.551 603.142 463.164
51 0 92.1794 14.1789 1307 171.673 602.573 462.795
52 0 92.1794 14.1789 1307 182.236 601.573 462.795
53 0 101.078 14.3058 1446 173.629 601.925 460.662
54 0 104.199 14.3187 1492 172.281 603.594 459.257
55 0 109.229 14.227 1554 167.151 604.465 457.65
56 0 111.399 14.7757 1646 171.513 602.762 456.199
57 0 116.106 14.4609 1679 173.007 604.095 455.329
58 0 119.306 14.7269 1757 175.629 601.978 453.143
59 0 124.445 14.7214 1832 167.301 601.705 450.592
60 0 130.177 14.5033 1888 178.403 601.971 449.416
61 0 134.401 14.4791 1946 172.869 601.709 446.747
62 0 139.362 14.7458 2055 173.909 601.552 443.699
63 0 144.491 15.0529 2175 171.972 601.177 441.246
64 0 150.422 14.7385 2217 173.568 600.513 438.696
65 1 81.1463 13.6543 1108 173.279 600.986 471.61
66 0 82.4203 13.8801 1144 177.442 600.767 470.179
67 0 87.3643 13.5982 1188 167.616 600.801 468.542
68 0 90.3077 13.4651 1216 171.362 599.198 466.761
69 0 95.3392 12.9852 1238 169.939 600.178 464.779
70 0 102.206 13.2673 1356 166.199 602.532 461.669
71 0 101.145 13.2977 1345 171.86 600.1 460.549
72 0 105.445 13.2392 1396 170.74 601.688 459.067
73 0 110.256 13.1602 1451 172.063 601.844 456.088
74 0 113.483 13.5791 1541 171.263 602.163 453.57
75 1 62.1078 12.913 802 171.948 600.698 478.706
76 0 65.1301 12.9126 841 174.034 600.257 477.093
77 0 67.1557 12.6274 848 172.39 602.915 476.176
78 0 67.2489 12.9519 871 166.814 604.223 474.189
79 0 70.3574 13.1329 924 168.506 602.284 472.95
80 0 74.2253 12.8797 956 167.581 601.109 471.635
81 0 77.2412 13.2313 1022 166.186 602.044 469.882
82 0 80.3582 12.8425 1032 167.255 601.623 468.638
83 0 83.2814 13.2683 1105 168.971 601.153 466.823
84 0 85.1584 13.2224 1126 171.69 601.493 465.79
85 0 88.155 13.567 1196 173.341 601.475 464.626
86 0 91.4348 13.3757 1223 174.687 604.08 462.854
87 0 94.2429 13.3803 1261 170.795 603.228 461.374
88 0 98.285 13.2879 1306 169.229 603.909 459.831
89 0 100.272 13.4934 1353 166.513 603.75 458.302
90 0 106.194 13.0987 1391 168.656 602.664 456.561
91 0 109.255 13.354 1459 171.049 603.029 455.186
92 1 57.1226 12.1318 693 169.729 602.942 480.244
93 0 59.2226 12.0562 714 173.457 603.592 479.86
94 0 60.2769 12.9237 779 172.182 602.241 478.724
95 0 64.2246 12.5809 808 165.472 603.089 478.187
96 0 66.2444 12.6803 840 167.257 602.067 476.985
97 0 68.2509 12.4394 849 172.855 603.391 476.168
98 0 71.2601 12.6438 901 167.075 600.664 474.882
99 0 73.3939 12.794 939 163.419 602.523 473.061
100 0 76.2538 12.878 982 165.654 599.797 471.825
101 0 77.2449 13.2436 1023 167.938 600.953 470.569
102 0 82.2272 12.8911 1060 161.891 600.322 469.039
103 0 86.43 12.7039 1098 160.879 600.156 466.609
104 0 88.1781 12.8377 1132 156.373 599.994 465.706
105 0 92.2605 12.8441 1185 155.446 599.741 463.549
106 0 95.1775 12.5135 1191 156.68 600.42 461.734
107 1 48.2099 10.9728 529 156.561 602.665 484.612
108 0 50.196 11.5946 582 148.742 602.428 483.012
109 0 50.1297 11.8094 592 147.574 603.402 482
110 0 52.044 11.9514 622 155.495 602.744 480.92
111 0 56.1959 11.6023 652 152.744 604.761 480.275
112 0 56.1243 11.8665 666 154.587 602.866 479.311
113 0 57.1584 12.7365 728 154.986 602.375 478.147
114 0 59.1032 12.5543 742 158.051 602.117 476.964
115 0 62.1847 12.1413 755 157.783 600.127 475.841
116 0 62.3862 12.7592 796 154.84 601.839 474.163
117 0 66.168 12.7705 845 157.715 602.076 473.245
118 0 68.2794 12.8443 877 165.868 603.241 472.403
119 0 70.2036 13.1902 926 157.756 602.766 470.739
120 0 72.3089 13.1381 950 166.981 603.28 469.095
121 0 75.1594 13.1321 987 165.247 603.713 468.856
122 0 76.3034 13.3284 1017 168.095 602.306 466.851
123 0 80.3825 13.4855 1084 163.516 604.121 465.384
124 0 83.2693 13.1021 1091 162.595 602.887 463.428
125 0 87.2289 13.6423 1190 152.393 602.834 461.613
126 0 89.2592 13.5896 1213 167.076 603.759 461.45
127 0 91.2937 13.5059 1233 166.722 603.154 459.821
128 0 96.3027 13.8418 1333 163.916 601.932 458.078
129 0 98.2236 13.7543 1351 159.004 602.779 456.489
130 1 50.1791 12.4355 624 162.87 602.107 480.939
131 0 50.1676 12.6775 636 164.409 601.327 479.879
132 0 52.2741 12.3962 648 154.639 603.083 478.676
133 0 55.2306 12.6198 697 164.062 603.443 478.385
134 0 57.1643 12.5603 718 162.779 603.851 477.33
135 0 57.2246 12.914 739 165.265 604.651 476.782
136 0 61.1253 12.6625 774 168.124 605.589 475.93
137 0 61.18 13.256 811 163.242 603.466 474.984
138 0 65.1355 12.9269 842 163.576 602.235 474.3
139 0 67.1052 13.1435 882 166.493 602.773 472.317
140 0 68.1102 13.2286 901 168.568 600.574 471.63
141 0 70.146 13.2295 928 170.756 600.175 470.385
142 0 73.1509 13.3149 974 164.907 602.789 469.767
143 0 74.1422 13.1909 978 164.329 600.357 468.253
144 0 78.1302 13.2727 1037 160.973 601.649 466.274
145 1 51.1371 12.3981 634 161.921 603.487 478.626
146 0 53.0982 12.185 647 162.42 604.292 478.612
147 0 54.1796 12.3294 668 165.783 604.097 477.638
148 0 55.1055 12.6122 695 164.662 603.174 476.753
149 0 57.1984 12.4479 712 172.471 600.799 476.706
150 0 59.1417 12.8336 759 167.819 600.819 476.018
151 0 61.0882 12.441 760 163.636 599.264 475.543
152 0 63.055 12.7666 805 168.537 600.881 474.924
153 0 63.1209 13.1018 827 174.016 601.229 474.085
154 0 67.0514 12.9602 869 171.722 601.624 472.677
155 0 68.0709 13.0158 886 169.881 600.95 472.219
156 0 70.123 12.8346 900 174.017 601.003 471.399
157 0 73.1677 12.8609 941 165.99 599.641 469.9
158 0 75.2435 12.8516 967 163.453 600.893 468.664
159 0 78.0811 13.1914 1030 170.899 602.388 466.657
160 0 80.1045 13.1453 1053 172.19 601.74 466.263
161 0 84.116 13.1842 1109 169.586 601.725 464.45
162 0 85.1067 13.2774 1130 168.93 601.296 464.165
163 0 90.0755 13.3888 1206 168.69 601.886 462.519
164 1 48.1171 12.6774 610 170.369 603.195 483.359
165 0 50.1476 12.4632 625 168.419 601.965 483.482
166 0 52.2616 12.7244 665 173.159 601.992 482.217
167 0 53.155 12.774 679 167.682 601.193 481.856
168 0 55.1424 12.5131 690 163.041 602.751 481.335
169 0 57.1077 12.7303 727 164.618 602.19 480.662
170 0 58.1237 13.0239 757 162.672 604.188 479.287
171 0 61.0782 12.8033 782 161.859 604.035 478.646
172 0 62.1213 12.7493 792 165.689 604.297 478.245
173 0 62.186 13.0898 814 171.507 602.936 477.287
174 0 64.1448 13.4383 862 166.44 601.9 476.503
175 0 67.1763 13.1445 883 170.71 601.197 475.514
176 0 70.2112 13.0891 919 163.082 600.528 474.348
177 0 72.215 13.3767 966 168.578 600.566 472.862
178 0 73.3149 13.4352 985 167.672 602.258 471.485
179 0 77.219 13.3775 1033 166.469 601.996 469.905
180 0 79.1624 13.3649 1058 165.452 602.568 468.862
181 0 84.1951 13.1955 1111 164.529 602.013 467.342
182 0 87.1417 13.1625 1147 160.563 602.858 465.406
183 1 45.1472 11.4514 517 168.246 601.793 486.261
184 0 46.1024 11.648 537 147.162 603.412 485.782
185 0 47.1451 12.26 578 161.247 602.882 485.317
186 0 46.1531 12.9569 598 170.926 602.997 484.329
187 0 48.1949 12.8022 617 169.545 603.99 483.998
188 0 50.1724 12.9155 648 168.474 601.546 482.715
189 0 53.286 12.63 673 169.085 604.951 481.413
190 0 53.1028 12.9937 690 170.429 603.361 481.138
191 0 56.1462 12.9662 728 166.324 601.78 480.188
192 0 57.1335 13.1622 752 170.771 603.684 479.157
193 0 58.1648 13.2039 768 171.289 602.212 478.253
194 0 61.138 13.0852 800 170.242 603.571 477.931
195 0 61.1425 13.3459 816 175.021 601.908 477.153
196 0 65.1633 13.2437 863 175.462 603.462 475.975
197 0 67.0952 13.5628 910 167.774 604.724 474.354
198 0 66.0929 14.0106 926 174.033 604.674 473.559
199 0 72.1556 13.3462 963 177.644 605.226 472.044
200 0 73.1077 13.7879 1008 171.737 602.874 471.065
201 0 77.1031 13.6052 1049 170.387 603.398 469.62
202 0 77.1705 13.982 1079 174.375 601.854 468.416
203 0 81.1963 13.6952 1112 164.234 602.162 466.861
204 0 82.1201 14.1257 1160 172.591 600.584 465.459
205 0 87.1833 13.6723 1192 175.653 601.404 463.061
206 0 91.2575 13.6098 1242 174.857 602.368 461.969
207 0 94.1721 13.8364 1303 170.999 602.14 459.75
208 0 94.2065 14.0118 1320 174.898 603.715 458.384
209 0 99.2714 14.1733 1407 170.258 602.606 456.482
210 0 102.475 13.8765 1422 173.414 602.897 454.99
211 1 51.2143 13.0432 668 170.834 603.865 479.325
212 0 54.2028 12.8222 695 175.437 603.101 478.583
213 0 55.1256 13.1699 726 169.77 602.93 476.647
214 0 57.0433 13.1479 750 173.007 603.576 475.825
215 0 60.2601 12.8941 777 174.039 602.888 475.071
216 0 61.128 13.4145 820 167.078 603.041 474.043
217 0 62.1416 13.6945 851 166.914 602.565 472.074
218 0 64.131 13.9402 894 168.516 602.342 471.54
219 0 68.1267 13.2987 906 175.837 602.927 470.334
220 0 70.1487 13.4429 943 176.066 601.885 469.504
221 0 71.3166 13.9238 993 167.62 602.388 468.008
222 0 75.3454 13.6571 1029 174.288 603.012 466.471
223 0 77.3265 13.7469 1063 176.106 604.69 465.01
224 0 81.1451 13.7285 1114 175.933 605.086 464.057
225 0 83.1957 13.6305 1134 174.168 602.015 462.739
226 0 87.2361 13.5609 1183 172.79 603.575 461.14
227 0 88.2351 13.7474 1213 174.049 601.334 459.151
228 0 91.1363 13.8474 1262 174.979 603.99 458.518
229 0 94.1742 14.0272 1321 172.924 602.836 456.535
230 0 97.1897 13.8492 1346 177.996 603.455 454.814
231 0 100.216 13.6105 1364 173.511 604.265 453.883
232 0 103.269 13.9732 1443 171.335 602.511 451.275
233 0 107.442 13.84 1487 174.165 603.848 449.553
234 0 109.286 14.0275 1533 171.309 602.603 447.787
235 0 114.376 14.0414 1606 173.879 601.026 445.432
236 0 118.228 13.9307 1647 174.191 603.365 444.264
237 0 122.502 13.861 1698 178.817 604.999 442.547
238 0 127.256 13.9169 1771 173.755 604.333 438.794
239 0 133.332 13.5301 1804 172.522 605.09 437.697
240 1 69.1118 12.9066 892 172.522 603.502 467.091
241 0 72.0578 12.9341 932 176.964 605.411 466.403
242 0 73.1315 13.2911 972 172.497 605.64 465.659
243 0 76.048 13.36 1016 177.884 606.445 463.923
244 0 79.1304 13.1429 1040 164.308 606.425 462.635
245 0 82.1296 13.2839 1091 174.879 605.361 461.487
246 0 86.1518 13.2325 1140 172.836 604.099 459.519
247 0 88.0853 13.6345 1201 174.803 603.971 458.174
248 0 90.1155 13.3939 1207 174.964 604.582 457.258
249 0 94.1082 13.7076 1290 174.982 604.293 455.355
250 0 97.1091 13.6548 1326 167.004 605.854 454.088
251 0 100.148 13.6698 1369 172.469 604.69 451.953
252 0 102.107 13.4858 1377 167.132 604.068 451.643
253 0 105.095 13.7971 1450 167.078 604.319 449.41
254 0 108.145 13.7501 1487 168.512 603.624 448.325
255 0 111.193 13.8049 1535 164.449 603.81 445.967
256 0 117.128 13.5322 1585 166.466 602.42 443.636
257 0 120.226 13.2417 1592 152.795 603.237 442.345
258 0 123.148 13.3255 1641 161.858 601.787 440.182
259 1 66.1208 12.1596 804 166.076 602.983 469.563
260 0 68.0594 12.636 860 166.876 603.788 468.187
261 0 71.1454 12.6923 903 164.929 604.289 467.723
262 0 72.0856 12.6655 913 171.754 603.485 466.734
263 0 76.1481 12.7121 968 163.415 604.792 464.24
264 0 79.1371 12.9775 1027 165.994 603.334 463.735
265 0 79.1371 12.9775 1027 172.365 601.334 463.735
266 0 82.1511 13.183 1083 161.732 601.57 460.813
267 0 87.1011 12.6175 1099 165.371 602.22 459.172
268 0 91.3276 12.8548 1174 162.545 604.78 456.789
269 0 93.1447 12.7758 1190 160.774 603.266 456.558
270 1 50.1196 11.1533 559 158.234 603.172 477.342
271 0 51.0858 11.5688 591 155.545 604.095 476.32
272 0 54.0952 12.0343 651 151.962 605.653 474.86
273 0 52.0567 12.2943 640 152.92 605.447 474.68
274 0 55.2434 12.2729 678 160.599 605.134 474.226
275 0 58.2607 12.0493 702 153.425 603.754 472.983
276 0 60.141 12.188 733 159.959 605.558 472.461
277 0 62.1333 12.3283 766 156.689 604.544 471.495
278 0 64.2023 12.3049 790 155.473 605.661 470.505
279 0 67.1111 12.2483 822 158.354 605.599 469.853
280 0 68.385 12.6782 867 159.97 604.264 468.991
281 0 70.2667 12.5664 883 154.037 603.767 468.008
282 0 75.3479 12.3427 930 166.375 602.595 467.001
283 0 77.2346 12.2225 944 164.865 601.149 466.102
284 0 80.257 12.4351 998 163.213 604.256 464.535
285 0 82.3279 12.183 1003 162.846 604.335 462.978
286 0 86.2952 12.1907 1052 165.106 605.373 462.59
287 1 45.115 11.0606 499 165.591 603.683 482.908
288 0 46.1199 11.2316 518 160.1 606.062 482.915
289 0 47.0304 11.4394 538 155.81 606.072 482.266
290 0 48.0228 11.4321 549 155.545 603.754 481.668
291 0 49.0341 11.5838 568 159.215 605.849 481.326
292 0 51.0114 11.566 590 157.186 605.936 480.127
293 0 53.0291 11.5408 612 159.443 605.817 478.74
294 0 54.034 11.9184 644 157.5 605.292 477.818
295 0 55.0315 11.7751 648 161.289 605.847 478.184
296 0 58.0528 11.9719 695 155.371 604.656 476.983
297 0 60.0416 11.5253 692 157.535 606.029 475.86
298 0 62.0806 12.0811 750 155.629 607.541 474.572
299 0 64.1088 11.7301 752 153.052 605.949 474.016
300 0 65.0624 12.2805 799 152.747 605.533 472.772
301 0 68.0357 11.8614 807 156.129 603.27 471
302 0 70.0378 12.1506 851 149.863 602.207 469.915
303 0 72.0376 12.5212 902 152.757 603.895 468.264
304 1 37.0082 10.9705 406 158.01 603.382 485.975
305 0 38.0519 10.7747 410 152.329 602.176 485.695
306 0 39.1601 11.619 455 157.545 602.736 484.848
307 0 40.1083 11.7681 472 144.816 602.174 484.398
308 0 39.0572 12.4177 485 150.68 602.862 483.946
309 0 42.0636 12.077 508 151.323 601.547 483.427
310 0 42.0588 12.3637 520 147.319 601.9 482.777
311 0 45.0389 12.0118 541 148.695 603.965 481.837
312 0 46.1284 12.1617 561 150.854 602.357 481.023
313 0 46.1043 12.5151 577 151.562 602.256 480.388
314 0 49.1368 12.3533 607 148.919 603.418 480.28
315 0 49.1593 12.7951 629 149.188 602.259 479.383
316 0 53.1457 12.7009 675 149.164 600.164 477.815
317 0 53.1195 12.6884 674 148.401 600.727 477.608
318 0 55.0644 12.7305 701 150.034 599.897 475.96
319 0 55.0435 13.3349 734 146.911 601.916 475.316
320 0 58.0559 13.177 765 143.659 601.218 474.042
321 0 59.0519 13.2934 785 149.195 602.339 473.451
322 0 62.1678 13.1258 816 148.814 601.25 471.499
323 0 64.1356 13.0661 838 147.205 600.957 470.271
324 0 66.0564 13.0495 862 142.06 602.58 470.113
325 0 68.1163 13.1246 894 142.405 601.454 467.77
326 0 71.1092 12.8535 914 146.108 603.93 466.927
327 1 34.0991 10.88 371 153.598 602.197 484.892
328 0 36.0255 10.9367 394 150.051 601.266 484.596
329 0 37.0791 11.3002 419 153.382 601.656 483.971
330 0 39.2007 12.0916 474 143.787 603.078 483.154
331 0 40.1243 12.6108 506 143.425 602.542 482.423
332 0 40.1041 12.8167 514 147.228 603.833 481.807
333 0 40.0141 13.0204 521 146.873 604.388 481.438
334 0 43.0218 12.9004 555 147.537 604.362 480.175
335 0 45.1043 13.1695 594 141.971 603.828 479.372
336 0 46.0507 13.1811 607 136.633 604.255 478.687
337 0 48.072 13.1678 633 136.494 604.575 478.221
338 0 48.1324 13.5252 651 148.055 605.707 477.137
339 0 50.1002 13.5928 681 147.742 603.943 475.968
340 0 52.0575 13.4275 699 146.079 607.405 475.396
341 0 54.246 13.3097 722 150.307 605.729 474.435
342 0 57.0966 13.0305 744 143.742 603.356 473.267
343 0 57.0979 13.5557 774 153.592 604.09 472.74
344 0 59.3372 13.4486 798 151.03 606.706 470.104
345 0 60.1992 13.8374 833 154.028 605.738 469.516
346 0 61.0845 14.3572 877 153.455 607.551 468.786
347 0 64.1678 13.7452 882 153.693 606.798 467.91
348 0 66.2795 13.9259 923 162.83 605.013 466.272
349 0 69.3748 14.155 982 162.026 606.348 465.213
350 0 70.3377 14.3877 1012 155.253 605.151 464.806
351 0 73.5197 14.1867 1043 157.022 605.912 462.577
352 0 77.4265 13.7679 1066 167.954 606.472 461.63
353 0 81.5513 13.7705 1123 163.692 607.607 459.559
354 1 43.3847 13.023 565 172.761 605.687 477.46
355 0 46.4577 13.2809 617 171.473 603.997 475.812
356 0 47.3959 13.651 647 163.964 605.757 475.453
357 0 48.4947 13.7128 665 164.286 605.438 474.559
358 0 50.3388 14.0846 709 167.896 606.69 473.625
359 0 51.3255 14.0281 720 171.262 605.146 472.551
360 0 54.5552 13.7475 750 168.172 606.713 472.149
361 0 55.5872 14.1579 787 168.553 605.454 471.474
362 0 57.5518 14.0048 806 169.414 604.739 470.819
363 0 60.8215 13.7287 835 173.889 605.625 470.096
364 0 61.3751 13.7352 843 165.026 605.233 469.051
365 0 63.5525 14.0828 895 157.857 607.149 467.802
366 0 65.4455 14.0269 918 167.117 606.696 466.793
367 0 68.4039 13.8296 946 158.442 603.673 465.42
368 0 71.4065 13.8783 991 163.661 606.376 464.122
369 0 73.2745 14.1386 1036 166.526 605.97 462.367
370 0 77.4617 13.6971 1061 163.689 605.042 460.984
371 0 79.2665 13.9782 1108 19.1733 606.713 460.004
372 0 83.266 13.8112 1150 164.883 605.092 458.2
373 1 42.3202 13.1616 557 168.695 606.224 477.039
374 0 43.3619 13.3758 580 168.397 603.676 476.136
375 0 44.1925 13.7806 609 167.332 606.238 474.455
376 0 47.2732 13.5172 639 164.609 605.98 473.679
377 0 49.4006 13.2185 653 165.602 604.407 473.827
378 0 50.408 13.6685 689 169.92 604.956 472.737
379 0 52.4006 13.435 704 171.179 604.652 472.457
380 0 54.2372 13.0538 708 171.797 603.823 471.766
381 0 55.3666 13.4016 742 173.565 605.743 471.062
382 0 58.4269 13.6239 796 168.962 607.416 470.084
383 0 59.2613 13.837 820 171.793 603.801 468.876
384 0 60.2521 14.2402 858 172.984 603.894 467.973
385 0 63.2774 14.1125 893 175.533 604.184 466.992
386 0 66.3009 13.9515 925 172.178 604.984 466.375
387 0 67.4802 13.8559 935 169.179 603.543 464.89
388 0 71.5218 13.786 986 174.378 605.037 464.267
389 0 74.3945 13.751 1023 164.263 604.543 463.12
390 0 75.3166 13.9411 1050 173.338 603.438 461.359
391 0 78.3058 13.907 1089 170.173 603.57 460.792
392 0 82.2028 13.7952 1134 172.951 604.143 458.836
393 0 84.2267 14.2116 1197 167.208 603.324 457.558
394 0 87.2536 14.0625 1227 166.962 606.098 455.76
395 0 90.3387 14.2796 1290 169.834 605.273 455.088
396 0 93.2232 14.3312 1336 174.617 605.641 453.706
397 0 95.2472 14.2156 1354 175.415 606.961 452.57
398 0 98.2211 14.6099 1435 169.994 603.608 451.153
399 0 101.131 14.506 1467 170.294 603.726 449.796
400 0 105.136 14.3908 1513 172.245 604.993 448.73
401 0 108.273 14.5927 1580 171.252 604.291 446.816
402 0 111.212 14.405 1602 171.868 603.08 444.892
403 0 116.156 14.1533 1644 174.281 604.764 443.694
404 0 120.194 14.41 1732 171.275 604.057 441.117
405 0 125.383 14.364 1801 171.506 602.364 438.48
406 0 128.249 14.3237 1837 176.341 604.936 436.716
407 1 66.091 12.7249 841 171.766 604.269 467.188
408 0 70.1562 13.1706 924 172.652 604.616 466.761
409 0 72.222 12.9323 934 173.388 605.34 465.427
410 0 75.152 12.9604 974 174.191 606.297 463.776
411 0 78.0767 13.4483 1050 168.53 606.982 462.274
412 0 81.0905 13.0102 1055 169.763 607.289 461.141
413 0 84.1705 13.3657 1125 172.709 606.562 459.533
414 0 88.1864 13.0632 1152 173.706 607.293 457.875
415 0 91.1188 13.1477 1198 165.725 604.634 456.053
416 0 94.1208 13.3446 1256 171.284 604.26 454.301
417 0 96.1308 13.3464 1283 164.101 605.49 453.175
418 0 101.178 13.5998 1376 168.612 607.207 450.898
419 1 54.0602 11.4502 619 159.352 605.089 474.943
420 0 57.0795 11.8081 674 162.929 606.723 473.622
421 0 58.237 11.7795 686 149.207 604.738 472.809
422 0 60.2032 12.192 734 169.317 603.568 471.369
423 0 61.1724 12.6201 772 162.931 605.597 470.049
424 0 65.1458 12.1727 793 158.33 603.578 468.593
425 0 67.2007 12.232 822 165.002 604.995 468.266
426 0 70.1219 12.136 851 161.355 601.906 466.447
427 0 70.1721 12.5691 882 160.536 606.04 465.125
428 0 74.248 12.4044 921 163.937 606.524 463.607
429 0 75.2058 12.6453 951 165.15 607.524 463.155
430 0 78.1978 12.6858 992 167.267 602.323 462.309
431 0 81.1857 12.7485 1035 171.537 603.957 460.449
432 0 84.1346 12.7296 1071 161.425 605.877 459.874
433 0 86.125 12.6212 1087 170.029 605.422 458.001
434 0 89.2022 12.7463 1137 168.069 604.403 456.592
435 0 92.2768 12.5709 1160 166.861 604.847 454.922
436 0 97.2725 12.6654 1232 165.034 605.04 452.608
437 0 100.338 12.8764 1292 165.341 605.745 451.306
438 1 54.1382 11.249 609 167.146 605.036 474.361
439 0 57.2412 11.7922 675 161.164 606.599 473.308
440 0 58.2133 11.9904 698 164.034 604.994 472.599
441 0 60.1641 11.8842 715 158.38 605.292 471.222
442 0 61.1747 12.2763 751 161.393 605.824 470.411
443 0 63.1293 12.1021 764 162.741 607.153 469.207
444 0 65.1352 12.6199 822 156.38 607.529 468.164
445 0 69.17 12.5054 865 163.201 607.183 466.806
446 0 70.1694 12.5981 884 159.245 605.119 465.171
447 0 73.1684 12.6694 927 160.539 605.262 464.042
448 0 75.2506 13.3155 1002 161.327 603.586 462.758
449 0 77.1936 12.7601 985 157.292 606.489 460.857
450 0 81.3435 12.5148 1018 157.748 606.665 460.437
451 0 83.2553 12.9601 1079 164.058 604.3 457.827
452 0 86.3283 12.8 1105 169.192 605.259 456.911
453 0 89.2799 12.8472 1147 166.012 603.52 455.077
454 0 93.2757 12.8865 1202 166.912 605.671 453.601
455 0 94.165 12.7754 1203 168.135 605.049 451.966
456 1 48.0493 11.0512 531 161.827 606.84 474.789
457 0 51.0546 11.282 576 160.726 606.738 473.536
458 0 50.0507 12.4873 625 161.446 606.118 472.469
459 0 52.1007 12.3415 643 159.552 603.821 471.663
460 0 55.086 12.3988 683 162.362 605.479 470.389
461 0 55.0321 12.1384 668 161.501 604.832 470.13
462 0 57.0842 12.2976 702 161.397 605.688 468.99
463 0 58.0607 12.2286 710 161.835 604.766 469.054
464 0 59.0514 12.6839 749 166.238 604.211 468.833
465 0 60.0459 12.9568 778 166.161 605.625 467.915
466 0 62.0536 12.747 791 156.075 606.064 466.766
467 0 65.1413 12.588 820 164.737 605.171 466.335
468 0 67.0904 12.8185 860 163.503 605.188 465.056
469 0 69.0611 13.4084 926 165.443 606.312 463.88
470 0 71.0732 13.1132 932 163.042 605.074 462.395
471 0 73.0993 13.0371 953 163.517 604.298 461.71
472 0 75.0909 13.0242 978 167.514 604.956 460.788
473 0 78.1488 12.8857 1007 168.467 608.081 459.282
474 0 80.2011 12.8427 1030 166.921 607.25 458.149
475 0 83.1374 12.6417 1051 165.544 603.531 456.943
476 0 85.2118 12.909 1100 161.6 605.788 455.225
477 0 87.1863 13.1557 1147 161.81 606.327 453.609
478 0 90.1726 13.1747 1188 162.774 604.493 451.997
479 0 95.257 12.7655 1216 160.043 605.252 450.551
480 1 50.1248 12.2095 612 160.498 603.07 472.386
481 0 52.1504 12.0037 626 163.011 603.764 471.684
482 0 54.1235 12.3237 667 156.234 603.505 471.135
483 0 55.1398 12.1872 672 164.412 604.372 470.119
484 0 56.1312 12.6846 712 160.722 604.442 469.615
485 0 57.1813 12.8364 734 161.149 603.685 468.402
486 0 59.0542 12.9881 767 158.694 604.863 468.113
487 0 61.0869 12.7687 780 163.042 604.094 467.187
488 0 63.0982 12.6945 801 169.814 603.844 465.744
489 0 65.1202 12.6842 826 168.309 603.163 465.076
490 0 68.0577 12.5041 851 164.767 603.967 463.456
491 0 68.1155 13.0514 889 167.853 605.254 462.562
492 0 72.1503 12.9175 932 165.998 604.571 461.613
493 0 75.0826 12.8525 965 165.505 605.875 460.592
494 0 76.121 13.0582 994 166.903 605.477 459.476
495 0 81.2104 12.5846 1022 167.948 604.491 457.835
496 0 82.2258 12.8792 1059 167.622 602.843 456.833
497 1 44.0556 11.2812 497 169.938 604.064 476.167
498 0 45.0723 11.8255 533 172.199 603.578 474.904
499 0 44.0431 12.1699 536 170.216 603.39 474.659
500 0 47.0318 12.0982 569 171.933 602.942 474.141
501 0 47.2955 12.5171 592 159.336 603.324 474.399
502 0 48.0725 12.6892 610 162.503 603.344 473.18
503 0 50.1604 12.6793 636 170.869 604.459 472.643
504 0 53.184 12.3157 655 170.87 605.105 471.901
505 0 54.1761 12.3117 667 166.919 606.024 471.175
506 0 55.1228 12.6808 699 167.019 605.745 470.575
507 0 57.0933 12.8386 733 168.707 605.299 468.711
508 0 57.0824 12.8586 734 167.499 603.988 468.467
509 0 60.0582 13.2705 797 169.729 603.621 467.252
510 0 63.1823 12.7251 804 160.965 603.223 466.887
511 0 63.1829 12.9307 817 170.814 603.808 465.661
512 0 67.1066 12.8899 865 165.977 604.003 464.681
513 0 68.0427 13.1388 894 163.474 604.763 463.208
514 0 71.1022 12.8407 913 167.654 603.228 462.041
515 0 71.0712 13.2824 944 170.324 604.252 460.524
516 0 74.111 13.1829 977 161.571 605.085 460.164
517 0 78.0755 13.282 1037 160.255 605.589 459.119
518 0 79.1019 13.4257 1062 159.82 606.671 457.862
519 0 82.1238 13.6014 1117 172.477 605.56 456.628
520 0 86.1099 13.4479 1158 164.573 604.865 454.398
521 0 88.1185 13.4138 1182 86.8739 605.113 453.4
522 0 92.0656 13.7185 1263 165.067 604.713 451.46
523 0 96.1401 13.5739 1305 165.945 604.812 449.61
524 0 100.118 13.4441 1346 165.057 605.687 448.387
525 0 102.312 13.498 1381 160.694 605.919 446.529
526 1 57.063 11.461 654 161.979 606.902 470.376
527 0 59.0675 11.9694 707 158.386 604.238 469.704
528 0 59.0893 12.3373 729 163.267 603.741 468.867
529 0 62.1196 12.2667 762 163.741 603.05 468.387
530 0 64.1 12.5741 806 164.345 603.519 467.263
531 0 66.0366 12.6748 837 159.048 605.491 465.816
532 0 68.0774 12.7502 868 163.819 604.772 465.271
533 0 71.0583 12.6938 902 167.159 604.707 464.51
534 0 73.0769 12.5895 920 162.143 605.846 463.452
535 0 75.0946 12.7572 958 160.015 602.74 462.45
536 0 77.1695 12.9067 996 155.624 601.939 461.246
537 0 80.1368 12.853 1030 163.113 603.4 460.489
538 0 81.1739 13.0707 1061 154.806 603.9 458.525
539 0 85.1238 12.8871 1097 160.429 602.47 457.784
540 0 88.1454 12.6269 1113 159.819 604.343 456.81
541 0 90.177 12.6529 1141 162.516 604.285 454.753
542 0 93.2821 12.6284 1178 154.681 605.522 453.718
543 0 97.1179 12.8195 1245 142.458 605.198 451.357
544 1 51.0563 11.1837 571 151.061 606.844 474.424
545 0 52.0414 11.7599 612 146.162 606.593 472.967
546 0 54.109 12.7336 689 149.257 605.813 472.289
547 0 56.0684 12.0924 678 151.159 605.274 471.388
548 0 56.1959 12.8835 724 155.749 607.033 470.762
549 0 59.0954 12.4883 738 152.706 606.688 469.858
550 0 60.1443 12.8025 770 158.648 605.621 468.76
551 0 62.0906 12.6428 785 155.12 604.712 468.211
552 0 64.1396 12.6131 809 151.266 603.022 467.29
553 0 66.0845 13.0136 860 152.501 603.208 466.41
554 0 70.046 12.7488 893 149.367 604.656 465.073
555 0 71.1129 12.8387 913 159.15 606.786 463.982
556 0 74.1287 12.5727 932 155.279 605.55 462.804
557 0 75.0583 13.1498 987 160.59 607.086 461.284
558 0 78.1602 13.2676 1037 153.399 607.03 460.477
559 0 82.0573 13.3321 1094 161.091 607.997 458.632
560 0 84.1345 13.8112 1162 150.515 605.035 457.957
561 0 87.159 13.2287 1153 163.96 605.763 456.385
562 0 91.1484 13.2202 1205 160.669 604.572 454.215
563 0 94.0923 13.2211 1244 153.478 605.68 452.283
564 0 96.1763 13.3713 1286 160.233 605.68 451.271
565 0 99.3689 13.6159 1353 161.981 607.048 449.369
566 0 104.224 13.5862 1416 152.044 604.06 446.21
567 0 107.104 13.809 1479 155.551 605.394 445.043
568 1 59.2738 11.3878 675 164.911 603.544 470.084
569 0 61.1559 11.904 728 157.72 604.966 468.29
570 0 62.0985 11.9166 740 163.269 603.101 468.086
571 0 65.2174 12.098 789 162.833 606.35 466.232
572 0 68.1906 12.1424 828 158.448 605.376 465.537
573 0 71.159 11.9451 850 160.94 607.708 464.236
574 0 72.2121 12.214 882 156.305 606.261 462.656
575 0 76.1943 12.1138 923 153.481 606.559 461.398
576 0 78.1439 11.9523 934 156.444 606.843 460.069
577 0 81.1575 11.8781 964 162.757 605.895 459.087
578 0 83.2959 12.3896 1032 150.258 605.366 456.779
579 0 86.3138 12.0954 1044 159.878 604.604 455.398
580 0 89.1549 12.0577 1075 154.394 603.107 453.923
581 1 45.0584 10.6972 482 156.844 604.556 475.602
582 0 46.0895 11.4126 526 147.914 605.456 474.627
583 0 48.0417 11.7606 565 159.864 606.338 474.556
584 0 50.1569 11.5438 579 159.701 606.803 473.465
585 0 51.2825 11.7779 604 155.735 604.063 471.972
586 0 52.2119 11.7406 613 158.558 604.618 471.463
587 0 54.1752 11.5366 625 153.458 604.693 470.325
588 0 55.1989 12.2647 677 158.08 605.188 469.563
589 0 57.1219 12.202 697 153.963 604.557 468.812
590 0 59.2206 12.2086 723 154.029 605.445 467.873
591 0 59.1625 12.4403 736 150.486 605.279 467.004
592 0 62.1512 12.0191 747 147.739 605.76 466.076
593 0 62.0596 12.8264 796 149.149 605.673 464.783
594 0 65.0601 12.3578 804 144.127 605.922 463.879
595 0 66.0791 12.137 802 144.464 605.207 462.499
596 0 69.1068 12.0828 835 148.871 604.935 461.893
597 0 72.0575 12.2541 883 150.366 605.017 460.395
598 0 75.1763 12.198 917 149.783 606.902 459.573
599 0 76.1408 11.8727 904 150.649 604.454 458.747
600 0 78.2489 12.2302 957 152.071 605.811 456.898
601 0 79.4646 12.4332 988 149.437 604.739 455.412
602 0 83.278 12.5724 1047 151.536 605.351 453.491
603 0 85.2786 12.2657 1046 150.046 604.206 452.554
604 0 89.4201 12.4581 1114 156.199 604.788 450.073
605 0 91.2528 12.438 1135 143.371 603.595 448.732
606 0 95.3398 12.7229 1213 151.861 601.641 447.086
607 1 51.0548 10.9686 560 153.361 603.293 469.516
608 0 51.0419 11.1869 571 151.347 602.716 469.475
609 0 53.0169 12.3168 653 157.167 603.129 468.521
610 0 56.1335 12.3634 694 152.053 602.432 467.814
611 0 56.1368 12.7902 718 154.641 602.159 468.029
612 0 59.1991 12.838 760 156.121 601.724 467.418
613 0 60.1865 12.7437 767 154.911 602.202 465.747
614 0 61.1123 13.0252 796 163.284 602.579 465.026
615 0 63.0905 13.2984 839 158.036 603.395 464.411
616 0 68.1641 12.5139 853 151.02 603.172 463.181
617 0 69.0846 13.0709 903 163.68 602.998 461.608
618 0 71.0393 13.2321 940 161.71 601.6 460.798
619 0 74.1576 12.824 951 161.989 602.216 459.917
620 0 76.1007 13.1011 997 161.83 604.143 459.163
621 0 78.1662 13.4585 1052 159.312 602.896 457.556
622 0 81.1157 13.376 1085 162.498 603.235 456.257
623 0 84.1064 13.2689 1116 156.318 603.38 454.573
624 0 87.127 13.2335 1153 157.879 604.75 452.949
625 0 90.1372 13.1799 1188 157.347 602.717 451.242
626 0 92.2038 13.4268 1238 157.6 603.306 449.307
627 0 96.1001 13.2674 1275 156.758 602.191 448.201
628 1 52.1517 11.8884 620 154.208 603.081 470.097
629 0 54.1086 12.2346 662 157.656 605.403 468.734
630 0 56.0384 12.3308 691 154.289 605.242 468.168
631 0 56.0592 12.9684 727 155.446 604.565 466.894
632 0 60.0584 12.4545 748 152.98 605.279 466.422
633 0 61.0695 12.4121 758 153.65 604.941 465.975
634 0 60.0464 13.0732 785 156.845 604.893 465.183
635 0 65.0273 12.7639 830 155.657 605.184 463.681
636 0 66.0514 12.9747 857 155.467 604.933 462.894
637 0 69.0565 12.9459 894 160.303 604.329 461.856
638 0 70.0468 12.8486 900 149.156 603.028 461.423
639 0 73.107 13.3503 976 155.691 602.894 459.621
640 0 75.1528 12.9869 976 162.408 604.174 459.275
641 0 77.0743 13.2859 1024 153.296 603.672 457.932
642 0 80.0647 13.9138 1114 153.919 605.227 456.413
643 0 82.0609 13.3072 1092 151.159 605.045 455.852
644 0 86.1697 13.2181 1139 156.716 605.631 453.869
645 0 89.2175 13.4391 1199 154.224 605.616 452.601
646 0 92.1702 13.3774 1233 154.198 604.599 451.081
647 0 96.1882 13.0785 1258 155.249 605.633 449.846
648 1 48.1181 10.9314 526 154.515 606.11 473.625
649 0 49.0139 11.4253 560 153.843 605.27 473.064
650 0 52.0113 11.9397 621 149.459 605.966 472.451
651 0 54.063 12.3559 668 149.587 606.576 471.102
652 0 54.1142 12.5475 679 153.794 605.892 470.901
653 0 57.0576 12.1106 691 150.821 605.904 470.077
654 0 57.0967 12.4876 713 153.431 605.41 469.488
655 0 60.0653 12.7195 764 155.461 605.675 468.902
656 0 63.05 12.5773 793 152.482 605.792 467.545
657 0 65.1069 12.7329 829 155.197 606.362 466.825
658 0 66.1252 12.6578 837 157.535 605.136 466.877
659 0 68.1247 13.0349 888 159.337 607.222 465.599
660 0 71.1001 12.9395 920 166.804 606.365 464.466
661 0 74.0956 12.7808 947 167.341 605.19 463.872
662 0 76.0653 13.2386 1007 165.946 607.969 462.791
663 0 78.0525 13.2987 1038 165.601 605.549 460.912
664 0 83.1761 12.7681 1062 169.32 604.208 460.128
665 0 83.1346 13.1473 1093 166.591 605.151 458.92
666 0 86.0946 12.7186 1095 171.394 606.704 458.315
667 0 90.1511 12.956 1168 158.403 604.804 455.536
668 0 92.2851 12.9598 1196 161.998 604.387 454.369
669 0 95.117 13.1417 1250 162.742 605.386 452.992
670 1 51.1665 11.6091 594 168.424 604.338 475.13
671 0 50.1438 12.5439 629 158.908 603.073 474.599
672 0 54.0612 12.3564 668 156.741 605.939 474.148
673 0 54.0295 12.3821 669 159.007 604.785 473.254
674 0 55.0747 12.7282 701 157.969 606.318 472.752
675 0 59.1293 12.1429 718 158.623 605.093 471.667
676 0 60.139 12.2716 738 159.312 606.369 470.661
677 0 62.1031 12.4793 775 163.643 606.83 469.57
678 0 63.1726 12.6795 801 155.096 605.923 468.758
679 0 67.0741 12.4936 838 160.241 604.679 467.669
680 0 67.1065 13.0092 873 163.452 603.599 466.407
681 0 70.0417 13.2064 925 155.195 603.133 464.976
682 0 72.0702 13.2371 954 159.125 604.36 464.224
683 0 74.0716 13.4464 996 149.135 603.895 463.135
684 0 75.104 13.4347 1009 159.511 605.426 462.303
685 0 78.1647 13.2413 1035 165.805 604.943 461.437
686 0 80.1075 13.3321 1068 162.119 606.419 460.354
687 0 84.1348 13.2882 1118 160.238 604.164 459.013
688 0 86.2415 13.7289 1184 158.709 605.502 456.774
689 0 88.2383 13.6902 1208 159.217 605.674 456.101
690 0 93.1997 13.4121 1250 157.535 602.764 453.927
691 0 95.3882 13.4398 1282 159.713 604.637 451.802
692 1 48.158 12.2306 589 166.496 606.946 474.842
693 0 51.3023 12.8259 658 154.322 606.421 473.567
694 0 53.1049 12.7483 677 161.281 605.04 473.118
695 0 54.1102 12.955 701 159.255 604.963 472.258
696 0 56.2492 12.8713 724 159.633 605.986 471.503
697 0 56.0978 13.423 753 158.189 607.127 470.467
698 0 60.0687 13.0351 783 158.07 605.645 469.037
699 0 60.2178 13.5176 814 161.698 605.74 468.372
700 0 62.1865 13.6525 849 159.436 606.046 467.269
701 0 65.1578 13.3368 869 161.441 605.25 466.062
702 0 68.2407 13.4377 917 163.22 606.955 464.692
703 0 70.3098 13.2983 935 162.76 605.664 462.995
704 0 73.2484 13.6522 1000 163.461 606.546 461.151
705 0 74.2771 13.5304 1005 166.336 606.34 460.716
706 0 79.1825 13.2226 1047 168.701 609.019 458.921
707 0 79.1757 13.5395 1072 164.871 606.94 457.856
708 0 84.1605 13.0109 1095 167.239 608.005 456.833
709 0 87.0984 13.3986 1167 155.996 605.926 454.516
710 1 43.0518 12.032 518 164.579 607.149 476.139
711 0 44.0785 12.4097 547 165.859 606.603 475.453
712 0 46.1353 12.6151 582 163.284 606.871 474.864
713 0 47.1856 12.1647 574 160.871 607.214 473.61
714 0 48.2171 12.6926 612 159.067 607.038 473.538
715 0 50.1412 12.7041 637 166.041 607.127 472.327
716 0 52.1225 12.7009 662 169.595 607.281 471.87
717 0 52.1553 12.6545 660 167.679 606.729 471.223
718 0 55.1328 13.0231 718 159.373 608.65 470.635
719 0 57.1288 12.7606 729 160.694 606.052 469.32
720 0 60.0627 12.6867 762 169.167 608.402 468.864
721 0 60.1594 13.431 808 164.827 604.545 467.472
722 0 62.0434 13.4422 834 159.489 605.177 466.803
723 0 63.027 13.3435 841 160.34 605.78 466.435
724 0 66.095 13.4806 891 170.384 607.479 465.663
725 0 69.0354 13.4858 931 171.501 608.299 464.489
726 0 70.0975 13.6239 955 169.821 605.748 463.023
727 0 71.2106 13.776 981 168.612 606.582 462.939
728 0 74.1055 13.9126 1031 169.407 607.82 460.833
729 0 77.057 13.8469 1067 172.308 607.181 459.679
730 0 78.129 13.9897 1093 166.97 606.144 458.365
731 0 81.2276 14.2193 1155 169.603 607.366 456.914
732 0 83.2186 14.1074 1174 175.06 608.412 455.317
733 0 87.2925 13.8958 1213 168.049 608.467 453.857
734 0 91.1804 14.0381 1280 167.632 607.955 451.857
735 0 93.1944 14.1961 1323 168.586 606.958 450.002
736 1 47.1289 12.625 595 166.783 605.807 472.624
737 0 48.2368 12.646 610 167.495 606.133 471.803
738 0 51.0677 12.5715 642 168.436 605.808 471.523
739 0 52.0769 13.0192 678 170.752 606.783 470.754
740 0 53.1848 13.3497 710 166.445 605.707 469.47
741 0 56.0903 12.9434 726 170.176 606.69 469.19
742 0 56.0859 13.1584 738 171.951 605.304 468.614
743 0 59.0679 13.0697 772 167.488 605.56 467.176
744 0 59.04 13.6179 804 166.975 607.776 466.096
745 0 62.0428 13.3456 828 160.649 605.854 465.373
746 0 64.0616 13.3621 856 163.842 606.821 464.187
747 0 65.118 13.345 869 156.619 606.945 463.427
748 0 67.1829 13.4558 904 156.49 607.549 462.746
749 0 70.0697 13.244 928 161.212 606.185 461.422
750 0 72.0948 13.4545 970 156.534 607.472 460.484
751 0 73.076 13.4928 986 158.804 607.929 459.603
752 0 76.1108 13.5986 1035 154.914 605.803 457.986
753 0 79.0989 13.4515 1064 155.109 606.932 457.112
754 0 81.1475 13.5925 1103 155.094 606.26 456.107
755 0 85.1677 13.5732 1156 156.737 607.162 454.619
756 0 88.0561 13.0939 1153 160.598 606.199 453.483
757 0 89.0716 13.3039 1185 155.35 606.349 452.035
758 1 46.0646 11.5707 533 154.486 607.507 473.084
759 0 47.0412 12.117 570 156.007 607.046 472.235
760 0 49.0571 11.9657 587 147.128 607.646 472.186
761 0 49.1112 12.1561 597 155.573 606.72 471.173
762 0 53.1141 12.3508 656 156.169 606.355 470.163
763 0 55.1132 12.4834 688 148.054 608.472 469.456
764 0 56.0587 12.5939 706 149.074 609.466 467.956
765 0 59.081 12.576 743 155.028 606.857 467.612
766 0 58.0913 13.0484 758 152.83 605.803 466.719
767 0 62.0818 12.5157 777 145.457 606.912 465.448
768 0 65.087 12.4449 810 154.544 606.785 464.353
769 0 67.1029 12.5628 843 152.763 606.62 463.123
770 0 68.0973 13.0255 887 150.574 607.218 462.463
771 0 70.0461 12.8915 903 153.897 608.311 461.158
772 0 75.0881 12.9048 969 153.437 609.526 459.364
773 0 76.0894 12.6956 966 143.704 609.316 458.22
774 0 79.1249 12.7646 1010 142.45 610.816 457.37
775 0 82.0939 12.8146 1052 156.128 609.3 455.639
776 0 86.1507 12.6639 1091 152.628 607.825 454.289
777 1 46.058 10.8776 501 151.852 607.465 474.309
778 0 47.0629 11.7927 555 154.517 609.699 472.838
779 0 49.0649 11.8822 583 157.362 609.136 472.575
780 0 50.1178 12.0117 602 156.894 608.708 472.191
781 0 51.1061 12.4251 635 152.26 608.778 471.69
782 0 51.134 12.6921 649 153.16 606.698 471.12
783 0 54.2822 12.4903 678 155.913 605.373 470.525
784 0 57.1497 12.616 721 155.791 607.394 469.835
785 0 58.147 12.9671 754 162.576 609.24 469.147
786 0 60.2593 13.2428 798 154.721 609.526 467.915
787 0 61.1379 12.8071 783 168.862 610.117 466.847
788 0 64.1253 13.3021 853 161.149 607.189 465.651
789 0 66.1206 13.4451 889 161.039 606.782 464.697
790 0 67.1532 13.3575 897 167.161 608.525 464.366
791 0 71.1837 13.3457 950 163.517 606.898 463.609
792 0 71.1572 13.6318 970 166.09 607.718 462.545
793 0 74.2083 13.3139 988 166.965 606.885 461.404
794 0 76.1686 13.8377 1054 162.447 607.445 460.169
795 0 78.1332 13.4642 1052 157.082 606.636 459.175
796 0 82.1652 13.6067 1118 161.096 609.159 458.016
797 0 85.1529 13.4816 1148 171.859 607.847 457.033
798 0 87.1409 13.6446 1189 166.391 609.1 455.724
799 0 90.1564 13.3768 1206 160.17 607.534 454.317
800 0 92.2065 13.5565 1250 157.936 609.093 452.829
801 0 96.1392 13.6885 1316 159.176 608.283 451.274
802 0 100.173 13.3869 1341 164.048 607.613 450.427
803 1 52.0252 12.4939 650 165.549 606.083 472.989
804 0 52.142 12.9262 674 163.291 606.556 472.748
805 0 55.0902 12.5612 692 162.932 605.132 472.311
806 0 57.1113 12.2393 699 155.744 606.575 471.714
807 0 57.0979 12.9252 738 163.779 605.44 471.141
808 0 59.1656 13.0988 775 162.148 606.489 469.857
809 0 62.1155 13.1529 817 164.623 606.316 469.138
810 0 65.1456 12.5258 816 162.902 606.779 468.088
811 0 65.1719 13.0424 850 169.233 606.168 467.681
812 0 67.1395 13.2709 891 167.733 605.033 466.574
813 0 70.2353 12.9422 909 166.3 606.609 466.007
814 0 72.1561 13.0827 944 169.536 604.429 464.284
815 0 73.178 13.4193 982 161.372 607.143 463.566
816 0 77.2273 13.0783 1010 167.867 607.301 462.487
817 0 78.2383 13.3822 1047 169.276 605.891 461.577
818 0 82.2759 13.0172 1071 163.906 607.876 460.926
819 0 84.1675 13.0335 1097 169.097 605.756 459.525
820 0 85.2476 13.3845 1141 165.706 606.143 458.205
821 0 89.1364 13.0474 1163 167.433 606.502 457.248
822 0 92.2244 13.3045 1227 168.308 607.492 454.907
823 1 47.0773 11.8529 558 156.545 607.176 477.013
824 0 49.2592 12.0993 596 167.045 606.626 475.696
825 0 50.109 12.2733 615 164.384 607.211 475.024
826 0 50.0744 12.5813 630 159.817 605.11 474.657
827 0 53.1441 12.626 671 165.189 605.276 473.359
828 0 53.0443 13.0268 691 167.259 604.512 472.815
829 0 54.053 13.4498 727 163.582 607.415 471.655
830 0 57.1136 12.8866 736 157.192 607.75 470.773
831 0 59.0916 13.1998 780 163.924 607.603 469.831
832 0 59.2637 13.1784 781 157.817 606.328 469.147
833 0 63.1248 12.6416 798 167.183 606.578 468.315
834 0 65.1187 12.792 833 165.193 605.856 466.67
835 0 66.1476 12.971 858 162.758 607.791 465.777
836 0 67.1648 13.3552 897 160.408 608.284 463.822
837 0 70.1487 12.9867 911 129.836 608.108 462.93
838 0 70.1197 13.3058 933 160.136 607.752 461.817
839 0 75.1492 12.921 971 161.79 608.104 461.014
840 0 76.1625 13.248 1009 164.356 607.443 459.639
841 0 79.3621 13.1675 1045 161.464 607.65 457.908
842 0 80.202 13.1169 1052 164.188 606.26 457.012
843 0 82.292 13.1726 1084 161.543 609.254 456.205
844 0 87.1925 12.8107 1117 160.505 608.298 454.248
845 0 90.1264 12.9152 1164 160.063 607.442 452.489
846 1 44.0616 11.7336 517 153.358 607.081 474.841
847 0 45.0596 12.1173 546 158.053 607.247 474.114
848 0 47.2329 11.9832 566 160.852 604.726 473.016
849 0 49.1421 12.006 590 154.193 605.51 472.644
850 0 50.2376 11.8636 596 159.654 606.691 471.648
851 0 51.1232 12.1276 620 154.166 606.208 470.85
852 0 54.1682 12.332 668 159.001 608.073 470.548
853 0 54.1886 12.475 676 157.259 605.601 469.981
854 0 58.1464 12.6061 733 159.97 606.095 468.888
855 0 58.1398 12.5903 732 159.107 605.627 467.712
856 0 60.0736 12.3848 744 166.559 607.098 467.417
857 0 61.3092 13.0486 800 159.018 605.856 466.189
858 0 63.1119 12.9136 815 163.698 607.355 465.086
859 0 65.1183 12.9917 846 156.968 608.066 463.636
860 0 68.1279 12.8728 877 156.585 606.523 462.868
861 0 68.1043 12.7598 869 163.418 606.084 462.932
862 0 69.1407 13.3351 922 164.923 607.533 461.633
863 0 72.3638 13.3907 969 160.481 607.49 460.87
864 0 73.2578 13.159 964 159.054 606.666 459.484
865 0 76.1917 13.2429 1009 157.123 609.433 458.155
866 0 79.2836 12.9283 1025 159.058 607.245 457.067
867 0 83.1718 12.6966 1056 147.402 608.579 455.471
868 1 42.0552 10.6289 447 151.881 609.875 475.508
869 0 43.0364 11.6413 501 144.577 606.082 474.856
870 0 43.106 11.9937 517 143.251 608.259 473.592
871 0 45.1139 11.7924 532 143.852 606.374 473.367
872 0 46.1791 12.105 559 148.225 608.317 472.639
873 0 47.1441 12.2603 578 139.343 606.464 471.417
874 0 48.1819 12.4528 600 136.445 608.402 471.04
875 0 49.1666 12.2848 604 141.657 607.798 470.161
876 0 52.1595 12.0975 631 144.241 607.842 469.773
877 0 53.2179 12.2703 653 140.634 608.326 469.107
878 0 53.1489 12.7754 679 143.701 608.29 468.019
879 0 56.14 12.9498 727 140.828 608.175 467.164
880 0 58.1126 12.1832 708 144.527 605.85 466.812
881 0 60.0434 12.3577 742 137.303 606.385 465.554
882 0 62.0859 13.0303 809 146.625 606.874 464.836
883 0 63.0962 12.6474 798 146.053 606.718 464.747
884 0 65.1424 12.6492 824 153.71 608.092 463.893
885 0 67.0396 12.9923 871 157.599 606 462.674
886 0 69.0564 13.0039 898 152.043 607.954 462.224
887 0 70.1239 12.8344 900 152.8 608.382 461.181
888 0 71.0718 13.1979 938 154.305 608.093 459.578
889 0 72.0319 13.1886 950 148.526 608.186 459.077
890 0 74.0726 13.4598 997 160.963 607.96 457.738
891 0 77.083 13.3752 1031 161.092 606.859 457.061
892 0 79.0849 13.3148 1053 159.265 606.12 455.959
893 0 79.0248 13.9323 1101 159.431 606.163 455.848
894 0 82.1443 13.6589 1122 160.898 608.151 454.613
895 0 85.0836 13.4926 1148 162.931 606.377 454.273
896 0 86.2566 13.7265 1184 162.642 610.605 453.829
897 0 88.0809 14.078 1240 166.648 606.297 451.861
898 0 90.2321 13.7091 1237 167.623 607.799 450.741
899 0 92.0616 13.9146 1281 167.566 604.806 449.793
900 0 93.056 13.9164 1295 167.14 605.735 449.622
901 0 97.2807 13.8362 1346 170.9 606.706 447.797
902 0 99.1113 13.9338 1381 160.439 609.248 447.081
903 0 101.21 14.1685 1434 169.601 607.595 445.351
904 0 104.234 13.815 1440 169.485 608.055 444.491
905 0 106.184 13.7402 1459 168.626 607.315 443.171
906 1 55.0225 11.9406 657 158.306 606.009 469.549
907 0 55.0399 12.3183 678 163.431 606.355 468.807
908 0 55.0679 12.2394 674 163.619 606.871 468.089
909 0 55.034 12.6649 697 157.782 607.172 468.07
910 0 58.0719 12.3123 715 164.264 606.333 467.134
911 0 57.09 12.6467 722 162.416 604.637 466.672
912 0 59.0677 12.3079 727 163.393 606.554 466.717
913 0 57.0718 12.3003 702 165.171 607.033 467.642
914 0 58.0773 12.0012 697 164.838 605.228 466.643
915 0 58.1082 12.167 707 158.76 607.335 466.238
916 0 58.1002 12.1342 705 168.597 608.112 466.878
917 0 59.162 12.3221 729 162.743 607.956 466.196
918 0 60.1434 11.8217 711 156.139 608.509 466.214
919 0 59.1147 12.0444 712 168.534 608.765 467.265
920 0 59.1205 12.1616 719 165.584 608.551 466.328
921 0 60.1174 11.8768 714 165 608.073 466.371
922 0 59.1091 12.3839 732 156.467 607.631 465.746
923 0 59.1753 11.6096 687 155.726 607.659 466.252
924 0 60.1251 12.0582 725 161.826 608.025 466.261
925 0 59.1253 12.0253 711 166.862 606.634 465.992
926 0 59.0685 12.5278 740 162.832 608.399 465.932
927 0 59.0834 12.3554 730 162.39 609.827 466.452
928 0 59.0388 12.8051 756 163.902 609.286 465.857
929 0 61.1396 12.2343 748 160.049 608.032 465.705
930 0 63.0912 12.4899 788 159.749 608.956 465.14
931 0 63.1152 12.4217 784 166.329 608.857 465.279
932 0 64.1098 12.697 814 162.658 606.528 464.886
933 0 64.0828 12.6555 811 165.533 608.8 465.136
934 0 63.1125 12.961 818 163.572 606.991 465.609
935 0 63.1833 12.7565 806 166.878 605.898 465.526
936 0 63.1441 12.5744 794 169.866 608.482 465.781
937 0 63.0786 12.7936 807 161.258 605.167 465.919
938 0 64.0761 12.6412 810 166.126 605.923 465.579
939 0 62.0329 12.7029 788 162.287 608.885 465.563
940 0 63.1183 12.4053 783 154.751 606.244 464.997
941 0 64.2005 12.2741 788 152.129 608.513 465.481
942 0 62.1602 12.2426 761 155.201 609.135 465.845
943 0 61.1029 12.1435 742 152.243 606.224 465.83
944 0 62.153 12.3566 768 153.331 608.432 465.914
945 0 62.1693 12.7233 791 148.125 605.129 465.689
946 0 63.1347 12.7664 806 151.618 608.241 465.645
947 0 63.12 12.9911 820 155.333 604.726 466.145
948 0 64.1025 12.9012 827 161.568 604.828 466.163
949 0 65.0938 12.9198 841 155.602 604.342 466.239
950 0 65.0938 12.9198 841 164.171 603.342 466.239
951 0 65.0838 13.1062 853 152.223 606.444 466.259
952 0 64.0549 13.7694 882 150.6 607.159 465.834
953 0 64.172 13.7131 880 150.877 607.844 465.712
954 0 63.1339 13.9703 882 153.465 607.298 466.011
955 0 64.116 13.5068 866 150.512 607.897 466.199
956 0 63.0423 13.6892 863 150.108 606.632 465.786
957 0 64.2325 13.9493 896 149.246 607.682 465.723
958 0 63.0325 13.85 873 147.222 607.677 465.622
959 0 64.2649 13.6155 875 147.823 607.385 465.475
960 0 61.2566 14.4474 885 143.769 604.956 465.471
961 0 63.1575 14.2976 903 144.434 606.671 465.26
962 0 64.11 14.132 906 138.83 605.975 464.949
963 0 63.3263 14.0542 890 144.333 605.5 465.221
964 0 62.1456 14.4017 895 139.145 608.522 465.054
965 0 64.1276 14.0969 904 134.713 610.173 465.043
966 0 64.1056 14.1953 910 134.387 609.08 464.119
967 0 64.2151 14.1244 907 134.888 607.428 463.837
968 0 64.1183 14.0834 903 131.38 606.532 463.963
969 0 64.1719 14.3677 922 128.277 605.986 463.797
970 0 63.0935 14.3913 908 128.525 606.206 463.479
971 0 64.0671 14.3599 920 129.233 606.209 463.528
972 0 63.0683 14.3654 906 127.587 605.579 463.042
973 0 63.1176 14.7978 934 128.236 605.269 463.269
974 0 64.0615 14.4861 928 128.846 605.619 463.018
975 0 64.1344 14.6099 937 126.943 605.9 463.735
976 0 63.2162 14.1578 895 134.287 605.657 463.416
977 0 63.0664 14.5719 919 130.478 607.662 462.986
978 0 63.0789 14.252 899 128.042 604.769 463.722
979 0 62.1098 14.3939 894 132.442 607.634 464.109
980 0 62.0858 14.5444 903 135.537 606.497 462.808
981 0 63.0882 14.3608 906 127.278 608.238 463.711
982 0 64.1129 14.1625 908 131.226 605.88 464.113
