index division length width area intensity CMx CMy
0 0 50.0689 16.7569 839 172.226 251.871 238.839
1 0 52.0777 16.437 856 169.731 253.769 238.116
2 0 53.0679 16.526 877 167.478 253.53 238.617
3 0 55.0541 15.9116 876 164.075 254.197 238.696
4 0 56.0419 16.4163 920 165.385 254.552 238.785
5 0 58.1038 16.4361 955 165.328 255.123 239.168
6 0 60.087 16.6592 1001 165.866 253.07 239.89
7 0 62.1716 17.0496 1060 170.866 253.172 239.954
8 0 64.1508 16.6015 1065 166.977 253.59 240.451
9 0 66.1058 16.64 1100 161.091 250.703 240.885
10 0 68.0846 16.6704 1135 161.18 250.217 241.107
11 0 71.2225 16.3993 1168 158.787 248.949 241.721
12 0 73.0777 16.8314 1230 165.821 247.852 241.522
13 0 76.1206 16.5921 1263 161.227 247.852 241.79
14 1 42.04 14.3197 602 173.522 249.063 260.726
15 0 44.0352 14.3749 633 183.063 248.776 261.221
16 0 45.0365 14.6104 658 177.771 247.638 261.72
17 0 46.0733 14.8676 685 176.104 247.631 261.667
18 0 48.0475 14.9643 719 178.064 247.44 261.712
19 0 50.0803 15.0758 755 170.279 247.14 261.523
20 0 52.0879 15.5123 808 173.157 245.827 262.545
21 0 54.0523 15.522 839 178.434 245.343 262.635
22 0 56.0911 15.5996 875 177.351 247.073 262.577
23 0 58.0375 15.5934 905 174.957 245.455 261.831
24 0 59.0421 15.5144 916 179.691 245.189 261.705
25 0 61.072 15.8829 970 179.414 246.26 261.179
26 0 64.0826 15.6205 1001 80.2108 245.2 260.708
27 0 66.1156 17.6963 1170 164.634 245.043 259.662
28 0 68.0606 17.6167 1199 163.399 246.313 258.872
29 0 71.0695 17.9824 1278 161.66 244.488 257.895
30 0 72.0875 17.9781 1296 167.12 246.483 256.421
31 0 75.2332 17.4125 1310 161.243 244.875 255.313
32 0 77.0494 17.4823 1347 166.197 246.968 253.968
33 0 80.142 17.9432 1438 170.535 247.252 252.868
34 0 84.0795 17.531 1474 170.896 248.739 251.735
35 0 86.0935 17.8991 1541 173.249 249.482 251.027
36 0 90.1276 17.6417 1590 166.725 249.284 249.803
37 0 93.1038 17.4751 1627 168.656 249.488 249.141
38 0 95.0771 17.5542 1669 171.919 250.828 248.43
39 0 100.073 17.4572 1747 168.796 250.869 247.736
40 0 103.162 17.4386 1799 170.042 251.993 247.117
41 0 107.069 17.2226 1844 167.214 253.235 246.183
42 1 66.1039 14.5226 960 171.045 252.488 270.493
43 0 68.0634 15.0742 1026 180.663 251.988 271.976
44 0 71.0948 15.0222 1068 178.461 254.658 272.394
45 0 74.0456 14.9367 1106 181.995 254.21 273.291
46 0 76.1016 15.1377 1152 178.385 252.268 273.876
47 0 78.063 15.0648 1176 175.525 253.507 274.827
48 0 80.101 15.2932 1225 172.478 254.837 276.09
49 0 83.1065 15.1853 1262 179.648 253.158 277.688
50 0 88.123 14.8088 1305 175.645 254.559 279.148
51 0 91.2955 15.1705 1385 174.355 253.349 280.63
52 0 93.1625 15.1563 1412 177.467 252.067 281.977
53 0 96.3016 15.2334 1467 181.691 251.221 283.926
54 0 101.297 14.8771 1507 178.407 251.644 285.955
55 0 107.149 14.7925 1585 176.192 250.719 287.068
56 1 55.1246 13.7688 759 181.154 251.372 315.671
57 0 57.0649 13.914 794 180.485 254.001 317.772
58 0 59.1473 13.982 827 180.752 251.57 319.7
59 0 62.0816 14.046 872 175.994 251.745 321.123
60 0 62.1548 14.1904 882 172.113 250.261 322.922
61 0 64.0624 14.2673 914 176.755 250.673 324.863
62 0 68.2406 14.0386 958 178.456 249.005 326.507
63 0 72.2962 13.9703 1010 176.448 249.526 327.892
64 0 73.1305 14.1938 1038 179.058 249.183 329.845
65 0 77.3368 14.1588 1095 176.838 250.871 330.811
66 0 80.1722 14.3566 1151 174.475 249.613 332.162
67 0 82.1854 14.5646 1197 172.606 249.704 333.139
68 0 85.2364 14.4187 1229 175.498 249.262 334.393
69 0 89.191 14.2727 1273 171.324 248.256 335.708
70 0 91.1369 14.7251 1342 179.041 249.689 337.116
71 0 94.0979 14.9738 1409 174.031 248.266 338.226
72 0 99.3011 14.2597 1416 177.144 250.451 340.096
73 0 101.248 14.7164 1490 170.551 248.475 341.138
74 0 106.18 14.4943 1539 177.888 249.969 343.376
75 0 110.255 14.7204 1623 180.317 249.519 345.118
76 0 115.309 14.8037 1707 178.182 248.497 346.953
77 0 118.29 14.4898 1714 173.376 250.902 348.564
78 0 124.23 14.4168 1791 177.01 251.722 351.202
79 0 128.425 14.4287 1853 176.639 251.48 353.473
80 0 131.176 14.2937 1875 181.543 250.559 356.182
81 0 136.213 14.6241 1992 178.663 251.715 357.284
82 0 140.31 14.7103 2064 171.678 253.942 360.325
83 0 144.31 14.8153 2138 169.203 253.128 361.865
84 0 151.214 14.8796 2250 171.626 253.647 364.894
85 1 81.2881 13.0031 1057 166.694 252.146 406.346
86 0 84.3831 13.6876 1155 164.733 252.629 410.861
87 0 87.3545 13.6341 1191 173.222 252.507 415.849
88 0 89.2914 13.7863 1231 169.593 250.354 421.389
89 0 94.3048 13.7745 1299 169.268 253.797 426.687
90 0 96.239 14.0276 1350 168.35 253.025 431.997
91 0 102.282 13.4921 1380 169.38 254.589 437.447
92 0 105.303 13.7793 1451 165.818 252.32 442.777
93 0 109.294 13.7885 1507 165.507 252.791 448.911
94 0 112.229 13.5704 1523 167.953 252.991 455.513
95 0 116.211 13.7594 1599 166.798 252.59 460.784
96 0 119.316 13.6193 1625 161.287 252.097 466.265
97 0 123.403 13.387 1652 163.531 251.524 467.079
98 0 127.279 13.1444 1673 169.631 251.181 465.645
99 1 51.2307 11.8484 607 162.003 253.273 500.885
100 0 54.1931 11.9941 650 152.834 253.822 499.788
101 0 56.1408 11.9699 672 155.376 253.296 499.729
102 0 56.131 12.4174 697 157.824 252.027 498.232
103 0 59.2029 12.3474 731 155.739 250.197 497.349
104 0 61.1724 12.1623 744 155.06 250.535 496.179
105 0 62.2329 12.6461 787 158.629 250.227 495.169
106 0 64.2197 12.5507 806 157.014 252.545 494.007
107 0 65.2547 12.7347 831 151.752 251.504 492.172
108 0 68.2601 12.7307 869 155.661 251.308 491.036
109 0 71.1193 12.6267 898 153.488 251.58 489.753
110 0 74.3095 12.5018 929 151.675 250.885 488.133
111 0 75.3864 12.6681 955 147.366 251.773 485.784
112 0 79.2312 12.3562 979 146.213 250.637 484.128
113 1 40.2213 10.5417 424 149.677 252.943 503.453
114 0 44.1175 10.744 474 147.127 252.097 501.871
115 0 44.1917 11.8801 525 151.444 253.046 501.697
116 0 46.2919 11.5571 535 150.436 253.688 500.822
117 0 49.2439 11.7375 578 153.687 253.708 499.664
118 0 50.297 11.4917 578 161.348 251.896 498.443
119 0 51.274 12.3649 634 161.166 253.24 497.86
120 0 52.1673 12.3449 644 157.059 254.848 496.924
121 0 54.0837 12.4067 671 162.228 254.544 496.714
122 0 55.4184 12.5951 698 161.63 254.895 495.579
123 0 58.2773 12.6979 740 164.534 254.896 494.362
124 0 62.3258 12.0977 754 162.512 255.241 493.609
125 0 62.2014 12.765 794 159.738 254.772 492.326
126 0 65.2086 12.6977 828 155.593 254.632 491.164
127 0 66.3205 12.6055 836 159.665 253.311 491.091
128 0 68.3182 12.9102 882 158.385 254.463 489.322
129 0 70.3889 12.985 914 162.879 253.77 488.376
130 0 73.2792 12.9778 951 163.52 254.715 487.798
131 0 73.435 13.0864 961 156.255 253.16 485.763
132 0 78.2276 12.9622 1014 161.062 252.167 484.419
133 0 81.2738 12.8209 1042 164.55 252.202 483.214
134 0 84.379 12.8705 1086 163.387 252.706 481.501
135 0 85.416 13.0889 1118 166.953 253.393 480.326
136 0 88.2803 13.4118 1184 168.666 252.361 479.07
137 0 92.3785 12.9576 1197 164.628 254.027 477.853
138 0 94.3446 13.1433 1240 156.585 252.773 476.169
139 0 99.2479 13.3605 1326 160.955 253.035 473.572
140 1 52.147 11.4868 599 160.977 252.107 497.703
141 0 55.1248 11.7914 650 162.865 251.357 496.346
142 0 56.2633 12.0683 679 156.267 252.066 495.461
143 0 57.2163 12.4265 711 163.945 250.989 495.021
144 0 60.3171 11.9369 720 161.983 252.156 494.122
145 1 72.1631 12.8182 925 160.126 251.853 485.173
146 0 76.1783 12.812 976 158.005 253.525 484.986
147 0 78.2153 12.325 964 153.05 252.437 484.07
148 0 79.2991 12.6861 1006 151.336 253.295 482.724
149 0 83.2986 12.5212 1043 154.124 252.627 481.574
150 0 85.2054 12.8044 1091 148.141 252.357 479.93
151 0 89.3567 12.9481 1157 150.708 251.627 478.542
152 0 91.2626 13.2036 1205 152.412 252.515 476.651
153 1 49.1621 10.0891 496 142.833 251.333 498.992
154 0 51.1991 10.5275 539 144.946 251.8 497.649
155 0 51.2438 10.7916 553 142.235 253.004 497.398
156 0 54.2016 11.8078 640 150.148 249.353 495.612
157 0 58.1823 11.7561 684 147.506 250.747 494.873
158 0 57.2538 12.4533 713 146.381 251.108 493.87
159 0 59.2579 11.8972 705 151.986 251.489 492.713
160 0 61.1699 12.2773 751 147.221 253.274 492.229
161 0 63.3648 12.5306 794 145.402 252.539 491.676
162 0 64.1819 12.4957 802 144.505 252.542 491.297
163 0 66.2079 12.1436 804 141.121 250.78 490.939
164 0 68.445 12.6087 863 140.772 250.857 489.143
165 0 72.6097 12.5741 913 140.253 251.716 488.672
166 0 75.2906 12.4584 938 139.735 251.739 486.825
167 0 76.3019 12.5292 956 141.144 252.582 486.576
168 0 79.2718 12.413 984 139.882 251.22 485.477
169 0 80.5837 12.5832 1014 143.844 251.852 484.616
170 0 83.3146 12.7949 1066 139.987 252.872 482.634
171 0 87.4102 12.7674 1116 142.685 252.253 480.859
172 0 90.3862 12.7564 1153 141.913 253.079 480.19
173 0 93.4397 12.789 1195 144.569 253.372 477.931
174 0 96.4134 13.0583 1259 143.051 252.246 476.201
175 0 100.271 12.9051 1294 146.41 251.374 475.434
176 0 102.365 12.7777 1308 143.055 251.005 473.394
177 0 106.348 12.8729 1369 149.751 252.011 472.048
178 1 54.2008 11.3651 616 145.344 251.097 498.067
179 0 56.1856 11.5332 648 143.739 253.264 497.554
180 0 57.2858 11.9227 683 141.184 252.851 496.849
181 0 58.259 11.9638 697 137.829 250.868 496.024
182 0 60.1511 11.92 717 140.997 254.011 495.409
183 0 62.2116 11.911 741 142.416 251.722 494.142
184 0 64.1799 11.9975 770 140.884 250.632 493.358
185 0 67.112 12.1439 815 138.067 251.563 492.065
186 0 67.2024 12.7972 860 132.236 250.73 490.735
187 0 70.2069 12.5914 884 138.19 251.952 489.955
188 0 73.1386 12.4011 907 137.071 254.971 489.738
189 0 76.1392 12.464 949 135.805 252.846 488.073
190 0 76.1362 12.7009 967 135.626 252.976 486.645
191 0 79.0786 12.7089 1005 138.28 252.274 485.546
192 0 82.1117 12.7753 1049 134.9 253.399 483.872
193 0 84.0773 12.3696 1040 137.418 252.151 483.138
194 0 86.1064 12.9607 1116 140.037 253.562 481.659
195 0 90.1065 12.9624 1168 137.438 255.332 480.105
196 0 94.1256 12.5471 1181 139.395 252.011 478.368
197 0 95.1633 12.9146 1229 138.509 252.465 476.908
198 0 99.2125 12.7907 1269 148.123 252.968 475.075
199 1 55.1118 11.5765 638 139.578 254.213 497.657
200 0 55.2111 11.8273 653 135.672 253.242 496.986
201 0 58.1582 11.9846 697 141.897 253.184 496.24
202 0 58.1399 12.3495 718 140.976 252.568 495.322
203 0 61.1793 12.4552 762 142.924 251.465 494.155
204 0 63.2587 12.3461 781 140.898 252.206 492.997
205 0 64.1752 12.5438 805 148.461 253.625 492.211
206 0 66.2296 12.653 838 145.333 252.038 490.736
207 0 69.1109 12.4148 858 150.653 251.456 489.542
208 0 70.0697 12.9871 910 145.969 251.909 487.532
209 0 74.1231 12.6816 940 148.988 252.65 486.255
210 0 76.1259 12.6107 960 147.69 253.707 484.767
211 0 78.0664 12.8993 1007 148.88 252.691 481.668
212 0 82.0607 12.4176 1019 147.787 252.919 479.957
213 0 86.0704 12.7221 1095 147.086 252.66 477.86
214 1 45.0702 10.9607 494 145.638 254.071 498.678
215 0 47.0081 11.3597 534 152.315 253.165 498.391
216 0 48.054 11.7368 564 151.904 252.36 497.949
217 0 49.229 12.0864 595 146.198 253.405 497.876
218 0 50.3332 12.0596 607 152.675 252.605 497.778
219 0 52.2381 12.0602 630 150.292 254.714 496.795
220 0 53.2599 12.4859 665 151.349 253.099 495.878
221 0 54.1436 12.2452 663 158.279 252.597 495.787
222 0 56.2692 12.3513 695 158.119 251.934 493.364
223 0 56.1411 12.8605 722 157.623 253.331 493.083
224 0 60.1572 12.5338 754 153.436 253.29 492.19
225 0 61.1522 12.8532 786 148.331 254.476 491.186
226 0 64.1892 12.1204 778 156.118 253.021 490.339
227 0 64.1168 12.8983 827 153.313 250.834 489.36
228 0 66.1878 13.1444 870 151.951 252.383 488.034
229 0 68.24 13.1741 899 157.865 251.931 487.172
230 0 72.3033 13.0008 940 153.455 253.045 485.636
231 0 73.2478 13.1745 965 154.088 251.969 484.002
232 0 77.2686 12.6183 975 156.974 253.509 483.026
233 0 81.2137 12.461 1012 154.263 252.673 481.952
234 1 40.1135 11.7168 470 157.081 251.147 501.477
235 0 41.2612 12.021 496 155.506 251.2 500.806
236 0 43.2177 12.009 519 154.152 252.158 499.869
237 0 45.1098 11.6161 524 160.75 254.04 499.574
238 0 46.1163 11.6445 537 148.851 255.214 498.555
239 0 46.2004 12.1644 562 158.055 254.804 498.272
240 0 50.1716 11.959 600 155.212 254.083 496.933
241 0 51.199 11.7971 604 154.848 254.195 496.594
242 0 51.1521 12.4922 639 163.606 253.889 495.418
243 0 52.1225 12.5282 653 159.764 254.423 495.423
244 0 55.2123 12.4067 685 157.599 254.196 494.328
245 0 55.1577 12.8903 711 167.356 252.885 493.688
246 0 58.1236 12.6111 733 165.269 255.789 492.336
247 0 60.1189 12.758 767 169.404 254.511 491.495
248 0 62.211 13.0202 810 169.686 254.373 490.094
249 0 63.1321 13.0837 826 165.661 253.437 489.341
250 0 66.2075 12.9593 858 169.092 253.653 488.548
251 0 67.1307 13.213 887 167.449 253.742 487.763
252 0 70.162 13.1838 925 168.416 254.379 486.368
253 0 73.2214 13.3021 974 167.774 253.463 484.938
254 0 75.1084 13.181 990 73.7758 254.276 484.232
255 0 77.1338 13.3145 1027 168.427 251.661 481.798
256 0 81.1001 13.1442 1066 166.671 251.767 480.093
257 0 83.0978 13.0088 1081 168.635 251.236 479.681
258 0 85.1128 13.441 1144 164.581 254.249 478.219
259 0 89.1466 12.9786 1157 168.568 251.78 477.173
260 1 45.0623 11.1179 501 165.431 251.754 498.559
261 0 45.1093 12.1039 546 162.603 252.714 497.947
262 0 47.0505 11.5195 542 164.452 253.566 497.26
263 0 50.0286 11.6733 584 161.786 251.31 496.839
264 0 49.0568 12.19 598 160.62 251.878 495.916
265 0 52.0773 12.2126 636 161.322 253.063 495.324
266 0 54.1251 12.2864 665 159.248 252.238 494.137
267 0 55.043 12.1905 671 160.668 252.283 492.583
268 0 56.0524 12.7559 715 160.759 251.601 492.386
269 0 58.1144 12.6991 738 165.043 252.427 492.037
270 0 60.1601 12.5166 753 157.559 252.786 490.321
271 0 62.0597 12.4235 771 159.532 252.45 489.78
272 0 64.1389 12.5509 805 165.599 251.626 488.948
273 0 66.1212 12.462 824 161.698 252.972 488.301
274 0 67.2051 12.633 849 157.193 252.86 486.842
275 0 70.1369 12.9746 910 161.185 253.589 485.112
276 0 72.264 12.8003 925 161.747 253.067 483.759
277 0 75.1889 12.8343 965 162.862 249.743 482.836
278 0 78.1027 12.9445 1011 161.659 254.359 482.072
279 0 80.248 12.2994 987 156.006 254.953 481.7
280 0 82.1173 12.9814 1066 167.08 252.584 480.242
281 0 85.1541 12.906 1099 161.005 255.08 479.065
282 1 46.088 10.9356 504 161.121 253.98 498.565
283 0 48.1639 11.2117 540 162.474 252.533 498.75
284 0 48.1687 11.9995 578 160.159 253.718 497.304
285 0 49.2721 12.4411 613 157.993 252.763 496.517
286 0 51.1851 11.8589 607 158.718 252.498 497.097
287 0 53.1819 12.2786 653 155.734 252.299 495.893
288 0 56.2006 12.2774 690 157.465 252.774 494.671
289 0 58.097 12.1521 706 155.108 254.703 494.01
290 0 59.1811 12.1829 721 150.832 252.829 493.355
291 0 61.1258 12.3679 756 155.262 252.128 491.817
292 0 62.1087 12.8162 796 156.123 252.573 491.368
293 0 65.1155 12.4394 810 161.009 253.202 490.428
294 0 65.1206 12.4845 813 158.808 253.166 489.977
295 0 66.103 13.0856 865 156.369 255.563 488.657
296 0 69.1317 12.8595 889 163.192 255.488 487.796
297 0 72.1063 12.9947 937 160.792 253.767 486.353
298 0 74.0554 12.8687 953 164.283 254.006 484.658
299 0 76.0783 12.566 956 157.633 252.978 484.368
300 0 78.0247 13.2907 1037 161.322 253.364 482.612
301 0 81.1015 12.7001 1030 160.02 253.27 481.842
302 0 85.178 12.8672 1096 164.163 254.016 480.993
303 0 88.1121 12.8473 1132 163.134 253.285 478.957
304 0 91.2098 12.7728 1165 168.785 253.274 477.204
305 1 48.0278 11.5558 555 162.362 252.049 498.308
306 0 49.0698 12.1052 594 161.559 253.178 497.194
307 0 51.0106 11.5466 589 162.117 253.523 496.791
308 0 53.0486 12.0833 641 164.151 252.538 495.499
309 0 54.062 12.3932 670 159.057 253.176 495.19
310 0 55.0566 12.4962 688 155.596 255.571 493.631
311 0 59.0219 11.9786 707 163.675 252.317 492.68
312 0 60.0653 12.553 754 162.53 253.45 491.923
313 0 61.0177 12.5046 763 158.999 254.609 490.885
314 0 64.1302 12.2719 787 163.781 253.513 489.189
315 0 66.1362 12.4591 824 165.197 254.14 488.988
316 0 66.0952 12.9359 855 166.619 255.283 487.823
317 0 67.0808 13.0291 874 155.716 254.95 487.027
318 0 71.1009 12.7987 910 167.474 252.135 484.846
319 0 74.3638 12.7616 949 166.33 255.604 483.626
320 0 76.2597 13.2442 1010 162.585 256.284 482.321
321 0 78.4233 12.9808 1018 162.43 253.645 480.667
322 0 82.3257 12.9243 1064 166.461 254.886 479.127
323 0 84.2409 12.9628 1092 169.775 251.759 478.069
324 0 86.2133 12.7359 1098 158.133 253.168 475.307
325 0 89.2956 12.9794 1159 158.814 254.93 473.311
326 1 46.108 10.5188 485 154.984 254.054 494.946
327 0 47.076 11.9381 562 159.461 254.128 494.379
328 0 49.1225 11.9904 589 159.913 255.66 494.2
329 0 49.168 12.4675 613 153.648 255.706 494.597
330 0 52.1484 12.4069 647 153.779 257.682 493.445
331 0 52.1567 12.7309 664 156.482 253.86 492.556
332 0 53.167 13.072 695 155.905 255.563 492.243
333 0 56.0888 12.4445 698 161.37 254.999 491.385
334 0 58.1051 13.0109 756 158.161 255.024 489.839
335 0 59.1133 12.6706 749 155.893 254.328 489.212
336 0 60.0908 13.0802 786 154.108 257.047 488.758
337 0 64.0815 12.5309 803 159.923 256.406 487.978
338 0 62.0838 13.2402 822 151.009 255.288 486.163
339 0 65.1201 13.2371 862 149.798 256.444 485.827
340 0 69.1246 12.6004 871 139.559 257.075 484.219
341 0 69.1365 13.0756 904 149.565 255.846 482.993
342 0 74.0776 12.8919 955 153.066 256.988 482.337
343 0 75.1311 13.0172 978 152.671 255.801 481.392
344 0 77.147 13.3123 1027 157.715 256.166 479.971
345 0 79.0646 13.4447 1063 156.341 255.247 478.732
346 0 81.1065 13.4145 1088 154.805 254.231 477.888
347 0 83.1895 13.307 1107 155.864 256.923 477.377
348 0 87.1471 13.2649 1156 154.462 257.849 475.551
349 0 89.1513 13.8977 1239 156.291 254.984 473.701
350 0 93.2281 13.1613 1227 158.087 255.145 472.498
351 0 93.2294 13.5901 1267 155.213 255.789 471.175
352 0 96.2158 13.6152 1310 158.753 255.322 469.772
353 1 52.0831 12.3648 644 163.595 256.183 491.581
354 0 55.0686 12.3664 681 163.937 255.307 491.311
355 0 57.2308 12.4059 710 161.53 253.632 490.079
356 0 59.127 12.5493 742 159.208 253.464 489.589
357 0 61.132 12.7266 778 158.671 256.585 488.631
358 0 62.0743 13.1616 817 157.497 255.266 486.999
359 0 64.0941 12.7937 820 163.529 254.707 486.301
360 0 66.0829 12.9837 858 164.852 254.315 484.934
361 0 70.038 12.9358 906 159.734 256.202 484.031
362 0 71.0849 12.886 916 163.895 253.9 483.219
363 0 74.0531 13.1797 976 163.315 256.2 481.612
364 0 76.0585 13.2267 1006 167.6 253.226 480.761
365 0 79.2592 13.3108 1055 163.057 254.022 479.595
366 0 81.1207 13.2642 1076 159.568 255.792 478.292
367 0 84.2451 13.164 1109 171.502 255.114 476.837
368 0 87.0894 13.2967 1158 168.531 255.268 475.478
369 0 89.216 13.4281 1198 170.21 256.811 473.641
370 0 91.1493 13.231 1206 171.505 256.439 473.325
371 1 49.0802 12.0823 593 159.786 256.236 494.395
372 0 49.0794 12.0825 593 167.142 255.845 494.13
373 0 50.175 12.1973 612 168.466 255.278 493.232
374 0 50.273 12.5913 633 160.597 256.19 492.528
375 0 54.1834 12.1255 657 166.078 255.361 492.138
376 0 54.113 12.6033 682 161.496 254.311 491.374
377 0 55.1718 12.597 695 156.524 253.96 490.153
378 0 58.1313 12.5062 727 171.332 254.853 490.07
379 0 59.199 12.838 760 166.021 256.072 488.87
380 0 61.2144 12.5624 769 167.299 254.619 488.086
381 0 62.0931 13.0449 810 166.915 253.959 486.595
382 0 66.1677 12.8159 848 164.401 254.316 485.244
383 0 66.163 13.376 885 162.977 254.243 484.094
384 0 70.117 12.7073 891 170.801 256.013 484.324
385 0 72.2607 13.1884 953 163.006 253.951 482.118
386 0 74.1762 13.1309 974 160.998 253.71 481.02
387 0 76.3289 13.1536 1004 167.91 251.341 479.872
388 0 77.2563 13.3064 1028 162.894 254.061 478.959
389 0 80.2064 13.0788 1049 162.777 253.561 477.46
390 0 82.2391 13.1324 1080 161.535 253.856 476.138
391 0 87.184 12.9382 1128 159.801 253.312 475.221
392 0 89.3661 12.9467 1157 152.029 256.438 473.188
393 1 46.1168 11.189 516 157.376 255.547 495.455
394 0 46.1441 11.6375 537 158.672 254.909 494.719
395 0 49.1418 11.8026 580 151.847 253.697 493.14
396 0 51.2109 12.2435 627 155.887 255.185 492.998
397 0 51.1735 12.3502 632 152.179 255.209 491.847
398 0 54.1545 12.2058 661 153.389 254.498 491.737
399 0 56.277 12.3674 696 146.935 253.45 490.596
400 0 57.164 12.2455 700 154.603 254.484 489.62
401 0 58.1466 12.6921 738 154.255 254.962 489.012
402 0 59.2604 12.5716 745 152.741 253.132 488.36
403 0 61.2242 12.9851 795 149.034 254.306 488.668
404 0 63.2448 13.0129 823 147.614 253.978 487.609
405 0 63.1406 13.2086 834 149.222 253.405 486.223
406 0 66.4617 12.8645 855 149.687 254.65 485.304
407 0 69.5919 12.9182 899 146.963 255.058 484.88
408 0 70.2691 12.9787 912 150.809 254.593 484.191
409 0 72.4919 13.2015 957 142.647 252.544 482.24
410 0 75.3143 12.8395 967 141.029 253.481 481.792
411 0 76.2507 13.3245 1016 132.647 254.261 479.773
412 0 80.3642 13.19 1060 138.542 254.625 477.922
413 0 83.397 12.9981 1084 140.175 255.177 476.7
414 0 85.4295 12.841 1097 143.263 255.111 475.828
415 0 90.3707 13.0684 1181 136.756 254.835 473.313
416 1 46.2189 10.3637 479 141.555 253.681 496.342
417 0 48.2402 10.6758 515 137.652 255.107 495.454
418 0 48.2957 11.5538 558 137.797 254.427 494.136
419 0 51.2892 12.0883 620 136.237 255.355 493.168
420 0 53.4712 12.4927 668 144.434 255.708 492.768
421 0 54.2558 12.2568 665 147.397 254.047 492.417
422 0 56.1321 12.7913 718 147.439 254.643 491.128
423 0 59.188 12.5701 744 143.427 255.163 490.126
424 0 60.1898 12.0951 728 137.644 254.166 488.663
425 0 62.1819 12.5599 781 146.407 254.711 488.649
426 0 64.1764 12.6526 812 142.509 254.857 486.78
427 0 66.2829 12.673 840 151.599 256.542 487.014
428 0 66.2722 13.2182 876 147.795 255.3 485.632
429 0 70.257 13.0948 920 154.73 254.38 484.149
430 0 73.532 12.9196 950 157.393 254.718 483.615
431 0 73.5265 13.2741 976 153.123 253.892 483.258
432 0 76.3106 12.6588 966 147.065 253.046 482.075
433 0 78.511 13.1956 1036 153.708 254.36 480.35
434 0 82.4138 13.1895 1087 149.289 254.717 478.793
435 0 85.2912 13.1784 1124 157.847 255.958 477.652
436 0 87.3402 13.2928 1161 151.774 252.582 475.851
437 0 91.3502 13.3114 1216 152.199 253.461 473.935
438 0 93.281 12.918 1205 154.513 253.904 473.337
439 0 97.3652 13.0848 1274 152.463 253.891 471.923
440 0 98.3473 13.1676 1295 154.486 254.092 470.13
441 1 49.1577 11.7988 580 156.031 255.166 494.224
442 0 51.1841 12.0741 618 147.929 252.506 492.89
443 0 54.1682 12.4243 673 157.504 253.279 492.03
444 0 57.1369 12.2688 701 153.001 254.137 491.389
445 0 58.242 12.3794 721 157.096 254.917 490.652
446 0 60.1813 12.3294 742 151.392 255.538 489.208
447 0 62.443 12.5394 783 161.589 254.605 488.958
448 0 64.2046 12.6471 812 155.866 254.548 487.741
449 0 67.1944 12.7094 854 157.553 255.199 486.628
450 0 67.3508 12.9768 874 159.942 255.177 485.891
451 0 70.1423 13.1305 921 157.023 254.039 484.239
452 0 72.1819 13.1335 948 156.389 253.069 482.637
453 0 75.151 13.1735 990 163.762 252.973 481.763
454 0 77.1362 13.353 1030 162.815 255.488 480.211
455 0 79.1622 13.4029 1061 166.188 255.462 479.578
456 0 81.2407 13.22 1074 154.02 255.658 476.964
457 0 86.1696 13.5547 1168 156.766 255.979 475.503
458 0 89.2913 13.1592 1175 161.614 256.158 474.535
459 0 92.1291 13.3942 1234 163.184 252.994 472.766
460 0 96.2611 13.0686 1258 163.063 252.459 471.353
461 1 48.118 11.8459 570 162.849 253.002 494.628
462 0 48.207 11.9485 576 162.844 254.031 494.097
463 0 51.1568 12.1978 624 162.146 253.726 493.495
464 0 50.1536 12.681 636 159.02 253.575 492.478
465 0 52.2174 12.4288 649 165.741 253.937 492.009
466 0 54.1637 12.2591 664 165.511 254.797 491.313
467 0 57.15 11.916 681 154.116 255.126 490.394
468 0 57.2741 12.5187 717 164.649 253.445 489.441
469 0 59.1339 12.3787 732 157.027 254.984 488.421
470 0 60.1519 12.5017 752 165.614 254.206 487.907
471 0 63.1422 12.2264 772 158.916 254.97 485.986
472 0 65.2215 12.5879 821 161.683 253.633 485.419
473 0 67.2164 12.4374 836 159.258 254.329 484.166
474 0 70.2647 11.9975 843 160.772 254.514 483.367
475 0 72.3561 12.3417 893 154.97 254.241 481.913
476 0 73.1709 12.3273 902 155.963 253.592 480.782
477 0 74.3324 12.3499 918 154.88 253.346 479.613
478 0 80.2037 12.2314 981 155.397 254.166 478.374
479 1 40.1365 10.838 435 150.966 255.857 497.786
480 0 41.1715 11.1728 460 148.659 254.476 496.639
481 0 43.2212 11.4527 495 150.15 254.636 495.83
482 0 44.222 11.5327 510 143.688 255.19 494.384
483 0 46.2881 11.6445 539 151.508 253.529 494.258
484 0 47.1947 11.8657 560 144.275 255.271 493.52
485 0 49.2544 11.8771 585 153.706 255.723 492.048
486 0 50.1139 12.1324 608 151.224 257.316 491.826
487 0 50.2832 12.6086 634 155.994 255.397 490.97
488 0 51.277 12.4812 640 148.867 255.186 490.802
489 0 53.1968 12.7639 679 147.296 254.389 489.408
490 0 56.1971 12.1892 685 151.582 255.018 489.115
491 0 57.1412 12.2154 698 151.89 255.34 488.461
492 0 59.1912 12.4174 735 153.887 255.906 488.31
493 0 59.2575 12.5722 745 145.885 256.35 487.085
494 0 60.1167 12.8251 771 157.476 256.266 486.402
495 0 64.228 12.658 813 153.829 256.264 485.202
496 0 65.1267 12.7904 833 155.915 256.239 484.043
497 0 67.2 12.7679 858 163.199 254.568 483.663
498 0 69.1803 13.1396 909 158.56 253.959 481.521
499 0 72.1163 13.2425 955 163.013 253.456 480.574
500 0 73.168 13.2845 972 165.489 254.908 480.087
501 0 76.1018 13.298 1012 163.443 253.496 478.787
502 0 79.1114 13.1207 1038 164.868 255.137 477.251
503 1 39.034 11.7846 460 162.746 254.293 496.643
504 0 40.0077 12.6726 507 164.684 254.266 495.183
505 0 40.1832 12.6421 508 165.474 255.382 495.738
506 0 43.2857 12.2442 530 158.989 256.274 494.645
507 0 43.1712 12.879 556 168.727 255.531 493.987
508 0 45.2236 12.604 570 167.088 255.484 493.47
509 0 46.1009 12.9715 598 164.93 255.249 492.667
510 0 48.1663 13.0589 629 164.933 254.967 492.18
511 0 49.0473 12.804 628 167.368 255.543 491.349
512 0 51.097 12.9753 663 166.339 254.65 490.911
513 0 52.0955 13.2833 692 169.717 255.701 490.642
514 0 54.0779 13.0922 708 167.64 254.873 489.336
515 0 55.0995 13.5391 746 164.377 254.405 488.727
516 0 56.0829 13.6762 767 164.007 256.253 487.844
517 0 57.1631 13.8376 791 170.216 256.389 487.279
518 0 59.1855 13.821 818 174.192 255.017 486.517
519 0 62.0836 13.5624 842 171.108 253.621 485.596
520 0 64.0926 13.5585 869 167.75 255.945 484.701
521 0 65.0733 13.7845 897 166.798 254.848 484.313
522 0 65.0792 14.0752 916 166.367 255.289 483.335
523 0 68.069 14.0593 957 167.123 254.707 482.41
524 0 70.1173 14.2475 999 173.161 253.853 482.223
525 0 71.115 14.3289 1019 169.523 252.926 481.534
526 0 75.0853 14.1306 1061 169.533 253.395 480.331
527 0 77.2913 14.1801 1096 165.08 253.807 478.847
528 0 80.2309 14.5829 1170 176.095 254.39 478.039
529 0 82.172 14.3601 1180 166.208 254.486 476.585
530 0 83.3033 15.0414 1253 171.357 254.215 475.622
531 0 87.2142 14.516 1266 170.659 254.078 474.825
532 0 89.2191 14.7278 1314 170.817 254.259 473.409
533 0 91.1565 14.6013 1331 176.047 254.772 472.397
534 0 95.2158 14.5669 1387 176.179 254.681 471.72
535 0 99.1425 14.5346 1441 164.549 254.074 469.9
536 0 101.178 14.341 1451 174.147 254.626 468.953
537 0 105.165 14.6722 1543 171.592 254.737 466.443
538 0 109.25 14.3616 1569 168.266 254.792 465.65
539 0 112.184 14.4584 1622 172.275 254.86 464.247
540 0 115.221 14.3116 1649 170.107 255.634 463.355
541 0 117.191 14.6342 1715 172.385 256.238 461.478
542 0 121.162 14.6251 1772 170.435 256.002 459.916
543 0 125.106 14.6037 1827 170.853 254.129 457.852
544 1 68.0793 13.073 890 171.029 255.812 486.491
545 0 69.06 13.3362 921 171.427 254.083 485.108
546 0 71.0856 13.4767 958 171.789 253.784 483.599
547 0 74.0856 13.0255 965 163.564 255.89 482.733
548 0 77.0907 13.3739 1031 165.464 255.497 481.579
549 0 80.0849 12.9987 1041 172.881 255.941 480.36
550 0 84.1755 13.0679 1100 175.269 255.633 478.576
551 0 86.1172 13.47 1160 169.41 256.184 476.664
552 0 90.1742 13.0414 1176 176.673 255.526 474.924
553 0 93.1819 13.1141 1222 175.095 257.027 473.426
554 1 49.0643 12.0046 589 166.971 257.475 495.151
555 0 51.0751 11.9824 612 162.98 258.384 494.127
556 0 52.1662 12.1151 632 166.15 257.82 493.419
557 0 55.124 11.9186 657 165.892 256.791 492.148
558 0 56.1157 12.0822 678 170.855 257.671 491.869
559 0 58.1166 12.062 701 170.923 257.773 490.92
560 0 58.1151 12.4752 725 168.12 258.363 489.854
561 0 60.1522 13.017 783 169.139 257.86 488.031
562 0 61.1062 12.7483 779 169.037 257.759 487.856
563 0 64.1029 12.6671 812 164.325 258.411 487.296
564 0 66.1468 12.563 831 164.989 259.853 486.422
565 0 67.1527 12.5833 845 160.213 257.088 485.004
566 0 71.1531 12.719 905 163.57 258.075 483.323
567 0 73.0942 12.9559 947 160.464 258.162 482.215
568 0 76.0984 12.8912 981 167.885 258.41 480.507
569 0 79.1479 12.8873 1020 166.78 257.884 479.134
570 0 81.0916 12.7264 1032 164.687 256.154 478.001
571 0 83.0924 12.9254 1074 169.582 255.916 476.834
572 0 85.133 13.1441 1119 170.958 256.339 476.232
573 0 91.0968 12.9533 1180 165.905 255.829 474.008
574 0 93.0975 13.0401 1214 171.498 256.167 472.104
575 1 49.0164 11.9756 587 152.823 257.075 493.201
576 0 52.0492 12.0847 629 165.909 258.081 492.612
577 0 53.0453 12.2537 650 169.668 256.768 491.589
578 0 55.0295 12.1208 667 168.154 256.628 490.834
579 0 56.1267 12.454 699 171.694 255.589 490.082
580 0 57.0429 12.4994 713 171.827 255.693 489.084
581 0 60.1024 12.1626 731 164.789 255.866 487.828
582 0 61.0567 12.4638 761 171.367 255.194 487.325
583 0 64.197 12.2591 787 165.877 256.099 486.246
584 0 63.115 13.0238 822 171.929 255.467 485.015
585 0 67.1179 12.8282 861 162.691 255.743 483.558
586 0 70.1573 12.6573 888 170.056 254.484 482.291
587 0 72.1859 12.7587 921 174.765 255.193 481.099
588 0 74.2465 12.8222 952 170.075 254.16 480.098
589 0 77.2058 12.7063 981 174.387 255.514 478.91
590 0 80.2248 13.0384 1046 168.37 254.585 476.69
591 0 83.2787 12.5963 1049 172.526 254.818 476.602
592 0 86.3463 12.8089 1106 164.664 255.887 474.409
593 1 45.0474 11.5434 520 157.012 255.125 494.529
594 0 47.0477 11.3077 532 161.385 256.628 494.53
595 0 48.0812 11.335 545 159.646 256.527 493.763
596 0 48.2307 11.7353 566 160.104 254.265 492.91
597 0 49.1822 11.8742 584 162.911 255.7 491.945
598 0 51.1916 12.1504 622 157.548 254.461 491.492
599 0 53.2003 11.9924 638 161.923 255.429 490.359
600 0 54.1652 11.9819 649 159.832 256.541 489.914
601 0 55.1444 11.8054 651 153.103 256.121 489.347
602 0 57.1554 12.0374 688 154.952 254.496 488.217
603 0 55.2458 13.087 723 159.632 255.152 487.45
604 0 59.1206 12.1278 717 161.513 255.523 487.414
605 0 60.1377 12.5878 757 158.836 255.275 485.753
606 0 62.1318 12.6827 788 160.336 255.47 484.645
607 0 64.0914 12.7942 820 163.504 256.366 483.973
608 0 65.1011 12.4268 809 158.44 258.601 483.032
609 0 66.1352 13.1095 867 160.922 255.769 481.758
610 0 69.137 12.7139 879 161.085 256.101 481.2
611 0 71.1888 13.2184 941 165.131 257.09 480.21
612 0 75.1527 12.8804 968 159.537 255.948 479.334
613 0 75.1504 13.3998 1007 167.287 255.692 478.264
614 0 79.131 12.8521 1017 164.433 258.57 477.77
615 0 81.1248 13.3251 1081 160.644 256.89 475.625
616 0 84.2815 13.099 1104 162.52 258.029 474.738
617 0 87.1745 13.146 1146 160.145 255.599 472.99
618 1 46.0335 12.013 553 159.268 256.882 493.327
619 0 47.0591 12.3674 582 157.617 258.533 492.619
620 0 49.2659 11.8946 586 157.898 257.193 492.57
621 0 50.1857 12.0353 604 155.089 256.801 491.225
622 0 50.2503 12.3183 619 159.998 255.617 490.691
623 0 54.1399 12.3015 666 159.035 255.45 489.934
624 0 55.1831 12.0327 664 155.929 255.761 489
625 0 56.3557 12.2791 692 160.146 256.224 488.276
626 0 58.1489 11.8489 689 155.675 257.244 487.73
627 0 60.1855 12.0793 727 158.226 258.102 486.558
628 0 61.2271 12.2495 750 157.499 256.895 486.001
629 0 63.2788 12.0578 763 150.976 256.391 485.291
630 0 65.201 12.0857 788 153.503 255.287 484.515
631 0 67.172 12.0884 812 160.134 254.787 483.846
632 0 69.2736 12.2557 849 155.254 256.385 482.792
633 0 71.1542 12.5643 894 159.158 257.161 481.743
634 0 73.1991 12.4455 911 159.059 256.73 480.538
635 0 74.1298 12.6805 940 161.156 255.265 479.064
636 0 76.1407 12.3981 944 161.801 255.175 478.246
637 0 80.1264 12.4304 996 167.48 254.523 477.584
638 0 82.116 12.5311 1029 163.606 255.582 476.549
639 0 83.1141 12.6573 1052 159.505 255.764 475.192
640 0 88.1047 12.4965 1101 162.441 255.49 474.212
641 1 47.1018 11.6132 547 158.346 257.097 493.49
642 0 51.1186 11.62 594 154.519 256.3 491.79
643 0 52.1721 11.8646 619 157.732 257.352 491.186
644 0 53.1668 11.8495 630 160.914 255.035 490.546
645 0 52.2738 12.2624 641 157.268 255.1 490.236
646 0 54.227 12.4661 676 161.916 257.812 489.63
647 0 58.2494 12.0688 703 161.845 256.04 488.997
648 0 58.1742 12.5657 731 151.605 256.651 488.082
649 0 62.1127 12.2841 763 161.254 257.408 487.139
650 0 63.1724 12.4896 789 155.052 257.27 486.428
651 0 65.1955 12.3935 808 155.48 257.786 484.889
652 0 67.1998 12.6786 852 155.548 257.284 484.45
653 0 70.2313 12.4588 875 153.129 255.297 483.545
654 0 72.1861 12.4124 896 157.027 256.329 483.189
655 0 74.1614 12.5807 933 155.325 255.46 481.274
656 0 76.2626 12.7192 970 160.372 256.185 480.857
657 0 78.142 12.6436 988 164.402 257.346 480.01
658 0 83.218 12.8578 1070 166.533 255.862 479.045
659 0 84.0788 12.738 1071 169.316 255.178 478.044
660 0 86.1899 12.925 1114 165.487 256.246 476.669
661 0 89.1471 13.0346 1162 171.17 257.596 475.374
662 0 92.1917 13.0814 1206 164.983 256.654 475.022
663 0 94.1747 13.0396 1228 163.746 254.793 473.297
664 0 98.165 13.0291 1279 175.226 256.554 471.96
665 0 100.237 13.2686 1330 167.624 254.533 470.618
666 0 104.271 13.3786 1395 166.576 254.31 468.601
667 0 109.174 12.9426 1413 169.113 254.222 467.205
668 0 113.242 13.352 1512 168.997 255.616 465.044
669 1 60.2751 12.4927 753 162.912 256.244 490.55
670 0 63.1605 12.5078 790 162.961 256.956 489.603
671 0 63.2164 12.386 783 162.931 256.502 488.246
672 0 67.2128 12.6464 850 169.445 257.804 486.921
673 0 69.151 12.8704 890 163.002 257.171 486.154
674 0 72.2557 12.7049 918 161.916 257.974 485.292
675 0 75.1689 12.7313 957 164.512 257.509 483.938
676 0 78.2079 13.1317 1027 158.289 258.306 481.373
677 0 82.1456 12.7213 1045 163.493 257.725 480.756
678 0 84.1741 12.8424 1081 163.012 257.722 479.603
679 0 87.1468 12.6798 1105 152.569 256.821 477.184
680 1 43.0579 11.2174 483 155.215 257.561 498.431
681 0 47.0279 11.7377 552 157.136 257.592 496.813
682 0 49.0865 12.1418 596 152.807 258.399 495.78
683 0 50.1478 12.523 628 149.833 257.732 495.26
684 0 50.1946 12.7105 638 150.991 257.14 494.585
685 0 54.1853 12.4203 673 144.039 258.174 493.324
686 0 55.2554 12.0893 668 147.748 256.283 492.6
687 0 57.1697 12.2093 698 147.195 259.017 491.683
688 0 59.1656 12.3045 728 139.569 259.302 490.724
689 0 58.2035 12.9202 752 146.253 259.629 490.02
690 0 61.1727 12.6691 775 143.747 258.578 488.574
691 0 64.2151 12.5983 809 143.342 259.424 487.952
692 0 65.1172 12.7002 827 138.839 258.936 486.704
693 0 66.1936 12.9318 856 145.717 259.876 486.284
694 0 68.083 12.9107 879 138.881 258.714 484.685
695 0 70.1235 13.0199 913 149.932 257.862 484.047
696 0 73.2592 13.0769 958 143.813 258.469 481.946
697 0 76.2174 13.4484 1025 159.814 257.7 481.776
698 0 80.2178 13.1392 1054 161.015 259.209 479.718
699 0 83.156 13.2282 1100 156.835 258.141 478.001
700 0 84.1834 13.3399 1123 155.237 258.092 477.03
701 1 42.0862 11.9754 504 159.085 257.883 497.532
702 0 45.0271 11.7485 529 154.991 259.352 496.932
703 0 44.1498 12.7747 564 156.924 259.243 495.78
704 0 48.0974 12.4539 599 157.651 259.853 495.21
705 0 49.0537 12.7207 624 156.667 258.484 493.615
706 0 51.1224 12.2842 628 157.597 259.492 493.199
707 0 51.0298 12.9924 663 155.78 259.247 492.474
708 0 52.0657 13.0028 677 157.564 258.487 491.131
709 0 55.0977 13.0314 718 159.953 257.337 491.334
710 0 57.0814 12.7011 725 156.276 256.83 489.655
711 0 58.0966 13.1677 765 157.165 259.166 489.2
712 0 59.1094 13.6696 808 157.755 258.499 487.769
713 0 60.2103 13.7186 826 164.485 259.094 487.006
714 0 64.2437 13.3865 860 159.352 257.583 485.491
715 0 65.2441 13.825 902 159.904 256.628 484.733
716 0 68.2017 13.8853 947 166.38 257.507 483.201
717 0 70.0916 13.7106 961 164.353 257.659 482.669
718 0 73.3891 13.9121 1021 167.348 256.203 480.993
719 0 75.224 13.6792 1029 168.505 257.392 480.248
720 0 78.2096 14.0008 1095 172.221 256.804 479.112
721 0 79.1129 14.4477 1143 168.522 256.115 476.992
722 0 82.1544 14.1563 1163 168.96 255.058 476.169
723 0 85.342 14.0962 1203 163.429 255.032 474.853
724 0 89.3134 13.6598 1220 171.016 257.44 474.311
725 0 93.2213 13.6557 1273 166.256 257.731 472.932
726 1 46.096 13.1465 606 111.008 255.805 495.155
727 0 47.053 13.3679 629 166.755 258.307 494.242
728 0 50.1744 13.1342 659 164.709 256.672 493.354
729 0 51.0674 13.0024 664 167.206 256.563 492.614
730 0 52.1435 13.3861 698 169.129 257.458 492.388
731 0 53.1871 13.4995 718 168.418 258.486 491.301
732 0 55.1595 13.5063 745 171.86 257.373 491.188
733 0 56.3179 13.4593 758 172.79 256.575 490.021
734 0 58.1449 13.6211 792 162.037 256.979 488.145
735 0 61.0939 13.2092 807 165.69 256.568 487.714
736 0 62.3092 13.754 857 159.14 259.076 486.8
737 0 64.176 13.3227 855 161.167 259.551 485.677
738 0 66.142 13.093 866 163.87 258.678 484.717
739 0 69.1501 13.4201 928 166.495 257.183 484.177
740 0 69.125 13.3237 921 156.89 257.856 482.539
741 0 72.1432 13.4732 972 167.318 257.819 481.876
742 0 74.2592 13.5876 1009 163.021 257.766 480.42
743 0 75.3966 13.807 1041 156.534 257.722 479.755
744 0 79.1439 13.3175 1054 164.71 258.093 477.842
745 0 83.1901 13.4752 1121 160.471 257.82 476.748
746 0 87.1557 13.3325 1162 161.521 256.911 474.248
747 0 90.1831 13.1288 1184 167.621 257.291 473.068
748 0 94.1544 13.4779 1269 160.311 260.761 471.377
749 1 48.1164 12.6984 611 156.954 258.177 494.057
750 0 49.0562 13.2093 648 158.687 257.077 492.619
751 0 51.0354 13.2261 675 163.502 258.385 492.249
752 0 53.0433 13.0271 691 164.7 257.599 491.072
753 0 54.0564 13.4674 728 160.864 257.537 490.368
754 0 56.1268 13.416 753 157.234 256.393 488.987
755 0 58.1548 13.5672 789 162.269 257.485 488.132
756 0 61.0994 13.6008 831 161.767 256.911 487.359
757 0 63.2413 13.2192 836 162.37 256.406 486.276
758 0 65.3667 13.1106 857 155.078 256.888 485.459
759 0 68.193 13.2858 906 164.852 257.32 483.981
760 0 70.2247 13.528 950 161.681 255.139 482.607
761 0 73.175 13.4199 982 160.21 255.518 480.98
762 0 75.2379 13.7697 1036 164.088 254.782 479.812
763 0 78.1707 13.4705 1053 162.448 255.076 478.783
764 0 82.1495 13.4998 1109 160.695 255.708 476.63
765 1 43.0856 11.7905 508 162.809 255.791 496.134
766 0 44.0931 12.8138 565 166.434 255.729 495.066
767 0 45.1333 12.4741 563 165.904 256.471 494.682
768 0 48.2596 12.3706 597 165.464 255.276 494.084
769 0 50.1406 12.7442 639 154.613 255.571 492.725
770 0 51.2176 12.6519 648 167.312 255.784 492.461
771 0 51.2438 13.4846 691 161.006 255.865 491.541
772 0 55.1545 12.6916 700 163.8 257.061 490.02
773 0 56.1778 12.9944 730 160.573 256.699 489.386
774 0 59.1692 13.1825 780 163.687 254.517 488.731
775 0 59.2394 13.4539 797 159.995 255.545 487.75
776 0 62.1715 13.4949 839 163.05 255.781 486.911
777 0 64.1664 13.278 852 168.326 256.167 485.546
778 0 67.1617 13.0729 878 162.331 256.222 484.344
779 0 70.2152 13.0599 917 151.375 255.285 482.769
780 0 71.1367 13.0594 929 159.589 255.365 481.689
781 0 75.1511 13.2267 994 154.279 254.89 479.955
782 0 79.3068 13.0128 1032 162.313 257.266 478.826
783 0 83.1809 12.563 1045 154.293 254.861 476.927
784 1 43.0823 12.1628 524 156.49 256.315 495.695
785 0 46.1005 12.668 584 164.637 256.481 494.377
786 0 47.2547 12.8876 609 160.345 254.071 493.46
787 0 46.3003 13.326 617 156.786 254.329 492.669
788 0 51.2804 12.6949 651 157.147 254.989 491.825
789 0 52.1299 12.9101 673 160.41 255.963 491.478
790 0 52.2403 13.1891 689 162.386 255.827 491.29
791 0 54.1876 13.3056 721 164.423 256.803 490.434
792 0 55.0625 13.0942 721 160.813 256.498 489.821
793 0 57.1217 13.3399 762 158.89 256.4 489.131
794 0 57.2806 13.8092 791 163.753 256.254 488.781
795 0 60.2039 13.7367 827 167.047 255.473 487.799
796 0 63.1745 13.4706 851 166.36 255.926 487.377
797 0 66.1612 13.4369 889 170.529 256.364 486.565
798 0 67.2959 13.7898 928 169.078 258.612 485.688
799 0 69.3334 14.0048 971 168.366 257.261 484.466
800 0 73.1306 13.7289 1004 172.458 255.71 483.626
801 0 76.4371 13.8676 1060 163.177 257.962 481.825
802 0 79.3053 13.5678 1076 170.956 257.006 480.906
803 0 81.2442 13.2686 1078 108.755 257.059 479.92
804 1 42.1091 12.2539 516 165.994 259.667 499.388
805 0 45.0306 12.3472 556 169.63 258.612 497.962
806 0 44.0313 13.2633 584 163.329 257.577 497.675
807 0 47.1319 12.7514 601 166.298 256.862 497.085
808 0 47.0786 13.1695 620 168.239 256.961 496.358
809 0 51.086 12.8607 657 168.367 257.111 495.565
810 0 50.0525 12.8665 644 164.829 257.084 495.38
811 0 54.0325 12.9737 701 162.762 257.67 493.703
812 0 56.0424 13.4362 753 166.282 258.584 493.624
813 0 57.0427 13.0779 746 165.118 258.8 492.96
814 0 56.0342 13.4204 752 169.257 256.096 492.221
815 0 58.0618 13.3478 775 163.707 255.694 491.197
816 0 59.0252 13.6213 804 166.088 257.975 490.77
817 0 61.1022 13.3056 813 163.627 256.688 490.301
818 0 62.0686 13.759 854 163.217 256.61 489.295
819 0 65.1103 13.408 873 163.525 257.435 487.991
820 0 66.119 13.6118 900 166.13 257.301 487.518
821 0 70.1144 13.3211 934 169.846 257.889 486.457
822 0 72.1123 13.576 979 167.098 257.07 484.519
823 0 75.1636 13.6635 1027 166.857 257.272 484.187
824 0 77.0917 13.5942 1048 165.582 255.118 482.323
825 0 80.0761 13.6245 1091 173.271 255.93 480.943
826 0 82.1269 14.1123 1159 169.717 255.796 479.437
827 0 85.098 14.0426 1195 170.52 256.331 477.767
828 0 87.2612 14.0154 1223 169.845 256.273 475.971
829 0 92.1949 13.8185 1274 167.005 256.422 474.042
830 0 96.1364 14.1258 1358 165.225 254.214 472.544
831 0 97.2108 14.0417 1365 165.514 255.536 471.227
832 0 102.173 13.761 1406 163.398 256.326 469.217
833 0 105.243 13.9866 1472 166.072 256.698 467.021
834 0 109.215 14.2563 1557 158.314 256.336 465.57
835 0 111.165 14.1232 1570 169.978 256.905 464.118
836 1 58.1552 12.7074 739 169.298 257.211 489.866
837 0 60.1038 13.6264 819 169.418 257.209 489.046
838 0 61.1512 13.8673 848 166.218 257.098 487.46
839 0 65.0891 13.8887 904 160.135 257.05 486.624
840 0 67.0759 13.2686 890 156.842 254.997 485.673
841 0 70.1666 13.5392 950 157.275 254.383 484.398
842 0 71.0161 13.687 972 166.738 255.649 483.859
843 0 75.0773 13.8524 1040 164.811 256.56 481.844
844 0 75.1392 14.2003 1067 170.156 255.738 480.77
845 0 79.0614 13.7615 1088 166.061 255.672 478.652
846 0 82.3511 14.001 1153 171.855 255.708 477.834
847 0 84.2915 14.3787 1212 169.144 255.646 474.467
848 0 87.2511 14.0972 1230 164.998 254.66 472.998
849 0 90.3114 14.0957 1273 173.608 255.38 472.284
850 0 92.3379 14.317 1322 168.464 255.818 471.128
851 0 97.4611 14.0158 1366 170.105 257.07 470.339
852 0 101.132 13.952 1411 172.283 256.461 468.665
853 0 104.257 14.1382 1474 172.005 255.976 466.123
854 0 106.421 14.3487 1527 170.672 254.579 464.101
855 0 110.179 14.0953 1553 172.302 255.809 463.764
856 1 59.18 13.3322 789 178.755 253.891 489.345
857 0 59.1168 14.1246 835 173.424 255.607 487.919
858 0 63.1616 13.695 865 169.733 256.472 487.2
859 0 66.3505 13.7452 912 172.081 256.092 485.627
860 0 68.3328 13.6099 930 172.905 255.86 485.349
861 0 71.2445 13.8397 986 170.508 256.426 483.937
862 0 72.2116 14.0282 1013 166.036 256.225 482.679
863 0 75.177 13.7276 1032 163.451 255.105 480.973
864 0 79.2487 13.6911 1085 167.919 254.653 479.603
865 0 81.2037 13.9279 1131 165.363 254.396 477.699
866 0 83.1329 14.0378 1167 166.058 255.698 476.341
867 0 86.2217 14.2192 1226 169.684 258.287 474.317
868 0 91.2822 13.7157 1252 166.153 257.86 473.007
869 0 94.2006 13.6093 1282 158.853 253.421 471.226
870 0 97.3461 13.8064 1344 164.474 255.225 469.349
871 1 51.186 13.363 684 161.317 258.194 492.268
872 0 53.1192 13.0461 693 158.911 258.476 491.172
873 0 54.1489 13.5183 732 162.257 255.657 490.531
874 0 56.296 13.4645 758 158.073 256.286 489.05
875 0 59.1326 13.4613 796 154.111 256.016 488.519
876 0 60.226 13.3995 807 155.641 255.509 487.24
877 0 62.3938 13.2705 828 157.429 255.814 486.365
878 0 65.54 13.0455 855 157.611 255.543 485.28
879 0 68.155 13.0585 890 152.61 255.893 483.612
880 0 70.564 13.3354 941 155.278 255.244 482.235
881 0 72.1917 13.4364 970 151.3 254.129 480.374
882 0 76.3903 13.1038 1001 151.151 253.747 478.639
883 0 78.4205 13.5296 1061 153.513 253.657 477.003
884 1 40.3464 12.2192 493 158.156 255.093 495.195
885 0 43.3576 12.3854 537 155.978 253.538 494.158
886 0 44.4473 12.9142 574 156.105 254.62 493.181
887 0 47.6884 13.043 622 152.654 255.318 491.4
888 0 48.3791 13.1668 637 156.465 255.879 488.623
889 0 50.7184 12.9342 656 158.904 256.047 487.691
890 0 51.6418 13.6324 704 160.621 255.47 486.727
891 0 55.6343 13.6606 760 161.496 254.249 485.689
892 0 56.6007 13.1271 743 154.273 255.59 484.394
893 0 58.6215 13.1351 770 162.425 255.077 484.177
894 0 59.5629 13.7502 819 161.371 255.132 482.901
895 0 63.8538 13.39 855 164.439 254.926 482.366
896 0 65.7453 13.5979 894 171.723 254.416 481.356
897 0 66.6574 13.9219 928 162.959 254.011 480.419
898 0 71.8619 13.5677 975 163.663 254.108 478.175
899 0 74.7847 13.6392 1020 170.962 256.214 477.26
900 0 75.6904 13.793 1044 171.365 253.488 475.651
901 0 79.7865 13.5361 1080 175.719 253.895 474.992
902 0 84.144 13.3105 1120 170.916 254.867 473.779
903 0 87.1472 13.7813 1201 170.344 255.755 471.667
904 0 90.5699 13.8788 1257 171.058 253.616 469.668
905 0 94.5291 13.6572 1291 170.835 253.499 467.899
906 1 48.5626 12.314 598 176.441 254.983 490.124
907 0 50.8436 13.1383 668 168.722 253.229 488.114
908 0 52.588 12.8166 674 170.436 255.644 486.861
909 0 55.5008 12.5764 698 172.255 253.554 486.454
910 0 55.6069 13.1279 730 168.83 254.705 485.436
911 0 57.2918 13.2654 760 175.016 254.097 484.512
912 0 59.3657 13.2905 789 164.821 255.425 483.421
913 0 62.4639 13.1436 821 168.362 252.685 482.697
914 0 63.4839 13.0584 829 161.836 257.413 481.73
915 0 66.4371 13.08 869 165.938 255.146 480.921
916 0 67.7312 13.4945 914 156.963 256.218 480.393
917 0 69.4136 13.2251 918 166.649 255.449 479.118
918 0 71.2825 13.3132 949 170.444 254.982 478.137
919 0 74.5401 13.6302 1016 177.203 254.175 477.303
920 0 77.4059 13.3711 1035 166.15 255.54 476.378
921 0 79.483 13.4997 1073 169.968 253.28 474.763
922 0 81.4327 13.9502 1136 165.346 253.974 473.673
923 0 85.425 13.7665 1176 170.545 254.471 472.608
924 0 87.5376 13.5142 1183 167.799 255.892 471.635
925 0 90.3333 13.7048 1238 168.195 254.282 469.974
926 0 95.6144 13.5544 1296 164.614 254.815 468.571
927 1 51.2802 12.0904 620 159.126 255.19 490.352
928 0 51.2533 12.7016 651 160.641 255.599 489.664
929 0 54.515 12.9506 706 163.415 255.62 488.608
930 0 55.2505 12.4886 690 166.045 256.204 488.429
931 0 56.4338 13.0418 736 162.736 255.925 487.626
932 0 58.4776 12.757 746 164.168 256.626 487.197
933 0 59.4086 13.1631 782 151.34 255.666 485.881
934 0 62.4771 12.5966 787 166.598 256.605 485.682
935 0 63.4988 13.0081 826 161.864 256.375 485.074
936 0 64.6233 13.1841 852 164.458 255.212 484.347
937 0 66.544 13.2995 885 164.144 255.419 483.723
938 0 69.4611 13.2592 921 163.622 255.517 482.289
939 0 72.2816 13.5858 982 161.293 254.879 480.89
940 0 72.3151 13.4827 975 163.802 254.923 480.034
941 0 76.3516 13.5819 1037 164.472 254.784 478.674
942 0 79.2972 13.2792 1053 163.78 255.47 478.098
943 0 83.2852 13.2797 1106 163.15 255.334 476.974
944 0 82.2943 13.877 1142 163.751 254.146 475.87
945 0 86.1835 13.5177 1165 161.894 255.293 474.444
946 0 89.1794 13.5121 1205 161.548 254.685 472.738
947 0 92.2128 13.9026 1282 159.332 255.885 471.764
948 0 95.1414 13.6639 1300 162.66 256.029 470.685
949 0 97.2873 13.5886 1322 166.432 253.385 469.738
950 0 101.214 13.7728 1394 164.174 253.781 467.924
951 0 102.169 14.0551 1436 157.886 254.077 465.708
952 0 107.217 13.4586 1443 156 254.665 464.033
953 1 52.1064 11.5341 601 154.814 253.589 492.002
954 0 54.1904 11.8471 642 157.702 254.403 490.863
955 0 55.197 12.5188 691 157.449 256.012 490.075
956 0 58.2604 12.6501 737 160.243 255.891 488.67
957 0 59.1397 12.5466 742 159.805 254.282 487.26
958 0 61.142 12.381 757 163.226 254.054 486.86
959 0 62.0818 12.2741 762 161.719 254.213 485.928
960 0 65.0586 12.8038 833 158.765 255.041 484.682
961 0 66.102 12.5412 829 162.657 254.312 483.474
962 0 70.0803 12.5998 883 161.043 253.074 481.712
963 0 72.1227 12.8115 924 166.277 255.977 481.211
964 0 73.1286 12.7173 930 159.405 254.615 479.995
965 0 77.1506 12.7672 985 169.374 254.586 477.704
966 0 79.0969 12.8956 1020 166.94 256.592 476.222
967 0 81.1513 13.0004 1055 167.285 254.576 474.499
968 0 85.1659 12.7985 1090 169.541 255.718 473.465
969 0 87.1374 12.8647 1121 166.487 256.095 472.439
970 0 90.1308 12.848 1158 162.455 253.659 469.978
971 0 92.1973 13.406 1236 170.044 254.69 468.103
972 0 96.1375 13.231 1272 164.514 254.722 467.075
973 0 99.1477 13.1622 1305 166.654 255.975 465.668
974 0 100.251 13.7953 1383 166.866 256.441 463.544
975 0 105.235 13.4936 1420 165.578 254.31 462.368
976 0 107.311 13.1674 1413 168.873 254.117 461.024
977 0 110.204 13.6292 1502 171.39 254.425 459.042
978 0 116.324 13.4538 1565 166.931 255.371 457.787
979 0 118.49 13.6214 1614 158.838 256.359 456.13
980 0 121.421 13.8114 1677 166.086 257.486 454.502
981 0 123.244 13.3881 1650 165.103 255.965 452.39
982 0 129.29 13.9686 1806 161.509 255.144 449.832
983 0 134.441 13.5822 1826 169.06 256.179 448.24
984 0 140.31 13.4631 1889 168.629 255.961 445.678
985 0 142.279 13.7477 1956 171.767 255.83 443.74
986 0 148.408 13.6852 2031 167.835 255.947 440.546
987 0 153.358 13.6544 2094 170.483 257.112 438.179
988 1 82.2585 12.4121 1021 160.489 255.778 474.437
989 0 85.4608 11.9353 1020 162.587 256.428 473.155
990 0 87.3989 12.3915 1083 161.051 255.58 471.221
991 0 91.4586 12.4865 1142 162.512 255.425 469.597
992 0 95.4796 12.3168 1176 162.787 254.567 468.552
993 0 97.3688 12.2113 1189 163.047 254.742 466.96
994 0 101.325 12.6425 1281 157.175 255.473 464.926
995 0 103.525 12.6636 1311 160.539 253.928 462.841
996 0 107.499 12.4467 1338 162.872 255.472 461.043
997 0 109.485 12.4857 1367 155.576 253.158 459.594
998 0 113.348 12.3249 1397 157.14 253.974 457.294
999 0 117.403 12.4187 1458 160.487 254.825 456.433
1000 1 63.3578 11.0168 698 152.004 255.46 484.596
1001 0 66.2119 11.6897 774 154.519 252.651 482.822
1002 0 67.1901 11.9809 805 156.281 257.419 481.83
1003 0 69.2525 11.9851 830 160.482 254.319 481.047
1004 0 70.2737 12.1098 851 155.309 255.394 479.759
1005 0 74.3367 11.986 891 153.053 258.153 478.538
1006 0 76.387 11.8214 903 159.413 256.295 478.004
1007 0 79.2816 12.2601 972 155.503 256.622 475.459
1008 0 80.3336 12.1618 977 158.473 257.031 474.951
1009 0 84.3834 11.744 991 159.871 256.815 474.015
1010 0 87.2266 12.3357 1076 161.788 255.147 472.083
1011 0 89.2896 12.1403 1084 157.563 256.325 471.223
1012 0 92.311 12.2412 1130 162.531 254.201 469.599
1013 0 96.2158 12.2641 1180 155.989 256.075 468.279
1014 0 97.3735 12.375 1205 156.92 256.932 466.74
1015 1 53.173 11.0582 588 157.733 256.372 488.276
1016 0 53.1502 11.3264 602 156.103 255.103 488.424
1017 0 58.299 11.218 654 155.93 255.038 487.578
1018 0 59.2587 11.3401 672 154.631 254.455 487.234
1019 0 60.1778 11.9147 717 152.091 257.259 485.596
1020 0 61.203 11.8458 725 156.046 255.786 485.062
1021 0 63.1744 11.7928 745 152.574 253.536 483.835
1022 0 65.1812 12.0434 785 151.158 254.838 482.924
1023 0 66.2032 12.4616 825 155.948 255.328 482.366
1024 0 68.1223 12.3601 842 158.474 252.356 481.688
1025 0 71.2987 12.2863 876 157.187 255.977 481.018
1026 0 73.1474 12.4953 914 154.531 256.24 479.802
1027 0 72.2885 13.0311 942 159.501 257.196 478.818
1028 0 76.288 12.5315 956 156.228 255.141 478.717
1029 0 77.4272 12.7991 991 158.802 254.145 477.244
1030 0 81.4757 12.7154 1036 160.544 256.158 475.21
1031 0 83.4075 12.5768 1049 160.923 254.954 474.159
1032 0 85.3007 13.13 1120 162.009 254.571 472.724
1033 0 87.5457 12.839 1124 159.91 255.619 471.664
1034 0 91.3077 12.8248 1171 163.238 254.98 471.352
1035 0 93.2238 13.1297 1224 164.834 256.743 469.493
1036 1 48.1102 11.8062 568 143.965 253.549 491.208
1037 0 52.0834 11.7504 612 160.588 255.389 489.918
1038 0 53.1799 12.0722 642 158.743 256.417 490.352
1039 0 54.2548 12.0911 656 158.834 257.951 489.646
1040 0 55.1931 12.3929 684 155.727 257.012 488.368
1041 0 56.2441 12.8013 720 154.06 255.661 487.506
1042 0 60.0853 11.983 720 156.997 256.085 486.992
1043 0 59.1461 12.6128 746 161.977 256.654 486.315
1044 0 62.0629 12.7774 793 158.348 255.672 485.129
1045 0 63.0419 12.8645 811 156.805 256.231 484.493
1046 0 66.1073 13.0697 864 158.992 257.053 482.991
1047 0 68.1071 12.7299 867 157.293 255.781 482.458
1048 0 69.0964 12.8661 889 154.042 256.762 481.864
1049 0 71.257 12.9531 923 150.098 256.424 480.507
1050 0 74.3561 12.7091 945 157.469 254.712 479.183
1051 0 77.1759 12.8797 994 152.949 255.937 478.677
1052 0 79.2452 13.4014 1062 154.451 255.435 476.741
1053 0 83.1087 13.1755 1095 153.994 255.781 475.667
1054 0 86.2947 12.805 1105 156.427 258.449 474.167
1055 0 86.2327 13.2896 1146 152.793 256.885 472.893
1056 0 90.2496 13.1524 1187 153.737 255.033 471.497
1057 1 49.0955 11.4063 560 154.032 254.58 492.761
1058 0 50.1508 12.0237 603 149.634 254.766 491.736
1059 0 52.0927 12.6889 661 156.035 256.909 490.887
1060 0 54.2096 12.175 660 148.002 255.2 489.895
1061 0 54.1583 11.9649 648 149.019 254.6 490.022
1062 0 55.2083 12.3713 683 149.264 254.395 488.896
1063 0 57.212 12.3575 707 151.641 254.973 487.768
1064 0 59.2016 12.5503 743 151.431 254.026 487.016
1065 0 60.2787 12.5086 754 147.963 254.557 486.45
1066 0 62.1631 12.5959 783 148.879 254.485 485.299
1067 0 65.1779 12.5042 815 150.944 254.551 484.858
1068 0 65.1582 13.3828 872 144.618 255.787 483.646
1069 0 69.2031 12.8029 886 144.166 255.924 482.728
1070 0 69.1892 13.1234 908 152.295 256.809 481.665
1071 0 73.186 13.0216 953 152.114 255.577 481.037
1072 0 75.1746 13.1028 985 154.265 253.887 480.725
1073 0 76.1548 13.512 1029 154.357 254.489 479.882
1074 0 79.0832 13.5048 1068 155.661 254.5 478.287
1075 0 81.1636 13.0108 1056 150.812 254.208 476.964
1076 0 84.1251 13.3373 1122 157.321 253.911 475.663
1077 0 88.3056 13.5326 1195 159.967 254.638 474.032
1078 0 90.2084 13.6129 1228 153.517 254.781 472.656
1079 0 93.2448 13.4485 1254 156.236 254.869 470.403
1080 0 96.2564 13.1212 1263 152.371 254.946 468.823
1081 0 101.26 13.4802 1365 143.892 254.349 466.438
1082 0 103.325 13.3559 1380 156.62 255.878 466.067
1083 1 50.1827 12.2552 615 153.127 255.585 491.535
1084 0 53.2865 12.3859 660 150.168 254.326 490.392
1085 0 56.1273 12.1331 681 153.554 256.081 489.256
1086 0 57.2005 12.3251 705 150.455 256.079 488.549
1087 0 58.2044 12.8169 746 144.422 256.307 487.962
1088 0 58.1451 13.8619 806 147.978 255.527 487.335
1089 0 63.2479 12.8858 815 147.75 258.859 485.66
1090 0 65.1224 13.3134 867 151.116 256.775 485.103
1091 0 66.2766 13.4135 889 155.346 255.385 484.287
1092 0 69.2844 13.3796 927 151.244 255.867 482.019
1093 0 71.2672 13.3582 952 150.768 256.711 481.054
1094 0 73.2262 13.7109 1004 147.595 255.954 480.549
1095 0 76.3082 13.2358 1010 153.96 256.053 479.994
1096 0 80.3516 13.3414 1072 144.867 255.055 478.585
1097 0 83.3138 13.4311 1119 149.458 254.819 476.662
1098 0 84.3203 13.3301 1124 148.682 255.423 475.169
1099 0 87.2146 13.3464 1164 147.838 254.716 473.471
1100 0 91.3632 13.1782 1204 147.71 255.36 472.245
1101 1 50.1469 11.5062 577 156.657 255.3 493.184
1102 0 50.2565 12.1775 612 154.766 255.895 491.199
1103 0 50.2129 12.6063 633 152.058 255.074 491.603
1104 0 53.1009 12.8247 681 154.018 255.467 490.921
1105 0 55.1799 12.7401 703 157.327 253.96 489.734
1106 0 55.1439 13.1474 725 156.599 254.941 488.637
1107 0 57.3334 12.8546 737 158.071 254.811 488.75
1108 0 58.1864 13.0787 761 158.962 254.568 487.711
1109 0 60.2081 12.9052 777 157.366 255.485 486.775
1110 0 62.2474 13.1411 818 157.727 253.551 485.466
1111 0 66.4483 12.5361 833 155.527 253.663 485.108
1112 0 67.4689 13.2209 892 160.88 255.904 483.578
1113 0 67.2654 13.3055 895 150.716 254.111 483.25
1114 0 70.4335 13.1613 927 155.659 255.742 481.697
1115 0 72.3418 13.1459 951 152.058 254.67 480.919
1116 0 75.4225 13.4708 1016 157.893 255.11 479.615
1117 0 79.2457 13.3509 1058 153.227 255.448 478.902
1118 0 81.1811 13.7347 1115 154.713 256.274 476.536
1119 1 43.1062 12.156 524 157.412 256.302 496
1120 0 45.0674 12.3815 558 156.52 255.443 494.907
1121 0 46.1462 12.6338 583 159.379 254.027 494.336
1122 0 48.2011 12.3856 597 158.925 253.32 493.698
1123 0 49.2362 12.4299 612 160.154 254.556 493.167
1124 0 50.1313 12.6468 634 161.751 252.856 492.107
1125 0 52.1561 12.8269 669 155.152 252.776 491.519
1126 0 52.1497 13.5955 709 157.254 256.533 491.087
1127 0 55.1832 13.1743 727 161.553 255.974 490.499
1128 0 56.1442 13.0557 733 158.596 253.978 490.307
1129 0 58.3594 13.0742 763 162.889 253.176 489.456
1130 0 59.3351 13.3142 790 159.81 253.133 488.029
1131 0 62.2687 13.1366 818 153.522 253.941 487.22
1132 0 64.3417 13.1019 843 158.753 255.356 486.147
1133 0 65.2004 13.2668 865 157.155 256.193 485.835
1134 0 68.2386 13.4088 915 155.545 255.321 484.789
1135 0 69.1527 13.463 931 160.391 254.985 483.27
1136 0 72.2341 13.0963 946 161.426 255.506 482.027
1137 0 76.2489 13.0625 996 160.06 252.608 480.524
1138 0 77.2176 13.326 1029 159.812 252.697 479.671
1139 1 41.0844 11.6102 477 162.65 254.388 497.478
1140 0 42.1661 12.1425 512 155.236 255.016 495.906
1141 0 45.0658 12.3819 558 153.249 255.815 495.339
1142 0 45.1866 12.5037 565 161.724 255.312 494.77
1143 0 45.1945 12.5015 565 157.89 254.441 493.874
1144 0 48.1846 12.9294 623 161.13 256.037 493.774
1145 0 49.2183 12.7595 628 159.788 254.344 493.349
1146 0 51.22 12.6904 650 161.546 253.278 492.158
1147 0 52.2416 13.1122 685 151.917 253.915 491.454
1148 0 54.1429 12.8918 698 156.314 253.702 491.024
1149 0 56.267 13.1516 740 160.946 255.786 489.564
1150 0 56.1065 13.51 758 152.654 255.017 488.792
1151 0 58.161 13.136 764 155.407 255.589 488.895
1152 0 60.2124 13.004 783 157.562 254.017 488.129
1153 0 62.1473 13.2749 825 162.219 255.618 487.113
1154 0 63.0997 13.5658 856 157.169 255.64 485.953
1155 0 64.154 13.8261 887 156.693 254.861 485.11
1156 0 68.3045 13.6009 929 162.36 254.819 484.901
1157 0 69.0896 13.4174 927 156.332 255.753 483.728
1158 0 70.0751 13.5712 951 159.509 256.008 482.844
1159 0 73.0827 13.9157 1017 157.975 254.765 481.675
1160 0 76.1603 13.918 1060 158.222 255.707 480.277
1161 0 77.2988 13.9071 1075 152.544 253.815 478.286
1162 0 80.1398 14.4123 1155 151.972 255.129 477.395
1163 0 82.1502 14.084 1157 153.85 256.594 476.178
1164 0 86.1768 13.8785 1196 159.055 254.557 474.544
1165 0 90.1613 13.5646 1223 151.853 255.257 473.868
1166 0 92.2585 13.4297 1239 158.157 253.903 471.727
1167 1 50.1691 11.5011 577 146.766 255.827 492.295
1168 0 53.2233 12.2503 652 158.773 253.814 491.368
1169 0 54.1021 12.7537 690 154.972 254.862 490.893
1170 0 56.0682 12.9664 727 153.447 257.597 489.88
1171 0 55.1029 13.7016 755 147.632 255.654 489.241
1172 0 59.1736 13.0295 771 148.764 254.304 488.567
1173 0 61.1218 13.1704 805 148.231 255.488 487.4
1174 0 61.0965 13.2905 812 139.271 255.969 485.734
1175 0 64.103 13.2443 849 150.066 255.055 484.611
1176 0 66.1095 12.9331 855 145.015 254.436 484.087
1177 0 69.0682 13.2043 912 145.925 254.743 482.151
1178 0 72.0813 13.3322 961 141.15 254.334 481.208
1179 0 74.079 13.2021 978 143.571 255.824 480.461
1180 0 77.0951 13.4379 1036 136.165 255.959 477.828
1181 0 80.2939 13.3509 1072 137.964 257.797 476.759
1182 1 41.049 10.3291 424 141.224 255.571 496.399
1183 0 42.0328 10.4918 441 139.508 253.914 496.17
1184 0 44.1978 10.7698 476 138.147 258.351 495.519
1185 0 45.2553 11.5567 523 128.092 257.467 493.436
1186 0 46.1224 11.9682 552 130.719 257.178 493.016
1187 0 47.1899 12.2908 580 132.795 257.286 492.655
1188 0 49.1517 12.4309 611 129.082 257.221 491.917
1189 0 51.1354 12.0464 616 134.396 256.391 491.008
1190 0 53.2168 11.9511 636 138.178 254.443 490.053
1191 0 55.1316 12.2434 675 137.529 256.868 489.665
1192 0 55.1514 12.7649 704 141.428 256.118 489.099
1193 0 58.1143 11.9764 696 134.605 255.786 487.738
1194 0 60.1313 12.4395 748 140.15 255.726 486.687
1195 0 63.1347 12.8139 809 146.182 254.146 485.855
1196 0 65.1412 12.9411 843 145.796 255.203 484.562
1197 0 68.1827 12.7305 868 148.327 254.725 483.88
1198 0 70.1314 12.4623 874 140.64 256.243 482.112
1199 0 71.1384 12.7076 904 148.482 257.017 481.838
1200 0 75.1135 12.6076 947 142.321 257.31 480.494
1201 1 41.0713 9.76351 401 140.726 256.297 497.948
1202 0 43.0419 10.6176 457 144.934 255.974 495.554
1203 0 44.0137 10.9966 484 141.347 256.36 496.066
1204 0 44.0257 11.2434 495 133.204 255.931 495.36
1205 0 46.0234 11.8852 547 139.976 255.693 494.782
1206 0 49.2098 11.8066 581 136.733 258.897 494.52
1207 0 49.2898 12.2135 602 140.013 258.719 494.131
1208 0 49.1491 12.1671 598 136.799 255.686 491.985
1209 0 54.1557 12.0948 655 141.482 257.829 491.94
1210 0 55.1615 11.8198 652 141.385 257.646 491.505
1211 0 58.1223 12.4221 722 139.828 255.03 490.758
1212 0 59.1109 12.4512 736 143.613 257.825 490.122
1213 0 61.1609 12.3445 755 138.94 256.017 488.513
1214 0 63.2056 11.8344 748 135.778 257.239 487.511
1215 0 65.1372 12.2511 798 139.313 257.622 487.286
1216 0 65.1246 12.5913 820 146.589 259.017 486.05
1217 0 68.2477 12.4546 850 147.886 257.372 485.588
1218 0 70.1525 12.4871 876 144.969 257.075 483.874
1219 0 74.2066 12.8156 951 157.326 256.467 483.466
1220 0 76.3173 12.697 969 147.011 255.229 481.135
1221 0 78.3185 12.9727 1016 151.07 254.903 479.615
1222 0 82.3152 12.9016 1062 151.805 255.149 478.83
1223 0 84.1623 12.9036 1086 151.262 256.958 477.423
1224 0 89.1303 12.88 1148 152.137 257.03 475.013
1225 0 92.3054 13.0003 1200 155.084 255.738 473.578
1226 1 49.1534 11.1895 550 156.496 258.393 495.318
1227 0 49.16 11.4117 561 151.595 258.734 495.127
1228 0 50.3968 11.846 597 154.809 255.789 494.037
1229 0 53.2204 11.8376 630 149.956 257.157 494.133
1230 0 53.3401 12.1297 647 156.617 256.015 492.53
1231 0 53.3109 12.4928 666 153.931 255.401 492.245
1232 0 57.2927 12.0434 690 149.788 258.057 491.178
1233 0 57.3825 12.53 719 150.765 254.757 490.076
1234 0 60.2379 12.8989 777 152.27 255.862 489.157
1235 0 63.2072 12.3404 780 155.908 255.54 488.513
1236 0 64.0796 13.0775 838 152.394 257.737 488.048
1237 0 66.2357 12.6971 841 150.721 255.819 486.69
1238 0 68.2928 13.2371 904 158.625 256.118 485.162
1239 0 72.1742 13.024 940 160.013 256.161 483.998
1240 0 73.2258 13.1374 962 154.038 254.164 482.336
1241 0 76.347 13.1112 1001 162.278 255.064 481.566
1242 0 77.1802 13.462 1039 155.769 255.644 480.033
1243 0 82.1936 13.1519 1081 159.426 256.885 478.069
1244 0 83.1301 13.5932 1130 160.713 259.306 477.319
1245 0 87.1903 13.4877 1176 164.212 255.33 476.128
1246 0 90.3068 13.4874 1218 158.396 255.264 474.222
1247 0 95.3817 13.1052 1250 162.476 255.187 472.907
1248 0 98.5304 13.3766 1318 157.592 255.32 470.696
1249 1 54.2457 11.5401 626 159.441 256.741 493.276
1250 0 55.3053 12.205 675 162.307 256.877 493.201
1251 0 54.2625 12.6054 684 142.007 255.491 491.396
1252 0 59.2387 12.0529 714 159.269 253.576 491.406
1253 0 59.2876 12.549 744 156.56 255.487 490.524
1254 0 60.3013 12.7858 771 159.527 254.516 489.962
1255 0 63.2422 12.5865 796 164.83 255.168 487.935
1256 0 64.2022 12.8812 827 158.116 253.79 486.787
1257 0 66.1327 12.9134 854 165.662 255.424 486.384
1258 0 67.13 12.9599 870 163.685 253.331 485.48
1259 0 69.2074 12.9177 894 166.02 256.168 484.478
1260 0 71.1451 13.0016 925 158.512 255.256 483.646
1261 0 74.2371 13.0258 967 165.599 254.631 482.631
1262 0 77.1927 13.2526 1023 160.868 254.732 481.491
1263 0 79.2073 13.0544 1034 161.659 255.652 479.874
1264 0 83.1868 13.067 1087 165.151 256.745 478.42
1265 0 86.1493 12.8498 1107 31.4381 255.118 476.988
1266 0 86.1418 13.5242 1165 164.972 255.931 475.815
1267 0 89.0769 13.5725 1209 160.649 255.509 473.883
1268 1 48.2066 11.5544 557 153.239 255.88 495.118
1269 0 50.2829 12.2109 614 152.744 256.116 495.239
1270 0 51.0664 12.7089 649 146.632 254.983 493.884
1271 0 54.1957 12.6209 684 156.478 255.839 493.699
1272 0 55.2365 12.5823 695 156.032 254.495 492.537
1273 0 56.1038 12.6729 711 15.4374 256.498 491.402
1274 0 56.1799 12.9762 729 155.76 254.141 490.802
1275 0 58.1914 13.3869 779 155.119 257.982 490.433
1276 0 61.2903 13.2974 815 156.48 257.466 489.027
1277 0 62.2219 13.1465 818 157.704 257.669 488.451
1278 0 63.3495 13.244 839 161.513 257.591 487.634
1279 0 66.3239 13.1325 871 147.156 255.952 485.513
1280 0 68.3936 13.1153 897 158.347 255.266 484.633
1281 0 71.2957 13.5071 963 157.616 255.952 483.104
1282 0 72.3967 13.4675 975 149.544 256.796 481.646
1283 0 76.4224 13.2029 1009 156.232 256.005 481.529
1284 0 77.5462 13.7209 1064 156.483 256.242 480.107
1285 0 81.3348 13.6965 1114 156.077 256.08 478.155
1286 0 82.2484 13.9942 1151 159.968 256.296 477.563
1287 0 87.3861 13.2515 1158 152.907 257.261 475.41
1288 0 90.2138 13.468 1215 160.639 257.404 474.07
1289 0 93.3903 13.4703 1258 162.808 257.125 472.293
1290 1 48.096 12.6206 607 163.567 256.168 494.188
1291 0 49.2958 12.6177 622 158.904 256.302 493.576
1292 0 51.1162 12.8531 657 154.731 255.064 494.17
1293 0 52.2323 13.0379 681 157.695 255.696 492.888
1294 0 55.2647 12.9015 713 153.035 255.565 492.231
1295 0 58.2967 12.8309 748 153.952 255.709 490.69
1296 0 58.3902 13.5639 792 158.013 256.249 490.264
1297 0 60.3663 13.6003 821 159.284 255.752 489.258
1298 0 62.2991 13.4834 840 160.144 254.456 488.28
1299 0 64.5708 13.6439 881 160.976 256.49 486.6
1300 0 67.433 13.8508 934 155.832 255.204 485.648
1301 0 68.4207 13.8408 947 154.746 256.438 484.251
1302 0 71.4641 14.063 1005 158.574 255.962 483.54
1303 0 74.2485 13.8723 1030 154.294 256.748 482.144
1304 0 76.4982 13.8565 1060 163.36 255.486 481.494
1305 0 79.4521 13.9455 1108 159.62 254.194 480.265
1306 0 81.4957 14.0744 1147 159.269 255.007 477.698
1307 0 85.4204 13.7906 1178 156.676 256.18 476.512
1308 0 87.4804 13.7517 1203 156.94 254.953 476.086
1309 1 45.2774 12.6332 572 157.185 256.879 495.668
1310 0 48.2409 12.6656 611 163.169 256.684 495.658
1311 0 48.4023 13.5737 657 164.021 257.256 494.131
1312 0 51.3442 13.0881 672 147.967 256.866 493.015
1313 0 51.1744 13.5029 691 159.984 256.583 493.213
1314 0 54.1605 13.1646 713 158.633 257.048 492.52
1315 0 55.2157 13.402 740 156.909 255.542 491.365
1316 0 57.1799 13.9385 797 160.498 255.892 490.787
1317 0 59.3252 13.7378 815 161.022 255.459 489.721
1318 0 59.3132 14.0778 835 155.948 257.516 488.805
1319 0 63.7666 13.5181 862 159.891 255.298 486.821
1320 0 65.7247 13.587 893 163.108 254.9 486.613
1321 0 69.3687 13.6949 950 163.866 256.386 484.52
1322 0 69.7018 14.0025 976 160.907 254.92 483.642
1323 0 73.361 13.8902 1019 152.632 253.646 483.072
1324 0 75.4982 14.0401 1060 163.437 254.833 481.554
1325 0 78.6159 13.7886 1084 163.573 256.028 480.68
1326 0 81.3822 13.9465 1135 152.481 256.659 479.192
1327 0 84.413 13.896 1173 163.884 255.664 477.445
1328 0 87.6374 13.7384 1204 159.865 254.866 476.08
1329 0 89.5109 14.2329 1274 161.32 256.465 475.04
1330 1 49.3507 12.1781 601 150.591 254.948 495.85
1331 0 50.3358 12.7742 643 159.776 254.314 495.187
1332 0 52.4211 13.01 682 154.68 256.191 494.996
1333 0 51.3311 13.4227 689 160.836 256.504 493.794
1334 0 55.4419 12.9685 719 154.455 255.869 493.028
1335 0 56.222 13.5178 760 159.975 257.205 492.296
1336 0 58.2989 13.5337 789 155.588 256.674 491.087
1337 0 59.4367 13.4597 800 158.07 254.664 489.994
1338 0 60.3713 13.5329 817 155.59 257.16 489.886
1339 0 63.2165 13.6831 865 155.068 254.41 488.994
1340 0 64.2399 14.1034 906 150.336 253.737 487.7
1341 0 65.5272 14.1621 928 154.272 254.887 486.717
1342 0 69.3095 13.5479 939 151.113 255.155 485.503
1343 0 70.411 14.0035 986 154.269 255.492 484.09
1344 0 73.3214 13.8568 1016 153.839 257.203 482.301
1345 0 76.313 13.5888 1037 155.336 257.239 481.199
1346 0 77.1421 14.0779 1086 152.935 257.59 480.157
1347 0 80.2526 13.9559 1120 156.088 256.296 478.1
1348 0 84.2667 13.6471 1150 149.357 256.691 476.49
1349 0 87.2574 14.0733 1228 144.178 255.976 476.065
1350 0 90.2398 13.6968 1236 153.023 257.786 474.409
1351 0 93.1231 13.5949 1266 151.777 255.009 472.72
1352 0 98.2017 13.2584 1302 145.587 254.796 471.081
1353 1 49.1417 12.0875 594 149.912 253.938 495.008
1354 0 50.0734 12.2221 612 149.81 257.111 494.18
1355 0 52.057 12.7552 664 150.078 258.617 492.489
1356 0 55.1431 12.3497 681 149.559 256.191 492.383
1357 0 55.1323 12.8237 707 148.55 254.655 491.062
1358 0 56.1549 13.1778 740 148.108 254.814 490.945
1359 0 58.0835 13.274 771 152.738 256.859 490.55
1360 0 61.1673 13.226 809 147.496 254.377 488.42
1361 0 64.1248 12.5536 805 153.566 255.601 488.204
1362 0 67.1784 12.9655 871 151.488 258.332 486.612
1363 0 68.3225 13.1289 897 147.579 256.68 484.939
1364 0 70.3854 13.3266 938 144.728 257.553 484.83
1365 0 73.4329 13.2366 972 151.41 256.892 484.215
1366 0 75.3415 13.3658 1007 154.952 257.673 482.5
1367 0 78.2635 13.6079 1065 149.826 255.746 480.948
1368 0 81.2184 13.6299 1107 151.126 255.714 479.645
1369 0 84.3614 13.3592 1127 156.851 256.526 478.475
1370 0 85.4058 13.8984 1187 24.8484 255.185 476.663
1371 0 88.2387 14.4041 1271 159.732 256.139 475.794
1372 0 92.168 13.9962 1290 155.629 257.262 474.411
1373 0 94.2605 14.1098 1330 155.093 258.317 473.827
1374 0 96.1912 14.0553 1352 156.963 256.943 472.297
1375 0 99.377 14.4601 1437 159.183 254.924 470.065
1376 0 104.283 14.1729 1478 163.376 257.769 469.166
1377 0 105.331 14.9529 1575 164.043 256.918 467.62
1378 0 108.318 14.4574 1566 159.591 257.309 466.211
1379 0 112.274 14.5003 1628 165.334 256.216 465.279
1380 0 116.463 14.0818 1640 156.16 258.379 462.682
1381 0 121.281 14.4211 1749 167.322 257.056 461.736
1382 0 126.399 14.6995 1858 158.367 256.138 458.451
1383 0 128.347 14.2971 1835 168.972 258.059 456.492
1384 1 70.2625 13.9335 979 162.91 257.062 484.629
1385 0 72.5151 14.135 1025 167.158 257.958 484.078
1386 0 74.2934 14.2408 1058 166.98 258.094 482.529
1387 0 77.3516 14.531 1124 164.721 258.861 481.27
1388 0 80.3407 14.5754 1171 162.465 257.569 479.614
1389 0 83.2783 14.2894 1190 164.646 258.203 478.857
1390 0 86.3417 14.4079 1244 162.753 257.24 477.104
1391 0 90.3251 14.1268 1276 158.766 258.936 476.265
1392 0 91.1763 14.3897 1312 161.86 257.666 474.498
1393 0 94.194 14.9585 1409 162.83 258.265 472.816
1394 0 100.218 14.199 1423 165.276 256.744 471.562
1395 0 103.281 14.5138 1499 168.718 256.963 469.141
1396 0 107.636 14.0938 1517 159.942 257.649 468.237
1397 0 110.53 14.6204 1616 162.434 257.012 465.795
1398 0 114.356 14.4636 1654 165.414 258.461 464.26
1399 0 118.529 14.7137 1744 168.278 258.11 462
1400 1 65.3328 13.3317 871 167.556 259.557 488.298
1401 0 68.2729 14.0319 958 162.254 258.692 486.602
1402 0 69.4088 14.1048 979 165.198 259.302 485.494
1403 0 72.4556 13.9672 1012 169.023 258.881 483.955
1404 0 74.5628 14.0821 1050 162.685 258.469 483.099
1405 0 75.5388 14.4561 1092 158.372 258.943 482.276
1406 0 80.2582 14.2415 1143 157.059 257.57 480.315
1407 0 83.4239 13.9408 1163 164.813 257.635 479.405
1408 0 85.2245 14.4207 1229 159.556 256.998 477.8
1409 0 88.2916 14.4521 1276 166.746 257.103 476.197
1410 0 91.1614 14.5566 1327 170.361 257.727 474.592
1411 0 93.271 14.5061 1353 174.616 259.63 474.201
1412 0 97.4524 14.1608 1380 166.688 257.944 472.996
1413 0 101.39 14.025 1422 167.804 259.654 471.417
1414 0 103.276 14.4177 1489 163.342 257.663 469.088
1415 0 106.297 14.1867 1508 166.849 259.198 468.388
1416 1 54.1766 13.1976 715 166.906 258.21 493.175
1417 0 58.2306 13.1374 765 167.137 256.906 491.55
1418 0 60.2597 13.4418 810 160.035 256.723 491.306
1419 0 61.1108 13.7782 842 166.198 256.893 489.869
1420 0 65.5385 13.534 887 164.322 256.196 488.931
1421 0 66.2986 13.8314 917 166.494 256.615 488.19
1422 0 66.3412 14.0335 931 157.378 256.578 486.168
1423 0 71.3661 13.4518 960 161.31 258.23 485.248
1424 0 72.3015 13.9278 1007 166.34 258.074 484.134
1425 0 75.4937 13.723 1036 162.208 256.389 482.762
1426 0 78.575 13.8721 1090 161.099 259.333 480.627
1427 0 81.2592 13.9553 1134 171.511 256.955 479.881
1428 0 84.3206 13.8044 1164 161.626 256.581 478.288
1429 0 85.1379 14.177 1207 167.102 257.022 477.39
1430 0 91.2879 13.5724 1239 159.243 255.745 475.488
1431 0 93.4416 13.8803 1297 165.581 256.47 474.243
1432 0 98.4197 13.5136 1330 163.556 255.47 472.12
1433 0 100.383 13.9764 1403 170.296 256.088 470.556
1434 0 106.336 13.9464 1483 154.857 258.756 467.517
1435 1 57.1495 12.6685 724 164.134 258.558 491.29
1436 0 61.2082 13.1355 804 162.076 259.557 489.4
1437 0 61.251 13.5834 832 164.036 257.701 487.958
1438 0 65.2536 13.1027 855 159.032 257.691 486.84
1439 0 67.1001 13.1296 881 161.045 256.684 485.901
1440 0 70.2476 13.1962 927 161.546 257.859 485.297
1441 0 71.3795 13.6874 977 164.925 257.68 484.384
1442 0 74.459 13.4168 999 168.158 256.23 483.321
1443 0 76.44 13.1868 1008 167.483 256.561 482.334
1444 0 78.4154 13.6963 1074 163.969 259.126 480.643
1445 0 82.3664 13.6949 1128 166.109 256.718 478.954
1446 0 85.4089 13.6051 1162 163.661 257.359 477.632
1447 0 87.3412 13.7163 1198 168.624 259.562 476.184
1448 0 90.2713 13.8915 1254 168.526 257.608 473.718
1449 0 93.4227 13.9581 1304 168.449 260.772 473.044
1450 0 97.4338 13.7119 1336 164.392 258.429 471.65
1451 0 99.2292 13.7157 1361 162.776 256.929 469.88
1452 0 103.385 13.8221 1429 160.999 257.269 468.626
1453 1 57.2037 12.639 723 164.48 257.755 490.941
1454 0 59.2785 13.192 782 160.9 259.454 489.545
1455 0 62.2909 13.0356 812 152.502 259.005 488.539
1456 0 62.33 13.3002 829 156.678 257.824 487.854
1457 0 63.2821 13.6848 866 157.323 258.803 486.866
1458 0 68.2237 13.2066 901 150.658 258.029 485.801
1459 0 67.1555 13.4017 900 164.371 257.153 485.579
1460 0 72.2349 13.5115 976 159.488 256.568 483.834
1461 0 74.2543 13.777 1023 160.224 257.83 482.138
1462 0 76.3361 13.755 1050 164.99 258.217 481.141
1463 0 79.3653 14.2506 1131 159.644 257.853 479.362
1464 0 83.3787 13.8644 1156 163.087 257.185 478.67
1465 0 85.568 13.6967 1172 164.968 256.931 476.968
1466 0 87.441 14.0438 1228 159.795 257.24 475.925
1467 0 92.2636 13.7541 1269 166.902 258.301 474.757
1468 0 94.2675 14.1512 1334 154.786 258.26 472.933
1469 0 97.206 14.1452 1375 164.275 259.049 470.905
1470 0 103.233 13.9103 1436 163.735 258.683 468.733
1471 1 56.2255 12.6989 714 166.681 257.85 490.223
1472 0 58.0216 13.2192 767 163.737 257.346 488.741
1473 0 62.1224 12.6524 786 164.101 256.598 487.531
1474 0 61.081 13.4575 822 160.125 257.184 487.231
1475 0 65.1036 13.1483 856 159.286 258.502 485.909
1476 0 66.1775 13.5393 896 156.71 257.971 484.477
1477 0 67.1793 13.4119 901 155.663 258.216 483.584
1478 0 70.1313 13.489 946 154.625 257.167 482.045
1479 0 74.1886 13.3039 987 160.107 257.549 480.834
1480 0 76.1434 13.5534 1032 160.225 258.308 479.978
1481 0 77.182 13.5912 1049 150.281 258.482 478.604
1482 0 82.1369 13.2097 1085 151.275 255.429 477.096
1483 0 83.1681 13.6471 1135 145.54 257.863 476.033
1484 0 87.2557 13.4432 1173 149.633 257.017 474.736
1485 0 90.1008 13.5404 1220 150.516 257.729 473.089
1486 0 92.147 13.2614 1222 149.469 256.654 472.083
1487 1 50.1189 11.0737 555 149.564 256.456 493.888
1488 0 51.1753 12.0566 617 153.447 256.958 492.486
1489 0 54.1334 12.3399 668 162.289 256.353 491.421
1490 0 55.0285 12.5208 689 153.852 256.403 490.843
1491 0 57.1162 12.6584 723 156.997 256.577 490.736
1492 0 58.115 12.4753 725 159.004 255.462 489.721
1493 0 60.1157 12.4427 748 151.408 256.614 488.951
1494 0 63.1552 12.493 789 157.383 257.853 488.354
1495 0 63.0344 13.5006 851 160.13 257.355 487.484
1496 0 64.3849 13.0931 843 155.913 257.402 485.548
1497 0 67.1798 13.1736 885 164.102 258.346 484.48
1498 0 69.3771 13.1456 912 157.055 257.689 482.716
1499 0 70.231 13.541 951 164.262 257.589 482.375
1500 0 74.2594 13.2374 983 160.206 256.694 481.056
1501 0 78.268 13.0705 1023 162.524 259.092 479.579
1502 0 79.3343 13.5629 1076 162.388 258.409 478.697
1503 0 83.3085 13.288 1107 167.668 258.441 477.537
1504 0 85.1935 13.4987 1150 168.79 258.589 476.474
1505 0 89.3166 13.1778 1177 171.431 258.737 474.664
1506 0 93.2945 13.3556 1246 171.218 259.768 472.929
1507 0 96.4006 13.1949 1272 161.385 258.725 471.458
1508 1 52.1249 12.1055 631 169.758 256.799 492.597
1509 0 53.1165 12.4067 659 167.123 258.2 491.841
1510 0 56.1102 12.315 691 155.123 258.512 491.153
1511 0 56.0773 12.8038 718 169.883 256.235 490.526
1512 0 58.299 12.5045 729 165.058 257.971 489.652
1513 0 60.2236 12.4702 751 162.289 257.648 488.632
1514 0 62.1098 12.2525 761 169.138 257.679 488.344
1515 0 61.1521 13.1148 802 166.408 257.349 486.776
1516 1 77.4432 13.4163 1039 169.445 258.031 478.685
1517 0 78.5709 13.3383 1048 168.045 258.191 478.768
1518 0 83.4952 13.366 1116 170.692 258.474 476.88
1519 0 86.5411 13.7276 1188 167.216 257.138 475.822
1520 0 87.5144 13.952 1221 164.14 256.938 474.445
1521 0 91.3682 13.8779 1268 169.257 255.091 474.383
1522 0 94.1535 13.6692 1287 168.698 256.95 472.83
1523 0 100.22 13.7697 1380 166.185 256.996 470.585
1524 1 53.0934 12.5063 664 160.387 257.089 492.642
1525 0 55.0967 12.4508 686 157.242 257.996 492.327
1526 0 57.1164 12.3957 708 162.158 258.4 491.79
1527 0 58.1128 12.6822 737 164.65 257.939 491.735
1528 0 60.1308 12.7888 769 164.674 257.811 490.723
1529 0 61.1772 12.8479 786 153.332 255.566 489.674
1530 0 62.285 13.1171 817 163.633 255.846 489.059
1531 0 64.1828 13.0565 838 156.069 255.393 487.406
1532 0 67.2868 13.004 875 165.446 255.386 487.385
1533 0 70.283 12.8338 902 164.906 258.943 485.474
1534 0 72.2577 12.926 934 157.12 258.737 483.69
1535 0 74.3517 13.221 983 164.374 258.852 483.303
1536 0 76.2103 13.0166 992 161.057 257.495 481.776
1537 0 80.2016 13.5658 1088 161.454 256.681 481.174
1538 0 83.3797 12.6769 1057 163.021 256.377 479.191
1539 0 86.3457 13.168 1137 155.04 255.744 477.61
1540 0 85.2898 13.5303 1154 158.181 256.542 476.367
1541 1 48.379 11.7406 568 157.062 257.799 496.424
1542 0 49.088 12.1618 597 158.849 258.449 494.687
1543 0 50.1273 12.0294 603 151.333 256.163 494.053
1544 0 52.0941 12.2279 637 149.16 256.673 493.473
1545 0 55.1516 11.9489 659 151.285 255.939 493.214
1546 0 56.1803 12.2819 690 149.1 256.674 492.665
1547 0 57.4468 12.4811 717 153.427 258.414 491.607
1548 0 59.319 12.5929 747 144.968 257.063 490.237
1549 0 60.2609 12.5289 755 152.016 257.057 490.042
1550 0 62.2304 13.0161 810 147.73 257.079 488.468
1551 0 64.3064 12.6115 811 153.033 258.055 488.493
1552 0 65.2337 13.1527 858 143.534 257.46 487.281
1553 0 66.4302 12.9309 859 150.875 256.992 486.338
1554 0 69.4097 12.9233 897 151.142 257.27 485.104
1555 0 71.1308 12.7371 906 153.786 255.763 483.906
1556 0 74.3919 12.6223 939 151.143 256.573 482.626
1557 0 74.3721 12.9215 961 150.455 257.437 481.878
1558 0 77.4944 12.9558 1004 155.124 255.773 480.693
1559 0 81.4246 12.8217 1044 151.242 255.757 479.493
1560 0 84.3591 12.8617 1085 146.063 254.636 478.181
1561 0 86.3844 13.0463 1127 156.876 253.744 476.869
1562 1 51.2561 11.0426 566 152.751 255.102 495.14
1563 0 53.138 11.4796 610 151.682 255.431 494.164
1564 0 54.1377 12.0249 651 153.948 256.682 494.187
1565 0 55.2527 12.2528 677 143.938 255.855 492.83
1566 0 56.2613 12.7796 719 152.608 255.732 492.281
1567 0 56.1355 12.5945 707 151.106 255.624 491.808
1568 0 60.192 12.3771 745 156.034 254.55 490.701
1569 0 61.0979 12.5863 769 154.19 254.811 489.655
1570 0 63.1054 12.9466 817 153.239 255.971 489.187
1571 0 65.1218 12.7607 831 151.345 253.477 487.638
1572 0 65.2208 13.0173 849 158.684 254.027 487.067
1573 0 69.1988 12.6447 875 154.886 252.501 486.257
1574 0 72.1995 13.5042 975 154.485 253.115 484.344
1575 0 74.4548 13.0415 971 151.721 254.965 483.579
1576 0 75.4328 13.1773 994 163.463 254.406 483.225
1577 0 78.3097 13.5871 1064 160.194 253.686 481.43
1578 0 79.3364 13.6255 1081 165.985 253.123 480.254
1579 0 84.2953 13.429 1132 157.881 254.41 478.384
1580 0 86.3782 13.3135 1150 158.225 251.986 476.824
1581 0 88.4202 13.4698 1191 160.783 252.019 476.034
1582 1 46.2648 11.8881 550 161.187 252.562 497.693
1583 0 47.2411 12.7643 603 159.814 253.91 496.154
1584 0 48.1816 12.6397 609 157.571 254.238 496.269
1585 0 51.2647 11.938 612 160.915 252.332 495.912
1586 0 51.2003 12.6366 647 166.516 254.151 494.989
1587 0 52.1536 13.0001 678 161.133 254.847 494.211
1588 0 54.0987 12.8839 697 161.347 254.455 493.267
1589 0 58.0431 12.6113 732 154.217 253.749 491.876
1590 0 59.0821 13.0327 770 158.134 253.994 492.034
1591 0 60.141 13.1026 788 155.683 254.466 490.803
1592 0 60.1591 13.3313 802 159.615 252.665 490.059
1593 0 61.0937 13.8476 846 154.943 253.965 489.609
1594 0 63.089 13.3621 843 156.622 252.783 488.598
1595 0 66.1188 13.0371 862 154.632 254.223 486.845
1596 0 68.1063 13.244 902 154.841 254.041 486.509
1597 0 70.0778 13.5564 950 158.224 253.681 485.315
1598 0 71.0888 13.6449 970 160.18 252.828 484.591
1599 0 74.1013 13.576 1006 153.296 256.615 483.001
1600 0 77.161 13.6468 1053 151.093 256.734 481.47
1601 0 80.2558 13.4071 1076 160.856 255.905 480.846
1602 0 81.1985 14.0274 1139 157.773 255.89 479.017
1603 0 84.084 13.6054 1144 160.162 254.305 478.471
1604 0 88.27 13.436 1186 162.037 256.815 476.324
1605 0 91.1245 13.4431 1225 156.772 254.922 475.644
1606 1 51.0568 12.3 628 157.896 255.443 495.299
1607 0 52.0296 12.7428 663 156.961 257.955 494.075
1608 0 54.1501 12.6685 686 162.781 256.685 493.343
1609 0 55.1606 12.6902 700 163.229 256.054 492.737
1610 0 57.0789 13.0521 745 162.454 255.317 491.549
1611 0 58.0906 13.0486 758 165.522 255.249 490.865
1612 0 60.0921 13.1631 791 167.023 256.102 490.934
1613 0 63.0879 12.8075 808 167.345 256.016 489.031
1614 0 65.0396 13.0536 849 159.769 255.382 488.286
1615 0 66.1388 13.0634 864 163.135 258.009 487.084
1616 0 68.0847 13.542 922 168.113 256.803 486.62
1617 0 70.2009 13.6038 955 160.741 256.144 484.78
1618 0 72.2562 13.4106 969 159.141 258.244 484.031
1619 0 75.2414 13.7026 1031 169.081 258.698 482.733
1620 0 78.268 13.2366 1036 165.756 256.784 481.816
1621 0 80.3505 13.2544 1065 150.06 256.812 479.743
1622 0 83.3891 13.3231 1111 158.526 258.882 478.841
1623 0 87.3828 13.1948 1153 162.811 257.945 478.073
1624 0 90.3676 13.1242 1186 163.365 260.211 476.831
1625 1 50.1383 11.6079 582 160.574 258.387 496.28
1626 0 50.0779 12.6203 632 160.69 257.506 494.698
1627 0 53.1707 12.0367 640 166.341 256.203 494.323
1628 0 56.1255 12.2048 685 13.8861 256.184 493.388
1629 0 54.1729 12.8662 697 164.624 257.945 492.97
1630 0 56.2744 12.9899 731 167.138 257.436 491.893
1631 0 58.1495 13.173 766 162.926 257.988 491.089
1632 0 59.2433 13.1323 778 165.212 257.186 490.244
1633 0 61.1948 13.2037 808 167.369 256.172 490.087
1634 0 65.0629 13.095 852 162.866 255.864 488.501
1635 0 66.1003 12.8895 852 157.184 256.962 487.05
1636 0 68.1664 13.4084 914 168.631 255.907 486.171
1637 0 70.2673 13.349 938 163.719 257.095 485.81
1638 0 70.1769 13.7795 967 160.962 254.126 484.957
1639 0 74.2774 13.463 1000 161.008 256.367 483.1
1640 0 77.1776 13.294 1026 158.668 256.016 481.661
1641 0 79.1854 13.2474 1049 164.365 256.007 480.562
1642 0 81.1784 13.3779 1086 158.94 255.499 479.935
1643 0 84.2036 13.3486 1124 161.315 256.771 478.076
1644 0 87.2211 13.7352 1198 161.536 260.298 476.799
1645 0 90.1987 13.7807 1243 162.025 256.676 475.58
1646 0 93.2601 13.6286 1271 166.918 258.5 473.591
1647 0 97.1757 13.5013 1312 162.771 260.415 472.678
1648 1 56.0903 12.6938 712 160.272 259.015 492.101
1649 0 57.1185 12.7104 726 161.471 257.021 490.811
1650 0 57.0822 13.4017 765 161.527 257.463 490.095
1651 0 63.1795 12.9314 817 155.001 256.127 489.024
1652 0 61.078 13.4909 824 163.408 258.802 488.534
1653 0 64.0957 13.4486 862 161.971 256.53 487.02
1654 0 65.1405 13.5707 884 160.281 259.124 487.196
1655 0 66.1811 13.9919 926 161.224 256.653 485.211
1656 0 71.2095 13.4954 961 158.76 258.161 484.211
1657 0 73.1154 13.9369 1019 163.611 259.219 483.283
1658 0 75.0837 13.465 1011 164.855 258.936 482.363
1659 0 76.1191 14.0832 1072 163.853 258.745 480.958
1660 0 80.1363 13.8514 1110 166.486 258.292 479.168
1661 0 83.1218 13.5584 1127 164.647 255.581 478.139
1662 0 85.0788 13.8107 1175 159.858 258.145 476.153
1663 0 89.1304 13.6878 1220 161.17 259.448 475.21
1664 0 91.2289 13.636 1244 161.094 258.678 473.345
1665 0 92.1114 13.9505 1285 157.301 259.665 472.481
1666 0 97.212 13.6712 1329 153.47 258.897 470.137
1667 1 50.1295 12.1884 611 150.876 259.974 492.807
1668 0 54.076 12.39 670 153.219 258.131 491.781
1669 0 55.0855 12.7075 700 150.619 255.664 490.981
1670 0 58.0683 12.0203 698 150.037 256.47 490.251
1671 0 60.0919 12.4143 746 150.638 256.631 489.177
1672 0 61.2109 12.4814 764 151.052 257.088 488.012
1673 0 61.2343 12.787 783 149.267 257.116 487.474
1674 0 63.1682 12.4271 785 150.687 257.033 487.183
1675 0 65.0786 12.6001 820 146.491 256.811 485.384
1676 0 66.2418 12.9073 855 146.506 258.784 484.357
1677 0 70.1201 12.9064 905 149.845 256.547 483.68
1678 0 71.1872 13.0361 928 146.224 253.926 483.217
1679 0 73.2972 12.92 947 149.732 254.962 481.504
1680 0 77.3913 12.65 979 153.447 253.876 479.775
1681 0 79.5637 12.7445 1014 155.204 253.657 478.726
1682 0 80.3756 13.0761 1051 150.356 255.482 476.631
1683 1 44.149 11.212 495 152.45 254.796 496.002
1684 0 46.1001 11.5401 532 148.398 254.895 495.365
1685 0 48.17 11.3556 547 152.514 253.759 494.965
1686 0 48.2922 12.4037 599 150.406 256.686 493.928
1687 0 49.0977 12.2409 601 149.76 257.712 493.286
1688 0 52.1241 12.4894 651 148.983 254.356 492.691
1689 0 51.2238 12.787 655 147.653 256.814 491.89
1690 0 54.1761 12.7547 691 152.194 255.315 490.706
1691 0 55.0853 12.998 716 148.441 253.904 489.677
1692 0 56.2426 13.0684 735 148.06 256.185 488.619
1693 0 58.1773 12.9776 755 152.053 255.498 488.072
1694 0 57.2522 13.3095 762 151.13 255.81 487.92
1695 0 61.2458 12.7192 779 151.236 255.99 486.598
1696 0 63.1634 13.6472 862 151.551 256.352 485.017
1697 0 65.2111 13.4946 880 148.982 257.103 485.075
1698 0 66.3595 13.8639 920 151.192 255.776 483.197
1699 0 69.1737 13.6034 941 152.311 257.693 482.103
1700 0 72.2144 13.6399 985 165.273 257.294 481.95
1701 0 75.3542 13.5626 1022 153.267 256.405 479.937
1702 0 77.1264 14.2493 1099 164.006 254.92 478.769
1703 0 80.2448 13.5585 1088 160.541 256.071 477.058
1704 0 81.3936 13.5514 1103 158.26 256.141 475.654
1705 0 85.2835 13.5665 1157 158.491 255.284 474.178
1706 0 90.1555 13.3325 1202 157.993 255.975 472.326
1707 0 92.1519 13.8033 1272 148.748 257.044 470.713
1708 0 94.1926 13.7484 1295 152.757 257.115 469.37
1709 0 99.2125 13.6374 1353 155.768 255.982 468.626
1710 1 53.0688 12.0221 638 157.95 257.417 490.277
1711 0 55.0443 12.499 688 156.424 256.523 488.996
1712 0 55.0525 12.9694 714 144.699 256.405 488.702
1713 0 59.1817 12.6559 749 158.025 256.423 487.884
1714 0 61.0877 13.1614 804 155.071 257.494 486.996
1715 0 64.1345 13.1443 843 156.543 255.674 485.775
1716 0 64.1768 13.3226 855 158.316 255.246 484.526
1717 0 68.0476 13.2554 902 155.72 254.64 483.497
1718 0 69.0877 13.2875 918 162.363 252.652 482.608
1719 0 72.1906 13.3535 964 162.482 253.773 481.606
1720 0 72.1653 13.4552 971 155.164 253.24 480.118
1721 0 76.1371 13.5939 1035 157.201 253.439 477.966
1722 0 78.2577 13.6089 1065 163.793 253.163 477.568
1723 0 81.0842 14.0965 1143 162.157 254.101 475.611
1724 0 85.1685 13.3383 1136 162.522 252.627 474.176
1725 0 87.2136 13.5185 1179 161.848 253.079 472.753
1726 0 91.33 13.4677 1230 162.524 254.104 471.531
1727 0 94.2754 13.6409 1286 157.295 254.887 470.668
1728 0 97.6224 13.7161 1339 162.359 253.635 468.833
1729 1 54.3252 12.057 655 157.086 254.944 490.771
1730 0 57.2321 12.1785 697 159.426 253.126 489.383
1731 0 56.1371 13.5027 758 158.731 257.036 489.533
1732 0 61.1048 12.765 780 150.173 253.914 488.387
1733 0 62.1365 12.9875 807 156.134 255.983 487.032
1734 0 64.0919 13.3246 854 155.189 256.235 486.002
1735 0 66.0668 13.4107 886 157.561 256.105 485.286
1736 0 68.0827 13.6305 928 160.959 255.68 484.192
1737 0 71.1127 13.3872 952 152.813 256.662 483.597
1738 0 72.0729 13.9442 1005 168.023 254.843 482.467
1739 0 74.0995 13.9812 1036 167.347 253.981 481.842
1740 0 78.0874 13.7794 1076 168.411 255.393 480.171
1741 0 79.1375 14.0641 1113 166.285 255.262 479.723
1742 0 81.135 13.9644 1133 163.079 256.051 477.787
1743 0 86.0459 13.9577 1201 162.816 255.027 476.266
1744 0 90.0532 14.0362 1264 163.938 253.697 474.281
1745 0 92.0952 13.8552 1276 166.234 256.096 473.547
1746 0 95.2358 14.0703 1340 169.81 257.306 472.113
1747 0 99.2008 14.1531 1404 165.949 257.961 469.749
1748 0 102.124 14.0907 1439 162.462 254.897 468.553
1749 1 55.1039 12.8122 706 167.242 255.446 491.507
1750 0 57.1185 13.4457 768 166.523 255.504 490.652
1751 0 58.2154 13.2439 771 172.777 255.533 490.425
1752 0 58.2978 13.8427 807 164.171 255.83 489.968
1753 0 61.2048 13.7244 840 170.123 255.745 488.307
1754 0 62.1892 13.7644 856 165.932 256.251 487.863
1755 0 65.1361 13.6023 886 168.459 256.422 486.578
1756 0 68.1503 13.5289 922 158.557 254.144 485.369
1757 0 70.1534 13.8554 972 164.455 253.607 484.205
1758 0 73.2008 13.743 1006 166.186 254.042 483.122
1759 0 75.1801 13.6472 1026 163.694 257.596 482.199
1760 0 78.1987 13.6447 1067 164.104 255.128 481.332
1761 0 80.308 13.7844 1107 160.759 255.904 479.806
1762 0 81.1427 14.0124 1137 164.377 256.425 478.143
1763 0 85.3242 13.7827 1176 160.91 255.862 477.179
1764 0 88.1637 13.9286 1228 159.309 255.585 475.605
1765 0 88.307 14.4043 1272 66.8459 256.066 474.535
1766 0 93.1904 13.9607 1301 161.689 255.777 473.141
1767 0 96.371 13.7593 1326 161.047 255.208 471.621
1768 0 99.3236 13.9745 1388 155 255.206 469.62
1769 0 103.264 13.8577 1431 148.712 255.797 467.581
1770 0 107.219 14.1207 1514 155.657 254.687 465.725
1771 0 109.297 14.0351 1534 158.55 253.933 464.857
1772 0 112.379 14.1574 1591 156.224 255.164 462.529
1773 1 62.1569 12.5971 783 155.309 256.43 487.9
1774 0 64.1662 12.8105 822 153.063 256.251 486.92
1775 0 66.2183 12.9118 855 154.754 256.963 486.482
1776 0 69.1804 12.8794 891 156.34 256.727 484.416
1777 0 71.1084 13.1208 933 156.84 255.429 483.718
1778 0 73.1374 13.3994 980 156.093 256.145 482.595
1779 0 77.2509 13.385 1034 160.984 255.768 481.41
1780 0 79.1474 13.7086 1085 169.618 255.841 480.573
1781 0 81.1308 13.9404 1131 169.828 255.148 479.195
1782 0 84.2587 13.6722 1152 163.407 254.89 478.484
1783 0 86.0946 13.8685 1194 162.525 254.75 476.36
1784 0 88.1405 14.25 1256 166.515 255.94 475.514
1785 0 93.1576 14.0192 1306 160.075 255.23 473.212
1786 0 97.2437 13.9958 1361 167.214 256.74 471.836
1787 0 99.3719 14.0784 1399 170.599 255.267 470.386
1788 0 103.308 13.7646 1422 159.525 254.722 468.685
1789 0 107.256 13.7708 1477 166.024 253.9 467.284
1790 0 110.277 13.6293 1503 163.824 255.024 465.366
1791 0 114.223 13.9727 1596 162.272 253.61 462.937
1792 1 63.0521 12.6879 800 161.244 257.049 488.236
1793 0 64.1541 12.7817 820 156.645 256.213 487.183
1794 0 66.2774 13.5189 896 162.035 254.696 485.423
1795 0 69.1682 13.5612 938 161.732 255.604 484.577
1796 0 72.1866 12.9387 934 164.9 254.894 483.435
1797 0 74.2144 13.3802 993 162.49 255.427 480.922
1798 0 77.2841 13.1981 1020 160.713 255.714 480.148
1799 0 79.242 13.6039 1078 161.384 254.684 479.218
1800 0 82.2333 13.3036 1094 167.261 253.88 478.183
1801 0 85.313 13.2453 1130 167.673 254.535 476.396
1802 0 87.2904 13.7472 1200 164.578 256.408 475.082
1803 0 91.4341 13.3211 1218 161.406 255.747 473.768
1804 0 94.2259 13.7648 1297 166.261 255.773 472.497
1805 0 97.2608 13.3867 1302 157.538 256.584 470.637
1806 0 100.215 13.7204 1375 160.812 255.175 469.119
1807 0 103.268 13.6344 1408 161.465 254.94 467.63
1808 0 105.234 14.0544 1479 169.504 256.473 466.522
1809 0 109.225 14.2916 1561 163.253 255.329 463.725
1810 0 112.151 13.9187 1561 164.047 256.131 462.25
1811 0 117.254 13.8417 1623 164.023 257.295 460.667
1812 0 121.207 14.0586 1704 165.479 257.705 458.046
1813 0 124.176 14.3184 1778 169.206 254.675 456.802
1814 0 127.231 14.1554 1801 171.383 254.252 455.205
1815 0 131.109 14.5451 1907 165.283 256.773 452.344
1816 0 135.199 14.3714 1943 168.42 255.268 450.777
1817 0 140.234 14.3403 2011 156.946 256.255 448.166
1818 0 145.381 14.0665 2045 169.783 256.103 447.324
1819 0 150.341 14.374 2161 164.29 256.955 443.628
1820 0 152.349 14.6703 2235 166.535 256.811 441.039
1821 0 158.294 14.0941 2231 170.559 256.005 439.387
1822 0 162.288 14.7701 2397 166.53 255.119 436.673
1823 0 168.354 14.5408 2448 164.164 257.623 433.389
1824 0 173.382 14.7709 2561 167.056 255.017 431.299
1825 0 179.499 14.4903 2601 158.769 255.991 428.848
1826 0 184.379 14.5082 2675 164.714 255.928 426.554
1827 0 191.561 14.4601 2770 169.258 255.89 423.491
1828 0 197.725 14.4797 2863 165.89 255.615 420.159
1829 1 149.384 14.0912 2105 175.978 255.987 442.709
1830 0 155.207 13.7494 2134 166.98 255.73 439.26
1831 0 159.49 14.1576 2258 166.278 256.99 437.691
1832 0 161.438 14.1231 2280 173.135 255.167 436.373
1833 0 169.404 14.2736 2418 170.435 255.754 433.792
1834 0 174.354 14.0174 2444 168.043 254.639 432.037
1835 0 176.251 14.3659 2532 167.811 253.91 428.533
1836 0 184.509 13.9885 2581 169.392 255.176 425.403
1837 0 191.4 14.5246 2780 171.748 257.02 423.313
1838 0 198.384 14.4366 2864 172.67 258.743 419.648
1839 0 204.259 14.6872 3000 168.894 257.038 415.647
1840 0 213.393 14.9021 3180 169.441 256.357 411.72
1841 0 222.259 14.3122 3181 168.582 258.125 407.919
1842 0 231.342 14.6753 3395 166.525 257.351 403.557
1843 1 59.0913 12.2353 723 154.521 257.842 487.781
1844 0 62.0184 12.6414 784 151.69 258.375 487.168
1845 0 63.1514 12.7788 807 149.491 258.466 487.172
1846 0 66.1486 12.4719 825 154.402 257.12 485.73
1847 0 68.194 12.5671 857 153.298 256.018 484.734
1848 0 72.1939 12.4526 899 155.829 257.263 483.389
1849 0 74.1353 12.3288 914 149.967 257.039 482.817
1850 0 76.2585 12.5756 959 157.098 255.747 481.055
1851 0 80.209 12.5173 1004 156.69 257.061 479.953
1852 0 80.2759 13.0674 1049 155.35 255.845 478.354
1853 0 83.1708 12.5886 1047 157.488 254.848 477.363
1854 0 85.1454 13.1422 1119 153.206 257.14 476.082
1855 0 86.1281 13.2825 1144 153.131 257.279 474.837
1856 0 91.2881 12.7837 1167 157.348 257.033 474.276
1857 1 51.0846 11.432 584 154.832 257.318 493.976
1858 0 52.0734 11.4262 595 156.279 257.143 493.417
1859 0 53.1136 12.2944 653 157.444 256.625 492.879
1860 0 56.0783 12.3221 691 149.637 256.317 491.454
1861 0 55.0471 13.0979 721 153.006 257.14 491.229
1862 0 59.0832 12.5416 741 103.31 257.474 490.343
1863 0 60.0446 12.7072 763 164.832 258.682 489.414
1864 0 62.0624 12.6002 782 161.211 258.875 488.893
1865 0 65.0697 14.8456 966 148.067 257.477 487.976
1866 0 64.0394 13.2418 848 162.867 256.671 486.835
1867 0 65.0783 13.768 896 161.16 257.414 486.59
1868 0 67.0602 13.5997 912 168.155 258.985 485.526
1869 0 69.077 13.8396 956 167.183 257.426 484.549
1870 0 72.0619 13.1554 948 163.328 258.682 483.589
1871 0 73.0553 13.6746 999 156.009 258.597 481.706
1872 0 75.0886 13.6372 1024 169.104 259.791 482.01
1873 0 78.0274 13.585 1060 157.141 258.487 480.429
1874 0 79.0807 13.8972 1099 164.722 257.548 479.037
1875 0 84.0864 13.1888 1109 159.638 258.756 477.94
1876 0 87.1028 13.5243 1178 168.823 257.798 476.011
1877 0 89.1498 13.5839 1211 161.353 258.247 473.744
1878 0 92.0808 13.8248 1273 161.479 257.324 472.54
1879 1 46.0974 12.6471 583 158.94 258.124 493.151
1880 0 50.2543 12.198 613 156.473 257.067 492.454
1881 0 53.1608 12.5092 665 161.568 257.174 491.556
1882 0 53.0225 13.3528 708 160.264 257.908 491.979
1883 0 54.0364 13.5279 731 156.083 258.676 491.949
1884 0 58.0369 12.7677 741 162.163 258.409 491.575
1885 0 58.1181 13.2145 768 159.115 258.651 489.934
1886 0 60.1239 13.4057 806 163.234 257.702 489.403
1887 0 62.1029 13.4293 834 155.035 258.071 488.176
1888 0 63.0836 13.6327 860 160.824 256.951 487.415
1889 0 66.0776 13.3025 879 147.134 256.681 486.122
1890 0 65.0685 14.0314 913 153.798 256.773 485.807
1891 0 68.085 13.7181 934 157.47 256.017 485.364
1892 0 69.0434 13.7595 950 152.979 257.036 484.277
1893 0 71.0845 13.6739 972 154.465 255.19 483.513
1894 0 73.1066 13.7881 1008 155.54 256.418 482.935
1895 0 76.1241 13.6882 1042 151.951 256.265 481.782
1896 0 78.1209 14.516 1134 158.034 253.872 480.211
1897 0 80.09 13.9718 1119 155.442 255.865 478.985
1898 0 83.1392 13.9645 1161 155.345 255.744 478.245
1899 0 86.1474 13.9296 1200 156.482 254.358 476.631
1900 0 87.2115 14.2986 1247 154.751 256.203 474.865
1901 0 90.2129 14.3328 1293 153.923 256.446 473.5
1902 0 95.1258 14.1392 1345 155.993 255.885 471.926
1903 0 98.2026 14.022 1377 151.456 258.827 470.513
1904 0 100.139 14.2002 1422 151.845 257.554 469.077
1905 0 103.228 14.0466 1450 156.468 257.264 467.994
1906 0 108.165 14.256 1542 158.777 256.147 465.566
1907 1 58.096 12.6343 734 157.158 256.213 490.027
1908 0 59.1842 13.2975 787 158.661 255.919 489.456
1909 0 61.1168 13.5315 827 151.04 256.759 488.001
1910 0 63.1649 13.5835 858 157.628 259.258 487.337
1911 0 65.1121 14.0066 912 154.353 256.134 486.959
1912 0 66.096 14.252 942 155.445 256.721 486.218
1913 0 69.225 14.2723 988 153.706 255.67 484.076
1914 0 70.2348 14.2237 999 147.777 257.031 483.275
1915 0 75.1463 14.1191 1061 151.046 256.222 481.792
1916 0 77.2104 14.1043 1089 152.994 254.821 480.316
1917 0 80.2071 13.889 1114 150.943 254.03 479.539
1918 0 82.3449 14.1842 1168 151.94 254.997 478.316
1919 0 83.3042 14.0329 1169 153.544 254.267 476.985
1920 0 86.177 13.9596 1203 150.961 256.098 475.548
1921 0 88.4105 13.9576 1234 152.909 255.592 475.087
1922 0 91.1455 14.0435 1280 155.322 256.392 473.584
1923 0 95.2386 14.1119 1344 156.7 255.276 473.136
1924 0 97.2464 14.3964 1400 154.704 255.058 471.212
1925 0 100.316 14.6239 1467 157.056 253.864 469.815
1926 0 101.194 14.6747 1485 159.27 255.855 468.481
1927 0 107.297 14.5485 1561 153.68 255.717 466.996
1928 0 108.353 14.6374 1586 156.356 254.802 465.722
1929 0 113.416 14.8657 1686 158.272 255.227 463.027
1930 0 120.54 14.7585 1779 159.428 256.512 460.468
1931 1 64.1992 13.4893 866 159.904 259.253 488.639
1932 0 65.2389 13.9181 908 166.557 257.933 487.396
1933 0 67.1945 14.153 951 161.352 257.606 486.391
1934 0 70.189 13.8056 969 164.028 256.719 485.179
1935 0 70.4814 14.1456 997 164.95 256.394 483.917
1936 0 73.2642 13.9359 1021 166.458 255.521 482.725
1937 0 77.2642 14.2369 1100 163.448 256.444 481.463
1938 0 79.1287 14.2173 1125 157.362 256.167 479.956
1939 0 81.416 14.7146 1198 163.484 258.005 478.53
1940 0 83.1057 14.644 1217 164.854 256.642 477.736
1941 0 86.2014 14.8257 1278 164.517 255.994 476.138
1942 0 90.2859 14.5316 1312 163.303 257.168 475.241
1943 0 93.117 14.5301 1353 163.211 255.941 473.593
1944 0 96.1346 14.6877 1412 161.996 255.862 471.35
1945 0 98.0938 14.5983 1432 153.453 257.021 470.323
1946 0 102.134 14.6474 1496 166.347 257.335 469.222
1947 0 106.233 14.7129 1563 161.132 256.985 467.26
1948 0 109.236 14.6014 1595 166.831 257.171 465.505
1949 0 112.073 14.4994 1625 162.263 256.132 464.174
1950 0 117.324 14.2171 1668 167.852 256.044 461.215
1951 1 64.1855 14.0219 900 167.183 256.862 486.707
1952 0 67.0539 14.3914 965 159.8 257.008 485.849
1953 0 70.0475 14.1475 991 165.172 257.325 483.965
1954 0 71.0694 14.2255 1011 164.272 256.274 483.159
1955 0 73.1638 14.4334 1056 167.192 256.387 482.116
1956 0 77.0976 14.3325 1105 173.323 255.414 480.96
1957 0 79.0832 14.6681 1160 171.875 255.126 479.916
1958 0 82.0843 14.7288 1209 172.758 256.477 478.49
1959 0 86.0847 14.4277 1242 173.15 255.735 477.18
1960 0 88.206 14.4208 1272 171.512 257.09 476.628
1961 0 90.1469 14.8979 1343 163.46 256.585 474.495
1962 0 93.1859 14.5086 1352 166.584 256.644 472.779
1963 0 96.2356 14.5684 1402 161.924 256.095 472.016
1964 0 97.2226 14.8319 1442 167.757 256.34 470.807
1965 0 103.222 14.4736 1494 165.637 257.332 469.822
1966 0 104.181 14.9548 1558 159.169 256.613 467.758
1967 0 110.339 14.6095 1612 156.044 257.307 465.092
1968 0 114.166 14.5578 1662 165.378 256.7 463.311
1969 1 62.1086 14.1848 881 163.986 257.571 487.84
1970 0 64.2296 14.3392 921 166.894 257.423 486.494
1971 0 65.0734 14.7372 959 169.009 260.194 485.447
1972 0 67.1165 15.0932 1013 164.249 257.52 484.179
1973 0 71.0998 14.5008 1031 166.934 258.877 483.274
1974 0 73.1183 14.3466 1049 164.65 256.414 481.734
1975 0 75.0657 15.4265 1158 166.606 256.321 480.332
1976 0 78.1067 14.9283 1166 168.844 254.322 479.762
1977 0 79.1313 15.1647 1200 170.746 255.709 478.498
1978 0 84.2182 14.8186 1248 165.953 256.145 476.83
1979 0 86.2033 15.2778 1317 165.05 256.231 475.408
1980 0 89.0851 14.952 1332 167.971 258.444 474.118
1981 0 93.2832 14.9437 1394 171.864 258.079 472.802
1982 0 95.15 15.2811 1454 167.354 256.374 471.676
1983 0 95.15 15.2811 1454 175.114 254.374 471.676
1984 0 104.18 15.1181 1575 169.693 255.66 467.608
1985 0 106.235 15.2304 1618 167.701 257.698 465.866
1986 1 58.0659 14.0702 817 175.781 255.808 489.448
1987 0 60.0682 14.6833 882 171.89 256.541 487.876
1988 0 63.2069 14.4763 915 165.784 256.456 486.593
1989 0 65.1883 14.4811 944 168.924 255.086 485.905
1990 0 66.149 14.8302 981 168.634 254.265 485.072
1991 0 70.0719 14.6849 1029 171.604 256.945 484.224
1992 0 70.0916 15.3799 1078 170.883 255.737 483.294
1993 0 74.1542 14.6586 1087 177.439 255.285 481.773
1994 0 75.1099 15.0846 1133 174.604 255.236 480.339
1995 0 79.0943 15.197 1202 172.251 255.824 478.433
1996 0 80.2655 15.4986 1244 168.727 256.352 476.906
1997 0 84.11 15.3608 1292 168.241 255.651 476.293
1998 0 86.28 15.6004 1346 176.118 256.246 475.128
1999 0 90.2302 15.4715 1396 172.65 257.81 473.678
2000 0 92.325 15.7487 1454 176.327 257.143 472.286
2001 0 97.2136 15.1213 1470 173.199 256.265 470.515
2002 0 100.27 15.2488 1529 175.032 255.466 469.125
2003 0 103.397 15.5323 1606 173.231 257.829 467.258
2004 0 105.24 15.6595 1648 170.456 257.492 464.925
2005 0 111.321 15.5227 1728 166.553 257.075 462.596
2006 0 115.25 15.5662 1794 164.439 256.746 460.858
2007 0 120.235 15.2618 1835 170.191 257.127 458.622
2008 0 125.21 15.1665 1899 166.253 257.917 456.1
2009 1 67.2062 14.1654 952 172.347 258.366 484.629
2010 0 69.1791 14.224 984 169.823 254.727 483.645
2011 0 71.1306 14.382 1023 171.316 257.511 482.584
2012 0 73.2431 14.6225 1071 174.446 256.703 481.383
2013 0 77.2878 14.2066 1098 178.553 257.398 480.982
2014 0 78.3795 14.5701 1142 171.088 256.595 479.246
2015 0 81.3772 14.6601 1193 175.678 259.135 478.192
2016 0 84.3834 14.7659 1246 174.895 257.356 476.815
2017 0 86.4848 14.6384 1266 175.609 257.468 475.682
2018 0 90.342 14.9432 1350 173.93 256.039 474.354
2019 0 92.4136 14.8896 1376 168.55 256.89 472.117
2020 0 96.4652 15.0728 1454 172.994 257.52 471.243
2021 0 100.596 14.5632 1465 169.698 257.988 469.811
2022 0 103.295 14.7829 1527 173.434 258.84 467.862
2023 0 107.346 14.756 1584 174.436 256.775 466.537
2024 1 59.5328 14.3954 857 172.594 257.837 489.511
2025 0 60.3596 14.2645 861 174.213 258.503 488.928
2026 0 62.687 14.6123 916 172.507 257.083 487.862
2027 0 64.5456 14.7338 951 172.448 258.103 486.974
2028 0 65.4506 14.7898 968 171.462 257.967 486.385
2029 0 70.4365 14.6231 1030 169.463 257.188 484.93
2030 0 72.3976 14.5723 1055 175.264 255.992 483.597
2031 0 74.6508 14.7889 1104 171.458 257.029 482.291
2032 0 76.6958 14.7857 1134 174.466 258.127 481.463
2033 0 79.4741 14.986 1191 173.744 256.943 480.16
2034 0 83.4426 14.6568 1223 172.469 256.889 478.631
2035 0 85.3904 14.8143 1265 169.564 256.757 477.623
2036 1 45.4056 13.4124 609 168.744 256.778 496.9
2037 0 47.4532 14.4142 684 171.95 256.791 495.547
2038 0 48.6154 14.8924 724 167.019 257.572 495.228
2039 0 50.3611 15.0513 758 170.739 254.253 494.331
2040 0 51.4203 14.8385 763 172.13 254.634 493.941
2041 0 54.3314 14.8717 808 175.319 255.476 493.092
2042 0 53.4572 15.2084 813 171.121 257.084 492.376
2043 0 57.2564 14.9503 856 169.958 256.929 491.646
2044 0 57.4523 15.5955 896 168.673 256.468 490.744
2045 0 58.4857 15.2858 894 167.452 256.773 490.096
2046 0 62.3382 15.448 963 170.337 255.771 488.9
2047 0 64.4596 15.436 995 172.846 252.596 488.415
2048 0 65.4419 15.4488 1011 170.996 255.499 487.392
2049 0 67.212 15.8454 1065 170.26 255.074 485.852
2050 0 69.3546 15.7596 1093 170.425 255.916 485.148
2051 0 72.2985 15.27 1104 171.259 257.654 484.326
2052 0 74.341 15.5634 1157 172.907 258.524 483.863
2053 0 75.3443 15.834 1193 174.373 256.023 483.054
2054 0 78.3244 16.1125 1262 174.282 256.319 481.414
2055 0 82.3861 15.7551 1298 177.597 256.629 479.972
2056 0 83.7358 15.8713 1329 171.659 256.262 479.264
2057 0 84.8152 16.3886 1390 172.857 256.644 478.194
2058 0 87.3777 15.9423 1393 170.368 258.187 477.793
2059 0 89.3444 16.2293 1450 178.637 256.377 476.692
2060 0 92.3352 16.1693 1493 173.541 254.63 475.046
2061 0 94.3742 16.1591 1525 177.33 256.823 474.442
2062 0 97.4288 15.7962 1539 174.114 257.195 473.162
2063 0 101.395 15.8884 1611 174.31 257.804 471.783
2064 0 105.375 16.3227 1720 175.927 258.082 469.648
2065 0 107.249 16.2146 1739 179.062 259.389 468.442
2066 0 112.327 16.087 1807 172.587 258.618 466.522
2067 0 116.401 16.2628 1893 172.388 258.467 464.698
2068 0 120.484 16.3176 1966 176.041 256.737 462.697
2069 0 123.403 16.3934 2023 169.097 256.245 460.164
2070 0 128.405 16.3078 2094 171.215 254.222 458.214
2071 0 133.419 16.4669 2197 172.04 258.731 456.146
2072 0 138.292 16.2916 2253 174.229 255.879 453.973
2073 0 143.441 16.4806 2364 175.473 259.638 452.138
2074 0 148.477 16.4537 2443 171.323 256.866 449.34
2075 0 153.3 16.3275 2503 170.874 257.604 447.177
2076 0 160.461 16.2719 2611 175.604 257.113 443.53
2077 0 166.384 15.9992 2662 172.892 257.364 440.883
2078 0 170.529 16.0794 2742 164.792 256.836 437.546
2079 1 43.309 14.2234 616 164.932 255.302 498.601
2080 0 43.3252 14.6104 633 161.733 256.163 498.755
2081 0 44.1589 15.2631 674 164.334 257.549 497.677
2082 0 45.421 14.905 677 160.719 258.516 496.709
2083 0 48.3676 14.8653 719 164.702 257.879 495.79
2084 0 49.2507 15.2485 751 160.221 257.069 495.31
2085 0 52.1753 15.0071 783 160.978 259.471 494.596
2086 0 54.1731 15.0813 817 163.929 257.931 494.17
2087 0 54.3741 15.1727 825 168.909 258.099 493.348
2088 0 55.2264 15.8801 877 160.066 257.715 492.219
2089 0 57.3424 16.044 920 166.724 257.604 491.525
2090 0 58.1429 16.1671 940 173.751 258.826 491.313
2091 0 62.2008 16.0609 999 169.118 257.795 490.093
2092 0 64.1748 15.9876 1026 171.866 255.875 489.196
2093 0 64.2619 16.1682 1039 171.247 258.248 488.563
2094 0 65.167 16.3887 1068 171.958 258.488 487.922
2095 0 69.3148 15.9418 1105 168.26 260.073 486.974
2096 0 72.2506 15.9583 1153 169.482 258.346 485.799
2097 0 72.402 16.1736 1171 171.992 258.181 485.367
2098 0 77.3023 15.8081 1222 173.979 256.957 483.421
2099 0 79.4324 15.7367 1250 174.198 258.286 481.991
2100 0 82.4683 15.8485 1307 170.74 259.516 480.945
2101 0 85.4799 15.8985 1359 174.552 258.361 479.726
2102 0 88.654 16.0061 1419 169.957 258.682 477.964
2103 0 92.3653 15.6444 1445 167.795 258.006 476.834
2104 1 45.309 14.4122 653 165.424 257.611 497.93
2105 0 47.4493 14.9212 708 170.626 258.52 497.617
2106 0 47.2707 14.9564 707 163.67 258.556 496.969
2107 0 49.6796 14.674 729 164.779 258.03 496.48
2108 0 49.4067 15.3016 756 153.864 258.373 495.279
2109 0 49.5698 15.6143 774 152.561 260.014 494.525
2110 0 51.4313 15.3992 792 150.048 259.372 494.141
2111 0 52.4445 15.0063 787 156.718 257.499 493.746
2112 0 54.5862 15.0404 821 156.415 257.183 492.886
2113 0 53.8431 15.4152 830 156.439 257.258 492.575
2114 0 56.7053 15.1132 857 156.2 258.215 491.526
2115 0 57.5426 15.015 864 154.874 257.051 491.197
2116 0 59.4362 14.8731 884 154.234 257.863 490.443
2117 0 59.3988 15.2697 907 153.088 256.197 490.392
2118 0 59.7147 15.7248 939 156.905 257.754 489.459
2119 0 60.894 15.5352 946 159.002 257.832 489.043
2120 0 64.5942 14.8465 959 157.22 258.345 488.818
2121 0 62.757 15.8867 997 156.947 257.547 487.457
2122 0 65.6673 15.1369 994 154.487 258.026 486.994
2123 0 66.8926 15.5922 1043 156.766 256.992 486.045
2124 0 69.866 15.1003 1055 156.664 258.045 485.491
2125 0 69.7353 15.9173 1110 156.014 257.396 484.541
2126 0 73.0935 15.7059 1148 161.738 255.948 483.542
2127 0 76.9483 15.6729 1206 157.288 257.474 482.492
2128 0 77.6792 15.9888 1242 154.685 257.818 481.412
2129 0 78.9916 15.8245 1250 157.736 255.953 480.375
2130 0 81.8182 15.9378 1304 156.755 257.285 479.176
2131 0 85.0199 16.008 1361 155.514 258.827 477.64
2132 0 89.6607 16.7409 1501 17.2665 257.932 478.149
2133 0 89.8438 16.3395 1468 160.341 258.386 475.886
2134 0 93.7691 16.1674 1516 162.443 258.683 474.278
2135 0 96.0098 16.3108 1566 159.577 256.669 473.437
2136 0 99.9118 16.3844 1637 167.599 256.939 471.495
2137 0 101.765 16.2336 1652 162.6 257.208 469.999
2138 0 104.61 16.4707 1723 167.13 259.793 469.025
2139 0 109.04 16.3518 1783 166.02 258.486 466.857
2140 0 112.738 16.4806 1858 159.975 258.145 465.542
2141 0 114.979 16.4116 1887 162.792 258.897 464.106
2142 0 118.889 16.3262 1941 168.316 257.757 463.202
2143 0 123.001 16.7967 2066 166.878 257.409 460.757
2144 0 125.792 16.7339 2105 169.027 258.026 459.666
2145 1 65.4296 15.6046 1021 166.171 257.946 487.4
2146 0 68.5222 15.8489 1086 169.146 255.592 485.736
2147 0 70.6134 15.7477 1112 167.593 257.415 484.593
2148 0 73.6131 15.8532 1167 169.658 256.533 483.344
2149 0 75.8298 15.6403 1186 165.682 255.231 482.281
2150 0 77.8875 15.8819 1237 167.065 257.163 481.405
2151 0 79.8315 16.0588 1282 162.678 256.073 480.102
2152 0 82.8905 15.7075 1302 167.4 257.48 478.343
2153 0 85.3357 15.4918 1322 164.833 257.413 476.522
2154 0 91.248 15.2223 1389 167.574 256.334 474.61
2155 0 90.6296 15.4806 1403 167.626 256.154 473.404
2156 0 95.5472 15.3223 1464 166.204 255.972 471.874
2157 0 96.6126 15.2879 1477 167.764 256.046 470.228
2158 0 100.66 15.6467 1575 163.937 256.323 468.449
2159 0 103.123 15.399 1588 163.919 256.166 467.208
2160 0 106.209 15.2153 1616 154.953 258.237 465.848
2161 0 108.552 15.5134 1684 164.018 256.011 464.804
2162 0 111.894 15.2824 1710 159.45 255.843 461.89
2163 0 115.909 15.5467 1802 166.577 256.537 460.599
2164 0 119.656 15.6448 1872 157.673 258.864 458.698
2165 0 123.091 15.7932 1944 159.687 256.318 456.659
2166 0 128.961 15.6482 2018 166.12 257.646 454.992
2167 0 130.586 15.4764 2021 163.548 256.331 453.629
2168 0 134.637 15.3598 2068 168.932 256.375 451.409
2169 0 138.416 15.504 2146 168.945 255.587 449.439
2170 0 144.591 15.6165 2258 165.492 255.349 446.447
2171 0 148.914 15.7607 2347 170.454 255.916 444.917
2172 0 150.46 15.9577 2401 162.184 257.18 442.137
2173 0 159.145 15.9037 2531 170.283 256.359 439.326
2174 0 162.821 15.4894 2522 164.266 256.669 437.999
2175 0 162.931 15.9393 2597 167.073 257.61 438.085
2176 0 168.244 16.0184 2695 170.256 256.913 436.459
2177 0 172.605 16.645 2873 165.92 257.031 433.376
2178 0 177.551 16.384 2909 171.587 256.526 431.592
2179 0 184.84 16.4358 3038 168.613 257.021 427.545
2180 0 190.151 16.4711 3132 161.927 256.652 424.139
2181 0 195.747 16.7563 3280 168.11 256.622 420.802
2182 0 203.446 16.5007 3357 162.093 257.04 416.982
2183 0 213.739 16.7962 3590 161.304 255.786 412.189
2184 0 220.642 16.6016 3663 161.77 256.334 409.556
2185 0 225.637 17.0539 3848 159.109 257.296 405.071
2186 0 232.671 16.4911 3837 165.222 256.802 403.935
2187 0 239.972 17.3562 4165 157.117 258.171 399.898
2188 0 246.128 17.2106 4236 159.637 257.211 396.673
2189 0 254.063 16.8895 4291 159.588 254.992 394.028
2190 1 181.035 15.2401 2759 165.016 256.323 429.768
2191 0 183.196 15.7646 2888 163.535 257.145 428.7
2192 0 185.374 16.1188 2988 166.344 255.68 427.514
2193 0 189.105 16.2291 3069 164.63 256.327 425.53
2194 0 194.324 16.2152 3151 168.927 257.172 423.721
2195 0 197.201 16.3437 3223 166.277 257.777 421.881
2196 0 199.613 16.4869 3291 164.908 256.606 419.981
2197 0 205.302 16.7022 3429 165.625 256.595 417.454
2198 0 212.03 16.9552 3595 171.039 255.245 414.992
2199 1 149.285 15.0116 2241 166.9 257.554 448.081
2200 0 152.434 15.587 2376 174.038 257.712 447.122
2201 0 152.39 15.526 2366 175.673 257.204 447.225
2202 0 157.594 15.578 2455 174.774 257.497 446.089
2203 1 236.34 17.2251 4071 165.252 256.128 405.656
2204 0 236.712 14.8704 3520 173.999 257.118 405.233
2205 0 236.639 15.4328 3652 167.866 256.485 405.084
2206 0 236.06 15.3139 3615 174.56 257.734 405.628
2207 0 236.955 15.4164 3653 173.165 257.205 405.788
2208 1 284.752 16.9762 4834 166.605 256.74 380.231
2209 0 290.634 18.0639 5250 156.136 255.481 375.637
2210 1 229.026 14.0989 3229 166.483 255.986 413.897
2211 0 231.829 13.9111 3225 166.683 254.949 411.979
2212 0 235.957 13.7779 3251 162.94 255.265 410.415
2213 0 237.937 13.6297 3243 167.451 255.052 411.01
2214 0 240.524 14.2564 3429 172.242 256.089 408.386
2215 1 88.3698 16.9062 1494 137.658 255.843 472.761
2216 0 89.4579 17.4943 1565 127.496 252.922 469.737
2217 0 99.4697 14.899 1482 135.539 256.217 471.022
2218 0 100.692 14.877 1498 142.246 257.421 469.783
2219 0 114.784 13.6082 1562 139.207 257.127 468.013
2220 0 104.121 16.3272 1700 132.598 257.916 464.997
2221 1 42.2268 13.1196 554 175.121 256.614 494.709
2222 0 45.2575 12.9039 584 171.308 254.507 493.577
2223 0 45.3617 13.9325 632 163.472 255.122 492.652
2224 0 49.3762 14.5414 718 167.031 254.554 491.235
2225 0 50.2954 14.7131 740 167.561 254.492 490.98
2226 0 52.4555 14.8316 778 164.91 254.454 490.075
2227 0 52.361 14.9539 783 161.284 254.679 489.101
2228 0 54.2247 15.2698 828 158.78 253.448 488.081
2229 0 57.4823 15.7092 903 156.721 255.246 486.796
2230 0 58.3885 15.4996 905 165.83 256.947 486.754
2231 0 58.5538 14.4312 845 173.441 256.551 487.045
2232 0 59.2879 14.32 849 172.263 256.061 486.498
2233 0 61.4168 14.1818 871 176.206 256.225 485.851
2234 0 61.1757 14.63 895 177.664 254.302 484.763
2235 0 72.4366 16.4834 1194 148.147 255.405 480.09
2236 0 72.4344 18.0301 1306 145.985 256.679 478.067
2237 0 76.3666 16.8922 1290 143.802 258.079 477.388
2238 0 77.2312 17.1433 1324 146.026 254.418 476.731
2239 0 78.1968 17.3664 1358 148.91 256.845 475.655
2240 0 79.4555 17.3808 1381 148.041 255.681 475.554
2241 0 78.3142 16.8296 1318 159.316 256.775 475.923
2242 0 79.3149 14.8018 1174 169.693 255.329 476.802
2243 0 82.2757 14.7917 1217 176.687 255.385 475.89
2244 0 83.2916 15.0195 1251 178.392 255.646 474.403
2245 0 87.1329 14.9542 1303 169.272 256.454 473.02
2246 0 89.1187 15.0586 1342 174.778 256.293 471.724
2247 0 91.1347 15.0766 1374 177.71 255.97 470.624
2248 0 95.277 15.0404 1433 171.087 254.806 468.577
2249 0 98.2531 15.1344 1487 166.445 257.154 466.978
2250 0 103.146 14.9594 1543 171.227 256.904 465.255
2251 0 106.107 14.8717 1578 168.721 255.852 463.406
2252 1 53.0729 13.7735 731 169.41 255.094 489.133
2253 0 54.1691 14.0855 763 167.822 256.992 488.874
2254 0 56.0873 14.1565 794 167.657 253.809 488.006
2255 0 56.0585 14.8595 833 169.84 254.876 487.188
2256 0 60.0737 14.2325 855 172.863 254.161 485.558
2257 0 63.1109 14.2765 901 172.756 254.332 484.738
2258 0 64.1046 14.4763 928 171.71 257.75 483.74
2259 0 67.131 14.4792 972 167.064 257.25 482.153
2260 0 67.1169 14.7057 987 170.231 254.272 481.374
2261 0 72.2096 14.1671 1023 171.025 254.289 480.403
2262 0 74.1648 14.4139 1069 170.327 255.652 478.697
2263 0 76.2551 14.7925 1128 170.94 257.643 477.634
2264 0 78.2009 14.6034 1142 168.778 257.795 476.182
2265 0 82.1316 14.4402 1186 171.664 256.672 474.911
2266 0 85.1627 14.5134 1236 160.409 256.743 473.198
2267 0 87.152 14.4919 1263 168.873 254.816 471.703
2268 0 90.2879 14.5756 1316 171.328 256.161 470.247
2269 1 44.1481 12.5713 555 164.683 256.063 493.268
2270 0 47.1442 12.3875 584 156.827 257.533 492.973
2271 0 48.1158 12.553 604 164.373 256.252 492.053
2272 0 48.0361 12.9486 622 166.156 256.309 490.685
2273 0 49.1661 13.1798 648 161.563 257.381 489.404
2274 0 53.1406 12.6269 671 164.593 257.545 489.373
2275 0 55.1916 12.7374 703 160.495 260.743 487.529
2276 0 56.2271 13.0186 732 163.078 257.928 486.522
2277 0 59.0539 12.9543 765 159.953 258.988 485.714
2278 0 61.1464 12.8871 788 162.928 258.924 484.985
2279 0 62.2702 12.8954 803 162.772 259.026 483.857
2280 0 65.0897 13.1204 854 166.047 258.103 482.267
2281 0 68.097 13.4514 916 164.062 259.594 480.925
2282 0 69.2272 13.5496 938 163.761 259.147 479.705
2283 0 73.3231 13.0791 959 160.412 258.682 478.166
2284 0 75.2757 13.3642 1006 162.369 257.303 477.382
2285 0 77.2784 13.3931 1035 162.656 258.159 476.186
2286 0 82.4861 12.984 1071 166.42 257.207 475.083
2287 0 83.2599 13.2236 1101 163.29 259.492 473.684
2288 0 87.2545 13.4778 1176 160.468 256.739 471.227
2289 0 89.1516 13.4266 1197 154.891 256.942 470.357
2290 1 46.1125 11.7322 541 160.153 259.218 492.699
2291 0 47.3088 12.0274 569 158.935 259.617 491.703
2292 0 49.2654 11.9353 588 158.361 260.048 490.952
2293 0 48.2138 12.6312 609 155.639 255.964 490.611
2294 0 52.2378 12.0602 630 159.167 256.013 489.762
2295 0 53.2009 12.0299 640 158.02 259.955 489.812
2296 0 55.2175 12.0795 667 155.76 256.306 488.904
2297 0 55.1428 12.7125 701 161.765 258.384 488.646
2298 0 58.2265 12.5029 728 154.004 258.672 487.655
2299 0 58.1538 12.7937 744 151.75 257.097 486.27
2300 0 61.1602 12.8678 787 147.006 259.341 485.131
2301 0 63.2182 12.8444 812 148.153 259.985 483.522
2302 0 68.256 12.4092 847 151.894 258.046 482.629
2303 0 68.1711 12.5713 857 152.092 256.923 482.172
2304 0 69.4274 12.6895 881 149.334 256.384 481.103
2305 0 73.2675 12.7751 936 150.591 255.891 479.66
2306 0 75.1927 12.5411 943 149.963 255.727 478.422
2307 0 78.2695 12.9169 1011 152.354 257.729 476.77
2308 0 80.3912 12.8123 1030 146.439 257.475 475.008
2309 0 83.3714 13.17 1098 152.438 258.965 474.616
2310 0 86.1995 13.2367 1141 150.068 258.532 472.861
2311 0 88.2144 13.2065 1165 150.041 257.46 471.47
2312 0 92.2908 12.7965 1181 148.689 259.889 469.816
2313 0 94.2892 13.151 1240 149.255 256.79 468.735
2314 0 98.1403 13.2565 1301 152.969 258.311 466.968
2315 0 103.192 13.0533 1347 157.023 259.434 465.733
2316 1 54.0936 11.1843 605 149.955 256.779 490.559
2317 0 54.19 11.7549 637 153.221 256.912 489.309
2318 0 58.1976 11.8734 691 154.446 259.369 488.518
2319 0 59.14 12.3436 730 155.141 258.032 486.87
2320 0 61.038 12.271 749 155.323 258.401 486.376
2321 0 63.1113 12.5493 792 150.692 259.432 485.705
2322 0 66.1014 12.3144 814 151.075 257.188 483.994
2323 0 68.0603 12.0481 820 156.88 257.12 483.422
2324 0 71.0486 12.7096 903 155.357 260.779 481.752
2325 0 73.0865 12.9846 949 160.658 257.11 480.884
2326 0 75.1488 12.8146 963 154.668 256.708 480.215
2327 0 78.1567 13.0123 1017 160.505 257.248 478.524
2328 0 80.1098 12.9697 1039 164.735 258.195 477.344
2329 0 83.1817 12.9476 1077 158.539 259.062 475.135
2330 0 87.2248 12.7601 1113 159.822 258.526 473.578
2331 0 89.1412 12.9009 1150 163.73 259.915 471.799
2332 1 47.0748 11.195 527 155.49 258.503 493.065
2333 0 48.11 12.0349 579 155.055 257.893 492.197
2334 0 50.1877 12.0946 607 149.712 259.295 491.341
2335 0 52.2754 12.4533 651 154.028 259.134 490.3
2336 0 53.1503 12.6058 670 157.381 258.276 490.075
2337 0 52.3077 13.4206 702 156.053 258.293 489.291
2338 0 57.2161 12.881 737 158.133 257.464 487.72
2339 0 57.2075 13.1801 754 158.735 256.611 487.007
2340 0 58.2448 13.3231 776 153.969 258.71 486.378
2341 0 60.0626 13.3194 800 154.926 257.578 485.686
2342 0 62.1531 13.1932 820 157.11 257.054 485.274
2343 0 63.1064 13.6436 861 153.797 258.12 484.247
2344 0 66.1051 13.2062 873 162.899 259.943 483.111
2345 0 66.0847 13.4827 891 157.256 259.314 482.807
2346 0 70.1112 13.0935 918 156.249 258.764 481.585
2347 0 72.204 13.5865 981 159.965 257.193 480.469
2348 0 72.2734 14.0854 1018 159.935 258.898 479.729
2349 0 75.0816 13.825 1038 153.408 257.047 478.067
2350 0 77.1036 13.8904 1071 156.721 259.833 477.268
2351 0 80.0862 13.8476 1109 155.511 259.884 475.275
2352 0 82.07 14.183 1164 158.292 256.871 474.143
2353 0 87.1115 13.8443 1206 154.749 257.223 471.975
2354 0 90.1928 13.9146 1255 150.117 256.342 469.991
2355 0 94.1883 13.7491 1295 152.621 257.888 468.411
2356 0 98.2172 13.7043 1346 154.445 257.42 466.982
2357 1 48.0745 12.1478 584 154.317 256.916 491.449
2358 0 50.2569 12.5356 630 154.662 257.148 490.79
2359 0 53.0819 13.0365 692 150.376 256.76 489.263
2360 0 53.2869 13.174 702 156.128 257.088 488.866
2361 0 56.1239 12.7753 717 159.404 257.82 488.124
2362 0 56.3322 13.3849 754 75.5345 257.08 487.105
2363 0 57.2974 13.3514 765 157.925 258.108 487.18
2364 0 59.2631 13.5835 805 162.158 256.978 486.292
2365 0 62.3312 13.5566 845 158.212 256.78 484.636
2366 0 65.1436 13.9077 906 165.578 257.211 484.182
2367 0 67.3858 13.6379 919 163.879 257.898 482.497
2368 0 68.3017 13.5136 923 168.878 257.156 482.036
2369 0 70.2652 13.8618 974 173.072 258.408 481.221
2370 0 71.3278 13.7534 981 166.882 258.748 479.856
2371 0 74.3547 13.8391 1029 164.671 257.625 478.797
2372 0 76.3658 13.8413 1057 161.108 257.29 477.539
2373 0 79.3233 13.7034 1087 169.127 258.789 475.764
2374 0 81.2024 13.5957 1104 168.463 257.713 474.902
2375 0 83.4519 14.2717 1191 166.188 257.591 473.148
2376 0 85.5516 14.0032 1198 155.693 258.003 472.291
2377 0 87.4642 14.2344 1245 170.049 257.327 471.449
2378 0 92.5721 14.0971 1305 166.775 255.096 469.166
2379 0 95.5575 14.1381 1351 162.231 255.636 466.483
2380 0 98.5193 14.1698 1396 170.567 256.648 465.915
2381 0 102.581 14.0962 1446 167.393 257.658 464.731
2382 0 106.149 13.8861 1474 167.146 258.996 463.665
2383 1 58.0768 12.5179 727 168.598 256.182 487.212
2384 0 58.0778 12.9998 755 155.372 258.84 486.711
2385 0 60.3292 13.1446 793 162.953 259.459 486.076
2386 0 63.1413 12.8125 809 167.095 257.646 484.986
2387 0 64.1874 13.5385 869 164.415 259 483.537
2388 0 68.3539 13.1814 901 169.401 257.31 482.151
2389 0 70.2089 13.3886 940 163.732 257.394 481.095
2390 0 72.348 13.2001 955 171.918 255.44 480.448
2391 0 72.4257 13.8211 1001 168.525 255.772 478.945
2392 0 77.5608 13.5764 1053 168.685 257.698 477.275
2393 0 79.4269 13.7737 1094 165.422 255.098 475.719
2394 0 83.3091 13.5519 1129 172.122 255.578 474.107
2395 0 85.698 13.8276 1185 168.994 256.481 472.613
2396 0 88.6097 13.8924 1231 169.192 257.207 471.748
2397 0 90.7307 13.8872 1260 167.033 257.402 469.995
2398 0 95.2253 14.0509 1338 166.836 258.003 468.105
2399 0 98.2414 13.874 1363 166.461 257.342 466.965
2400 1 54.2934 12.6719 688 165.5 258.763 488.788
2401 0 56.3871 12.7866 721 169.334 257.707 487.616
2402 0 58.3577 13.2973 776 162.82 257.793 486.186
2403 0 59.4074 13.601 808 166.129 257.666 484.941
2404 0 61.5133 13.428 826 159.953 258.192 484.472
2405 0 64.6395 13.3046 860 161.859 257.247 483.541
2406 0 64.323 13.5877 874 161.054 257.439 482.907
2407 0 68.3397 13.3305 911 171.304 258.721 481.965
2408 0 68.3918 13.9637 955 161.357 258.353 480.588
2409 0 71.3837 13.9528 996 154.365 257.32 479.318
2410 0 73.5997 13.9131 1024 167.188 256.493 478.166
2411 0 75.7026 13.5398 1025 156.324 258.248 476.602
2412 0 78.3467 13.8742 1087 165.781 257.48 475.662
2413 0 80.448 14.0712 1132 159.964 259.341 474.168
2414 0 83.1946 14.2798 1188 160.502 256.816 472.356
2415 0 86.1484 14.0571 1211 163.761 258.955 471.159
2416 0 89.4198 14.225 1272 162.681 256.763 469.668
2417 0 93.9142 14.3429 1347 165.203 259.172 468.409
2418 0 95.4402 14.2602 1361 164.765 256.387 466.831
2419 0 99.4452 14.2189 1414 163.781 258.718 465.859
2420 0 101.518 14.3128 1453 163.269 258.698 463.716
2421 0 106.516 14.195 1512 162.881 259.496 462.454
2422 0 108.408 14.1779 1537 168.043 259.889 460.76
2423 1 57.3343 12.8544 737 161.915 257.878 486.665
2424 0 59.1892 12.8571 761 166.792 257.309 485.352
2425 0 59.4617 13.1345 781 166.165 258.187 484.898
2426 0 62.3562 13.3427 832 162.53 257.409 484.27
2427 0 63.3287 13.7221 869 154.809 257.274 482.064
2428 0 67.4412 13.6267 919 165.555 258.34 480.743
2429 0 67.248 14.1268 950 157.854 259.911 479.687
2430 0 70.3258 13.9067 978 159.231 259.904 478.717
2431 0 72.292 14.1233 1021 162.396 260.089 477.856
2432 0 74.4776 14.313 1066 166.179 260.529 476.451
2433 0 79.2747 14.1155 1119 160.842 259.133 474.953
2434 0 79.2784 14.5815 1156 163.569 259.842 473.787
2435 0 84.2789 14.0367 1183 161.415 259.075 472.299
2436 0 86.5307 13.9604 1208 159.596 257.451 470.867
2437 0 89.3722 13.9529 1247 157.415 258.673 469.612
2438 0 90.4274 14.3872 1301 151.031 257.974 467.703
2439 0 96.322 14.0051 1349 162.612 259.216 466.455
2440 0 99.3616 14.0195 1393 156.669 258.724 464.657
2441 1 51.1964 12.872 659 158.299 257.938 487.965
2442 0 52.2117 13.158 687 160.448 260.035 486.837
2443 0 56.066 12.7707 716 158.708 258.187 486.275
2444 0 58.0691 12.6401 734 156.337 257.604 485.677
2445 0 59.0857 12.9473 765 152.939 260.267 484.299
2446 0 60.1029 13.427 807 153.289 260.338 483.565
2447 0 63.1044 12.9151 815 157.025 260.177 482.279
2448 0 65.196 13.4824 879 155.007 258.986 481.137
2449 0 66.1852 13.4924 893 157.212 258.468 480.346
2450 0 68.1098 13.7278 935 155.599 257.179 479.04
2451 0 73.2189 13.6577 1000 160.894 258.103 477.258
2452 0 75.2242 13.5728 1021 160.589 258.114 475.945
2453 0 78.3226 13.3806 1048 159.24 260.475 474.309
2454 0 82.1798 13.5313 1112 158.549 259.308 472.716
2455 0 85.3757 13.5636 1158 160.586 260.451 470.806
2456 0 89.2806 13.676 1221 158.78 259.139 468.878
2457 0 92.1497 13.5215 1246 159.612 258.174 468.292
2458 1 49.0199 12.0359 590 155.153 258.42 489.334
2459 0 50.0315 12.2123 611 162.702 259.863 488.502
2460 0 51.1433 12.8658 658 157.331 258.208 487.927
2461 0 54.1416 12.5781 681 162.821 259.853 486.734
2462 0 55.224 12.7662 705 162.108 259.282 486.468
2463 0 57.0806 12.7714 729 157.49 257.981 485.226
2464 0 58.0962 12.9957 755 161.82 258.313 484.029
2465 0 60.0838 12.9486 778 156.62 258.41 482.888
2466 0 62.1549 12.8711 800 157.706 257.246 481.816
2467 0 64.0985 13.1672 844 157.344 258.982 480.777
2468 0 66.2343 13.2711 879 156.301 258.375 479.981
2469 0 66.1179 13.4608 890 165.212 259.702 478.812
2470 0 68.2099 13.6637 932 162.469 260.32 477.598
2471 0 72.253 13.1759 952 158.921 259.126 476.346
2472 0 72.1875 13.5619 979 153.54 260.809 475.302
2473 0 77.1714 13.1266 1013 157.812 259.668 473.367
2474 0 79.1337 13.2434 1048 156.542 260.998 472.474
2475 0 81.1792 13.4517 1092 158.5 262.365 471.126
2476 0 85.2418 13.0922 1116 161.374 261.015 470.236
2477 0 87.1784 13.4093 1169 164.686 260.509 468.311
2478 0 91.1332 13.387 1220 161.968 260.095 466.67
2479 1 50.1723 11.9787 601 157.037 260.351 487.426
2480 0 52.1354 12.3716 645 153.865 260.143 486.046
2481 0 52.2108 12.6219 659 155.733 260.414 485.349
2482 0 55.2297 12.4933 690 153.241 260.403 484.329
2483 0 57.1832 12.8359 734 156.072 260.437 483.416
2484 0 59.1585 12.8975 763 160.263 259.072 482.851
2485 0 60.1837 12.9271 778 155.446 260.778 482.156
2486 0 62.128 12.8927 801 159.991 261.084 481.327
2487 0 62.24 13.0623 813 165.851 260.882 480.604
2488 0 66.4202 13.1436 873 164.34 261.715 479.35
2489 0 66.2189 13.4856 893 161.95 261.511 478.697
2490 0 69.1523 13.3618 924 164.609 261.826 478.049
2491 0 70.1578 13.3413 936 163.795 263.306 477.376
2492 0 73.2306 13.2458 970 164.802 260.979 475.732
2493 0 73.2045 13.8243 1012 170.643 263.246 474.798
2494 0 78.2939 13.2833 1040 164.308 260.953 473.238
2495 0 81.1513 13.4317 1090 161.172 258.709 471.455
2496 0 83.2038 13.6412 1135 163.135 260.515 470.517
2497 0 85.2601 13.6758 1166 162.584 259.009 469.365
2498 0 90.2258 13.3221 1202 161.824 260.888 467.847
2499 1 46.1515 11.8306 546 158.907 259.729 488.244
2500 0 48.1118 12.4502 599 160.27 259.888 487.434
2501 0 49.1734 12.4051 610 159.856 259.749 486.616
2502 0 50.1344 12.9252 648 164.213 260.225 485.554
2503 0 51.1379 13.3169 681 159.695 260.739 484.667
2504 0 53.1387 13.5871 722 161.558 261.169 483.785
2505 0 56.1176 13.1331 737 158.472 260.916 482.733
2506 0 57.1978 13.4446 769 162.928 261.049 481.741
2507 0 58.2098 13.6059 792 163.515 259.785 480.851
2508 0 59.3368 13.9711 829 162.932 260.758 479.811
2509 0 62.238 13.5448 843 165.51 259.907 479.403
2510 0 64.1724 13.7442 882 65.4206 259.299 478.05
2511 0 67.4697 13.7988 931 162.26 259.36 477.229
2512 0 68.4469 13.8355 947 163.542 259.007 475.621
2513 0 71.2991 13.815 985 164.239 261.95 473.9
2514 0 75.4022 13.7264 1035 159.543 262.267 472.226
2515 0 76.5104 14.0765 1077 163.651 261.832 470.907
2516 0 79.5979 14.1838 1129 160.568 260.022 469.336
2517 0 82.5554 13.712 1132 160.292 260.625 468.595
2518 0 85.5119 13.6823 1170 156.609 259.156 466.842
2519 0 89.3617 13.8874 1241 158.503 260.919 465.366
2520 0 91.4985 14.0439 1285 154.519 261.684 463.177
2521 0 95.3731 13.9452 1330 153.03 262.567 461.878
2522 1 50.0882 12.458 624 154.984 262.681 484.04
2523 0 53.1325 12.9111 686 150.066 261.227 482.835
2524 0 54.2118 12.5434 680 152.212 261.254 482.25
2525 0 55.0789 13.2174 728 150.934 262.894 481.544
2526 0 57.0594 12.8813 735 152.272 263.971 480.313
2527 0 59.1548 13.2364 783 157.328 263.658 479.309
2528 0 61.1513 12.9188 790 145.703 264.723 477.891
2529 0 63.0791 13.6337 860 151.391 263.338 477.222
2530 0 65.1135 13.392 872 155.245 262.86 476.578
2531 0 66.1376 13.5324 895 155.068 262.606 475.458
2532 0 69.134 13.5534 937 157.305 263.884 474.098
2533 0 69.0923 13.7063 947 158.892 265.145 473.353
2534 0 73.1285 13.7566 1006 149.534 264.226 471.474
2535 0 73.2216 14.0259 1027 153.047 263.403 471.08
2536 0 78.2758 13.593 1064 160.579 262.988 470.179
2537 0 80.1021 13.8074 1106 162.446 262.174 468.88
2538 0 81.192 13.9669 1134 158.787 263.822 468.093
2539 0 84.1633 14.0798 1185 158.594 260.35 466.543
2540 0 86.2536 14.4342 1245 154.109 261.413 464.165
2541 0 90.2826 14.4657 1306 149.011 263.691 463.279
2542 0 94.2787 14.0859 1328 161.209 262.13 461.274
2543 0 97.1628 14.3676 1396 154.696 261.499 458.087
2544 0 101.201 14.2686 1444 161.447 261.222 457.688
2545 0 105.303 14.1591 1491 160.666 263.007 455.769
2546 1 57.1862 12.538 717 162.742 261.194 480.001
2547 0 57.1273 13.1111 749 156.276 261.45 479.234
2548 0 61.1159 12.599 770 162.792 261.397 478.838
2549 0 61.1294 12.9561 792 163.221 260.795 477.451
2550 0 63.0755 12.8893 813 160.13 261.305 476.588
2551 0 65.0722 13.1546 856 159.041 263.083 474.555
2552 0 66.1006 13.6307 901 168.36 261.688 474.343
2553 0 69.121 13.5849 939 160.372 261.558 472.83
2554 0 73.1351 13.4272 982 163.129 261.968 471.951
2555 0 74.1028 13.3463 989 158.382 262.027 471.276
2556 0 76.2278 13.6958 1044 161.712 263.441 469.298
2557 0 76.2886 14.1174 1077 158.344 261.056 468.317
2558 0 81.2002 13.7808 1119 163.98 260.769 467.517
2559 0 84.11 13.7796 1159 164.626 261.05 465.705
2560 0 87.2006 13.704 1195 156.387 260.409 463.904
2561 0 91.1448 13.8132 1259 156.167 261.786 462.157
2562 0 92.2268 14.0089 1292 162.806 261.145 461.117
2563 0 94.2602 14.2266 1341 156.383 261.722 458.875
2564 0 97.1484 14.1536 1375 157.28 262.404 457.678
2565 0 101.178 14.0842 1425 159.775 262.752 456.124
2566 0 102.293 14.566 1490 158.156 262.632 454.692
2567 0 107.173 14.3506 1538 153.929 261.175 452.949
2568 1 57.1211 12.0971 691 159.87 261.24 478.469
2569 0 57.039 12.9911 741 158.347 260.474 477.25
2570 0 60.0593 12.3878 744 155.524 260.484 476.532
2571 0 60.0909 13.5961 817 160.677 259.748 475.585
2572 0 62.1039 13.3969 832 152.746 260.822 474.143
2573 0 65.1448 13.4623 877 151.643 261.92 473.255
2574 0 67.0614 13.182 884 154.235 261.794 472.906
2575 0 70.0854 13.2125 926 155.487 261.043 471.149
2576 0 73.1588 13.4365 983 157.461 262 470.57
2577 0 74.0963 13.2935 985 158.174 259.83 469.538
2578 0 75.2609 13.4466 1012 147.213 260.914 467.455
2579 0 80.3148 13.472 1082 156.987 260.707 466.143
2580 0 82.2252 13.8036 1135 151.581 259.493 464.233
2581 0 86.2448 13.5892 1172 159.667 260.143 463.126
2582 0 89.2564 13.3996 1196 160.489 260.201 462.656
2583 0 91.2407 13.8315 1262 152.746 259.777 460.583
2584 0 95.1435 13.6005 1294 166.815 260.007 458.993
2585 0 98.1916 13.9014 1365 154.653 259.651 457.475
2586 0 102.14 13.8143 1411 159.158 258.776 455.098
2587 0 103.207 13.9429 1439 163.5 261.892 453.024
2588 1 57.1632 12.683 725 157.366 259.97 476.943
2589 0 58.0341 13.4576 781 155.991 261.476 477.05
2590 0 59.0615 13.4775 796 158.46 260.726 475.549
2591 0 61.1124 13.5652 829 152.842 261.931 475.057
2592 0 66.046 12.9304 854 153.467 261.981 473.425
2593 0 68.065 12.9435 881 155.294 263.395 472.529
2594 0 67.1373 13.3756 898 153.81 263.644 472.024
2595 0 71.0816 13.3086 946 158.268 262.095 469.945
2596 0 74.072 13.5004 1000 14.113 261.934 467.965
2597 0 77.0996 13.3464 1029 157.439 261.493 467.735
2598 0 80.124 13.3668 1071 150.247 262.136 466.845
2599 0 83.1072 13.4886 1121 157.073 260.954 465.003
2600 0 83.0775 13.7462 1142 154.747 260.514 464.018
2601 0 88.0659 13.6489 1202 155.147 258.988 461.873
2602 0 92.1448 13.8369 1275 154.018 260.555 460.044
2603 0 94.1936 13.6527 1286 158.102 258.093 458.731
2604 0 96.1062 13.5787 1305 160.131 259.979 457.442
2605 0 100.073 13.9598 1397 156.674 260.59 455.675
2606 0 105.128 13.9544 1467 151.021 262.945 453.701
2607 0 108.098 13.5433 1464 159.772 261.566 451.823
2608 1 58.1015 12.788 743 154.069 261.585 476.444
2609 0 60.1462 12.6691 762 154.193 260.088 475.348
2610 0 61.1401 13.0193 796 156.031 260.535 475.147
2611 0 65.1014 13.1948 859 156.806 262.306 474.183
2612 0 67.087 13.326 894 149.012 259.918 472.49
2613 0 68.0988 13.2161 900 154.838 262.384 471.987
2614 0 68.1451 13.618 928 152.639 262.164 470.23
2615 0 72.1352 13.3083 960 154.533 263.996 468.996
2616 0 75.0679 13.4412 1009 148.949 260.15 467.432
2617 0 78.2705 13.3895 1048 146.67 261.739 466.941
2618 0 79.1622 13.5544 1073 152.967 260.578 465.24
2619 0 82.098 13.6179 1118 154.207 260.566 463.759
2620 0 86.167 13.6247 1174 142.332 261.017 462.719
2621 0 89.1546 13.8075 1231 149.229 261.387 460.892
2622 0 92.2247 13.4671 1242 153.313 260.737 459.164
2623 0 93.1167 13.8751 1292 151.037 262.252 457.262
2624 0 99.1096 13.6314 1351 148.286 263.99 454.503
2625 0 102.206 13.4435 1374 153.456 262.694 453.779
2626 0 106.125 13.7385 1458 149.784 262.599 450.472
2627 1 59.1735 10.9171 646 150.528 263.478 476.946
2628 0 60.089 11.5495 694 145.731 263.118 475.771
2629 0 60.1753 12.5965 758 146.943 263.792 475.116
2630 0 64.1221 12.445 798 145.67 262.998 473.766
2631 0 66.1132 12.6299 835 141.793 262.974 472.666
2632 0 67.1386 13.1072 880 143.286 261.856 471.327
2633 0 70.1927 12.7079 892 139.559 262.226 470.172
2634 0 70.0965 12.8822 903 147.343 262.488 469.662
2635 0 73.1882 13.3901 980 146.332 262.763 467.989
2636 0 76.113 12.5603 956 147.108 262.253 466.894
2637 0 78.0762 13.2947 1038 146.046 261.697 465.641
2638 0 81.2369 12.8759 1046 142.738 261.51 465.092
2639 0 81.1962 13.375 1086 142.72 260.385 463.734
2640 0 84.1339 13.2289 1113 144.822 259.947 462.714
2641 0 87.1633 13.1822 1149 147.807 260.984 461.121
2642 0 90.1917 13.4159 1210 138.896 261.453 458.827
2643 0 92.1153 13.266 1222 144.676 260.099 457.856
2644 0 96.2085 13.5435 1303 143.001 259.041 456.193
2645 0 101.289 13.0913 1326 142.252 261.353 455.263
2646 0 104.133 13.1755 1372 150.451 258.559 452.949
2647 1 54.043 11.3613 614 148.917 259.505 477.559
2648 0 56.1006 11.9606 671 152.34 259.976 475.566
2649 0 56.0848 12.5524 704 149.845 261.288 474.695
2650 0 60.1026 12.4953 751 150.787 259.993 476.072
2651 0 59.199 13.48 798 150.1 259.954 475.076
2652 0 62.0702 13.3397 828 150.159 260.393 473.809
2653 0 66.1558 12.6822 839 151.925 261.579 472.645
2654 0 68.1403 13.12 894 140.78 261.163 470.502
2655 0 72.1525 12.5429 905 152.672 261.947 470.063
2656 0 72.1283 13.1016 945 152.852 260.309 468.709
2657 0 74.1308 13.2334 981 154.788 261.166 467.85
2658 0 77.1385 13.2359 1021 154.735 260.282 465.904
2659 0 81.1722 13.3543 1084 150.035 261.067 464.761
2660 0 83.151 13.0125 1082 150.552 261.014 463.269
2661 0 87.244 13.7201 1197 153.712 262.054 461.695
2662 0 90.2562 13.506 1219 154.483 261.453 460.31
2663 0 93.4097 13.6817 1278 155.737 261.521 458.601
2664 0 96.3064 13.7893 1328 158.282 262.51 457.018
2665 0 100.27 13.6232 1366 151.46 260.549 454.821
2666 0 104.31 13.9009 1450 153.074 261.608 452.966
2667 0 107.247 13.9491 1496 150.953 260.74 451.541
2668 1 53.1729 12.0926 643 163.14 262.056 478.459
2669 0 55.1449 12.3674 682 159.211 260.676 477.771
2670 0 57.1077 12.9755 741 161.648 260.657 476.918
2671 0 57.0477 13.0067 742 163.309 261.482 476.232
2672 0 60.1729 13.295 800 165.054 260.838 475.41
2673 0 61.1202 13.2526 810 162.685 263.233 473.668
2674 0 63.1427 13.4932 852 161.315 264.507 472.988
2675 0 64.2288 13.5765 872 168.154 261.503 472.163
2676 0 68.1568 13.5423 923 159.885 262.989 471.594
2677 0 71.2525 13.6136 970 157.294 263.85 469.992
2678 0 72.1029 13.564 978 158.967 262.054 469.517
2679 0 74.3192 14.061 1045 160.501 262.344 468.495
2680 0 78.182 13.8907 1086 157.379 262.369 467.565
2681 0 78.2817 14.039 1099 159.258 261.476 466.175
2682 0 82.2498 14.1034 1160 151.383 264.801 464.425
2683 0 85.2479 13.7599 1173 149.737 261.658 463.831
2684 0 86.1591 14.2875 1231 160.362 262.881 462.332
2685 0 90.3044 13.9417 1259 159.524 260.745 459.579
2686 0 92.4035 14.0471 1298 167.16 261.913 459.102
2687 0 97.2304 14.008 1362 165.327 261.103 457.472
2688 0 101.153 14.0876 1425 159.048 260.573 455.084
2689 1 54.0739 13.0747 707 159.39 259.628 477.747
2690 0 55.169 12.8696 710 167.435 261.11 477.313
2691 0 58.2431 12.8771 750 158.136 260.768 475.977
2692 0 60.1262 12.8729 774 166.676 261.851 474.96
2693 0 60.1598 13.4641 810 172.995 260.919 474.298
2694 0 64.2212 13.1576 845 170.427 260.488 473.04
2695 0 65.14 13.5554 883 159.573 260.12 471.341
2696 0 68.2077 13.4735 919 165.581 260.262 470.679
2697 0 70.2161 13.786 968 164.153 262.158 468.18
2698 0 71.1936 14.2148 1012 156.312 260.019 467.058
2699 0 74.2427 14.1024 1047 165.021 261.04 466.029
2700 0 76.1971 13.8719 1057 169.29 260.377 464.938
2701 0 78.2818 14.2817 1118 171.075 260.436 463.843
2702 0 81.209 14.1856 1152 171.969 259.581 462.94
2703 0 85.2205 14.0459 1197 165.317 259.79 461.235
2704 0 89.2805 13.9224 1243 166.253 260.059 459.699
2705 0 91.1584 14.228 1297 157.216 260.11 457.354
2706 0 93.2926 14.0633 1312 168.87 259.988 456.723
2707 0 98.2995 14.2117 1397 166.203 259.717 453.894
2708 1 54.1016 13.3822 724 169.554 261.258 474.22
2709 0 54.13 13.4122 726 165.337 260.602 473.996
2710 0 57.0584 13.5475 773 166.612 260.717 473.202
2711 0 56.2548 14.0788 792 164.097 261.12 472.476
2712 0 58.2394 13.9425 812 169.459 260.277 470.414
2713 0 60.2024 14.119 850 164.598 261.942 468.948
2714 0 62.3762 14.3003 892 173.038 261.345 468.437
2715 0 65.3393 14.065 919 165.954 260.111 467.149
2716 0 67.3402 14.0629 947 175.749 260.424 466.006
2717 0 70.3037 14.224 1000 166.425 261.518 465.015
2718 0 72.4846 14.2513 1033 162.117 260.897 464.256
2719 0 75.5344 14.0333 1060 168.716 261.193 463
2720 0 77.639 14.0651 1092 170.278 260.756 461.505
2721 0 80.3815 14.1948 1141 163.891 263.809 459.492
2722 0 84.4132 13.8485 1169 164.193 260.525 457.947
2723 0 87.5398 14.165 1240 165.713 261.262 455.813
2724 1 45.1901 13.0781 591 165.122 263.166 476.448
2725 0 46.1577 13.6922 632 166.636 263.695 475.513
2726 0 47.186 12.9911 613 163.902 260.268 476.799
2727 0 49.4003 13.6234 673 166.29 261.948 475.926
2728 0 51.2658 13.3032 682 167.107 262.333 473.974
2729 0 53.0873 13.3177 707 161.03 262.47 473.956
2730 0 53.1661 13.6553 726 164.803 262.614 473.208
2731 0 55.1972 13.6601 754 163.416 261.544 471.947
2732 0 55.1972 13.6601 754 170.268 260.544 471.947
2733 0 58.2732 13.8486 807 164.19 260.87 469.895
2734 1 72.5242 13.7747 999 164.064 261.433 463.136
2735 0 74.2401 13.9143 1033 159.124 261.124 462.976
2736 0 77.3181 13.6967 1059 169.525 259.86 462.289
2737 0 80.1914 13.5426 1086 158.893 258.124 460.288
2738 0 83.261 14.0282 1168 159.179 258.426 458.852
2739 1 44.1819 12.9691 573 160.094 260.89 479.056
2740 0 46.1928 13.1622 608 159.734 259.033 478.243
2741 0 48.1501 13.0633 629 157.296 260.415 477.558
2742 0 48.103 13.5543 652 162.416 259.914 478.278
2743 0 51.1454 13.4323 687 159.514 259.808 477.524
2744 0 50.1187 13.5678 680 157.134 257.324 476.449
2745 0 54.181 13.2334 717 150.491 256.902 476.24
2746 0 55.228 13.9784 772 160.646 257.016 475.291
2747 0 55.2771 13.9479 771 155.891 257.296 474.163
2748 0 58.2372 13.9945 815 163.8 257.721 473.514
2749 0 63.1641 13.552 856 162.283 259.703 472.414
2750 0 65.4506 14.0717 921 93.266 258.101 471.235
2751 0 66.4167 14.0326 932 161.634 260.034 470.307
2752 0 70.2641 13.8051 970 158.723 259.46 469.144
2753 0 71.3771 14.0241 1001 157.504 259.559 468.29
2754 0 72.5698 14.2621 1035 146.89 258.048 466.943
2755 0 78.2945 13.8835 1087 163.48 259.3 467.083
2756 0 80.5078 14.5079 1168 157.419 259.744 465.988
2757 0 84.4144 14.3222 1209 156.42 260.75 463.951
2758 0 86.3036 14.3563 1239 156.49 259.846 462.556
2759 0 90.3824 14.0735 1272 156.425 258.073 460.889
2760 0 93.3011 14.1156 1317 152.822 259.336 460.402
2761 0 96.1885 14.3572 1381 149.44 260.663 458.25
2762 1 50.1838 12.2749 616 159.373 257.56 482.955
2763 0 51.3174 13.2703 681 152.391 261.242 483.291
2764 0 52.2362 13.6687 714 155.349 259.053 483.001
2765 0 55.0784 13.1812 726 153.537 260.941 482.718
2766 0 60.2117 12.7716 769 157.199 261.43 481.869
2767 0 61.1527 13.1474 804 153.265 260.185 480.838
2768 0 63.2493 12.9804 821 156.184 258.716 479.836
2769 0 66.3937 13.2844 882 157.746 258.52 478.635
2770 0 69.2951 13.6662 947 155.563 259.362 476.165
2771 0 71.329 13.3326 951 151.628 259.127 475.857
2772 0 74.3735 13.2843 988 162.083 259.915 475.071
2773 0 77.4932 13.2786 1029 155.548 260.211 473.658
2774 0 78.6213 13.6604 1074 163.039 258.801 472.818
2775 0 83.4235 13.0419 1088 166.664 259.65 471.564
2776 0 84.4326 13.5019 1140 159.844 258.599 469.785
2777 0 89.4471 13.0021 1163 162.539 259.083 468.219
2778 0 93.3297 13.4362 1254 159.096 259.768 466.022
2779 1 48.1884 11.9946 578 151.05 258.289 487.96
2780 0 52.0377 12.3372 642 154.193 259.888 488.188
2781 0 54.0798 13.0178 704 154.034 257.79 488.203
2782 0 55.0253 13.3757 736 147.761 259.219 486.981
2783 0 57.0692 13.4223 766 152.901 259.021 486.309
2784 0 59.0396 12.9235 763 153.059 259.495 485.991
2785 0 61.0434 13.1054 800 150.862 258.898 485.986
2786 0 62.0904 12.8683 799 157.811 259.038 485.175
2787 0 61.0627 13.5762 829 153.577 258.204 484.663
2788 0 64.0919 13.4338 861 153.524 259.816 483.89
2789 0 67.0918 13.176 884 154.756 259.433 483.328
2790 0 70.0674 13.3015 932 152.906 258.238 481.917
2791 0 72.0996 13.5923 980 152.235 257.678 480.942
2792 0 74.1778 13.6699 1014 154.228 257.476 480.21
2793 0 76.0891 13.7733 1048 148.655 254.483 478.975
2794 0 79.1957 13.2204 1047 153.108 256.994 477.908
2795 0 81.1845 13.9312 1131 150.104 257.793 476.326
2796 0 84.1523 13.9034 1170 153.811 256.762 474.645
2797 0 89.1834 13.7021 1222 145.636 256.23 473.699
2798 0 90.2001 14.0465 1267 146.22 257.318 472.056
2799 0 94.4149 13.4301 1268 154.437 257.515 470.782
2800 1 53.2269 11.8737 632 156.884 258.951 491.207
2801 0 54.1499 12.5393 679 154.09 258.85 490.231
2802 0 57.142 12.2502 700 149.779 258.774 489.826
2803 0 57.1259 12.7613 729 144.582 258.217 488.844
2804 0 59.1963 13.261 785 151.364 258.366 487.763
2805 0 61.1421 13.346 816 149.113 257.646 487.195
2806 0 62.1707 13.1895 820 148.721 259.934 486.529
2807 0 64.2009 13.4578 864 144.998 258.387 484.789
2808 0 66.377 13.2275 878 154.003 259.277 484.083
2809 0 69.2568 13.2117 915 152.863 257.603 482.986
2810 0 71.4215 13.0353 931 154.886 257.878 482.047
2811 0 74.3573 13.2334 984 154.163 257.952 479.732
2812 0 77.4386 13.2234 1024 150.903 257.23 479.742
2813 0 80.562 12.9217 1041 147.699 259.02 478.031
2814 0 83.505 12.9932 1085 159.129 260.028 476.573
2815 1 43.3032 11.431 495 157.24 259.135 496.404
2816 0 45.4481 12.1677 553 156.864 261.268 495.902
2817 0 46.1864 12.4063 573 156.291 261.454 495.995
2818 0 48.1257 12.6544 609 153.465 260.673 495.156
2819 0 48.2106 12.881 621 163.177 259.082 495.229
2820 0 51.116 12.7553 652 159.239 261.475 494.739
2821 0 52.0742 13.0967 682 159.66 261.636 494.441
2822 0 52.0697 13.3091 693 161.387 261.173 493.61
2823 0 55.0976 13.4489 741 162.131 260.795 492.456
2824 0 57.1688 13.5738 776 160.427 261.095 491.869
2825 0 58.2181 13.2433 771 148.27 260.253 490.844
2826 0 60.0965 13.2953 799 162.845 262.984 489.571
2827 0 62.1918 13.3297 829 162.296 259.783 489.427
2828 0 65.0917 13.0892 852 155.236 260.722 488.14
2829 0 67.2252 13.5961 914 158.603 262.932 487.131
2830 0 68.1931 13.7697 939 160.33 261.594 486.398
2831 0 72.3979 13.0943 948 162.771 261.226 485.025
2832 0 74.3706 13.5537 1008 160.375 260.526 484.006
2833 0 75.1624 13.6904 1029 164.112 259.607 483.391
2834 0 80.2654 13.3432 1071 171.317 259.615 482.304
2835 0 82.3057 13.6686 1125 162.412 258.978 480.977
2836 0 85.3748 13.8917 1186 164.172 258.703 479.594
2837 0 87.2237 13.7004 1195 167.699 259.677 479.08
2838 0 92.1083 13.9184 1282 167.718 260.264 477.641
2839 0 94.2346 13.6574 1287 164.268 259.537 476.179
2840 0 97.235 14.2336 1384 165.154 257.884 475.006
2841 0 101.258 14.152 1433 162.5 259.622 472.9
2842 0 104.216 14.777 1540 159.386 257.872 471.386
2843 1 57.0644 12.9678 740 162.792 258.692 495.154
2844 0 60.1526 13.0668 786 159.69 259.826 495.061
2845 0 62.122 12.9906 807 162.706 260.576 493.937
2846 0 64.1433 13.7972 885 160.855 259.72 492.38
2847 0 67.1814 13.337 896 164.915 257.94 492.042
2848 0 68.2153 13.7359 937 162.797 261.202 491.242
2849 0 70.202 13.7176 963 164.995 259.285 490.384
2850 0 72.0685 14.1948 1023 161.007 258.372 489.492
2851 0 76.1083 14.4662 1101 163.205 258.422 488.032
2852 0 78.2672 13.8755 1086 159.729 258.57 486.842
2853 0 79.1952 14.0918 1116 160.094 258.967 485.474
2854 0 82.1415 14.122 1160 161.217 258.266 484.75
2855 0 85.1915 14.1329 1204 157.429 258.914 483.391
2856 0 88.1341 14.1262 1245 163.816 256.818 482.902
2857 0 92.1021 14.0713 1296 155.691 257.575 480.708
2858 0 96.143 14.0416 1350 155.04 257.591 479.197
2859 0 98.2565 14.34 1409 161.168 258.023 477.74
2860 0 101.249 14.3211 1450 109.127 256.623 475.847
2861 0 105.266 14.4206 1518 157.553 256.637 473.974
2862 0 108.101 14.4217 1559 159.188 257.709 473.468
2863 0 112.342 14.3045 1607 161.265 257.385 471.309
2864 0 116.426 14.2494 1659 163.515 255.907 469.845
2865 1 63.1656 11.7627 743 160.125 257.124 496.559
2866 0 64.211 13.0196 836 157.428 256.651 495.224
2867 0 67.1125 13.0527 876 150.539 260.12 495.733
2868 0 69.1556 13.2166 914 162.713 259.386 494.99
2869 0 72.1252 13.227 954 156.644 257.662 493.915
2870 0 74.1912 13.3304 989 157.138 257.933 492.514
2871 0 76.2289 13.4201 1023 159.497 257.555 490.954
2872 0 77.1143 13.4216 1035 163.14 257.748 490.874
2873 0 79.1849 13.8158 1094 163.433 260.214 489.116
2874 0 82.1522 13.6211 1119 157.708 257.371 487.959
2875 0 86.1511 13.5692 1169 156.983 258.145 486.678
2876 0 90.2206 13.9769 1261 165.257 257.877 485.274
2877 0 91.1216 14.0581 1281 164.864 258.83 484.454
2878 0 95.1381 13.7484 1308 157.376 259.875 483.753
2879 0 99.1376 13.7082 1359 161.676 258.966 482.451
2880 0 102.204 13.7275 1403 164.016 261.11 481.29
2881 0 105.252 14.0045 1474 161.381 258.699 479.867
2882 1 64.1971 12.4461 799 150.974 261.357 501.616
2883 0 64.2465 13.0435 838 159.835 260.163 501.043
2884 0 66.179 13.0706 865 160.129 260.593 500.668
2885 0 67.2396 13.2363 890 159.613 260.398 500.657
2886 0 70.2488 12.954 910 149.499 259.101 499.454
2887 0 73.2398 12.9165 946 159.808 259.211 500.114
2888 0 74.3723 13.0963 974 150.794 259.35 498.649
2889 0 77.2824 13.3148 1029 153.778 259.37 498.216
2890 0 80.4315 13.067 1051 146.704 260.489 496.287
2891 0 81.2837 13.4713 1095 153.541 259.323 495.988
2892 0 84.3366 13.2801 1120 148.386 260.514 494.454
2893 0 88.2323 13.2945 1173 157.385 259.35 494.453
2894 0 90.3594 13.4795 1218 157.346 259.384 492.357
2895 0 94.3057 13.6577 1288 153.61 260.373 490.619
2896 0 96.2944 13.6457 1314 159.412 260.194 490.384
2897 0 98.3707 14.0489 1382 160.958 260.883 489.381
2898 0 101.429 14.0294 1423 161.094 260.891 487.74
2899 0 103.353 13.9135 1438 157.734 261.688 486.642
2900 0 107.263 14.0217 1504 153.722 262.025 485.051
2901 0 110.151 14.0625 1549 159.44 261.516 483.822
2902 0 114.171 13.7863 1574 154.022 261.835 482.196
2903 1 62.1469 12.5348 779 159.587 262.341 508.54
2904 0 63.263 13.1989 835 154.343 262.532 508.656
2905 0 64.1223 13.2715 851 154.415 261.457 506.463
2906 0 66.0794 13.0752 864 156.045 261.148 506.38
2907 0 69.1708 13.1269 908 150.602 260.608 505.274
2908 0 70.2966 13.3861 941 157.764 260.678 504.905
2909 0 71.0984 13.8118 982 153.788 260.423 503.504
2910 0 74.1558 13.9571 1035 154.97 260.075 502.474
2911 0 75.0674 13.8542 1040 152.184 260.104 501.129
2912 0 77.1465 13.5197 1043 146.165 260.429 499.686
2913 0 82.1458 13.6952 1125 153.305 260.184 499.36
2914 0 84.2028 14.2632 1201 157.635 259.835 498.188
2915 0 86.15 13.906 1198 151.345 257.729 497.104
2916 0 89.1712 14.3432 1279 149.253 260.36 495.328
2917 0 91.1407 14.3734 1310 155.079 259.169 494.222
2918 0 95.2015 14.2645 1358 155.885 259.458 492.242
2919 0 96.1138 14.3164 1376 158.953 260.907 491.262
2920 0 99.1132 14.7912 1466 153.932 261.233 489.445
2921 0 101.19 14.6952 1487 153.83 259.143 488.067
2922 0 105.16 14.787 1555 162.745 259.481 486.536
2923 0 107.114 14.6573 1570 156.625 258.87 485.534
2924 0 113.257 14.2685 1616 165.571 259.485 484.572
2925 0 117.383 14.6528 1720 161.912 260.706 482.477
2926 0 123.432 14.745 1820 158.569 260.727 480.521
2927 1 58.1112 12.5105 727 154.688 261.963 512.072
2928 0 61.112 12.9107 789 162.63 260.408 511.361
2929 0 63.1357 12.8295 810 155.523 260.363 510.015
2930 0 64.0927 13.4493 862 157.287 257.827 508.983
2931 0 67.2015 12.9461 870 163.075 260.641 507.983
2932 0 69.1952 12.9633 897 159.797 260.749 507.89
2933 0 71.2012 13.0335 928 162.364 263.139 506.744
2934 0 72.1816 13.4799 973 155.145 260.01 505.846
2935 0 76.1827 13.6251 1038 159.169 261.682 504.7
2936 0 77.1859 13.6813 1056 166.385 260.646 504.558
2937 0 80.2041 13.6153 1092 160.617 260.851 503.264
2938 0 83.1764 13.7539 1144 159.135 260.992 502.11
2939 0 86.128 13.6773 1178 161.993 258.885 501.505
2940 0 87.2282 14.0207 1223 164.154 260.775 500.871
2941 0 89.205 13.9342 1243 165.422 259.696 499.516
2942 0 92.2598 14.134 1304 166.052 259.85 498.369
2943 0 96.1759 14.0888 1355 163.72 260.382 497.598
2944 0 97.2211 14.0916 1370 166.484 259.983 495.897
2945 0 102.155 13.9494 1425 164.754 260.439 494.031
2946 0 107.363 13.8316 1485 163.659 259.923 492.02
2947 0 110.34 14.1291 1559 160.494 261.06 490.362
2948 1 59.1605 12.221 723 150.508 261.261 516.437
2949 0 59.259 12.825 760 154.574 260.178 515.387
2950 0 63.0675 12.6531 798 155.436 260.154 515.129
2951 0 66.0895 12.5739 831 145.906 258.344 512.651
2952 0 66.1462 12.8806 852 151.94 258.462 513.479
2953 0 69.178 13.0533 903 151.767 260.064 511.872
2954 0 72.1187 13.2559 956 149.713 257.653 510.093
2955 0 73.2111 13.4952 988 151.192 259.258 509.449
2956 0 75.1463 12.8283 964 149.523 258.649 508.849
2957 0 78.2613 12.7266 996 155.186 262.233 507.933
2958 0 80.0982 13.3336 1068 144.876 258.789 505.72
2959 0 84.2275 13.1548 1108 151.488 257.775 504.925
2960 0 87.125 12.8207 1117 147.885 258.926 503.696
2961 0 87.4071 13.3056 1163 151.054 260.398 502.364
2962 0 93.3347 13.007 1214 147.522 260.985 501.634
2963 0 96.3497 13.0462 1257 150.569 259.51 500.537
2964 1 50.2995 10.9941 553 141.59 259.756 523.539
2965 0 53.2365 11.6086 618 144.649 259.879 522.306
2966 0 52.2247 12.3313 644 143.627 259.297 521.654
2967 0 55.2214 12.3865 684 141.822 261.484 520.944
2968 0 57.4165 12.3135 707 145.154 261.683 519.652
2969 0 59.2796 12.6182 748 145.525 259.031 518.742
2970 0 60.457 12.4882 755 146.03 259.748 518.885
2971 0 61.4814 12.7681 785 147.306 259.234 518.017
2972 0 63.3275 12.8854 816 150.494 260.429 517.772
2973 0 65.269 12.8392 838 144.856 261.561 516.792
2974 0 67.423 13.1557 887 146.497 261.207 515.218
2975 0 71.361 13.0463 931 47.6917 261.217 514.675
2976 0 73.1392 12.9616 948 148.691 261.876 513.596
2977 0 75.5579 12.732 962 145.248 259.97 512.572
2978 0 78.3622 12.7485 999 146.269 261.302 511.496
2979 0 82.4755 12.7795 1054 145.589 260.368 510.223
2980 0 85.5961 12.6875 1086 145.752 259.743 508.45
2981 0 88.5395 12.7965 1133 147.689 262.243 507.407
2982 0 90.4278 12.839 1161 143.581 258.187 505.609
2983 0 95.4421 12.856 1227 152.889 260.674 504.518
2984 1 49.2956 10.9138 538 147.033 262.691 526.829
2985 0 53.2213 10.71 570 145.389 259.442 526.298
2986 0 55.1883 12.0134 663 142.677 260.502 524.353
2987 0 56.155 12.4299 698 149.255 258.967 523.533
2988 0 57.1578 12.7192 727 149.986 262.404 523.01
2989 0 60.1334 12.6718 762 152.862 260.327 522.458
2990 0 62.099 12.5767 781 148.691 260.301 521.725
2991 0 64.1165 12.6644 812 146.154 259.147 520.929
2992 0 65.0741 12.5549 817 150.324 259.594 519.963
2993 0 68.0747 13.0445 888 151.514 258.896 518.509
2994 0 69.0499 12.8023 884 145.212 258.139 517.941
2995 0 71.083 13.224 940 142.955 259.367 516.408
2996 0 74.0413 12.8982 955 154.178 260.258 515.528
2997 0 76.145 13.1985 1005 146.7 259.527 515.738
2998 0 77.0742 13.3508 1029 147.66 257.753 514.943
2999 0 82.2525 12.9844 1068 154.985 260.912 513.504
3000 0 85.183 13.0895 1115 152.902 260.894 511.839
3001 0 86.1464 13.3958 1154 150.464 259.32 511.251
3002 0 90.2023 13.1371 1185 148.962 259.786 509.051
3003 0 94.3353 13.1234 1238 150.38 259.913 508.338
3004 1 49.155 11.067 544 145.057 259.142 530.062
3005 0 50.1832 11.5576 580 154.648 258.44 531.071
3006 0 53.0345 12.2562 650 143.586 258.111 529.445
3007 0 54.2091 12.8761 698 143.249 256.973 528.424
3008 0 56.1201 12.6336 709 144.076 257.725 528.292
3009 0 59.1087 12.6546 748 139.326 258.781 527.214
3010 0 60.0615 12.6037 757 148.129 259.188 526.894
3011 0 61.114 12.7303 778 150.082 257.265 526.18
3012 0 64.2163 12.6915 815 148.973 257.494 525.672
3013 0 63.169 13.1235 829 143.253 260.37 525.435
3014 0 66.0892 12.5134 827 145.732 258.796 524.99
3015 0 68.1223 13.1822 898 147.004 258.735 524.094
3016 0 70.1721 13.2531 930 149.592 258.658 523.441
3017 0 74.1198 13.1004 971 149.013 259.841 522.238
3018 0 75.1443 13.1747 990 147.869 259.941 520.959
3019 0 77.1357 13.6642 1054 150.569 259.216 519.799
3020 0 80.1174 13.1557 1054 150.917 259.049 519.434
3021 0 83.1218 13.5223 1124 147.782 259.44 517.837
3022 0 84.0966 13.4964 1135 151.142 258.633 516.976
3023 0 87.0612 13.4618 1172 155.904 260.016 515.993
3024 0 88.1133 13.7096 1208 158.142 258.524 514.226
3025 0 92.3293 13.7443 1269 151.756 258.996 512.884
3026 0 95.4005 13.9727 1333 154.176 259.009 512.02
3027 0 99.3227 13.9847 1389 159.023 259.044 510.253
3028 0 102.211 13.9516 1426 153.522 258.154 508.615
3029 0 107.342 13.7318 1474 152.754 259.649 507.786
3030 1 57.1252 11.9037 680 157.813 260.047 531.14
3031 0 58.1177 12.5951 732 157.91 260.537 530.549
3032 0 61.0186 12.9141 788 154.458 259.415 529.18
3033 0 62.0749 12.936 803 159.128 258.677 527.954
3034 0 66.1159 12.7352 842 160.722 258.14 527.387
3035 0 68.0686 13.0457 888 160.809 260.161 526.452
3036 0 70.0276 13.4804 944 162.19 259.724 525.112
3037 0 73.0692 13.8636 1013 161.287 260.591 523.4
3038 0 75.0971 13.5824 1020 161.969 260.807 523.249
3039 0 79.0928 13.5284 1070 152.095 259.927 521.754
3040 0 80.0839 13.5733 1087 151.186 260.54 520.219
3041 0 83.3514 13.2811 1107 161.37 261.325 519.72
3042 0 85.1624 13.6563 1163 158.534 259.658 518.353
3043 0 89.1442 13.4165 1196 149.736 258.915 515.903
3044 0 92.1291 13.7416 1266 156.883 258.711 514.785
3045 0 93.2589 14.1005 1315 154.325 259.679 513.343
3046 0 98.1877 13.5862 1334 159.163 259.842 512.082
3047 0 102.272 13.7477 1406 158.198 258.932 509.935
3048 1 55.1591 11.4034 629 148.742 257.545 533.625
3049 0 58.1908 12.2872 715 149.138 259.179 531.884
3050 0 59.0933 12.5056 739 154.403 258.668 531.551
3051 0 61.0835 12.3929 757 143.213 259.079 530.419
3052 0 63.0635 13.0662 824 149.029 258.615 528.776
3053 0 63.0424 12.9278 815 141.861 257.742 527.836
3054 0 65.0661 12.8485 836 150.056 258.792 526.983
3055 0 68.0812 12.7054 865 147.491 260.043 526.543
3056 0 69.0541 13.2505 915 150.789 259.209 525.984
3057 0 70.1455 13.0586 916 143.802 257.908 524.326
3058 0 73.1324 13.332 975 145.147 257.59 523.561
3059 0 75.0675 13.4679 1011 145.901 257.398 522.568
3060 0 78.073 13.3849 1045 141.076 257.527 521.526
3061 0 77.1236 13.1607 1015 146.052 257.971 521.013
3062 0 82.0877 13.4612 1105 148.53 257.522 520.098
3063 0 84.1212 13.5043 1136 148.057 257.534 519.031
3064 0 88.1737 13.6775 1206 145.365 257.052 516.946
3065 0 90.2998 13.4552 1215 148.333 259.161 516.704
3066 0 94.2602 13.0172 1227 149.073 258.768 515.423
3067 0 96.1976 13.5554 1304 142.971 257.669 513.695
3068 0 99.2835 13.7686 1367 147.908 257.723 511.519
3069 1 56.1289 11.2598 632 142.725 258.201 534.443
3070 0 58.1593 11.6576 678 145.86 259.109 533.81
3071 0 58.1094 12.3732 719 145.716 257.281 533.983
3072 0 58.1189 12.526 728 146.402 258.085 533.379
3073 0 61.161 12.8513 786 142.729 259.67 532.644
3074 0 63.072 12.9218 815 140.223 258.784 532.374
3075 0 64.266 12.884 828 147.44 256.669 531.426
3076 0 67.0968 13.2644 890 146.126 259.962 530.224
3077 0 67.1244 13.1249 881 142.985 258.018 529.175
3078 0 71.241 12.6753 903 145.695 256.528 527.807
3079 0 73.1242 13.3745 978 145.262 258.337 527.123
3080 0 75.2656 13.2331 996 157.307 256.206 527.242
3081 0 77.2477 13.4632 1040 159.33 257.92 526.592
3082 0 79.0843 13.8333 1094 154.654 259.862 525.641
3083 0 80.2409 14.2446 1143 153.325 256.913 523.977
3084 0 84.2579 14.1352 1191 161.563 259.379 523.434
3085 0 88.31 13.7244 1212 155.828 257.715 521.798
3086 0 91.328 14.2016 1297 154.26 257.763 519.351
3087 0 94.3438 14.0126 1322 156.214 259.279 518.098
3088 0 97.2678 13.797 1342 162.352 257.873 517.118
3089 0 100.273 14.0816 1412 157.778 257.412 515.63
3090 0 104.357 13.8275 1443 162.963 258.22 514.514
3091 0 108.294 13.4726 1459 158.89 258.965 513.032
3092 0 110.231 14.016 1545 154.518 259.318 510.498
3093 1 60.0321 12.4767 749 161.394 258.307 535.559
3094 0 62.1876 12.8965 802 154.231 259.984 534.598
3095 0 65.0826 12.8299 835 157.788 259.595 534.081
3096 0 67.0954 12.6238 847 160.155 259.769 533.266
3097 0 69.0644 12.8286 886 162.411 259.565 532.307
3098 0 71.0887 13.3073 946 162.692 259.014 531.221
3099 0 75.1308 13.0572 981 163.338 259.444 530.35
3100 0 77.1502 12.9228 997 158.117 259.211 529.278
3101 0 79.1504 13.4175 1062 164.42 260.752 527.736
3102 0 82.1341 13.5632 1114 164.176 259.718 526.035
3103 0 83.0443 13.5109 1122 165.411 259.737 525.718
3104 0 87.1744 13.6737 1192 165.378 258.353 524.385
3105 0 89.2188 13.6518 1218 169.376 258.672 522.72
3106 0 93.191 13.6279 1270 168.774 258.624 521.482
3107 0 97.3473 13.7241 1336 167.906 256.781 520.32
3108 0 100.143 13.3709 1339 161.862 257.229 518.792
3109 0 102.151 13.578 1387 167.309 256.765 517.55
3110 1 54.091 12.1832 659 158.669 257.741 541.73
3111 0 58.1746 12.4109 722 158.366 260.136 541.061
3112 0 59.2468 12.5408 743 162.952 260.083 540.498
3113 0 61.1185 12.5821 769 151.769 260.016 539.42
3114 0 61.1982 13.0069 796 163.445 260.307 539.676
3115 0 62.2263 13.1777 820 161.368 259.212 539.278
3116 0 66.0344 12.9629 856 153.313 259.369 537.633
3117 0 68.0499 12.8435 874 161.595 259.509 536.793
3118 0 70.1337 13.1748 924 154.291 259.179 536.086
3119 0 70.0986 13.5381 949 160.231 259.959 535.732
3120 0 72.1615 13.5945 981 161.433 258.598 535.317
3121 0 77.0937 13.4512 1037 156.989 258.946 533.447
3122 0 77.1224 13.7444 1060 159.377 258.485 532.822
3123 0 79.0953 13.705 1084 160.956 259.15 531.774
3124 0 84.0873 13.4622 1132 163.915 259.734 531.095
3125 0 86.0691 13.5937 1170 153.077 260.887 529.152
3126 0 88.2004 13.6961 1208 154.676 260.647 528.168
3127 0 92.1523 13.6296 1256 163.678 260.72 526.649
3128 0 96.119 13.5457 1302 166.546 260.634 525.531
3129 0 98.3577 13.7762 1355 165.299 262.553 523.817
3130 0 100.176 13.9455 1397 154.994 261.432 521.15
3131 0 105.301 14.0265 1477 161.801 260.886 519.444
3132 0 107.227 14.0823 1510 161.338 259.963 517.499
3133 0 111.182 14.094 1567 159.412 260.846 515.401
3134 0 114.35 14.3244 1638 162.89 261.234 514.429
3135 1 64.2006 12.2429 786 163.646 259.743 540.698
3136 0 66.1466 12.6991 840 154.687 258.682 539.219
3137 0 68.1331 13.2388 902 163.59 259.871 539.395
3138 0 70.0847 13.1412 921 160.917 258.929 537.735
3139 0 74.1761 13.077 970 157.613 258.898 536.918
3140 0 75.2697 13.4184 1010 161.99 260.074 535.463
3141 0 79.1262 13.2068 1045 163.975 258.082 534.129
3142 0 81.1688 13.6875 1111 161.824 257.598 533.216
3143 0 84.155 13.4514 1132 159.436 258.812 532.017
3144 0 86.1623 13.2541 1142 161.753 259.05 530.814
3145 0 87.1203 13.9003 1211 157.187 257.713 529.334
3146 0 92.1057 13.2674 1222 163.407 257.479 527.678
3147 0 95.2127 13.4436 1280 157.676 258.171 525.92
3148 0 98.1842 13.2812 1304 154.989 255.987 524.752
3149 0 99.4235 13.7895 1371 156.379 258.993 523.867
3150 0 104.326 13.6974 1429 158.084 259.116 521.131
3151 0 107.383 13.708 1472 153.501 257.735 519.933
3152 0 112.38 13.4455 1511 158.383 256.585 518.905
3153 1 59.2026 12.2968 728 156.122 257.764 545.108
3154 0 63.2119 12.6717 801 151.864 256.858 544.112
3155 0 63.1271 13.1481 830 149.393 259.906 543.661
3156 0 66.1038 12.6619 837 152.013 257.84 542.888
3157 0 68.1163 13.2714 904 146.894 257.426 541.763
3158 0 71.0839 13.0691 929 143.342 258.017 540.53
3159 0 72.1582 12.9854 937 147.894 259.047 539.25
3160 0 76.1432 13.1069 998 146.491 260.39 538.26
3161 0 78.1738 12.6641 990 149.686 258.814 537.443
3162 0 80.1802 13.3948 1074 148.202 259.612 535.706
3163 0 83.1151 13.0181 1082 146.571 259.591 533.977
3164 0 87.1062 13.1564 1146 145.921 257.782 533.176
3165 0 87.1347 13.3931 1167 143.726 259.737 531.643
3166 0 93.2112 12.9813 1210 144.256 259.506 530.001
3167 0 96.161 13.2174 1271 146.342 258.934 528.613
3168 0 100.158 13.1192 1314 142.97 259.86 526.756
3169 1 58.0961 10.4826 609 146.465 259.722 548.851
3170 0 60.1796 11.4158 687 149.844 258.652 548.019
3171 0 60.1084 12.0782 726 136.959 259.632 546.716
3172 0 64.1984 12.2745 788 134.905 258.864 545.306
3173 0 65.2574 12.6576 826 139.893 257.275 545.255
3174 0 66.1152 13.0076 860 138.669 260.115 544.057
3175 0 67.1231 13.1102 880 143.123 258.594 543.747
3176 0 69.2773 13.2655 919 142.96 259.953 543.238
3177 0 72.1871 13.091 945 145.088 259.602 541.508
3178 0 76.1906 13.0987 998 139.884 259.836 540.752
3179 0 79.1862 13.2978 1053 142.701 260.447 539.941
3180 0 80.079 13.0871 1048 146.871 258.628 538.694
3181 0 83.1508 13.5537 1127 146.907 259.336 537.698
3182 0 87.086 13.2628 1155 144.534 259.269 536.242
3183 0 88.2257 13.8508 1222 147.372 260.15 534.731
3184 0 91.1268 13.9037 1267 152.086 261.449 534.139
3185 0 96.1307 13.3984 1288 149.335 258.228 533.047
3186 0 98.1972 14.0635 1381 149.805 259.904 530.544
3187 0 101.221 13.7027 1387 156.236 259.232 529.342
3188 0 106.334 13.7585 1463 156.593 258.563 527.206
3189 1 56.1048 11.9241 669 152.326 257.836 551.178
3190 0 60.1595 12.2341 736 153.215 262.25 551.745
3191 0 60.1349 12.4886 751 154.461 259.599 551.431
3192 0 63.0835 12.5072 789 152.733 260.948 550.466
3193 0 63.1433 12.923 816 149.664 259.471 550.448
3194 0 65.2278 12.9239 843 153.549 259.488 549.235
3195 0 67.0322 13.0683 876 153.619 260.599 548.405
3196 0 71.1679 12.8569 915 156.055 259.175 547.262
3197 0 72.1274 13.0325 940 153.3 259.654 547.033
3198 0 74.0842 13.3632 990 156.536 258.259 545.959
3199 0 78.0697 14.1668 1106 146.118 259.608 541.594
3200 0 81.0676 14.7531 1196 148.213 257.548 540.936
3201 0 82.1845 13.3602 1098 154.804 258.48 541.607
3202 0 85.0912 13.3856 1139 155.401 258.449 541.5
3203 0 87.1644 13.4917 1176 158.429 257.466 539.653
3204 0 89.1939 13.5211 1206 155.488 257.433 538.802
3205 0 92.4622 13.1297 1214 151.06 256.948 537.39
3206 0 95.2232 13.085 1246 152.957 258.668 536.102
3207 0 97.3646 13.3313 1298 156.725 259.079 534.476
3208 0 101.54 13.2658 1347 151.181 257.327 531.978
3209 0 103.315 13.2605 1370 146.247 257.639 530.404
3210 0 108.19 13.0418 1411 147.056 257 527.888
3211 1 55.1498 11.1333 614 154.122 257.625 554.55
3212 0 58.1694 11.5353 671 153.735 257.396 553.113
3213 0 57.1115 12.8345 733 149.932 258.416 553.362
3214 0 62.101 12.6085 783 150.822 257.396 553.376
3215 0 64.1565 12.8592 825 151.453 257.476 553.17
3216 0 66.1609 12.6207 835 155.208 258.569 551.553
3217 0 67.1976 13.0808 879 150.799 258.881 550.498
3218 0 69.1485 13.3192 921 146.441 259.792 549.932
3219 0 71.1732 12.8138 912 151.314 259.009 549.101
3220 0 74.2403 12.931 960 155.682 257.89 548.36
3221 0 76.2774 13.0445 995 151.412 259.449 546.769
3222 0 77.2891 13.0808 1011 152.298 259.37 546.174
3223 0 80.3861 13.3356 1072 147.921 258.404 545.37
3224 0 82.1156 13.3227 1094 148.194 257.496 543.862
3225 0 85.1753 13.7364 1170 151.04 259.747 542.695
3226 0 90.2109 13.5239 1220 147.111 258.193 542.608
3227 0 93.4884 13.4027 1253 142.374 261.567 540.686
3228 0 96.1636 13.0091 1251 138.278 258.642 537.493
3229 0 98.2723 13.5745 1334 145.109 257.96 537.781
3230 0 102.331 13.4466 1376 150.346 258.823 536.893
3231 0 104.231 13.566 1414 150.739 258.426 536.158
3232 0 106.194 13.7672 1462 152.735 258.38 534.895
3233 0 111.44 13.3525 1488 153.056 260.411 533.865
3234 0 116.464 13.6352 1588 151.14 258.639 532.249
3235 1 63.1507 12.0822 763 150.899 258.544 557.756
3236 0 65.2043 12.8979 841 149.879 259.158 556.806
3237 0 69.2458 13.1416 910 158.636 258.256 556.396
3238 0 73.0648 13.3033 972 154.567 255.959 554.844
3239 0 73.1897 13.4855 987 145.109 259.316 554.627
3240 0 75.1267 13.8566 1041 156.471 260.999 553.389
3241 0 78.1094 13.8524 1082 154.699 259.247 551.689
3242 0 83.209 13.8807 1155 153.981 259.481 551.063
3243 0 84.1412 13.5843 1143 162.611 259.68 550.814
3244 0 87.2496 13.937 1216 161.596 258.887 549.584
3245 0 89.1863 14.2398 1270 162.23 258.748 547.704
3246 0 91.1844 14.3117 1305 161.752 257.025 546.71
3247 0 95.1402 14.2001 1351 161.41 258.945 545.07
3248 0 98.2554 13.872 1363 161.844 258.164 544.274
3249 0 101.186 13.7964 1396 161.913 256.689 542.426
3250 0 104.133 13.9533 1453 163.029 257.488 541.701
3251 0 109.138 13.6433 1489 164.587 254.536 539.591
3252 0 112.454 13.8279 1555 162.14 256.753 536.886
3253 1 64.1713 13.1523 844 156.071 256.603 559.972
3254 0 65.1814 13.332 869 162.626 257.551 561.031
3255 0 68.12 13.3294 908 164.486 257.698 560.053
3256 0 73.2004 13.1283 961 161.994 259.26 558.506
3257 0 73.2908 13.2895 974 157.679 258.502 557.314
3258 0 77.1745 13.2038 1019 162.912 260.533 556.043
3259 0 79.2642 13.6253 1080 160.943 257.218 553.976
3260 0 81.0623 14.0016 1135 154.657 259.218 552.04
3261 0 86.1191 13.3652 1151 159.52 258.63 551.536
3262 0 86.224 13.8708 1196 162.732 259.078 550.382
3263 0 90.1034 13.6621 1231 157.706 259.301 547.645
3264 0 93.2048 13.4435 1253 158.272 259.353 546.196
3265 0 98.0898 13.3143 1306 158.524 259.481 544.459
3266 0 101.158 13.385 1354 154.267 258.316 542.599
3267 1 54.1334 11.6933 633 150.201 258.716 566.114
3268 0 56.2125 12.2393 688 163.422 258.919 566.201
3269 0 59.3297 12.9278 767 156.772 258.614 564.909
3270 0 61.116 12.779 781 155.489 258.23 565.52
3271 0 63.0872 12.9503 817 157.98 258.699 564.788
3272 0 65.0939 13.0427 849 157.395 257.021 563.913
3273 0 66.1487 13.3185 881 153.076 260.491 562.409
3274 0 69.1494 13.1599 910 154.936 261.412 561.476
3275 0 71.1557 13.1683 937 157.684 258.424 560.164
3276 0 73.2015 13.4287 983 149.342 257.313 559.558
3277 0 75.1955 13.2455 996 154.431 256.509 558.596
3278 0 76.1856 13.9134 1060 160.928 259.29 557.747
3279 0 79.2354 13.5798 1076 152.199 257.93 556.872
3280 0 83.2598 13.6801 1139 157.111 258.161 555.605
3281 0 85.1782 13.6537 1163 152.911 261.277 554.382
3282 0 88.1942 13.4022 1182 157.598 260.795 553.247
3283 0 89.2118 13.6977 1222 156.959 259.411 551.946
3284 0 93.1703 13.6095 1268 152.614 258.682 549.853
3285 0 95.219 13.7578 1310 157.531 258.988 548.836
3286 0 98.1844 13.5867 1334 153.972 259.969 547.52
3287 0 103.129 13.7207 1415 149.489 259.362 545.491
3288 1 53.1174 12.1994 648 155.653 260.014 570.421
3289 0 57.104 12.5385 716 149.559 260.387 568.506
3290 0 58.0861 12.7569 741 152.3 258.717 567.023
3291 0 59.0935 12.6748 749 148.682 259.056 566.917
3292 0 61.0482 12.6785 774 148.293 259.556 566.389
3293 0 62.114 12.7991 795 144.649 258.023 565.73
3294 0 65.1932 12.7774 833 143.989 258.583 564.888
3295 0 68.0564 12.5925 857 144.756 260.421 563.739
3296 0 68.1498 13.8812 946 126.704 258.914 562.534
3297 0 70.17 13.5528 951 157.939 260.158 562.019
3298 0 72.1905 13.5336 977 158.302 258.244 561.124
3299 0 74.1011 13.6435 1011 151.77 258.787 559.379
3300 0 77.2086 13.483 1041 157.103 257.793 558.571
3301 0 79.2869 13.7097 1087 157.382 257.766 557.733
3302 0 82.1953 13.5774 1116 157.982 257.736 556.088
3303 0 85.1824 13.6883 1166 152.669 258.952 554.305
3304 0 88.3019 13.5218 1194 147.916 260.16 553.322
3305 0 91.216 13.9668 1274 150.334 260.129 551.765
3306 0 93.1849 13.9937 1304 148.147 259.804 551.405
3307 0 97.1814 14.1076 1371 151.829 260.21 549.952
3308 0 101.172 13.9169 1408 158.124 256.577 548.433
3309 0 102.17 14.0746 1438 157.377 258.252 547.291
3310 0 106.264 13.9182 1479 157.779 259.775 546.229
3311 0 109.131 13.864 1513 153.588 259.994 544.407
3312 0 111.251 14.0583 1564 156.961 259.465 543.609
3313 0 114.187 14.3624 1640 161.735 259.885 542.903
3314 0 120.429 13.9501 1680 156.444 258.913 540.888
3315 0 123.25 14.5396 1792 159.498 261.179 538.2
3316 0 127.313 14.3269 1824 145.618 262.221 536.499
3317 0 130.238 14.2969 1862 158.728 261.328 535.002
3318 0 136.334 14.3618 1958 159.443 260.252 532.761
3319 0 143.481 14.0785 2020 162.78 259.321 530.132
3320 1 76.3579 12.4807 953 155.488 259.326 563.426
3321 0 79.1946 13.0059 1030 159.444 256.66 561.998
3322 0 81.142 13.31 1080 160.08 258.402 560.51
3323 0 85.1522 13.2469 1128 150.78 259.056 559.563
3324 0 86.191 13.6905 1180 153.478 258.042 557.919
3325 0 90.1332 13.8573 1249 158.318 257.538 556.244
3326 0 94.2187 13.6597 1287 156.928 258.497 555.7
3327 0 97.2782 13.3535 1299 156.612 258.926 554.571
3328 0 98.2366 13.7118 1347 152.22 258.53 552.747
3329 0 100.28 13.8113 1385 157.89 258.513 551.399
3330 0 105.296 14.1125 1486 155.129 259.042 549.627
3331 0 108.262 14.003 1516 159.586 259.631 548.315
3332 0 111.151 13.6571 1518 157.93 258.711 546.819
3333 0 114.202 13.6688 1561 156.039 260.001 545.785
3334 1 66.382 12.3979 823 157.538 258.48 570.176
3335 0 66.2265 13.6048 901 156.313 257.967 568.395
3336 0 68.2475 13.4071 915 158.667 255.205 567.758
3337 0 71.3222 13.3759 954 156.971 255.933 566.618
3338 0 74.2394 13.2948 987 161.664 257.823 565.259
3339 0 76.3575 13.3058 1016 162.245 257.261 564.909
3340 0 79.4483 13.4175 1066 157.31 256.965 562.772
3341 0 81.4122 13.8677 1129 157.758 258.052 562.568
3342 0 83.4886 13.7983 1152 157.359 256.944 561.243
3343 0 87.2655 13.5907 1186 154.127 259.286 560.07
3344 0 90.2889 13.6672 1234 159.271 258.647 558.395
3345 0 92.2044 13.4375 1239 157.362 257.747 557.709
3346 0 96.2371 14.0694 1354 160.654 258.58 556.137
3347 0 98.328 14.0042 1377 158.82 257.678 554.93
3348 0 104.328 13.956 1456 166.669 259.887 553.679
3349 0 107.425 13.7584 1478 161.735 258.401 552.265
3350 1 58.0688 12.3474 717 159.513 259.713 577.089
3351 0 61.1467 13.116 802 154.238 259.337 576.333
3352 0 60.1741 13.7435 827 159.612 260.82 576.617
3353 0 64.2194 13.3916 860 160.629 260.898 575.817
3354 0 65.1143 13.5608 883 116.025 258.88 574.662
3355 0 67.0493 13.4975 905 154.623 258.628 574.412
3356 0 68.2454 13.9497 952 157.846 258.833 573.886
3357 0 72.1666 13.746 992 154.909 259.097 572.768
3358 0 74.1851 13.7629 1021 152.95 259.225 571.432
3359 0 75.1302 14.1887 1066 161.167 256.086 570.852
3360 0 79.1371 13.9884 1107 149.864 258.633 569.758
3361 0 80.1355 14.1635 1135 164.97 259.159 569.115
3362 0 83.0995 13.9832 1162 158.192 257.081 568.356
3363 0 86.083 14.0678 1211 159.221 261.05 566.78
3364 0 89.1473 14.3134 1276 160.591 258.527 564.944
3365 0 92.1274 14.2954 1317 160.694 258.741 563.972
3366 0 95.2277 14.2921 1361 159.84 258.007 562.794
3367 0 96.1681 14.7242 1416 165.323 258.345 561.529
3368 0 99.2376 14.6618 1455 158.411 258.466 560.411
3369 0 102.229 14.3403 1466 158.535 260.607 559.275
3370 0 105.265 14.5632 1533 156.488 258.402 557.074
3371 0 108.217 14.6188 1582 164.81 257.453 556.448
3372 0 112.249 14.0936 1582 160.04 258.793 554.453
3373 0 115.168 14.4485 1664 159.507 259.438 552.636
3374 0 118.153 14.5151 1715 160.384 260.457 550.759
3375 0 123.298 14.5664 1796 154.484 259.953 549.283
3376 1 68.06 13.9436 949 161.512 258.23 575.605
3377 0 71.2371 13.9113 991 161.97 258.871 573.926
3378 0 74.1305 14.3396 1063 169.092 258.725 572.773
3379 0 75.1503 14.5974 1097 173.51 257.983 571.533
3380 0 79.4154 14.5186 1153 163.233 260.026 570.081
3381 0 82.1964 14.2099 1168 166.296 260.268 568.887
3382 0 86.2701 14.3851 1241 172.395 257.722 567.063
3383 0 89.0874 14.8169 1320 166.436 259.902 564.92
3384 0 91.1837 14.4763 1320 170.765 260.514 564.159
3385 0 95.3274 14.7177 1403 166.739 259.619 562.137
3386 0 97.2505 14.622 1422 167.749 260.103 561.006
3387 0 101.31 14.5889 1478 163.645 258.89 559.557
3388 0 105.23 14.5396 1530 169.915 259.525 557.844
3389 0 109.28 14.3576 1569 163.626 258.143 555.878
3390 0 112.21 14.8917 1671 169.212 258.741 554.303
3391 0 114.148 14.8054 1690 165.685 259.636 553.333
3392 0 119.286 14.9725 1786 165.834 259.513 550.827
