index division length width area intensity CMx CMy
1094 0 81.3495 14.0136 1140 156.432 581.611 425.78
1095 0 81.2674 14.4461 1174 161.135 583.95 425.503
1096 0 84.2128 14.2971 1204 157.752 583.737 424.312
1097 0 88.2527 14.4132 1272 161.87 581.89 422.23
1098 0 91.229 14.5568 1328 158.057 582.191 420.501
1099 0 94.2604 14.1311 1332 155.327 580.451 419.206
1100 0 97.3546 14.0723 1370 157.484 582.406 418.329
1101 0 100.158 14.5371 1456 158.84 581.253 416.527
1102 0 103.568 14.8405 1537 160.64 581.289 414.114
1103 0 106.388 14.6351 1557 160.413 582.974 413.726
1104 0 109.227 14.6392 1599 158.7 582.213 412.527
1105 0 112.259 14.805 1662 165.656 581.8 410.314
1106 0 117.207 14.4786 1697 169.168 582.168 407.706
1107 0 120.241 15.0946 1815 163.728 580.707 406.029
1108 0 123.205 15.1536 1867 164.397 579.887 404.424
1109 0 127.225 15.1857 1932 167.665 581.33 402.87
1110 0 133.246 14.8372 1977 165.491 579.588 400.578
1111 0 137.236 15.1783 2083 165.11 580.789 397.469
1112 0 140.189 15.151 2124 169.616 579.846 395.414
1113 0 145.187 15.022 2181 168.749 580.169 393.041
1114 0 150.194 15.48 2325 160.308 579.928 390.935
1115 0 156.172 14.881 2324 157.928 579.39 387.345
1116 0 161.324 15.3666 2479 166.797 580.729 385.405
1117 0 167.161 15.0274 2512 160.15 581.49 382.265
1118 0 173.19 15.1972 2632 162.973 580.609 378.883
1119 0 178.255 15.102 2692 160.517 582.299 376.992
1120 0 185.26 15.5511 2881 155.24 579.414 372.58
1121 0 192.381 15.3446 2952 156.644 579.166 369.018
1122 0 198.347 16.5922 3291 158.867 580.882 364.201
1123 0 206.183 16.6696 3437 148.533 579.158 360.705
1124 0 214.478 16.3747 3512 151.626 581.005 356.431
1125 1 58.1565 12.4148 722 151.655 579.216 436.231
1126 0 60.0803 12.2669 737 153.327 578.828 436.096
1127 0 61.0605 12.5777 768 156.092 578.823 435.161
1128 0 61.0605 12.5777 768 160.642 578.823 435.161
1129 0 66.1692 12.7552 844 146.79 578.059 432.932
1130 0 70.1147 12.6507 887 144.944 581.404 430.78
1131 0 71.154 12.9719 923 148.063 581.754 429.935
1132 0 73.0953 13.1746 963 155.326 583.05 428.496
1133 0 76.1374 13.0816 996 145.214 581.051 427.647
1134 0 78.0658 13.2068 1031 155.45 581.194 426.857
1135 0 82.1005 13.3738 1098 147.545 582.575 425.035
1136 0 84.1524 13.1309 1105 151.214 581.868 423.338
1137 0 88.0851 13.5097 1190 156.376 581.375 421.14
1138 0 90.2042 13.3697 1206 150.956 582.668 419.9
1139 0 94.0684 13.554 1275 154.295 582.049 419.014
1140 0 98.1916 13.0459 1281 152.047 581.054 416.252
1141 0 100.268 13.7331 1377 150.236 580.959 414.548
1142 1 53.0779 11.4549 608 150.887 580.984 438.186
1143 0 55.1039 12.1588 670 148.007 580.834 436.752
1144 0 55.0448 12.3354 679 149.622 582.057 437.303
1145 0 58.1279 12.3005 715 146.432 583.15 436.05
1146 0 60.0408 12.3916 744 143.878 582.735 434.827
1147 0 62.0323 12.3162 764 146.589 582.35 434.36
1148 0 64.0352 12.4619 798 145.605 582.232 433.015
1149 0 66.1759 12.7388 843 141.695 580.046 431.652
1150 0 67.0828 13.0734 877 145.17 582.22 430.678
1151 0 70.0699 12.9157 905 142.161 579.435 430.38
1152 0 72.1212 12.9366 933 140.967 580.164 429.28
1153 0 75.1972 13.0856 984 134.16 579.559 427.075
1154 0 76.0772 13.4469 1023 141.705 579.9 425.834
1155 0 80.1414 12.9646 1039 140.045 581.854 424.703
1156 0 80.24 13.2478 1063 139.293 581.428 424.142
1157 0 82.2325 13.7294 1129 141.128 581.189 422.342
1158 0 88.1447 13.5459 1194 141.372 581.296 420.577
1159 0 90.1571 13.6096 1227 136.177 581.08 419.401
1160 0 92.1912 13.6564 1259 136.198 580.1 418.441
1161 0 96.0962 14.1213 1357 136.671 581.59 416.332
1162 0 99.1504 14.0594 1394 135.866 581.287 415.306
1163 0 101.192 14.5367 1471 136.442 580.409 412.738
1164 0 105.142 13.7719 1448 137.221 579.983 412.017
1165 0 109.156 13.7235 1498 131.654 579.358 410.895
1166 1 57.0534 11.9537 682 139.28 579.893 437.101
1167 0 58.0987 12.4099 721 134.437 579.605 436.491
1168 0 60.0667 13.0022 781 134.887 581.018 434.991
1169 0 63.0727 12.9216 815 134.723 579.523 434.247
1170 0 65.0454 12.3145 801 135.443 580.051 433.824
1171 0 65.084 12.4608 811 133.578 579.996 432.93
1172 0 67.0511 12.6769 850 129.74 582.106 432.258
1173 0 67.1083 13.2323 888 138.296 579.18 431.292
1174 0 70.0867 13.0553 915 137.857 580.474 430.565
1175 0 72.1208 13.3249 961 141.832 579.529 429.852
1176 0 76.1464 13.0013 990 137.85 579.591 428.884
1177 0 78.0972 13.3039 1039 137.761 580.193 427.309
1178 0 80.0495 13.3542 1069 143.541 578.917 426.394
1179 0 81.0897 13.3063 1079 140.116 580.124 425.141
1180 0 85.1249 13.0632 1112 142.68 579.298 423.122
1181 0 89.1144 12.9945 1158 144.664 578.899 421.955
1182 0 92.2016 12.9716 1196 147.849 579.384 420.35
1183 1 49.1035 11.3434 557 148.959 579.822 441.576
1184 0 49.0518 12.0281 590 145.639 581.198 440.739
1185 0 50.0413 12.6495 633 145.156 579.738 440.04
1186 0 54.0335 12.3812 669 142.144 582.561 439.752
1187 0 54.0719 13.0382 705 142.485 580.86 438.539
1188 0 56.0713 12.5198 702 143.259 581.672 438.872
1189 0 57.1065 12.8182 732 147.362 578.758 438.228
1190 0 56.0757 12.929 725 140.059 578.632 437.185
1191 0 60.0842 12.9485 778 143.015 580.495 436.756
1192 0 62.044 12.4267 771 145.735 579.243 436.236
1193 0 62.1174 13.2008 820 145.622 579.956 435.239
1194 0 65.1223 13.3595 870 149.275 579.141 433.712
1195 0 68.0404 12.9335 880 139.598 579.647 432.912
1196 0 68.0717 13.0891 891 147.092 578.461 431.476
1197 0 71.0773 13.2813 944 144.083 578.843 430.832
1198 0 74.0656 12.948 959 143.606 578.485 428.407
1199 0 76.0372 13.5328 1029 142.236 580.264 428.368
1200 0 79.2219 12.5218 992 144.348 579.958 426.401
1201 0 82.1636 12.8646 1057 144.951 579.147 425.037
1202 1 46.0573 10.4435 481 138.042 580.283 443.453
1203 0 47.0248 11.0155 518 140.724 579.299 442.739
1204 0 49.0265 11.708 574 136.524 577.974 440.937
1205 0 50.0569 12.8254 642 135.396 579.333 440.371
1206 0 51.0481 13.0857 668 138.054 576.536 439.496
1207 0 53.0395 12.6132 669 136.964 577.336 439.347
1208 0 55.0505 12.6793 698 138.415 580.308 437.404
1209 0 56.04 13.0086 729 137.303 580.645 437.398
1210 0 57.0253 13.0293 743 136.079 581.517 437.439
1211 0 61.0825 13.67 835 144.03 577.301 437.469
1212 0 62.203 13.1183 816 141.593 580.782 436.049
1213 0 62.1227 13.5216 840 142.16 581.145 435.08
1214 0 66.1369 13.3511 883 138.036 580.81 433.797
1215 0 67.099 13.8154 927 140.076 579.971 433.246
1216 0 70.078 13.4136 940 141.506 579.442 432.449
1217 0 71.0601 14.1289 1004 142.143 580.713 431.505
1218 0 74.0443 14.1402 1047 147.025 578.778 430.461
1219 0 77.0842 14.1404 1090 146.985 579.691 429.892
1220 0 79.2131 14.0633 1114 144.902 578.938 428.546
1221 0 79.2131 14.0633 1114 161.571 577.938 428.546
1222 0 85.2033 14.4713 1233 144.274 580.398 425.546
1223 0 86.2091 14.6968 1267 150.791 581.44 424.122
1224 0 92.1519 14.3459 1322 147.965 582.688 422.582
1225 0 93.2668 14.6676 1368 153.281 580.961 420.771
1226 0 97.2858 14.7606 1436 150.891 581.18 419.251
1227 0 101.255 14.6264 1481 145.089 580.974 417.976
1228 0 103.428 14.7833 1529 156.642 578.026 416.817
1229 1 56.0963 12.8885 723 162.773 578.985 440.595
1230 0 58.2345 13.1365 765 160.63 578.962 439.196
1231 0 60.0724 13.7667 827 159.989 577.999 438.133
1232 0 61.226 13.6217 834 156.398 578.493 437.934
1233 0 62.0817 13.9977 869 151.341 579.604 436.53
1234 0 65.0849 13.5976 885 154.142 577.72 436.153
1235 0 67.1475 13.865 931 155.81 578.539 434.676
1236 0 69.1184 13.8747 959 156.484 578.251 433.708
1237 0 70.1334 14.4011 1010 154.505 579.805 432.75
1238 0 73.0782 14.2587 1042 145.986 578.706 432.144
1239 0 74.1063 14.2363 1055 145.409 580.959 431.027
1240 0 78.105 14.7366 1151 147.111 577.614 428.824
1241 0 78.1188 14.8492 1160 147.585 579.013 428.577
1242 0 80.0993 14.8815 1192 150.055 577.231 426.829
1243 0 84.1423 14.3804 1210 151.75 575.978 425.959
1244 0 86.1714 14.4944 1249 147.617 577.017 424.899
1245 0 90.3739 14.606 1320 146.145 575.454 424.01
1246 0 92.1939 14.643 1350 145.364 576.691 422.539
1247 0 96.2052 14.5938 1404 145.699 577.21 421.051
1248 0 98.2072 14.6934 1443 142.057 576.17 418.699
1249 0 102.217 14.479 1480 142.891 576.495 417.056
1250 1 56.0827 12.8025 718 143.214 574.653 440.813
1251 0 58.0863 13.4111 779 144.813 574.668 439.14
1252 0 59.0542 13.8517 818 139.914 575.59 438.731
1253 0 62.0774 13.757 854 142.872 577.297 438.227
1254 0 64.0576 13.8469 887 138.524 576.338 437.008
1255 0 66.1232 13.8983 919 146.052 573.266 434.708
1256 0 69.181 13.8044 955 144.629 573.966 433.68
1257 0 71.1712 14.3035 1018 142.235 574.951 432.317
1258 0 74.1043 14.2772 1058 137.045 575.809 431.096
1259 0 77.1015 13.9945 1079 139.767 575.095 430.029
1260 0 78.3674 14.3937 1128 143.645 577.563 429.226
1261 0 81.0999 14.402 1168 138.342 578.007 427.469
1262 0 84.3508 14.1907 1197 137.289 576.794 426.419
1263 0 89.2567 13.8477 1236 139.522 576.619 424.71
1264 0 91.2034 14.199 1295 139.334 577.88 422.677
1265 0 95.2042 14.054 1338 144.33 578.031 421.735
1266 0 97.2099 14.6487 1424 131.844 578.317 419.321
1267 1 51.0539 12.0461 615 139.784 577.624 444.198
1268 0 52.0426 13.2776 691 138.443 577 442.589
1269 0 54.0528 13.3388 721 138.544 576.222 441.738
1270 0 54.0637 13.854 749 140.925 576.223 442.033
1271 0 57.0194 13.8549 790 134.751 578.056 440.885
1272 0 60.0346 13.4423 807 143.152 576.311 440.256
1273 0 61.0188 13.8154 843 137.324 578.788 438.661
1274 0 64.0183 14.1522 906 138.962 578.732 437.617
1275 0 65.1078 14.5758 949 139.231 578.969 437.086
1276 0 69.0944 14.1545 978 142.457 578.652 435.911
1277 0 71.1014 13.8675 986 143.582 577.606 435.238
1278 0 73.163 14.4062 1054 134.629 578.288 433.829
1279 0 77.1095 14.2136 1096 142.09 578.946 432.373
1280 0 78.1215 14.567 1138 134.018 576.26 431.21
1281 0 84.1497 14.4861 1219 137.817 576.6 429.261
1282 0 86.127 14.1071 1215 142.473 576.835 428.38
1283 0 87.1534 14.8359 1293 138.606 576.753 426.446
1284 0 92.1171 14.2102 1309 140.497 577.634 424.578
1285 0 94.2107 15.0832 1421 133.065 578.564 422.647
1286 1 50.0686 13.9608 699 137.306 577.989 443.429
1287 0 53.1236 13.478 716 133.827 578.201 442.881
1288 0 52.0883 13.6307 710 138.797 577.459 442.59
1289 0 55.153 13.254 731 140.673 579.393 441.371
1290 0 57.1848 13.9897 800 137.149 578.909 440.146
1291 0 58.1151 14.0927 819 140.125 578.133 439.645
1292 0 59.1455 14.5235 859 137.655 578.82 438.685
1293 0 63.0954 14.0264 885 146.327 579.658 437.767
1294 0 63.229 14.2972 904 135.645 579.214 436.614
1295 0 68.1643 13.8195 942 139.565 580.092 435.331
1296 0 71.1821 14.2311 1013 137.122 577.968 433.948
1297 0 72.2338 14.37 1038 140.181 577.932 433.003
1298 0 74.1621 14.5492 1079 135.252 576.15 431.768
1299 0 79.1598 14.1107 1117 133.916 579.038 430.053
1300 0 81.2067 14.0752 1143 144.037 578.572 428.875
1301 0 84.238 13.9011 1171 137.889 576.796 427.309
1302 0 88.2522 14.0393 1239 139.004 580.254 425.454
1303 0 89.073 14.2243 1267 139.611 579.633 424.43
1304 1 48.0692 12.6484 608 145.686 579.722 445.278
1305 0 49.032 13.5014 662 145.045 578.169 444.214
1306 0 51.0115 13.4872 688 141.548 579.049 443.542
1307 0 52.1063 13.8755 723 146.552 578.003 442.513
1308 0 54.0913 13.6991 741 142.841 577.509 441.374
1309 0 56.0391 14.0438 787 141.291 578.728 440.511
1310 0 56.1756 14.2589 801 153.571 576.959 440.658
1311 0 57.2118 14.3851 823 145.07 577.656 439.507
1312 0 60.04 14.6569 880 152.908 577.068 438.428
1313 0 61.197 14.151 866 150.574 576.229 438.348
1314 0 65.0366 14.4534 940 151.656 575.879 437.357
1315 0 67.1883 14.184 953 149.399 576.059 436.474
1316 0 69.0795 14.3313 990 154.615 577.959 436.121
1317 0 71.1113 14.5687 1036 148.923 576.45 435.182
1318 0 74.1275 14.7044 1090 146.658 578.412 434.04
1319 0 76.1113 14.3474 1092 147.831 578.401 432.527
1320 0 79.1914 14.1808 1123 160.223 575.64 431.69
1321 0 82.1307 14.7204 1209 149.913 576.89 429.004
1322 0 85.0989 14.2892 1216 153.157 576.295 428.023
1323 0 89.1346 14.0237 1250 155.617 577.241 426.446
1324 0 92.1806 14.2112 1310 154.031 577.46 424.287
1325 0 96.2674 14.3351 1380 152.086 575.829 422.976
1326 0 99.0529 14.1541 1402 155.174 577.243 421.683
1327 1 53.0721 12.9446 687 159.179 575.767 444.466
1328 0 56.0554 13.3618 749 158.609 573.589 443.641
1329 0 57.0605 13.7924 787 154.17 574.557 442.657
1330 0 58.0789 13.6538 793 154.358 576.491 441.067
1331 0 61.0258 13.7319 838 148.075 576.442 439.539
1332 0 63.1146 13.7686 869 152.135 576.766 439.616
1333 0 65.1634 13.7654 897 153.448 576.232 438.692
1334 0 67.1149 13.9015 933 151.28 576.077 437.147
1335 0 69.1495 14.2445 985 147.919 576.842 436.048
1336 0 73.0784 13.8618 1013 149.907 577.93 434.917
1337 0 75.1257 13.6571 1026 142.18 576.982 433.773
1338 0 76.18 14.0851 1073 147.647 577.431 432.899
1339 0 80.064 13.7265 1099 143.709 577.978 431.451
1340 0 82.0938 14.1424 1161 147.643 577.364 429.798
1341 0 86.0852 13.7422 1183 146.451 576.557 428.119
1342 1 44.0655 12.7991 564 154.183 576.571 447.8
1343 0 47.118 13.1372 619 146.449 576.042 445.979
1344 0 50.0775 13.3194 667 144.681 576.546 445.721
1345 0 50.0448 13.5678 679 148.062 575.935 445.102
1346 0 51.0505 13.8099 705 143.426 577.384 444.477
1347 0 54.0448 13.3223 720 147.256 575.068 444.133
1348 0 56.0729 13.9283 781 141.314 576.484 442.944
1349 0 55.036 14.0635 774 149.004 577.132 443.233
1350 0 59.0643 13.9001 821 142.658 578.666 442.236
1351 0 60.0871 14.0629 845 143.338 579.102 441.089
1352 0 62.0515 14.1334 877 143.721 577.075 440.888
1353 0 65.055 13.8498 901 132.256 577.979 439.656
1354 0 67.0852 14.012 940 138.935 577.693 438.703
1355 0 67.1422 14.2682 958 136.79 579.844 437.553
1356 0 72.1438 13.7365 991 138.746 578.946 437.226
1357 0 73.1454 14.3823 1052 134.592 578.142 435.753
1358 0 77.1726 14.2408 1099 138.153 579.016 435.281
1359 0 81.3287 13.759 1119 135.408 577.873 434.454
1360 0 85.1754 13.5133 1151 137.077 575.864 432.934
1361 0 88.1164 13.4481 1185 134.307 576.76 432.081
1362 1 47.0738 12.746 600 141.427 577.488 450.767
1363 0 48.2906 13.7915 666 142.599 577.728 450.312
1364 0 50.0884 13.8555 694 133.973 577.441 449.353
1365 0 51.1506 13.7828 705 139.991 576.914 449.79
1366 0 53.0611 14.0027 743 135.86 578.074 448.962
1367 0 54.1508 14.2934 774 133.313 578.552 448.013
1368 0 56.0368 14.5083 813 139.358 578.556 447.369
1369 0 59.143 14.186 839 140.137 579.726 446.271
1370 0 60.2239 14.4959 873 140.899 579.854 445.536
1371 0 62.3495 14.6914 916 142.307 576.689 445.317
1372 0 64.1543 14.5742 935 136.138 576.246 444.165
1373 0 68.1156 14.5635 992 135.795 578.271 444.002
1374 0 70.182 14.6619 1029 136.857 578.515 442.808
1375 0 73.2683 14.017 1027 143.327 577.366 442.28
1376 0 75.1945 14.3894 1082 142.477 577.266 441.736
1377 0 79.1878 14.2067 1125 141.074 577.431 440.62
1378 0 79.1967 14.6723 1162 141.177 574.711 439.47
1379 1 41.0547 13.2019 542 155.327 578.825 457.886
1380 0 43.1068 13.9421 601 157.295 578.223 457.263
1381 0 44.0473 14.4163 635 151.843 579.208 457.817
1382 0 45.1461 14.3312 647 160.43 579.935 457.708
1383 0 46.1535 14.3868 664 164.637 578.718 457.282
1384 0 49.1178 14.2107 698 164.158 578.792 456.917
1385 0 50.0647 14.7609 739 159.367 578.912 456.786
1386 0 51.0814 14.4475 738 164.279 577.799 456.72
1387 0 53.111 14.0837 748 164.995 577.115 456.93
1388 0 55.1593 14.3947 794 163.53 579.756 456.409
1389 0 55.2092 14.5447 803 167.218 578.951 456.781
1390 0 58.1172 14.7805 859 158.477 577.296 456.355
1391 0 60.0667 14.9001 895 160.371 579.154 456.478
1392 0 62.2764 14.6765 914 162.363 577.832 456.42
1393 0 66.1018 14.6441 968 159.011 576.419 455.928
1394 0 66.1018 14.6441 968 177.345 573.419 455.928
1395 0 70.1936 14.8589 1043 156.653 578.236 456.15
1396 0 73.2405 14.7596 1081 159.937 578.798 455.935
1397 0 75.1549 14.224 1069 161.952 578.071 455.24
1398 0 79.1656 14.6149 1157 163.743 580.252 455.132
1399 0 82.2379 14.4945 1192 162.193 577.615 454.479
1400 0 87.2044 14.7011 1282 156.888 578.195 452.12
1401 1 47.0509 13.6873 644 167.422 577.514 470.478
1402 0 47.1725 14.9451 705 161.306 579.762 469.833
1403 0 50.1 14.4711 725 163.451 578.6 469.799
1404 0 50.2405 15.0675 757 160.843 575.865 470.402
1405 0 52.2611 14.772 772 166.207 576.785 470.768
1406 0 54.0479 15.0052 811 166.819 576.959 471.362
1407 0 56.2662 15.0357 846 170.678 577.285 471.156
1408 0 59.1604 14.9593 885 165.932 578.723 471.334
1409 0 61.2962 15.5474 953 167.112 577.171 471.36
1410 0 61.1244 15.4275 943 169.244 578.291 472.729
1411 0 64.326 15.3126 985 162.298 578.798 472.977
1412 0 66.2082 15.421 1021 166.927 576.921 473.455
1413 0 68.4833 15.3614 1052 164.856 577.249 473.63
1414 0 71.3144 15.4808 1104 167.038 578.509 473.145
1415 0 72.1431 15.8851 1146 166.951 577.688 471.738
1416 0 76.1624 15.7033 1196 164.012 577.385 470.779
1417 0 79.2588 15.5819 1235 162.557 576.18 469.208
1418 1 83.3176 15.1949 1266 165.331 577.239 459.404
1419 0 86.1236 15.2339 1312 165.789 577.189 458.274
1420 0 87.3015 15.2116 1328 163.449 576.526 458.57
1421 0 91.1957 15.3955 1404 166.137 575.737 458.219
1422 0 94.2344 15.4508 1456 158.916 576.076 457.518
1423 0 96.2412 15.5339 1495 161.408 576.486 457.187
1424 0 99.4342 15.4977 1541 163.466 578.306 456.382
1425 0 102.216 15.8976 1625 163.068 576.394 455.868
1426 0 106.403 15.883 1690 166.757 577.804 454.006
1427 0 110.554 15.6213 1727 162.9 576.101 453.697
1428 0 115.33 15.642 1804 160.169 575.315 451.486
1429 1 60.1398 13.2524 797 168.661 576.903 478.29
1430 0 61.2899 13.8196 847 166.218 575.122 477.45
1431 0 65.4345 13.5097 884 167.888 575.504 476.48
1432 0 66.3731 13.4994 896 168.203 577.999 475.182
1433 0 69.3603 13.6678 948 168.024 576.911 474.173
1434 0 72.1429 13.3069 960 168.434 578.686 473.466
1435 0 75.3662 13.4145 1011 162.087 578.639 470.532
1436 0 78.3279 13.3796 1048 164.586 577.524 469.22
1437 0 81.4442 13.7763 1122 158.269 578.472 466.135
1438 0 81.4741 13.5994 1108 160.756 579.613 465.822
1439 0 87.4072 13.5344 1183 162.877 578.241 464.008
1440 0 89.5259 13.8396 1239 157.354 578.609 461.995
1441 0 94.589 13.4582 1273 165.39 578.188 460.972
1442 0 98.592 13.7841 1359 163 576.347 459.424
1443 1 51.39 11.7727 605 157.05 577.759 482.327
1444 0 53.4363 11.771 629 157.601 577.963 481.851
1445 0 53.4228 12.504 668 155.4 578.29 480.763
1446 0 56.4068 12.1794 687 161.074 577.195 479.578
1447 0 56.1417 12.4328 698 155.699 579.246 478.722
1448 0 59.1859 12.1989 722 160.003 577.298 477.255
1449 0 62.3009 12.6965 791 155.015 576.946 477.01
1450 0 63.2155 12.6393 799 160.83 577.377 476.419
1451 0 63.2021 12.8951 815 157.614 578.415 475.664
1452 0 67.3217 12.4477 838 152.783 578.01 475.216
1453 0 69.3074 13.0289 903 157.99 578.076 474.446
1454 0 73.3161 12.3847 908 161.871 579.224 473.115
1455 0 74.3496 13.0196 968 161.335 578.273 470.589
1456 0 78.1952 12.7629 998 158.746 577.709 469.577
1457 0 77.2603 13.2668 1025 155.827 576.651 467.399
1458 0 83.2248 12.4963 1040 158.833 578.532 466.188
1459 0 86.2072 12.9804 1119 157.377 578.882 464.116
1460 0 88.2809 13.2758 1172 157.913 578.328 462.784
1461 1 45.162 11.0934 501 151.746 578.503 484.485
1462 0 45.1409 11.4973 519 148.879 579.285 484.062
1463 0 49.1602 11.2693 554 148.242 579.717 483.471
1464 0 49.1855 11.6091 571 146.879 580.173 482.727
1465 0 50.2409 11.4448 575 146.405 581.153 481.727
1466 0 53.2853 11.673 622 150.019 579.732 481.003
1467 0 54.2296 12.0967 656 149.111 578.898 480.841
1468 0 56.4311 11.7134 661 150.823 578.135 480.523
1469 0 58.2229 11.9369 695 145.38 577.21 478.843
1470 0 60.475 11.8396 716 148.413 576.207 478.39
1471 0 61.3363 12.2929 754 149.757 575.736 477.22
1472 0 62.3841 12.0223 750 145.233 576.624 476.119
1473 0 63.5348 12.686 806 145.84 576.68 474.542
1474 0 67.4147 12.1784 821 149.934 578.22 473.516
1475 0 68.2922 12.4026 847 144.013 578.545 472.436
1476 0 70.3814 12.2476 862 147.672 579.661 471.992
1477 0 73.3975 12.5617 922 149.297 579.006 470.36
1478 0 76.3388 12.3921 946 146.2 578.193 468.717
1479 0 80.3215 12.3504 992 148.055 579.795 467.323
1480 0 80.3147 12.5382 1007 145.436 578.114 465.857
1481 0 84.2872 12.4218 1047 143.232 579.062 464.141
1482 1 46.3205 11.1182 515 144.441 579.066 478.019
1483 0 47.1276 11.3522 535 145.613 579.692 475.708
1484 0 51.1333 11.1473 570 146.274 577.851 475.265
1485 0 50.1269 11.7701 590 143.09 580.29 474.71
1486 0 53.1397 11.4227 607 148.178 580.206 472.903
1487 0 55.1007 11.851 653 145.245 579.619 471.781
1488 0 57.088 11.6487 665 152.747 578.558 470.553
1489 0 57.1756 12.1555 695 148.422 578.987 470.063
1490 0 59.0928 11.6935 691 150.184 579.381 469.106
1491 0 61.202 12.2708 751 143.968 577.928 468.089
1492 0 63.2701 12.0594 763 152.155 578.028 467.705
1493 0 65.2319 12.0493 786 153.618 576.928 467.333
1494 0 65.2319 12.0493 786 159.396 575.928 467.333
1495 0 69.2619 12.5177 867 149.448 578.956 468.943
1496 0 73.3137 12.3033 902 153.325 580.123 468.124
1497 0 73.1826 11.9154 872 132.221 578.537 459.452
1498 0 78.3247 12.9078 1011 151.703 577.8 455.558
1499 0 79.1762 12.8953 1021 153.524 577.987 455.118
1500 0 83.343 12.6705 1056 154.202 578.836 455.449
1501 1 43.1507 10.753 464 151.595 578.562 475.448
1502 0 45.2459 11.0728 501 153.814 579.97 475.046
1503 0 45.2248 11.3433 513 152.483 579.421 473.316
1504 0 47.1053 11.7609 554 151.247 580.7 469.874
1505 0 50.1556 11.2051 562 157.667 579.667 471.144
1506 0 50.1052 11.6954 586 153.392 578.27 471.48
1507 0 53.137 11.3104 601 144.391 578.153 470.145
1508 0 54.1503 11.228 608 134.798 578.033 465.539
1509 0 56.1809 12.0504 677 153.64 579.399 463.84
1510 0 56.1695 12.2308 687 149.591 579.604 464.068
1511 0 60.1346 11.8734 714 149.084 578.335 463.479
1512 0 60.1559 12.0686 726 149.602 577.697 461.791
1513 0 61.161 11.1836 684 140.882 578.839 460.56
1514 0 63.2805 12.3577 782 145.615 578.995 459.586
1515 0 65.3 12.1746 795 152.815 578.116 458.765
1516 1 40.0639 10.034 402 147.192 578.348 469.455
1517 0 41.0752 10.493 431 143.622 577.162 469.629
1518 0 43.0433 10.9889 473 146.915 577.116 468.154
1519 0 44.0853 11.5004 507 152.791 578.665 468.385
1520 0 46.1016 10.8239 499 144.084 577.744 468.944
1521 0 46.0745 11.5031 530 154.194 579.385 468.258
1522 0 47.0473 12.0942 569 154.487 578.422 466.613
1523 0 48.0395 12.344 593 152.987 577.287 464.745
1524 0 52.011 12.3051 640 153.316 577.5 463.908
1525 0 53.0761 12.2654 651 157.278 576.813 463.522
1526 0 55.0688 12.2574 675 156.521 576.856 463.092
1527 0 56.058 12.6476 709 155.279 576.867 462.86
1528 0 58.0432 12.5252 727 151.464 577.455 461.235
1529 0 59.0541 12.3616 730 155.468 576.404 461.341
1530 0 59.091 12.8277 758 156.314 575.559 460.418
1531 0 62.0622 12.3908 769 152.218 576.469 459.095
1532 0 63.0753 13.0162 821 141.99 577.91 457.939
1533 0 64.0452 12.9596 830 152.066 576.377 457.272
1534 0 67.078 13.0743 877 149.779 577.46 455.807
1535 0 68.0836 13.3512 909 151.207 576.476 455.315
1536 0 72.0732 13.0007 937 146.482 576.488 453.019
1537 0 73.0446 12.9099 943 148.338 575.988 452.425
1538 0 76.1097 12.7842 973 147.333 577.876 450.306
1539 0 79.0629 12.4837 987 143.64 577.263 449.275
1540 0 81.1593 12.6048 1023 147.014 578.524 447.612
1541 1 41.2771 10.9746 453 139.916 576.706 467.324
1542 0 43.2402 11.1933 484 149.583 577.103 464.682
1543 0 45.3128 11.8951 539 141.456 575.52 464.831
1544 0 47.3474 12.0175 569 152.794 575.413 463.615
1545 0 46.194 12.4908 577 149.423 575.842 462.035
1546 0 49.2042 12.4989 615 153.759 576.148 461.589
1547 0 52.1889 12.7039 663 145.196 575.4 459.56
1548 0 53.1156 12.1998 648 152.625 575.787 458.866
1549 0 55.1115 12.6108 695 149.968 576.449 458.17
1550 0 55.0827 12.926 712 152.687 575.701 456.862
1551 0 57.062 13.1261 749 150.306 577.688 456.753
1552 0 62.1262 12.4102 771 148.717 579.24 455.651
1553 0 61.1497 12.87 787 145.113 576.595 454.579
1554 0 63.2005 12.8164 810 153.204 575.073 453.425
1555 0 64.3125 13.0923 842 151.892 574.066 452.662
1556 0 66.2502 13.1169 869 151.795 576.166 451.488
1557 0 68.1696 13.3784 912 142.25 574.316 450.268
1558 0 70.1872 12.9653 910 146.337 577.258 449.455
1559 0 73.1643 13.0528 955 153.753 577.236 448.728
1560 0 77.2 13.3161 1028 146.518 575.91 447.446
1561 0 78.1581 13.5878 1062 143.464 574.866 446.484
1562 0 81.3243 13.2925 1081 147.271 575.343 445.265
1563 0 86.2071 13.4212 1157 145.147 574.418 444.243
1564 0 89.2285 13.3141 1188 147.146 575.445 442.971
1565 0 93.2329 12.8924 1202 146.602 576.157 439.676
1566 0 95.3506 13.592 1296 139.16 574.889 438.181
1567 0 98.1571 13.4173 1317 138.508 576.127 437.184
1568 0 99.5217 13.1228 1306 140.703 574.466 436.455
1569 0 103.331 13.0455 1348 139.947 576.581 427.771
1570 1 56.1696 13.0142 731 136.86 576.306 440.575
1571 0 59.1193 13.0753 773 136.199 576.105 438.57
1572 0 60.1209 13.0404 784 141.522 574.912 435.735
1573 0 61.0886 13.685 836 133.568 575.353 435.433
1574 0 62.1512 13.258 824 141.778 574.715 435.04
1575 0 67.2739 13.1106 882 142.28 573.524 434.838
1576 0 68.2581 13.4782 920 136.255 574.515 433.326
1577 0 71.2562 13.0515 930 139.496 574.581 432.102
1578 0 73.3273 13.4738 988 139.766 573.243 430.189
1579 0 76.2945 13.2906 1014 134.315 575.409 428.731
1580 0 76.3038 13.3676 1020 16.7608 575.915 427.289
1581 0 80.4666 13.5336 1089 134.229 575.125 426.845
1582 0 83.3387 13.9911 1166 127.187 575.123 425.277
1583 0 86.3564 13.6875 1182 129.015 576.428 423.243
1584 0 90.2922 13.711 1238 134.166 576.866 421.674
1585 0 92.2173 13.5224 1247 128.994 576.587 420.125
1586 0 97.3002 13.3504 1299 132.413 573.427 417.488
1587 0 101.437 13.7524 1395 128.426 577.243 416.03
1588 1 51.0756 10.8075 552 125.216 576.292 440.254
1589 0 52.0324 11.5697 602 131.035 576.226 439.357
1590 0 55.0288 12.2118 672 122.131 574.027 438.946
1591 0 58.1208 12.2331 711 126.858 576.025 440.197
1592 0 59.3476 12.3847 735 129.616 574.278 440.199
1593 0 61.2174 12.3658 757 125.905 575.001 440.39
1594 0 63.2371 12.5401 793 127.569 573.649 438.947
1595 0 64.0824 12.5463 804 125.495 573.532 435.131
1596 0 66.273 13.2331 877 120.323 574.867 435.21
1597 0 69.1098 13.124 907 122.258 575.207 433.869
1598 0 71.116 12.9085 918 124.861 577.073 432.44
1599 0 74.1516 12.7711 947 122.822 575.984 431.904
1600 0 75.1488 12.9876 976 117.044 575.537 431.118
1601 0 78.2071 12.8633 1006 125.599 574.311 430.062
1602 0 81.4085 13.3156 1084 124.324 574.831 427.262
1603 0 83.2617 13.6317 1135 124.27 573.757 426.59
1604 0 87.1717 12.8597 1121 125.624 572.042 424.133
1605 0 89.2138 13.1482 1173 127.647 573.843 423.599
1606 0 94.2779 13.1102 1236 123.067 574.134 421.612
1607 1 46.0646 10.8543 500 117.616 576.99 445.208
1608 0 47.052 11.2854 531 121.469 576.832 445.563
1609 0 49.2302 11.8017 581 123.816 575.516 448.546
1610 0 50.2329 12.0638 606 122.611 576.686 447.104
1611 0 52.1857 12.4172 648 122.836 576.142 446.372
1612 0 54.2126 12.2296 663 121.182 575.048 445.523
1613 0 55.1852 12.8477 709 119.147 577.003 444.591
1614 0 57.2408 12.6134 722 118.305 574.852 443.868
1615 0 59.1775 12.8934 763 118.646 574.347 443.57
1616 0 62.3593 12.7487 795 122.089 574.743 442.972
1617 0 62.325 12.852 801 125.975 574.347 441.255
1618 0 63.4073 13.5631 860 128.96 571.566 440.263
1619 0 66.4906 13.0094 865 123.842 573.253 439.039
1620 0 68.2901 12.9155 882 130.878 575.73 437.946
1621 0 72.4507 12.9743 940 131.498 575.358 437.516
1622 0 73.2779 12.937 948 128.737 575.044 436.077
1623 0 76.4508 13.185 1008 136.841 576.384 434.327
1624 0 78.1285 13.4266 1049 19.7121 573.919 433.48
1625 0 79.2819 13.2439 1050 135.393 575.854 432.862
1626 0 81.3634 13.495 1098 136.859 575.775 431.011
1627 0 85.3964 13.0802 1117 135.015 576.546 428.876
1628 0 87.4524 12.9671 1134 136.164 577.102 428.949
1629 1 49.5543 11.5025 570 143.095 574.904 448.244
1630 0 51.3796 11.5805 595 136.608 574.987 447.319
1631 0 49.235 12.7755 629 131.587 573.913 446.253
1632 0 50.4105 12.2594 618 128.406 574.333 446.362
1633 0 53.3512 12.2959 656 131.924 577.043 445.241
1634 0 55.4101 12.2902 681 60.8766 575.107 445.201
1635 0 57.3316 12.3143 706 130.469 578.034 443.664
1636 0 58.2996 12.8303 748 133.751 576.184 442.603
1637 0 60.4183 12.3142 744 123.809 576.354 442.024
1638 0 63.2412 12.5393 793 128.108 576.224 439.393
1639 0 63.3422 12.4877 791 136.952 574.743 439.451
1640 0 64.2647 12.7442 819 127.662 575.854 438.653
1641 0 69.2747 12.6742 878 126.71 575.028 436.178
1642 0 69.1728 12.982 898 130.314 574.278 436.419
1643 0 73.1371 12.7705 934 128.248 574.956 434.643
1644 0 72.2029 13.2543 957 134.628 574.317 433.359
1645 0 78.1199 13.0569 1020 128.435 576.269 431.616
1646 0 78.2101 13.451 1052 127.68 573.755 429.694
1647 0 83.2194 12.8215 1067 127.903 576.693 428.7
1648 0 84.2838 13.5139 1139 130.339 574.522 426.478
1649 1 45.0867 11.2894 509 128.603 578.273 446.519
1650 0 45.2596 12.1963 552 124.145 576.418 446.424
1651 0 47.0589 11.9212 561 118.012 575.749 444.307
1652 0 48.3526 12.3468 597 127.936 575.714 445.766
1653 0 49.2376 12.5514 618 125.314 576.154 444.565
1654 0 52.2771 12.7972 669 130.546 576.52 444.386
1655 0 53.2754 12.8014 682 129.218 576.43 443.315
1656 0 54.1555 13.055 707 131.39 576.031 442.818
1657 0 55.1837 13.2104 729 133.546 577.9 441.94
1658 0 57.191 12.9741 742 130.48 577.71 441.096
1659 0 59.1511 12.8315 759 129.9 577.183 440.968
1660 0 61.1987 13.0558 799 131.613 578.059 439.074
1661 0 63.1944 12.8176 810 135.819 576.579 439.511
1662 0 65.1338 13.0194 848 126.965 577.507 437.344
1663 0 65.1348 13.2648 864 135.148 575.912 437.16
1664 0 68.1035 13.3033 906 136.627 574.907 435.573
1665 0 69.2182 13.6236 943 128.918 577.063 434.583
1666 0 71.2076 13.6222 970 137.774 575.346 433.852
1667 0 75.1753 12.9431 973 134.576 574.603 432.254
1668 0 78.1672 13.2792 1038 136.889 572.53 431.328
1669 0 81.1168 13.0552 1059 134.325 574.35 429.315
1670 0 83.1585 13.1195 1091 136.906 574.09 427.994
1671 0 85.1786 12.9023 1099 137.248 575.026 427.502
1672 1 45.0586 11.363 512 134.725 575.254 447.867
1673 0 47.0842 11.9785 564 133.133 574.995 446.605
1674 0 49.1862 11.9546 588 134.794 576.284 446.4
1675 0 49.2419 12.2457 603 131.919 575.922 446.443
1676 0 51.1442 12.4941 639 121.743 576.775 445.504
1677 0 53.1426 12.7017 675 130.268 575.313 443.985
1678 0 53.1239 12.5367 666 129.941 575.638 443.668
1679 0 55.0985 12.7227 701 126.532 579.107 442.31
1680 0 57.1687 13.4339 768 123.702 577.134 442.023
1681 0 57.1687 13.4339 768 156.441 574.134 442.023
1682 0 61.1382 13.3959 819 124.479 576.116 440.346
1683 0 63.2254 12.5266 792 124.745 575.774 440.754
1684 0 65.1881 13.438 876 132.978 577.108 439.412
1685 0 68.116 13.1247 894 122.126 576.183 439.265
1686 0 69.1942 13.9607 966 128.747 577.005 437.435
1687 0 71.1495 13.8722 987 127.995 577.315 436.093
1688 0 76.1641 13.6022 1036 132.57 577.015 434.815
1689 0 77.1252 13.7439 1060 131.358 577.108 433.783
1690 0 80.185 13.5811 1089 130.473 577.838 433.239
1691 0 83.1689 13.5507 1127 132.161 577.709 432.876
1692 0 85.1788 13.5949 1158 132.261 577.406 431.685
1693 1 47.0916 12.0191 566 135.76 577.081 450.64
1694 0 49.1724 12.6087 620 134.024 576.892 450.303
1695 0 51.1278 13.1827 674 116.309 576.215 448.147
1696 0 51.0674 12.8458 656 133.564 576.979 448.806
1697 0 53.187 12.6911 675 127.924 575.917 448.253
1698 0 56.1995 12.509 703 129.63 577.791 447.127
1699 0 57.165 12.9975 743 130.159 577.712 446.202
1700 0 57.1274 13.2161 755 130.581 579.03 445.689
1701 0 60.0774 13.4327 807 123.599 577.613 444.887
1702 0 61.1583 13.6368 834 127.597 577.486 443.767
1703 0 64.1487 13.3128 854 123.029 578.462 442.646
1704 0 66.2017 13.5193 895 127.237 576.769 442.049
1705 0 69.2478 13.0835 906 124.975 577.617 441.668
1706 0 72.2856 13.2115 955 125.665 577.829 440.191
1707 0 74.1686 13.6716 1014 123.394 577.128 438.715
1708 0 75.2044 13.3503 1004 126.212 575.661 438.204
1709 0 77.3066 13.634 1054 118.974 576.872 437.121
1710 0 80.3211 13.9938 1124 120.937 577.697 435.079
1711 0 84.2928 13.7971 1163 118.579 578.399 434.482
1712 0 86.2594 13.6101 1174 122.871 578.698 433.347
1713 0 89.1442 13.6072 1213 125.5 578.298 432.084
1714 0 91.3589 13.6385 1246 121.164 578.12 431.48
1715 0 96.2449 13.4553 1295 120.844 579.256 428.915
1716 1 52.0425 12.3937 645 118.409 579.929 449.729
1717 0 54.1124 12.9176 699 117.448 578.172 449.501
1718 0 55.2283 12.6565 699 123.03 580.026 449.605
1719 0 58.2615 12.7013 740 121.822 578.528 448.2
1720 0 57.2259 13.6302 780 121.887 577.858 446.856
1721 0 60.1939 13.3236 802 119.909 577.749 445.719
1722 0 63.2825 13.4792 853 113.856 579.054 443.92
1723 0 65.1746 13.6556 890 114.685 579.17 443.764
1724 0 68.2632 13.4186 916 114.259 576.772 442.898
1725 0 69.179 13.6602 945 114.315 577.716 441.699
1726 0 72.243 13.3023 961 115.158 577.726 440.994
1727 0 73.2694 13.5118 990 116.584 579.3 440.604
1728 0 75.3151 13.5697 1022 113.014 578.554 438.607
1729 0 77.3243 13.8637 1072 114.489 579.388 437.288
1730 0 82.2988 13.8277 1138 112.243 578.079 435.617
1731 0 83.4522 13.7084 1144 116.878 578.777 434.18
1732 0 87.2098 13.9319 1215 112.826 578.318 432.321
1733 0 90.2681 13.7922 1245 110.67 577.934 429.687
1734 0 92.4097 13.8081 1276 113.372 577.21 428.58
1735 0 97.4929 13.6318 1329 110.376 576.622 426.478
1736 1 52.2678 11.9385 624 106.921 577.744 448.68
1737 0 54.2193 12.5048 678 107.106 575.973 447.973
1738 0 53.2269 12.8507 684 109.462 577.667 447.175
1739 0 57.1569 12.6319 722 105.393 577.278 445.844
1740 0 57.1566 13.1218 750 101.54 580.273 444.977
1741 0 59.2107 13.1564 779 101.884 579.583 443.529
1742 0 60.0364 13.1087 787 105.569 577.87 442.722
1743 0 62.186 13.7651 856 101.261 579.09 441.6
1744 0 64.2663 13.5997 874 103.057 578.958 440.788
1745 0 66.1736 13.7668 911 105.945 579.741 440.171
1746 0 68.2021 13.8852 947 102.7 578.19 438.454
1747 0 69.0904 14.2712 986 107.482 577.018 437.815
1748 0 72.0906 14.0379 1012 103.483 578.68 436.83
1749 0 75.2714 14.0824 1060 106.633 577.306 435.868
1750 0 77.3794 14.3578 1111 107.69 579.41 434.822
1751 0 79.2318 14.2998 1133 108.422 577.139 434.118
1752 0 83.2624 14.2561 1187 110.74 577.225 433.825
1753 0 85.1899 14.274 1216 110.427 577.012 431.053
1754 0 88.2326 14.3031 1262 106.18 578.146 429.866
1755 0 91.2726 14.3197 1307 109.396 577.796 429.099
1756 0 94.1893 14.5876 1374 106.631 577.282 427.917
1757 0 96.3783 14.3705 1385 109.864 577.08 426.723
1758 0 100.248 14.4442 1448 107.8 577.532 425.126
1759 0 103.203 14.3698 1483 109.306 579.232 424.532
1760 0 107.21 14.4482 1549 108.605 579.305 422.296
1761 1 57.2479 12.4371 712 114.409 579.098 447.319
1762 0 59.1879 12.8405 760 111.847 578.372 446.786
1763 0 59.1937 13.5825 804 113.368 579.618 445.583
1764 0 63.126 13.1325 829 106.346 578.408 444.71
1765 0 64.2082 13.1759 846 113.126 579.973 444.13
1766 0 66.1028 12.8588 850 109.272 578.646 443.501
1767 0 66.071 13.6974 905 116.787 578.567 442.41
1768 0 69.1134 13.6732 945 115.347 579.135 441.168
1769 0 73.0813 13.615 995 116.61 577.782 439.688
1770 0 74.1371 13.8932 1030 119.598 578.445 438.263
1771 0 76.1452 13.3167 1014 118.395 577.966 437.904
1772 0 78.0927 13.612 1063 121.851 576.983 436.278
1773 0 82.0728 13.5368 1111 117.283 578.194 433.491
1774 0 85.1458 13.5415 1153 117.354 579.199 432.956
1775 0 87.2943 13.4373 1173 124.466 578.682 429.093
1776 0 89.3454 13.2743 1186 122.656 578.825 426.844
1777 1 48.0348 12.824 616 121.386 576.643 448.266
1778 0 50.2351 12.9989 653 118.185 578.764 447.966
1779 0 50.163 13.1172 658 121.822 576.122 446.707
1780 0 54.0923 12.682 686 122.65 576.883 444.92
1781 0 56.0749 13.0361 731 122.907 578.037 444.275
1782 0 57.2354 13.3484 764 117.411 579.034 443.588
1783 0 59.3221 13.452 798 120.135 577.144 442.378
1784 0 61.0651 13.4611 822 120.58 577.028 440.734
1785 0 62.1317 13.7611 855 120.026 577.235 440.318
1786 0 64.1848 13.539 869 122.169 576.994 439.194
1787 0 67.3261 13.6054 916 117.325 576.444 438.476
1788 0 69.4049 13.4429 933 120.716 577.949 436.671
1789 0 73.1009 13.5019 987 117.852 576.306 435.691
1790 0 76.2384 13.5627 1034 123.637 577.498 434.02
1791 0 76.2684 13.7147 1046 119.354 576.833 433.372
1792 0 80.2655 13.3681 1073 120.461 578.221 431.327
1793 0 83.2689 13.3543 1112 120.545 576.171 429.451
1794 0 86.2328 13.3476 1151 121.399 576.235 427.666
1795 1 44.1234 11.6491 514 119.57 576.909 448.105
1796 0 45.1953 12.2579 554 122.63 576.354 447.182
1797 0 49.1421 12.1281 596 118.628 578.28 445.549
1798 0 50.1501 12.5025 627 120.215 578.297 445.872
1799 0 51.3044 12.4746 640 120.272 576.772 446.034
1800 0 54.2662 12.3834 672 116.073 576.821 444.351
1801 0 55.2008 12.3549 682 121.507 574.971 443.001
1802 0 56.2016 13.0779 735 118.758 576.608 441.965
1803 0 57.2161 12.8286 734 119.846 578.244 441.673
1804 0 60.108 12.7604 767 128.729 577.252 440.924
1805 0 62.1538 13.0966 814 120.928 579.896 439.64
1806 0 63.1667 12.9815 820 125.901 578.929 439.282
1807 0 67.1809 12.9799 872 122.327 577.321 437.658
1808 0 69.1429 12.9876 898 129.059 577.078 437.088
1809 0 71.2216 13.2404 943 127.864 577.857 435.625
1810 0 73.1095 13.514 988 128.197 577.186 433.802
1811 0 76.2293 13.3676 1019 125.587 578.313 432.851
1812 0 75.2125 13.4685 1013 128.53 579.781 432.571
1813 0 75.2125 13.4685 1013 160.964 581.781 432.571
1814 0 83.2045 13.4849 1122 128.899 577.443 430.848
1815 0 86.3031 13.8697 1197 125.682 575.549 426.53
1816 0 89.1814 13.6463 1217 127.333 575.023 424.135
1817 1 46.1227 11.9464 551 126.283 576.682 445.566
1818 0 47.0468 12.6257 594 124.172 578.375 444.716
1819 0 50.3001 13.1809 663 124.219 576.875 444.857
1820 0 52.2162 12.8313 670 125.231 575.555 444.461
1821 0 53.3087 12.8684 686 125.041 576.482 444.423
1822 0 55.2845 12.8607 711 131.179 575.636 443.841
1823 0 57.2466 13.0837 749 133.543 575.805 443.001
1824 0 58.1407 12.9857 755 132.98 576.837 442.74
1825 0 57.2806 13.1633 754 130.828 578.191 441.92
1826 0 61.3008 13.393 821 131.068 576.283 441.105
1827 0 64.4038 13.229 852 126.702 575.465 439.972
1828 0 66.2782 13.2623 879 122.945 576.85 438.653
1829 0 69.2894 12.8591 891 128.554 576.044 438.747
1830 0 70.3706 13.2726 934 129.913 576.269 437.097
1831 0 73.2991 13.0288 955 125.375 577.214 436.816
1832 0 76.1702 13.4567 1025 126.04 575.965 434.297
1833 0 79.2226 13.0013 1030 125.045 576.757 433.034
1834 0 82.2734 13.0297 1072 130.037 575.259 431.74
1835 0 84.2209 13.1678 1109 141.707 576.199 430.194
1836 1 43.125 11.2232 484 149.339 576.68 451.366
1837 0 44.2247 11.7581 520 147.263 579.525 450.44
1838 0 44.1531 12.5472 554 144.892 578.269 449.814
1839 0 47.2358 12.3847 585 150.889 579 448.089
1840 0 49.1411 12.5353 616 145.828 576.812 447.127
1841 0 49.247 12.7114 626 150.513 579.318 446.543
1842 0 51.1502 13.1964 675 149.628 577.08 444.781
1843 0 52.1661 13.0161 679 153.571 575.081 443.881
1844 0 53.1433 13.1155 697 152.201 576.641 442.69
1845 0 55.1524 13.091 722 157.259 576.105 443.079
1846 0 55.2634 13.499 746 151.571 576.26 442.027
1847 0 57.107 13.4835 770 159.736 578.168 441.375
1848 0 59.2457 13.1318 778 155.343 578.419 440.8
1849 0 61.1487 13.6225 833 158.208 577.19 440.652
1850 0 63.0852 13.886 876 156.114 576.913 437.729
1851 0 63.0852 13.886 876 166.796 576.913 437.729
1852 0 67.0284 13.9791 937 158.268 577.074 436.378
1853 0 67.0905 14.1898 952 160.325 576.534 436.186
1854 0 71.1621 13.6449 971 159.734 576.776 436.109
1855 0 72.1883 14.1436 1021 159.553 577.072 435.283
1856 0 73.1305 14.5083 1061 161.246 576.956 434.71
1857 0 76.1609 14.4431 1100 159.316 577.049 433.173
1858 0 78.1315 14.4756 1131 164.464 576.103 432.321
1859 0 81.0787 14.3934 1167 165.996 575.489 431.001
1860 0 83.1311 14.7237 1224 168.648 575.738 429.202
1861 0 85.2097 14.6462 1248 161.789 575.196 427.319
1862 0 90.2298 13.9311 1257 158.693 577.612 426.378
1863 1 45.1164 12.2128 551 166.717 577.851 448.116
1864 0 47.1088 12.1421 572 169.587 577.792 447.619
1865 0 49.2017 12.9264 636 167.354 576.608 445.245
1866 0 50.1223 13.3274 668 163.211 578.876 445.609
1867 0 52.093 13.3415 695 163.2 577.535 444.948
1868 0 53.1047 13.2192 702 167.49 577.44 444.826
1869 0 55.1626 13.3424 736 162.803 577.846 443.223
1870 0 56.1002 13.5116 758 164.162 577.896 443.303
1871 0 58.1768 13.2527 771 155.776 578.616 442.245
1872 0 60.089 14.0292 843 164.093 578.535 441.715
1873 0 61.1399 13.9025 850 167.36 578.026 440.82
1874 0 63.223 14.093 891 161.934 576.886 439.927
1875 0 66.2002 14.1994 940 162.973 576.35 438.86
1876 0 68.1745 13.6121 928 166.81 577.024 438.787
1877 0 70.1177 13.8909 974 167.864 578.662 437.51
1878 0 70.1672 14.3229 1005 162.845 576.066 436.912
1879 0 73.1139 14.2517 1042 170.139 579.191 435.442
1880 0 76.2102 14.4075 1098 172.205 578.656 434.147
1881 0 79.2308 14.199 1125 163.689 576.821 432.727
1882 0 80.1815 14.118 1132 164.1 579.087 431.661
1883 0 84.1458 14.0352 1181 161.759 579.86 430.944
1884 0 85.2169 14.7623 1258 165.436 578.806 429.742
1885 0 89.1542 14.245 1270 168.155 580.92 428.217
1886 0 91.1606 14.3702 1310 158.838 579.006 427.17
1887 0 94.1885 14.2374 1341 164.304 577.882 425.962
1888 0 97.2436 14.51 1411 162.15 577.856 423.911
1889 0 98.2226 14.7929 1453 114.663 577.242 422.913
1890 1 54.2001 12.7306 690 162.822 577.135 445.82
1891 0 57.2238 13.2812 760 155.053 577.771 444.834
1892 0 58.0944 13.7879 801 157.777 576.368 443.045
1893 0 59.2569 14.3106 848 160.526 577.285 442.18
1894 0 62.25 13.8795 864 160.802 577.243 442.416
1895 0 64.126 13.8945 891 157.172 578.183 440.877
1896 0 65.1186 14.3738 936 156.783 578.398 440.066
1897 0 67.1665 14.3524 964 162.333 578.549 438.744
1898 0 71.2362 13.8974 990 159.934 577.829 437.588
1899 0 74.2626 13.3715 993 156.447 579.822 436.751
1900 0 77.1833 13.9797 1079 160.544 578.782 434.792
1901 0 79.2894 14.2516 1130 165.044 581.468 433.287
1902 0 79.174 14.2471 1128 160.56 580.953 432.8
1903 0 85.2572 14.2745 1217 161.046 578.626 430.73
1904 0 88.1713 14.1883 1251 158.471 578.715 429.954
1905 0 91.3044 14.1505 1292 163.772 578.119 428.751
1906 0 94.1444 14.1591 1333 161.239 578.602 426.679
1907 1 49.2398 12.3274 607 156.829 577.03 449.295
1908 0 49.266 12.7471 628 153.239 576.285 449.083
1909 0 52.1354 12.5442 654 161.407 577.624 448.329
1910 0 52.1421 13.2331 690 157.501 578.73 448.19
1911 0 55.1753 12.8318 708 158.802 578.617 447.432
1912 0 56.2075 13.2011 742 160.672 578.953 446.46
1913 0 58.1792 13.3209 775 160.635 578.597 445.61
1914 0 60.2861 13.5355 816 160.436 578.385 444.708
1915 0 62.1946 13.0076 809 160.548 579.449 444.776
1916 0 64.1994 13.536 869 163.159 576.787 443.116
1917 0 67.1436 13.5084 907 164.346 576.939 441.849
1918 0 68.178 13.1421 896 161.737 578.384 440.973
1919 0 70.2061 13.1185 921 162.745 578.14 439.37
1920 0 73.2997 13.0287 955 162.75 578.417 438.356
1921 0 73.2559 13.4187 983 156.425 578.289 437.199
1922 0 74.1864 13.7087 1017 159.667 577.001 436.187
1923 0 77.32 13.4635 1041 164.654 576.114 435.338
1924 0 79.3073 13.5927 1078 149.323 575.776 433.916
1925 0 84.2736 13.4562 1134 152.6 577.557 432.392
1926 0 86.2718 13.1909 1138 159.548 579.158 431.49
1927 0 87.2089 13.8059 1204 154.231 577.976 428.191
1928 1 49.1146 11.1983 550 154.889 579.995 450.287
1929 0 51.0458 12.0088 613 153.302 580.122 446.71
1930 0 52.0244 12.7825 665 152.429 580.869 445.777
1931 0 54.2177 12.0994 656 149.468 580.523 446.476
1932 0 56.2263 12.5742 707 149.71 578.307 446.052
1933 0 57.2641 12.4162 711 147.955 580.61 445.435
1934 0 58.1284 12.696 738 156.233 579.649 444.801
1935 0 60.195 12.9911 782 154.153 578.187 443.593
1936 0 63.3311 13.0899 829 147.309 578.284 442.081
1937 0 63.1888 13.2144 835 150.434 577.989 441.374
1938 0 66.2664 12.8572 852 153.629 577.161 441.197
1939 0 67.2966 13.1359 884 152.893 577.919 438.838
1940 0 68.15 13.1181 894 150.492 577.46 438.451
1941 0 73.319 13.3253 977 149.439 577.915 436.278
1942 0 74.2206 13.4194 996 142.867 576.787 434.932
1943 0 75.4194 13.3918 1010 150.028 578.43 434.197
1944 0 79.3204 13.1492 1043 145.617 577.615 432.593
1945 0 82.2735 13.212 1087 148.641 578.101 430.766
1946 0 85.1731 13.361 1138 153.389 576.336 429.777
1947 0 88.3393 13.4934 1192 146.283 578.656 427.214
1948 1 44.2693 10.9783 486 145.012 579.346 448.358
1949 0 46.2567 11.3065 523 147.25 579.901 446.977
1950 0 46.2145 12.0741 558 143.328 579.645 446.095
1951 0 50.2014 12.0714 606 144.822 578.507 445.244
1952 0 52.3102 12.6553 662 138.094 579.37 444.305
1953 0 52.2716 12.3203 644 143.34 578.477 442.986
1954 0 55.1162 12.4646 687 146.868 577.224 442.258
1955 0 56.3347 12.5145 705 146.302 578.495 441.956
1956 0 58.2385 12.5862 733 146.263 577.506 441.194
1957 0 59.2204 13.2556 785 141.31 578.778 439.622
1958 0 61.2116 12.808 784 141.117 578.473 438.62
1959 0 63.3517 13.0383 826 137.956 578.943 437.484
1960 0 66.2274 13.2876 880 142.086 577.745 436.58
1961 0 69.1681 12.9829 898 141.734 576.704 435.119
1962 0 68.2674 13.0956 894 144.721 577.525 433.999
1963 0 71.1072 13.4726 958 141.53 579.135 432.914
1964 0 73.3052 13.3142 976 143.46 576.085 431.514
1965 0 76.1146 13.2563 1009 141.542 579.068 430.832
1966 0 79.1465 13.3297 1055 144.254 578.492 429.069
1967 0 80.1416 13.1767 1056 139.045 578.397 427.678
1968 0 83.1298 13.2925 1105 139.188 577.878 425.892
1969 0 86.1421 12.9437 1115 136.382 579.702 425.284
1970 0 90.2064 13.0479 1177 145.436 579.704 422.513
1971 1 47.0635 11.2189 528 139.472 580.417 444.693
1972 0 49.1074 11.4647 563 140.998 580.046 444.048
1973 0 51.079 12.0206 614 138.655 580.792 443.207
1974 0 50.1312 12.3077 617 133.267 579.63 442.392
1975 0 52.1492 12.4642 650 140.657 579.663 443.52
1976 0 54.2872 11.7891 640 137.753 576.392 444.458
1977 0 56.2696 11.978 674 136.869 576.694 443.924
1978 0 58.1648 12.2239 711 135.338 577.911 443.606
1979 0 60.2628 12.3957 747 132.459 577.467 442.116
1980 0 59.2397 12.4747 739 139.273 577.959 441.675
1981 0 61.1461 12.5601 768 138.276 577.423 440.954
1982 0 63.1761 12.758 806 138.818 576.83 440.641
1983 0 66.163 12.832 849 135.378 577.85 439.332
1984 0 67.1457 12.4505 836 138.86 577.87 439.221
1985 0 69.2032 13.352 924 134.176 578.777 436.147
1986 0 72.2576 12.5662 908 136.82 578.769 436.012
1987 0 75.2456 12.9044 971 138.763 579.015 434.437
1988 0 77.2327 12.7407 984 140.163 576.325 432.789
1989 0 80.1797 13.2577 1063 141.294 576.007 431.677
1990 0 84.2313 13.4036 1129 143.924 578.725 430.465
1991 1 42.0814 10.5747 445 140.076 577.885 450.258
1992 0 43.023 10.5525 454 144.987 578.575 450.562
1993 0 45.0762 11.4473 516 138.3 580.707 449.657
1994 0 45.1325 12.1199 547 141.143 579.848 448.907
1995 0 46.084 12.5857 580 140.843 579.281 447.234
1996 0 48.0952 12.6624 609 137.663 578.58 446.491
1997 0 50.1061 12.6132 632 146.454 579.994 446.896
1998 0 52.0389 12.7981 666 139.739 582.838 445.354
1999 0 52.1447 13.079 682 148.123 582.293 445.133
2000 0 56.0882 12.8013 718 149.557 581.072 443.922
2001 0 55.1054 12.83 707 152.502 579.103 443.482
2002 0 57.0737 13.7542 785 147.22 579.28 442.217
2003 0 61.1385 13.4449 822 146.681 579.464 442.153
2004 0 63.0551 13.3534 842 154.998 578.848 440.254
2005 0 64.1624 13.9178 893 154.26 579.318 439.057
2006 0 65.1719 13.871 904 161.483 578.902 438.283
2007 0 66.1842 14.0064 927 158.413 581.14 436.924
2008 0 68.1656 14.23 970 155.574 578.775 435.018
2009 0 72.367 14.0395 1016 158.408 577.637 433.832
2010 0 71.3416 14.4096 1028 160.756 578.366 433.212
2011 0 76.3138 14.1914 1083 162.362 577.337 431.463
2012 0 77.2778 14.2214 1099 157.633 578.057 430.584
2013 0 81.125 14.5824 1183 148.159 579.045 430.271
2014 0 83.1996 13.8222 1150 157.173 577.915 427.996
2015 0 85.143 14.458 1231 157.697 578.877 427.213
2016 0 87.0829 14.5608 1268 156.927 580.363 425.83
2017 1 47.036 12.8838 606 162.774 579.031 446.406
2018 0 49.0856 13.5681 666 158.523 578.372 446.188
2019 0 50.2027 13.4455 675 163.597 577.32 445.234
2020 0 50.1098 13.5303 678 159.633 578.448 446.162
2021 0 53.1411 13.4171 713 161.544 579.299 445.4
2022 0 53.0394 13.4617 714 160.629 580.937 444.651
2023 0 54.0542 13.838 748 162.824 581.055 445.131
2024 0 57.141 13.8779 793 162.695 580.521 443.874
2025 0 60.0727 13.4337 807 163.213 578.369 443.173
2026 0 61.0847 14.0952 861 168.706 580.879 442.36
2027 0 61.1413 13.9186 851 167.671 578.588 442.154
2028 0 64.0823 13.9508 894 172.553 578.635 441.138
2029 0 66.1361 14.1677 937 166.624 579.015 440.312
2030 0 68.1722 13.862 945 167.319 577.6 438.568
2031 0 69.106 14.3258 990 166.785 578.025 437.466
2032 0 72.1666 13.8291 998 161.929 579.442 436.004
2033 0 76.2415 14.0081 1068 165.293 580.779 435.072
2034 0 78.1916 14.0041 1095 157.164 580.105 433.236
2035 0 80.1668 13.9085 1115 162.603 580.408 432.722
2036 0 83.1542 14.3829 1196 164.038 580.207 431.134
2037 1 44.0507 13.371 589 162.559 577.572 449.08
2038 0 46.0379 13.4889 621 163.986 581.575 448.267
2039 0 49.1466 13.124 645 167.476 578.792 447.65
2040 0 51.084 13.4484 687 161.707 579.306 447.122
2041 0 50.0382 13.6895 685 156.05 578.279 446.636
2042 0 54.0709 13.0939 708 161.453 578.713 446.186
2043 0 53.0997 13.6724 726 157.576 577.348 445.264
2044 0 56.1317 13.6999 769 160.649 581.338 444.12
2045 0 59.153 13.4904 798 160.875 579.397 443.177
2046 0 59.0635 13.9511 824 159.996 579.369 442.474
2047 0 62.1065 14.0082 870 159.441 577.941 442.044
2048 0 64.0648 14.017 898 154.002 578.323 441.099
2049 0 67.1213 13.7512 923 159.365 582.355 440.351
2050 0 68.1229 13.9014 947 156.962 579.998 438.59
2051 0 69.0736 14.4049 995 158.091 580.011 438.242
2052 0 73.1447 14.068 1029 161.155 580.344 436.181
2053 0 76.1603 14.0625 1071 156.821 578.814 435.911
2054 0 77.1507 14.4911 1118 151.317 578.937 434.177
2055 0 81.1569 14.0715 1142 161.187 578.852 433.538
2056 0 83.1735 14.3796 1196 160.431 579.783 431.722
2057 0 87.1173 14.3829 1253 162.997 579.5 430.16
2058 1 45.1904 12.569 568 161.629 581.271 450.419
2059 0 48.1694 12.7052 612 161.712 579.551 450.242
2060 0 48.1189 13.1965 635 158.534 580.082 448.66
2061 0 49.2237 13.3066 655 160.478 580.995 448.902
2062 0 53.1531 13.0566 694 152.249 580.509 448.062
2063 0 52.1218 13.6987 714 162.069 582.338 447.552
2064 0 55.1566 13.3257 735 159.288 581.362 446.822
2065 0 57.1575 13.524 773 161.014 581.484 446.128
2066 0 58.1347 13.8643 806 158.268 582.916 444.617
2067 0 60.1302 13.6038 818 154.969 582.104 444.715
2068 0 62.1245 13.811 858 158.072 578.994 443.598
2069 0 62.1466 14.4014 895 158.571 579.313 441.527
2070 0 65.0972 14.0406 914 155.252 579.768 440.709
2071 0 68.0974 13.9212 948 158.149 578.666 439.791
2072 0 68.0927 14.5243 989 154.784 579.505 438.961
2073 0 70.108 14.6488 1027 158.895 579.357 437.664
2074 0 73.1796 14.3073 1047 152.988 580.436 436.2
2075 0 75.3006 14.6745 1105 162.618 580.472 435.481
2076 0 78.183 14.1975 1110 162.309 579.775 434.261
2077 0 80.1497 14.8597 1191 155.243 578.152 431.876
2078 0 83.2355 14.8735 1238 160.422 579.671 431.033
2079 0 86.2569 14.3757 1240 158.187 578.279 429.581
2080 0 89.3274 14.0606 1256 153.071 577.361 429.163
2081 0 93.3144 14.1886 1324 159.209 579.309 427.445
2082 0 96.2532 14.4307 1389 153.968 579.857 424.635
2083 0 97.1631 14.3882 1398 154.737 580.052 423.2
2084 1 51.1616 12.0794 618 153.654 581.049 447.063
2085 0 54.1078 12.8262 694 155.075 582.229 445.752
2086 0 57.2392 13.1903 755 150.379 581.951 444.676
2087 0 57.1262 12.9538 740 147.27 581.297 444.115
2088 0 59.2016 13.3273 789 151.129 578.975 443.082
2089 0 63.1159 13.0237 822 152.782 579.982 442.189
2090 0 63.2366 13.2993 841 148.25 578.686 441.316
2091 0 65.1546 13.7826 898 149.558 578.179 440.567
2092 0 68.2965 13.1485 898 154.061 579.816 439.998
2093 0 69.1555 13.6649 945 146.148 579.936 438.571
2094 0 72.1123 13.8534 999 146.578 580.273 437.508
2095 0 74.1545 13.7011 1016 154.047 579.775 435.544
2096 0 77.1267 13.6658 1054 157.801 580.777 434.908
2097 0 80.2246 13.886 1114 155.625 580.443 433.263
2098 0 82.1899 13.7608 1131 152.305 580.179 431.962
2099 0 84.1601 13.8308 1164 156.21 579.371 430.711
2100 0 86.23 13.9395 1202 151.95 581.5 429.387
2101 0 89.3203 14.2857 1276 162.98 579.701 428.132
2102 0 90.2703 14.1464 1277 155.836 580.751 426.425
2103 0 95.109 14.1101 1342 161.49 580.101 425.738
2104 0 96.2556 14.3992 1386 154.741 580.308 423.377
2105 0 101.129 14.2195 1438 158.258 578.416 422.695
2106 0 106.181 14.0043 1487 162.19 580.373 420.826
2107 0 107.277 14.2808 1532 155.638 579.981 418.1
2108 1 58.0359 12.2683 712 154.183 579.501 442.728
2109 0 61.0851 12.8018 782 155.124 578.922 441.789
2110 0 65.2111 13.1113 855 156.014 580.304 440.667
2111 0 66.2145 13.3354 883 152.703 581.395 439.812
2112 0 68.0779 13.984 952 158.789 579.505 438.133
2113 0 72.2039 13.725 991 160.638 580.888 437.333
2114 0 74.1366 13.61 1009 155.869 578.247 436.147
2115 0 77.1425 13.3389 1029 160.999 578.715 435.571
2116 0 79.2651 14.0163 1111 161.872 580.218 433.779
2117 0 81.2168 13.938 1132 157.762 580.018 432.85
2118 0 83.2768 13.8934 1157 161.074 581.244 430.774
2119 0 86.2718 14.6166 1261 155.911 578.417 428.646
2120 0 88.1292 14.7057 1296 154.686 579.164 427.258
2121 0 91.2171 14.5916 1331 158.261 579.244 426.434
2122 0 95.1725 14.2688 1358 162.317 579.527 424.817
2123 0 98.184 14.8191 1455 154.874 576.842 421.868
2124 0 102.22 14.5373 1486 157.037 580.917 422.163
2125 0 102.286 14.6941 1503 156.442 581.177 420.185
2126 0 107.224 14.6795 1574 157.688 579.334 418.009
2127 0 110.404 14.8092 1635 152.143 579.609 416.376
2128 0 114.403 14.6324 1674 159.614 579.898 414.773
2129 0 119.22 14.7962 1764 155.625 581.03 413.226
2130 1 64.0984 13.1673 844 154.441 581.094 440.557
2131 0 66.1284 13.3679 884 156.412 581.972 438.253
2132 0 69.1057 13.9062 961 68.7399 581.994 438.004
2133 0 70.1969 13.9465 979 153.469 580.847 437.087
2134 0 73.2378 13.8317 1013 154.335 578.959 436.227
2135 0 73.1718 14.2678 1044 155.91 578.043 435.284
2136 0 77.2101 14.3375 1107 159.07 579.944 433.947
2137 0 79.2907 14.3649 1139 154.874 579.865 431.835
2138 0 82.3175 14.5534 1198 152.752 581.866 430.809
2139 0 86.3565 14.1738 1224 163.083 580.972 428.758
2140 0 89.1962 14.1486 1262 160.479 578.941 428.466
2141 0 91.2153 14.3507 1309 159.229 580.032 426.934
2142 0 95.291 14.419 1374 165.948 579.097 425.664
2143 0 98.2564 14.4825 1423 165.031 579.857 423.941
2144 0 102.169 14.6228 1494 157.74 580.714 422.056
2145 0 104.307 14.3615 1498 158.775 579.207 420.19
2146 0 108.277 14.4906 1569 164.763 579.235 418.744
2147 1 58.198 13.2307 770 161.191 580.5 442.956
2148 0 61.1389 13.0359 797 161.631 579.733 442.359
2149 0 62.1068 13.1548 817 161.121 580.321 441.727
2150 0 64.2043 13.0365 837 154.189 580.483 440.665
2151 0 67.4113 13.3064 897 163.973 581.667 439.248
2152 0 69.2648 13.3979 928 158.176 581.009 438.149
2153 0 71.3792 13.4773 962 158.55 579.562 437.328
2154 0 74.2411 13.6582 1014 156.088 580.547 435.766
2155 0 76.4345 13.8158 1056 156.843 580.219 434.953
2156 0 79.2142 13.8738 1099 151.254 580.448 433.481
2157 0 79.156 13.985 1107 160.344 580.968 432.027
2158 0 82.281 14.3289 1179 160.254 579.975 426.948
2159 0 85.3006 14.0679 1200 163.622 579.862 425.84
2160 0 89.4098 14.2937 1278 159.31 581.046 424.558
2161 0 92.2116 13.9787 1289 160.16 579.961 424.045
2162 0 95.2929 14.3347 1366 152.676 578.78 422.835
2163 0 97.3222 14.4469 1406 161.107 580.782 421.883
2164 0 101.327 14.6653 1486 157.065 581.169 420.654
2165 0 103.292 14.338 1481 153.487 580.519 418.39
2166 0 109.265 14.4145 1575 149.732 580.805 416.786
2167 1 60.2476 13.1955 795 154.291 577.83 439.994
2168 0 62.1118 13.6528 848 157.258 578.902 437.486
2169 0 64.2151 13.6572 877 156.353 580.16 436.779
2170 0 67.331 13.4113 903 157.256 580.966 435.93
2171 0 70.298 13.2436 931 156.807 581.46 434.568
2172 0 71.273 13.6938 976 154.995 581.911 433.717
2173 0 74.1218 13.7746 1021 157.054 581.199 431.781
2174 0 73.3099 13.9135 1020 148.494 581.391 431.552
2175 0 78.1904 14.0043 1095 150.33 582.37 429.472
2176 0 81.2546 13.9561 1134 146.418 583.496 428.303
2177 0 84.1786 13.6139 1146 150.236 583.675 426.994
2178 0 85.1929 13.7453 1171 156.249 581.027 425.298
2179 0 87.1862 14.1651 1235 153.702 581.858 424.085
2180 0 91.3316 14.2667 1303 150.512 583.215 422.931
2181 0 95.2576 13.7312 1308 148.018 582.586 421.19
2182 0 97.2413 13.9961 1361 148.702 580.878 419.838
2183 0 101.325 13.6787 1386 147.738 579.89 418.437
2184 0 106.188 13.9941 1486 153.251 580.812 415.833
2185 1 57.2528 12.3487 707 150.339 581.564 439.914
2186 0 57.1784 12.7496 729 143.133 580.841 437.008
2187 0 60.0648 12.8861 774 147.354 581.078 436.78
2188 0 62.1944 12.7182 791 148.024 580.119 435.603
2189 0 63.1853 12.9935 821 147.692 580.801 434.672
2190 0 67.2445 13.4435 904 148.854 579.991 433.618
2191 0 69.0534 13.0189 899 153.186 581.532 432.238
2192 0 70.1372 13.7302 963 152.577 581.225 431.072
2193 0 73.1706 13.6257 997 149.575 581.093 429.852
2194 0 75.1116 13.5532 1018 154.11 582.11 428.648
2195 0 78.1486 13.9606 1091 158.027 580.978 428.55
2196 0 78.1906 14.1449 1106 152.931 581.406 427.079
2197 0 82.3492 14.0742 1159 144.021 580.33 424.356
2198 0 84.2497 14.3977 1213 161.189 580.185 423.486
2199 0 88.3403 13.765 1216 157.375 582.244 422.677
2200 0 91.4567 13.8973 1271 151.094 582.364 421.057
2201 0 95.5138 13.8514 1323 157.937 580.618 419.896
2202 0 97.3671 13.6802 1332 157.694 581.583 419.45
2203 0 100.427 13.5621 1362 158.132 581.264 417.725
2204 1 55.1403 12.1146 668 155.442 580.882 440.536
2205 0 56.0859 12.9444 726 148.421 580.413 439.642
2206 0 58.2711 12.8366 748 150.584 580.813 438.078
2207 0 61.1259 12.9405 791 145.588 581.004 437.597
2208 0 61.116 13.4007 819 146.64 578.173 436.552
2209 0 63.2164 13.1453 831 147.248 581.035 436.318
2210 0 65.2754 13.2669 866 143.651 577.923 435.357
2211 0 66.1821 13.6442 903 138.316 578.676 433.626
2212 0 68.1626 13.7759 939 145.069 579.838 432.884
2213 0 71.2153 13.6347 971 145.352 579.347 431.577
2214 0 74.1158 13.6678 1013 143.311 581.21 430.982
2215 0 76.2203 14.0514 1071 142.784 581.611 429.171
2216 0 77.119 13.8228 1066 143.335 579.35 429.142
2217 0 81.2097 13.5452 1100 148.016 579.904 428.345
2218 0 81.2747 14.1249 1148 139.564 580.793 425.616
2219 0 85.1335 14.2952 1217 139.275 579.592 424.431
2220 0 90.1348 13.4354 1211 142.239 579.318 423.457
2221 1 47.0545 11.4335 538 139.942 580.654 443.872
2222 0 49.1521 12.0443 592 140.162 580.753 443.674
2223 0 50.1865 12.9118 648 139.415 580.341 443.998
2224 0 51.1537 13.2151 676 138.266 578.234 443.428
2225 0 53.1327 12.9675 689 139.37 577.76 442.705
2226 0 56.1461 13.3758 751 137.609 575.975 441.425
2227 0 57.1269 13.3562 763 135.052 577.47 440.341
2228 0 56.1364 13.681 768 138.546 578.492 439.544
2229 0 58.2312 13.7212 799 139.871 580.01 439.154
2230 0 60.1589 13.3979 806 139.442 580.402 438.1
2231 0 63.1847 13.4684 851 102.2 581.631 436.576
2232 0 65.1401 13.6168 887 135.921 580.523 435.727
2233 0 66.3403 13.9885 928 138.436 579.471 435.434
2234 0 70.1643 13.7962 968 142.524 580.369 433.746
2235 0 71.1701 13.7277 977 144.867 578.02 433.001
2236 0 73.1658 14.5696 1066 138.129 581.041 431.43
2237 0 77.186 14.1476 1092 139.321 582.23 429.95
2238 0 79.325 14.1569 1123 140.679 582.642 428.305
2239 0 81.1232 14.2253 1154 143.83 580.586 427.144
2240 0 85.3039 13.8212 1179 142.994 579.333 425.59
2241 0 88.1312 14.1267 1245 140.871 579.456 424.223
2242 0 91.5037 14.1197 1292 140.527 579.128 422.466
2243 1 46.2256 12.7418 589 143.136 578.411 443.643
2244 0 48.3014 12.5462 606 145.868 578.036 442.627
2245 0 48.165 13.2046 636 141.726 578.887 442.425
2246 0 51.1985 13.5746 695 144.06 577.987 441.976
2247 0 52.2909 13.0807 684 144.096 577.096 441.519
2248 0 53.1806 13.3131 708 147.994 577.347 440.845
2249 0 55.1467 13.3825 738 148.472 578.706 440.057
2250 0 56.0892 13.6746 767 145.587 578.343 440.003
2251 0 59.1239 13.5986 804 147.205 579.663 439.632
2252 0 59.2681 13.886 823 144.938 578.583 439.097
2253 0 61.4348 14.1288 868 143.839 578.415 438.051
2254 0 64.2741 14.4693 930 146.146 579.12 437.102
2255 0 65.3151 14.1774 926 143.943 580.558 436.978
2256 0 67.1749 14.5441 977 150.366 580.496 435.095
2257 0 70.1926 14.3605 1008 139.472 581.235 433.833
2258 0 72.2069 14.32 1034 153.678 579.49 432.623
2259 0 74.2469 14.1689 1052 151.544 579.004 431.369
2260 0 77.2288 14.5542 1124 153.873 579.738 430.998
2261 0 79.152 14.3142 1133 148.875 577.898 429.798
2262 0 81.2018 14.2115 1154 154.964 579.02 428.604
2263 0 84.2925 14.3904 1213 144.897 578.412 427.794
2264 0 89.5398 14.1948 1271 151.09 577.94 425.903
2265 0 91.2895 15.0182 1371 145.076 578.733 423.864
2266 1 47.1375 12.8136 604 151.687 580.889 445.51
2267 0 49.2294 13.691 674 146.843 579.107 444.666
2268 0 50.2007 13.4261 674 150.178 578.533 442.816
2269 0 52.3314 13.2043 691 158.431 579.609 442.881
2270 0 55.2793 13.2238 731 150.456 577.77 442.969
2271 0 56.3537 13.362 753 153.946 579.227 442.497
2272 0 58.5997 13.4813 790 151.246 578.576 441.567
2273 0 59.2523 14.1429 838 153.92 580.448 440.765
2274 0 61.3142 14.336 879 156.257 581.453 441.204
2275 0 64.4004 13.8664 893 157.309 580.35 440.429
2276 0 67.2538 13.8431 931 150.313 580.19 440.091
2277 0 67.3511 14.2834 962 153.227 579.847 439.22
2278 0 71.3356 13.8921 991 148.439 581.327 438.681
2279 0 72.2202 14.4004 1040 152.738 579.227 437.632
2280 0 77.2603 13.9269 1076 155.043 579.287 436.006
2281 0 77.3774 13.9834 1082 144.291 580.163 435.67
2282 0 80.2264 14.0478 1127 152.636 579.332 434.793
2283 0 84.2142 14.0238 1181 155 576.301 432.738
2284 0 87.2836 13.8972 1213 153.642 577.205 432.226
2285 1 47.0288 12.503 588 153.077 578.704 451.367
2286 0 48.0771 13.4783 648 149.545 577.267 450.5
2287 0 49.223 12.9208 636 151.314 580.541 449.811
2288 0 49.1952 13.6192 670 152.567 581.466 448.846
2289 0 52.0581 12.9279 673 158.1 582.388 448.731
2290 0 54.25 13.3087 722 156.125 582.276 447.425
2291 0 54.2464 13.918 755 153.189 581.514 446.781
2292 0 58.1371 14.053 817 154.296 580.973 445.605
2293 0 59.1119 13.9058 822 159.23 578.291 445.627
2294 0 61.2418 13.7488 842 150.249 578.849 445.181
2295 0 63.1074 13.6117 859 149.586 577.938 445.116
2296 0 65.2922 13.6923 894 153.82 577.135 443.585
2297 0 66.1897 14.0807 932 151.556 577.475 443.253
2298 0 69.4163 14.1177 980 153.366 576.39 441.944
2299 0 71.4708 14.0897 1007 149.814 578.566 440.905
2300 0 74.4064 14.0848 1048 150.802 577.328 439.86
2301 0 76.2651 14.1218 1077 147.908 580.084 438.976
2302 0 78.504 14.1267 1109 149.609 580.352 438.173
2303 0 82.1776 13.8481 1138 152.979 579.083 437.938
2304 0 84.2368 13.6401 1149 153.335 579.697 436.885
2305 0 88.2304 14.0541 1240 152.912 578.798 435.508
2306 0 90.1523 13.9431 1257 157.709 579.222 434.624
2307 0 92.2208 14.0966 1300 153.903 576.863 433.277
2308 0 95.1956 14.3179 1363 147.544 578.431 431.517
2309 0 99.0941 14.0372 1391 151.208 578.6 430.084
2310 0 103.131 14.2635 1471 150.298 580.495 428.169
2311 1 55.1135 12.4833 688 152.196 578.52 451.455
2312 0 56.1052 13.5103 758 151.015 577.454 449.439
2313 0 58.1157 13.8689 806 151.878 579.032 448.842
2314 0 61.1486 13.6062 832 150.505 576.543 447.84
2315 0 62.0581 14.0514 872 151.245 579.796 446.964
2316 0 65.2326 13.8734 905 148.914 578.179 446.425
2317 0 66.2474 14.0685 932 154.927 578.52 445.45
2318 0 68.2118 14.2204 970 154.016 578.398 444.762
2319 0 73.2866 14.0681 1031 153.214 575.842 444.741
2320 0 74.2853 14.3501 1066 153.542 575.168 443.675
2321 0 77.2178 13.7792 1064 160.907 575.148 443.143
2322 0 79.2757 14.3802 1140 161.002 576.518 441.373
2323 0 82.1798 14.6386 1203 156.637 578.11 440.717
2324 0 86.1669 13.9497 1202 166.02 576.638 439.357
2325 0 87.2366 14.2945 1247 165.654 577.439 438.025
2326 0 91.2111 14.3294 1307 166.529 577.892 436.256
2327 0 93.1226 14.5722 1357 164.279 576.114 434.897
2328 0 96.2244 14.4974 1395 162.548 578.224 432.987
2329 1 53.0384 12.8398 681 167.946 579.276 453.389
2330 0 55.1175 13.2081 728 169.463 578.529 452.659
2331 0 57.0869 13.2605 757 168.161 577.02 451.357
2332 0 58.2609 13.594 792 168.277 577.245 451.058
2333 0 61.0858 13.3091 813 166.401 575.633 449.793
2334 0 61.2048 13.2833 813 163.967 575.476 448.348
2335 0 64.1886 13.9745 897 158.478 574.913 446.856
2336 0 67.2139 13.7323 923 168.965 576.861 446.195
2337 0 69.229 13.7803 954 166.008 577.234 445.519
2338 0 70.2037 14.0021 983 165.515 574.273 444.744
2339 0 72.1942 14.4056 1040 156.235 575.081 441.489
2340 0 77.336 13.8357 1070 163.242 575.379 441.078
2341 0 80.3396 13.5799 1091 156.982 573.584 439.471
2342 0 81.2076 13.8903 1128 162.548 573.406 438.329
2343 0 85.181 14.1464 1205 162.491 574.866 436.597
2344 0 85.181 14.1464 1205 170.735 575.866 436.597
2345 0 91.384 14.0944 1288 163.092 576.916 430.65
2346 0 94.2543 14.2275 1341 163.456 577.822 427.934
2347 1 54.0796 12.2042 660 161.785 577.942 447.047
2348 0 56.0322 12.8319 719 151.538 575.254 441.872
2349 0 59.1972 12.9567 767 154.322 577.37 440.729
2350 0 58.2211 13.1052 763 150.6 577.292 440.721
2351 0 60.1012 13.0613 785 152.92 578.722 439.504
2352 0 62.1768 13.4295 835 147.934 577.722 438.189
2353 0 64.1803 13.4932 866 152.598 577.665 437.881
2354 0 65.1718 13.6102 887 152.523 578.329 437.342
2355 0 67.1664 13.5336 909 151.883 578.712 436.655
2356 0 71.1655 13.5599 965 144.692 579.575 435.128
2357 0 71.1111 13.3734 951 144.106 579.952 435.889
2358 0 75.2174 13.5607 1020 143.032 579.986 433.868
2359 0 77.3072 13.6468 1055 136.518 582.138 432.869
2360 0 79.1554 13.4672 1066 139.543 581.152 432.064
2361 0 83.1987 13.5699 1129 138.554 580.655 428.972
2362 0 85.3217 13.7831 1176 138.077 579.88 427.764
2363 0 87.1666 13.8929 1211 141.167 578.87 426.207
2364 0 91.2176 13.7693 1256 130.382 579.976 424.51
2365 0 96.3661 13.7912 1329 134.275 578.56 422.436
2366 0 99.1697 13.603 1349 142.182 579.467 421.491
2367 1 54.2182 10.8819 590 141.312 579.527 444.59
2368 0 53.1414 10.8766 578 139.917 580.268 444.5
2369 0 56.1795 11.0538 621 137.354 581.312 443.34
2370 0 59.0613 12.1907 720 139.272 578.899 442.529
2371 0 61.0988 12.7498 779 13.4121 581.741 440.843
2372 0 63.1634 12.6181 797 145.093 581.743 440.54
2373 0 66.2401 12.3188 816 131.271 580.377 439.816
2374 0 67.2533 12.7429 857 147.267 580.058 439.445
2375 0 70.1569 12.8569 902 138.957 581.755 437.654
2376 0 71.1694 13.1798 938 146.434 581.804 436.426
2377 0 74.251 13.3466 991 148.157 580.676 436.082
2378 0 77.1881 13.344 1030 156.45 581.987 435.044
2379 0 81.1661 13.2321 1074 156.675 580.086 433.226
2380 0 83.2054 13.4366 1118 154.538 580.166 433.056
2381 0 86.2931 13.5121 1166 159.255 578.985 430.976
2382 0 89.3728 13.5612 1212 156.52 579.848 428.672
2383 0 91.3942 13.5785 1241 150.082 580.777 426.73
2384 0 95.2894 13.7581 1311 158.304 579.271 425.86
2385 0 98.5112 13.7548 1355 160.787 579.763 424.062
2386 0 100.479 13.7044 1377 156.659 578.497 422.036
2387 0 107.425 13.6374 1465 159.285 575.364 419.346
2388 0 109.397 13.9218 1523 156.877 577.135 418.196
2389 1 60.1629 12.167 732 153.027 579.889 442.911
2390 0 60.098 12.5295 753 152.94 579.132 442.085
2391 0 64.336 12.7611 821 157.596 578.373 441.353
2392 0 66.3195 12.093 802 153.522 581.737 440.504
2393 0 67.398 12.7155 857 153.284 578.481 438.583
2394 0 68.1619 13.2625 904 156.077 577.96 437.384
2395 0 72.3434 12.9107 934 154.51 579.072 435.217
2396 0 74.3428 12.7517 948 154.533 580.846 433.853
2397 0 75.293 13.4807 1015 154.352 580.18 432.764
2398 0 79.1896 13.6003 1077 154.596 581.06 431.591
2399 0 81.3097 13.135 1068 155.764 579.54 429.403
2400 0 85.2001 13.2864 1132 154.274 577.8 427.718
2401 0 86.24 13.5204 1166 160.291 577.721 426.387
2402 0 89.2411 13.6148 1215 164.318 579.5 425.592
2403 0 94.3121 13.784 1300 166.168 578.293 422.962
2404 0 97.2122 13.5888 1321 161.538 579.01 421.947
2405 0 99.2947 13.8174 1372 167.843 578.4 417.685
2406 0 103.206 13.662 1410 160.158 579.374 416.459
2407 1 56.4526 12.0278 679 158.072 577.426 441.118
2408 0 58.278 12.835 748 154.258 578.918 440.079
2409 0 60.335 12.9444 781 158.277 577.59 439.028
2410 0 62.2117 13.0522 812 157.195 576.954 437.95
2411 0 64.3669 13.3764 861 159.259 577.116 436.99
2412 0 65.4431 13.2634 868 152.024 575.689 435.016
2413 0 67.2631 13.3506 898 158.862 576.127 434.793
2414 0 69.2241 13.5935 941 154.674 580.984 432.925
2415 0 71.3798 13.4772 962 158.922 579.594 432.192
2416 0 74.1498 13.2435 982 150.066 578.272 431.438
2417 0 75.4083 13.5264 1020 164.475 581.021 431.313
2418 0 77.3165 13.6323 1054 165.531 580.301 431.482
2419 0 81.4192 13.3998 1091 159.347 579.854 429.346
2420 0 83.3133 13.8513 1154 167.77 580.782 426.167
2421 0 85.5034 13.9059 1189 162.905 579.113 425.873
2422 0 90.512 13.8656 1255 161.335 579.7 424.449
2423 0 93.4587 13.8029 1290 158.943 581.626 422.525
2424 0 96.5055 13.8541 1337 160.307 581.411 420.954
2425 0 97.3429 13.9096 1354 154.724 579.643 419.587
2426 1 57.3208 11.8631 680 161.909 578.578 440.822
2427 0 59.3759 12.4798 741 159.308 579.675 438.599
2428 0 60.2043 12.6071 759 153.909 581.739 436.119
2429 0 62.262 12.8329 799 161.215 579.33 435.228
2430 0 64.1923 12.7741 820 158.446 579.96 434.127
2431 0 66.1545 12.6371 836 157.189 580.038 433.988
2432 0 69.2018 12.4997 865 160.931 579.195 433.512
2433 0 71.4123 13.023 930 159.131 580.043 432.811
2434 0 73.2911 13.2349 970 162.225 581.084 431.208
2435 0 75.2055 13.4698 1013 158.076 581.356 429.177
2436 0 78.383 13.4085 1051 160.062 581.596 428.548
2437 0 82.2818 13.0284 1072 157.18 583.086 427.179
2438 0 83.3557 13.2204 1102 154.544 581.605 425.466
2439 0 87.2819 13.1184 1145 156.121 580.452 424.449
2440 0 89.3087 13.291 1187 157.019 580.256 423.163
2441 0 93.2314 13.1715 1228 155.748 580.964 419.961
2442 1 51.0797 11.3744 581 154.167 582.074 439.948
2443 0 52.2046 11.9147 622 153.375 583.027 441.693
2444 0 53.3564 12.0698 644 155.38 584.368 441.143
2445 0 54.305 12.7244 691 148.544 583.711 440.534
2446 0 55.3349 12.4876 691 156.182 581.567 440.706
2447 0 58.3561 12.5608 733 154.259 580.499 438.697
2448 0 61.3489 12.6816 778 146.343 580.29 437.999
2449 0 61.1798 12.9618 793 148.301 578.835 437.387
2450 0 63.2371 12.7615 807 156.024 580.566 437.362
2451 0 63.3218 12.8234 812 154.948 580.461 435.752
2452 0 65.2694 13.4213 876 139.256 579.724 435.023
2453 0 68.2846 13.4291 917 150.091 580.324 433.998
2454 0 70.3407 13.1218 923 153.98 579.802 433.923
2455 0 72.3302 12.9683 938 154.123 579.544 433.122
2456 0 75.4209 13.1794 994 147.169 581.368 431.757
2457 0 74.3242 13.6295 1013 148.142 581.422 430.992
2458 0 79.5757 13.6348 1085 145.642 582.368 430.205
2459 0 81.5026 13.5578 1105 153.685 581.989 428.722
2460 0 82.3524 14.1465 1165 154.841 582.171 427.121
2461 0 86.6484 13.6182 1180 153.992 579.904 425.722
2462 0 88.43 13.6492 1207 149.029 580.026 423.953
2463 0 92.3623 13.7177 1267 157.93 580.294 421.894
2464 0 95.5281 13.797 1318 159.119 582.372 419.517
2465 1 56.2019 11.2808 634 155.53 583.621 441.35
2466 0 57.1488 12.8087 732 151.071 583.612 438.398
2467 0 59.1906 12.7723 756 153.844 581.767 438.782
2468 0 59.2614 12.8077 759 148.217 581.823 438.569
2469 0 62.2612 12.3351 768 157.464 581.306 437.522
2470 0 63.299 12.4647 789 151.376 579.953 436.378
2471 0 65.3102 12.8158 837 156.32 581.217 435.538
2472 0 67.2277 12.6882 853 156.168 582.659 434.178
2473 0 69.2767 12.847 890 152.965 582.685 433.578
2474 0 71.1371 13.0452 928 162.75 581.901 432.308
2475 0 71.3851 13.0279 930 153.905 581.649 429.887
2476 0 73.2828 13.2637 972 16.3488 580.818 428.52
2477 0 78.1368 13.4892 1054 150.149 579.607 427.489
2478 0 80.2184 13.3635 1072 156.543 580.491 426.161
2479 0 83.2956 13.29 1107 161.378 579.585 424.154
2480 0 84.2152 13.6911 1153 161.112 579.014 422.253
2481 0 89.2193 13.2931 1186 160.492 579.911 421.367
2482 0 90.1946 13.3489 1204 161.901 579.633 418.836
2483 0 95.2691 13.4356 1280 159.505 581.332 417.229
2484 0 98.2817 13.5732 1334 163.618 581.4 416.072
2485 0 101.308 13.3257 1350 163.961 581.682 414.005
2486 1 56.2311 11.9151 670 157.549 583.407 435.818
2487 0 57.228 12.4589 713 159.909 584.094 435.928
2488 0 60.2443 12.4327 749 155.756 582.977 433.753
2489 0 61.2962 12.7414 781 154.238 584.315 432.063
2490 0 64.242 12.951 832 156.482 582.395 432.329
2491 0 66.1969 12.9009 854 155.347 581.779 431.022
2492 0 67.2041 13.0796 879 161.783 580.608 428.779
2493 0 68.1785 12.9366 882 150.895 582.61 427.833
2494 0 71.1802 13.2059 940 158.931 580.367 424.508
2495 0 71.1334 13.6926 974 160.06 582.329 424.299
2496 0 75.2015 13.4572 1012 148.669 583.148 422.795
2497 0 76.1387 13.6987 1043 158.732 582.079 422.742
2498 0 79.2288 14.0101 1110 156.171 583.692 421.195
2499 0 81.2016 13.2879 1079 148.86 582.628 417.436
2500 0 85.2209 14.2336 1213 148.307 581.058 416.897
2501 0 86.2826 13.5833 1172 154.257 585.327 416.504
2502 0 88.257 14.1858 1252 151.384 582.292 413.939
2503 0 93.2148 13.2061 1231 144.664 580.398 413.418
2504 0 96.1557 13.4885 1297 156.851 579.818 409.052
2505 0 100.386 13.4879 1354 156.948 579.9 409.476
2506 0 101.299 13.7612 1394 155.969 581.428 407.708
2507 0 107.19 13.8445 1484 149.466 580.34 405.877
2508 0 111.333 13.6258 1517 155.124 581.332 403.881
2509 0 115.526 13.7718 1591 156.241 580.898 401.959
2510 0 117.496 13.9068 1634 152.738 582.696 400.488
2511 0 121.618 14.2988 1739 158.257 582.782 398.059
2512 0 126.416 14.207 1796 149.818 581.903 396.084
2513 0 129.543 13.9105 1802 152.446 582.901 393.644
2514 0 131.531 13.8294 1819 159.609 582.302 393.192
2515 0 137.31 14.3908 1976 157.989 582.87 390.336
2516 0 141.411 14.4543 2044 158.73 580.944 387.897
2517 0 145.286 14.5713 2117 161.373 581.199 386.001
2518 0 150.371 14.2381 2141 154.401 583.46 383.765
2519 0 156.423 14.3202 2240 152.864 582.399 381.076
2520 0 162.216 14.493 2351 156.949 581.953 376.472
2521 1 91.1104 13.555 1235 164.361 579.57 413.428
2522 0 94.1616 13.1688 1240 159.892 579.241 411.029
2523 0 96.1637 13.737 1321 152.879 579.118 409.134
2524 0 101.192 13.3014 1346 154.726 581.701 407.523
2525 0 104.234 13.5369 1411 155.488 581.631 407.524
2526 0 108.218 13.7407 1487 153.915 582.301 405.108
2527 0 110.571 13.5388 1497 157.635 582.924 403.283
2528 0 116.357 14.0086 1630 150.781 582.536 401.02
2529 0 118.397 13.3787 1584 153.339 582.425 398.614
2530 0 124.208 13.8397 1719 147.509 583.348 397.566
2531 0 127.256 13.799 1756 158.297 581.773 395.316
2532 0 131.367 13.8924 1825 150.813 582.998 392.652
2533 0 137.209 14.2411 1954 151.769 582.364 390.994
2534 0 142.376 14.4617 2059 150.25 581.489 384.796
2535 0 145.278 13.9112 2021 147.78 583.445 386.215
2536 0 151.319 13.9837 2116 159.326 583.083 383.215
2537 0 156.279 13.7958 2156 158.52 581.997 381.012
2538 0 161.417 14.1311 2281 152.876 580.714 378.566
2539 0 165.378 14.4034 2382 155.172 585.274 374.54
2540 0 165.424 15.8381 2620 153.059 581.781 370.216
2541 0 165.579 16.1192 2669 146.884 581.5 370.296
2542 0 163.392 15.6984 2565 151.953 580.497 368.644
2543 1 9.00089 5.55501 50 118.84 579.42 443.66
2544 0 12.0022 6.08221 73 124.301 580.425 444.849
2545 1 51.2232 11.4987 589 146.998 579.885 430.421
2546 0 49.2094 10.8719 535 148.908 581.594 430.366
2547 0 51.3621 10.6888 549 147.546 582.825 432.173
2548 0 51.5371 10.866 560 146.582 582.234 432.511
2549 0 52.4239 11.4642 601 148.329 581.905 433.649
2550 0 54.3926 11.656 634 143.703 581.491 432.938
2551 0 54.3205 11.7635 639 145.944 581.379 432.43
2552 0 57.5792 11.6882 673 143.957 579.236 432.247
2553 0 58.4537 11.7016 684 151.811 579.864 431.895
2554 0 60.522 11.4999 696 149.806 579.978 432.293
2555 0 62.4419 11.5628 722 150.542 580.5 430.83
2556 0 62.4119 12.081 754 149.59 581.725 428.976
2557 0 64.4369 12.1825 785 151.359 578.49 428.381
2558 0 66.3972 12.4553 827 152.424 581.449 426.862
2559 0 68.3785 11.9043 814 157.713 581.063 426.962
2560 0 69.3246 12.5208 868 157.719 580.987 426.62
2561 0 73.3861 12.4138 911 152.677 581.01 424.875
2562 0 72.3322 12.8712 931 154.753 580.748 421.705
2563 0 75.4018 12.1615 917 154.267 580.065 422.121
2564 0 76.4349 13.1223 1003 158.063 581.715 422.238
2565 0 78.5117 13.0681 1026 159.919 582.159 419.832
2566 0 81.5668 12.8116 1045 153.857 583.256 419.694
2567 0 85.4028 12.7982 1093 157.612 582.948 418.855
2568 0 88.4093 12.5665 1111 155.891 579.752 416.597
2569 0 90.3462 13.0498 1179 161.151 578.541 415.618
2570 0 92.2404 13.0745 1206 160.105 578.58 398.529
2571 0 95.3105 13.0626 1245 154.141 577.44 400.369
2572 0 97.3565 13.353 1300 163.883 579.648 402.711
2573 0 99.272 13.7501 1365 161.39 580.118 402.514
2574 0 104.178 13.3138 1387 155.765 578.747 400.501
2575 0 106.279 13.4834 1433 161.169 579.379 402.605
2576 0 109.367 13.3038 1455 163.461 579.786 400.684
2577 0 112.16 13.4183 1505 163.631 580.582 399.501
2578 0 115.287 13.4447 1550 163.232 582.13 397.844
2579 0 116.272 13.348 1552 155.894 580.395 395.675
2580 0 122.284 13.207 1615 156.194 580.071 394.337
2581 1 66.1247 11.7052 774 156.08 582.565 421.323
2582 0 69.1036 11.7505 812 149.745 582.11 420.815
2583 0 69.0949 12.2006 843 153.484 582.203 419.962
2584 0 71.2267 12.1022 862 156.006 581.86 422.744
2585 0 72.301 12.282 888 153.009 581.703 420.885
2586 0 75.276 12.3545 930 150.615 579.194 421.013
2587 0 77.3414 12.2056 944 153.019 580.606 419.877
2588 0 79.3224 13.1489 1043 154.868 581.365 417.996
2589 0 81.2058 12.339 1002 149.897 582.347 416.821
2590 0 84.2973 12.8711 1085 155.037 581.801 417.358
2591 0 86.2207 13.1175 1131 155.143 580.382 415.925
2592 0 89.3316 13.2988 1188 153.032 578.45 413.624
2593 0 90.2279 13.2332 1194 155.813 577.575 412.956
2594 0 92.4297 13.1776 1218 157.378 580.287 411.644
2595 0 98.337 13.2809 1306 156.155 581.58 409.345
2596 0 100.609 13.3884 1347 162.207 580.754 408.05
2597 0 105.468 13.1698 1389 158.004 579.08 406.586
2598 0 107.373 13.3647 1435 152.792 580.304 405.245
2599 0 109.553 13.2994 1457 148.034 580.167 402.338
2600 0 115.443 13.4006 1547 159.239 581.43 402.303
2601 0 117.5 13.6085 1599 155.326 583.405 400.577
2602 0 121.35 13.6053 1651 155.297 581.311 399.208
2603 0 125.427 13.7052 1719 157.241 580.433 397.024
2604 0 127.369 13.8495 1764 155.459 581.252 394.109
2605 0 132.28 13.5697 1795 159.191 578.931 393.508
2606 0 134.341 13.6593 1835 152.943 580.247 389.301
2607 0 141.352 13.4416 1900 149.89 579.658 386.932
2608 0 145.233 13.7228 1993 156.744 578.735 382.621
2609 0 150.318 13.671 2055 157.48 578.825 380.241
2610 0 156.398 13.7278 2147 156.864 583.193 377.992
2611 0 161.34 13.735 2216 149.427 583.586 374.23
2612 1 89.1823 11.4148 1018 151.985 584.344 412.072
2613 0 92.1743 12.1292 1118 155.259 583.275 410.099
2614 0 96.1075 12.382 1190 157.507 580.087 407.285
2615 0 100.181 12.4675 1249 160.264 579.88 404.878
2616 0 105.253 12.5413 1320 147.809 579.674 401.547
2617 0 106.16 12.6601 1344 154.545 581.614 400.26
2618 0 110.164 13.1259 1446 158.259 579.435 398.735
2619 0 113.208 12.8348 1453 159.187 579.549 396.486
2620 0 118.307 12.8395 1519 157.976 581.049 395.651
2621 0 122.244 13.1377 1606 156.018 580.088 393.92
2622 0 124.284 13.3968 1665 156.782 580.748 393.965
2623 0 128.195 13.6198 1746 156.34 578.822 392.001
2624 1 56.2496 10.009 563 143.6 579.462 426.526
2625 0 60.355 10.7365 648 142.495 580.211 425.923
2626 0 63.319 11.6553 738 147.253 579.734 423.706
2627 0 63.1747 11.6186 734 143.984 582.492 426.324
2628 0 67.2308 11.3787 765 145.841 580.752 426.077
2629 0 68.2419 11.5911 791 142.684 580.912 425.024
2630 0 69.1844 11.3754 787 139.391 582.102 423.953
2631 0 70.4651 11.864 836 136.807 584.506 421.489
2632 0 73.2241 11.9496 875 144.517 582.539 420.829
2633 0 76.3707 12.1905 931 149.274 582.415 420.353
2634 0 78.3975 11.9009 933 153.257 582.644 419.767
2635 0 79.3906 12.4322 987 144.856 581.816 418.147
2636 0 81.5045 12.9809 1058 145.03 579.927 417.088
2637 0 86.4478 12.8748 1113 150.546 579.055 415.495
2638 0 87.5718 12.7324 1115 156.013 580.913 415.36
2639 0 89.5124 13.1937 1181 154.599 581.425 413.749
2640 0 92.4788 13.4734 1246 149.404 582.175 412.406
2641 1 50.3665 10.4633 527 149.825 580.734 433.795
2642 0 50.3114 11.8264 595 148.751 582.645 432.632
2643 0 55.3295 11.296 625 143.027 579.6 431.592
2644 0 55.3025 11.5185 637 145.63 580.083 430.995
2645 0 55.198 12.3374 681 147.159 579.548 429.633
2646 0 60.1498 11.7041 704 140.996 583.831 429.04
2647 0 60.1856 11.8135 711 147.845 583.817 427.433
2648 0 63.155 12.4139 784 143.737 584.444 426.286
2649 0 64.1895 12.8993 828 147.458 581.326 424.135
2650 0 66.2115 12.4299 823 149.891 580.508 423.45
2651 0 68.1557 12.6182 860 148.867 580.03 421.604
2652 0 69.2611 12.8066 887 148.246 580.039 420.337
2653 0 72.2671 12.7167 919 154.672 579.882 420.196
2654 0 73.1699 12.9288 946 153.893 580.21 418.437
2655 0 73.2988 13.3972 982 152.405 581.211 418.545
2656 0 76.3528 13.3459 1019 149.236 579.193 417.329
2657 0 79.3226 13.5901 1078 157.016 578.069 417.308
2658 0 81.2337 13.5781 1103 150.691 579.046 415.342
2659 0 83.5567 13.3682 1117 151.36 581.987 415.318
2660 0 85.2736 13.5798 1158 156.075 579.952 414.358
2661 0 88.3702 14.1677 1252 156.797 581.792 413.179
2662 0 91.3136 13.6234 1244 153.2 580.543 412.374
2663 0 93.3452 14.0018 1307 104.826 580.455 411.038
2664 0 97.4994 13.877 1353 159.695 579.856 408.871
2665 0 101.333 13.7962 1398 154.233 580.153 406.842
2666 0 104.289 13.9324 1453 155.111 580.339 404.283
2667 0 107.307 14.0811 1511 160.833 582.328 402.287
2668 1 64.0947 12.0759 774 156.08 581.309 425.552
2669 0 65.252 12.3828 808 157.142 578.438 424.245
2670 0 67.2264 12.1678 818 149.033 578.348 424.391
2671 0 68.2924 12.5343 856 150.137 576.706 423.96
2672 0 69.3171 12.5366 869 153.448 578.194 423.203
2673 0 71.3735 12.4696 890 153.425 581.737 421.499
2674 0 74.3599 12.8833 958 156.691 576.144 420.824
2675 0 75.331 12.8101 965 158.937 579.753 420.069
2676 0 78.3915 12.782 1002 157.225 582.26 419.186
2677 0 79.4083 13.3991 1064 150.85 579.311 417.82
2678 0 82.4778 13.4582 1110 157.098 580.575 417.6
2679 0 84.4304 13.1943 1114 161.723 581.535 416.458
2680 0 87.4516 13.1616 1151 153.694 580.031 414.43
2681 0 89.4548 13.2916 1189 158.054 581.278 413.57
2682 0 92.4901 13.5041 1249 162.372 579.21 412.241
2683 0 95.4697 13.8473 1322 161.707 578.824 410.852
2684 0 98.3783 13.4786 1326 164.014 578.784 408.744
2685 0 102.284 13.6972 1401 158.108 579.097 406.77
2686 0 105.394 13.6155 1435 162.592 579.077 405.431
2687 0 109.481 13.701 1500 160.801 578.927 403.759
2688 0 112.388 13.925 1565 59.8089 580.455 400.927
2689 1 59.2464 11.545 684 153.297 580.154 428.383
2690 0 61.3597 11.7667 722 150.652 580.663 427.503
2691 0 63.3248 12.6017 798 154.613 580.089 427.603
2692 0 65.3196 12.4465 813 155.656 582.128 426.493
2693 0 66.2269 13.182 873 151.954 580.798 425.048
2694 0 68.1436 13.046 889 156.901 582.621 424.724
2695 0 70.3089 12.9287 909 156.228 579.934 423.497
2696 0 72.2648 12.814 926 157.344 580.958 422.819
2697 0 74.2464 13.2128 981 161.661 582.615 421.563
2698 0 76.228 12.8693 981 161.258 583.486 420.845
2699 0 79.3734 13.153 1044 159.101 581.006 418.906
2700 0 82.3454 13.2612 1092 164.483 582.395 417.616
2701 0 82.4352 13.6592 1126 165.045 582.737 416.801
2702 0 86.1734 13.4844 1162 163.475 582.247 414.422
2703 0 89.271 13.6774 1221 157.659 581.081 413.203
2704 0 93.4644 13.449 1257 162.041 581.75 411.651
2705 0 96.428 13.4919 1301 156.129 579.644 409.874
2706 0 99.6421 13.6288 1358 156.225 582.785 407.814
2707 0 99.2057 14.1524 1404 158.702 584.613 407.098
2708 0 106.432 13.7083 1459 162.493 584.466 405.024
2709 0 108.302 14.081 1525 158.624 582.46 403.279
2710 0 114.176 14.0835 1608 160.785 582.611 400.09
2711 0 116.386 13.7215 1597 159.887 583.163 398.465
2712 0 120.16 14.2061 1707 160.374 583.551 395.268
2713 1 68.1364 12.3576 842 161.262 583.444 421.262
2714 0 72.0953 12.7886 922 153.136 583.156 420.273
2715 0 71.1617 13.1812 938 158.983 582.383 419.412
2716 0 74.2345 12.7569 947 155.319 581.452 419.116
2717 0 77.3095 13.0902 1012 161.293 580.558 417.849
2718 0 80.4201 12.845 1033 166.856 584.078 417.347
2719 0 82.1933 13.3709 1099 160.083 582.777 415.456
2720 0 84.1473 13.4526 1132 165.235 581.011 413.351
2721 0 86.2913 13.6514 1178 158.174 580.243 411.89
2722 0 90.1934 13.3713 1206 165.643 580.156 411.063
2723 0 92.2708 14.089 1300 159.819 580.537 408.642
2724 0 95.329 13.7733 1313 168.663 582.508 407.774
2725 0 99.2852 13.8691 1377 166.702 582.802 404.786
2726 0 101.31 13.6511 1383 169.173 582.464 404.817
2727 0 106.28 14.5183 1543 170.547 582.019 401.45
2728 0 110.166 14.0062 1543 162.979 579.855 398.34
2729 0 112.264 14.1274 1586 167.122 581.183 397.553
2730 0 117.27 14.036 1646 165.617 582.135 395.474
2731 0 122.28 14.1724 1733 168.024 581.95 392.62
2732 0 127.394 14.2707 1818 161.831 582.724 390.546
2733 0 128.192 14.6499 1878 162.514 583.552 389.086
2734 1 78.2427 14.3144 1120 164.949 581.337 414.862
2735 0 81.443 13.9852 1139 163.399 581.851 414.265
2736 0 84.1861 13.8978 1170 157.106 579.954 413.562
2737 0 86.3483 14.2678 1232 170.064 579.852 413.714
2738 0 88.4414 14.5746 1289 168.809 581.039 412.493
2739 0 90.3185 14.8807 1344 163.148 581.219 411.035
2740 0 94.3865 14.4724 1366 167.843 578.635 409.904
2741 0 98.2589 14.6246 1437 169.292 579.438 408.596
2742 0 101.261 14.3787 1456 162.175 579.455 406.947
2743 0 105.39 14.4985 1528 165.441 582.065 406.461
2744 0 107.359 14.6238 1570 160.473 580.266 403.297
2745 0 110.171 14.8133 1632 165.582 580.352 402.337
2746 0 115.244 14.6905 1693 163.883 583.059 400.808
2747 0 121.41 14.1174 1714 160.39 581.876 397.111
2748 0 124.348 14.8374 1845 157.619 581.704 395.177
2749 1 71.1317 12.3433 878 165.339 582.636 421.014
2750 0 75.0365 13.1269 985 164.74 581.32 419.343
2751 0 78.0647 13.54 1057 160.605 581.092 418.13
2752 0 79.2864 13.6341 1081 163.517 579.749 417.922
2753 0 84.1288 13.3129 1120 161.096 579.545 417.353
2754 0 86.1798 13.5995 1172 169.664 580.921 416.428
2755 0 88.1494 13.8628 1222 168.1 583.203 415.318
2756 0 93.2515 13.544 1263 164.07 582.723 413.605
2757 0 94.2848 13.8198 1303 163.206 582.181 412.806
2758 0 98.2768 13.7876 1355 167.531 580.753 411.533
2759 0 102.324 13.6039 1392 165.135 580.775 410.792
2760 1 56.2245 12.5568 706 160.137 583.169 434.435
2761 0 56.1682 12.9967 730 161.866 581.458 432.37
2762 0 59.2252 13.3558 791 164.847 580.219 431.9
2763 0 61.1514 13.3439 816 160.413 578.977 431.676
2764 0 62.1667 13.2708 825 158.612 580.553 430.456
2765 0 64.0952 13.3551 856 154.853 579.249 429.693
2766 0 67.1152 13.2608 890 160.997 578.434 428.679
2767 0 69.1439 13.4213 928 157.945 579.604 427.736
2768 0 71.1194 13.5266 962 164.823 580.253 427.239
2769 0 72.1569 13.9834 1009 158.346 582.376 426.19
2770 0 76.197 13.7276 1046 164.759 581.2 425.25
2771 0 78.1498 13.986 1093 159.503 580.366 423.714
2772 0 82.1389 13.5746 1115 164.727 583.787 423.376
2773 0 84.1527 13.939 1173 164.464 580.129 422.006
2774 0 89.2081 14.0234 1251 167.97 580.947 420.018
2775 0 92.2089 13.9357 1285 160.48 581.221 418.026
2776 0 94.2093 13.6398 1285 154.608 580.185 416.89
2777 0 97.1223 14.0236 1362 160.878 580.827 415.221
2778 0 101.207 14.1393 1431 161.761 582.393 413.684
2779 0 105.306 13.8453 1458 162.737 581.232 411.765
2780 0 109.217 14.2652 1558 162.142 582.251 410.116
2781 0 114.156 14.0422 1603 164.284 581.089 408.294
2782 1 64.1062 13.6648 876 158.607 581.088 432.708
2783 0 67.127 13.2286 888 155.66 579.95 432.851
2784 0 68.133 13.6645 931 159.356 581.626 433.032
2785 0 68.1567 14.0558 958 162.398 580.174 432.255
2786 0 72.1111 13.5901 980 162.019 580.71 431.622
2787 0 73.1048 14.021 1025 158.104 580.016 429.509
2788 0 77.1131 14.161 1092 163.984 580.877 429.051
2789 0 79.134 14.0395 1111 154.744 581.47 427.359
2790 0 79.0931 14.5651 1152 156.475 581.964 425.975
2791 0 83.0503 14.2203 1181 160.22 581.757 425.124
2792 0 86.1526 14.5324 1252 160.351 583.774 423.565
2793 0 90.1449 14.0441 1266 162.85 581.953 422.024
2794 0 94.1489 14.3921 1355 156.855 581.672 419.675
2795 0 95.1995 14.5274 1383 157.654 581.098 417.362
2796 0 98.1099 14.2697 1400 152.433 582.552 416.395
2797 0 104.419 14.4802 1512 159.151 580.91 414.661
2798 1 54.1214 12.7306 689 155.456 582.893 438.525
2799 0 56.1137 13.3301 748 160.075 584.235 437.742
2800 0 58.0858 13.2218 768 162.297 583.648 438.738
2801 0 59.1443 13.4755 797 157.935 582.325 438.27
2802 0 61.181 13.55 829 159.924 583.558 438.859
2803 0 64.2302 13.6073 874 160.737 582.649 438.719
2804 0 66.1781 14.2948 946 161.952 584.095 437.693
2805 0 67.1196 14.1836 952 161.148 583.92 436.303
2806 0 70.2321 14.267 1002 162.281 583.307 434.907
2807 0 72.1389 14.2919 1031 162.006 583.447 434.086
2808 0 74.353 14.2025 1056 158.262 583.066 433.573
2809 0 77.2108 14.0783 1087 156.198 582.703 433.311
2810 0 78.3263 14.5417 1139 161.132 584.53 431.85
2811 0 81.107 14.6473 1188 156.502 584.828 430.868
2812 0 84.2068 14.3456 1208 158.642 584.559 430.178
2813 0 87.3493 14.1272 1234 152.607 583.713 428.579
2814 0 90.278 14.3335 1294 151.049 583.168 427.06
2815 0 94.3266 14.1318 1333 155.779 581.726 425.533
2816 0 98.2559 14.4622 1421 161.905 582.457 424.787
2817 0 101.194 14.3091 1448 153.773 582.556 423.653
2818 0 103.295 14.7732 1526 159.488 582.794 422.159
2819 0 108.339 14.4455 1565 157.97 583.745 422.173
2820 1 60.1381 13.5688 816 157.131 583.183 445.27
2821 0 61.3022 13.9147 853 159.605 581.557 444.511
2822 0 64.1588 14.2771 916 162.358 581.055 443.733
2823 0 67.1788 14.1116 948 165.703 581.478 442.608
2824 0 69.2434 14.0952 976 163.517 581.335 442.169
2825 0 69.2942 14.5467 1008 161.798 581.262 441.669
2826 0 73.2576 14.2784 1046 161.37 580.846 440.609
2827 0 76.1943 14.358 1094 153.389 580.399 440.186
2828 0 79.1834 14.839 1175 155.62 580.302 437.908
2829 0 81.2046 14.6051 1186 153.658 581.607 437.13
2830 0 85.2009 14.3074 1219 157.973 581.066 436.924
2831 0 87.1778 14.7515 1286 157.953 581.43 434.69
2832 0 92.2933 15.1149 1395 150.13 580.247 433.362
2833 0 95.4225 14.7974 1412 157.533 580.335 432.013
2834 0 96.17 15.2646 1468 151.804 580.718 429.398
2835 0 100.225 15.4054 1544 148.66 581.266 428.434
2836 0 105.244 15.5163 1633 147.473 580.068 425.677
2837 1 58.2667 12.7689 744 153.593 581.034 447.422
2838 0 62.1994 13.4246 835 155.463 581.455 446.756
2839 0 63.1267 14.5105 916 153.041 580.726 444.641
2840 0 65.1435 13.8617 903 153.359 580.602 444.481
2841 0 66.1851 14.2479 943 150.31 582.827 443.299
2842 0 69.1391 14.4925 1002 150.137 581.136 443.412
2843 0 71.178 14.7658 1051 136.498 582.838 442.644
2844 0 74.095 14.5084 1075 149.222 580.77 441.674
2845 0 77.2015 14.637 1130 148.33 581.299 441.138
2846 0 79.1891 14.7369 1167 151.364 581.39 439.746
2847 0 81.2579 15.0631 1224 157.541 581.09 438.59
2848 0 84.1474 15.3184 1289 141.095 581.18 437.073
2849 0 88.1958 14.9213 1316 152.527 582.34 436.177
2850 0 90.4283 16.2228 1467 156.013 582.758 435.671
2851 0 93.1814 16.6664 1553 154.305 582.963 434.479
2852 0 97.2022 15.6889 1525 159.622 582.336 432.688
2853 0 101.196 15.544 1573 162.188 583.044 431.339
2854 0 104.178 15.1183 1575 157.654 581.801 431.043
2855 1 56.1224 12.9004 724 162.555 581.454 455.261
2856 0 57.1081 14.1136 806 159.665 579.615 454.634
2857 0 57.1004 13.8703 792 153.466 584.576 454.371
2858 0 60.1545 13.6648 822 141.953 582.606 454.018
2859 0 62.1719 14.5082 902 146.381 582.494 453.997
2860 0 63.1979 13.9087 879 160.423 583.307 453.851
2861 0 65.109 14.4066 938 152.662 583.856 454.075
2862 0 68.0827 15.1433 1031 145.769 582.475 453.459
2863 0 70.2086 14.5566 1022 149.984 582.388 454.372
2864 0 73.2422 14.4452 1058 146.63 583.077 453.511
2865 0 75.1521 15.2757 1148 151.093 582.694 453.055
2866 0 76.206 14.6445 1116 150.534 581.245 452.847
2867 0 81.1422 14.4684 1174 143.895 584.071 452.993
2868 0 82.2513 15.3554 1263 149.477 582.792 452.785
2869 0 84.1853 15.1333 1274 145.46 581.975 452.082
2870 0 87.1714 15.1655 1322 152.817 583.558 451.135
2871 0 93.2922 14.7815 1379 152.327 582.199 451.212
2872 0 95.2871 14.661 1397 147.733 581.074 451.297
2873 0 99.2128 15.1896 1507 146.444 582.968 449.929
2874 0 101.191 15.4856 1567 151.184 582.331 450.676
2875 0 104.284 16.0427 1673 146.778 582.766 449.931
2876 1 57.1724 12.7509 729 150.115 584.587 473.604
2877 0 58.2126 13.0041 757 149.374 586.47 474.223
2878 0 59.2431 13.2167 783 152.485 583.957 474.922
2879 0 62.1324 13.3586 830 146.447 583.949 474.74
2880 0 64.1051 13.1347 842 148.772 583.811 475.284
2881 0 65.1532 13.3992 873 147.675 583.907 474.133
2882 0 76.1633 12.9327 985 163.549 586.73 472.197
2883 0 78.2523 13.1498 1029 164.211 585.162 470.534
2884 0 82.1698 13.2409 1088 158.683 583.504 469.767
2885 0 87.1942 13.166 1148 161.457 583.84 469.475
2886 0 88.2514 13.0196 1149 158.789 584.245 465.621
2887 1 49.103 10.9769 539 145.239 585.87 486.503
2888 0 50.0989 11.9963 601 153.226 582.181 485.904
2889 0 53.1148 11.8611 630 153.232 584.467 485.146
2890 0 54.1693 12.0917 655 156.452 583.018 484.753
2891 0 56.1616 11.7518 660 151.553 583.615 484.691
2892 0 57.0858 11.9644 683 145.564 584.463 481.366
2893 0 59.0671 12.4943 738 153.501 584.217 479.21
2894 0 61.1251 12.4335 760 152.301 585.325 477.534
2895 0 63.0488 12.752 804 153.805 585.218 477.052
2896 0 66.1999 12.5831 833 145.035 582.244 475.767
2897 0 70.1557 12.5578 881 149.267 583.236 474.538
2898 0 71.1188 12.8377 913 152.034 584.829 472.388
2899 0 74.1024 12.5637 931 144.218 582.66 471.214
2900 0 77.3274 12.7639 987 150.694 582.924 470.767
2901 0 80.364 13.0282 1047 148.986 584.23 468.02
2902 1 43.039 11.478 494 147.824 584.348 485.247
2903 0 48.0751 11.378 547 151.196 583.633 484.188
2904 0 51.1132 11.6995 598 141.184 585.96 484.395
2905 0 51.0997 11.8787 607 145.837 586.893 482.666
2906 0 53.0298 12.0875 641 145.989 585.624 481.315
2907 0 55.1069 12.0312 663 139.201 586.499 481.112
2908 0 54.0818 12.0003 649 134.827 586.223 480.912
2909 0 56.0934 12.6753 711 142.785 584.219 479.347
2910 0 58.0883 12.0506 700 144.107 584.851 479.236
2911 0 58.0625 12.6588 735 143.868 585.619 478.257
2912 0 61.1928 12.0439 737 146.288 586.811 477.362
2913 0 60.2666 12.6936 765 143.782 585.63 477.502
2914 0 64.2708 12.8519 826 143.605 585.328 475.505
2915 0 65.1048 13.0559 850 142.916 585.936 474.762
2916 0 65.2197 13.1249 856 145.442 583.9 475.577
2917 0 70.1711 12.6405 887 151.43 583.918 473.478
2918 0 71.106 13.1635 936 147.612 584.382 471.997
2919 0 72.2745 13.0336 942 148.358 583.562 472.08
2920 0 75.1816 13.0617 982 150.28 583.215 470.358
2921 0 77.1435 12.9499 999 150.588 582.71 468.865
2922 0 80.1626 12.6992 1018 147.661 585.338 466.75
2923 0 81.1318 13.4473 1091 156.938 584.292 466.687
2924 0 85.1752 13.3607 1138 155.669 582.773 464.62
2925 1 48.0638 10.8606 522 152.751 583.939 483.51
2926 0 50.1597 11.3836 571 154.077 584.11 483.133
2927 0 52.1814 11.9775 625 153.778 584.21 478.398
2928 0 53.2445 12.6398 673 154.782 583.48 472.294
2929 0 55.2791 12.8258 709 154.377 584.484 469.173
2930 0 56.1684 12.4803 701 148.956 584.999 468.262
2931 0 58.1498 13.1213 763 152.415 584.19 467.688
2932 0 61.6244 12.9819 800 152.252 583.985 466.822
2933 0 61.1197 13.3018 813 157.156 583.843 466.426
2934 0 62.1624 13.4165 834 154.917 582.233 465.534
2935 0 65.1766 13.1949 860 153.835 584.179 465.394
2936 0 66.1634 13.4818 892 159.299 584.93 463.503
2937 0 67.1494 13.805 927 161.78 582.072 463.232
2938 0 68.1804 13.7136 935 158.179 583.972 463.195
2939 0 72.1557 13.9421 1006 163.357 583.165 462.423
2940 0 72.2729 14.2654 1031 158.746 582.808 462.586
2941 0 75.145 14.1992 1067 163.27 583.276 462.224
2942 0 77.129 14.0673 1085 161.551 584.75 461.165
2943 0 77.129 14.0673 1085 170.425 586.75 461.165
2944 0 82.1144 14.3458 1178 164.055 583.621 459.305
2945 0 85.1654 14.3485 1222 160.836 582.538 459.066
2946 0 87.1454 14.2979 1246 163.971 583.12 457.665
2947 0 91.1848 14.4761 1320 162.167 582.839 456.502
2948 0 94.2031 14.543 1370 156.465 583.048 453.852
2949 0 97.1102 14.4269 1401 163.483 581.161 453.106
2950 0 100.119 14.6225 1464 161.449 582.001 452.174
2951 0 102.22 14.4883 1481 163.537 582.333 450.802
2952 0 106.19 14.813 1573 166.798 582.567 449.018
2953 1 58.1095 13.1304 763 169.104 581.303 473.674
2954 0 60.1999 13.8372 833 162.053 581.808 472.553
2955 0 60.0592 14.6855 882 164.412 581.418 472.298
2956 0 63.1621 14.0591 888 163.084 581.288 472.171
2957 0 66.1209 13.8534 916 160.238 583.016 472.04
2958 0 69.282 14.0152 971 168.246 581.478 471.193
2959 0 72.1034 14.1602 1021 164.599 581.189 470.247
2960 0 73.097 14.4055 1053 159.699 583.414 469.478
2961 0 76.0914 14.4826 1102 168.176 581.709 468.378
2962 0 79.1881 14.5603 1153 160.245 584.353 467.756
2963 0 81.3711 14.3909 1171 158.474 583.36 467.169
2964 0 83.2636 14.7243 1226 153.429 582.337 466.233
2965 0 87.1903 14.5658 1270 159.904 583.226 466.694
2966 0 91.5049 14.5347 1330 158.732 581.286 465.706
2967 0 94.2427 14.9614 1410 160.099 581.929 463.911
2968 0 95.2858 15.0705 1436 156.095 581.673 462.388
2969 1 51.1908 13.0297 667 159.856 583.837 484.388
2970 0 53.1388 13.493 717 154.07 584.039 484.403
2971 0 54.248 14.0097 760 153.593 583.763 484.928
2972 0 57.0892 13.6979 782 158.905 584.171 484.786
2973 0 58.0983 13.6321 792 157.513 583.105 484.726
2974 0 60.2403 13.7283 827 154.187 583.235 484.625
2975 0 61.0494 14.2835 872 139.411 582.208 485.396
2976 0 63.1416 14.7446 931 143.282 582.206 485.12
2977 0 65.1118 14.2524 928 148.794 580.95 484.733
2978 0 66.0608 14.3201 946 159.557 581.61 483.461
2979 0 69.1894 14.5253 1005 156.186 581.108 483.72
2980 0 71.1085 14.8646 1057 152.751 579.906 482.971
2981 0 72.1458 14.8033 1068 152.536 579.859 482.032
2982 0 76.1429 14.6567 1116 149.796 581.814 481.116
2983 0 79.0925 14.9319 1181 148.398 580.27 479.987
2984 0 83.2407 14.8605 1237 152.85 580.57 478.825
2985 0 84.1652 14.6854 1236 160.082 581.927 477.689
2986 0 86.1945 14.9894 1292 158.551 582.96 476.361
2987 0 90.1102 15.0038 1352 165.312 584.378 475.021
2988 0 95.3533 14.7871 1410 159.097 583.469 472.611
2989 1 54.1417 13.4462 728 156.357 581.578 492.518
2990 0 53.1556 13.9778 743 156.229 581.886 492.092
2991 0 55.1376 13.82 762 153.286 583.407 491.803
2992 0 59.1478 13.6269 806 157.258 583.35 490.336
2993 0 59.1478 13.6269 806 176.148 583.35 490.336
2994 0 62.1233 14.101 876 157.421 584.706 489.107
2995 0 64.1863 14.0684 903 140.532 581.743 488.236
2996 0 68.1319 14.0903 960 141.521 582.581 487.884
2997 0 69.1177 14.3957 995 152.436 580.244 486.452
2998 0 71.1468 14.3366 1020 139.886 581.807 486.914
2999 0 73.1409 14.3969 1053 146.321 583.608 485.664
3000 0 77.1258 14.1327 1090 144.036 584.949 483.711
3001 0 79.2261 14.061 1114 142.635 583.01 483.421
3002 0 81.0721 14.3206 1161 135.736 583.502 482.067
3003 0 84.125 14.6211 1230 138.052 582.349 480.338
3004 0 86.1049 14.3894 1239 137.567 581.823 480.169
3005 0 91.121 14.179 1292 142.109 581.183 478.92
3006 0 92.1199 14.4486 1331 133.195 580.747 476.835
3007 0 97.2209 14.0196 1363 136.423 580.622 475.97
3008 1 54.0752 12.8525 695 133.478 580.709 497.056
3009 0 54.0554 13.2827 718 134.348 579.947 496.756
3010 0 57.0488 13.69 781 127.145 581.277 496.475
3011 0 58.129 13.8313 804 136.33 582.555 496.296
3012 0 61.0739 13.6228 832 132.398 581.363 495.677
3013 0 63.0965 13.8835 876 137.728 582.968 493.935
3014 0 64.1175 14.4578 927 137.792 581.841 492.218
3015 0 67.2195 14.1774 953 148.101 582.494 491.568
3016 0 68.1973 14.3261 977 137.949 581.764 491.474
3017 0 70.2116 14.1999 997 153.723 580.934 490.912
3018 0 73.1479 14.4092 1054 155.273 581.002 489.72
3019 0 77.1937 14.3924 1111 158.437 579.914 486.839
3020 0 79.1126 14.4225 1141 160.011 581.307 486.707
3021 0 81.3133 14.6225 1189 159.65 582.068 485.052
3022 0 84.1252 14.6686 1234 163.117 581.524 483.32
3023 0 88.127 14.6266 1289 160.019 582.105 481.546
3024 0 90.3324 14.7234 1330 169.032 582.083 480.273
3025 0 94.0742 14.8819 1400 167.845 580.617 479.199
3026 0 96.1318 14.7818 1421 167.413 581.707 477.612
3027 0 101.162 14.5904 1476 161.385 583.177 475.439
3028 0 106.093 14.4496 1533 160.179 582.22 473.847
3029 0 109.26 14.6165 1597 163.152 580.252 472.726
3030 1 60.0542 13.6377 819 170.04 583.494 496.348
3031 0 61.033 14.3201 874 164.223 582.2 495.01
3032 0 65.0525 14.1578 921 163.87 583.206 493.996
3033 0 66.0559 14.4575 955 169.079 582.654 492.54
3034 0 68.0641 14.2219 968 163.197 583.385 491.434
3035 0 71.0719 14.2532 1013 168.543 583.225 490.803
3036 0 74.1424 14.4452 1071 166.83 584.251 489.532
3037 0 76.1067 14.4928 1103 162.355 582.1 487.85
3038 0 79.1882 14.2319 1127 167.249 580.832 485.899
3039 0 81.1788 14.659 1190 170.911 579.345 484.487
3040 0 86.3273 14.6304 1263 163.549 579.674 482.263
3041 0 89.1693 14.5117 1294 158.849 578.252 481.505
3042 0 91.2386 14.5991 1332 165.014 578.746 480.121
3043 0 96.2262 14.3308 1379 164.555 580.584 478.624
3044 0 99.3345 14.5267 1443 164.332 578.729 475.934
3045 1 53.2144 12.8913 686 167.655 579.12 498.472
3046 0 54.2759 13.5603 736 167.565 580.524 497.731
3047 0 55.2106 14.1096 779 166.973 578.154 496.381
3048 0 55.0957 14.3387 790 168.263 578.565 495.709
3049 0 58.2062 14.0879 820 167.454 578.828 494.616
3050 0 61.166 14.2726 873 169.545 577.771 493.88
3051 0 62.0885 14.2055 882 165.251 580.336 493.662
3052 0 65.3137 14.4686 945 160.876 580.767 491.52
3053 0 68.2873 14.0582 960 162.552 580.744 491.165
3054 0 70.3297 14.0481 988 166.567 580.578 490.505
3055 0 72.4173 14.0574 1018 159.929 579.766 489.697
3056 0 73.2943 14.3804 1054 161.323 582.541 488.29
3057 0 77.2171 14.1938 1096 164.38 583.996 486.702
3058 0 80.146 14.3613 1151 162.271 583.182 485.48
3059 0 81.2174 14.4797 1176 157.853 580.686 484.616
3060 0 85.2038 14.4712 1233 159.781 581.556 482.713
3061 0 89.3055 14.3552 1282 153.022 581.031 480.687
3062 1 48.2005 12.0538 581 155.594 580.606 500.651
3063 0 49.1307 12.9858 638 157.116 581.898 500.198
3064 0 50.1872 13.4895 677 150.913 583.446 500.006
3065 0 52.2183 13.4436 702 154.432 582.48 498.712
3066 0 54.1753 13.161 713 153.264 581.548 497.837
3067 0 55.1468 13.8721 765 146.376 579.35 497.474
3068 0 57.1003 13.9929 799 146.925 581.887 497.183
3069 0 59.2092 14.2039 841 140.124 581.724 496.824
3070 0 61.2011 13.9703 855 148.676 582.04 496.716
3071 0 62.2691 14.1643 882 147.696 581.934 496.381
3072 0 65.3036 14.134 923 140.168 580.838 495.501
3073 0 66.2106 14.2575 944 137.522 580.547 495.178
3074 0 68.2925 14.2915 976 149.087 581.024 494.623
3075 0 71.2412 13.6859 975 134.093 580.427 493.702
3076 0 73.2438 14.0763 1031 143.16 579.532 492.09
3077 0 75.3329 14.2965 1077 137.891 580.238 491.379
3078 0 79.141 14.1772 1122 144.988 580.025 491.115
3079 0 80.3023 14.5824 1171 137.96 582.454 489.961
3080 0 82.1293 14.7694 1213 141.925 582.276 488.785
3081 0 86.2648 14.3628 1239 139.786 580.247 488.667
3082 0 88.1624 14.4846 1277 143.838 580.731 487.103
3083 0 92.1369 14.5327 1339 140.294 581.454 486.172
3084 0 94.2691 14.5647 1373 135.792 582.991 484.677
3085 0 97.3294 14.6615 1427 140.334 581.254 482.942
3086 0 101.222 14.6312 1481 144.159 580.914 481.055
3087 1 54.3729 13.2603 721 141.821 581.667 505.201
3088 0 54.2874 14.0917 765 141.759 580.08 504.975
3089 0 57.1896 13.7962 789 43.7858 580.242 503.55
3090 0 59.1142 14.176 838 145.15 580.16 502.895
3091 0 61.2494 14.0083 858 139.872 580.969 502.469
3092 0 61.4865 14.5235 893 142.805 581.28 501.531
3093 0 64.3748 14.3068 921 144.92 582.105 500.975
3094 0 67.1071 14.3502 963 145.803 583.512 500.043
3095 0 68.261 14.5032 990 148.85 580.221 500.052
3096 0 72.1794 14.5332 1049 143.235 582.476 498.191
3097 0 74.064 14.636 1084 148.75 581.823 497.185
3098 0 76.2014 14.4748 1103 142.277 582.153 496.455
3099 0 79.2231 14.9704 1186 152.513 580.433 494.392
3100 0 81.2615 14.5333 1181 151.345 581.666 494.202
3101 0 83.3148 14.7033 1225 150.349 581.622 493.112
3102 0 87.223 14.4457 1260 151.248 581.039 491.693
3103 0 90.2352 14.6949 1326 146.14 581.268 491.066
3104 0 92.2669 14.328 1322 150.571 581.113 489.83
3105 0 96.2622 14.5748 1403 153.924 579.319 487.919
3106 0 99.2 14.5464 1443 150.753 581.076 487.734
3107 0 99.2 14.5464 1443 164.491 582.076 487.734
3108 1 57.1669 13.5568 775 147.252 581.144 508.782
3109 0 57.1397 14.5083 829 149.731 579.747 508.315
3110 0 60.0841 14.463 869 149.46 581.193 507.928
3111 0 61.256 14.17 868 140.495 579.206 507.612
3112 0 64.1688 14.1658 909 152.367 581.947 506.759
3113 0 67.3232 14.4378 972 144.021 579.756 506.581
3114 0 68.3227 14.3583 981 155.235 578.929 505.457
3115 0 70.2249 14.3681 1009 153.121 581.388 505.853
3116 0 73.275 14.0976 1033 158.63 581.017 504.116
3117 0 75.5182 14.5793 1101 143.168 581.749 503.765
3118 0 78.3759 14.3922 1128 157.889 579.169 503.382
3119 0 82.2825 14.5353 1196 155.038 578.87 500.156
3120 0 83.1962 14.3396 1193 156.958 580.009 499.651
3121 0 88.1567 14.633 1290 153.871 577.112 498.036
3122 0 92.2696 14.3493 1324 160.237 577.094 496.73
3123 0 95.2031 14.1907 1351 159.083 578.051 495.329
3124 1 51.0719 13.4321 686 160.827 578.362 516.222
3125 0 52.1608 14.1677 739 157.532 580.014 516.326
3126 0 55.1259 13.9499 769 154.84 580.85 515.641
3127 0 55.0506 14.078 775 150.698 580.226 514.175
3128 0 58.1807 14.0425 817 156.506 580.252 513.936
3129 0 60.1083 14.0247 843 154.165 580.497 513.331
3130 0 63.0633 13.9859 882 153.887 579.766 512.518
3131 0 63.1186 14.1004 890 158.074 581.864 512.097
3132 0 66.1002 14.5688 963 143.558 581.415 510.547
3133 0 67.0574 14.7784 991 154.741 580.691 510.067
3134 0 69.2375 14.9485 1035 153.518 579.848 509.075
3135 0 74.1841 14.3292 1063 155.156 579.681 508.438
3136 0 75.2344 14.8336 1116 158.394 579.142 506.965
3137 0 79.1704 14.7025 1164 150.425 580.387 504.69
3138 0 81.1157 15.0772 1223 153.487 579.448 503.177
3139 0 84.1181 14.6342 1231 152.36 579.888 502.581
3140 0 89.2603 14.3849 1284 152.012 580.673 500.54
3141 0 92.2826 14.4773 1336 149.775 580.453 498.344
3142 0 95.1522 14.398 1370 151.363 580.406 496.799
3143 1 52.036 12.9526 674 155.295 581.264 519.025
3144 0 54.0492 13.7282 742 150.704 581.48 518.135
3145 0 55.0373 13.6635 752 152.258 579.964 517.838
3146 0 56.0664 14.0369 787 77.4371 580.489 516.494
3147 0 59.1309 13.9352 824 154.788 581.157 515.837
3148 0 59.1161 13.871 820 153.757 579.229 515.57
3149 0 62.2174 13.8868 864 153.093 579.602 513.733
3150 0 63.1526 14.5679 920 149.347 580.844 513.337
3151 0 67.0989 14.352 963 149.147 581.125 512.044
3152 0 67.1389 14.6711 985 153.429 582.326 511.33
3153 0 69.08 14.7365 1018 154.867 582.428 510.634
3154 0 74.0926 14.1715 1050 149.536 580.33 509.407
3155 0 76.0843 14.2868 1087 154.612 579.696 507.57
3156 0 80.0978 14.2201 1139 153.092 581.094 506.436
3157 0 82.1304 14.1969 1166 155.499 582.015 505.638
3158 0 84.2801 14.5467 1226 155.189 581.218 503.868
3159 0 87.2178 14.5269 1267 152.983 582.043 502.009
3160 0 90.2046 14.5115 1309 159.008 580.162 501.43
3161 0 95.1133 14.4039 1370 149.83 579.585 500.025
3162 1 55.0823 13.2347 729 158.995 579.085 519.41
3163 0 54.1117 13.6015 736 159.368 579.086 519.37
3164 0 58.0899 13.7029 796 159.486 579.572 518.01
3165 0 59.0798 14.0657 831 155.816 579.165 517.462
3166 0 61.0917 14.0772 860 156.528 580.33 516.959
3167 0 63.1351 14.0651 888 149.374 579.008 516.057
3168 0 65.17 14.1323 921 156.504 578.938 514.925
3169 0 67.0792 14.0282 941 156.16 579.942 513.893
3170 0 68.1041 14.0814 959 153.584 578.856 513.027
3171 0 71.1033 14.2188 1011 151.496 578.202 511.461
3172 0 73.0835 14.545 1063 152.212 577.56 510.929
3173 0 76.0675 14.3951 1095 153.036 579.311 510.495
3174 0 78.0589 14.5659 1137 150.481 579.821 509.057
3175 0 81.1396 14.3456 1164 146.612 577.876 507.643
3176 0 83.1825 15.0873 1255 149.59 577.488 506.904
3177 0 87.1299 14.3923 1254 150.812 578.67 505.952
3178 0 90.2537 14.7362 1330 144.682 578.378 504.143
3179 0 94.2992 14.1995 1339 142.984 577.959 502.447
3180 0 97.1958 14.4759 1407 151.397 577.059 500.204
3181 0 101.217 14.7702 1495 154.034 579.454 498.183
3182 0 103.18 14.625 1509 153.597 578.683 497.302
3183 0 106.195 14.9159 1584 152.949 578.24 495.74
3184 1 60.0996 13.4444 808 155.719 576.915 519.897
3185 0 61.1946 13.8738 849 153.71 577.234 518.743
3186 0 63.0468 13.7993 870 153.083 578.97 517.19
3187 0 64.0648 14.0015 897 156.999 578.214 516.361
3188 0 67.1088 13.8581 930 157.666 578.229 515.088
3189 0 69.341 13.6572 947 159.772 578.826 514.769
3190 0 70.2231 14.1122 991 162.305 578.815 513.449
3191 0 72.1269 13.9892 1009 165.204 575.872 512.954
3192 0 73.1123 14.594 1067 162.996 575.997 511.732
3193 0 79.2831 14.0635 1115 162.175 576.666 510.258
3194 0 79.3322 14.3069 1135 167.502 576.66 509.138
3195 0 82.3088 14.4456 1189 171.683 577.508 508.063
3196 0 85.2435 14.57 1242 168.39 577.577 506.303
3197 0 85.4739 14.6244 1250 165.795 578.084 505.713
3198 0 90.3674 14.2972 1292 164.778 580.06 504.926
3199 0 94.397 14.1106 1332 169.335 578.808 504.24
3200 0 96.4664 14.5854 1407 164.63 580.156 501.334
3201 0 102.315 14.2501 1458 167.77 579.302 499.499
3202 0 105.283 14.3898 1515 168.883 579.368 498.413
3203 1 59.1313 13.1572 778 167.477 578.63 519.856
3204 0 60.262 13.2588 799 164.665 580.155 520.019
3205 0 61.1947 13.7594 842 160.232 579.999 518.387
3206 0 63.2138 13.5888 859 164.54 578.793 517.293
3207 0 65.3535 13.8172 903 160.114 580.154 516.991
3208 0 66.3324 14.2464 945 168.04 580.607 516.59
3209 0 69.519 13.6222 947 90.4139 580.068 515.468
3210 0 71.2957 13.6334 972 158.373 578.941 515.066
3211 0 75.247 13.8079 1039 161.767 580.075 514.166
3212 0 75.2614 14.1241 1063 167.387 579.941 513.391
3213 0 78.3196 14.4536 1132 165.248 578.801 512.571
3214 0 81.2989 14.1453 1150 171.24 580.242 511.857
3215 0 83.1893 14.437 1201 163.613 579.772 510.568
3216 0 86.3887 14.3653 1241 165.642 581.148 509.109
3217 0 88.3559 14.4982 1281 168.212 582.605 507.857
3218 0 93.4101 14.3346 1339 169.834 580.244 507.197
3219 0 95.3243 14.4664 1379 163.936 580.738 505.869
3220 0 98.2471 14.3109 1406 172.28 581.333 504.827
3221 0 101.297 14.6894 1488 172.162 582.891 503.259
3222 0 102.376 14.7788 1513 170.595 579.317 502.288
3223 0 106.459 15.2359 1622 168.958 581.019 499.485
3224 0 110.616 14.2656 1578 166.979 579.733 497.813
3225 0 114.308 14.6359 1673 168.954 579.594 495.081
3226 0 116.298 14.9616 1740 171.637 578.601 494.414
3227 0 121.447 14.9613 1817 165.992 580.333 492.411
3228 1 64.3398 13.7862 887 168.933 578.599 520.317
3229 0 65.4146 14.6298 957 164.325 579.196 518.971
3230 0 68.3776 14.2298 973 159.098 580.633 518.352
3231 0 71.2943 14.1806 1011 169.688 579.428 517.198
3232 0 74.3945 13.8989 1034 168.547 577.342 516.738
3233 0 76.3334 14.7773 1128 163.62 578.521 515.066
3234 0 77.3536 14.6082 1130 156.468 577.134 515.188
3235 0 81.3407 14.1626 1152 167.037 579.664 513.934
3236 0 83.4194 14.553 1214 163.764 580.356 512.487
3237 0 87.3509 14.7222 1286 164.482 579.963 510.858
3238 0 89.3843 14.5328 1299 164.001 577.615 510.834
3239 0 92.3244 14.6332 1351 161.461 576.411 508.972
3240 0 94.4809 14.6273 1382 161.211 578.441 507.677
3241 0 99.6829 14.4157 1437 162.184 579.5 506.414
3242 0 102.581 14.4276 1480 166.445 578.505 506.575
3243 0 105.815 14.96 1583 166.551 577.981 504.917
3244 0 107.539 14.9621 1609 166.017 578.372 503.027
3245 0 109.615 15.1074 1656 155.665 577.948 502.091
3246 0 113.695 14.7939 1682 155.077 578.944 501.015
3247 0 120.617 14.8569 1792 164.52 577.887 499.156
3248 0 124.484 14.8293 1846 165.39 578.632 497.25
3249 0 128.363 15.0433 1931 161.246 578.232 495.562
3250 0 131.297 15.0346 1974 167.118 577.97 494.385
3251 0 137.552 15.1143 2079 167.077 577.204 491.59
3252 0 142.737 15.2378 2175 158.767 579.412 488.57
3253 0 142.737 15.2378 2175 177.847 582.412 488.57
3254 1 155.745 15.307 2384 170.338 578.13 483.595
3255 1 85.5318 13.9246 1191 161.129 579.245 517.995
3256 0 89.4284 14 1252 166.978 579.36 516.548
3257 0 91.2922 14.5248 1326 166.028 578.632 515.299
3258 0 95.7552 14.4535 1384 169.152 580.909 514.577
3259 0 98.5967 14.3514 1415 167.249 581.124 514.485
3260 0 99.5213 14.9013 1483 164.332 577.646 511.85
3261 0 103.633 14.7925 1533 157.929 579.229 511.259
3262 0 107.477 14.4775 1556 161.183 581.17 510.105
3263 0 110.582 14.7583 1632 169.314 580.275 508.299
3264 0 112.529 14.805 1666 168.58 578.402 507.349
3265 0 116.504 14.7034 1713 167.173 580.265 505.774
3266 0 119.457 15.2439 1821 165.887 580.407 503.172
3267 0 124.354 14.9332 1857 163.38 579.866 501.043
3268 0 129.396 14.6759 1899 163.749 581.02 499.887
3269 0 134.295 14.9893 2013 165.525 579.718 497.415
3270 0 139.391 15.0296 2095 159.83 579.577 495.428
3271 0 143.464 15.3 2195 166.27 580.203 493.595
3272 0 149.65 15.142 2266 157.967 583.612 490.707
3273 1 83.3469 13.7258 1144 166.274 579.279 522.865
3274 0 88.3207 13.8359 1222 167.979 580.287 521.308
3275 0 90.1844 14.2042 1281 164.282 579.671 519.675
3276 0 93.2844 14.2682 1331 167.032 580.823 518.53
3277 0 95.1541 14.2716 1358 165.085 580.378 517.647
3278 0 97.1394 14.8035 1438 157.187 580.171 515.076
3279 0 102.164 14.4474 1476 166.014 578.844 513.638
3280 0 105.175 14.2619 1500 165.947 578.891 512.124
3281 0 109.14 14.6692 1601 159.626 578.345 509.154
3282 0 110.179 14.776 1628 157.788 578.339 507.304
3283 0 116.119 14.4593 1679 160.79 577.917 505.658
3284 0 120.186 14.644 1760 163.752 578.72 502.95
3285 0 124.146 14.2977 1775 161.563 577.185 500.582
3286 0 127.212 14.5584 1852 156.509 578.136 498.727
3287 1 74.0972 13.5498 1004 159.591 579.411 525.461
3288 0 75.1293 13.9093 1045 157.673 579.004 523.858
3289 0 79.0602 13.4581 1064 157.816 581.758 522.961
3290 0 79.1601 13.6811 1083 161.428 581.245 522.898
3291 0 83.1138 13.6439 1134 163.52 579.623 521.412
3292 0 86.149 13.9178 1199 166.872 580.033 519.891
3293 0 89.1502 14.212 1267 163.848 579.551 518.862
3294 0 92.1503 13.8469 1276 160.446 579.237 517.895
3295 0 94.1499 14.307 1347 163.46 580.771 516.632
3296 0 99.279 13.9103 1381 165.05 580.432 514.144
3297 0 102.178 13.9951 1430 157.442 579.39 513.161
3298 0 104.188 14.1283 1472 162.675 579.927 511.432
3299 0 109.254 14.3152 1564 169.116 577.411 509.711
3300 0 113.228 14.3605 1626 169.776 579.365 507.081
3301 0 116.155 14.7045 1708 168.441 578 505.938
3302 0 120.12 14.7103 1767 168.88 579.57 504.123
3303 0 125.259 14.3702 1800 162.489 580.278 502.178
3304 0 128.287 15.1847 1948 161.662 580.705 500.415
3305 0 132.338 14.5309 1923 163.645 580.5 498.671
3306 0 138.182 15.0164 2075 164.051 580.406 496.763
3307 0 143.185 14.834 2124 159.055 578.198 493.801
3308 0 148.177 15.0698 2233 165.157 579.85 491.807
3309 1 87.1061 12.2494 1067 161.507 580.455 523.999
3310 0 91.1471 13.0668 1191 157.484 581.491 522.576
3311 0 92.2538 12.9534 1195 152.582 581.762 520.252
3312 0 95.1222 12.9413 1231 156.839 577.751 519.682
3313 0 98.2507 12.9159 1269 156.036 580.136 516.987
3314 0 102.249 12.4402 1272 154.691 579.713 515.968
3315 0 106.267 12.9202 1373 152.962 579.583 513.331
3316 0 110.145 13.2371 1458 159.278 580.5 511.757
3317 0 113.269 12.7484 1444 150.35 579.661 510.229
3318 0 114.269 13.1707 1505 151.936 579.459 508.915
3319 0 119.47 13.0827 1563 159.961 581.36 507.584
3320 0 122.2 13.4124 1639 147.855 580.517 505.68
3321 0 128.172 13.4585 1725 160.455 579.417 504.403
3322 0 131.221 13.6411 1790 160.43 579.639 502.174
3323 0 133.235 13.6901 1824 157.279 579.749 500.475
3324 0 138.213 13.8555 1915 148.544 580.568 497.802
3325 0 145.317 13.7905 2004 156.395 580.521 495.258
3326 0 149.249 13.6148 2032 153.147 581.709 492.788
3327 0 155.38 13.8821 2157 152.967 581.028 490.13
3328 0 160.279 13.8384 2218 156.149 582.554 488.689
3329 0 165.328 13.827 2286 158.409 582.306 486.601
3330 0 172.413 14.007 2415 154.877 582.863 482.513
3331 1 101.069 11.5366 1166 148.257 583.8 521.174
3332 0 105.115 12.1676 1279 146.905 583.041 518.31
3333 0 107.163 12.3083 1319 142.207 580.722 516.939
3334 0 112.217 12.8679 1444 148.476 581.372 514.845
3335 0 112.326 12.8821 1447 149.303 581.601 514.078
3336 0 118.34 12.7852 1513 150.527 579.11 512.711
3337 0 123.203 12.7432 1570 151.4 580.354 510.582
3338 0 125.176 13.0855 1638 151.841 578.313 509.33
3339 0 129.367 13.0405 1687 154.542 579.879 507.141
3340 0 134.167 12.9168 1733 148.922 579.527 504.66
3341 0 139.291 12.9441 1803 152.38 578.789 503.289
3342 0 142.095 13.1321 1866 151.029 578.635 501.063
3343 1 80.1474 11.5662 927 152.37 578.882 532.992
3344 0 82.148 12.1366 997 147.587 578.736 531.628
3345 0 86.2489 12.2552 1057 149.682 578.834 529.129
3346 0 86.2035 13.2825 1145 149.592 578.295 526.456
3347 0 90.129 13.2588 1195 143.584 579.915 525.145
3348 0 93.1786 13.1897 1229 150.744 580.211 525.943
3349 0 97.2558 13.0686 1271 148.787 579.531 523.452
3350 0 97.2558 13.0686 1271 153.109 578.531 523.452
3351 0 102.221 13.3339 1363 144.612 578.735 517.25
3352 0 106.191 13.2497 1407 154.555 579.618 517.109
3353 0 108.151 13.0188 1408 148.346 579.231 515.969
3354 0 111.175 13.6991 1523 152.284 578.494 513.877
3355 0 116.141 13.3803 1554 142.71 577.523 512.138
3356 0 121.221 13.199 1600 141.358 579.201 512.63
3357 0 123.515 13.7878 1703 146.732 581.336 511.212
3358 0 127.447 14.2019 1810 147.923 580.424 510.154
3359 0 132.572 13.2909 1762 148.522 578.876 509.921
3360 0 136.342 13.7155 1870 145.967 578.402 508.175
3361 0 140.51 13.1094 1842 151.04 580.438 507.934
3362 1 77.4721 12.9337 1002 156.38 580.225 538.847
3363 0 79.3192 12.9351 1026 149.11 579.136 538.596
3364 0 82.4891 13.4442 1109 142.847 576.606 536.619
3365 0 83.3125 13.7914 1149 140.795 577.996 536.574
3366 0 89.2618 13.2532 1183 147.397 575.694 535.689
3367 0 91.2683 13.8164 1261 146.585 577.633 534.84
3368 0 96.3762 14.9103 1437 141.548 577.636 532.266
3369 0 100.244 13.6068 1364 142.842 578.732 531.672
3370 0 103.468 13.2601 1372 151.295 579.996 530.953
3371 0 104.337 13.9548 1456 143.871 578.487 528.876
3372 0 111.508 14.3487 1600 144.491 578.748 526.974
3373 1 59.2146 11.6863 692 148.357 579.509 552.538
3374 0 62.0912 12.7715 793 152.762 581.757 551.584
3375 0 64.171 12.9498 831 150.936 580.603 551.984
3376 0 67.5754 13.2741 897 144.536 580.963 550.576
3377 0 68.1391 13.6486 930 142.019 579.481 549.842
3378 0 67.2012 13.6753 919 136.462 578.783 549.328
3379 0 73.2072 14.0833 1031 140.712 578.976 548.483
3380 0 75.1771 14.1798 1066 144.734 578.71 547.094
3381 0 78.3048 14.1115 1105 141.531 580.147 547.74
3382 0 79.2791 14.4805 1148 140.693 580.728 546.152
3383 0 83.2084 14.3014 1190 148.982 580.961 546.071
3384 0 86.6355 14.1397 1225 146.798 582.055 544.908
3385 0 90.469 14.4027 1303 147.531 582.918 543.203
3386 0 92.3909 14.3954 1330 146.732 580.896 542.354
3387 0 95.365 14.4812 1381 148.495 582.308 541.725
3388 0 98.5176 14.4847 1427 142.286 579.032 539.655
3389 0 100.465 14.5424 1461 150.613 581.418 539.444
3390 0 104.529 14.771 1544 147.558 580.871 537.997
3391 0 110.463 14.24 1573 149.761 580.904 537.807
3392 1 64.3251 13.1364 845 154.801 581.709 559.866
3393 0 65.4317 13.8618 907 154.528 583.741 559.159
3394 0 67.5167 14.0262 947 141.757 582.105 558.515
3395 0 70.2525 14.4764 1017 151.771 582.332 556.211
3396 0 72.2791 14.4163 1042 156.805 582.902 556.009
3397 0 73.2062 14.5889 1068 159.463 581.941 554.605
3398 0 76.0491 14.3591 1092 159.185 581.789 553.317
3399 0 78.1418 15.2799 1194 148.91 581.444 551.665
3400 0 81.1444 14.7884 1200 156.643 583.153 551.472
3401 0 82.1726 14.7981 1216 159.2 581.647 550.084
3402 0 85.0779 14.9157 1269 157.777 579.846 548.414
3403 0 89.2112 15.5586 1388 153.952 579.871 546.457
3404 0 91.167 14.8409 1353 159.438 580.498 545.514
3405 0 95.1254 15.0118 1428 162.466 580.756 542.646
3406 0 97.1611 15.2221 1479 162.817 578.344 541.214
3407 0 99.2581 14.9308 1482 162.482 578.853 540.567
3408 0 104.122 15.1745 1580 163.595 579.436 538.866
3409 0 105.134 15.1615 1594 159.219 579.093 536.655
3410 0 109.215 15.062 1645 148.272 579.513 535.82
3411 0 114.242 14.767 1687 164.342 579.877 533.931
3412 0 116.174 14.6677 1704 18.966 580.32 531.53
3413 0 120.302 15.3031 1841 162.347 581.69 529.318
3414 0 124.374 14.987 1864 161.746 580.965 527.353
3415 0 129.13 15.1785 1960 152.119 582.616 524.486
3416 1 71.1114 13.1624 936 158.486 582.756 552.058
3417 0 76.1443 13.6583 1040 152.146 581.888 549.897
3418 0 78.1209 13.9271 1088 160.519 582.88 545.756
3419 0 81.1338 13.8536 1124 156.314 584.125 545.568
3420 0 81.2205 14.1959 1153 163.937 582.482 544.088
3421 0 86.1308 14.0716 1212 168.198 584.397 542.158
3422 0 90.1293 14.0243 1264 161.785 582.839 540.919
3423 0 92.1257 14.1003 1299 167.61 584.094 539.216
3424 0 95.1762 14.3944 1370 166.088 580.615 538.025
3425 0 99.0828 14.0186 1389 170.096 580.279 535.519
3426 0 101.153 14.2062 1437 165.128 582.807 535.235
3427 0 103.193 14.4196 1488 165.149 582.188 533.673
3428 0 107.156 14.8568 1592 165.796 581.617 531.385
3429 0 110.28 14.436 1592 167.709 581.024 530.516
3430 0 115.138 14.3132 1648 163.932 580.704 527.857
3431 0 119.208 14.1685 1689 162.529 581.572 526.211
3432 0 124.245 13.9885 1738 164.395 582.685 524.97
3433 1 66.1851 12.9032 854 163.971 580.357 553.214
3434 0 68.0933 13.0116 886 154.212 582.082 551.593
3435 0 72.1051 13.1336 947 158.755 581.093 551.105
3436 0 74.1346 13.1248 973 157.239 581.125 549.517
3437 0 78.0794 13.4478 1050 151.379 579.576 547.776
3438 0 80.1644 13.3351 1069 152.498 580.852 547.218
3439 0 83.1219 13.3298 1108 158.757 582.454 547.305
3440 0 85.1255 13.7562 1171 156.438 579.405 546.209
3441 0 88.1991 13.821 1219 154.849 581.25 543.734
3442 0 89.1283 14.0584 1253 154.688 581.559 543.304
3443 0 92.2023 13.9693 1288 157.707 580.357 542.541
3444 0 96.1648 14.08 1354 152.052 581.253 540.256
3445 0 99.3342 13.9932 1390 157.995 581.246 538.089
3446 0 102.373 13.9881 1432 153.719 581.628 537.27
3447 0 106.29 14.4323 1534 155.108 580.479 534.781
3448 0 109.312 14.3351 1567 159.451 579.385 532.814
3449 0 109.162 14.474 1580 161.297 579.301 532.153
3450 0 114.313 14.3553 1641 158.946 579.702 530.65
3451 0 117.331 14.5059 1702 158.54 581.36 527.804
3452 0 120.368 14.4805 1743 162.826 580.334 526.275
3453 0 122.22 14.5884 1783 153.845 579.792 525.349
3454 0 127.343 14.6376 1864 158.478 579.04 523.972
3455 0 131.401 14.7335 1936 155.911 580.518 521.811
3456 0 137.443 14.8716 2044 151.381 580.036 517.182
3457 1 56.2397 10.9176 614 144.331 582.267 559.723
3458 0 58.2182 11.4054 664 148.402 579.316 558.161
3459 0 60.2065 11.9921 722 144.108 581.421 559.673
3460 0 62.1476 11.9393 742 142.309 581.904 558.323
3461 0 64.1503 12.3772 794 142.868 580.152 558.52
