index division length width area intensity CMx CMy
0 0 87.2096 16.1565 1409 165.207 278.495 319.687
1 0 91.0751 16.437 1497 166.52 280.745 318.377
2 1 45.0061 13.6648 615 177.522 282.291 344.335
3 0 48.1052 13.8655 667 171.097 281.816 344.261
4 0 49.0276 13.9921 686 174.169 284.417 345.797
5 0 50.0747 14.3785 720 170.357 282.157 347.493
6 0 52.0255 14.4545 752 173.145 281.238 349.234
7 0 54.1558 14.6429 793 174.791 282.339 350.975
8 0 56.0823 14.3539 805 170.07 281.966 353.221
9 0 58.0387 14.5937 847 170.367 281.28 354.564
10 0 59.0159 14.5893 861 177.617 279.656 356.434
11 0 62.2896 14.1918 884 173.679 279.294 358.273
12 0 63.0714 14.2378 898 173.285 278.429 359.682
13 0 65.1216 14.3578 935 173.662 278.597 361.887
14 0 67.0695 14.4924 972 170.12 278.575 363.632
15 0 69.1212 14.5686 1007 171.912 276.789 365.121
16 0 70.0685 15.0282 1053 166.382 275.945 365.9
17 0 73.2187 14.6274 1071 171.507 277.018 367.281
18 0 78.1324 14.6546 1145 177.226 277.117 367.975
19 0 79.1745 14.8659 1177 172.447 274.6 369.333
20 0 82.0513 14.8444 1218 170.621 275.612 370.728
21 0 85.0758 14.8573 1264 170.812 274.192 371.572
22 0 88.0659 15.1137 1331 173.499 272.951 372.229
23 0 91.2117 14.4938 1322 164.931 271.792 373.334
24 0 94.2396 14.548 1371 167.994 271.748 374.198
25 0 97.1283 14.5272 1411 171.537 270.087 375.186
26 0 101.202 14.6341 1481 168.324 271.714 376.08
27 1 51.0558 14.0435 717 171.381 272.167 401.72
28 0 54.048 13.9321 753 170.271 273.05 402.177
29 0 56.0865 14.0497 788 168.66 273.301 403.216
30 0 60.0857 13.5972 817 168.594 272.452 404.223
31 0 61.1534 13.7523 841 170.294 272.609 404.844
32 0 61.1951 14.4293 883 164.563 272.951 405.846
33 0 65.0987 14.1017 918 171.768 273.664 406.569
34 0 68.0955 14.1419 963 174.552 275.871 408.07
35 0 70.1233 14.774 1036 169.123 276.375 408.807
36 0 71.0689 14.7181 1046 177.054 276.668 410.878
37 0 74.1643 14.7645 1095 171.387 279.64 412.312
38 0 78.1001 14.4686 1130 172.253 278.469 413.978
39 0 80.2004 14.6757 1177 170.789 280.253 415.985
40 0 84.0569 14.6805 1234 169.146 279.236 418.218
41 0 86.1092 14.5977 1257 174.571 278.789 420.765
42 0 90.1438 14.7209 1327 167.956 278.686 423.094
43 0 93.0552 14.443 1344 173.241 279.873 426.445
44 0 96.0777 14.5611 1399 176.073 280.629 428.956
45 0 99.0973 14.7431 1461 169.016 281.846 431.617
46 0 104.386 14.2069 1483 170.529 281.696 434.195
47 1 54.0819 13.3131 720 169.014 281.265 462.022
48 0 57.0325 13.1329 749 177.146 278.874 466.172
49 0 59.1249 13.4799 797 173.358 279.068 471.198
50 0 62.0417 13.5715 842 163.963 279.129 476.4
51 0 63.0677 13.5252 853 170.666 279.87 481.646
52 0 66.028 13.5397 894 172.299 280.904 486.565
53 0 66.0712 13.3644 883 174.188 279.478 490.599
54 0 71.0716 13.1558 935 173.585 279.568 489.607
55 0 73.0355 13.3907 978 169.435 277.364 488.609
56 0 76.1102 13.1651 1002 166.166 277.639 487.744
57 0 78.1911 13.5182 1057 173.895 277.771 485.992
58 0 82.2663 13.1524 1082 171.669 278.044 484.37
59 0 86.1505 12.9889 1119 170.16 279.324 483.046
60 0 89.1346 13.1374 1171 166.801 278.18 481.041
61 0 90.1816 13.6281 1229 168.449 277.282 480.116
62 0 95.1991 13.2459 1261 172.344 277.583 478.189
63 0 99.175 13.3905 1328 164.637 278.438 476.706
64 0 103.298 13.311 1375 171.143 278.673 474.935
65 1 54.055 12.0988 654 169.139 277.641 498.85
66 0 55.068 12.53 690 154.391 278.596 497.47
67 0 57.0433 12.6045 719 165.494 276.833 496.253
68 0 59.0284 12.6719 748 161.583 278.263 495.199
69 0 62.0839 12.2415 760 165.401 277.307 493.674
70 0 64.0956 12.6062 808 159.35 276.985 492.332
71 0 66.061 12.4582 823 168.236 278.191 491.04
72 0 69.1377 12.4389 860 169.466 277.648 489.423
73 0 71.0861 12.6466 899 161.701 278.003 487.498
74 0 72.069 12.6962 915 163.586 278.854 486.188
75 0 75.1001 12.6764 952 162.44 278.978 484.954
76 0 79.0783 12.4181 982 160.875 278.691 483.593
77 0 81.2579 12.3434 1003 160.702 279.433 482.649
78 1 45.0331 11.103 500 154.07 279.702 499.48
79 0 46.0757 11.1773 515 154.697 279.565 499.052
80 0 47.1064 11.8243 557 158.732 279.23 497.867
81 0 48.1018 12.2656 590 155.871 279.381 497.236
82 0 51.0387 11.7166 598 157.157 279.177 496.483
83 0 51.0561 12.1631 621 150.153 278.591 495.49
84 0 52.0505 12.4302 647 149.42 278.816 494.759
85 0 55.059 12.3504 680 146.016 278.984 493.744
86 0 56.1001 12.2816 689 153.676 279.935 493.186
87 0 58.077 12.2079 709 153.303 281.705 492.584
88 0 58.0363 12.8196 744 143.001 280.417 491.797
89 0 62.0412 12.2338 759 141.067 280.621 490.808
90 0 62.095 12.6258 784 143.943 279.423 490.431
91 0 64.0463 12.9438 829 146.943 280.836 489.665
92 0 68.0866 12.6457 861 151.655 281.525 488.972
93 0 69.1838 12.3584 855 149.175 281.206 488.106
94 0 71.1435 12.6083 897 148.954 281.359 486.97
95 0 74.1074 12.5628 931 147.602 279.975 486.357
96 0 75.2956 12.431 936 147.386 279.582 484.775
97 0 77.1102 12.6831 978 148.949 277.604 483.743
98 0 80.1019 12.6464 1013 143.234 279.912 482.147
99 1 41.0583 10.3755 426 143.993 279.969 502.023
100 0 43.0228 10.9709 472 142.347 278.059 501.085
101 0 44.1505 11.2343 496 139.363 279.367 500.911
102 0 45.0394 11.6565 525 145.053 279.552 499.53
103 0 46.0218 11.6032 534 147.695 281.661 498.964
104 0 48.0422 11.9062 572 143.664 280.906 498.213
105 0 49.0922 12.4052 609 143.409 280.097 496.865
106 0 51.0608 11.7115 598 151.256 276.727 496.724
107 0 51.0244 12.6998 648 151.483 277.779 496.066
108 0 54.0165 12.2 659 151.93 278.543 494.687
109 0 55.0435 12.481 687 148.118 277.13 493.961
110 0 56.0623 12.5039 701 154.147 279.3 493.04
111 0 57.0906 13.0669 746 152.964 279.966 491.782
112 0 60.0331 12.5931 756 161.733 281.218 491.03
113 0 62.1742 12.7867 795 156.362 280.525 489.735
114 0 63.0401 13.0552 823 164.818 278.652 488.966
115 0 64.1432 13.1269 842 161.037 281.966 488.223
116 0 65.0886 13.0898 852 160.163 281.208 487.108
117 0 67.1153 13.3353 895 164.187 281.315 485.931
118 0 71.215 13.045 929 158.696 278.755 483.477
119 0 71.1887 13.4291 956 156.911 279.788 482.204
120 0 76.221 12.7917 975 154.575 278.81 480.754
121 0 78.1774 13.1624 1029 158.532 279.76 479.524
122 0 79.148 13.2536 1049 154.401 280.518 477.794
123 0 83.1105 12.73 1058 158.777 278.933 476.885
124 1 41.0498 11.4739 471 154.096 278.569 496.573
125 0 44.0053 11.7713 518 154.925 278.805 495.811
126 0 45.0158 11.8847 535 154.364 281.443 496.23
127 0 43.0324 12.7346 548 153.294 281.058 496.307
128 0 47.0169 12.1871 573 151.384 280.658 495.462
129 0 48.0507 11.9041 572 148.956 281.315 495.084
130 0 50.0237 12.4541 623 152.888 280.247 494.186
131 0 50.0423 12.7292 637 150.987 280.761 492.716
132 0 53.0696 12.6249 670 150.087 281.963 492.418
133 0 54.0491 12.3591 668 154.597 278.765 491.698
134 0 54.0592 13.0968 708 157.867 278.195 490.637
135 0 58.0765 12.6385 734 157.353 278.369 490.065
136 0 57.1303 13.2329 756 152.993 277.651 489.09
137 0 60.0456 13.2399 795 154.068 278.702 488.424
138 0 62.091 13.0937 813 150.7 279.568 487.086
139 0 65.1405 12.8491 837 153.265 280.673 485.44
140 0 68.174 13.1135 894 155.814 279.893 484.477
141 0 69.2158 13.4073 928 156.565 277.582 483.432
142 0 72.1093 12.9387 933 153.258 278.528 482.058
143 0 76.1768 12.8779 981 157.285 277.714 481.097
144 0 78.1114 13.1863 1030 158.06 276.258 479.481
145 1 52.0877 12.1526 633 150.769 278.79 491.562
146 0 51.0471 12.7529 651 157.831 277.816 492.017
147 0 54.0827 12.4069 671 158.58 277.407 491.435
148 0 56.0882 12.4982 701 157.516 277.264 490.782
149 0 56.1368 12.9683 728 158.165 275.666 490.335
150 0 59.044 12.7363 752 163.291 275.428 489.388
151 0 61.1498 12.4285 760 164.943 277.149 488.22
152 0 63.0763 12.8575 811 162.546 278.539 487.912
153 0 62.1268 12.9896 807 27.2528 277.287 487.4
154 0 66.1411 12.7908 846 165.169 278.771 485.639
155 0 68.0401 12.6984 864 159.727 276.931 485.068
156 0 71.0685 12.9312 919 162.518 275.124 483.489
157 0 73.1148 12.9522 947 162.437 276.278 482.96
158 0 75.11 13.0609 981 163.855 275.761 481.455
159 0 77.1559 12.9737 1001 161.915 275.275 479.929
160 0 80.1271 13.1666 1055 165.081 276.612 478.757
161 0 82.0557 13.2715 1089 162.755 276.637 477.534
162 0 85.0603 13.2024 1123 165.071 276.825 476.764
163 0 87.0789 13.4476 1171 162.762 278.189 475.311
164 0 92.2651 13.0277 1202 155.163 277.7 474.74
165 1 47.0766 11.7893 555 146.088 276.584 496.364
166 0 49.038 11.8887 583 162.602 276.967 496.312
167 0 50.0414 12.5496 628 163.43 275.632 495.866
168 0 51.0644 12.3961 633 164.48 275.73 495.697
169 0 52.0631 12.3696 644 166.474 276.55 495.037
170 0 55.1079 12.5028 689 159.808 275.504 493.996
171 0 55.1065 12.9204 712 165.528 278.129 492.833
172 0 58.0417 12.6116 732 172.019 278.529 492.803
173 0 59.0467 12.8204 757 162.234 275.321 491.91
174 0 60.0818 12.8491 772 164.734 276.004 490.994
175 0 64.1105 12.6812 813 167.589 276.549 490.064
176 0 65.0588 13.1573 856 171.487 277.817 489.144
177 0 66.1083 13.3115 880 165.208 275.548 488.019
178 0 70.0893 13.44 942 165.417 275.047 486.723
179 0 73.0553 13.1544 961 169.018 276.57 485.067
180 0 74.0295 13.4136 993 166.41 276.223 483.959
181 0 78.4211 13.096 1027 162.214 275.769 482.403
182 0 80.1749 12.9841 1041 167.279 277.872 481.671
183 0 81.227 13.3084 1081 160.022 276.934 479.588
184 0 83.1871 13.4155 1116 166.026 277.788 478.983
185 0 89.1049 12.6817 1130 168.71 276.959 477.619
186 0 92.2599 12.8767 1188 163.058 277.755 475.788
187 1 50.0218 11.9548 598 158.018 277.567 496.764
188 0 51.1147 11.3862 582 159.863 279.017 495.801
189 0 53.0617 11.5903 615 156.452 279.237 495.112
190 0 54.0216 11.9397 645 162.763 279.712 494.544
191 0 55.1039 12.177 671 161.727 278.085 492.66
192 0 58.0315 12.3209 715 157.593 278.355 492.257
193 0 58.1022 12.5124 727 161.443 277.713 491.882
194 0 61.061 12.5121 764 163.103 278.597 490.48
195 0 63.0805 12.5395 791 161.474 278.765 489.288
196 0 64.0609 12.8472 823 156.931 278.309 488.19
197 0 66.1029 12.8285 848 168.624 277.6 487.031
198 0 68.1021 12.8924 878 166.903 275.97 485.681
199 0 71.2182 12.8478 915 169.385 276.074 484.955
200 0 73.1379 13.1122 959 167.457 277.746 483.735
201 0 76.1848 12.8766 981 169.068 277.754 482.318
202 0 79.1747 13.1229 1039 165.705 277.382 481.783
203 0 81.2469 13.4774 1095 168.752 277.605 479.985
204 0 85.1548 13.2934 1132 169.663 278.512 478.124
205 0 89.2573 13.2202 1180 163.425 279.508 476.634
206 0 92.1943 13.4715 1242 165.3 277.982 474.824
207 1 48.1468 12.0465 580 165.36 278.05 496.122
208 0 51.0553 11.9086 608 163.988 277.49 494.395
209 0 51.0928 11.9978 613 158.716 277.7 494.669
210 0 53.0949 12.3552 656 166.631 278.66 493.942
211 0 53.0652 12.4187 659 161.099 277.053 492.469
212 0 57.0989 12.3995 708 165.331 277.014 491.298
213 0 57.1122 12.4142 709 163.072 278.57 490.028
214 0 58.0851 12.585 731 161.309 279.053 489.129
215 0 59.0571 12.6318 746 164.256 278.544 489.21
216 0 62.0596 12.4397 772 162.244 278.39 487.82
217 0 64.1766 12.4344 798 155.942 278.633 486.177
218 0 65.1522 12.5399 817 158.674 277.28 485.515
219 0 68.0926 12.2774 836 161.721 278.023 484.152
220 0 71.1583 12.423 884 159.838 278.364 482.906
221 0 72.0841 12.6519 912 158.48 279.022 481.266
222 0 77.0756 12.3645 953 156.395 279.893 479.307
223 0 76.1119 12.4291 946 158.452 276.568 478.611
224 0 80.1241 12.7053 1018 150.226 276.81 476.462
225 0 82.1327 12.7842 1050 153.246 276.103 475.262
226 1 44.0426 10.7623 474 149.633 278.865 494.023
227 0 44.0176 11.8589 522 144.086 280.33 493.387
228 0 48.0863 11.6249 559 145.34 280.259 492.792
229 0 48.0591 12.3182 592 147.363 279.824 491.623
230 0 51.0497 11.6945 597 151.503 279.107 491.017
231 0 53.0475 11.8384 628 150.145 276.414 489.826
232 0 52.1236 12.2593 639 141.091 276.768 489.15
233 0 55.0744 11.8749 654 142.408 275.844 488.339
234 0 55.1118 12.4837 688 146.532 278.914 487.83
235 0 59.132 12.1085 716 138.623 278.83 486.634
236 0 60.146 12.5029 752 143.259 279.025 485.862
237 0 62.114 12.7025 789 146.01 276.629 485.024
238 0 62.1513 12.4696 775 143.395 280.672 484.639
239 0 65.2227 12.5416 818 140.972 276.775 483.26
240 0 67.1686 12.8929 866 151.59 279.245 482.345
241 0 68.2649 13.14 897 148.566 280.61 480.988
242 0 72.1942 13.0066 939 150.445 280.726 479.954
243 0 74.25 13.1987 980 148.701 279.19 478.308
244 0 76.1671 13.0634 995 146.581 278.752 476.974
245 0 79.2303 13.0001 1030 150.829 277.779 475.589
246 0 82.1783 13.0205 1070 147.127 279.324 473.677
247 0 83.1941 13.4144 1116 141.717 279.533 472.805
248 0 86.2436 13.3459 1151 148.51 278.362 471.105
249 0 90.1913 13.3716 1206 156.41 279.26 469.993
250 1 47.0678 11.2816 531 149.574 278.094 491.898
251 0 48.0699 11.8993 572 150.278 278.568 490.862
252 0 50.0374 12.1709 609 152.736 279.545 490.901
253 0 51.047 12.5962 643 151.829 280.067 490.135
254 0 52.0314 12.8961 671 153.158 280.571 489.61
255 0 54.0614 12.8742 696 144.56 280.289 488.816
256 0 54.0319 13.2514 716 148.115 279.088 488.309
257 0 56.0387 12.7412 714 147.126 276.875 487.164
258 0 58.0946 13.1682 765 141.084 276.225 486.88
259 0 59.0454 13.4473 794 145.887 275.901 486.508
260 0 61.0372 13.1068 800 144.214 278.749 485.525
261 0 60.1553 13.515 813 146.894 278.453 484.569
262 0 64.0762 13.2967 852 146.514 277.102 483.562
263 0 67.1805 13.3967 900 152.799 276.539 482.487
264 0 68.1101 13.4048 913 144.437 277.165 481.537
265 0 70.1056 13.6223 955 148.676 280.13 480.956
266 0 72.1896 13.3122 961 152.649 278.795 479.257
267 0 75.2163 13.654 1027 149.46 278.4 477.426
268 0 77.2244 13.791 1065 153.243 278.461 477.126
269 0 80.0891 13.1728 1055 154.641 278.422 476.036
270 0 83.1066 13.4045 1114 153.858 278.164 474.3
271 0 84.1351 13.8349 1164 145.794 277.895 472.86
272 0 87.1353 13.7487 1198 149.912 277.846 471.172
273 0 88.1631 13.8607 1222 144.61 279.775 470.409
274 0 93.2032 13.5296 1261 146.715 277.578 467.753
275 0 96.1229 13.4411 1292 147.218 278.416 466.543
276 1 52.1398 11.7377 612 148.809 280.453 488.856
277 0 54.0224 12.3653 668 143.954 279.777 487.57
278 0 54.064 12.6517 684 146.113 280.656 487.213
279 0 58.0235 12.2709 712 141.079 280.351 486.558
280 0 58.0431 12.4046 720 147.706 280.225 485.778
281 0 61.0321 12.5835 768 150.806 278.569 485.59
282 0 64.0526 12.599 807 146.927 278.031 483.745
283 0 66.0804 12.5907 832 148.382 279.29 483.659
284 0 68.0748 12.5157 852 154.646 279.495 482.899
285 0 70.0854 12.8272 899 152.587 279.494 481.758
286 0 74.0875 12.6067 934 144.972 279.423 480.493
287 0 76.1045 12.8245 976 152.762 278.238 478.755
288 0 79.1376 12.4467 985 156.609 277.791 477.968
289 0 82.19 12.7753 1050 146.722 280.068 476.414
290 0 83.1737 12.8286 1067 155.497 280.097 474.98
291 0 87.233 12.7933 1116 147.581 278.38 473.561
292 0 90.2998 12.5692 1135 147.541 277.767 471.979
293 0 94.1795 12.8266 1208 150.894 278.853 469.739
294 1 50.0881 11.2202 562 146.705 280.603 491.594
295 0 51.0229 11.975 611 144.404 279.457 490.825
296 0 53.1554 12.059 641 145.619 281.872 490.218
297 0 54.0727 12.0763 653 145.115 278.484 489.557
298 0 55.0684 12.2756 676 146.305 278.022 488.51
299 0 56.0724 12.6444 709 143.567 279.251 487.489
300 0 59.0695 12.5953 744 142.167 279.511 486.438
301 0 61.0599 12.5942 769 143.769 279.485 485.46
302 0 64.1624 12.3749 794 137.165 279.33 484.495
303 0 64.1176 12.633 810 144.398 280.549 483.952
304 0 68.2675 12.5536 857 146.755 280.697 482.663
305 0 69.1478 12.7119 879 148.338 278.461 481.929
306 0 72.1847 12.4542 899 145.032 279.28 480.829
307 0 73.0723 12.9187 944 150.003 279.442 479.651
308 0 74.0753 13.2703 983 146.716 279.622 479.633
309 0 78.0813 13.217 1032 154.231 279.174 478.043
310 0 81.0874 13.0723 1060 157.363 277.691 476.435
311 0 85.1194 13.0522 1111 154.825 278.815 474.502
312 0 87.1158 13.2123 1151 154.656 279.986 473.428
313 1 47.0473 11.6053 546 155.654 279.919 493.256
314 0 48.0766 12.1473 584 158.884 280.264 491.83
315 0 51.1499 12.1799 623 152.876 280.979 491.594
316 0 52.0279 12.3972 645 156.834 278.691 490.912
317 0 54.0386 12.5466 678 160.653 280.319 489.822
318 0 56.0696 12.5737 705 160.4 280.342 488.705
319 0 56.0359 13.0095 729 155.25 280.664 488.085
320 0 57.0304 13.1334 749 156.271 279.386 487.669
321 0 59.1329 12.8017 757 164.26 278.531 486.908
322 0 61.1229 12.8266 784 158.959 278.33 486.065
323 0 61.0803 13.3267 814 163.031 278.076 485.502
324 0 64.0585 13.0193 834 160.374 278.243 484.941
325 0 65.0776 13.4762 877 157.255 277.689 482.616
326 0 68.1305 13.0632 890 159.911 276.975 482.096
327 0 70.0408 13.1638 922 152.137 276.797 480.424
328 0 73.0717 13.3157 973 157.327 277.109 478.966
329 0 75.0294 13.4214 1007 155.344 279.986 478.151
330 0 79.1864 13.5756 1075 154.549 278.829 476.129
331 0 81.1215 13.2024 1071 156.331 277.948 474.557
332 0 82.2354 13.6316 1121 159.45 280.713 473.362
333 0 86.0723 13.57 1168 155.504 279.584 471.077
334 0 90.0866 13.5758 1223 156.079 280.121 469.801
335 1 45.0654 12.4708 562 160.044 278.29 490.931
336 0 48.101 12.2243 588 154.005 279.969 490.379
337 0 48.0465 12.8834 619 160.682 280.654 489.557
338 0 49.0249 12.9118 633 165.626 278.572 488.932
339 0 51.048 12.7135 649 163.924 279.277 488.288
340 0 51.048 12.7135 649 172.223 280.277 488.288
341 0 53.0513 12.8743 683 168.135 279.476 486.928
342 0 56.0177 12.7638 715 157.343 279.724 486.243
343 0 57.0719 12.9486 739 162.705 280.535 485.295
344 0 59.0524 12.853 759 164.539 279.192 484.262
345 0 60.0544 13.1714 791 160.726 279.917 483.324
346 0 62.0586 13.2778 824 155.198 279.737 482.58
347 0 65.0283 13.1327 854 149.397 280.704 481.117
348 0 66.0775 13.2118 873 159.071 280.225 480.703
349 0 68.0926 12.9236 880 161.598 278.825 479.333
350 0 72.0867 13.0121 938 160.756 280.065 477.853
351 0 73.0273 13.0499 953 162.896 279.363 476.596
352 0 75.0532 13.3772 1004 154.755 279.636 474.823
353 0 79.102 12.6798 1003 156.476 279.195 473.393
354 0 83.0678 13.1218 1090 153.772 280.251 471.934
355 1 41.0403 11.1354 457 149.567 280.56 492.252
356 0 43.0147 11.6007 499 147.126 280.645 491.539
357 0 44.0632 12.1643 536 147.373 281.511 490.675
358 0 44.1221 12.4881 551 140.946 280.615 490.134
359 0 46.1159 12.3385 569 148.162 280.281 489.527
360 0 49.1018 12.0158 590 143.066 278.298 488.786
361 0 49.0416 12.5404 615 148.122 279.886 487.958
362 0 52.0979 12.0158 626 142.837 277.735 487.77
363 0 53.0218 12.3534 655 152.925 277.763 487.185
364 0 54.12 12.694 687 148.454 278.087 486.41
365 0 56.1339 12.4346 698 149.705 276.758 486.319
366 0 57.0648 12.7925 730 149.456 278.985 484.801
367 0 60.1171 12.8083 770 145.11 278.487 484.105
368 0 58.0788 13.1029 761 148.569 280.574 483.522
369 0 62.0791 12.9351 803 140.854 279.98 481.692
370 0 62.0307 13.2193 820 145.191 280.023 481.298
371 0 66.1129 12.9324 855 147.288 278.46 480.352
372 0 69.0768 12.4933 863 140.426 279.955 479.093
373 0 70.0745 12.872 902 143.86 280.253 477.45
374 0 72.1736 13.1904 952 139.642 279.437 476.181
375 0 75.1046 12.7422 957 144.656 280.368 475.721
376 0 77.1491 12.7027 980 141.753 279.352 474.254
377 0 78.2072 12.9656 1014 142.942 280.089 473.387
378 0 83.0685 12.7967 1063 141.9 280.058 471.648
379 1 44.0634 10.326 455 134.053 279.591 491.684
380 0 43.126 11.8722 512 136.939 279.559 490.992
381 0 46.0828 11.1755 515 142.235 279.136 490.033
382 0 46.1645 11.524 532 66.1109 278.658 489.695
383 0 48.101 11.7461 565 144.793 279.535 488.481
384 0 49.1269 12.2336 601 148.256 280.443 488.77
385 0 50.2225 12.0464 605 143.686 279.243 488.177
386 0 51.1429 12.6508 647 140.178 279.813 487.45
387 0 52.1137 12.4152 647 148.388 277.575 486.934
388 0 55.1984 12.3011 679 150.67 279.365 486.53
389 0 56.0907 12.3906 695 150.561 277.573 485.797
390 0 58.0808 12.3104 715 155.155 280.158 484.839
391 0 59.2422 12.8962 764 152.738 280.293 484.192
392 0 62.0665 12.7605 792 156.569 280.838 483.134
393 0 62.211 12.9559 806 153.015 279.22 482.522
394 0 63.0987 13.5344 854 157.44 280.55 481.61
395 0 67.2641 12.9341 870 158.264 280.06 480.254
396 0 70.1749 12.8108 899 143.472 279.263 479.593
397 0 72.2166 12.961 936 159.343 279.921 478.788
398 0 74.1323 13.0442 967 156.354 279.868 477.542
399 0 77.1613 12.9858 1002 161.167 280.256 475.733
400 0 80.1229 12.8428 1029 167.245 280.295 474.607
401 1 42.05 11.7717 495 159.41 280.966 493.636
402 0 42.0275 12.5156 526 158.895 280.88 493.087
403 0 44.0575 12.4383 548 162.195 282.546 492.589
404 0 44.0309 12.6502 557 166.808 281.005 492.84
405 0 46.0317 12.5783 579 163.368 279.349 492.041
406 0 48.0475 12.5709 604 163.757 280.036 490.851
407 0 47.0448 12.9664 610 158.928 280.682 491.007
408 0 50.0186 12.7752 639 164.518 278.955 490.351
409 0 52.0285 12.9929 676 162.945 280.176 489.283
410 0 55.0499 12.5704 692 162.259 276.837 488.798
411 0 55.0586 12.9498 713 164.436 276.701 487.886
412 0 58.1635 12.6712 737 161.617 278.921 487.175
413 0 60.149 12.8015 770 164.274 277.856 486.062
414 0 62.0826 12.6606 786 163.945 279.383 485.421
415 0 62.2083 13.5191 841 159.643 278.684 484.027
416 0 66.2301 12.834 850 169.813 277.979 483.433
417 0 69.1088 13.4281 928 161.191 280.419 482.637
418 0 71.2063 13.0466 929 161.595 282.169 481.436
419 0 73.2005 13.2103 967 167.522 279.779 479.878
420 0 76.1218 12.9267 984 166.739 279.323 479.034
421 0 78.152 13.0771 1022 163.05 280.153 477.919
422 1 40.0309 11.666 467 166.336 279.88 496.069
423 0 42.0974 12.1148 510 164.48 280.114 495.667
424 0 42.0287 11.9918 504 161.363 279.79 494.762
425 0 43.0857 12.1386 523 164.474 279.092 494.73
426 0 44.0356 12.5353 552 164.42 278.949 493.188
427 0 46.0998 12.6248 582 92.9639 277.56 492.538
428 0 48.0491 12.2791 590 162.369 280.166 492.053
429 0 47.0318 12.9487 609 160.174 281.342 491.567
430 0 50.0909 12.7768 640 157.256 281.134 490.694
431 0 51.0986 12.7596 652 162.365 281.555 490.426
432 0 53.0969 12.6184 670 159.188 281.272 489.539
433 0 55.0792 12.3096 678 166.51 280.558 489.131
434 0 56.0717 12.7515 715 154.561 279.424 488.006
435 0 58.1117 12.6309 734 164.963 282.432 487.733
436 0 59.1352 12.9703 767 161.653 280.07 486.235
437 0 63.1812 12.6778 801 157.613 282.293 485.012
438 0 65.0749 12.985 845 162.48 280.711 483.521
439 0 66.0273 12.7674 843 160.833 281.414 483.144
440 0 71.1035 12.1935 867 157.18 280.6 481.642
441 0 73.0689 12.0982 884 158.965 280.3 480.181
442 1 37.02 10.832 401 155.406 277.08 497.429
443 0 38.0984 11.5753 441 152.084 278.181 496.553
444 0 39.0531 11.446 447 156.644 279.199 496.414
445 0 39.0667 11.6979 457 161.751 279.23 496.046
446 0 40.1398 12.3319 495 157.794 281.269 494.669
447 0 42.0586 11.6742 491 157.933 281.758 494.637
448 0 42.0421 12.2734 516 150.826 282.659 493.826
449 0 45.0944 11.8418 534 153.234 281.124 492.768
450 0 47.0974 11.8265 557 149.391 281.732 491.969
451 0 49.0156 11.7105 574 147.469 280.063 490.826
452 0 50.0238 11.6145 581 153.871 278.451 490.583
453 0 49.0828 12.6725 622 150.86 279.243 489.693
454 0 52.1087 12.2053 636 147.242 278.602 488.741
455 0 53.0414 12.5374 665 152.46 280.919 488.134
456 0 55.042 12.4269 684 149.655 279.064 486.727
457 0 55.0938 13.1231 723 156.378 278.053 486.225
458 0 59.1016 12.3685 731 152.952 278.207 485.636
459 0 60.0577 12.2549 736 154.043 281.952 484.871
460 0 60.0248 12.9613 778 149.175 279.689 483.865
461 0 63.1126 12.7233 803 152.958 280.506 482.559
462 0 65.0812 12.8916 839 151.928 280.273 481.113
463 0 68.0755 12.7799 870 151.802 279.368 479.924
464 0 72.1032 12.7179 917 154.694 280.255 478.441
465 0 71.0852 12.7875 909 143.878 279.199 477.347
466 0 74.1429 12.8266 951 150.709 279.499 476.499
467 1 39.0845 11.0274 431 154.262 278.798 494.763
468 0 40.0677 11.83 474 149.078 278.631 493.711
469 0 41.0038 12.0233 493 151.475 277.465 492.627
470 0 42.0784 12.2153 514 143.776 275.79 491.72
471 0 44.0445 11.9425 526 149.188 276.932 491.382
472 0 45.039 11.9452 538 148.32 277.002 491.323
473 0 45.1314 12.2088 551 145.225 276.922 490.472
474 0 48.0353 11.9079 572 152.257 276.32 490.706
475 0 49.0678 12.3503 606 141.964 277.771 489.012
476 0 51.088 12.0185 614 148.704 277.484 487.783
477 0 53.162 12.0575 641 152.448 277.36 487.276
478 0 53.1392 12.6837 674 150.668 278.632 486.798
479 0 54.1385 12.8559 696 155.221 277.243 486.369
480 0 55.0844 12.7804 704 147.484 277.011 485.293
481 0 58.084 12.6369 734 140.116 277.433 484.909
482 0 60.1039 12.5616 755 141.849 277.144 484.02
483 0 61.1097 12.6003 770 152.701 279.038 482.986
484 0 62.1061 12.7846 794 153.403 276.801 482.117
485 0 65.0929 12.7817 832 151.159 276.709 481.297
486 0 66.1206 13.4451 889 156.498 278.271 480.443
487 0 68.0912 13.2029 899 154.635 279.087 478.702
488 0 72.1351 12.8925 930 139.547 279.528 477.886
489 0 74.1112 13.2773 984 141.835 278.783 476.627
490 0 77.1846 12.9689 1001 140.387 278.308 475.234
491 0 80.2622 13.3438 1071 141.909 279.624 473.726
492 0 82.207 13.4295 1104 135.659 279.874 472.553
493 0 86.2356 13.1384 1133 138.389 280.232 471.578
494 0 88.3017 13.3519 1179 130.349 279.894 470.136
495 0 91.3422 13.3892 1223 129.59 280.414 468.639
496 0 92.3597 13.2309 1222 139.727 278.383 467.818
497 0 94.5532 13.2835 1256 171.308 278.55 466.922
498 1 47.1576 12.1719 574 151.005 277.643 488.793
499 0 49.2396 11.7385 578 146.678 278.616 487.535
500 0 51.1659 11.8243 605 144.321 279.846 486.569
501 0 52.112 12.4348 648 149.137 279.782 486.005
502 0 53.1007 12.3727 657 144.522 279.839 484.971
503 0 55.2744 12.0309 665 146.992 278.788 484.233
504 0 57.1883 12.3277 705 144.99 278.789 483.855
505 0 58.1347 12.557 730 145.162 280.615 483.255
506 0 60.257 12.7122 766 144.031 280.153 482.067
507 0 62.301 12.6804 790 139.856 278.925 481.485
508 0 63.1706 12.6166 797 128.862 280.021 480.696
509 0 65.0931 12.7356 829 118.521 280.253 478.639
510 0 69.1316 12.3822 856 127.511 280.269 477.593
511 0 71.1267 12.5551 893 121.408 277.451 476.657
512 0 74.0596 13.0571 967 120.214 277.832 475.299
513 0 75.167 13.0642 982 125.571 280.725 474.231
514 0 79.1264 12.8655 1018 121.033 277.04 473.691
515 1 39.0542 10.9847 429 123.772 280.979 491.949
516 0 40.1569 11.3804 457 117.551 277.595 491.188
517 0 43.1512 10.9383 472 117.773 279.996 490.364
518 0 44.1494 11.2119 495 116.766 277.703 490.523
519 0 45.1204 11.1923 505 115.158 277.873 489.661
520 0 46.1664 11.4152 527 118.725 278.913 488.634
521 0 47.2001 11.8856 561 121.554 278.219 488.813
522 0 49.0251 11.9327 585 123.209 277.605 487.349
523 0 51.1061 11.9947 613 123.646 278.137 486.442
524 0 54.2231 11.7478 637 124.592 279.986 486.358
525 0 53.1381 12.5146 665 125.208 278.854 485.174
526 0 56.1227 11.9916 673 126.416 278.688 484.575
527 0 59.1748 12.2856 727 119.721 278.29 483.283
528 0 59.1174 12.01 710 124.885 277.554 482.848
529 0 61.1252 12.2208 747 119.205 277.612 481.83
530 0 64.1659 12.2027 783 119.017 276.996 481.198
531 0 65.1468 12.2186 796 114.289 278.314 480.587
532 0 68.1417 12.5327 854 127.302 280.308 478.45
533 0 69.1296 12.6285 873 122.89 278.812 477.305
534 0 73.1587 12.5891 921 113.836 280.228 476.591
535 0 76.2459 11.9875 914 116.789 279.275 475.668
536 0 78.1511 12.0536 942 111.954 277.707 474.214
537 0 81.1736 11.7403 953 116.89 278.439 472.653
538 1 41.0526 11.2295 461 120.935 278.594 493.436
539 0 43.1021 10.7883 465 118.83 278.839 492.08
540 0 43.1216 11.4096 492 109.209 279.945 491.717
541 0 44.2793 11.1565 494 118.038 278.848 491.172
542 0 47.191 11.1674 527 117.338 278.112 490.723
543 0 47.2174 11.8389 559 114.394 276.959 490.229
544 0 49.1743 11.9575 588 115.068 277.442 489.097
545 0 51.1109 11.7392 600 115.333 276.795 488.465
546 0 53.2839 11.6358 620 115.306 277.966 487.834
547 0 54.179 11.8865 644 120.415 278.394 486.818
548 0 55.4146 12.4335 689 129.228 277.52 486.374
549 0 58.2614 12.135 707 122.938 280.055 484.897
550 0 60.2035 12.5574 756 125.356 277.221 483.884
551 0 62.2297 12.4057 772 128.479 276.466 483.361
552 0 62.1514 12.4052 771 129.112 279.397 481.9
553 0 68.1907 12.5384 855 127.168 278.577 481.463
554 0 70.127 12.8196 899 131.118 281.356 480.529
555 0 71.2111 12.807 912 134.457 278.298 479.864
556 0 72.2559 13.2169 955 138.526 278.357 478.599
557 0 77.1536 12.4816 963 143.67 278.322 477.444
558 0 78.065 13.0148 1016 144.863 276.868 477.047
559 0 83.1261 12.7036 1056 147.261 279.056 474.836
560 0 83.411 12.9 1076 149.084 278.19 474.033
561 0 86.2939 12.8283 1107 149.21 278.298 472.169
562 0 88.1399 12.7978 1128 151.825 278.609 471.423
563 0 91.4255 12.9504 1184 145.155 279.998 470.731
564 0 94.5141 13.1832 1246 145.847 280.778 469.234
565 1 50.1088 12.2733 615 149.98 279.935 490.127
566 0 50.1266 12.5881 631 151.783 280.425 489.372
567 0 52.1718 12.4205 648 153.264 280.906 488.602
568 0 51.0706 12.9233 660 143.009 280.202 488.088
569 0 55.0846 12.3265 679 152.822 279.756 487.004
570 0 57.1092 12.6425 722 145.715 280.033 485.72
571 0 58.0758 12.7936 743 134.764 277.567 485.007
572 0 61.1684 12.6209 772 131.005 277.236 483.531
573 0 63.0974 12.4886 788 130.386 275.94 483.188
574 0 65.0964 12.3663 805 138.16 278.688 482.195
575 0 66.0956 12.5727 831 134.101 277.716 480.706
576 0 69.1099 12.5742 869 136.649 279.503 479.517
577 0 72.0691 12.4464 897 136.097 278.097 478.718
578 0 72.1863 12.7586 921 136.09 280.783 477.812
579 0 75.1599 12.4135 933 138.311 279.791 476.585
580 1 41.0464 11.4504 470 125.653 279.155 492.236
581 0 42.0058 11.5936 487 148.08 281.17 492.012
582 0 43.0193 11.9249 513 155.524 280.288 491.762
583 0 43.1334 12.1716 525 152.783 279.198 491.156
584 0 46.0378 11.925 549 155.313 276.282 490.166
585 0 46.1013 12.0821 557 150.953 277.124 489.718
586 0 48.1568 12.3762 596 146.225 276.757 488.768
587 0 50.0911 12.5971 631 143.089 277.751 487.471
588 0 52.0883 12.2868 640 138.428 278.478 487.212
589 0 53.0757 12.4539 661 87.4887 278.693 486.753
590 0 53.1097 12.8225 681 164.747 279.069 486.17
591 0 54.0633 12.7443 689 159.739 279.042 485.608
592 0 55.0676 13.1838 726 164.606 279.076 484.815
593 0 56.0907 12.9968 729 161.31 279.239 484.254
594 0 58.1972 12.9388 753 162.776 277.125 483.825
595 0 59.1497 13.4067 793 155.067 277.994 482.707
596 0 63.1399 13.1929 833 158.083 275.618 482.102
597 0 64.1137 12.9302 829 149.276 277.685 480.628
598 0 67.0916 13.1164 880 149.311 276.022 479.838
599 0 69.0866 13.0995 905 147.422 278.13 478.821
600 0 70.0662 13.2589 929 146.183 279.428 477.516
601 0 73.059 13.3728 977 146.304 277.701 476.041
602 0 76.1222 13.4258 1022 126.94 278.163 474.461
603 0 78.0482 13.4148 1047 129.129 276.737 473.936
604 0 82.1466 13.3785 1099 125.732 277.634 472.873
605 0 84.0672 13.394 1126 128.448 276.774 470.85
606 0 87.102 13.4096 1168 125.928 276.965 469.364
607 0 91.0743 13.5604 1235 132.927 277.725 468.032
608 0 94.1294 13.6302 1283 137.278 278.796 466.6
609 0 96.1713 13.7151 1319 138.487 276.66 465.257
610 0 98.112 13.7292 1347 140.785 277.597 463.584
611 0 102.163 13.4882 1378 138.653 277.56 462.112
612 1 56.0675 11.9677 671 155.836 275.686 484.769
613 0 57.0381 12.2725 700 146.201 276.673 482.867
614 0 58.078 12.2249 710 142.694 276.69 482.6
615 0 61.1976 12.141 743 142.787 277.035 481.37
616 0 63.0934 12.7113 802 143.592 278.332 479.84
617 0 66.161 12.3487 817 149.913 278.081 479.286
618 0 68.0682 12.4875 850 146.116 278.147 478.538
619 0 69.1217 12.5576 868 147.035 277.411 476.825
620 0 72.1852 12.9389 934 141.412 277.555 475.698
621 0 75.1693 12.7978 962 149.428 278.599 474.083
622 0 78.153 12.8082 1001 146.528 278.442 473.551
623 0 79.1561 13.0754 1035 152.643 277.503 471.903
624 0 84.089 13.0338 1096 146.544 277.364 470.197
625 0 87.238 12.8843 1124 142.557 278.67 469.891
626 0 90.2066 12.7374 1149 152.527 278.537 468.232
627 0 94.2751 12.9833 1224 155.158 276.59 465.545
628 1 47.0235 12.1429 571 171.59 277.912 487.993
629 0 49.0536 12.6392 620 166.221 278.027 486.84
630 0 50.0671 12.5232 627 162.549 277.828 486.507
631 0 52.0756 12.4435 648 163.477 277.644 485.935
632 0 54.0257 12.5681 679 159.89 277.159 485.138
633 0 54.0775 12.6485 684 171.909 279.674 484.902
634 0 57.0288 12.3622 705 162.403 279.996 483.569
635 0 58.0829 12.6371 734 170.074 279.879 482.816
636 0 59.0286 12.8074 756 171.491 279.2 482.218
637 0 62.082 12.5801 781 166.743 281.293 481.21
638 0 62.0588 12.6815 787 159.341 278.492 481.075
639 0 64.1088 12.7908 820 165.493 279.926 479.561
640 0 67.066 12.9574 869 164.219 278.261 477.827
641 0 69.1087 12.7336 880 157.517 278.612 477.081
642 0 73.1013 12.8862 942 157.799 276.458 475.386
643 0 77.1459 12.5736 970 161.581 278.515 473.934
644 0 79.0878 12.758 1009 158.864 277.781 472.97
645 0 81.1025 12.8849 1045 156.929 274.966 471.418
646 0 85.1636 12.705 1082 153.023 277.164 469.855
647 0 88.3449 12.2814 1085 150.657 278.039 469.396
648 1 44.0876 11.7493 518 145.705 279.359 489.977
649 0 47.0495 11.7536 553 157.618 278.514 489.11
650 0 48.1435 11.6527 561 149.301 282.56 489.194
651 0 48.3321 11.8555 573 150.377 280.295 488.674
652 0 50.1168 12.1317 608 149.16 278.046 487.816
653 0 50.1682 12.7571 640 158.947 279.302 487.319
654 0 53.1391 12.4955 664 159.929 278.634 487.229
655 0 55.2583 12.3963 685 163.531 278.596 486.064
656 0 56.2526 12.4261 699 160.591 277.678 485.555
657 0 56.1883 12.6717 712 160.027 278.194 484.549
658 0 60.1095 12.5271 753 153.915 275.813 483.582
659 0 63.1014 12.2977 776 161.905 276.586 482.845
660 0 63.141 12.5275 791 167.154 277.402 482.388
661 0 66.1288 12.763 844 161.271 276.585 481.086
662 0 69.1466 12.4807 863 164.504 280.342 480.935
663 0 70.421 12.4395 876 156.162 279.999 479.658
664 0 73.2677 12.1882 893 158.464 278.242 478.705
665 0 74.5222 12.3319 919 148.47 277.536 477.313
666 0 77.4479 12.602 976 142.432 275.772 476.145
667 0 79.309 12.5459 995 138.603 276.469 475.27
668 0 81.3389 12.3311 1003 140.652 277.017 473.973
669 0 84.2985 12.5269 1056 138.98 276.23 473.058
670 1 44.1749 11.3639 502 138.456 277.219 492.817
671 0 47.0903 11.4249 538 141.007 276.554 491.898
672 0 46.1817 11.9528 552 137.607 277.237 491.801
673 0 49.1341 11.7434 577 152.669 275.903 491.075
674 0 49.0988 11.7314 576 150.983 276.288 490.455
675 0 50.1554 11.8232 593 155.602 276.872 489.836
676 0 52.0892 12.0754 629 150.96 276.049 489.1
677 0 54.1396 11.8582 642 156.875 277.65 488.85
678 0 56.1389 11.7031 657 144.42 278.052 487.881
679 0 57.1234 12.0091 686 136.229 276.531 486.786
680 0 59.1563 11.8162 699 134.692 276.71 486.298
681 0 60.0923 12.0648 725 142.073 277.652 484.868
682 0 63.1275 11.9916 757 145.238 277.725 484.089
683 0 64.1681 12.0465 773 139.841 278.153 483.705
684 0 66.1174 11.4493 757 134.209 277.202 481.662
685 0 68.1909 12.157 829 138.691 277.162 480.966
686 0 69.2063 12.2821 850 144.206 278.338 479.974
687 0 73.2613 12.394 908 142.511 275.181 478.618
688 0 76.2783 12.284 937 139.424 275.79 476.89
689 0 79.1938 12.1222 960 144.111 277.914 475.669
690 1 40.0915 11.1994 449 142.702 277.512 493.931
691 0 44.0152 10.928 481 136.721 277.484 492.69
692 0 46.0905 11.8029 544 135.686 277.3 490.96
693 0 47.0449 11.7122 551 134.343 278.189 490.579
694 0 47.0461 12.052 567 127.406 277.751 489.399
695 0 48.1139 12.2002 587 134.199 277.889 488.291
696 0 50.0742 12.2418 613 136.763 278.023 488.008
697 0 54.0909 12.0168 650 146.843 277.218 487.212
698 0 54.145 12.4296 673 148.056 278.062 486.119
699 0 56.1318 12.4706 700 149.631 275.504 485.883
700 0 57.187 12.5553 718 152.06 277.286 484.819
701 0 59.1171 12.8558 760 149.361 275.264 483.22
702 0 61.1328 12.6773 775 153.055 277.357 482.876
703 0 63.1885 12.9612 819 152.773 277.194 481.851
704 0 65.0692 13.186 858 148.178 276.563 479.826
705 0 67.1863 13.2021 887 151.124 276.369 478.974
706 0 69.2629 13.0228 902 149.334 276.539 477.966
707 0 71.2338 13.4066 955 145.921 277.305 476.562
708 0 74.129 13.2067 979 148.073 278.553 475.576
709 0 75.3826 13.3983 1010 143.449 276.039 474.342
710 0 79.266 13.2465 1050 144.946 279.611 473.198
711 0 81.2688 13.5353 1100 136.769 279.356 471.817
712 1 42.0449 10.2747 432 118.356 278.213 489.85
713 0 42.0099 10.3071 433 118.949 277.896 490.305
714 0 44.0257 11.5387 508 113.094 278.112 489.374
715 0 47.083 11.4903 541 128.431 276.091 489.172
716 0 45.0432 12.7877 576 126.658 275.861 487.854
717 0 49.0626 12.0254 590 125.203 275.537 486.668
718 0 50.0504 12.5074 626 120.259 273.978 486.256
719 0 52.1068 12.1481 633 118.93 277.54 485.387
720 0 54.0435 12.1939 659 116.854 277.586 484.727
721 0 56.0517 12.881 722 110.148 277.741 483.97
722 0 56.1159 13.383 751 114.834 278.859 482.909
723 0 58.0435 13.0247 756 117.661 278.623 482.688
724 0 62.1159 12.8148 796 117.364 280.529 481.563
725 0 62.0526 13.408 832 115.925 279.431 480.273
726 0 65.0474 13.5901 884 119.338 278.419 479.471
727 0 67.0738 13.5522 909 121.154 276.215 478.493
728 0 69.0583 13.7565 950 122.884 277.685 477.342
729 0 72.131 13.725 990 124.005 277.051 476.618
730 0 74.2435 13.7386 1020 116.468 276.115 475.77
731 0 74.2318 14.3065 1062 125.473 274.067 473.702
732 0 79.1746 13.8807 1099 128.773 275.894 472.919
733 0 83.1932 13.8353 1151 152.912 276.627 471.488
734 0 86.238 13.9614 1204 146.42 277.247 470.106
735 0 88.1457 14.0109 1235 149.333 276.695 468.453
736 0 92.1916 13.6021 1254 156.289 277.859 467.097
737 0 95.1365 13.9169 1324 155.032 275.926 465.789
738 0 97.1661 13.7908 1340 150.592 280.768 465.131
739 1 51.1665 12.86 658 153.995 276.581 486.517
740 0 52.0305 13.5882 707 152.188 277.477 485.457
741 0 53.0889 13.5245 718 149.287 277.327 484.978
742 0 56.1162 13.4364 754 151.467 276.674 484.224
743 0 56.0483 13.7738 772 144.028 277.473 483.367
744 0 57.0673 13.8433 790 148.676 277.762 482.619
745 0 60.0839 13.581 816 169.528 279.255 481.697
746 0 62.1283 13.6492 848 161.291 277.085 480.652
747 0 64.2827 13.954 897 164.786 277.161 479.263
748 0 66.2399 13.8436 917 169.547 277.659 478.502
749 0 68.238 13.8486 945 168.935 278.987 478.094
750 0 72.2863 13.6402 986 168.834 280.573 476.844
751 0 73.1708 13.981 1023 169.952 279.223 475.661
752 0 77.2016 13.7173 1059 170.302 278.008 474.338
753 0 80.1739 14.0445 1126 168.315 278.067 471.749
754 0 83.2723 13.9542 1162 126.135 278.364 470.801
755 0 87.112 13.7983 1202 161.9 278.692 469.373
756 0 89.083 13.7624 1226 167.79 278.627 468.387
757 0 92.039 13.516 1244 170.567 277.382 467.003
758 0 95.1012 13.7433 1307 168.419 279.528 465.655
759 0 99.2252 13.9682 1386 170.767 276.656 463.398
760 0 102.155 14.2724 1458 169.723 278.772 462.177
761 0 104.233 14.5156 1513 168.406 279.03 460.295
762 0 109.314 14.2342 1556 172.508 279.569 458.778
763 0 111.223 14.1427 1573 170.351 278.196 457.411
764 0 117.314 14.5592 1708 167.099 279.637 455.078
765 0 119.357 14.4273 1722 170.627 280.088 453.49
766 0 124.179 14.5515 1807 171.346 277.336 451.672
767 0 127.141 14.6058 1857 172.538 278.493 449.535
768 1 67.1135 13.4995 906 168.945 280.435 480.01
769 0 68.1174 13.6676 931 176.305 277.958 478.669
770 0 72.0956 13.7595 992 169.684 280.315 477.533
771 0 73.0876 13.9969 1023 173.112 279.52 476.234
772 0 76.1591 13.6819 1042 171.829 277.939 474.266
773 0 80.1321 13.8272 1108 175.077 278.031 473.13
774 0 84.1134 13.7434 1156 170.678 278.529 471.92
775 0 86.1981 13.5734 1170 174.144 277.221 470.573
776 0 89.1037 13.6582 1217 169.065 278.758 469.089
777 0 90.3951 13.8614 1253 171.508 278.591 467.938
778 0 94.3547 13.8202 1304 172.913 278.738 466.46
779 1 50.0828 13.2181 662 177.15 278.089 487.77
780 0 51.1201 13.4781 689 172.373 278.107 486.871
781 0 54.1403 13.2988 720 174.706 278.651 485.628
782 0 55.1376 13.2578 731 175.955 278.034 485.397
783 0 57.0851 13.401 765 175.45 280.055 483.825
784 0 59.0725 13.712 810 174.512 277.365 483.727
785 0 60.1431 13.9501 839 172.487 279.927 482.533
786 0 64.1268 13.4265 861 178.279 278.194 481.784
787 0 63.1312 14.161 894 177.135 277.116 480.295
788 0 68.1445 13.8529 944 173.195 277.676 478.943
789 0 68.1122 14.065 958 177.602 278.495 478.657
790 0 73.2036 13.6059 996 177.351 277.95 478.032
791 0 75.0789 14.3582 1078 172.804 277.718 475.413
792 0 78.0726 13.9998 1093 174.905 278.425 474.463
793 0 82.112 13.9565 1146 166.647 278.714 472.787
794 0 86.1793 13.6924 1180 165.337 278.985 471.266
795 0 90.1468 13.711 1236 171.488 280.206 470.444
796 0 93.1463 13.9458 1299 165.375 279.55 469.353
797 0 96.2274 13.8214 1330 172.249 280.802 467.891
798 1 49.127 13.0478 641 162.672 278.441 490.055
799 0 51.1354 13.5131 691 163.961 279.22 489.544
800 0 54.0939 13.3841 724 175.38 277.566 488.798
801 0 54.1436 13.575 735 174.958 278.165 487.509
802 0 57.0596 13.8802 792 174.811 275.913 486.562
803 0 59.0793 13.7612 813 176.337 279.269 485.673
804 0 60.1692 14.0271 844 174.727 278.391 484.877
805 0 61.1244 14.2169 869 168.167 277.213 483.678
806 0 64.0878 14.012 898 177.301 278.896 483.332
807 0 67.0565 13.9733 937 171.9 279.653 482.221
808 0 67.104 14.3062 960 173.827 278.482 481.344
809 0 71.1026 14.2048 1010 168.901 278.312 480.356
810 0 72.0825 14.2059 1024 166.839 279.482 479.412
811 0 75.0748 14.1992 1066 165.913 279.6 477.708
812 0 76.0698 14.2895 1087 169.315 279.874 477.735
813 0 79.0683 14.4432 1142 167.399 280.061 476.099
814 0 83.0552 14.1472 1175 167.403 278.884 474.248
815 0 84.1166 14.04 1181 172.672 277.157 472.943
816 0 86.2163 14.4636 1247 168.06 278.97 472.316
817 0 91.0975 13.6776 1246 165.461 280.447 470.98
818 0 94.3218 13.8038 1302 168.204 278.891 469.704
819 0 97.2316 13.8638 1348 166.659 278.901 467.998
820 1 49.1202 13.07 642 164.204 279.04 491.279
821 0 51.1373 13.1215 671 162.244 280.131 490.125
822 0 53.1455 13.209 702 158.947 279.778 488.707
823 0 53.04 13.1222 696 166.272 278.961 488.591
824 0 57.0971 12.7502 728 163.195 277.997 487.944
825 0 58.1374 13.2961 773 169.705 277.705 486.357
826 0 58.1429 13.6388 793 165.252 277.787 485.179
827 0 60.1733 13.511 813 167.027 278.796 483.986
828 0 62.1826 13.4764 838 166.825 278.826 483.254
829 0 64.1137 13.7412 881 167.236 280.183 482.36
830 0 68.1683 13.408 914 173.295 278.335 480.868
831 0 70.1809 13.5792 953 166.616 278.331 479.987
832 0 73.0975 13.2152 966 159.681 278.659 477.387
833 0 75.0897 13.4373 1009 167.85 278.347 476.706
834 0 78.1155 13.4672 1052 164.09 279.03 475.102
835 0 81.1181 13.5481 1099 169.701 280.449 473.793
836 0 85.1459 13.2126 1125 164.04 280.202 471.895
837 0 88.0911 13.3952 1180 167.217 279.958 469.974
838 0 91.1467 13.3521 1217 164.909 279.515 468.511
839 0 95.4066 13.1333 1253 164.762 280.352 467.61
840 1 49.0941 12.8325 630 161.865 278.543 488.614
841 0 50.0944 12.7759 640 168.709 278.1 487.769
842 0 52.0457 12.9886 676 158.476 281.287 487.321
843 0 52.2213 13.1747 688 167.286 279.192 486.795
844 0 55.1446 13.0928 722 165.15 278.011 485.227
845 0 57.2275 13.158 753 153.765 279.124 483.985
846 0 59.1046 13.1293 776 168.182 278.477 483.232
847 0 61.1891 13.3847 819 169.181 278.549 483.162
848 0 63.167 13.5039 853 163.386 277.756 481.361
849 0 65.1192 13.529 881 163.011 279.219 480.025
850 0 68.1768 13.6263 929 169.185 281.915 479.348
851 0 70.188 13.6491 958 167.088 278.633 477.982
852 0 72.0857 13.7753 993 172.118 278.291 477.244
853 0 74.2534 13.8445 1028 172.069 276.461 476.037
854 0 75.1133 14.3383 1077 172.743 277.519 474.605
855 0 80.1151 14.217 1139 167.775 278.104 473.074
856 0 82.3065 14.4217 1187 170.592 280.079 471.463
857 0 84.0776 14.3439 1206 172.391 279.486 470.257
858 0 89.0704 14.4043 1283 167.694 279.401 468.651
859 0 92.129 14.6425 1349 164.021 278.113 466.264
860 0 94.127 14.2255 1339 167.698 278.917 465.888
861 0 98.2433 14.3928 1414 165.461 279.702 464.281
862 1 51.0661 12.709 649 171.652 279.408 487.287
863 0 53.0783 13.2069 701 166.816 279.777 486.097
864 0 54.1281 13.1909 714 171.683 278.748 484.548
865 0 56.1385 13.3242 748 170.045 278.271 483.902
866 0 57.201 13.4613 770 166.819 278.694 482.919
867 0 59.1914 13.2283 783 165.958 281.089 481.923
868 0 61.3972 13.4371 825 166.921 278.273 481.133
869 0 62.2216 13.6126 847 171.087 278.384 479.413
870 0 66.328 13.4634 893 166.142 277.434 476.792
871 0 69.3093 13.2738 920 168.763 277.96 475.189
872 0 70.3557 13.8013 971 166.829 278.069 473.704
873 0 73.3756 13.8602 1017 162.19 279.912 472.363
874 0 76.4809 13.4674 1030 161.823 279.274 468.977
875 0 79.59 13.6324 1085 169.298 279.83 467.954
876 0 81.4643 13.7852 1123 163.531 279.182 465.935
877 0 83.5987 13.7562 1150 164.415 280.047 465.718
878 0 87.5871 13.9176 1219 157.979 280.395 464.05
879 0 91.3536 13.7378 1255 161.347 278.08 463.018
880 0 94.4693 13.8775 1311 166.922 278.837 461.21
881 0 99.4009 13.692 1361 161.56 278.741 459.113
882 0 102.399 13.6427 1397 168.173 278.236 458.261
883 0 106.362 14.037 1493 163.101 278.975 456.849
884 1 53.1505 13.2642 705 161.972 280.769 482.396
885 0 56.2462 12.9609 729 163.907 280.219 482.089
886 0 56.0978 13.6191 764 170.418 280.567 481.391
887 0 60.1837 13.2262 796 167.153 279.082 480.068
888 0 62.2625 13.4431 837 165.027 276.924 478.325
889 0 63.1395 13.2564 837 166.297 276.001 477.501
890 0 67.1337 13.3912 899 171.089 278.489 476.485
891 0 68.1872 13.6242 929 174.41 277.992 475.164
892 0 70.1845 13.6497 958 173.354 280.567 473.996
893 0 73.2663 13.4168 983 168.129 279.398 473.111
894 0 76.0962 13.4304 1022 176.444 279.797 472.183
895 0 79.0841 13.6058 1076 170.966 278.815 470.524
896 0 82.1354 13.3682 1098 175.165 278.858 470.047
897 0 85.2158 13.413 1143 170.797 277.602 468.062
898 0 88.0559 14.116 1243 158.23 277.636 466.345
899 0 92.1252 13.5685 1250 164.896 276.726 464.731
900 0 96.1215 13.587 1306 169.204 279.953 463.712
901 0 100.137 13.5814 1360 169.897 280.092 461.582
902 0 103.221 13.6212 1406 163.544 278.428 460.318
903 1 55.1627 12.5085 690 163.957 279.5 484.006
904 0 58.1139 12.9057 750 154.608 279.596 483.071
905 0 57.1169 13.1135 749 165.676 278.461 482.414
906 0 59.1172 12.6528 748 160.289 278.678 482.096
907 0 62.2029 12.9415 805 163.289 278.652 480.186
908 0 65.2071 12.5293 817 158.119 279.61 479.438
909 0 66.1985 13.0517 864 159.528 279.841 478.591
910 0 69.0937 12.6929 877 153.434 279.176 477.884
911 0 70.0811 13.3131 933 159.663 279.639 476.37
912 0 75.0994 13.0227 978 148.65 278.876 474.363
913 0 74.0232 13.2526 981 155.456 278.37 474.015
914 0 76.3336 13.179 1006 155.014 278.342 472.357
915 0 81.1038 12.8724 1044 153.494 279.977 471.724
916 0 83.1621 13.3354 1109 142.161 279.856 470.028
917 1 44.1142 11.2662 497 151.563 279.807 488.958
918 0 47.1898 11.3584 536 144.457 280.237 488.312
919 0 48.154 11.6917 563 143.604 280.673 487.648
920 0 50.154 11.9432 599 148.316 278.851 486.386
921 0 51.1801 12.4072 635 144.929 279.254 485.208
922 0 54.2485 12.1478 659 144.165 278.105 484.011
923 0 55.1893 12.4299 686 140.503 278.378 484.439
924 0 56.1006 12.5845 706 141.899 279.375 483.936
925 0 58.164 11.9833 697 138.868 278.116 482.714
926 0 60.2007 12.4417 749 139.336 280.386 481.514
927 0 63.1506 12.2723 775 142.484 278.809 480.759
928 0 63.1973 12.6746 801 140.21 277.949 479.588
929 0 65.2275 12.3874 808 138.238 279.135 479.34
930 0 68.3011 12.5035 854 142.502 278.256 478.329
931 0 69.1832 12.7921 885 138.685 278.911 477.508
932 0 71.3052 12.6779 904 145.413 278.573 476.72
933 0 74.2054 12.708 943 138.785 278.46 474.914
934 0 78.2501 12.4473 974 145.142 278.634 473.962
935 0 81.1979 12.6235 1025 142.857 278.082 472.34
936 0 82.3158 12.6586 1042 143.876 276.934 471.774
937 1 42.1192 10.7314 452 141.631 280.223 491.586
938 0 46.1074 10.8659 501 144.551 279.307 490.639
939 0 47.0545 11.2848 531 146.2 278.48 489.936
940 0 48.0733 12.2729 590 150.976 278.669 488.998
941 0 49.0505 12.8643 631 158.666 277.737 488.818
942 0 51.0457 12.6749 647 153.482 278.56 488.065
943 0 53.0717 12.6621 672 160.385 279.676 487.875
944 0 54.1083 12.7892 692 156.264 278.916 486.795
945 0 54.1549 13.3691 724 160.156 278.935 486.265
946 0 56.0847 13.016 730 160.932 278.755 485.96
947 0 56.1291 13.6293 765 158.175 277.484 485.331
948 0 59.1154 13.5667 802 158.93 277.421 484.859
949 0 59.0825 14.0481 830 157.229 277.146 483.001
950 0 64.2437 13.3865 860 162.362 278.749 482.2
951 0 66.4117 13.2808 882 161.542 275.85 481.156
952 0 68.3207 13.8611 947 161.604 276.829 479.469
953 0 71.1441 13.4656 958 164.289 278.181 478.941
954 0 73.4616 14.0754 1034 161.16 279.85 477.026
955 0 76.3708 13.5785 1037 157.716 278.527 475.068
956 0 78.3471 14.0273 1099 156.53 278.415 473.672
957 0 81.6083 13.9324 1137 162.208 278.375 471.759
958 0 82.4841 13.8087 1139 160.869 278.42 471.188
959 0 86.6389 13.6428 1182 163.269 278.01 469.137
960 0 88.4736 14.1285 1250 159.112 278.612 468.186
961 1 44.3112 12.999 576 170.675 276.748 489.288
962 0 45.254 13.4574 609 162.911 278.412 488.069
963 0 46.2963 13.3704 619 165.234 279.835 487.501
964 0 48.3052 12.98 627 161.183 277.541 486.638
965 0 48.0801 13.2903 639 166.826 277.451 485.811
966 0 49.4241 13.8596 685 165.349 279.463 485.302
967 0 52.3082 13.7454 719 162.452 279.606 483.833
968 0 53.3565 13.7565 734 167.213 279.815 482.846
969 0 54.2888 14.165 769 166.619 280.212 482.575
970 0 57.3756 14.2221 816 164.933 277.57 481.025
971 0 58.3171 14.2154 829 158.589 278.391 480.001
972 0 61.4011 13.9737 858 167.901 279.223 479.26
973 0 61.3439 14.4432 886 166.148 278.347 478.977
974 0 64.3222 13.9299 896 165.11 275.473 476.491
975 0 67.2731 13.9729 940 173.484 277.424 477
976 0 70.4037 13.8913 978 171.81 278.23 475.425
977 0 70.4235 14.6826 1034 168.824 277.336 474.48
978 0 73.3358 14.3586 1053 166.123 279.179 472.72
979 0 78.2816 14.2562 1116 167.543 279.014 471.601
980 0 81.292 14.208 1155 158.947 279.345 470.159
981 0 83.3004 13.9855 1165 165.393 279.191 468.312
982 0 86.168 14.2164 1225 166.931 278.629 466.825
983 0 91.1797 14.0602 1282 165.86 278.332 465.271
984 1 43.1564 12.5358 541 161.821 280.575 486.732
985 0 44.2187 12.8453 568 171.25 278.856 486.831
986 0 46.1573 12.8041 591 171.049 278.919 486.09
987 0 48.1606 12.9774 625 172.043 277.386 485.32
988 0 49.2038 13.0274 641 168.541 277.602 484.59
989 0 51.1352 13.1612 673 173.312 276.238 484.163
990 0 53.2081 13.1183 698 172.907 278.415 483.609
991 0 54.201 12.9518 702 175.006 275.538 482.826
992 0 57.1182 13.1657 752 164.644 277.832 481.763
993 0 58.1523 13.1895 767 169.879 278.57 480.227
994 0 60.1534 13.4157 807 172.509 279.398 479.616
995 0 60.2649 13.9717 842 173.1 279.334 478.411
996 0 62.2365 13.754 856 165.376 279.861 478
997 0 65.1238 13.6509 889 165.864 277.297 476.575
998 0 68.1704 13.5983 927 172.878 277.691 475.655
999 0 69.2265 13.5064 935 172.681 276.775 474.259
1000 0 73.0883 13.5179 988 167.821 279.592 473.344
1001 0 77.2348 13.4266 1037 166.644 278.482 471.648
1002 0 79.3148 13.314 1056 162.57 278.29 470.471
1003 0 80.1999 13.6659 1096 170.737 278.347 469.406
1004 0 83.1469 13.9271 1158 169.454 276.841 467.598
1005 0 89.1677 13.2111 1178 168.437 279.166 465.478
1006 0 90.3147 13.464 1216 166.622 277.892 464.389
1007 0 93.1137 13.854 1290 163.29 276.897 462.502
1008 0 96.1557 13.7693 1324 165.668 279.418 461.565
1009 0 99.0641 13.7588 1363 164.64 278.278 459.7
1010 0 101.21 13.6449 1381 170.34 278.705 458.631
1011 0 105.152 13.7039 1441 159 278.946 456.909
1012 0 107.312 14.2762 1532 170.109 278.422 454.623
1013 1 57.0926 11.9105 680 155.094 278.576 480.475
1014 0 59.1351 12.1924 721 163.363 279.8 479.494
1015 0 61.1341 12.219 747 164.412 279.139 478.462
1016 0 63.1506 12.0506 761 162.624 278.932 478.33
1017 0 65.1334 12.4514 811 156.827 278.1 476.723
1018 0 67.2213 12.4663 838 159.711 277.421 475.835
1019 0 68.1781 12.394 845 158.122 276.516 475.072
1020 0 71.1051 12.6011 896 162.607 277.239 473.92
1021 0 75.1497 12.2422 920 160.507 278.332 472.339
1022 0 76.1523 12.3831 943 157.226 279.343 471.304
1023 0 80.4032 12.4497 1001 159.568 279.823 469.976
1024 0 82.1853 12.703 1044 160.016 279.261 468.077
1025 0 84.2414 12.2861 1035 162.249 281.179 467.563
1026 0 87.2047 12.2241 1066 158.67 282.84 465.884
1027 0 91.1933 12.2268 1115 157.589 280.926 463.947
1028 1 47.1397 10.331 487 142.762 281.864 487.136
1029 0 49.2837 10.5309 519 139.119 279.803 486.335
1030 0 50.2152 11.0524 555 146.139 280.295 485.295
1031 0 52.1676 10.9838 573 139.305 279.707 484.403
1032 0 51.2019 11.191 573 142.017 278.059 483.606
1033 0 55.0937 11.0357 608 145.921 278.209 483.074
1034 0 55.2666 11.3993 630 137.616 278.159 482.092
1035 0 58.2754 11.4113 665 141.714 278.965 481.448
1036 0 58.2433 11.4176 665 141.388 278.537 479.872
1037 0 60.1543 11.5204 693 135.58 280.277 479.078
1038 0 61.2848 11.7974 723 136.368 280.516 478.855
1039 0 65.1482 11.4355 745 135.483 280.444 476.867
1040 0 65.144 11.866 773 135.925 278.455 475.149
1041 0 67.167 11.8808 798 132.56 279.773 474.607
1042 0 70.2068 11.6228 816 136.169 278.722 473.208
1043 0 74.169 11.5817 859 130.682 280.546 471.058
1044 0 74.2669 12.0107 892 133.176 280.774 470.188
1045 0 78.2214 12.0172 940 132.552 279.865 468.615
1046 0 80.2193 12.1293 973 133.935 279.069 467.325
1047 0 83.2296 11.8467 986 138.927 277.583 466.188
1048 0 86.2583 12.1843 1051 131.94 278.691 464.807
1049 1 47.0418 8.97074 422 132.531 280.874 485.6
1050 0 51.1222 9.1741 469 137.136 281.565 484.424
1051 0 52.1582 9.6054 501 136.361 279.541 483.345
1052 0 55.105 10.4165 574 137.049 280.197 482.456
1053 0 55.1648 10.6227 586 134.201 278.241 482.096
1054 0 57.1759 10.8087 618 139.136 277.57 481.346
1055 0 59.2596 10.5637 626 135.736 278.714 480.877
1056 0 60.2017 11.0628 666 139.719 278.926 480.384
1057 0 63.2245 11.1349 704 141.857 277.141 479.145
1058 0 64.2314 11.5675 743 139.522 279.047 478.171
1059 0 66.2232 11.2347 744 146.103 279.625 477.968
1060 0 68.0822 11.5302 785 147.648 279.441 476.753
1061 0 68.2662 11.836 808 145.818 279.334 476.46
1062 0 71.1365 11.7521 836 151.706 277.834 475.374
1063 0 74.1028 11.6055 860 147.003 279.8 473.86
1064 0 75.2003 11.6755 878 150.849 278.937 473.003
1065 0 80.1578 11.8641 951 152.611 278.993 471.702
1066 0 81.1795 12.0227 976 148.583 278.775 470.314
1067 0 83.2368 12.3743 1030 145.195 278.868 468.68
1068 0 86.2618 12.3346 1064 150.76 278.091 467.508
1069 0 89.3965 12.2152 1092 152.629 278.109 466.384
1070 0 93.3974 12.0025 1121 151.941 278.14 464.5
1071 0 95.2837 12.1952 1162 153.317 277.542 462.701
1072 0 97.3258 12.114 1179 151.94 276.439 460.914
1073 0 101.449 12.2722 1245 151.462 277.305 459.073
1074 0 104.342 12.574 1312 154.726 277.326 458.301
1075 0 108.32 12.4815 1352 161.853 277.01 456.543
1076 0 111.343 12.4031 1381 161.517 277.978 454.512
1077 0 112.482 12.8465 1445 155.22 277.932 452.774
1078 0 116.388 13.1285 1528 162.48 277.757 451.452
1079 0 119.407 13.2069 1577 160.863 276.687 449.321
1080 0 124.39 13.1441 1635 157.868 274.231 446.915
1081 0 126.337 13.2978 1680 161.374 277.902 445.643
1082 0 131.312 13.3499 1753 161.26 277.023 443.516
1083 0 136.258 13.357 1820 161.355 278.702 442.3
1084 1 73.0738 12.7132 929 158.728 279.029 473.413
1085 0 74.1712 12.3228 914 161.699 277.614 473.098
1086 0 75.1273 12.4988 939 160.498 276.407 472.063
1087 0 80.1341 12.529 1004 160.844 277.172 470.509
1088 0 81.1001 12.7497 1034 160.083 277.515 469.49
1089 0 84.0694 12.7395 1071 158.766 278.809 467.617
1090 0 88.1007 12.656 1115 159.681 277.1 467.278
1091 0 89.082 12.8196 1142 160.073 277.224 465.802
1092 0 93.2158 12.8412 1197 167.065 278.574 462.981
1093 0 97.1867 12.8001 1244 157.16 279.748 461.742
1094 0 98.2688 13.3104 1308 160.757 277.757 460.482
1095 0 103.222 13.2626 1369 163.79 279.926 458.619
1096 0 107.323 12.8397 1378 160.279 279.504 457.643
1097 0 111.23 12.8293 1427 165.203 277.653 455.703
1098 1 57.0453 11.5172 657 158.752 278.186 481.991
1099 0 58.171 11.7413 683 153.915 276.278 480.994
1100 0 60.0926 12.6804 762 148.896 278.361 479.507
1101 0 64.1066 13.5711 870 144.087 277.197 476.939
1102 0 64.2335 12.1743 782 154.325 277.212 476.642
1103 0 63.1972 12.4373 786 154.142 278.79 476.59
1104 0 67.0993 12.4741 837 148.816 278.205 475.898
1105 0 69.0552 12.1787 841 157.108 277.788 474.976
1106 0 72.0936 13.0109 938 155.146 278.212 472.551
1107 0 74.1268 12.3302 914 155.484 276.579 472.682
1108 0 76.1086 12.6267 961 154.185 275.843 471.323
1109 0 77.1167 13.0841 1009 155.778 277.253 469.745
1110 0 79.0673 13.1913 1043 154.815 276.056 468.548
1111 0 81.1735 12.9845 1054 157.662 277.275 467.254
1112 0 84.206 13.2176 1113 160.855 276.353 466.105
1113 0 86.2043 12.8764 1110 161.195 276.65 464.984
1114 0 88.1787 13.7788 1215 152.527 276.215 463.736
1115 0 92.1697 13.3449 1230 150.412 275.666 461.909
1116 0 94.1078 13.4952 1270 161.419 276.939 460.431
1117 0 96.263 13.6605 1315 153.186 277.789 458.714
1118 0 100.178 13.3563 1338 158.948 277.066 456.874
1119 0 103.272 13.6146 1406 154.33 278.627 455.698
1120 0 107.243 13.4088 1438 151.612 275.686 452.919
1121 0 110.215 13.0836 1442 154.284 275.599 452.377
1122 0 115.395 13.2588 1530 160.858 277.408 450.175
1123 0 117.213 13.3177 1561 152.484 275.491 449.22
1124 1 65.1203 11.9932 781 151.483 277.52 475.913
1125 0 65.0899 12.0756 786 149.328 275.379 475.48
1126 0 69.2245 12.0044 831 151.15 275.327 473.526
1127 0 70.1138 12.1517 852 154.703 275.427 473.309
1128 0 72.0426 12.0484 868 153.953 276.183 472.237
1129 0 75.0665 12.3357 926 145.894 275.377 470.799
1130 0 78.0244 12.0731 942 146.366 278.557 468.705
1131 0 79.1768 12.7184 1007 149.2 278.644 467.68
1132 0 83.112 12.3568 1027 157.005 279.791 466.547
1133 0 87.154 12.7246 1109 147.549 277.509 465.513
1134 0 90.17 12.8646 1160 157.525 278.06 464.865
1135 0 93.1841 12.9958 1211 152.072 279.283 463.371
1136 0 97.0852 13.1122 1273 152.778 278.594 461.178
1137 0 101.168 12.7313 1288 160.418 278.186 459.546
1138 1 57.1382 10.9734 627 151.901 279.762 482.627
1139 0 59.1359 11.7864 697 154.352 278.139 481.461
1140 0 60.1079 12.0117 722 149.241 277.299 480.884
1141 0 60.2475 12.0503 726 152.702 277.153 480.231
1142 0 64.1876 11.8247 759 152.499 276.627 478.868
1143 0 65.1536 12.1405 791 153.043 276.431 478.255
1144 0 65.1866 12.4412 811 155.472 277.624 478.302
1145 0 68.0475 12.506 851 151.891 278.297 477.424
1146 0 71.162 12.0851 860 152.033 278.119 476.416
1147 0 72.213 12.2831 887 154.539 277.99 475.543
1148 0 74.2126 12.5181 929 153.544 277.622 474.518
1149 0 76.2986 12.7787 975 150.649 275.779 473.095
1150 0 78.2474 12.6011 986 156.358 277.984 472.037
1151 0 81.2253 12.5454 1019 155.643 275.049 470.796
1152 0 82.2114 12.6625 1041 155.208 275.648 469.875
1153 0 87.1688 12.6536 1103 149.692 274.824 468.092
1154 0 89.1352 12.6325 1126 158.299 275.086 467.694
1155 0 92.1821 12.5512 1157 155.449 277.243 465.584
1156 0 95.2415 12.5471 1195 157.751 277.406 464.905
1157 0 99.0619 12.7092 1259 158.945 276.779 462.719
1158 1 54.0728 11.3735 615 158.068 276.863 485.259
1159 0 55.0817 12.0911 666 150.856 276.605 483.477
1160 0 58.1157 12.2858 714 148.777 276.256 483.228
1161 0 59.1011 12.2502 724 154.233 277.026 481.667
1162 0 62.0847 12.5313 778 152.897 276.767 480.762
1163 0 62.0952 12.5614 780 156.586 275.872 479.801
1164 0 65.1085 12.3333 803 155.55 276.778 479.062
1165 0 67.0715 12.688 851 148.157 275.955 478.242
1166 0 68.0782 13.1466 895 157.303 276.105 476.658
1167 0 70.0542 12.9328 906 154.6 275.786 476.358
1168 0 72.158 13.027 940 160.052 277.182 475.138
1169 0 75.1047 12.7422 957 160.535 275.825 474.34
1170 0 77.0927 13.0752 1008 156.647 277.083 472.672
1171 0 80.1965 12.9931 1042 154.462 276.912 471.729
1172 0 83.2116 13.3275 1109 147.804 278.781 470.235
1173 0 86.3308 13.0892 1130 159.585 275.753 469.15
1174 0 89.2068 13.7097 1223 155.264 277.258 467.081
1175 0 92.3037 13.8131 1275 159.112 276.431 466.876
1176 0 94.2698 13.822 1303 155.004 276.698 465.361
1177 0 97.4165 13.6733 1332 156.315 277.366 463.371
1178 0 101.369 13.4854 1367 161.764 276.001 461.832
1179 0 104.329 13.4191 1400 155.019 277.006 460.369
1180 0 108.279 13.3637 1447 157.86 276.102 457.59
1181 1 57.1427 11.725 670 156.545 276.118 482.039
1182 0 59.11 12.2991 727 158.964 276.388 482.099
1183 0 60.1843 12.2623 738 158.206 276.813 482.435
1184 0 60.2036 13.0059 783 153.708 278.037 480.949
1185 0 62.0825 13.0794 812 152.638 276.046 480.11
1186 0 64.142 12.7374 817 151.976 278.774 479.528
1187 0 66.1499 12.7136 841 153.127 276.977 478.384
1188 0 68.1371 12.9445 882 150.069 277.853 477.76
1189 0 71.1218 13.2449 942 152.65 274.999 476.467
1190 0 73.1489 13.0145 952 145.56 274.856 475.223
1191 0 75.1697 13.2766 998 149.969 276.766 474.163
1192 0 76.2069 12.9253 985 154.535 275.358 473.295
1193 0 80.1369 13.3397 1069 152.775 276.14 471.71
1194 0 80.1909 13.1436 1054 160.449 275.322 471.153
1195 0 84.2085 13.4309 1131 148.065 275.921 469.924
1196 0 85.091 13.4914 1148 154.817 274.591 468.294
1197 0 89.2977 12.9567 1157 154.656 275.049 467.319
1198 0 91.3117 13.6784 1249 151.757 274.84 465.457
1199 0 95.2242 13.2529 1262 155.32 276.517 465.482
1200 0 96.2402 13.8508 1333 152 276.375 463.987
1201 1 49.0417 11.5616 567 157.97 275.961 488.06
1202 0 50.0489 12.1281 607 149.257 276.27 486.102
1203 0 54.0764 12.1125 655 149.198 274.934 486.272
1204 0 54.0947 12.3857 670 146.821 274.569 484.825
1205 0 55.0466 13.0617 719 147.832 275.847 484.551
1206 0 58.08 12.5689 730 149.588 272.962 483.916
1207 0 59.0778 12.8813 761 146.347 273.874 483.204
1208 0 60.0279 12.9107 775 148.968 277.538 481.632
1209 0 62.0975 12.9635 805 148.174 277.795 481.374
1210 0 62.1318 13.2782 825 143.388 278.667 480.555
1211 0 68.0392 13.0072 885 147.643 273.821 480.515
1212 0 68.1391 13.267 904 149.101 277.277 478.356
1213 0 71.083 13.3225 947 148.417 277.846 476.923
1214 0 73.1908 13.417 982 146.041 277.736 475.933
1215 0 75.2276 13.1335 988 149.102 277.108 475.424
1216 0 78.0584 13.3618 1043 147.382 276.581 473.009
1217 0 81.1226 13.3009 1079 149.296 277.72 472.471
1218 0 84.1615 13.2365 1114 153.961 275.539 470.974
1219 0 86.176 13.7857 1188 152.489 276.277 469.673
1220 0 89.0723 13.6406 1215 149.487 275.507 467.9
1221 0 93.1578 13.6006 1267 156.071 278.35 466.628
1222 0 97.1667 13.8113 1342 148.884 277.183 463.712
1223 1 51.0598 11.7509 600 158.09 278.653 486.577
1224 0 52.0629 12.7346 663 154.845 279.744 483.748
1225 0 54.1067 13.1037 709 157.883 277.797 483.344
1226 0 57.1272 12.7085 726 158.561 277.607 483.428
1227 0 58.066 13.0886 760 151.284 277.489 483.345
1228 0 60.1952 13.0243 784 163.726 274.69 482.684
1229 0 64.1059 12.8537 824 167.053 275.475 481.882
1230 0 65.1355 13.2493 863 166.096 275.526 480.441
1231 0 65.0906 13.3199 867 170.796 274.427 479.938
1232 0 67.0929 13.295 892 166.489 274.889 478.859
1233 0 70.1396 13.2593 930 163.343 276.061 477.785
1234 0 72.1966 13.394 967 167.674 274.002 477.131
1235 0 74.1216 13.8961 1030 168.33 274.906 475.503
1236 0 77.2464 13.9165 1075 170.47 274.6 473.134
1237 0 79.269 13.7128 1087 170.273 276.126 472.322
1238 0 81.359 13.6678 1112 163.786 275.139 471.123
1239 0 86.2943 13.4655 1162 162.052 277.224 469.369
1240 0 86.2345 13.9619 1204 168.658 273.942 467.516
1241 0 91.261 13.5764 1239 167.761 275.394 466.538
1242 0 95.1507 13.61 1295 169.881 273.623 464.846
1243 0 99.132 13.82 1370 169.324 272.521 463.041
1244 0 102.129 13.8159 1411 166.644 273.454 460.934
1245 1 52.1261 12.8343 669 161.504 272.051 485.71
1246 0 55.1647 12.9249 713 158.414 273.174 485.82
1247 0 55.1527 12.7827 705 161.452 273.75 485.566
1248 0 58.1365 12.6255 734 159.189 272.658 483.937
1249 0 59.2416 12.947 767 160.163 273.005 483.81
1250 0 59.1575 13.1344 777 161.239 270.737 483.021
1251 0 63.3009 13.0646 827 163.901 270.744 481.561
1252 0 65.1567 13.3217 868 159.372 271.605 480.647
1253 0 67.1973 13.438 903 164.971 273.272 480.037
1254 0 70.1151 13.0642 916 160.967 272.432 478.526
1255 0 70.3109 13.7674 968 170.629 269.296 476.559
1256 0 72.1575 14.205 1025 167.284 270.096 475.595
1257 0 76.1057 13.744 1046 167.521 271.163 474.241
1258 0 78.1483 14.0502 1098 162.266 272.154 472.491
1259 0 81.1478 14.1963 1152 164.146 271.549 471.872
1260 0 83.1778 13.934 1159 171.978 274.154 470.714
1261 0 87.2075 13.6456 1190 166.134 274.761 469.325
1262 0 90.2121 14.0669 1269 162.423 273.419 468.035
1263 0 92.2001 13.6442 1258 167.76 273.201 467.445
1264 0 95.1381 13.8851 1321 167.411 274.52 464.848
1265 0 99.1717 14.1774 1406 170.171 274.46 463.037
1266 0 101.296 13.8801 1406 160.603 275.023 461.75
1267 0 105.149 13.809 1452 164.592 273.793 460.563
1268 1 52.0666 12.2535 638 164.287 273.409 487.224
1269 0 52.1115 12.7611 665 165.874 272.143 486.537
1270 0 55.034 12.465 686 168.672 272.261 486.405
1271 0 57.0431 12.2539 699 160.765 274.206 485.538
1272 0 58.1075 12.9071 750 168.229 272.377 484.281
1273 0 61.1523 12.706 777 160.883 274.968 482.737
1274 0 63.1502 13.0166 822 162.934 274.724 481.766
1275 0 65.1669 12.7826 833 165.67 275.316 481.091
1276 0 68.1025 12.8042 872 166.302 275.006 480.196
1277 0 68.1371 13.1646 897 166.833 274.207 479.293
1278 0 68.1231 13.3435 909 159.811 275.004 478.761
1279 0 73.0905 13.0113 951 166.927 275.773 477.757
1280 0 73.0672 13.3165 973 160.155 273.112 476.349
1281 0 77.0936 13.6458 1052 163.147 273.3 475.202
1282 0 78.1624 13.5743 1061 167.947 273.567 474.225
1283 0 82.1119 13.8591 1138 163.573 273.203 472.707
1284 0 84.1337 13.9896 1177 164.481 274.148 471.337
1285 0 85.137 13.9422 1187 160.502 274.981 470.873
1286 0 88.124 13.9803 1232 164.166 273.83 468.88
1287 0 90.0724 14.1886 1278 159.333 274.081 467.059
1288 0 92.0994 14.0066 1290 164.979 273.243 466.251
1289 0 96.1707 13.9232 1339 165.451 275.256 465.006
1290 0 99.0496 14.0939 1396 162.927 274.847 463.385
1291 0 100.095 14.4263 1444 166.328 274.153 462.514
1292 0 104.113 14.2826 1487 163.35 275.011 460.483
1293 0 108.126 14.1224 1527 171.865 275.735 459.326
1294 0 111.136 14.0999 1567 159.158 275.511 456.74
1295 0 115.295 14.3978 1660 160.729 276.154 454.708
1296 1 63.1018 12.3768 781 159.188 274.236 481.698
1297 0 65.0785 12.4312 809 160.012 274.883 481.764
1298 0 68.1093 12.4359 847 153.584 272.955 480.593
1299 0 69.1657 12.8243 887 151.337 276.027 478.949
1300 0 70.1238 12.8202 899 162.029 275.596 477.94
1301 0 73.1484 12.7276 931 153.617 273.857 476.604
1302 0 74.0585 13.2733 983 155.257 277.235 476.132
1303 0 77.1119 13.0849 1009 155.699 276.491 474.709
1304 0 80.062 13.0149 1042 160.166 276.046 473.843
1305 0 84.1822 13.2926 1119 158.761 274.501 471.752
1306 0 85.1686 13.1386 1119 156.517 275.221 470.341
1307 0 90.2574 13.3175 1202 160.393 274.214 468.552
1308 0 93.2081 13.0461 1216 156.535 273.726 467.158
1309 0 96.1567 13.4364 1292 154.697 274.975 465.546
1310 0 100.159 13.6482 1367 164.626 273.409 463.651
1311 0 102.13 13.6689 1396 155.76 274.244 462.094
1312 0 103.061 13.7782 1420 165.276 273.748 461.046
1313 0 108.092 13.4145 1450 161.766 272.921 459.909
1314 0 111.151 13.5401 1505 164.62 272.314 458.881
1315 1 58.0617 12.5556 729 158.672 272.776 484.486
1316 0 60.0417 12.8078 769 163.986 274.785 483.845
1317 0 61.0739 12.7878 781 159.808 273.184 483.666
1318 0 65.045 12.6681 824 157.32 275.271 482.345
1319 0 67.0599 12.9884 871 155.397 275.199 480.666
1320 0 68.0654 13.5752 924 168.292 272.409 480.003
1321 0 71.0909 13.2225 940 158.299 273.709 479.073
1322 0 74.0923 13.0918 970 160.574 273.136 477.885
1323 0 75.0541 13.1905 990 165.078 274.081 477.228
1324 0 78.0524 13.2475 1034 163.265 273.704 475.336
1325 0 80.0873 13.4104 1074 161.946 272.015 474.583
1326 0 81.1288 13.4724 1093 165.609 273.527 473.776
1327 0 84.0969 13.4607 1132 168.536 271.862 472.113
1328 0 88.1317 13.5252 1192 169.268 269.653 471.388
1329 0 90.0819 13.6764 1232 164.799 270.948 470.196
1330 0 92.1868 13.592 1253 165.37 272.898 468.651
1331 0 95.2284 13.2103 1258 163.614 272.829 466.956
1332 0 96.3244 13.9736 1346 166.386 272.908 465.321
1333 0 100.229 13.6687 1370 167.884 272.149 464.026
1334 0 105.216 13.3155 1401 166.011 271.972 462.453
1335 0 109.203 13.7816 1505 162.158 272.52 459.963
1336 1 57.095 12.0501 688 163.453 273.891 485.379
1337 0 59.1236 12.4823 738 153.82 273.138 484.179
1338 0 62.0934 12.7872 794 158.598 273.412 483.018
1339 0 63.088 12.7124 802 155.998 273.829 482.355
1340 0 65.1025 13.1946 859 158.825 273.214 480.815
1341 0 68.0933 12.8206 873 157.874 272.576 479.702
1342 0 70.1264 12.8625 902 161.683 272.083 478.805
1343 0 72.2055 13.0323 941 155.271 271.588 476.912
1344 0 74.1748 12.7402 945 155.038 272.129 476.325
1345 0 77.1118 13.2794 1024 155.275 271.444 474.751
1346 0 78.0789 13.1277 1025 150.445 272.979 473.848
1347 0 82.065 13.0019 1067 152.703 270.806 472.214
1348 0 84.2671 13.0656 1101 147.466 272.45 470.365
1349 0 89.3185 12.5842 1124 153.235 273.01 469.102
1350 0 91.1196 13.0159 1186 146.215 274.523 467.671
1351 0 93.1237 12.7357 1186 148.482 274.748 465.503
1352 0 96.1667 12.9255 1243 147.813 272.805 464.582
1353 1 54.1802 11.3141 613 135.432 273.715 486.183
1354 0 53.1614 11.926 634 143.331 273.601 485.56
1355 0 57.0668 12.2313 698 138.47 275.85 484.4
1356 0 59.1068 12.3844 732 140.617 275.154 483.701
1357 0 61.036 12.7957 781 136.391 275.083 481.858
1358 0 62.1738 12.5937 783 142.314 275.838 482.273
1359 0 65.0642 12.6798 825 138.833 274.619 481.32
1360 0 68.025 12.9952 884 138.459 272.48 479.071
1361 0 68.1731 13.363 911 136.379 273.342 478.286
1362 0 71.0979 13.1087 932 139.53 273.381 476.546
1363 0 73.144 13.2068 966 145.589 273.589 476.166
1364 0 74.0747 13.3109 986 138.196 273.322 474.772
1365 0 79.1112 13.4368 1063 143.707 272.897 473.564
1366 0 80.1348 13.5896 1089 139.322 273.929 472.365
1367 0 85.1474 13.3298 1135 138.254 274.536 470.502
1368 0 87.1502 13.712 1195 143.383 274.71 468.764
1369 0 90.1445 13.6337 1229 145.439 275.773 467.251
1370 0 94.3062 13.2971 1254 147.73 275.703 465.624
1371 0 98.2483 13.7509 1351 148.133 272.474 463.568
1372 1 49.043 11.4797 563 143.334 272.524 487.433
1373 0 50.0594 12.645 633 143.126 274.724 487.221
1374 0 52.0378 12.7023 661 144.265 275.139 486.327
1375 0 52.0608 13.1961 687 150.691 274.262 485.69
1376 0 55.0884 12.5798 693 150.808 274.229 485.602
1377 0 58.0281 12.7697 741 147.804 274.296 484.491
1378 0 59.0468 12.7357 752 147.674 271.585 484.088
1379 0 61.0965 13.0122 795 151.088 274.928 483.537
1380 0 62.0716 13.3072 826 156.967 274.207 482.372
1381 0 64.0376 13.5858 870 150.367 275.33 482.043
1382 0 66.1036 13.4789 891 157.716 276.129 480.887
1383 0 67.0175 13.4592 902 160.943 274.723 479.918
1384 0 70.1022 13.7228 962 158.628 274.704 478.051
1385 0 73.1449 13.7398 1005 156.296 274.885 477.577
1386 0 73.0854 13.9289 1018 163.175 273.626 476.154
1387 0 77.1175 14.0176 1081 161.449 273.107 474.818
1388 0 79.14 14.5565 1152 160.532 275.73 473.675
1389 0 80.161 14.3337 1149 164.136 274.948 473.096
1390 0 85.2077 14.095 1201 158.511 273.244 471.514
1391 0 87.1281 14.5877 1271 160.507 275.166 469.702
1392 0 90.1426 14.0777 1269 164.556 273.943 468.762
1393 0 93.2082 14.2906 1332 163.652 272.435 467.248
1394 0 96.1492 14.2175 1367 167.495 273.638 466.101
1395 0 99.1642 14.5516 1443 160.175 274.477 463.929
1396 0 102.199 14.4816 1480 164.19 275.026 463.183
1397 0 106.111 14.4377 1532 163.731 274.302 461.276
1398 0 108.223 14.5718 1577 168.124 276.514 459.725
1399 0 112.258 14.6538 1645 165.407 273.91 457.858
1400 0 117.199 14.6674 1719 162.454 274.379 455.125
1401 1 62.0599 13.4386 834 165.222 273.114 482.07
1402 0 64.0751 13.9524 894 161.317 275.436 480.952
1403 0 68.0804 13.4106 913 163.082 274.375 479.807
1404 0 70.0851 13.4265 941 160.285 271.652 478.298
1405 0 72.1142 14.0333 1012 162.947 272.513 477.475
1406 0 76.1008 13.5347 1030 165.481 272.745 476.099
1407 0 77.2197 13.8177 1067 168.395 273.019 475.024
1408 0 79.081 13.9604 1104 164.841 274.61 473.841
1409 0 83.1287 14.4715 1203 165.834 273.071 471.306
1410 0 85.2304 13.9856 1192 169.23 274.146 471.076
1411 0 88.1112 14.3001 1260 161.075 274.509 470.566
1412 0 91.1626 14.3809 1311 165.316 272.417 468.086
1413 0 94.1019 14.3143 1347 162.599 272.465 467.601
1414 0 97.2721 14.1973 1381 166.03 273.664 466.937
1415 0 100.199 14.2516 1428 164.918 272.735 464.506
1416 0 103.187 14.4494 1491 160.595 272.64 463.313
1417 0 106.189 14.4083 1530 159.427 271.754 461.35
1418 1 55.1694 12.8876 711 161.819 273.34 486.679
1419 0 58.1102 13.0098 756 161.893 273.179 485.77
1420 0 60.1077 12.9601 779 156.092 272.521 485.1
1421 0 62.1657 13.2549 824 157.983 271.632 484.163
1422 0 64.0574 13.1288 841 150.366 272.551 483.151
1423 0 64.1502 13.5619 870 153.074 272.831 481.771
1424 0 68.0916 13.5406 922 154.242 274.668 480.278
1425 0 68.0867 13.9087 947 155.945 272.547 479.841
1426 0 72.142 13.7922 995 159.087 273.845 478.261
1427 0 74.1413 13.6631 1013 156.438 272.106 477.432
1428 0 75.0949 13.7826 1035 155.859 271.074 476.535
1429 0 79.2107 14.0006 1109 158.818 272.159 475.047
1430 0 79.1437 14.1515 1120 160.058 270.337 473.807
1431 0 83.1497 14.0469 1168 162.155 270.815 472.354
1432 0 86.1439 14.3249 1234 159.936 273.29 470.13
1433 0 91.141 13.9235 1269 161.119 272.068 469.187
1434 0 94.1738 14.0803 1326 160.722 274.011 467.67
1435 0 97.105 13.8098 1341 155.708 273.937 466.13
1436 0 101.347 13.6265 1381 159.828 272.971 463.983
1437 0 104.392 13.478 1407 156.579 274.207 461.687
1438 1 57.1177 12.623 721 155.417 275.356 484.606
1439 0 60.3308 13.0448 787 155.61 273.968 483.645
1440 0 60.2113 13.2865 800 152.501 274.646 483.074
1441 0 62.3393 13.5067 842 158.008 274.356 482.854
1442 0 65.3109 13.3821 874 157.324 272.637 481.338
1443 0 67.204 13.2135 888 154.97 273.584 479.956
1444 0 70.311 13.3976 942 155.844 273.685 478.862
1445 0 71.2927 13.5638 967 155.807 274.038 477.465
1446 0 72.2903 14.0959 1019 158.811 273.03 476.601
1447 0 76.7016 13.4417 1031 154.878 274.581 475.55
1448 0 79.3463 13.712 1088 157.94 272.801 473.153
1449 0 82.493 13.9163 1148 154.764 272.473 472.601
1450 0 85.5185 13.88 1187 157.972 272.913 471.453
1451 0 88.4092 14.0031 1238 153.933 273.947 469.297
1452 0 90.3266 13.7833 1245 149.953 273.534 468.516
1453 0 94.5902 14.0924 1333 154.743 273.554 466.719
1454 0 97.6483 14.1836 1385 157.318 274.651 465.244
1455 0 101.344 13.6268 1381 158.406 273.614 463.707
1456 0 104.562 14.1161 1476 153.441 273.037 461.835
1457 1 55.3207 12.3281 682 151.279 272.254 486.474
1458 0 57.3197 12.7181 729 152.621 274.021 486.059
1459 0 56.096 13.7799 773 151.397 273.977 485.752
1460 0 61.1524 13.3273 815 154.025 273.512 484.045
1461 0 62.1245 13.4246 834 152.613 273.139 483.194
1462 0 65.2579 13.6229 889 148.794 274.134 481.459
1463 0 66.288 13.5771 900 150.41 274.553 480.763
1464 0 70.2805 13.5884 955 146.395 275.099 479.339
1465 0 72.3187 13.7724 996 143.5 276.01 478.223
1466 0 74.5797 13.6632 1019 149.864 274.772 477.383
1467 0 77.3571 13.7415 1063 149.486 273.857 476.59
1468 0 80.2881 13.9871 1123 148.365 273.17 474.994
1469 0 80.2881 13.9871 1123 164.71 272.17 474.994
1470 0 87.3618 13.7703 1203 146.04 271.397 471.346
1471 0 91.1667 13.7002 1249 146.534 271.057 469.849
1472 1 46.0666 12.3517 569 145.318 271.926 491.847
1473 0 48.0246 12.4728 599 149.19 272.356 490.601
1474 0 48.0792 13.6441 656 150.498 273.93 489.672
1475 0 49.0659 13.7774 676 143.571 273.802 489.238
1476 0 51.0477 13.3209 680 147.518 275.568 488.766
1477 0 53.0896 13.5808 721 149.556 274.645 487.208
1478 0 54.047 13.5623 733 145.342 274.014 486.922
1479 0 55.0564 14.1673 780 146.683 275.518 486.026
1480 0 56.0251 14.3329 803 142.061 273.853 485.351
1481 0 59.2531 13.9571 827 140.495 274.813 484.638
1482 0 60.0843 14.1301 849 142.764 275.286 483.96
1483 0 64.1455 14.3112 918 141.423 275.693 483.626
1484 0 65.077 14.1525 921 142.698 273.586 482.875
1485 0 66.1926 14.3218 948 138.996 275.942 482.292
1486 0 70.0871 14.1681 993 144.081 275.616 480.861
1487 0 72.1738 14.3681 1037 142.393 274.892 480.462
1488 0 75.0868 14.703 1104 145.624 274.134 479.284
1489 0 78.0849 14.6763 1146 143.015 274.519 477.661
1490 0 80.1961 14.9633 1200 143.072 274.968 477.07
1491 0 83.2485 14.739 1227 138.328 273.626 475.346
1492 0 85.0522 14.9085 1268 146.901 273.739 474.302
1493 0 89.0717 14.7409 1313 148.216 272.548 472.405
1494 1 49.1022 13.9505 685 158.242 274.218 492.228
1495 0 51.057 14.4544 738 148.461 274.66 490.836
1496 0 52.0915 14.6089 761 155.125 275.557 489.673
1497 0 52.2227 14.9552 781 132.846 274.306 488.836
1498 0 55.0302 14.81 815 157.86 273.95 487.794
1499 0 56.0702 14.7494 827 160.218 274.144 487.452
1500 0 58.0312 15.0264 872 159.242 275.124 486.646
1501 0 62.045 15.2309 945 156.414 274.533 484.821
1502 0 64.1737 15.1308 971 159.861 275.457 484.387
1503 0 66.1107 14.9749 990 157.862 274.682 483.729
1504 0 66.1106 15.2623 1009 161.338 275.629 483.027
1505 0 70.1044 15.3343 1075 165.261 274.665 481.954
1506 0 72.1808 15.3503 1108 161.438 273.372 480.474
1507 0 74.127 15.5139 1150 150.095 273.365 479.543
1508 0 77.1313 15.6357 1206 137.616 273.391 477.777
1509 0 82.1084 15.1629 1245 162.65 274.913 475.898
1510 0 84.0719 15.118 1271 158.489 275.188 475.056
1511 0 86.1129 15.2939 1317 157.026 274.026 473.371
1512 1 42.0539 13.8394 582 167.452 273.254 494.588
1513 0 41.053 14.9075 612 153.108 274.243 494.096
1514 0 43.0622 14.7461 635 163.855 274.739 493.091
1515 0 45.1187 14.7611 666 170.479 273.941 492.719
1516 0 54.1857 15.5576 843 160.196 273.571 488.351
1517 0 58.1542 15.5449 904 157.037 272.205 487.467
1518 0 59.0779 15.4034 910 163.573 271.89 486.715
1519 0 61.1905 15.5089 949 171.974 273.487 486.774
1520 0 63.0593 15.3031 965 159.808 272.692 485.951
1521 0 65.1621 15.2543 994 172.995 274.258 485.88
1522 0 66.2014 15.5888 1032 172.182 273.234 485.415
1523 0 69.058 15.7838 1090 166.655 272.016 483.381
1524 0 71.0861 15.5445 1105 169.916 272.323 482.475
1525 0 74.1933 15.8505 1176 169.567 271.658 481.586
1526 0 77.1349 16.0757 1240 167.099 271.831 480.372
1527 0 80.1172 15.7394 1261 169.343 271.642 479.874
1528 0 82.1792 16.0016 1315 164.461 272.317 478.654
1529 0 85.1228 15.6597 1333 166.179 271.692 477.065
1530 0 88.0835 16.1892 1426 166.32 271.023 475.466
1531 0 89.2755 16.1746 1444 163.066 271.992 473.958
1532 0 93.2225 16.2729 1517 152.01 273.64 472.7
1533 0 97.2864 15.9323 1550 162.812 272.078 470.413
1534 0 102.124 15.6869 1602 164.413 272.529 469.183
1535 1 52.1561 14.9551 780 173.94 271.499 492.477
1536 0 54.3049 15.1736 824 168.477 271.519 491.404
1537 0 55.2046 15.5603 859 169.491 271.093 490.549
1538 0 58.0968 15.5602 904 166.177 273.289 489.591
1539 0 58.1082 15.4884 900 163.609 272.546 489.108
1540 0 62.1214 15.7595 979 163.498 274.005 488.483
1541 0 63.0683 15.3801 970 154.008 273.631 487.081
1542 0 65.0837 15.6414 1018 166.239 273.474 485.35
1543 0 69.0974 15.3985 1064 158.407 272.039 484.511
1544 0 70.0943 15.6789 1099 166.559 271.783 483.398
1545 0 74.1092 15.5851 1155 165.278 272.295 482.621
1546 0 75.1526 16.034 1205 169.984 272.398 481.423
1547 0 78.1388 15.4341 1206 165.796 271.396 479.828
1548 0 79.234 15.6372 1239 169.006 271.762 478.575
1549 0 83.1975 15.4572 1286 167.984 272.33 477.071
1550 0 86.1156 15.5489 1339 170.478 271.404 474.886
1551 0 92.1857 15.0349 1386 167.589 273.251 473.817
1552 1 45.15 14.9502 675 164.93 274.932 494.677
1553 0 47.106 14.8176 698 162.908 272.487 493.635
1554 0 49.0885 14.8507 729 169.369 270.893 492.446
1555 0 50.1297 14.8814 746 170.481 269.968 491.554
1556 0 52.2305 15.1444 791 169.87 272.201 491.003
1557 0 55.2142 15.0686 832 160.594 270.415 489.839
1558 0 56.1079 15.2207 854 164.715 273.261 489.063
1559 0 58.1694 15.2658 888 174.542 273.352 488.57
1560 0 59.1997 15.4899 917 169.012 272.186 487.623
1561 0 61.2469 15.7722 966 167.432 271.027 486.273
1562 0 64.0691 15.4365 989 169.993 271.547 485.133
1563 0 67.1031 15.3346 1029 169.413 270.601 484.609
1564 0 70.1086 15.3619 1077 172.691 271.693 483.937
1565 0 71.2416 15.9738 1138 168.521 272.301 482.547
1566 0 74.1546 15.6969 1164 166.13 271.109 481.214
1567 0 76.1512 15.7844 1202 166.761 272.294 479.952
1568 0 78.1792 15.7331 1230 168.051 270.463 479.208
1569 0 82.2631 15.8759 1306 164.672 272.694 477.016
1570 0 86.2442 15.1315 1305 165.405 272.298 475.9
1571 0 87.3023 15.6468 1366 165.253 272.059 474.462
1572 0 90.1897 15.8111 1426 169.498 270.725 472.877
1573 0 95.1066 15.3091 1456 162.125 271.189 471.015
1574 0 98.1105 15.6864 1539 168.574 270.658 469.149
1575 0 102.182 16.1085 1646 169.37 269.813 466.916
1576 0 105.252 15.7432 1657 165.963 270.721 465.966
1577 0 109.162 15.7473 1719 168.071 270.551 463.519
1578 0 113.227 16.1004 1823 169.323 269.307 461.806
1579 0 114.218 16.022 1830 165.699 271.619 460.587
1580 0 118.195 16.0328 1895 20.6269 272.296 457.995
1581 0 123.457 15.7058 1939 168.466 271.473 457.096
1582 0 128.345 15.9648 2049 162.158 271.282 454.157
1583 0 133.273 15.8172 2108 165.344 272.619 451.717
1584 0 138.195 15.9195 2200 171.045 273.078 450.315
1585 0 143.276 15.5224 2224 165.127 272.701 448.071
1586 0 149.26 15.8985 2373 167.943 269.486 445.344
1587 0 152.666 15.9564 2436 167.141 273.22 442.53
1588 1 79.2065 14.62 1158 162.689 272.009 478.732
1589 0 81.2669 14.5324 1181 176.008 271.74 477.903
1590 0 85.4867 14.0958 1205 168.862 270.446 477.077
1591 0 87.2987 14.2041 1240 171.907 272.67 475.769
1592 0 90.3763 14.506 1311 172.398 270.819 474.585
1593 1 102.339 14.4422 1478 169.945 271.39 468.083
1594 0 102.306 14.5935 1493 170.855 270.093 468.547
1595 0 102.458 14.6304 1499 173.918 269.347 468.221
1596 0 102.415 14.7342 1509 168.529 271.095 467.99
1597 0 108.472 14.3263 1554 171.018 271.537 465.953
1598 0 110.411 14.763 1630 170.96 273.266 464.834
1599 0 112.365 14.5864 1639 172.028 272.077 462.974
1600 0 115.425 14.4423 1667 163.683 271.451 461.707
1601 0 119.499 14.6111 1746 174.3 270.156 460.078
1602 0 126.488 14.5943 1846 172.591 270.854 457.08
1603 0 129.473 14.7676 1912 171.063 269.844 455.653
1604 0 134.5 14.3272 1927 172.802 268.066 453.291
1605 1 65.3177 14.6055 954 171.813 270.136 485.138
1606 0 67.1708 14.4706 972 168.861 270.515 483.984
1607 0 71.0757 14.1539 1006 164.32 273.024 482.736
1608 0 74.1391 14.2705 1058 170.079 272.174 481.369
1609 0 75.1065 14.0068 1052 171.018 271.689 480.927
1610 0 79.102 14.121 1117 167.02 272.945 479.001
1611 0 81.1879 14.177 1151 169.11 272.553 478.376
1612 0 82.2331 14.3738 1182 168.046 271.434 477.717
1613 0 86.2576 14.2016 1225 165.312 273.393 475.508
1614 1 44.1831 13.5799 600 160.693 271.643 495.357
1615 0 46.1904 13.2928 614 158.166 271.267 495.202
1616 0 48.2118 13.7726 664 161.134 271.73 495.187
1617 0 48.095 14.1803 682 166.176 271.295 493.632
1618 0 49.151 14.2825 702 169.766 268.521 493.239
1619 0 52.2499 13.9905 731 161.707 270.146 492.131
1620 0 51.1392 14.9005 762 168.714 272.757 491.917
1621 0 55.0628 14.7286 811 168.444 272.185 490.852
1622 0 56.1842 14.933 839 163.349 271.907 489.605
1623 0 58.1496 14.5315 845 175.462 273.217 489.918
1624 0 59.2455 15.0391 891 25.1414 270.811 488.696
1625 0 62.2256 14.7046 915 168.928 272.589 487.844
1626 0 65.1192 14.8343 966 168.602 272.588 486.227
1627 0 67.217 14.7582 992 166.846 272.446 484.94
1628 0 69.21 14.9834 1037 167.016 273.043 483.422
1629 0 71.2041 14.9851 1067 172.779 270.969 482.754
1630 0 74.2803 14.7684 1097 168.258 271.244 481.724
1631 0 76.2981 14.5744 1112 162.773 270.041 480.192
1632 1 38.0808 14.8631 566 164.527 270.645 497.466
1633 0 39.1675 14.8082 580 172.297 273.333 497.533
1634 0 40.1448 15.8676 637 78.0424 271.3 496.342
1635 0 42.1274 15.6905 661 167.262 274.08 495.708
1636 0 43.1911 16.0681 694 172.313 272.363 494.944
1637 0 45.0792 15.861 715 160.515 272.579 494.853
1638 0 45.3077 16.2445 736 168.573 272.353 493.904
1639 0 46.1526 16.6838 770 176.436 270.816 493.334
1640 0 47.1252 16.7639 790 165.828 271.935 493.189
1641 0 47.0871 17.096 805 169.524 271.178 492.729
1642 0 48.2735 17.1523 828 172.836 270.444 492.36
1643 0 51.1219 16.6856 853 171.438 271.039 491.834
1644 0 51.0999 17.2799 883 177.239 270.409 491.13
1645 0 54.1837 16.8501 913 173.22 272.026 491.192
1646 0 54.1511 17.5066 948 170.464 269.491 489.715
1647 0 57.2542 17.1166 980 168.536 272.886 489.752
1648 0 57.1196 17.4021 994 176.633 270.463 489.038
1649 0 58.0692 17.7547 1031 172.288 273.717 487.8
1650 0 62.1338 17.3657 1079 168.264 272.118 487.471
1651 0 63.0852 17.1673 1083 160.835 271.558 486.666
1652 0 65.3668 17.4859 1143 170.235 271.505 485.639
1653 0 67.2243 17.2408 1159 166.874 272.183 484.575
1654 0 70.4493 17.1045 1205 173.18 272.651 484.05
1655 0 73.3198 17.3077 1269 168.834 272.567 482.065
1656 0 75.5109 17.216 1300 170.688 272.323 481.297
1657 0 76.241 17.5496 1338 172.006 274.209 479.975
1658 0 80.4085 17.0007 1367 168.644 274.058 478.595
1659 0 84.3057 17.0807 1440 164.635 273.472 476.847
1660 0 86.3193 17.2383 1488 166.177 274.465 474.868
1661 0 89.3588 17.0325 1522 170.246 272.913 474.685
1662 0 92.3633 16.6949 1542 160.377 273.696 472.411
1663 0 96.2463 17.3201 1667 166.309 272.142 471.543
1664 0 100.488 17.1265 1721 169.586 271.274 469.686
1665 0 103.441 16.9663 1755 161.432 273.507 467.766
1666 0 107.513 17.0306 1831 170.448 271.84 466.497
1667 0 108.398 17.5188 1899 163.92 271.276 464.948
1668 0 112.318 18.1181 2035 167.038 269.107 463.213
1669 0 117.645 17.3233 2038 163.827 270.892 461.434
1670 0 120.337 18.6144 2240 161.795 270.602 458.427
1671 0 126.566 17.7141 2242 163.035 271.421 457.142
1672 0 129.42 17.1148 2215 165.351 271.034 456.179
1673 0 134.64 16.986 2287 165.219 270.929 454.483
1674 0 136.463 17.3527 2368 169.044 272.236 453.109
1675 0 142.703 17.0214 2429 166.192 271.916 450.227
1676 0 147.636 17.008 2511 155.303 272.777 447.011
1677 0 152.806 17.1393 2619 166.061 271.316 445.568
1678 0 158.723 17.3446 2753 160.645 271.677 443.23
1679 0 165.782 17.0223 2822 159.073 275.108 439.849
1680 0 168.788 17.365 2931 159.012 273.114 437.658
1681 0 173.804 17.2263 2994 164.449 271.162 435.887
1682 0 180.657 17.3921 3142 157.199 272.039 431.209
1683 0 188.564 17.0605 3217 155.758 271.63 428.44
1684 0 196.543 17.1973 3380 166.254 273.002 425.093
1685 0 202.502 17.1455 3472 150.774 272.108 421.596
1686 1 152.423 16.546 2522 170.69 273.054 444.96
1687 0 157.339 17.0905 2689 166.592 273.393 441.324
1688 0 162.535 16.864 2741 172.342 273.167 439.411
1689 0 171.481 17.0281 2920 167.688 273.253 434.949
1690 0 176.348 16.8246 2967 166.082 273.896 433.535
1691 0 180.512 17.0958 3086 167.923 273.929 430.636
1692 0 190.618 16.8977 3221 165.651 273.235 426.937
1693 0 198.545 16.7367 3323 169.7 272.554 422.775
1694 0 203.586 17.2114 3504 169.55 272.669 419.58
1695 0 212.838 17.0082 3620 151.069 271.754 415.307
1696 0 221.786 16.7594 3717 170.761 272.051 411.977
1697 0 228.393 16.8175 3841 164.223 271.096 407.978
1698 0 236.742 16.8495 3989 166.985 273.058 403.695
1699 0 245.758 17.0615 4193 168.519 272.971 399.109
1700 1 202.523 16.092 3259 173.216 274.384 422.085
1701 0 208.769 16.1758 3377 166.51 273.103 419.017
1702 0 216.469 16.224 3512 171.6 273.038 413.635
1703 0 225.391 16.2917 3672 164.42 273.904 409.707
1704 0 231.504 16.1682 3743 172.096 272.326 407.111
1705 1 138.335 15.4697 2140 170.778 273.392 453.167
1706 0 142.338 15.7021 2235 171.813 273.652 450.826
1707 1 90.248 16.0114 1445 172.964 273.201 474.743
1708 0 94.2225 15.8879 1497 174.643 271.614 473.244
1709 0 98.2142 15.7615 1548 165.211 273.061 471.386
1710 0 102.301 15.6987 1606 168.097 273.924 469.001
1711 1 44.0354 16.8047 740 170.096 274.609 494.618
1712 0 44.114 17.1601 757 175.647 274.855 494.678
1713 0 47.0978 16.8373 793 177.953 274.521 493.852
1714 0 48.1183 16.3139 785 176.097 274.228 493.343
1715 0 49.1145 17.0622 838 175.2 275.42 492.407
1716 0 51.2073 16.8921 865 171.161 275.43 491.66
1717 0 54.1088 16.4483 890 171.613 273.636 491.076
1718 0 56.2073 16.7416 941 175.149 275.614 489.928
1719 0 56.1001 17.3797 975 175.224 274.355 488.916
1720 0 59.2415 17.032 1009 177.481 273.936 487.875
1721 0 62.2311 16.8244 1047 174.298 273.769 486.307
1722 0 64.4228 17.0747 1100 167.175 275.05 484.42
1723 0 68.3572 17.7597 1214 164.227 275.11 482.721
1724 0 69.2148 17.3951 1204 167.653 272.694 482.148
1725 0 71.3518 17.5609 1253 168.009 273.713 481.002
1726 0 74.2063 17.4244 1293 170.081 273.592 478.951
1727 0 75.1788 17.3453 1304 172.833 275.225 478.584
1728 0 80.4032 17.8227 1433 163.445 274.509 475.192
1729 0 84.159 17.4313 1467 166.141 275.299 473.819
1730 0 87.1919 17.4214 1519 164.174 273.927 472.034
1731 0 91.2275 17.9222 1635 165.678 274.588 469.391
1732 0 94.0893 17.8235 1677 163.035 273.987 467.309
1733 0 97.3955 17.8858 1742 159.216 273.632 464.79
1734 0 101.102 17.7345 1793 163.974 273 463.816
1735 0 106.248 17.6757 1878 159.969 272.516 461.168
1736 0 109.389 17.8262 1950 156.844 273.381 458.495
1737 1 64.1562 15.3376 984 178.444 271.51 480.95
1738 0 65.1552 15.7624 1027 181.173 273.226 479.798
1739 0 67.221 16.3491 1099 174.126 272.853 477.561
1740 0 71.215 16.3028 1161 168.052 275.927 476.255
1741 0 73.2874 16.9606 1243 168.154 275.375 474.907
1742 0 75.1848 18.5277 1393 164.23 273.736 472.228
1743 0 80.1977 18.1925 1459 157.463 274.914 471.043
1744 0 86.4116 19.0715 1648 150.358 274.78 466.908
1745 0 87.4466 19.5777 1712 152.572 275.682 465.359
1746 0 90.4177 19.0781 1725 150.293 274.035 463.986
1747 0 97.4648 19.1762 1869 150.676 272.989 460.688
1748 0 98.4919 19.7275 1943 144.384 274.723 458.397
1749 0 101.756 20.2248 2058 145.057 273.213 454.981
1750 0 113.683 19.1586 2178 143.728 275.433 450.517
1751 0 114.696 20.6371 2367 137.99 273.35 446.676
1752 0 114.806 23.1173 2654 131.946 273.548 442.212
1753 1 131.157 19.5797 2568 138.009 273.222 439.206
1754 0 129.443 19.5839 2535 137.673 274.316 437.967
1755 0 136.479 17.9515 2450 147.805 273.862 439.008
1756 0 144.282 19.2332 2775 136.068 273.206 431.994
1757 0 142.522 18.9935 2707 144.957 273.15 433.474
1758 1 187.094 17.1144 3202 133.715 273.264 412.77
1759 0 187.041 19.3326 3616 125.133 274.774 406.327
1760 0 187.838 15.9499 2996 141.51 275.287 423.224
1761 0 190.261 15.9518 3035 149.097 274.698 422.23
1762 0 190.246 17.4616 3322 141.43 273.633 416.462
1763 0 190.494 18.8929 3599 138.06 274.886 412.096
1764 1 246.64 13.1163 3235 143.35 273.538 414.928
1765 0 246.301 14.0722 3466 146.19 275.143 410.09
1766 0 250.574 14.3071 3585 139.777 273.763 405.32
1767 0 236.038 16.743 3952 140.118 273.706 399.439
1768 0 241.34 16.0852 3882 144.967 274.436 402.073
1769 1 100.203 15.0694 1510 170.901 273.065 450.689
1770 0 104.303 14.7071 1534 176.48 273.608 449.756
1771 0 107.244 15.0125 1610 169.423 273.293 446.127
1772 0 112.262 15.0719 1692 172.804 272.257 444.717
1773 0 116.439 15.1582 1765 166.99 273.614 442.784
1774 0 117.148 15.3225 1795 168.303 274.61 442.265
1775 0 123.308 15.368 1895 173.995 274.465 437.748
1776 0 126.301 14.8851 1880 173.715 274.601 437.515
1777 0 131.396 14.4601 1900 175.07 272.091 436.765
1778 0 137.312 16.0583 2205 163.299 274.386 429.024
1779 0 140.251 15.1799 2129 170.949 271.632 428.301
1780 0 146.3 16.0492 2348 166.53 272.349 422.909
1781 1 76.2486 14.0068 1068 173.751 273.309 454.972
1782 0 79.1749 14.2343 1127 165.667 274.319 451.626
1783 0 82.1735 13.5567 1114 171.296 272.457 451.687
1784 0 85.306 14.2897 1219 166.663 272.411 449.694
1785 0 88.1606 13.9972 1234 168.136 272.618 447.177
1786 0 91.2174 14.1092 1287 169.894 272.272 445.399
1787 0 92.0801 14.3245 1319 166.189 271.777 444.966
1788 0 96.1447 14.0725 1353 170.196 273.317 444.232
1789 0 99.1318 14.2134 1409 168.75 271.712 441.836
1790 0 102.194 14.4137 1473 175.668 272.964 440.997
1791 0 103.176 14.2087 1466 171.267 272.36 440.557
1792 0 100.217 16.634 1667 161.135 273.852 433.666
1793 0 99.074 16.5836 1643 162.969 271.988 433.575
1794 0 100.164 16.3831 1641 161.493 272.012 433.467
1795 0 99.0814 16.2594 1611 161.087 272.6 433.107
1796 0 76.0692 13.514 1028 169.273 271.497 423.323
1797 0 66.0518 12.9595 856 165.397 273.249 419.057
1798 0 59.0653 15.5421 918 157.643 273.307 412.224
1799 0 77.0347 16.8885 1301 137.496 271.947 383.397
1800 0 79.1578 16.5492 1310 135.014 271.973 381.191
1801 0 81.1285 15.987 1297 145.412 269.992 379.298
1802 0 83.2222 16.4499 1369 140.934 271.532 378.294
1803 0 87.2936 16.7137 1459 136.999 273.232 378.011
1804 0 91.1739 17.154 1564 142.829 272.253 376.339
1805 0 93.0909 16.8545 1569 137.387 274.794 378.867
1806 0 95.2356 16.9475 1614 141.532 273.922 379.483
1807 0 96.1744 16.7196 1608 142.739 272.368 380.693
1808 0 99.3951 16.208 1611 151.242 272.371 382.364
1809 0 101.256 15.9991 1620 152.472 273.035 383.596
1810 0 104.329 15.6811 1636 156.009 272.26 384.776
1811 0 107.238 15.1252 1622 154.978 273.279 386.886
1812 0 110.187 14.1214 1556 161.422 274.895 389.391
1813 1 51.07 11.1807 571 149.517 273.247 423.816
1814 0 54.2342 11.4319 620 157.876 272.556 426.192
1815 0 54.1103 12.1973 660 153.024 270.791 428.335
1816 0 56.1633 12.428 698 154.55 270.532 431.16
1817 0 58.099 12.3754 719 152.95 271.555 433
1818 0 60.1775 12.4797 751 151.422 273.368 435.897
1819 0 62.1271 12.3939 770 153.975 271.466 437.61
1820 0 63.1161 12.1997 770 151.655 270.791 440.161
1821 0 64.1211 12.9443 830 149.183 271.896 439.949
1822 0 67.3661 13.0481 879 156.383 271.043 440.075
1823 0 69.1005 13.0245 900 160.9 271.262 439.46
1824 0 71.2272 13.0007 926 162.175 272.427 440.243
1825 0 101.257 12.8189 1298 157.287 273.616 414.137
1826 0 104.246 13.2187 1378 159.844 271.942 415.353
1827 0 97.5503 12.9779 1266 154.015 271.257 412.814
1828 0 98.3723 13.1134 1290 149.167 272.642 413.086
1829 0 43.2556 11.4898 497 158.423 272.507 427.662
1830 0 45.288 12.1887 552 155.567 272.781 423.984
1831 0 46.0921 12.3882 571 148.951 273.597 421.921
1832 0 46.1338 12.8106 591 152.885 271.882 423.677
1833 0 49.1702 12.2635 603 150.463 272.574 418.647
1834 0 0 0 0 -nan -nan -nan
1835 1 0 0 0 -nan -nan -nan
1836 0 0 0 0 -nan -nan -nan
1837 0 211.607 59.9413 12684 23.2081 269.969 516.16
1838 0 220.122 58.4811 12873 22.913 261.778 515.192
1839 0 220.285 52.8042 11632 27.4544 257.55 522.359
1840 0 216.857 41.8756 9081 24.9215 252.68 535.33
1841 1 158.911 51.4123 8170 25.8557 251.509 548.099
1842 0 145.491 62.1277 9039 23.6912 248.88 542.862
1843 1 83.0058 51.6109 4284 25.085 247.682 575.881
1844 1 41.3387 43.7846 1810 24.8133 243.977 594.327
1845 0 24.7018 59.9552 1481 25.7265 246.124 596.675
