time division length width area intensity CMx CMy
0 0 46.0309 12.9044 594 65.1987 565.684 493.665
1 0 48.0526 13.9431 670 64.9552 565.421 492.276
2 0 49.112 13.6626 671 66.617 566.56 492.474
3 0 50.0907 14.2342 713 66.6802 565.164 492.651
4 0 50.1327 12.9656 650 69.8231 566.068 492.637
5 0 51.0935 14.1897 725 69.1655 565.732 492.455
6 0 51.0815 12.9988 664 73.0136 566.048 491.253
7 0 52.0979 13.6282 710 73.3676 565.831 491.4
8 0 54.1574 13.2392 717 73.8801 565.886 491.434
9 0 54.0661 13.539 732 75.485 566.15 491.995
10 0 55.0846 13.2342 729 77.1207 565.658 491.406
11 0 57.0702 13.7725 786 76.1934 564.989 490.127
12 0 58.0937 13.3061 773 78.0298 565.969 490.551
13 0 59.1111 13.9737 826 76.586 564.961 487.943
14 0 61.1061 13.4684 823 77.723 564.642 488.255
15 0 61.1256 13.1042 801 79.6404 564.729 488.774
16 0 64.1155 13.3665 857 78.7433 565.3 487.718
17 0 66.0968 13.8736 917 77.7088 564.359 485.382
18 0 66.0945 13.3899 885 79.6079 564.675 486.559
19 0 66.1156 12.9924 859 81.1106 564.639 485.077
20 0 68.1064 13.0971 892 80.2904 563.443 486.126
21 0 70.1595 13.5406 950 81.0926 563.031 481.605
22 0 73.05 12.9227 944 81.3114 561.98 481.877
23 0 75.056 13.9895 1050 78.6029 562.741 480.445
24 0 76.1562 13.1834 1004 80.256 562.492 480.106
25 0 79.1168 13.1325 1039 80.0635 562.525 479.552
26 0 81.1028 13.7726 1117 78.9105 562.705 474.717
27 0 84.0902 13.5807 1142 79.4273 563.058 475.039
28 0 86.1837 13.6685 1178 78.961 562.968 474.803
29 0 89.1507 13.5164 1205 79.2888 562.357 473.919
30 0 88.0943 12.7023 1119 81.4164 562.193 472.015
31 0 94.1082 13.6014 1280 78.9 562.749 470.884
32 0 96.1043 13.1316 1262 80.0975 562.203 468.066
33 0 98.1231 13.1773 1293 79.8469 561.722 469.008
34 0 101.168 13.1365 1329 79.9029 561.977 469.92
35 0 106.093 13.639 1447 79.5003 562.416 465.838
36 0 108.117 13.0507 1411 80.6492 562.936 463.846
37 0 110.132 12.4396 1370 79.4679 562.494 464.347
38 0 113.159 11.8947 1346 77.7259 562.777 457.61
39 0 118.151 12.5517 1483 76.4747 562.422 457.826
40 0 121.118 11.7902 1428 79.8179 562.364 451.18
41 0 125.202 12.1724 1524 79.4436 562.375 454.159
42 0 130.2 12.4347 1619 79.6201 562.058 449.22
43 0 137.359 13.1116 1801 78.5325 562.274 449.74
44 0 141.381 12.3284 1743 79.8508 561.998 446.482
45 0 147.334 12.6176 1859 78.6859 561.353 444.161
46 0 150.242 12.2136 1835 79.5586 561.798 445.134
47 0 158.296 12.6662 2005 78.5416 561.664 441.629
48 0 163.179 12.5077 2041 79.4855 561.94 440.87
49 1 78.0808 12.8585 1004 80.7181 562.237 479.556
50 0 81.0906 13.1581 1067 79.2446 562.164 476.658
51 0 84.0724 12.9769 1091 80.3941 562.227 477.524
52 0 85.1311 12.5454 1068 80.4466 563.021 476.106
53 0 89.1729 12.8514 1146 80.0079 562.056 475.012
54 0 93.0868 13.0416 1214 79.4481 562.584 472.877
55 0 95.2005 13.1932 1256 78.5096 562.208 468.758
56 0 99.1401 13.1228 1301 80.3313 562.876 466.414
57 0 105.211 13.5442 1425 82.4561 562.526 462.038
58 0 108.274 13.0687 1415 83.9703 562.77 463.497
59 0 111.203 13.372 1487 82.3497 563.479 461.942
60 0 115.234 13.0777 1507 82.1115 562.66 460.107
61 0 121.351 14.0584 1706 79.0199 562.659 462.723
62 0 123.251 14.2879 1761 80.3214 562.56 458.191
63 0 128.329 14.2836 1833 80.8603 562.253 455.782
64 0 131.382 13.9441 1832 82.1201 562.155 456.028
65 0 136.397 14.2672 1946 82.9589 562.452 452.719
66 0 141.488 13.9799 1978 84.5157 562.363 450.69
67 0 146.531 14.4407 2116 84.2245 562.455 448.534
68 0 149.517 14.1188 2111 86.1156 562.51 444.159
69 0 153.652 13.869 2131 87.4209 562.664 442.695
70 0 159.713 13.5868 2170 88.7871 562.661 441.103
71 0 161.527 14.3629 2320 88.9772 562.506 435.999
72 0 168.636 14.2674 2406 89.6076 562.531 435.467
73 0 173.512 14.6273 2538 89.2786 562.562 431.94
74 0 177.566 14.006 2487 91.3611 561.71 429.81
75 0 182.606 14.2055 2594 92.3265 561.683 426.741
76 0 189.442 15.1814 2876 89.5177 561.484 425.43
77 0 193.623 14.1564 2741 91.9595 561.319 422.098
78 0 198.583 13.8028 2741 93.3386 561.444 416.588
79 0 204.428 14.1419 2891 93.7229 561.739 414.309
80 0 210.515 14.8303 3122 92.1131 562.331 413.01
81 0 216.391 14.6587 3172 93.9026 562.511 407.849
82 0 224.461 15.0093 3369 92.7153 562.392 403.204
83 0 232.483 16.3883 3810 89.2612 561.999 393.21
84 0 239.543 14.7322 3529 94.1329 562.428 395.505
85 0 247.406 16.9721 4199 90.5218 561.999 388.837
86 0 254.386 17.155 4364 89.3327 562.523 383.082
87 1 53.0752 11.7381 623 81.1364 564.361 486.202
88 0 56.1707 12.4086 697 82.9283 565.306 492.181
89 0 57.1136 12.9917 742 82.9582 564.043 490.244
90 0 59.1083 12.9085 763 83.9751 565.026 490.841
91 0 63.1527 12.8102 809 82.7565 564.974 489.905
92 0 63.2059 12.1191 766 86.3708 564.962 488.589
93 0 65.0805 12.9839 845 85.4142 564.999 487.91
94 0 66.2314 12.9848 860 86.2384 564.862 487.13
95 0 69.1794 13.1108 907 87.0022 565.078 484.419
96 0 74.1561 13.4042 994 89.004 564.754 483.538
97 0 74.1843 12.5903 934 88.2848 564.434 483.16
98 0 76.1475 13.3819 1019 87.16 563.415 481.774
99 0 77.2158 12.7824 987 88.5117 564.368 481.708
100 0 79.2646 12.9566 1027 89.2327 564.226 480.204
101 0 83.2058 13.2322 1101 88.3324 564.651 478.457
102 0 85.2126 13.0732 1114 90.5045 563.968 475.878
103 0 87.2077 13.6571 1191 88.1637 564.231 476.221
104 0 92.1175 13.1137 1208 89.5058 564.083 473.333
105 0 93.1699 13.5881 1266 89.3002 564.361 470.686
106 0 97.1785 13.1202 1275 88.2533 564.289 471.005
107 0 100.172 13.6266 1365 86.8374 563.511 469.135
108 0 104.241 13.0083 1356 88.3319 562.861 468.636
109 0 108.225 13.5182 1463 87.3411 563.252 465.648
110 0 110.281 13.3931 1477 89.1963 562.733 464.928
111 0 114.438 13.2648 1518 92.1291 563.322 462.43
112 0 118.44 12.7913 1515 90.2363 563.514 460.902
113 0 120.336 12.5483 1510 93.655 563.006 459.485
114 0 132.409 16.4188 2174 81.5672 563.213 448.827
115 1 62.0435 11.5242 715 85.4336 562.801 480.887
116 0 67.1835 13.4557 904 87.708 563.361 484.074
117 0 66.1609 11.2755 746 83.1247 564.21 484.798
118 0 66.1925 11.0889 734 83.3188 563.131 486.327
119 0 70.1041 11.4544 803 82.5068 563.209 482.757
120 0 71.1061 10.7445 764 80.356 562.483 478.298
121 0 74.1599 11.3673 843 83.7651 563.482 481.904
122 0 78.2317 12.0156 940 83.3106 563.015 479.851
123 0 81.197 11.8354 961 79.5921 562.698 474.863
124 0 81.1387 11.3879 924 81.9329 563.338 473.677
125 0 85.1112 12.1371 1033 80.2517 564.015 473.846
126 0 87.0885 12.0567 1050 82.6286 563.353 471.058
127 0 92.0973 12.856 1184 85.8944 563.584 469.802
128 0 94.2194 12.1843 1148 87.5775 563.165 469.097
129 0 98.1314 12.9622 1272 87.2697 563.301 468.489
130 0 101.105 13.4513 1360 85.7588 562.774 467.948
131 0 105.107 13.4339 1412 85.3584 562.39 466.267
132 0 109.158 13.5217 1476 86.4919 561.718 463.642
133 0 111.101 13.2762 1475 87.118 562.254 462.045
134 0 115.07 13.8003 1588 86.4169 563.05 461.73
135 0 114.08 12.9821 1481 82.4072 562.361 461.151
136 0 121.101 13.625 1650 81.2339 562.612 459.582
137 0 122.092 12.7117 1552 86.7055 562.285 458.935
138 0 126.062 13.7473 1733 85.0883 562.035 454.844
139 0 128.053 12.1669 1558 87.5475 561.65 455.596
140 0 134.105 12.9749 1740 85.9328 562.049 452.443
141 0 138.265 13.3512 1846 88.4225 561.483 450.303
142 0 143.205 13.0372 1867 91.3123 561.582 448.626
143 0 147.356 13.5658 1999 92.4452 561.751 444.683
144 0 154.362 13.4294 2073 91.4303 561.418 441.177
145 0 157.397 13.2531 2086 92.5911 561.578 436.906
146 0 164.487 13.3202 2191 94.9156 560.617 433.022
147 0 171.589 13.9228 2389 92.8916 561.244 430.33
148 0 175.566 13.3055 2336 93.8386 560.622 424.574
149 1 88.5025 10.4517 925 88.0789 561.698 471.132
150 0 90.5091 11.6894 1058 86.7561 560.949 467.765
151 0 94.4233 11.8615 1120 86.742 561.248 466.372
152 0 99.4239 13.025 1295 87.0625 560.757 465.147
153 0 101.46 12.6355 1282 86.7613 560.537 464.226
154 0 104.25 12.8154 1336 90.8181 560.394 461.496
155 0 109.49 12.4943 1368 91.098 560.436 461.368
156 0 112.453 13.1078 1474 91.1635 560.571 459.381
157 0 115.368 13.236 1527 91.7302 560.434 457.967
158 0 120.528 13.8142 1665 90.2294 560.542 453.995
159 0 123.252 14.0849 1736 91.8646 560.232 451.795
160 0 127.207 13.1125 1668 96.1847 560.379 450.985
161 0 131.284 13.2537 1740 96.9695 560.82 448.23
162 0 136.417 13.4294 1832 97.1381 560.486 444.699
163 0 140.295 13.3148 1868 99.1627 560.668 443.52
164 0 147.386 14.1397 2084 97.8445 559.973 440.132
165 0 149.641 13.7529 2058 99.5544 560.604 439.129
166 0 155.432 14.8103 2302 96.47 560.483 437.316
167 0 161.414 14.3172 2311 99.5054 561.179 433
168 0 167.537 14.1521 2371 100.372 560.715 429.876
169 1 78.299 10.4216 816 94.8554 561.153 475.395
170 0 81.2361 11.9159 968 92.3502 560.528 473.613
171 0 86.3575 12.2167 1055 90.2161 561.04 471.544
172 0 86.3232 12.2099 1054 91.5503 561.158 467.893
173 0 89.373 12.5541 1122 91.09 560.898 467.314
174 0 93.3413 12.2775 1146 90.0183 561.074 466.647
175 0 97.2979 12.3333 1200 90.8033 560.389 465.039
176 0 101.387 13.0095 1319 89.4989 559.952 463.284
177 0 105.294 13.0302 1372 89.3141 560.371 461.907
178 0 106.243 12.735 1353 92.3407 560.052 458.739
179 0 110.293 13.31 1468 91.0061 560.447 456.542
180 0 114.24 12.9552 1480 92.0459 560.285 454.468
181 0 119.273 13.3224 1589 90.6218 560.446 453.351
182 0 123.236 13.0887 1613 92.8934 560.541 449.927
183 0 124.241 12.8782 1600 93.8031 560.626 449.101
184 0 129.445 12.9631 1678 93.2282 562.081 449.034
185 1 68.3904 10.2938 704 86.4787 563.747 482.234
186 0 69.2977 10.7363 744 85.8481 563.594 480.552
187 0 69.3049 11.2402 779 84.932 563.745 480.795
188 0 73.2709 11.1504 817 84.552 563.53 479.59
189 0 76.3978 11.715 895 83.1911 563.783 477.842
190 0 78.1503 12.0409 941 81.2678 563.527 475.541
191 0 80.0922 11.6616 934 83.4261 562.692 473.552
192 0 83.1129 11.7671 978 83.2607 562.109 473.609
193 0 86.0849 11.9765 1031 80.8487 562.222 470.531
194 0 88.2177 11.2789 995 83.1538 561.953 468.865
195 0 90.2783 11.6085 1048 82.6107 562.312 467.427
196 0 93.268 11.8154 1102 82.2877 562.893 466.098
197 0 94.2527 11.9997 1131 82.992 561.897 464.107
198 0 99.2099 11.0775 1099 83.8581 561.976 461.905
199 0 104.201 12.975 1352 80.0547 562.452 463.182
200 0 105.287 12.0812 1272 82.7052 562.506 459.077
201 0 108.219 12.0681 1306 82.8737 561.635 458.878
202 0 112.24 12.4644 1399 103.756 562.231 459.303
203 0 116.339 12.326 1434 103.879 561.977 454.668
204 0 119.232 12.4631 1486 104.26 561.967 452.329
205 0 121.27 12.4103 1505 103.124 562.155 449.353
206 0 125.351 12.4451 1560 103.979 562.153 447.601
207 0 129.214 12.9785 1677 100.827 562.081 446.415
208 0 133.299 12.6633 1688 99.5675 561.668 444.398
209 0 137.333 12.4588 1711 100.158 561.742 441.541
210 0 142.322 12.9144 1838 100.31 561.055 437.431
211 0 148.289 13.3658 1982 97.4011 561.28 436.993
212 1 80.1293 10.0712 807 91.9195 563.473 473.161
213 0 83.1366 10.2001 848 90.8325 563.079 472.303
214 0 83.1252 10.2496 852 89.7594 562.304 468.442
215 0 83.1164 10.6598 886 89.5384 562.438 466.657
216 0 84.1041 10.6297 894 90.1242 562.286 465.082
217 0 87.0696 11.1405 970 88.6278 561.762 463.586
218 0 92.1215 11.1049 1023 87.6901 561.064 464.062
219 0 98.1678 11.5517 1134 92.4268 561.118 464.714
220 0 101.081 11.5847 1171 92.1443 560.564 462.629
221 0 101.182 11.4349 1157 84.7831 560.372 465.303
222 0 105.192 11.5883 1219 84.3823 560.715 464.802
223 0 106.203 11.0825 1177 84.9847 560.589 464.001
224 0 108.252 10.845 1174 86.4293 560.983 462.82
225 0 112.154 10.8065 1212 83.5792 560.5 460.069
226 0 116.119 11.4107 1325 81.877 560.62 458.465
227 0 118.125 10.8868 1286 83.8056 559.854 457.535
228 0 124.177 11.242 1396 84.4205 559.795 455.167
229 1 71.0599 9.42866 670 83.4567 560.685 483.919
230 0 71.0747 10.4116 740 83.4446 560.335 481.776
231 0 74.0115 10.4713 775 83.6748 559.506 479.272
232 0 75.0721 10.723 805 83.7081 559.153 479.765
233 0 78.1086 11.0743 865 86.2763 559.756 477.138
234 0 77.11 11.2956 871 88.1722 560.591 475.045
235 0 78.137 10.9679 857 83.7631 562.015 477.252
236 0 80.1123 10.5727 847 85.6364 561.809 476.34
237 0 84.1404 11.1718 940 84.5649 561.791 475.949
238 0 84.0977 10.904 917 86.3424 561.88 475.504
239 0 89.1188 11.4005 1016 86.1939 562.031 471.753
240 0 92.123 11.9731 1103 85.2366 561.842 472.281
241 0 94.0854 11.8297 1113 85.9892 561.527 471.214
242 0 97.0685 11.7855 1144 86.3024 562.006 470.068
243 0 99.1418 11.8315 1173 84.2259 561.718 470.115
244 0 99.1584 11.1236 1103 86.8332 561.645 467.456
245 0 105.202 11.3686 1196 85.7291 561.035 465.518
246 0 109.129 11.9858 1308 82.6888 561.091 464.47
247 0 109.196 10.5865 1156 83.1877 560.292 461.222
248 0 114.109 12.1375 1385 81.5032 560.142 458.482
249 0 117.17 11.2316 1316 84.2865 559.828 456.245
250 0 119.183 11.1761 1332 85.7523 559.325 455.526
251 0 123.199 11.3637 1400 85.9164 559.447 454.223
252 1 65.1355 10.056 655 82.9679 558.562 485.679
253 0 68.0757 10.6793 727 78.8391 559.096 483.536
254 0 69.0694 11.0613 764 78.7945 558.191 482.285
255 0 73.2611 11.9709 877 77.4675 561.024 482.389
256 0 74.1623 11.5692 858 78.4557 561.171 482.348
257 0 77.2675 12.1526 939 77.3504 561.535 480.629
258 0 78.1803 11.7421 918 79 561.293 478.479
259 0 81.1857 11.7385 953 79.3851 561.355 477.101
260 0 83.1985 12.0916 1006 78.7058 560.952 477.026
261 0 84.1737 11.2862 950 81.7453 560.767 476.202
262 0 85.2395 11.3562 968 82.5052 560.837 474.337
263 0 89.2022 11.8046 1053 81.1899 559.877 475.497
264 0 92.1699 11.0665 1020 83.3539 559.953 474.364
265 0 94.1375 11.6107 1093 82.5334 560.713 471.82
266 0 96.0851 11.9998 1153 81.8343 560.232 469.697
267 0 98.1988 11.6295 1142 82.7338 560.594 466.766
268 0 102.129 11.2015 1144 84.792 559.744 464.501
269 0 105.088 11.1335 1170 85.3752 558.585 463.864
270 0 108.071 11.3629 1228 87.1352 558.66 464.357
271 0 112.069 11.4839 1287 88.0404 558.587 461.453
272 0 113.101 10.8929 1232 90.7459 559.271 459.964
273 0 115.232 10.6828 1231 91.0561 558.852 457.677
274 0 118.395 10.6846 1265 90.7526 559.943 456.937
275 0 122.45 10.633 1302 91.0668 560.37 452.733
276 0 126.478 11.0691 1400 88.3614 559.948 450.685
277 0 130.452 10.6706 1392 89.4828 559.864 449.487
278 1 73.4395 10.621 780 80.1449 560.846 478.277
279 0 75.5546 10.8266 818 81.9597 560.683 477.98
280 0 78.4318 10.7227 841 83.2913 560.769 476.883
281 0 78.2365 10.9284 855 84.8409 559.816 474.905
282 0 82.1272 11.4457 940 79.3245 559.123 474.455
283 0 83.1091 11.1299 925 80.1773 558.752 473.679
284 0 87.0379 10.9033 949 79.8725 558.798 473.497
285 0 89.0883 11.5391 1028 79.0866 558.968 472.583
286 0 90.1938 11.3533 1024 85.4873 558.827 472.252
287 0 93.2555 11.5596 1078 84.7718 559.047 470.09
288 0 95.2005 11.1029 1057 86.3027 559.025 470.49
289 0 96.2045 11.673 1123 85.7934 559.143 466.253
290 0 101.152 11.547 1168 85.8853 558.949 466.745
291 0 104.219 11.4087 1189 86.1926 559.244 464.957
292 0 108.26 11.5093 1246 85.3884 558.955 462.428
293 0 110.212 11.7138 1291 85.5724 559.338 460.508
294 0 114.189 11.4547 1308 86.1063 559.027 460.428
295 0 118.216 12.1049 1431 84.4724 559.127 457.818
296 1 63.113 10.4257 658 91.5456 558.264 483.587
297 0 63.1393 10.3897 656 123.445 558.261 483.425
298 0 67.106 12.1301 814 85.183 558.457 482.568
299 0 66.1413 11.5964 767 86.0691 559.42 482.52
300 0 66.1105 10.0589 665 92.5669 558.708 483.974
301 0 69.0628 12.0036 829 90.0893 558.633 481.614
302 0 74.1193 11.7648 872 89.8085 558.197 481.747
303 0 74.1162 11.9677 887 90.8591 558.507 481.744
304 0 77.1651 11.8577 915 90.4448 558.68 480.269
305 0 80.2793 11.6095 932 92.1212 558.21 476.928
306 0 83.3109 12.4233 1035 90.2676 559.111 476.441
307 0 85.4973 12.2928 1051 89.196 559.362 474.484
308 0 88.4717 12.0264 1064 89.3214 559.416 472.79
309 0 85.1549 11.027 939 84.5101 558.436 464.953
310 0 88.1485 11.821 1042 83.5374 558.48 464.726
311 0 90.2955 11.4181 1031 85.9292 558.674 463.368
312 0 94.1313 12.2701 1155 85.7342 558.873 463.084
313 0 98.1155 11.9553 1173 89.029 558.473 462.082
314 0 99.1889 11.6545 1156 90.5484 558.724 461.597
315 0 104.394 12.1367 1267 89.412 558.695 458.024
316 0 106.234 11.4276 1214 91.79 558.523 457.675
317 1 56.085 8.86154 497 85.0241 559.08 481.107
318 0 57.0758 9.82903 561 83.2264 557.642 480.504
319 0 60.1147 9.83121 591 81.0423 558.135 480.831
320 0 67.0645 11.1833 750 80.6013 560.885 485.98
321 0 70.0542 12.3476 865 78.452 560.887 484.994
322 0 71.1246 11.979 852 79.7547 560.8 484.705
323 0 72.0706 11.2667 812 83.4113 560.172 486.829
324 0 75.1644 11.5746 870 81.1368 560.328 486.686
325 0 75.1007 10.9852 825 83.7236 559.737 485.172
326 0 79.1194 11.9945 949 81.6344 559.691 482.605
327 0 80.2163 11.5812 929 83.3337 559.836 482.694
328 0 83.2202 11.9202 992 82.5907 559.58 481.148
329 0 84.121 11.6023 976 84.7869 559.709 482.106
330 0 88.1553 11.2415 991 84.7982 559.092 480.801
331 0 87.1552 10.7968 941 144.388 558.162 482.155
332 0 94.1173 12.1019 1139 84.1071 558.978 475.994
333 0 97.1946 12.0583 1172 84.8251 558.811 474.05
334 0 99.0991 12.1999 1209 84.7188 558.325 471.998
335 0 102.097 11.3324 1157 86.2256 558.003 469.745
336 0 105.097 11.5702 1216 85.449 556.75 468.077
337 0 105.104 10.8559 1141 88.1937 557.492 463.807
338 0 108.142 10.5047 1136 87.5933 558.398 463.678
339 0 113.197 10.3625 1173 88.2003 558.065 459.949
340 0 116.184 11.4129 1326 87.313 557.733 459.851
341 1 61.0419 10.1406 619 80.0872 558.09 491.136
342 0 61.0177 10.079 615 80.535 557.894 489.143
343 0 64.0271 10.5737 677 81.421 558.226 488.502
344 0 67.0467 12.7672 856 88.1659 558.036 486.992
345 0 67.109 11.3398 761 79.9304 557.871 489.204
346 0 68.0627 10.9458 745 82.2255 557.987 487.554
347 0 70.0801 11.073 776 82.5387 558.05 486.148
348 0 73.1125 11.325 828 82.4529 557.68 484.83
349 0 76.065 11.6742 888 81.2376 556.845 483.082
350 0 80.0628 11.7783 943 80.2704 557.88 485.022
351 0 83.1087 11.9241 991 80.2008 557.579 481.449
352 0 84.1059 11.9849 1008 80.1964 557.039 479.516
353 0 89.1388 12.1832 1086 79.8379 556.919 478.448
354 0 92.1515 12.0128 1107 80.7173 555.422 477.257
355 0 95.0571 12.3294 1172 79.0973 555.462 474.89
356 0 97.097 12.4103 1205 80.9618 556.491 474.917
357 0 101.219 11.7666 1191 93.2872 555.751 474.045
358 1 51.0961 11.038 564 88.0851 555.738 497.055
359 0 55.0927 10.8181 596 89.0017 556.203 496.258
360 0 55.1134 11.1044 612 90 556.016 493.941
361 0 56.1164 11.4227 641 90.4587 555.234 492.198
362 0 56.0681 10.3089 578 89.7474 556.529 494.085
363 0 56.0958 11.1238 624 88.3846 556.304 493.204
364 0 59.0919 10.729 634 87.3202 556.888 493.238
365 0 59.07 10.5807 625 88.6112 557.266 492.096
366 0 61.0477 10.4672 639 88.3177 557.593 491.631
367 0 65.0796 11.1709 727 86.8226 556.889 489.404
368 0 65.0778 11.1405 725 87.8069 556.463 489.433
369 0 69.0914 11.1157 768 88.5208 556.84 489.975
370 0 69.0929 10.8115 747 92.5783 556.917 487.554
371 0 72.0802 10.9878 792 92.6932 556.501 484.571
372 0 74.1113 11.2399 833 91.7083 556.498 483.717
373 0 78.1256 11.8527 926 89.6339 557.631 484.915
374 0 78.0762 11.0405 862 94.0835 556.95 481.775
375 0 82.1051 12.1308 996 91.8785 558.003 478.964
376 0 84.0842 11.5598 972 90.6718 559.318 478.443
377 0 85.0829 11.7062 996 93.5562 559.348 476.599
378 0 90.0894 12.4543 1122 91.5642 559.635 476.742
379 0 91.1111 12.161 1108 95.3466 559.282 474.949
380 0 94.0984 12.3913 1166 94.7933 559.408 473.192
381 0 99.092 12.3723 1226 93.6378 558.938 472.608
382 0 101.066 12.5363 1267 95.2715 558.529 471.335
383 1 56.0178 10.3539 580 96.0328 559.903 491.288
384 0 59.0388 11.484 678 93.0472 559.81 490.735
385 0 62.1114 11.6243 722 92.4848 558.896 490.152
386 0 63.1724 11.7615 743 94.8668 558.976 487.681
387 0 65.047 12.2988 800 91.5725 559.314 486.482
388 0 65.0876 12.7828 832 91.0637 560.381 485.564
389 0 66.046 13.0061 859 90.5914 560.122 484.562
390 0 68.0395 11.8167 804 93.0659 559.966 482.169
391 0 70.0656 12.5882 882 91.1497 559.793 483.105
392 0 72.07 12.6544 912 91.0219 559.947 481.17
393 0 75.0582 12.9899 975 90.4369 559.723 479.374
394 0 76.0579 12.7666 971 90.8105 559.841 479.21
395 0 80.0323 13.5695 1086 88.4586 560.424 476.645
396 0 80.0698 13.3009 1065 90.8892 560.517 475.915
397 0 84.1401 13.1685 1108 90.0415 559.604 474.653
398 0 87.1073 13.3628 1164 89.8634 559.86 476.401
399 0 90.1653 13.1093 1182 90.1354 560.14 473.961
400 0 91.1335 12.7286 1160 90.9017 559.84 469.76
401 0 93.2543 12.7072 1185 88.1148 559.215 467.58
402 0 97.2611 13.654 1328 84.5452 559.169 467.093
403 0 98.2586 13.0777 1285 87.6482 558.857 464.346
404 0 100.275 12.7849 1282 85.8042 559.098 464.911
405 0 105.37 12.2996 1296 85.3549 559.218 468.306
406 1 55.0513 10.9898 605 84.4793 560.342 493.397
407 0 53.0868 11.0574 587 85.644 560.666 491.79
408 0 57.0486 11.9722 683 80.5578 560.187 491.736
409 0 60.1578 12.0516 725 81.5421 560.087 489.432
410 0 59.1503 10.4649 619 77.4798 560.307 490.061
411 0 60.1301 10.9596 659 76.1168 560.302 489.809
412 0 60.0943 11.3322 681 76.1601 559.759 489.765
413 0 61.1669 11.297 691 75.4559 560.135 488.456
414 0 65.0847 11.5388 751 74.8176 559.539 488.875
415 0 66.1512 12.0179 795 74.2855 559.62 486.716
416 0 68.1302 11.6101 791 75.4968 559.516 485.497
417 0 69.0964 11.6504 805 75.1615 559.354 484.615
418 0 72.0596 11.4627 826 75.4758 559.107 483.406
419 0 75.1222 12.4198 933 73.8746 557.734 482.453
420 0 77.1472 12.0419 929 74.7933 558.721 479.102
421 0 78.1169 12.4045 969 75.1641 557.961 478.77
422 0 83.1843 12.0816 1005 75.5463 558.464 478.383
423 0 85.1751 12.2454 1043 76.4602 559.507 475.664
424 0 88.1978 11.8824 1048 78.4933 558.903 473.83
425 0 90.132 12.0268 1084 79.643 558.238 473.739
426 0 95.1455 12.5387 1193 79.2087 558.003 472.45
427 0 96.2002 11.6112 1117 81.5013 558.37 469.816
428 1 52.0935 11.5178 600 81.75 559.153 492.808
429 0 54.1735 10.8171 586 79.9915 559.382 492.573
430 0 55.1528 11.5135 635 80.5921 558.272 491.517
431 0 57.1042 11.8555 677 77.2954 558.424 491.898
432 0 58.1763 12.5824 732 77.7637 558.1 489.561
433 0 61.0815 12.6061 770 77.7597 558.561 487.436
434 0 61.1104 12.3547 755 78.7523 558.75 487.205
435 0 66.132 12.6565 837 77.9211 559.552 487.784
436 0 65.1271 12.0226 783 117.202 559.542 486.564
437 0 69.1435 13.19 912 78.3871 558.637 486.606
438 0 70.1319 12.8045 898 80.6258 557.644 483.874
439 0 69.1295 12.9178 893 81.598 557.305 482.437
440 0 74.1234 13.2077 979 80.0286 557.597 482.422
441 0 75.0865 13.2514 995 80.9106 557.522 480.983
442 0 78.1563 13.2043 1032 79.4196 557.904 480.954
443 0 81.1219 13.1654 1068 79.5843 557.864 479.51
444 0 81.1516 12.7046 1031 80.9806 558.071 479.278
445 0 84.1325 13.5738 1142 78.6375 557.427 475.66
446 0 88.0989 13.4508 1185 79.1004 557.7 476.961
447 0 88.1326 13.2187 1165 81.4927 557.901 474.001
448 0 93.1448 13.7635 1282 80.0593 558.004 472.656
449 0 94.1289 13.1203 1235 83.3571 558.167 472.849
450 0 99.1235 13.4277 1331 82.4155 558.065 470.248
451 0 101.122 12.5987 1274 85.5173 557.949 469.049
452 1 55.0326 12.647 696 85.1825 559.174 493.264
453 0 56.1492 12.4846 701 86.6148 559.993 493.227
454 0 57.3139 12.7194 729 87.9534 558.974 488.624
455 0 61.0118 12.5713 767 83.9309 556.922 489.602
456 0 61.0995 13.1261 802 84.2481 557.697 490.613
457 0 64.0549 13.8163 885 83.2847 558.485 487.662
458 0 68.0547 13.2834 904 83.6383 557.816 485.858
459 0 71.0983 13.7134 975 82.8421 557.869 485.184
460 0 72.0348 13.3269 960 84.7062 557.912 485.536
461 0 75.0657 13.668 1026 84.7417 558.282 481.8
462 0 78.0602 14.0533 1097 83.082 558.254 481.137
463 0 79.1478 13.7464 1088 84.5129 558.169 481.318
464 0 81.0985 13.3665 1084 85.9852 558.331 479.042
465 0 84.1206 13.4093 1128 86.7039 557.559 477.629
466 0 87.0836 14.0784 1226 86.898 558.052 475.726
467 0 90.0835 13.9648 1258 86.5739 557.987 473.374
468 0 92.117 13.7977 1271 87.3509 557.677 472.763
469 0 94.0872 14.1039 1327 86.1274 557.543 470.367
470 0 96.1657 13.404 1289 88.8728 558.144 471.334
471 0 101.21 14.4551 1463 85.4402 558.053 470.031
472 0 102.193 14.1106 1442 87.9258 557.723 466.438
473 0 106.151 13.6033 1444 88.1163 557.056 464.097
474 0 108.234 12.6116 1365 85.2967 557.313 456.684
475 0 114.116 13.0393 1488 91.7063 557.075 456.493
476 0 117.163 13.3745 1567 92.1563 557.202 452.541
477 0 120.259 12.4814 1501 93.463 556.923 451.71
478 1 58.0918 11.258 654 89.3089 557.304 482.307
479 0 62.1224 10.8174 672 88.6399 557.868 481.696
480 0 66.0585 11.9742 791 86.5588 557.319 480.552
481 0 70.1257 12.6345 886 85.5406 557.559 483.282
482 0 71.1723 11.999 854 88.2342 557.566 483.247
483 0 72.1778 12.206 881 89.3133 557.84 481.908
484 0 76.1509 12.1338 924 90.4751 557.662 482.173
485 0 76.1238 12.0987 921 93.1922 557.232 479.072
486 0 80.152 11.8026 946 93.4049 557.552 478.58
487 0 82.1456 12.2222 1004 93.1026 558.051 478.311
488 0 85.1442 12.4495 1060 91.1623 557.648 475.94
489 0 87.1108 12.421 1082 92.2375 557.743 475.819
490 0 91.2351 12.8459 1172 90.5785 557.992 475.207
491 0 92.1645 12.2932 1133 92.7229 557.045 472.746
492 0 96.2176 11.6195 1118 92.8417 557.801 472.326
493 1 53.1113 11.2217 596 84.2534 558.753 494.287
494 0 53.1286 10.5969 563 86.0622 558.476 494.474
495 0 56.0117 11.7654 659 84.3824 557.914 492.358
496 0 57.0836 11.5795 661 83.0877 556.175 491.793
497 0 60.0926 12.2311 735 81.3986 556.007 490.687
498 0 62.1099 12.2525 761 82.6439 556.993 488.72
499 0 60.1661 11.3021 680 86.8721 557.579 488.934
500 0 65.0953 11.1222 724 86.0663 556.71 488.011
501 0 66.0982 11.7704 778 86.536 556.702 487.302
502 0 70.1383 12.0476 845 88.671 556.317 485.367
503 0 72.1793 12.4967 902 89.2084 556.616 486.255
504 0 73.1034 12.325 901 89.3241 557.156 483.521
505 0 77.2565 12.9309 999 87.3594 556.906 481.733
506 0 77.3353 12.129 938 90.8881 557.136 478.679
507 0 81.5024 12.1469 990 89.6131 556.881 477.952
508 0 82.352 12.2887 1012 90.5306 557.415 477.111
509 0 81.3357 11.3111 920 84.7989 556.736 470.642
510 0 85.1823 11.9861 1021 84.9696 557.047 468.357
511 0 87.228 11.705 1021 85.5034 557.105 465.972
512 1 47.0359 8.5254 401 80.6484 558.938 489.648
513 0 51.0463 10.4807 535 87.3047 558.406 491.686
514 0 52.0145 10.574 550 84.4636 557.96 487.233
515 0 58.0293 12.1146 703 89.724 559.321 492.762
516 0 61.0382 12.4676 761 88.6702 558.971 491.193
517 0 59.0246 11.7578 694 92.2435 558.85 490.719
518 0 61.015 12.5871 768 90.5964 558.566 490.223
519 0 64.0657 12.4091 795 90.4176 558.167 489.737
520 0 67.0375 12.1275 813 89.8069 558.413 488.744
521 0 68.1209 11.8172 805 89.5925 557.771 487.307
522 0 71.0301 12.1639 864 87.6157 558.229 486.414
523 0 72.0841 12.2912 886 87.7438 557.868 486.168
524 0 75.0667 12.4689 936 85.7425 557.887 484.206
525 0 78.1203 13.0312 1018 84.3802 558.362 483.218
526 0 81.0766 13.0864 1061 83.7455 558.438 481.992
527 0 83.1151 12.5128 1040 84.4433 558.215 481.825
528 0 85.2489 12.0236 1025 85.5366 557.473 480.382
529 1 45.0414 10.1018 455 86.1253 559.398 501.127
530 0 44.0926 11.0903 489 85.5665 558.54 500.067
531 0 46.0453 11.5321 531 79.1394 558.712 499.71
532 0 47.0568 11.1355 524 76.8225 557.777 500.689
533 0 46.0385 10.122 466 78.7961 555.504 501.845
534 0 46.0898 10.1541 468 80.0876 555.464 499.887
535 0 48.0802 10.5865 509 77.444 555.454 499.994
536 0 49.0455 10.9082 535 80.6037 555.351 498.439
537 0 48.0408 9.88742 475 78.4632 556.796 500.059
538 0 50.0796 10.6031 531 76.9812 557.584 496.39
539 0 56.0475 12.2932 689 71.5414 556.721 498.938
540 0 58.0986 12.4099 721 71.104 556.662 498.738
541 0 60.0591 12.3711 743 72.0929 556.462 497.855
542 0 60.0949 11.981 720 73.3361 556.957 496.204
543 0 62.106 12.4143 771 72.9598 557.549 495.911
544 0 63.1865 12.0754 763 74.8676 556.987 496.351
545 0 65.188 12.3489 805 74.8969 556.554 494.653
546 0 67.1111 12.7401 855 74.4971 556.994 494.594
547 0 68.1019 12.4519 848 77.1533 556.883 493.323
548 0 70.2014 12.7063 892 78.4451 557.188 492.024
549 0 73.1088 12.8439 939 79.2162 556.623 490.79
550 0 76.0569 13.1875 1003 79.4506 556.794 488.43
551 0 78.2091 13.0547 1021 81.3536 556.405 487.496
552 0 82.1014 13.2763 1090 81.7578 556.169 486.304
553 0 84.1424 13.2395 1114 82.7962 555.226 484.625
554 1 47.0509 12.0295 566 88.0601 555.947 503.958
555 0 48.0621 12.7335 612 86.1471 556.083 504.601
556 0 49.056 12.6998 623 88.817 556.178 502.843
557 0 51.0546 12.9077 659 87.6555 556.437 502.061
558 0 47.0803 12.2344 576 90.4913 555.868 503.957
559 0 51.0948 12.4474 636 88.6038 555.865 503.39
560 0 52.0244 13.0516 679 88.324 556.299 503.143
561 0 52.0489 12.6227 657 88.8356 555.738 501.633
562 0 55.0874 12.6708 698 89.8453 557.926 500.226
563 0 57.0979 13.0828 747 87.7965 556.325 498.507
564 0 58.0729 12.8976 749 88.9613 555.915 499.497
565 0 60.0746 12.9506 778 89.8779 555.904 498.973
566 0 62.0595 12.8103 795 90.6616 555.889 497.667
567 0 63.0686 12.8273 809 91.1545 556.162 497.833
568 0 65.1394 12.6652 825 92.0267 556.781 496.013
569 0 67.0813 13.4613 903 92.9236 556.468 493.822
570 0 68.0847 12.9398 881 94.6425 556.624 494.151
571 0 70.0841 13.1556 922 96.1095 556.637 492.03
572 0 74.102 13.1575 975 96.5467 555.855 490.794
573 0 75.1502 12.974 975 98.4051 556.476 490.033
574 0 77.1368 13.1325 1013 100.272 556.544 489.052
575 0 80.0996 13.246 1061 100.208 556.561 488.836
576 0 83.1234 13.2093 1098 100.829 555.871 487.015
577 0 84.1158 13.2912 1118 101.254 556.358 486.236
578 0 86.1411 13.3502 1150 104.047 556.218 486.117
579 0 90.2093 13.6128 1228 103.512 556.163 484.297
580 0 94.2367 14.1028 1329 102.884 555.606 482.6
581 0 95.2025 13.4135 1277 105.468 555.641 481.738
582 0 100.261 13.7043 1374 102.092 556.213 480.427
583 1 54.1002 12.8465 695 108.711 557.547 500.209
584 0 56.0871 12.4984 701 110.669 557.749 498.3
585 0 57.0601 11.6369 664 98.1852 556.505 494.021
586 0 59.1022 11.9793 708 97.4958 556.825 493.501
587 0 60.0473 12.0572 724 98.5428 556.88 491.638
588 0 61.0493 12.2032 745 99.7812 555.658 491.599
589 0 67.0301 13.7998 925 107.75 556.269 493.331
590 0 68.1086 12.9059 879 110.642 556.317 492.819
591 0 72.0953 13.8983 1002 105.9 556.121 490.594
592 0 74.1006 13.2658 983 107.44 556.047 490.632
593 0 77.1483 13.3639 1031 110.391 555.146 488.837
594 0 80.0971 13.9581 1118 105.64 554.451 488.231
595 0 83.1251 13.9308 1158 107.231 555.587 486.91
596 0 83.1251 14.003 1164 168.356 556.583 486.965
597 0 87.1472 13.6321 1188 108.018 554.391 484.651
598 0 90.1286 13.8802 1251 106.863 555.157 482.341
599 0 93.1108 13.833 1288 106.452 554.174 481.707
600 0 94.0722 13.2983 1251 109.367 555.026 479.807
601 0 100.085 13.6185 1363 106.139 555.232 479.086
602 1 50.0158 11.5164 576 104.273 555.918 502.719
603 0 53.0499 11.706 621 107.101 555.605 501.436
604 0 52.0571 11.9484 622 104.01 556.458 499.902
605 0 57.0829 12.403 708 106.034 556.042 499.208
606 0 59.0203 12.6397 746 108.576 555.786 496.867
607 0 61.1211 12.7779 781 103.972 556.06 496.503
608 0 63.0647 13.5734 856 102.02 555.646 494.568
609 0 64.0883 13.1537 843 103.721 556.096 492.66
610 0 67.0935 12.9819 871 103.135 555.409 492.138
611 0 67.0922 12.3859 831 105.035 556.002 491.745
612 0 69.0158 12.7072 877 103.591 555.901 492.229
613 0 70.039 13.364 936 101.179 555.505 490.741
614 0 72.0395 12.5903 907 103.802 555.272 488.928
615 0 74.0513 12.9235 957 103.109 554.196 487.843
616 0 78.0894 13.0235 1017 103.351 553.885 486.416
617 0 80.1115 13.1067 1050 102.437 553.79 484.596
618 0 83.146 12.7366 1059 105.543 554.547 483.561
619 0 85.1222 12.7346 1084 103.29 555.009 482.623
620 0 90.1074 12.9512 1167 101.326 554.963 479.469
621 0 91.0975 12.9532 1180 100.616 554.631 478.585
622 0 95.0832 12.5785 1196 98.8344 555.061 478.828
623 0 98.0704 12.9907 1274 96.9505 554.825 476.392
624 0 99.0492 11.9335 1182 99.1371 554.818 474.152
625 1 51.0436 10.9514 559 92.5939 554.522 498.109
626 0 53.0605 10.9498 581 91.1876 554.312 497.649
627 0 55.021 11.123 612 89.2794 554.453 497.794
628 0 55.0406 11.5006 633 87.1043 554.453 496.733
629 0 59.0712 11.2576 665 87.018 554.054 495.726
630 0 59.0879 11.2375 664 87.6009 555.449 494.309
631 0 61.0821 11.0834 677 88.3146 555.867 491.969
632 0 63.1053 11.869 749 87.4232 555.55 492.51
633 0 62.1375 11.378 707 88.9463 554.822 491.379
634 0 67.105 11.3106 759 87.0922 555.481 488.083
635 0 69.0758 11.538 797 96.0991 555.202 486.626
636 0 70.0635 11.8179 828 94.8756 555.769 485.856
637 0 74.1143 11.8331 877 93.1334 556.176 485.336
638 0 75.0951 10.3602 778 87.946 556.737 481.117
639 0 79.1556 13.3787 1059 81.1586 556.615 483.973
640 0 82.2181 12.7223 1046 83.4015 556.198 481.977
641 0 84.1557 12.7264 1071 84.6723 556.565 482.018
642 0 88.06 13.1615 1159 84.3158 556.483 482.136
643 0 89.1125 13.1968 1176 87.7151 557.174 481.071
644 0 91.1246 13.4651 1227 87.5403 556.255 479.755
645 0 95.0954 13.8703 1319 86.4792 556.674 478.104
646 0 96.1351 13.4706 1295 88.417 556.117 475.307
647 0 100.194 13.404 1343 88.5562 556.485 474.253
648 0 102.276 13.9818 1430 88.7049 556.52 472.608
649 0 105.176 13.5012 1420 91.1268 556.889 469.33
650 0 111.4 13.6625 1522 90.5368 557.029 467.997
651 1 61.1009 11.8983 727 86.6066 557.718 493.55
652 0 61.0496 11.6463 711 88.3629 557.167 493.416
653 0 65.0336 12.7011 826 86.9286 557.636 491.851
654 0 66.1936 13.0224 862 89.768 557.5 489.753
655 0 67.1452 12.5996 846 91.3227 556.752 490.989
656 0 71.3006 12.6226 900 90.7656 556.76 490.331
657 0 73.1186 12.6644 926 90.8747 557.194 486.154
658 0 75.2094 12.4851 939 83.3717 557.679 484.632
659 0 78.1161 13.3647 1044 81.3429 557.489 485.592
660 0 78.1683 12.5626 982 82.8187 557.98 484.193
661 0 82.1336 12.8815 1058 81.9168 557.256 482.573
662 0 86.1655 12.2323 1054 82.6556 558.42 480.826
663 0 90.2076 12.704 1146 91.3665 558.028 478.534
664 0 92.2332 12.4359 1147 91.8614 557.567 477.452
665 0 94.1821 12.7625 1202 90.376 557.408 476.213
666 0 95.2475 12.5673 1197 91.1345 557.815 475.294
667 0 100.202 12.2154 1224 90.5392 557.06 472.912
668 0 101.165 12.1484 1229 90.3507 556.543 470.598
669 0 106.175 12.2251 1298 89.9122 556.579 466.979
670 1 55.1388 10.4282 575 83.3965 557.717 492.565
671 0 56.1398 11.8632 666 81.4595 558.225 490.772
672 0 58.132 11.5255 670 79.5463 558.955 493.272
673 0 58.1267 11.4749 667 80.943 558.465 492.477
674 0 60.0697 11.8862 714 80.2185 557.457 492.2
675 0 61.1591 11.1839 684 80.5658 556.838 489.883
676 0 64.0729 11.7835 755 79.6093 556.71 491.274
677 0 65.1133 11.3034 736 80.1114 557.356 489.666
678 0 67.2571 11.4189 768 77.0977 557.32 488.676
679 0 70.1095 11.5962 813 78.7183 557.763 484.967
680 0 72.0862 12.0273 867 80.0842 557.07 484.678
681 0 75.1663 11.6142 873 80.4525 557.747 484.14
682 0 79.0978 12.5414 992 79.4254 557.715 482.49
683 0 79.1743 10.9884 870 84.5379 558.613 481.915
684 0 82.1242 11.5557 949 88.1106 559.497 480.967
685 0 86.1098 12.3795 1066 86.1069 559.425 478.902
686 0 88.2659 11.6693 1030 88.5311 558.599 476.337
687 0 94.2848 12.685 1196 86.3487 558.491 476.691
688 0 96.2993 11.7758 1134 89.6693 558.746 473.031
689 0 100.454 11.8462 1190 90.116 558.345 470.308
690 1 52.2677 10.7715 563 79.7975 559.044 498.705
691 0 53.4053 10.6731 570 81.9123 558.598 494.325
692 0 57.1944 12.0816 691 78.7352 559.027 496.816
693 0 55.2356 11.3152 625 81.9744 559.397 496.995
694 0 58.3006 10.8918 635 83.0693 559.638 495.891
695 0 61.2618 11.9161 730 82.0562 559.015 493.319
696 0 62.2876 11.8322 737 81.9349 558.779 492.57
697 0 65.2564 12.1674 794 81.6121 558.805 492.82
698 0 67.2877 11.7109 788 82.264 558.567 491.654
699 0 70.2769 12.5503 882 80.3107 558.253 490.152
700 0 71.274 11.9258 850 82.5106 558.065 488.367
701 0 74.3472 12.4282 924 81.8972 558.064 488.181
702 0 77.307 12.1593 940 82.583 558.129 487.166
703 0 79.0646 12.2811 971 84.6457 559.06 485.264
704 0 82.0991 12.3631 1015 83.9133 557.941 484.644
705 0 85.1193 12.6763 1079 82.5051 558.483 482.728
706 0 87.2 12.9358 1128 84.2358 557.421 480.901
707 0 89.2847 12.3873 1106 85.5335 556.746 476.678
708 0 92.4931 12.2928 1137 85.4371 557.051 474.206
709 0 94.4578 12.4182 1173 83.9207 556.445 474.887
710 0 97.4308 12.2754 1196 84.7458 556.671 473.309
711 0 101.495 11.9809 1216 84.4778 557.063 471.578
712 0 104.505 13.0903 1368 82.3757 556.121 468.064
713 0 107.522 12.137 1305 84.8414 556.152 466.22
714 1 57.3158 10.3287 592 78.6807 556.316 493.562
715 0 60.222 10.7436 647 79.2828 556.968 492.162
716 0 61.0921 11.409 697 78.2898 557.7 491.496
717 0 63.1648 10.8921 688 77.8183 556.461 490.683
718 0 64.2044 11.1675 717 77.3598 556.573 490.202
719 0 68.1994 11.4664 782 77.0013 556.405 489.395
720 0 68.2542 11.1495 761 78.5624 557.578 488.62
721 0 71.3098 10.826 772 79.2798 556.658 487.176
722 0 78.3862 12.094 948 78.8597 556.632 486.417
723 0 79.2895 12.4607 988 78.9747 556.425 486.263
724 0 80.3028 11.6434 935 81.6909 556.456 483.589
725 0 82.346 11.3302 933 81.9871 556.259 484.534
726 0 84.2576 10.7883 909 83.3608 555.493 482.475
727 0 89.1771 11.8528 1057 82.3377 556.494 481.785
728 0 94.215 12.3759 1166 80.1938 555.987 481.838
729 0 94.118 11.1775 1052 84.0741 555.849 478.191
730 0 97.2919 11.7687 1145 83.8742 556.606 474.75
731 0 103.406 12.301 1272 83.0267 556.432 473.605
732 1 52.1997 10.2874 537 79.054 557.65 499.544
733 0 53.0829 10.7191 569 78.8805 555.763 500.749
734 0 55.0976 11.7065 645 77.0403 557.236 495.971
735 0 58.0432 11.8877 690 75.9348 555.206 494.249
736 0 59.049 11.3126 668 78.1976 556.187 495.484
737 0 60.0357 10.7603 646 79.9536 555.427 492.91
738 0 62.0631 11.7139 727 78.9629 555.897 493.279
739 0 65.0431 11.4386 744 78.8508 556.11 492.978
740 0 68.1101 11.8191 805 77.282 557.261 491.821
741 0 71.0681 11.7915 838 77.0525 557.167 490.218
742 0 73.1118 11.7355 858 77.3392 556.725 489.719
743 0 74.0709 12.11 897 77.5329 555.864 486.758
744 0 77.1114 11.5028 887 78.4487 556.024 487.653
745 0 80.2133 12.5166 1004 76.4343 556.827 484.431
746 0 82.2627 12.2291 1006 78.5567 557.441 480.818
747 0 84.1258 12.6715 1066 80.1417 556.701 483.287
748 0 86.0679 12.6528 1089 82.7447 556.722 481.5
749 0 87.0892 11.6203 1012 85.4664 555.974 479.876
750 0 92.1232 12.2987 1133 84.1968 556.44 475.308
751 0 94.1425 11.6207 1094 85.5868 556.774 474.417
752 0 96.1098 12.1424 1167 86.4404 556.719 473.813
753 0 98.1465 11.9108 1169 87.8375 556.213 473.406
754 0 104.102 12.5165 1303 86.8665 556.664 471.757
755 0 106.073 12.6328 1340 87.5425 557.007 469.942
756 0 108.165 12.407 1342 89.737 557.44 465.739
757 0 108.172 12.3692 1338 134.084 558.443 465.764
758 0 115.217 12.0729 1391 89.9295 557.587 465.066
759 0 119.322 12.6716 1512 90.1303 557.519 462.849
760 0 122.27 12.8077 1566 90.2439 557.911 461.226
761 0 126.334 12.2374 1546 91.5291 557.429 458.891
762 0 131.23 12.6724 1663 90.2117 557.465 457.831
763 0 134.296 12.5022 1679 94.4455 556.592 452.089
764 0 138.362 12.106 1675 94.471 556.864 451.487
765 0 142.31 12.3112 1752 94.5976 556.5 449.745
766 0 148.488 12.7754 1897 93.6236 556.012 445.202
767 0 151.387 12.7025 1923 94.3131 556.334 441.485
768 0 158.429 12.7565 2021 95.7239 556.183 438.887
769 0 161.356 12.7234 2053 96.1232 555.763 434.13
770 0 165.28 12.7662 2110 96.4687 556.223 431.101
771 0 171.359 12.8736 2206 97.0549 555.765 428.766
772 0 174.354 12.2739 2140 99.7364 555.915 423.786
773 0 179.402 12.2183 2192 101.023 555.842 423.037
774 0 184.458 13.2333 2441 99.297 555.426 421.735
775 0 189.567 12.6973 2407 101.949 554.889 414.932
776 0 196.466 12.6383 2483 103.166 556.091 415.159
777 0 200.467 12.8749 2581 102.675 555.724 410.768
778 0 206.492 12.5865 2599 103.309 555.351 409.254
779 0 212.41 12.6124 2679 103.666 555.565 409.29
780 0 224.53 13.3523 2998 100.896 556.194 405.616
781 1 180.521 11.6551 2104 100.348 556.313 428.888
782 0 185.46 12.5903 2335 100.858 555.903 420.827
783 0 191.508 12.1509 2327 100.102 556.129 418.097
784 0 198.626 12.9842 2579 100.027 556.1 415.809
785 0 204.599 12.2337 2503 101.283 555.895 412.592
786 0 213.557 13.1206 2802 99.0796 555.95 410.131
787 0 219.563 12.3928 2721 100.057 556.285 406.37
788 0 228.593 13.0756 2989 98.5102 556.568 402.584
789 0 234.57 12.2394 2871 100.042 556.049 401.866
790 0 244.647 12.7858 3128 97.5639 556.39 399.858
791 0 252.456 12.6557 3195 98.5186 556.501 395.026
792 1 210.615 12.1217 2553 97.5257 556.378 413.542
793 0 215.612 12.1932 2629 98.2244 556.386 408.583
794 0 223.627 13.2855 2971 94.9317 556.51 407.088
795 0 228.648 12.5958 2880 96.2115 556.618 402.511
796 0 237.68 13.3078 3163 94.8685 556.76 398.523
797 0 245.674 12.7201 3125 96.6336 557.063 394.842
798 0 251.658 12.9422 3257 97.1931 557.094 390.385
799 0 261.736 13.3723 3500 96.2611 557.395 387.819
800 1 220.671 9.16749 2023 96.3801 557.93 425.635
801 1 201.51 11.0168 2220 95.1851 557.313 422.174
802 1 66.0443 10.9018 720 85.5111 559.581 481.617
803 0 68.0604 11.2253 764 84.2919 558.665 481.664
804 0 74.1281 11.1294 825 80.5442 558.668 486.221
805 0 75.1256 10.7154 805 81.7106 558.44 487.12
806 0 76.1748 11.2111 854 82.2295 558.828 484.278
807 0 79.055 11.7387 928 84.1024 558.421 483.689
808 0 82.1028 11.376 934 83.0824 559.31 482.211
809 0 83.1047 11.5758 962 83.9376 558.771 482.287
810 0 86.0317 10.5078 904 86.7765 557.975 481.081
811 0 90.0578 11.1595 1005 85.3473 557.56 477.355
812 0 93.0623 11.401 1061 85.393 557.202 476.286
813 0 94.1194 10.8479 1021 84.9902 557.332 475.349
814 0 97.1121 11.0182 1070 84.8598 557.05 474.618
815 0 100.141 11.6835 1170 84.0863 556.987 472.395
816 0 105.109 11.7878 1239 81.9144 556.922 470.992
817 1 54.0171 10.0709 544 84.0294 558.081 498.121
818 0 56.1617 9.66852 543 80.9227 557.744 496.803
819 0 59.0229 11.1652 659 80.2731 557.351 496.114
820 0 61.0545 11.629 710 79.1254 557.627 493.22
821 0 65.1723 11.6921 762 83.9409 555.757 493.024
822 0 66.0456 12.2037 806 85.304 557.921 488.499
823 0 67.0378 11.0684 742 87.6941 557.84 489.518
824 0 69.0441 11.7171 809 85.8616 557.241 485.44
825 0 72.0444 11.8816 856 85.3049 556.847 488.717
826 0 75.0677 11.3498 852 85.7242 556.982 487.272
827 0 78.0357 12.3021 960 84.0406 556.85 486.733
828 0 79.0584 11.346 897 86.359 556.929 485.381
829 0 81.0836 12.1726 987 83.9899 557.236 485.01
830 0 83.0984 12.9004 1072 82.5215 557.352 484.62
831 0 86.0982 12.6716 1091 83.8552 556.675 482.133
832 0 89.0836 12.3367 1099 85.1893 556.773 481.546
833 0 92.0887 12.8789 1186 85.0599 556.669 478.121
834 0 94.1165 13.1114 1234 83.1216 557.13 481.071
835 0 97.1337 13.1159 1274 83.9309 556.329 477.031
836 0 98.1083 12.5575 1232 85.9497 556.132 477.138
837 0 101.203 12.4996 1265 87.015 556.056 472.72
838 0 104.154 12.5871 1311 88.3982 556.026 470.361
839 0 105.165 12.8845 1355 88.5845 555.559 467.489
840 0 111.234 12.9457 1440 87.2424 554.281 467.169
841 0 112.216 13.1711 1478 88.5108 554.656 464.299
842 0 113.221 12.0914 1369 84.5763 554.755 467.624
843 1 58.0573 10.3174 599 84.7429 553.561 489.663
844 0 58.0379 10.7516 624 84.4006 554.252 484.886
845 0 59.027 9.89378 584 75.5223 554.897 488.122
846 0 62.0263 11.0921 688 80.7762 555.304 491.374
847 0 66.0601 11.1716 738 80.5014 554.248 490.993
848 0 67.0603 11.3331 760 80.4671 555.124 490.05
849 0 71.1149 11.8681 844 78.7583 555.5 487.344
850 0 72.1324 11.6175 838 78.9714 554.785 485.407
851 0 74.1595 11.9472 886 77.3544 555.53 485.519
852 0 75.1701 10.6558 801 80.1511 555.803 483.779
853 0 77.0987 10.6487 821 80.5335 555.536 484.626
854 0 81.1905 11.1713 907 80.634 555.627 482.233
855 0 84.1447 11.4327 962 80.1195 555.939 481.115
856 0 88.2402 11.514 1016 79.7982 555.601 479.885
857 0 91.2015 11.9845 1093 79.3586 555.946 478.84
858 0 92.1458 11.9376 1100 81.4027 555.803 476.879
859 0 96.2011 12.0997 1164 80.646 555.745 476.328
860 0 97.1435 11.9205 1158 81.4611 555.566 474.34
861 0 100.128 12.0745 1209 80.7734 555.678 472.043
862 0 101.144 12.0324 1217 82.3098 555.21 470.341
863 0 105.114 12.8337 1349 79.9066 556.033 468.934
864 0 109.143 12.7539 1392 80.2838 556.284 469.221
865 0 111.221 12.5786 1399 80.6891 555.679 466.897
866 0 115.129 12.36 1423 81.4491 555.752 463.561
867 0 118.172 12.5411 1482 81.3671 555.341 461.73
868 0 120.254 11.8583 1426 82.2153 555.231 459.136
869 0 126.287 12.3924 1565 81.715 555.594 457.702
870 0 128.388 12.0495 1547 83.0743 555.939 454.315
871 1 71.2211 11.5977 826 78.9697 556.345 487.476
872 0 72.2863 11.496 831 79.7341 556.073 485.384
873 0 75.1968 12.0351 905 79.1757 556.117 484.474
874 0 77.1449 12.0293 928 78.4483 555.762 483.152
875 0 83.229 13.7933 1148 75.0322 556.251 481.729
876 0 83.2047 12.7998 1065 78.9681 555.683 481.507
877 0 86.2542 12.1153 1045 80.1273 556.218 480.642
878 0 87.1942 12.1797 1062 79.9068 555.938 479.984
879 0 91.1952 12.3252 1124 79.7304 554.929 477.835
880 0 94.1484 12.5228 1179 78.6285 555.277 479.023
881 0 97.1614 12.1756 1183 79.6162 555.235 475.477
882 0 100.141 12.4624 1248 79.2204 555.615 475.104
883 0 104.195 12.467 1299 79.1209 555.267 473.278
884 0 107.186 12.3524 1324 79.2644 555.329 469.074
885 0 110.258 12.2803 1354 78.9727 555.45 470.375
886 0 112.324 11.5737 1300 78.9131 555.195 467.901
887 0 118.261 12.836 1518 76.7727 555.479 465.596
888 1 66.1385 12.5192 828 81.2766 556.074 489.833
889 0 66.0725 13.0917 865 81.9376 555.615 488.647
890 0 70.1172 13.3919 939 81.0096 555.426 486.293
891 0 68.1769 12.2769 837 77.3656 555.081 488.889
892 0 71.0476 11.5697 822 76.6995 554.394 487.995
893 0 74.0945 12.0387 892 77.7881 555.539 486.988
894 0 75.1061 11.77 884 78.3529 554.738 485.359
895 0 78.0767 11.5527 902 79.653 554.839 482.134
896 0 82.0875 12.3039 1010 77.4545 554.748 483.081
897 0 85.113 11.8431 1008 78.6429 554.006 479.243
898 0 87.1132 11.353 989 79.2326 554.536 478.624
899 0 90.0391 11.7838 1061 79.1583 554.566 478.083
900 0 93.1015 12.2769 1143 76.7918 555.446 477.177
901 0 96.0909 12.4674 1198 79.3539 554.757 474.034
902 0 100.143 12.592 1261 79.6051 554.818 471.73
903 0 103.067 12.9527 1335 79.7019 555.076 470.696
904 0 105.162 13.075 1375 79.7622 555.382 466.447
905 0 108.168 12.8227 1387 81.8493 556.068 466.862
906 0 112.105 12.3634 1386 83.0887 556.265 464.921
907 0 117.182 13.5771 1591 80.9692 557.595 461.071
908 0 120.15 13.2418 1591 83.3979 555.977 460.849
909 0 123.185 13.7355 1692 83.4314 555.317 458.196
910 0 129.214 13.5744 1754 85.0279 555.862 455.326
911 0 132.14 13.7505 1817 85.902 555.921 455.185
912 1 71.1485 12.3544 879 83.4858 557.35 485.671
913 0 72.0639 12.4334 896 86.7054 557.917 484.301
914 0 72.0364 11.4803 827 80.1548 556.554 474.866
915 0 74.0691 11.6783 865 77.9873 556.312 479.191
916 0 78.0841 12.5121 977 76.8659 556.338 476.626
917 0 82.1367 13.4288 1103 81.2466 556.968 479.899
918 0 85.1045 13.8888 1182 79.8063 556.609 480.292
919 0 85.1568 13.7276 1169 80.8546 556.994 477.06
920 0 90.074 13.6887 1233 81.5247 556.972 474.686
921 0 92.1103 13.4187 1236 82.4887 556.514 473.584
922 0 96.1686 13.5075 1299 82.7744 557.093 475.171
923 0 97.1392 13.0946 1272 84.2131 557.04 475.647
924 0 100.139 13.2615 1328 84.491 556.422 474.065
925 0 104.211 13.6069 1418 84.3089 556.195 470.685
926 0 105.147 13.2291 1391 86.1093 556.173 468.573
927 0 105.145 13.2483 1393 140.674 556.174 468.578
928 0 113.145 13.4782 1525 86.2151 556.31 465.545
929 0 118.136 14.6018 1725 83.7983 556.126 463.551
930 0 121.183 13.723 1663 86.0006 555.987 464.937
931 0 125.144 14.1357 1769 85.7824 556.065 461.551
932 0 128.173 14.3556 1840 91.0326 555.488 461.487
933 0 132.135 14.5533 1923 90.9236 555.608 456.134
934 0 136.146 13.7499 1872 90.9263 554.624 456.517
935 0 141.203 14.1569 1999 91.6858 554.577 452.888
936 0 146.239 14.1207 2065 90.8625 554.316 448.798
937 0 147.21 13.2192 1946 88.519 553.502 441.137
938 0 152.131 13.6133 2071 88.761 553.483 439.52
939 0 156.191 13.9893 2185 87.913 553.246 438.36
940 0 157.208 12.633 1986 93.5569 553.438 435.658
941 0 163.336 13.0467 2131 92.5228 552.672 431.254
942 0 168.325 12.862 2165 95.4693 552.625 430.676
943 0 175.327 13.7914 2418 93.8706 552.617 429.766
944 0 181.352 13.1347 2382 93.1331 553.004 429.921
945 1 97.1959 11.2968 1098 89.3707 553.24 465.621
946 0 99.1564 10.8011 1071 91.0205 553.008 462.81
947 0 100.101 11.1188 1113 82.3468 552.59 467.514
948 0 103.087 11.5242 1188 83.9562 552.816 462.386
949 0 112.143 11.7617 1319 85.188 554.603 468.992
950 0 116.178 12.3001 1429 81.1924 554.143 462.724
951 0 119.096 11.4025 1358 94.3925 554.221 464.272
952 0 125.101 12.5978 1576 94.6402 554.994 460.398
953 0 128.187 12.0215 1541 97.7872 555.786 457.987
954 0 133.168 12.8634 1713 98.948 554.156 457.475
955 0 137.275 12.7554 1751 100.473 554.376 454.391
956 0 144.233 12.9998 1875 87.8512 553.966 452.044
957 0 148.368 12.8532 1907 89.4436 553.783 451.17
958 0 153.262 13.4476 2061 89.8054 554.557 446.373
959 0 157.258 12.8133 2015 91.6531 554.799 443.401
960 0 162.21 12.94 2099 92.5179 554.977 440.465
961 0 167.283 13.1454 2199 88.6353 554.746 438.822
962 0 172.141 13.5587 2334 88.3976 554.347 435.111
963 0 176.241 13.5666 2391 90.6729 554.179 432.313
964 0 182.341 13.3925 2442 92.0053 554.146 428.744
965 0 185.366 13.1793 2443 91.4044 554.339 427.252
966 0 191.286 13.4929 2581 92.3537 554.982 428.216
967 0 197.281 13.0068 2566 93.3628 553.989 421.398
968 0 203.27 14.0601 2858 91.654 554.083 415.913
969 0 208.351 12.8149 2670 94.7318 554.452 417.181
970 0 216.421 12.9377 2800 94.2589 554.324 407.934
971 0 223.503 13.3869 2992 93.742 554.634 406.719
972 0 231.293 13.5283 3129 99.2761 554.308 407.489
973 0 237.284 14.1855 3366 96.9712 554.832 402.849
974 0 243.237 13.5095 3286 100.656 554.725 395.582
975 1 190.268 11.7361 2233 100.522 555.284 424.701
976 0 196.365 11.5397 2266 99.7538 555.222 418.508
977 0 204.183 12.3663 2525 98.4745 555.152 415.462
978 0 209.418 12.8833 2698 98.798 554.588 409.453
979 0 216.212 13.9076 3007 109.788 555.437 408.705
980 0 223.333 12.994 2902 114.759 555.852 406.655
981 0 230.314 12.8911 2969 114.894 556.454 406.787
982 0 238.436 13.966 3330 116.209 555.899 399.727
983 0 247.343 14.5183 3591 104.904 556.18 394.243
984 0 252.503 13.7107 3462 108.359 555.4 393.679
985 0 261.516 13.7047 3584 110.532 555.947 388.275
986 0 268.508 13.7166 3683 111.882 555.706 380.802
987 0 278.639 13.9069 3875 112.463 555.562 376.576
988 0 287.668 14.7357 4239 110.809 556.328 370.067
989 0 296.675 14.4131 4276 112.866 555.638 366.557
990 0 303.749 13.7449 4175 115.597 555.621 361.431
991 0 312.5 16.016 5005 108.305 554.401 352.663
992 0 321.705 16.4188 5282 110.925 554.852 341.363
993 0 329.532 15.7314 5184 115.015 554.97 336.923
994 0 339.546 15.7151 5336 116.09 554.548 331.703
995 0 353.62 16.3707 5789 112.283 554.434 328.644
996 1 156.353 10.9688 1715 110.452 555.634 434.451
997 0 161.365 12.4067 2002 107.577 556.118 430.582
998 0 160.225 11.5588 1852 102.658 557.117 428.292
999 0 165.244 11.25 1859 103.959 556.37 425.727
1000 0 173.279 11.0458 1914 104.059 556.2 422.48
1001 0 176.282 11.5213 2031 104.055 556.02 418.982
1002 0 184.243 11.4631 2112 103.556 556.1 415.476
1003 0 187.251 11.8397 2217 104.935 556.113 408.575
1004 0 192.32 11.5537 2222 107.677 556.197 403.119
1005 0 192.383 9.23676 1777 114.118 555.169 407.227
1006 1 31.0096 7.35255 228 76.7719 560.215 491.588
1007 0 38.0911 8.61094 328 78.8506 556.723 502.226
1008 0 38.1158 9.41866 359 76.7716 557.83 505.532
1009 0 38.0947 8.82012 336 78.5357 557.018 506.682
1010 0 40.1522 9.51381 382 78.911 557.728 504.953
1011 0 37.172 9.17358 341 82.1056 556.833 503.918
1012 0 38.1851 9.40157 359 82.4095 556.496 503.733
1013 0 39.1597 9.93367 389 80.6735 555.877 504.71
1014 0 38.1146 9.83875 375 82.4293 556.429 505.629
1015 0 39.1423 10.4235 408 81.0466 556.12 506.424
1016 0 39.1986 8.87787 348 83.4569 556.557 508.437
1017 0 39.1392 9.68338 379 85.5805 556.807 506.396
1018 0 39.1037 9.02729 353 85.3994 557.686 507.686
1019 0 40.0418 9.91464 397 85.2292 557.899 506.123
1020 0 40.0975 10.275 412 84.6456 557.66 506.643
1021 0 39.0132 9.97099 389 87.2545 559.234 505.586
1022 0 39.0425 10.0147 391 86.9872 559.432 506.054
1023 0 39.0508 10.2431 400 87.2125 559.332 505.912
1024 0 40.016 10.071 403 87.6749 559.3 506.136
1025 0 42.0171 10.3053 433 83.8891 559.111 504.249
1026 0 41.0283 9.87124 405 85.7407 558.252 504.358
1027 0 39.0126 9.58666 374 87.8021 558.361 506.128
1028 0 40.0264 9.56867 383 88.6266 558.319 505.554
1029 0 41.0738 9.56815 393 88.4962 558.102 504.125
1030 0 40.0131 10.0217 401 88.6185 557.594 503.898
1031 0 39.0228 9.43039 368 87.6658 557.75 506.06
1032 0 41.0814 9.71243 399 86.802 557.872 505.414
1033 0 40.03 9.94255 398 87.2588 557.97 503.789
1034 0 40.0709 8.83434 354 88.2797 557.782 505.492
1035 0 41.0111 8.92442 366 87.7705 557.929 504.863
1036 0 41.0736 9.51949 391 85.8465 557.468 504.918
1037 0 42.0427 9.82335 413 85.2736 557.373 503.768
1038 0 41.0465 9.55014 392 84.6531 557.449 505.383
1039 0 41.0653 9.01004 370 84.6027 556.954 504.865
1040 0 40.0744 8.95833 359 84.429 556.916 503.657
1041 0 40.023 8.42016 337 84.3294 557.504 504.721
1042 0 40.0235 9.16962 367 82.8583 557.807 503.981
1043 0 41.0649 9.18058 377 81.5119 558.103 503.316
1044 0 42.038 9.22975 388 80.8943 558.026 502.735
1045 0 41.041 9.21031 378 83.1905 558.063 503.151
1046 0 41.0153 8.99665 369 82.6938 557.949 502.558
1047 0 43.0448 8.85124 381 80.8373 558.37 501.559
1048 0 41.0856 9.17597 377 81.7056 558.005 503.09
1049 0 42.0653 8.84339 372 80.75 556.648 504.29
1050 0 44.0454 9.51292 419 76.6635 557.427 500.661
1051 0 44.0149 9.72398 428 75.9509 557.178 500.605
1052 0 46.0429 11.3807 524 71.2004 557.424 501.504
1053 0 46.0429 11.4024 525 70.781 557.288 501.528
1054 0 47.0461 11.7332 552 70.6957 557.31 502.482
1055 0 45.0438 10.7895 486 73.1152 557.973 501.817
1056 0 46.0304 11.3838 524 71.2824 558.204 503.552
1057 0 45.0572 11.1636 503 71.1173 557.716 503.223
1058 0 45.0325 10.6146 478 71.5607 557.144 503.04
1059 0 46.0421 10.9465 504 69.7202 557.673 503.242
1060 0 45.0766 10.7373 484 70.0702 557.932 505.355
1061 0 44.0195 10.1092 445 70.2607 557.634 503.8
1062 0 44.0494 11.192 493 69.0081 557.767 504.753
1063 0 43.1674 9.31258 402 73.4279 557.306 506.502
1064 0 44.1009 10.0678 444 72.2748 556.993 504.045
1065 0 43.0569 9.42939 406 71.5468 556.631 504.958
1066 0 44.1542 9.14975 404 71.6881 556.386 503.913
1067 0 45.1121 10.6623 481 68.1455 556.975 503.62
1068 0 45.0512 10.6545 480 67.4646 556.988 505.333
1069 0 45.0969 9.49067 428 68.8084 557.112 504.446
1070 0 42.0496 8.94181 376 69.3112 556.934 505.481
1071 0 43.129 8.74121 377 68.878 556.284 505.671
1072 0 43.0628 8.91722 384 68.224 556.987 502.904
1073 0 43.0265 8.50639 366 68.9536 557.191 505.057
1074 0 45.1192 10.439 471 65.7452 556.962 504.652
1075 0 44.1058 9.88531 436 66.2546 557.271 507.399
1076 0 42.0874 8.48236 357 66.098 556.504 505.877
1077 0 44.0519 9.85202 434 63.8272 556.774 503.332
1078 0 42.0803 8.74519 368 65.3505 556.601 504.658
1079 0 43.0888 8.61013 371 64.7089 557.084 505.164
1080 0 43.0854 8.07698 348 65.2328 556.517 505.753
1081 0 44.1371 8.88141 392 64.8878 556.533 502.158
1082 0 43.1888 9.58581 414 63.3841 556.812 504.954
1083 0 44.1461 8.17738 361 64.8144 556.493 506.036
1084 0 44.2364 9.92395 439 62.385 556.595 503.503
1085 0 46.1809 8.53166 394 61.7437 556.83 505.091
1086 0 45.0205 9.90661 446 61.1996 556.955 502.54
1087 1 154.387 10.9465 1690 75.9178 556.956 439.17
1088 1 109.164 10.9193 1192 81.2685 556.458 424.394
1089 0 108.185 8.99383 973 97.6197 556.029 426.097
1090 0 105.406 9.40171 991 80.0454 557.09 467.518
1091 0 106.529 9.0586 965 87.0456 556.33 465.184
