time division length width area intensity CMx CMy
0 0 52.1162 13.4123 699 74.7139 490.272 489.95
1 0 53.0629 13.4557 714 76.7549 489.846 488.346
2 0 55.1343 13.5669 748 76.881 490.767 488.684
3 0 57.1362 13.004 743 79.2974 489.884 488.37
4 0 58.1961 13.2827 773 79.3364 490.77 487.563
5 0 60.1962 13.3729 805 80.0807 490.501 487.491
6 0 61.1066 13.1901 806 80.1948 490.667 487.257
7 0 63.07 13.3978 845 81.3266 490.315 486.574
8 0 65.0694 13.0937 852 82.0094 490.173 486.249
9 0 65.071 12.8629 837 84.2091 490.32 486.031
10 0 68.0565 13.1068 892 83.7074 489.358 484.742
11 0 69.0596 13.8576 957 81.6803 488.79 484.077
12 0 72.1089 13.0081 938 84.5053 489.643 483.432
13 0 74.1044 13.373 991 82.9455 489.036 481.076
14 0 75.092 12.8909 968 85.2118 488.722 480.773
15 0 79.0895 13.2634 1049 86.3012 488.654 478.93
16 0 82.1302 13.4786 1107 84.1626 489.19 480.104
17 1 45.0729 12.3134 555 91.4559 488.468 495.665
18 0 44.0928 12.7912 564 90.3511 488.507 495.147
19 0 46.1282 12.4653 575 92.4174 487.937 493.998
20 0 47.0421 13.1372 618 84.5712 488.117 494.523
21 0 46.0322 12.274 565 90.7221 487.676 495.034
22 0 48.0152 12.9751 623 88.809 486.896 493.883
23 0 50.0186 13.1751 659 87.1821 487.921 493.552
24 0 51.1135 12.4625 637 90.0958 487.013 492.608
25 0 52.0287 13.0505 679 90.3859 487.798 491.043
26 0 52.0469 13.2188 688 90.2587 488.121 489.026
27 0 54.0234 12.8463 694 91.1801 487.974 489.445
28 0 56.0675 12.1104 679 91.4256 488.081 489.882
29 0 58.0186 12.7545 740 89.8135 487.146 489.665
30 0 60.0737 13.5334 813 87.9557 487.141 488.181
31 0 61.076 13.8188 844 88.3993 487.192 487.201
32 0 63.0654 13.5891 857 88.6359 486.854 486.84
33 0 66.0877 13.8755 917 87.2694 486.621 487.009
34 0 68.098 13.4071 913 88.2432 486.801 485.62
35 0 70.115 13.4636 944 87.6769 487.232 486.007
36 0 70.0601 13.4313 941 88.39 487.582 483.573
37 0 75.099 12.8098 962 88.5312 486.551 482.699
38 0 77.1775 13.5273 1044 87.2557 487.406 481.4
39 0 79.1355 13.9507 1104 86.1649 487.101 479.098
40 0 80.074 13.4376 1076 89.6812 487.213 477.746
41 0 83.1476 13.5542 1127 90.3443 486.859 477.336
42 0 87.0954 13.2613 1155 90.8545 486.961 476.806
43 0 89.1442 13.5847 1211 89.7647 487.056 476.003
44 0 93.0598 13.8406 1288 89.3385 486.776 472.128
45 0 98.1055 14.5558 1428 85.9545 486.216 471.451
46 0 100.125 14.6217 1464 85.3627 486.519 468.977
47 0 102.134 14.2166 1452 85.8464 486.385 469.28
48 0 106.167 14.2888 1517 85.733 486.69 467.39
49 0 110.134 14.2735 1572 86.8804 486.631 464.585
50 0 114.122 14.6861 1676 87.2977 486.402 461.01
51 1 69.1287 13.0047 899 90.1179 486.991 484.412
52 0 73.1831 13.2954 973 88.9332 487.653 481.639
53 0 75.129 13.4569 1011 89.3482 486.432 481.371
54 0 77.1865 13.4479 1038 88.4942 487.362 480.773
55 0 79.2138 13.7097 1086 87.7081 487.089 478.685
56 0 82.119 14.0284 1152 88.7231 487.722 475.69
57 0 86.1641 13.9501 1202 87.7346 487.524 472.819
58 0 88.0733 14.0905 1241 87.7631 487.528 473.961
59 0 91.1314 14.0896 1284 88.1526 488.311 472.068
60 0 94.0823 13.9665 1314 87.2374 487.348 470.355
61 0 98.0712 14.204 1393 86.4264 487.271 469.136
62 0 102.089 14.0858 1438 91.3463 487.435 466.003
63 0 103.212 13.9809 1443 92.5787 486.243 463.834
64 0 108.214 13.5934 1471 93.4738 486.097 462.408
65 0 113.122 14.2766 1615 88.7975 486.718 461.468
66 0 114.16 13.411 1531 95.0699 486.287 457.85
67 0 119.199 14.1528 1687 91.6663 486.961 455.584
68 0 122.273 13.7233 1678 93.7646 487.25 452.192
69 0 126.263 14.3906 1817 92.8481 487.171 451.345
70 0 128.153 13.796 1768 91.634 487.743 452.731
71 0 133.192 13.8897 1850 90.8341 487.657 450.956
72 0 136.135 13.7363 1870 91.1048 487.687 447.916
73 0 143.126 13.6663 1956 92.3686 487.663 447.03
74 0 145.091 13.2331 1920 94.2318 486.74 441.44
75 0 145.211 12.0515 1750 94.4331 486.362 434.321
76 0 151.183 12.7197 1923 92.6032 485.976 429.62
77 0 156.178 13.0172 2033 93.5032 485.786 424.566
78 1 86.1661 11.7099 1009 90.442 486.463 466.996
79 0 91.1376 13.0243 1187 86.7574 487.03 471.162
80 0 93.1209 12.7898 1191 85.1595 488.076 471.521
81 0 96.1474 12.2416 1177 86.723 488.301 468.206
82 0 98.1501 12.165 1194 86.5494 488.27 466.616
83 0 104.156 13.403 1396 81.9678 487.88 466.221
84 0 106.179 12.8557 1365 83.3143 488.089 465.352
85 0 111.11 13.3471 1483 82.5084 487.672 463.951
86 0 116.13 13.2955 1544 79.7992 488.277 461.288
87 1 63.101 11.0299 696 78.0216 489.086 486.632
88 0 63.101 11.0299 696 134.717 488.07 486.694
89 0 66.0377 11.8569 783 74.8659 487.036 485.097
90 0 69.0761 12.0013 829 73.6116 488.569 485.185
91 0 69.0314 10.9081 753 76.8181 487.544 484.927
92 0 70.0532 10.8774 762 78.7231 488.037 483.243
93 0 73.0471 10.7191 783 79.3665 487.99 481.331
94 0 76.1718 11.4478 872 78.8429 487.769 481.422
95 0 79.1492 11.5099 911 79.8123 489.247 478.639
96 0 80.1216 10.7087 858 83.3019 488.542 477.392
97 0 83.0424 11.4761 953 80.9895 486.929 476.107
98 0 88.1143 11.2695 993 81.0806 487.375 474.127
99 0 88.1572 11.5022 1014 81.5266 488.018 471.798
100 0 91.2154 12.0813 1102 81.5299 488.254 471.098
101 0 93.2158 10.8136 1008 84.752 488.861 468.266
102 0 98.1228 11.1289 1092 84.3718 487.935 468.414
103 0 101.197 11.5814 1172 83.8532 488.142 466.55
104 0 106.2 11.8173 1255 82.4183 488.359 463.426
105 0 110.154 11.9106 1312 82.8072 488.119 461.082
106 1 62.0572 10.0875 626 82.0256 489.304 485.778
107 0 62.048 11.9746 743 78.4643 488.599 485.223
108 0 67.0737 11.8675 796 77.5289 488.643 484.376
109 0 66.1133 11.5257 762 76.7441 487.883 484.823
110 0 64.0639 10.9266 700 80.1886 487.321 485.047
111 0 67.0329 11.0394 740 81.1743 488.709 483.646
112 0 70.0464 10.5216 737 81.3948 489.012 484.628
113 0 71.0612 11.075 787 81.122 488.654 482.119
114 0 74.0936 11.499 852 80.7864 489.073 480.919
115 0 77.1114 11.827 912 80.6316 488.826 477.379
116 0 79.0514 11.638 920 81.3022 488.729 478.205
117 0 82.1041 11.1809 918 82.0468 488.8 478.357
118 0 86.2362 12.3614 1066 80.3068 488.058 476.073
119 0 88.2243 12.0035 1059 81.8432 488.007 475.415
120 0 91.1796 12.3273 1124 80.4609 488.046 474.892
121 0 93.2897 12.5844 1174 81.3612 487.959 471.811
122 0 97.1683 11.9381 1160 82.55 488.204 470.661
123 0 99.1599 11.9706 1187 83.2384 488.084 469.361
124 0 102.092 11.7149 1196 84.4482 488.484 466.37
125 0 107.233 11.8714 1273 83.7612 488.871 464.775
126 1 55.0289 11.0124 606 84.8432 488.079 488.205
127 0 59.0515 11.6001 685 81.5839 489.658 488.451
128 0 59.0436 11.771 695 81.4317 489.587 488.249
129 0 60.1076 11.6791 702 77.0356 487.618 489.697
130 0 63.1484 12.5261 791 73.1694 488.918 488.021
131 0 61.1013 11.8164 722 75.3504 488.69 488.438
132 0 63.1025 11.7745 743 74.3203 487.217 487.468
133 0 64.2177 11.5233 740 75.4432 488.028 486.776
134 0 66.0762 11.6683 771 74.8872 488.856 485.977
135 0 69.1118 12.6896 877 72.1904 488.259 485.941
136 0 70.0998 12.1256 850 73.4471 488.572 485.219
137 0 73.1085 12.1737 890 75.5697 488.171 484.244
138 0 76.111 11.9694 911 76.3205 487.529 481.607
139 0 76.0867 11.6446 886 78.3363 487.07 481.816
140 0 82.1391 12.0649 991 77.1211 487.588 479.616
141 0 84.127 12.7783 1075 76.9721 486.536 479.837
142 0 87.088 12.7572 1111 79.5914 486.53 477.866
143 0 88.0691 12.2745 1081 82.1406 487.36 478.481
144 0 92.1274 12.0268 1108 82.6047 486.956 473.708
145 0 94.098 12.8589 1210 82.2884 487.047 475.445
146 0 98.0902 12.7332 1249 83.2562 486.058 473.866
147 0 100.15 12.8107 1283 84.0631 486.899 472.171
148 0 105.183 13.0344 1371 82.0102 486.112 470.118
149 0 108.108 12.506 1352 83.5104 486.657 469.188
150 1 61.0518 11.695 714 83.6513 487.192 488.259
151 0 61.1056 11.7829 720 82.9597 487.625 488.421
152 0 64.1431 12.9242 829 81.7961 487.331 486.657
153 0 66.2952 12.9723 860 80.4919 487.18 485.379
154 0 68.0636 12.9879 884 78.526 487.066 487.157
155 0 70.1168 13.449 943 78.1813 487.045 485.94
156 0 70.0852 13.2981 932 80.6041 487.047 483.652
157 0 72.1322 13.295 959 81.5005 486.88 482.834
158 0 76.1001 13.272 1010 77.9772 487.023 483.078
159 0 76.1605 13.2615 1010 81.097 486.824 481.704
160 0 79.1338 13.3192 1054 82.6376 486.824 479.727
161 0 82.0339 12.7752 1048 85.0286 486.924 479.593
162 0 85.1634 13.2099 1125 83.6773 486.509 478.49
163 0 86.1029 13.2864 1144 84.2753 485.163 477.955
164 0 89.1556 12.6408 1127 84.449 484.604 475.594
165 0 94.1573 13.0739 1231 81.2583 485.435 474.308
166 0 97.0835 13.2978 1291 89.2215 485.859 469.316
167 0 100.191 13.4343 1346 90.2935 487.074 468.285
168 1 53.0227 10.7124 568 88.9947 487.424 493.572
169 0 55.0727 11.4939 633 87.6224 487.542 491.362
170 0 54.0383 11.6769 631 84.3978 487.062 490.612
171 0 56.0248 11.9947 672 78.6905 487.387 490.055
172 0 58.0963 12.1006 703 76.3883 487.094 488.511
173 0 59.0985 12.0984 715 76.9077 486.842 489.621
174 0 60.1211 12.2752 738 75.0352 487.224 488.804
175 0 61.1188 11.6331 711 76.7004 486.997 487.421
176 0 63.1627 11.8899 751 75.8349 486.712 487.13
177 0 65.1182 11.6864 761 76.2181 487.112 486.009
178 0 66.1646 11.3505 751 78.0732 486.827 484.381
179 0 68.1502 12.1203 826 76.8438 487.087 482.632
180 0 72.0974 12.0809 871 76.6693 486.805 482.588
181 0 73.1203 11.9256 872 77.6216 486.956 481.537
182 0 75.1199 11.901 894 79.6443 486.942 480.521
183 0 78.2345 11.4655 897 80.7146 486.357 478.058
184 0 82.1369 12.674 1041 78.1691 486.547 478.152
185 0 83.1331 11.5718 962 80.5572 487.023 476.926
186 0 87.1117 12.3749 1078 78.2625 486.934 475.643
187 0 88.1601 12.0803 1065 77.723 487.137 474.22
188 0 91.1749 11.6479 1062 78.242 486.976 475.127
189 0 93.1106 11.5884 1079 78.3105 487.229 471.448
190 0 96.0888 11.5726 1112 78.8004 486.066 468.256
191 0 100.141 12.2926 1231 76.5361 485.756 467.9
192 0 100.185 11.2292 1125 78.7529 485.179 468.145
193 0 105.142 11.784 1239 77.0145 485.476 464.944
194 0 108.151 11.5209 1246 78.8323 485.352 464.555
195 0 113.144 11.7108 1325 76.4755 485.51 463.725
196 1 60.1166 9.89743 595 76.0151 486.896 488.471
197 0 61.0409 10.4192 636 76.8443 485.954 486.536
198 0 65.0656 10.9428 712 73.8497 486.413 485.343
199 0 65.1175 11.7326 764 75.7539 485.453 485.243
200 0 64.0332 11.291 723 78.6376 484.346 484.237
201 0 67.086 12.074 810 77.3395 483.485 482.786
202 0 71.0593 12.5951 895 95.4291 484.222 484.511
203 0 73.0547 12.0594 881 96.202 484.027 482.269
204 0 74.1084 12.2523 908 97.1145 484.004 480.811
205 0 77.1388 12.0562 930 96.6151 484.312 478.668
206 0 80.1553 12.4508 998 96.7986 484.345 477.431
207 0 80.0669 12.9267 1035 96.2947 484.275 476.442
208 0 85.0626 12.626 1074 93.1415 483.993 476.835
209 0 87.1421 12.9214 1126 92.5213 484.249 473.758
210 0 88.046 12.1527 1070 96.3664 483.74 473.475
211 0 92.1 12.5733 1158 94.1969 484.065 472.172
212 0 95.2351 12.5479 1195 96.7498 484.823 471.764
213 0 96.1965 12.3497 1188 98.0724 484.364 470.362
214 0 100.227 13.0104 1304 96.1649 484.286 466.982
215 0 103.25 13.3074 1374 94.8777 484.159 465.578
216 0 106.293 12.3997 1318 94.4272 484.295 466.882
217 0 108.289 12.1803 1319 95.2373 483.733 462.278
218 0 111.306 11.437 1273 94.542 483.394 461.945
219 0 117.409 12.6396 1484 94.0155 484.044 458.834
220 0 120.588 12.4805 1505 93.4199 483.742 454.951
221 1 64.169 9.78665 628 79.25 484.355 484.244
222 0 67.0677 11.0933 744 78.4691 484.036 483.642
223 0 68.1304 11.2872 769 77.8453 484.229 484.168
224 0 69.109 11.0116 761 80.1958 484.762 482.744
225 0 72.1216 11.3558 819 77.3321 484.923 482.237
226 0 75.1264 10.9815 825 78.4788 484.882 479.738
227 0 77.1505 11.0045 849 80.5053 484.306 480.02
228 0 81.1426 11.5845 940 80.6202 484.563 478.195
229 0 82.2337 11.37 935 81.5861 484.98 476.503
230 0 86.1737 11.6161 1001 82.4446 485.092 475.235
231 0 88.1568 11.8766 1047 84.7698 484.693 473.694
232 0 92.1873 12.0082 1107 84.6206 484.356 471.95
233 0 93.2955 11.7155 1093 86.2123 485.261 469.296
234 0 96.3938 11.4323 1102 88.2132 485.405 464.36
235 1 49.3705 9.03374 446 84.7354 486.59 489.913
236 0 50.2823 10.4212 524 82.7214 486.403 489.933
237 0 52.1887 11.056 577 79.8354 486.418 491.347
238 0 54.069 11.1154 601 80.8802 486.379 491.496
239 0 56.0313 10.8689 609 81.9278 484.982 489.266
240 0 57.048 11.464 654 82.1881 484.041 490.029
241 0 58.0957 11.7565 683 82.6545 484.012 489.799
242 0 61.1596 11.4128 698 82.6791 484.357 487.996
243 0 60.0633 11.5711 695 81.4058 483.896 488.348
244 0 64.1003 12.1372 778 80.8098 484.005 487.4
245 0 66.1774 12.2398 810 81.258 483.614 486.048
246 0 69.0198 12.4312 858 81.5734 484.272 485.984
247 0 69.122 12.2971 850 81.0765 483.791 483.88
248 0 71.1775 11.6891 832 83.2776 483.743 482.347
249 0 75.1389 12.1775 915 82.0262 483.843 480.564
250 0 76.1106 11.7198 892 84.6188 483.481 480.946
251 0 79.1024 12.3764 979 83.1297 483.787 481.311
252 0 82.0907 11.5847 951 89.9926 483.631 478.463
253 0 86.1678 11.3267 976 92.3504 483.466 476.607
254 1 47.0253 11.3981 536 87.0951 485.218 495.731
255 0 46.0269 10.7329 494 87.7024 484.852 496.846
256 0 48.0091 10.2689 493 90.1379 484.71 495.631
257 0 50.0244 11.7943 590 87.0305 485.071 494.52
258 0 49.0389 11.5215 565 85.7628 484.66 493.45
259 0 47.0143 11.1455 524 86.2634 485.937 494.719
260 0 48.0467 11.2391 540 85.7574 485.169 493.557
261 0 50.0275 11.4137 571 84.1839 485.005 493.678
262 0 52.0398 11.3951 593 83.882 485.268 491.142
263 0 53.027 11.2773 598 83.7508 484.219 491.482
264 0 53.05 10.3676 550 86.26 484.416 490.864
265 0 56.0457 11.3479 636 83.7233 485.291 489.547
266 0 57.0693 11.1443 636 84.0676 485.767 486.94
267 0 57.0702 10.5835 604 85.4934 485.334 485.637
268 0 61.1351 11.0084 673 84.6374 485.376 483.884
269 0 63.1341 11.3251 715 83.4839 485.815 485.155
270 0 64.1107 10.8094 693 85.6782 485.683 482.915
271 0 66.1097 11.1784 739 84.4154 485.624 483.396
272 0 70.1003 11.5406 809 83.4203 485.292 482.642
273 0 72.1445 11.4215 824 83.9272 484.864 481.46
274 0 74.1635 12.1758 903 83.0963 485.57 480.795
275 0 77.2265 12.4698 963 82.8744 485.989 479.315
276 0 77.143 11.9648 923 84.0347 485.341 478.134
277 0 78.2292 11.8498 927 85.2697 485.332 476.571
278 0 79.1516 11.6991 926 85.9168 485.606 475.045
279 0 82.1488 11.6374 956 87.3243 485.187 474.914
280 0 86.195 11.4624 988 88.1822 485.483 473.774
281 0 88.1913 11.974 1056 88.7812 484.338 471.641
282 0 90.1234 12.1389 1094 87.9378 484.347 472.516
283 0 93.1231 11.9519 1113 90.9668 484.496 470.667
284 0 94.1075 11.3275 1066 91.2927 482.964 470.023
285 0 100.071 11.9615 1197 89.1412 482.962 465.807
286 0 101.093 11.979 1211 88.559 483.552 467.3
287 0 104.23 11.8104 1231 89.5248 483.61 464.869
288 0 109.184 11.76 1284 89.912 483.521 462.868
289 1 59.0882 10.2559 606 86.835 483.985 487.843
290 0 60.0461 10.1089 607 85.5865 483.081 487.133
291 0 63.171 11.2393 710 81.6915 485.863 485.758
292 0 65.071 11.572 753 89.8008 485.822 483.032
293 0 68.0536 11.9906 816 89.049 485.881 483.722
294 0 68.0784 12.1918 830 89.2819 485.772 482.148
295 0 72.0491 12.0057 865 89.459 486.018 480.608
296 0 73.0725 11.7007 855 91.4304 485.4 479.958
297 0 73.0844 11.7262 857 124.579 484.373 479.783
298 0 78.0878 12.5756 982 86.4715 485.546 478.299
299 0 82.0839 12.5238 1028 87.7558 485.837 478.165
300 0 84.0621 12.6097 1060 87.984 485.507 476.179
301 0 86.0686 12.5481 1080 87.7361 485.683 475.744
302 1 45.0654 9.89673 446 90.8834 485.964 497.099
303 0 47.0174 10.1239 476 89.2521 486.227 497.708
304 0 48.0145 11.8714 570 81.6737 485.809 496.319
305 0 49.0224 11.403 559 84.8211 485.186 493.308
306 0 51.0896 11.0394 564 78.8528 485.816 495.19
307 0 51.0522 11.6156 593 77.6931 485.504 493.486
308 0 54.1055 11.6254 629 75.8601 485.356 493.892
309 0 54.0899 11.0372 597 77.8928 485.382 494.409
310 0 55.1335 11.6626 643 76.5645 485.333 492.351
311 0 57.0592 11.5144 657 75.653 485.951 490.7
312 0 56.0827 11.1264 624 79.7676 485.655 492.795
313 0 55.0651 10.0063 551 82.7623 485.762 492.387
314 0 59.1113 10.8609 642 80.729 485.578 491.659
315 0 60.1038 10.4819 630 80.9492 485.359 490.67
316 0 61.1066 9.94983 608 82.2993 485.058 490.516
317 0 64.0884 10.1422 650 79.38 486.105 489.758
318 0 66.1165 10.7084 708 79.5381 484.634 486.825
319 0 67.1213 10.2501 688 80.1977 484.926 486.679
320 0 69.0973 10.1017 698 79.4341 484.656 484.589
321 0 73.1224 10.079 737 78.5712 485.092 484.891
322 0 75.0724 10.2035 766 80.4321 483.907 483.112
323 1 42.0248 10.3272 434 80.8571 484.078 501.753
324 0 43.0217 10.2971 443 80.93 484.014 502.386
325 0 43.0392 11.0829 477 83.2055 483.283 500.652
326 0 45.0132 10.9746 494 81.2773 484.761 499.85
327 0 47.0069 10.8707 511 85.3405 484.652 499.294
328 0 46.0148 11.5398 531 85.6158 484.52 498.341
329 0 48.095 10.9575 527 87.5332 484.861 500.176
330 0 49.0318 11.2784 553 86.528 484.027 499.919
331 0 49.0439 11.3572 557 122.869 483.054 499.829
332 0 51.0774 11.7077 598 87.1656 484.671 495.263
333 0 52.0284 11.4745 597 88.3819 484.353 495.524
334 0 54.0727 11.4845 621 88.1079 483.435 494.198
335 0 54.0244 11.6244 628 88.4857 483.723 493.675
336 0 55.0516 11.1532 614 89.7215 483.663 493.081
337 0 57.0447 11.8854 678 89.0723 483.624 491.534
338 0 61.0697 11.9372 729 86.5446 483.449 492.37
339 0 62.1436 12.4389 773 86.7335 483.444 491.295
340 0 64.0811 13.0772 838 85.2721 482.977 490.352
341 0 62.0397 12.3953 769 89.052 482.3 489.208
342 0 65.1107 12.7014 827 88.532 482.226 489.123
343 0 67.0542 12.4824 837 88.6822 482.344 487.685
344 0 70.0708 12.416 870 89.1678 482.124 486.27
345 0 72.0439 12.8533 926 87.2981 481.961 487.718
346 0 73.0655 13.2073 965 87.7482 481.978 485.406
347 0 76.0733 13.487 1026 86.8275 481.982 483.995
348 0 80.1186 12.8684 1031 88.0155 481.795 482.851
349 0 81.0534 12.9668 1051 87.6708 481.03 481.873
350 0 83.0666 12.809 1064 87.953 481.528 480.617
351 0 86.064 13.7572 1184 85.3336 481.62 480.093
352 0 87.0356 12.3743 1077 87.481 481.021 479.345
353 0 90.0652 11.9691 1078 88.3887 480.928 475.77
354 0 95.1584 13.8085 1314 83.3349 480.645 476.143
355 0 97.0937 13.729 1333 82.997 480.983 474.883
356 0 100.071 13.5304 1354 84.4823 480.783 473.558
357 0 102.086 13.4788 1376 84.5378 481.305 471.665
358 0 104.173 13.324 1388 84.7111 480.744 470.008
359 1 55.1405 11.3347 625 84.16 480.533 495.462
360 0 56.032 10.9759 615 88.3268 480.137 494.156
361 0 58.0557 11.9713 695 86.2878 479.554 492.063
362 0 59.041 11.4666 677 84.4476 480.207 490.256
363 0 63.0873 11.7298 740 79.7824 480.336 490.057
364 0 65.0608 11.8812 773 79.7012 480.807 488.785
365 0 67.0521 11.767 789 80.1496 481.214 486.558
366 0 71.2089 12.9759 924 76.474 482.604 487.569
367 0 70.1259 12.7628 895 78.8547 482.086 485.787
368 0 75.1471 13.0544 981 78.5851 481.627 485.012
369 0 75.152 13.0003 977 81.2528 481.652 485.223
370 0 80.0868 12.5988 1009 83.6194 481.854 480.937
371 0 83.0904 13.034 1083 82.3121 481.394 481.137
372 0 85.1209 13.8156 1176 82.2823 481.216 478.375
373 0 88.1091 13.4152 1182 83.5321 481.904 479.168
374 0 91.0558 13.3545 1216 85.1908 481.003 476.145
375 0 94.0626 13.3528 1256 86.5231 482.005 473.859
376 0 96.0633 13.4286 1290 94.4264 481.72 473.089
377 0 100.06 13.2221 1323 97.2245 481.917 471.354
378 0 101.065 13.3281 1347 98.6258 482.148 469.605
379 0 105.112 13.7853 1449 98.0897 481.945 469.953
380 0 107.114 13.733 1471 98.9103 482.126 468.652
381 0 111.153 14.1516 1573 97.1214 481.736 468.177
382 0 113.287 13.8763 1572 98.1641 481.997 463.595
383 0 115.236 13.7718 1587 98.656 482.173 463.024
384 0 120.306 14.0641 1692 94.7086 482.417 461.26
385 0 123.235 13.8515 1707 97.1822 482.484 457.931
386 0 130.303 14.0979 1837 95.9804 483.213 455.849
387 0 132.273 13.4721 1782 96.8563 482.295 454.08
388 0 135.387 13.5758 1838 96.9429 483.088 450.662
389 0 142.338 13.7981 1964 96.2434 482.81 449.177
390 0 144.319 13.4216 1937 98.2633 482.6 446.507
391 0 150.329 13.2576 1993 99.1184 482.359 444.847
392 0 155.296 13.8831 2156 98.1494 482.534 440.498
393 0 158.312 13.6629 2163 99.9889 482.442 439.141
394 0 164.301 13.7126 2253 100.492 482.491 437.769
395 0 168.297 13.5475 2280 101.716 483.016 434.77
396 0 173.272 13.6606 2367 103.759 483.099 431.359
397 0 178.202 13.6811 2438 104.42 482.22 429.38
398 0 184.311 14.0632 2592 104.798 482.516 428.396
399 0 188.227 13.5953 2559 106.864 482.923 426.147
400 0 195.288 14.3583 2804 105.118 482.761 420.818
401 0 200.278 13.7958 2763 106.991 482.409 415.68
402 0 207.317 14.3066 2966 104.4 482.212 413.035
403 0 211.282 13.9009 2937 106.618 481.872 409.394
404 0 220.309 13.5219 2979 108.438 482.294 408.555
405 0 226.403 13.7984 3124 108.731 482.29 406.818
406 0 232.344 13.295 3089 112.448 481.83 401.861
407 0 242.483 14.1082 3421 109.779 482.229 397.568
408 1 177.317 12.0632 2139 110.252 482.154 429.676
409 0 183.354 12.904 2366 109.434 482.21 427.644
410 0 191.375 13.7531 2632 109.465 482.126 418.836
411 0 197.35 13.0682 2579 111.741 482.142 416.729
412 0 203.269 12.7958 2601 113.593 481.505 411.723
413 0 212.357 13.0771 2777 110.457 481.946 408.447
414 0 216.359 13.0848 2831 109.929 481.578 404.765
415 0 224.262 13.1141 2941 110.369 481.877 399.392
416 0 230.309 13.0129 2997 109.821 482.178 399.744
417 0 239.29 13.2852 3179 106.686 482.044 395.537
418 0 247.258 13.5041 3339 106.577 481.269 388.639
419 0 253.263 12.9194 3272 108.395 480.372 381.909
420 0 262.258 13.033 3418 108.172 480.385 378.003
421 0 272.396 13.1647 3586 108.482 479.509 374.422
422 0 280.275 13.0764 3665 108.303 480.094 367.853
423 1 83.1125 10.4677 870 92.4034 481.718 470.413
424 0 84.1511 10.2554 863 93.7775 481.08 468.085
425 0 90.1869 11.1435 1005 90.5831 481.374 466.613
426 0 92.0866 10.9462 1008 94.0992 479.742 466.903
427 0 95.0944 11.4938 1093 93.2123 480.496 463.686
428 0 99.1734 11.495 1140 92.8289 480.876 464.429
429 0 99.1196 11.5013 1140 90.4053 480.629 460.521
430 0 104.167 11.5104 1199 88.8324 479.491 460.591
431 0 107.14 11.5363 1236 89.1626 479.839 458.705
432 0 112.14 11.3608 1274 89.9804 478.922 457.066
433 0 111.115 10.9976 1222 92.9828 481.691 454.161
434 0 115.122 11.7267 1350 93.9733 481.688 450.658
435 0 132.177 15.9559 2109 78.6671 480.844 443.63
436 0 131.173 15.7959 2072 124.862 482.86 443.323
437 0 135.232 14.5823 1972 85.3839 480.311 443.448
438 0 134.098 12.3044 1650 96.2733 479.165 443.341
439 0 137.169 12.3205 1690 97.658 478.804 441.274
440 0 141.143 12.7034 1793 95.7613 479.544 439.533
441 0 144.19 11.6791 1684 91.573 480.485 442.084
442 0 153.183 15.3738 2355 87.3592 480.147 433.254
443 0 154.241 13.9004 2144 92.7229 480.006 433.113
444 0 155.213 11.7322 1821 92.2048 481.466 435.051
445 0 164.36 14.7725 2428 86.9839 480.813 427.861
446 0 166.304 12.5793 2092 92.4938 481.442 431.069
447 1 91.2087 9.94423 907 90.2889 483.208 468.046
448 0 98.2296 11.1779 1098 82.9854 482.702 465.355
449 0 102.428 11.6179 1190 81.537 482.267 467.786
450 0 104.162 10.1381 1056 77.9129 480.886 462.304
451 0 107.177 11.0378 1183 77.8352 480.806 459.748
452 0 109.273 11.0732 1210 75.8 482.961 460.412
453 0 113.47 10.8487 1231 74.6182 482.273 459.513
454 0 119.284 11.8541 1414 74.2263 482.74 458.642
455 0 123.32 11.8148 1457 75.5827 481.683 458.371
456 1 63.3064 9.77784 619 73.3247 482.711 491.158
457 0 65.2854 10.523 687 73.0437 483.301 488.124
458 0 67.3956 11.4399 771 71.4877 483.125 485.145
459 0 70.2776 11.8388 832 71.107 482.675 485.754
460 0 69.2587 10.9012 755 73.9669 483.679 485.011
461 0 71.3045 11.1494 795 73.3296 483.642 483.577
462 0 74.3187 11.4103 848 72.6167 483.851 483.047
463 0 75.303 11.6463 877 72.4778 483.535 482.205
464 0 76.3041 11.7687 898 72.8486 483.743 481.081
465 0 78.1755 11.487 898 74.1403 483.107 480.155
466 0 82.2897 12.7963 1053 72.5897 483.633 479.255
467 0 82.1893 12.5077 1028 74.3823 483.539 477.364
468 0 84.1809 12.1405 1022 75.7436 483.186 476.394
469 0 87.1903 11.8706 1035 76.7826 482.971 474.287
470 0 91.2083 12.5098 1141 76.7222 483.657 474.585
471 0 92.1616 13.1074 1208 76.5737 483.86 473.392
472 0 95.1864 12.7014 1209 78.8478 483.528 471.755
473 0 97.1565 13.1437 1277 78.5082 482.561 468.937
474 0 98.202 12.6983 1247 80.7442 482.841 466.245
475 0 102.195 12.4762 1275 80.6384 482.813 465.496
476 0 108.263 13.6242 1475 79.1912 482.693 463.946
477 0 106.216 12.8323 1363 83.2524 482.253 463.985
478 0 111.286 12.715 1415 84.4989 481.967 464.817
479 1 60.2578 10.5215 634 79.4038 483.858 489.981
480 0 62.2289 10.6542 663 80.1041 483.158 488.528
481 0 62.1319 11.54 717 79.4268 482.533 487.877
482 0 65.1432 10.8991 710 80.7662 482.527 485.644
483 0 68.0652 12.4586 848 77.8373 482.651 483.467
484 0 69.1761 11.9261 825 80.2073 482.888 484.964
485 0 71.0778 12.1557 864 80.7373 482.294 483.446
486 0 72.1077 11.8989 858 82.3939 482.328 484.196
487 0 73.1139 12.9661 948 82.923 482.834 482.672
488 0 76.1633 12.9984 990 83.1182 482.933 482.195
489 0 80.1475 13.001 1042 84.3906 482.858 480.536
490 0 80.1541 12.9126 1035 86.7594 483.122 479.864
491 0 84.1509 12.9648 1091 86.4363 482.494 478.93
492 0 84.1011 13.4957 1135 87.1075 483.057 478.5
493 0 89.1477 13.3374 1189 86.7897 483.09 476.906
494 0 91.1462 13.418 1223 87.3312 482.926 475.457
495 0 95.2072 13.8225 1316 87.1451 481.818 473.728
496 0 96.2262 12.8655 1238 89.5089 481.643 473.098
497 0 100.164 13.2483 1327 89.2095 481.428 470.188
498 0 103.341 13.4507 1390 90.3791 482.237 467.07
499 0 106.358 13.4358 1429 92.2757 482.767 467.601
500 0 107.286 13.4501 1443 92.7706 482.269 465.658
501 0 108.324 12.2226 1324 96.682 481.695 465.548
502 1 61.3085 10.3901 637 92.9451 482.878 491.046
503 0 61.1983 10.997 673 88.0669 482.627 491.009
504 0 64.2587 11.6093 746 89.2775 482.997 488.66
505 0 64.2433 11.5498 742 83.81 482.642 487.34
506 0 64.2531 11.0812 712 86.1461 482.937 487.883
507 0 66.2037 11.5552 765 84.6235 482.2 487.369
508 0 67.257 11.5378 776 84.9742 482.608 486.554
509 0 70.2333 11.3052 794 84.5239 482.496 487.743
510 0 72.2835 11.5656 836 84.3816 482.417 485.482
511 0 74.3261 12.0684 897 84.5574 482.105 482.756
512 0 77.4373 11.5706 896 87.2009 482.382 481.789
513 0 77.272 11.5825 895 87.5296 481.311 481.312
514 0 80.2737 11.7349 942 86.9034 480.958 480.297
515 0 83.2677 11.7453 978 87.1697 482.133 480.228
516 0 85.2915 11.9707 1021 88.093 481.558 477.417
517 0 86.2108 12.1214 1045 89.1254 481.538 475.853
518 0 89.2619 11.4831 1025 91.4507 481.503 476.377
519 0 90.1776 11.8322 1067 90.7535 481.362 473.041
520 0 95.1633 11.6747 1111 89.396 481.6 471.819
521 1 50.1289 10.6326 533 90.5084 482.266 493.856
522 0 50.0835 10.3028 516 88.8605 482.655 493.18
523 0 51.1288 11.1874 572 86.6836 481.712 491.271
524 0 53.0965 10.9047 579 86.6028 481.946 491.549
525 0 54.3283 10.1052 549 81.4044 482.315 496.672
526 0 54.1954 10.333 560 80.8393 482.382 497.795
527 0 56.3332 11.0237 621 80.4541 482.221 497.11
528 0 58.3886 11.2865 659 80.346 482.132 496.944
529 0 60.2113 10.8285 652 82.4647 482.279 494.721
530 0 62.2836 10.4682 652 84.3083 481.413 493.474
531 0 65.1604 10.6506 694 85.8228 481.659 493.429
532 0 65.1909 11.2592 734 86.7888 481.089 493.706
533 0 69.2722 12.0539 835 86.9269 480.644 492.393
534 0 71.1608 11.8886 846 89.5615 480.539 490.401
535 0 73.178 11.8478 867 89.3668 480.511 488.669
536 0 74.138 11.8293 877 91.3193 481.018 488.839
537 0 78.1725 12.2805 960 89.7333 480.531 486.666
538 0 78.2596 11.6919 915 92.7399 480.245 485.502
539 0 82.222 12.3325 1014 90.5483 480.79 485.504
540 0 82.2266 11.8575 975 92.3426 480.657 484.972
541 0 87.1585 12.3912 1080 91.6639 480.226 482.66
542 0 89.2109 12.5882 1123 91.4568 480.901 479.845
543 0 94.2424 12.8392 1210 90.9355 480.891 479.815
544 0 97.1834 12.8005 1244 92.8119 480.518 478.632
545 0 100.135 12.3333 1235 94.1789 480.172 476.973
546 1 55.1101 11.4498 631 95.7163 482.255 499.155
547 0 57.1041 11.6104 663 92.8627 482.235 498.618
548 0 58.0577 11.9536 694 95.7406 482.242 497.01
549 0 59.0889 12.6081 745 93.5315 479.464 493.889
550 0 61.1107 12.6165 771 92.4423 480.61 491.69
551 0 61.0787 12.7213 777 89.3925 481.981 493.659
552 0 65.1331 13.4647 877 86.618 481.891 492.32
553 0 66.1284 12.5816 832 87.9279 481.066 491.413
554 0 69.0683 13.1464 908 86.7874 481.267 490.044
555 0 70.0995 13.0814 917 85.4864 481.248 490.585
556 0 73.1132 12.6106 922 86.3351 481.295 489.181
557 0 74.1785 12.2542 909 87.0143 481.47 487.648
558 0 76.1564 12.7763 973 85.7965 480.93 487.159
559 0 79.1484 12.7735 1011 84.1899 480.94 488.262
560 0 81.1219 13.2147 1072 83.806 481.466 486.616
561 0 84.1463 13.013 1095 83.6146 480.852 483.833
562 0 84.1279 12.9208 1087 85.6072 481.637 483.307
563 0 88.0881 12.4307 1095 86.0055 480.782 480.595
564 0 93.0946 13.3842 1246 83.3146 480.624 480.718
565 0 96.0865 13.2277 1271 84.0268 480.555 478.272
566 0 99.0956 13.4315 1331 83.8798 480.494 479.017
567 0 100.16 13.3587 1338 85.6876 480.771 476.106
568 1 52.2653 11.3842 595 87.8403 481.889 498.719
569 0 53.1464 12.0234 639 88.1956 481.396 497.105
570 0 55.0671 12.4212 684 84.2471 478.836 497.279
571 0 56.109 12.9747 728 83.4148 481.891 496.611
572 0 58.07 12.9671 753 83.0133 481.474 496.977
573 0 61.0539 13.3489 815 81.9656 481.896 496.302
574 0 60.0901 12.3315 741 86.8462 481.819 494.623
575 0 62.0455 12.5875 781 85.2702 481.969 495.063
576 0 64.0744 12.5635 805 85.1665 481.196 493.569
577 0 68.0725 12.8099 872 83.1342 481.588 491.428
578 0 70.0508 12.8336 899 84.3804 481.38 492.376
579 0 70.1251 12.877 903 86.0487 481.523 490.988
580 0 72.1218 12.5759 907 87.6924 480.923 487.784
581 0 76.0898 13.3658 1017 86.0197 480.929 487.718
582 0 76.0832 13.1698 1002 86.1417 481.38 486.865
583 0 81.1314 13.1885 1070 85.7 481.631 484.699
584 0 83.1096 13.2716 1103 89.5277 482.099 482.85
585 0 85.0779 13.3172 1133 89.947 481.605 482.011
586 0 85.1056 12.6431 1076 91.026 481.662 483.264
587 0 88.1937 12.9828 1145 92.2672 481.517 481.128
588 0 89.1117 12.086 1077 95.9276 480.388 480.651
589 0 93.1567 12.2052 1137 97.102 480.632 477.866
590 0 97.1397 12.796 1243 96.0121 480.709 477.111
591 1 50.0642 10.7862 540 95.7963 481.048 499.115
592 0 52.0533 11.5459 601 93.2912 481.01 498.328
593 0 53.027 11.5036 610 93.2689 480.849 499.37
594 0 57.0969 12.3474 705 89.0284 479.172 497.53
595 0 57.03 12.4671 711 85.4895 481.519 498.212
596 0 58.0302 12.1316 704 129.135 483.499 498.236
597 0 59.1315 11.7535 695 84.5525 480.34 498.973
598 0 59.1523 11.3774 673 87.0327 480.908 497.116
599 0 61.098 11.4734 701 87.4251 479.461 497.616
600 0 63.1375 11.8313 747 87.0964 479.913 496.04
601 0 65.2105 11.7159 764 88.8953 480.751 492.665
602 0 66.1763 11.5298 763 94.3984 481.047 493.381
603 0 70.1462 12.3599 867 94.7578 480.295 492.495
604 0 71.1217 11.9232 848 96.6557 480.343 492.336
605 0 73.1362 12.5929 921 96.4767 479.625 491.758
606 0 75.1401 12.2438 920 97.9554 479.545 491.302
607 0 78.1065 13.0591 1020 94.0588 480.224 488.747
608 0 79.0649 12.9514 1024 95.5557 480.093 486.353
609 0 82.1673 12.864 1057 96.3661 480.122 484.718
610 0 84.1216 12.577 1058 97.155 479.445 483.939
611 0 86.1319 12.5273 1079 97.4773 480.121 481.679
612 0 88.1027 12.5989 1110 98.1432 480.241 481.573
613 0 90.1554 12.5006 1127 97.2813 480.062 480.787
614 0 93.1259 12.0697 1124 98.4333 479.897 478.416
615 0 96.1579 12.1467 1168 94.7937 479.378 474.972
616 1 51.0782 10.0238 512 88.9277 479.855 491.088
617 0 53.0816 10.173 540 88.2926 478.172 489.611
618 0 56.1302 10.0303 563 83.6288 479.288 493.236
619 0 57.1579 10.2873 588 80.3656 479.543 492.23
620 0 60.0931 9.85138 592 78.7331 479.346 490.601
621 0 64.2129 10.9791 705 77.2752 479.572 488.549
622 0 65.2274 10.885 710 75.8831 479.977 489.907
623 0 66.1421 10.3262 683 77.1171 479.755 488.668
624 0 68.1267 10.8328 738 76.9255 479.115 486.237
625 0 71.0922 10.3246 734 77.1948 479.125 486.478
626 0 74.1126 10.8079 801 76.7678 478.965 484.424
627 0 75.1482 10.4859 788 78.1853 478.951 483.228
628 0 76.1907 10.3425 788 78.4581 479.133 480.382
629 0 79.1233 10.1487 803 78.3773 478.883 479.425
630 0 82.1841 10.367 852 77.6256 480.121 479.258
631 0 83.1605 10.6781 888 78.9865 480.384 476.314
632 0 86.1377 10.1349 873 80.4044 480.153 476.659
633 0 88.1505 10.1191 892 80.7511 479.454 474.572
634 0 91.1784 10.814 986 81.8651 479.113 469.159
635 0 94.2013 10.5519 994 85.1308 479.068 467.336
636 0 98.1598 11.0228 1082 85.1386 479.559 465.483
637 0 102.174 11.0107 1125 85.2222 479.998 464.513
638 1 54.0565 9.10159 492 75.9126 480.372 493.175
639 0 56.0885 9.57415 537 78.3631 479.873 492.082
640 0 62.1366 11.7966 733 85.8663 482.072 491.371
641 0 62.1334 12.1995 758 86.5844 482.288 490.455
642 0 66.0429 12.6887 838 84.1301 479.551 491.601
643 0 68.1252 12.1541 828 90.9348 480.617 490.301
644 0 69.0811 12.203 843 91.5101 479.516 488.021
645 0 73.0858 12.9437 946 89.592 479.984 486.191
646 0 75.1287 12.3788 930 91.143 479.46 485.208
647 0 79.1293 12.4985 989 90.8868 479.606 484.484
648 0 80.1092 11.8838 952 92.8813 479.643 483.432
649 0 83.1664 12.0602 1003 92.2373 480.098 481.231
650 0 84.0673 12.9301 1087 93.2585 480.031 479.351
651 0 86.1579 12.7557 1099 94.5341 479.92 479.326
652 0 89.1352 13.0476 1163 93.7248 479.88 478.095
653 0 92.1506 12.74 1174 96.4123 480.217 475.556
654 0 94.1754 13.0183 1226 95.9837 480.129 475.208
655 0 97.2425 12.4226 1208 97.5919 479.829 475.161
656 0 101.271 12.5604 1272 97.6604 479.499 471.486
657 0 104.403 12.8061 1337 97.2162 480.43 467.446
658 0 108.305 12.9818 1406 94.995 480.573 466.723
659 0 108.07 9.91945 1072 92.2789 480.449 468.387
660 0 114.073 11.177 1275 89.1749 481.104 462.854
661 1 59.0512 12.3113 727 86.5158 481.99 493.476
662 0 56.098 11.0164 618 85.2314 482.354 494.759
663 0 57.1036 11.9257 681 86.7254 481.634 493.872
664 0 59.0946 11.5408 682 87.3226 481.289 494.044
665 0 60.1424 11.5227 693 88.2049 481.114 491.443
666 0 63.023 11.0595 697 86.0143 481.023 491.62
667 0 65.0981 11.3521 739 88.3681 480.334 488.873
668 0 67.0863 11.9399 801 86.3658 480.057 488.88
669 0 70.0492 11.8345 829 84.7382 480.643 486.393
670 0 71.1007 10.9422 778 86.7339 480.392 486.634
671 0 74.1009 11.066 820 86.3695 481.079 485.407
672 0 76.0943 11.1441 848 88.6427 481.507 485.12
673 0 80.1361 12.2791 984 86.8343 481.155 482.81
674 0 81.1198 11.6864 948 89.3006 480.896 483.53
675 0 84.2114 12.0768 1017 88.6883 480.17 480.166
676 0 88.1319 11.3353 999 90.1471 479.989 479.903
677 0 91.1052 12.4362 1133 87.5402 480.92 478.335
678 1 47.1753 11.1711 527 90.0266 481.063 498.941
679 0 48.0734 11.6072 558 91.9785 480.6 496.013
680 0 51.15 12.2972 629 92.6868 482.054 494.345
681 0 55.053 12.5516 691 89.4298 482.375 494.755
682 0 53.0252 12.2017 647 93.6522 480.903 494.355
683 0 56.0781 12.6431 709 92.6841 481.797 494.257
684 0 58.1146 12.1484 706 92.6487 482.297 495.61
685 0 62.1226 12.9743 806 87.9888 481.825 493.514
686 0 62.0877 12.9655 805 89.8957 480.989 491.796
687 0 65.0648 12.4952 813 90.8069 481.33 491.967
688 0 67.0937 13.2352 888 88.1453 481.714 490.539
689 0 69.112 13.4419 929 87.8353 481.522 489.609
690 0 69.0965 12.6345 873 89.7755 481.805 489.485
691 0 71.1937 12.5011 890 90.7247 481.258 488.013
692 0 74.2197 12.8807 956 88.6768 482.166 487.53
693 0 75.0827 12.9058 969 87.3633 481.799 485.424
694 0 77.1781 13.0348 1006 87.8201 482.135 486.05
695 0 82.1691 12.9854 1067 86.2877 481.778 484.912
696 0 84.1395 12.9428 1089 85.7723 481.697 483.808
697 0 86.2657 12.96 1118 87.2039 481.769 483.096
698 0 87.2141 13.0369 1137 86.7291 481.711 483.171
699 0 90.1832 12.7186 1147 86.6635 481.386 481.789
700 0 92.2105 12.3739 1141 87.5364 481.231 479.883
701 0 96.1838 12.5177 1204 88.0083 481.238 478.492
702 0 99.2425 13.3108 1321 86.103 481.285 478.273
703 0 102.256 11.7254 1199 92.2335 481.81 473.054
704 0 105.177 12.6929 1335 94.4472 481.032 472.45
705 0 109.172 12.7323 1390 87.5583 481.188 471.56
706 0 112.179 13.3269 1495 91.3793 480.194 468.946
707 0 116.337 12.2575 1426 92.8457 479.579 466.139
708 1 61.2265 10.8287 663 87.2971 479.919 493.449
709 0 64.2117 11.1506 716 84.6229 479.503 492.863
710 0 66.0835 11.894 786 84.3486 480.417 494.971
711 0 67.1246 12.2608 823 83.3001 482.233 493.581
712 0 72.1327 11.6036 837 84.2115 481.177 489.829
713 0 74.2897 12.9628 963 82.8349 481.248 489.093
714 0 78.2752 12.3794 969 83.8524 480.656 487.957
715 0 78.1854 12.2273 956 85.9529 481.237 485.859
716 0 81.1438 12.447 1010 84.8762 481.374 485.068
717 0 85.1754 13.1728 1122 82.2968 480.923 484.267
718 0 88.2125 12.6966 1120 81.9598 481.089 483.377
719 0 91.2171 11.9605 1091 83.6682 480.97 482.674
720 0 94.2761 11.7739 1110 83.3072 481.897 479.102
721 0 96.1842 12.4761 1200 81.9917 480.904 478.178
722 0 100.281 12.455 1249 81.3683 481.132 476.001
723 0 103.244 12.6787 1309 80.8938 480.956 476.203
724 1 54.0537 11.3221 612 82.9722 482.265 500.544
725 0 56.0768 11.8587 665 84.0045 480.627 499.702
726 0 58.2142 12.1276 706 82.3626 479.047 495.785
727 0 60.1755 13.0452 785 81.372 479.203 494.289
728 0 61.1575 12.149 743 80.2974 481.69 496.716
729 0 63.079 11.9374 753 80.4037 481.497 494.548
730 0 63.087 12.1261 765 79.3333 481.906 495.903
731 0 65.086 12.1531 791 79.1555 481.834 493.034
732 0 69.0554 12.0338 831 78.5933 481.845 491.304
733 0 71.0804 13.0134 925 76.7697 481.502 491.945
734 0 73.1183 13.1294 960 76.051 481.886 488.686
735 0 75.1455 13.068 982 76.723 481.568 485.23
736 0 77.0917 12.6473 975 77.6892 481.89 484.918
737 0 80.1129 13.2064 1058 77.1295 481.489 482.92
738 0 83.0999 13.2491 1101 78.1253 481.799 481.841
739 0 84.0666 13.3704 1124 78 482.093 482.702
740 0 87.086 13.3431 1162 78.4596 482.691 481.718
741 0 91.1157 13.5213 1232 78.9529 482.364 478.381
742 0 92.1471 13.7606 1268 79.239 481.964 477.556
743 0 97.0847 13.9878 1358 78.4588 481.106 476.205
744 0 100.132 14.0214 1404 76.9423 480.97 474.771
745 0 101.222 13.5544 1372 78.2347 481.281 473.431
746 0 104.128 12.888 1342 82.4441 481.592 472.003
747 0 105.146 12.6872 1334 84.0592 481.831 472.158
748 0 109.157 13.5676 1481 85.0716 481.81 468.587
749 0 111.083 12.5672 1396 85.0215 480.65 468.925
750 0 113.067 12.3732 1399 86.6698 480.731 466.045
751 0 117.109 12.8684 1507 88.2044 481.955 464.449
752 0 122.148 12.9024 1576 89.3052 481.721 461.988
753 0 124.191 13.2538 1646 89.8165 481.361 460.582
754 0 129.199 13.3283 1722 90.0383 481.474 459.122
755 0 134.228 13.1791 1769 90.0424 481.613 456.021
756 0 139.257 13.9742 1946 89.0478 481.666 453.753
757 0 142.229 13.7595 1957 89.3332 481.6 451.078
758 0 149.319 14.9345 2230 86.896 481.646 449.768
759 0 152.328 13.4315 2046 91.6031 481.377 446.25
760 0 160.354 14.5117 2327 87.3146 481.856 444.392
761 1 87.2551 11.7472 1025 87.3551 482.093 481.266
762 0 88.2863 11.4174 1008 89.253 482.125 475.853
763 0 92.1671 13.2151 1218 88.8177 481.544 475.563
764 0 94.2068 13.3324 1256 86.8543 481.798 471.658
765 0 98.31 13.5185 1329 89.322 481.027 474.965
766 0 99.3869 12.7079 1263 90.4814 480.634 473.484
767 0 104.443 13.4906 1409 87.7665 480.981 471.48
768 0 105.303 13.5609 1428 89.3466 480.728 469.477
769 0 110.306 13.4626 1485 88.5266 480.467 466.014
770 0 111.345 13.4985 1503 88.6327 480.759 463.63
771 0 113.312 13.6438 1546 88.2283 480.426 462.627
772 0 119.366 14.3927 1718 85.5006 480.518 459.825
773 0 124.342 13.2859 1652 87.5835 480.633 458.772
774 0 127.37 13.7473 1751 85.3821 480.281 455.837
775 0 131.336 14.4363 1896 84.9647 479.716 450.767
776 0 134.466 14.0853 1894 85.7962 480.698 448.989
777 0 135.28 13.4092 1814 87.3137 480.604 447.25
778 0 141.278 14.015 1980 85.2662 480.287 447.058
779 0 146.273 14.6028 2136 83.7051 480.279 443.115
780 0 149.316 13.9972 2090 84.6847 480.733 439.185
781 0 154.268 13.9173 2147 84.7601 480.502 437.166
782 0 156.261 13.5798 2122 86.7861 480.253 431.251
783 0 163.265 13.5118 2206 85.0458 480.453 428.262
784 0 168.242 13.9144 2341 85.3738 480.223 425.985
785 0 173.174 13.3912 2319 86.6473 479.951 423.533
786 0 176.232 13.4879 2377 87.2659 479.727 419.516
787 0 182.331 13.1629 2400 87.3646 480.502 422.252
788 0 187.307 13.0481 2444 88.1657 480.252 417.986
789 0 192.512 12.7525 2455 88.7662 479.783 412.326
790 0 200.614 13.0001 2608 88.0464 480.128 412.604
791 0 203.516 12.4904 2542 90.2105 480.271 409.159
792 0 213.513 13.1093 2799 89.085 479.664 404.397
793 0 213.506 13.105 2798 153.868 478.67 404.183
794 1 225.486 13.5884 3064 87.3805 479.77 397.737
795 0 234.526 13.1755 3090 87.8573 479.792 394.161
796 0 240.576 12.3204 2964 89.8323 479.902 388.189
797 0 250.528 12.0226 3012 89.3556 480.261 383.541
798 0 252.59 11.6117 2933 91.5292 480.287 388.462
799 1 57.3284 11.1986 642 71.8349 482.408 493.137
800 0 60.1027 10.8315 651 68.0369 484.244 494.797
801 0 62.0639 11.6171 721 67.6297 483.591 491.655
802 0 65.0685 12.141 790 66.7759 483.278 489.878
803 0 65.2498 11.5709 755 70.0742 483.017 490.049
804 0 67.1934 11.5041 773 70.6468 482.692 490.426
805 0 70.2742 12.5366 881 69.042 482.094 490.787
806 0 72.3202 12.1819 881 70.8774 482.488 489.078
807 0 75.2159 12.0187 904 71.604 482.345 488.387
808 0 76.2862 12.1909 930 71.9968 483.123 487.316
809 0 80.1402 12.578 1008 71.2629 483.083 486.936
810 0 82.1022 12.2408 1005 73.0667 482.713 484.568
811 0 85.0924 12.4453 1059 72.4608 482.269 482.107
812 0 87.0954 12.4576 1085 73.7124 482.363 479.449
813 0 91.1457 12.8366 1170 71.9188 482.458 481.068
814 0 93.1453 11.7129 1091 81.9001 482.184 478.615
815 0 94.1794 12.3488 1163 83.3439 481.114 478.253
816 0 97.2831 12.4893 1215 82.6189 481.063 479.143
817 0 100.185 12.3272 1235 83.0316 481.487 478.165
818 0 103.198 11.5797 1195 83.7146 481.197 474.163
819 0 106.197 12.1661 1292 83.0542 480.861 474.365
820 0 110.225 11.785 1299 81.475 481.925 470.59
821 0 113.418 12.8022 1452 73.2672 481.051 469.004
822 0 116.254 12.5157 1455 73.6715 480.474 466.86
823 0 118.163 12.4574 1472 74.9293 480.16 466.105
824 0 123.342 12.137 1497 81.1697 480.236 465.267
825 0 127.295 11.9643 1523 81.7715 479.829 463.453
826 0 129.408 11.5294 1492 81.6381 479.764 461.901
827 0 133.251 12.0299 1603 81.1965 479.648 461.147
828 1 71.1266 12.2176 869 75.2716 480.178 493.354
829 0 73.1253 12.3897 906 74.7649 480.526 492.453
830 0 75.2687 12.6347 951 75.2345 480.621 493.592
831 0 78.3378 13.6588 1070 73.5178 479.696 489.236
832 0 78.2778 12.7622 999 77.0521 480.4 487.499
833 0 84.2853 13.395 1129 76.4827 480.143 486.834
834 0 84.2865 13.5253 1140 76.6482 480.491 486.889
835 0 86.1941 13.3072 1147 76.9006 480.01 487.35
836 0 88.3181 12.8739 1137 79.5435 479.736 483.878
837 0 93.4017 14.1111 1318 77.4082 479.516 479.93
838 0 96.3428 13.4623 1297 80.899 479.567 477.392
839 0 98.3831 13.5287 1331 81.2817 478.967 474.977
840 0 101.486 13.8542 1406 79.0868 478.267 471.966
841 0 105.581 12.7675 1348 82.0972 478.706 472.614
842 1 55.2896 12.5883 696 86.7672 478.866 495.085
843 0 54.1417 12.7259 689 87.0073 479.816 495.235
844 0 56.0352 12.7242 713 83.7938 480.297 494.264
845 0 58.1849 12.1165 705 84.0142 480.043 491.912
846 0 60.2736 11.9953 723 83.527 479.741 492.697
847 0 64.2185 13.0025 835 82.9234 479.147 491.686
848 0 63.1845 12.5506 793 86.4224 479.14 490.952
849 0 67.2293 13.1044 881 84.9818 479.317 489.622
850 0 67.0944 13.3096 893 86.0045 479.127 487.837
851 0 72.2556 13.6322 985 84.3168 479.684 486.48
852 0 74.1043 13.2651 983 86.1312 480.225 486.184
853 0 77.154 13.8295 1067 85.6242 479.556 485.656
854 0 79.1908 13.3349 1056 88.6117 479.865 486.62
855 0 83.1949 14.5922 1214 88.7438 480.353 485.942
856 0 83.2258 14.2143 1183 90.7168 480.008 485.415
857 0 87.1476 14.4468 1259 91.6068 480.199 482.85
858 0 90.2715 14.9438 1349 92.4062 480.048 483.011
859 0 91.1899 15.1442 1381 94.462 479.985 480.199
860 1 44.0392 13.0111 573 102.051 480.438 501.066
861 0 47.0759 13.4888 635 97.3134 480.603 500.35
862 0 49.1241 13.415 659 98.9256 479.282 499.838
863 0 50.1479 14.3775 721 98.2982 479.956 499.738
864 0 53.0781 14.3939 764 99.4686 481.496 499.022
865 0 53.1001 14.5762 774 101.266 480.574 497.41
866 0 55.1256 14.2221 784 101.166 480.547 496.955
867 0 57.0448 14.0065 799 101.171 480.173 496.352
868 0 60.0473 15.1214 908 97.6564 480.14 494.8
869 0 61.1055 15.3996 941 99.5739 480.436 493.027
870 0 63.091 15.2161 960 100.515 480.991 492.318
871 0 65.103 15.0377 979 102.478 480.564 491.316
872 0 65.089 15.2407 992 104.803 480.361 489.858
873 0 68.1176 14.7979 1008 106.313 481.009 489.494
874 0 69.2306 14.82 1026 106.201 480.774 487.724
875 0 71.0986 15.6262 1111 103.867 480.909 487.735
876 0 74.1601 15.089 1119 105.71 480.403 486.34
877 0 77.1496 15.8134 1220 103.853 480.801 484.149
878 0 78.1727 15.4146 1205 105.292 480.563 483.28
879 0 81.2216 15.6855 1274 104.311 479.511 482.312
880 0 81.3035 15.5221 1262 104.124 479.725 483.277
881 0 84.2404 15.5033 1306 103.681 479.694 480.711
882 0 88.2249 15.5965 1376 101.254 480.017 480.528
883 0 89.2467 15.8549 1415 100.073 479.71 480.059
884 1 42.2675 13.8168 584 112.671 480.291 497.137
885 0 45.2866 14.2647 646 110.508 480.367 499.44
886 0 47.2125 15.1655 716 106.497 480.222 496.346
887 0 48.1242 15.0652 725 106.203 480.495 496.222
888 0 49.1222 15.4513 759 105.801 480.09 495.953
889 0 51.1435 15.6423 800 104.756 479.836 495.526
890 0 54.0876 15.2345 824 106.097 479.823 494.057
891 0 54.187 15.5757 844 106.5 479.923 493.313
892 0 56.2147 15.4586 869 105.946 480.015 491.667
893 0 59.2003 15.5067 918 105.842 480.196 490.873
894 0 60.1475 15.8943 956 104.486 480.304 490.469
895 0 62.1675 15.9247 990 105.287 480.676 488.439
896 0 64.3153 16.2636 1046 103.655 480.511 487.531
897 0 66.1977 15.7256 1041 106.296 479.777 486.258
898 0 66.2688 15.6937 1040 107.148 480.245 484.695
899 0 69.2493 15.2637 1057 108.738 480.105 483.737
900 0 71.2525 16.0556 1144 106.291 480.882 483.571
901 0 73.2872 16.0328 1175 107.924 480.228 480.993
902 0 76.3516 16.3978 1252 107.319 480.37 479.738
903 0 77.2913 16.082 1243 109.697 480.435 479.743
904 0 78.3353 16.1102 1262 110.677 480.602 476.583
905 0 83.3156 16.0954 1341 108.758 480.491 477.102
906 0 84.3556 16.1815 1365 109.117 481.25 475.381
907 0 86.2167 15.751 1358 109.887 481.544 474.561
908 0 90.2264 16.4918 1488 107.243 480.629 472.86
909 0 94.2227 16.1744 1524 106.913 480.347 470.464
910 0 97.2056 16.1308 1568 106.772 480.584 468.241
911 0 100.28 16.0051 1605 107.045 480.603 466.661
912 0 104.399 15.4121 1609 110.502 480.695 464.906
913 1 56.1554 13.1777 740 113.691 481.546 486.095
914 0 56.236 12.9988 731 115.54 481.741 485.101
915 0 59.143 13.8478 819 112.569 481.252 484.639
916 0 63.2818 14.1589 896 110.73 481.301 484.291
917 0 65.1538 14.2125 926 112.498 481.429 483.659
918 0 66.2107 14.0008 927 113.166 481.082 482.599
919 0 68.1382 13.5607 924 115.11 481.522 480.695
920 0 71.2143 13.6489 972 115.088 481.189 478.866
921 0 73.1865 14.5109 1062 113.618 480.708 478.112
922 0 75.2212 14.3311 1078 114.809 481.471 480.331
923 0 78.1202 14.0553 1098 116.602 481.423 479.968
924 0 80.1369 14.4128 1155 115.782 480.852 479.91
925 0 83.1902 14.1002 1173 117.322 480.684 476.691
926 0 85.1487 14.2104 1210 117.826 480.613 474.102
927 0 85.1366 14.0363 1195 170.128 480.631 473.881
928 0 92.134 14.0122 1291 116.46 480.649 470.657
929 0 95.1428 13.958 1328 116.566 480.377 468.654
930 0 99.2059 14.3338 1422 115.216 480.267 468.31
931 1 46.0515 9.31566 429 96.9044 482.075 497.671
932 0 49.0369 9.93129 487 95.501 481.71 498.333
933 0 47.1457 9.33277 440 85.2545 479.798 498.959
934 0 48.1391 8.97399 432 86.0949 478.748 500.088
935 0 49.1442 9.38056 461 87.6161 478.876 498.226
936 0 50.1928 9.78227 491 88.5682 478.688 496.44
937 0 54.1514 10.0274 543 87.1713 478.234 497.295
938 0 54.124 9.71842 526 88.7985 478.156 496.738
939 0 53.2171 9.24516 492 91.8476 477.659 494.608
940 0 57.1801 10.2483 586 89.041 477.973 493.49
941 0 58.1253 9.90962 576 89.2986 477.37 493.698
942 0 60.2182 10.1464 611 89.7709 477.327 491.52
943 0 63.1806 10.6204 671 88.2504 477.21 491.055
944 0 65.2233 9.49048 619 89.0808 477.591 489.176
945 0 67.3151 9.49268 639 89.4585 477.294 488.338
946 0 69.275 9.45507 655 90.1053 476.847 486.234
947 0 70.3475 9.9506 700 89.1957 476.8 484.539
948 0 73.1713 9.62126 704 90.1918 476.42 483.906
949 0 77.2709 9.58964 741 90.1039 477.395 482.196
950 0 78.2092 9.64081 754 92.2467 477.18 479.103
951 0 80.1998 9.26437 743 100.75 477.121 478.201
952 0 85.3105 9.4244 804 100.276 477.67 475.33
953 0 84.4157 9.42953 796 102.353 479.302 475.569
954 0 89.4083 9.94315 889 102.488 477.862 476.189
955 0 90.5196 10.2298 926 102.826 478.208 473.666
956 0 93.4709 8.50532 795 94.2566 477.693 473.148
957 0 96.583 9.78433 945 93.128 477.454 468.614
958 0 100.645 9.5882 965 92.8767 478.14 464.263
959 0 107.574 9.42608 1014 92.0809 478.552 465.752
960 0 109.417 9.82478 1075 91.1823 478.559 462.623
961 0 113.719 9.66414 1099 89.4641 478.686 464.689
962 0 114.6 9.48513 1087 90.8013 478.402 462.486
963 0 118.679 9.67313 1148 91.2343 478.283 461.277
964 0 120.581 9.30493 1122 92.5481 478.278 458.709
965 0 126.611 10.8758 1377 88.6492 478.666 457.37
966 1 67.4605 10.584 714 91.6485 480.125 487.175
967 0 69.4756 11.2845 784 89.3559 480.276 487.124
968 0 72.3684 10.9026 789 90.6755 480.316 482.355
969 0 73.4693 10.6303 781 91.9232 480.676 485.56
970 0 75.5861 10.3723 784 94.1505 480.514 479.478
971 0 77.4038 10.3225 799 94.4343 480.66 478.757
972 0 77.4967 10.052 779 99.4134 480.404 479.285
973 0 78.4385 9.8931 776 97.9961 480.772 478.371
974 0 83.4289 10.3321 862 94.565 480.886 477.32
975 0 84.334 10.3043 869 94.8826 480.948 476.458
976 0 87.3267 11.1764 976 92.7613 480.725 473.901
977 0 89.3252 10.8704 971 94.6498 480.522 471.617
978 0 90.2966 10.5209 950 95.1305 480.12 472.162
979 0 92.3514 10.7308 991 103.537 481.041 471.782
980 0 94.3473 10.1116 954 107.495 481.201 469.247
981 0 95.3768 9.95001 949 107.3 481.664 468.027
982 0 97.337 9.69827 944 110.013 480.936 466.352
983 0 101.337 10.1049 1024 97.9785 480.985 464.923
984 0 103.283 10.3018 1064 97.6889 479.945 463.289
985 0 103.208 9.26284 956 101.651 480.35 459.769
986 0 106.175 9.92703 1054 99.5455 480.089 457.845
987 0 110.17 10.0572 1108 100.312 479.988 456.291
988 0 111.162 9.75156 1084 101.2 480.589 452.275
989 0 113.094 10.0448 1136 101.312 480.163 450.622
990 0 120.172 10.4018 1250 99.8024 481.11 451.574
991 0 121.27 10.1674 1233 100.541 479.773 445.489
992 0 127.409 11.4827 1463 97.9993 480.341 447.075
993 0 132.365 11.8687 1571 97.31 480.475 447.045
994 0 134.45 10.4203 1401 102.812 480.059 441.601
995 0 139.543 10.5559 1473 100.193 479.955 440.673
996 0 144.523 10.9187 1578 100.034 479.824 438.563
997 0 147.648 10.5521 1558 101.035 480.298 434.987
998 0 151.678 10.0344 1522 102.365 480.907 432.332
999 0 151.611 10.1641 1541 103.923 480.061 426.043
1000 0 158.623 10.6163 1684 101.68 480.072 424.258
1001 0 162.529 11.1734 1816 99.8877 479.812 422.562
1002 0 167.49 11.326 1897 99.0485 479.925 420.345
1003 0 168.536 11.8195 1992 98.754 480.054 416.639
1004 0 175.475 10.9987 1930 100.688 480.14 413.036
1005 0 183.387 11.3857 2088 103.557 480.364 412.016
1006 0 190.549 12.6739 2415 97.2534 480.956 411.27
1007 0 196.529 12.4511 2447 98.5476 481.614 409.871
1008 0 200.452 12.392 2484 98.7476 481.289 408.645
1009 0 205.535 11.9347 2453 99.5687 480.629 408.419
1010 0 212.51 12.2488 2603 98.9074 481.041 402.038
1011 0 216.518 11.9205 2581 100.332 480.26 399.078
1012 0 225.518 12.132 2736 99.7387 479.971 395.715
1013 1 90.1868 6.6196 597 83.8794 481.161 478.58
1014 0 81.2039 5.14754 418 84.3708 480.84 475.624
1015 0 78.1427 7.02561 549 83.2259 478.953 468.403
1016 1 51.0498 9.36341 478 80.7448 478.435 492.243
1017 0 52.1145 9.36399 488 83.6373 480.467 491.441
1018 0 49.1594 8.27919 407 72.5602 483.912 493.654
1019 0 50.0333 8.83412 442 75.6833 483.756 493.335
1020 0 53.0238 9.01482 478 75.2866 483.441 493.335
1021 0 57.1242 10.2058 583 73.2933 484.01 491.966
1022 0 58.0476 10.4742 608 73.4885 484.25 493.354
1023 0 59.0764 10.2071 603 74.8756 484.216 492.647
1024 0 62.0988 10.2901 639 74.4366 484.081 490.302
1025 0 64.0741 10.0977 647 73.1298 483.904 491.434
1026 0 65.1777 10.3103 672 72.5476 482.973 488.945
1027 0 67.0693 9.91512 665 72.588 482.934 488.967
1028 0 68.0604 8.85978 603 73.8939 483.146 489.741
1029 0 72.1226 10.1078 729 72.1056 482.888 485.711
1030 0 72.1262 9.05358 653 73.0245 482.706 488.24
1031 0 75.1695 9.97746 750 70.4747 482.48 484.784
1032 0 77.1025 10.0516 775 71.4684 482.617 484.065
1033 0 77.1087 8.71497 672 73.933 482.859 483.564
1034 0 81.0502 9.58666 777 73.1261 482.12 481.309
1035 1 44.0231 9.88117 435 75.9241 482.522 497.648
1036 0 45.1387 9.94712 449 74.3653 479.265 496.1
1037 0 47.0979 9.97922 470 74.0766 479.077 496.689
1038 0 42.0255 8.09032 340 71.2029 481.644 498.997
1039 0 43.0137 8.18345 352 70.6648 481.176 498.264
1040 0 42.0189 7.40143 311 71.4727 481.315 497.447
1041 0 46.0696 7.74915 357 70.4482 483.028 497.022
1042 0 53.0341 11.0872 588 63.0901 482.946 490.639
1043 0 47.2294 8.59635 406 64.0591 482.537 487.084
1044 0 51.1883 5.86071 300 67.8967 482.767 489.81
1045 0 47.2777 7.14925 338 70.1302 482.201 486.349
1046 0 49.2185 8.22861 405 70.2938 480.605 482.037
1047 0 52.271 8.26462 432 70.8889 482.648 483.9
1048 0 57.1777 9.58415 548 75.042 483.141 489.219
1049 0 55.2855 8.28426 458 73.19 480.725 485.081
1050 0 57.2445 7.96584 456 73.3136 481.548 483.969
1051 0 62.2584 8.83414 550 72.4636 481.607 486.702
1052 0 63.2186 9.49088 600 72.6767 481.655 484.273
1053 0 62.0534 9.4596 587 79.4804 479.422 488.69
1054 0 66.0367 10.2367 676 78.247 479.626 488.309
1055 0 72.0532 11.2417 810 75.5543 480.241 487.294
1056 0 73.0458 10.7193 783 77.1315 480.475 486.99
1057 0 75.0937 11.4524 860 76.1256 480.086 486.416
1058 0 76.0446 10.9804 835 78.5952 479.538 485.889
1059 0 81.0416 11.5249 934 76.5578 479.954 485.742
1060 0 84.0371 11.8162 993 77.1108 480.232 486.687
1061 0 85.0468 11.2644 958 80.5146 479.739 481.599
1062 0 87.1487 11.7959 1028 81.1021 479.881 481.85
1063 1 49.0267 11.3816 558 86.5556 480.095 500.946
1064 0 50.2726 11.6167 584 85.0582 481.993 497.344
1065 0 53.261 12.0163 640 80.3375 482.345 497.675
1066 0 54.1977 12.4729 676 77.6834 482.361 496.689
1067 0 54.1267 12.0458 652 79.5905 482.916 496.676
1068 0 57.2323 12.1085 693 80.0548 482.792 497.185
1069 0 57.1352 12.8642 735 80.1837 482.97 496.624
1070 0 59.2224 13.0694 774 80.6447 482.483 494.76
1071 0 59.2277 12.2071 723 84.1853 481.87 493.781
1072 0 62.2117 13.4219 835 80.818 482.641 493.964
1073 0 61.1564 12.4435 761 86.9855 482.636 493.535
1074 0 64.2309 12.9377 831 86.0734 482.278 493.335
1075 0 63.3074 12.7473 807 88.9269 482.519 493.984
1076 0 68.289 13.8236 944 83.8697 481.756 492.129
1077 0 69.2424 13.0411 903 86.4618 482.134 490.901
1078 0 69.2152 13.3352 923 87.0607 481.975 490.372
1079 0 72.2405 12.7629 922 88.8091 482.278 489.089
1080 0 73.2216 13.0426 955 89.488 481.805 488.102
1081 0 74.248 11.6232 863 94.4902 481.906 486.956
1082 0 76.2169 12.4251 947 93.9525 481.919 487.06
1083 0 80.2339 12.5633 1008 93.878 481.644 485.276
1084 0 83.2367 12.5426 1044 93.7807 481.781 484.057
1085 0 85.2248 12.8484 1095 93.6237 481.897 483.045
1086 0 87.2673 12.7425 1112 93.5953 482.079 481.946
1087 0 90.1852 12.7294 1148 94.1315 482.073 479.801
1088 1 47.0703 11.0685 521 92.2188 482.893 502.01
1089 0 48.022 10.9741 527 106.389 482.609 501.355
1090 0 51.0249 11.6218 593 110.555 482.963 499.553
1091 0 52.1056 11.5343 601 111.684 481.063 498.253
1092 0 49.0253 11.1371 546 103.117 482.214 492.971
1093 0 51.0594 11.1439 569 102.691 482.285 493.197
1094 0 51.0328 11.2281 573 103.763 482.443 492.36
1095 0 52.05 10.586 551 105.568 482.445 489.78
1096 0 53.0234 11.0706 587 104.867 482.506 490.116
1097 0 56.0386 10.9032 611 92.9689 481.543 489.607
1098 0 57.015 10.5586 602 93.7143 482.128 490.341
1099 0 61.0216 10.2095 623 92.2472 480.263 490.722
1100 0 60.0088 11.0484 663 91.7722 481.83 488.451
1101 0 64.0435 11.1643 715 90.9692 481.627 485.671
1102 0 64.1013 10.5458 676 93.0148 481.891 484.749
1103 0 67.1037 10.0144 672 100.571 482.201 483.693
1104 0 69.0431 10.3993 718 91.0975 481.18 483.472
1105 0 71.1397 11.0065 783 90.9361 481.485 479.927
1106 0 72.1811 10.3074 744 92.2056 481.414 480.723
1107 0 77.2169 10.0367 775 91.7948 481.307 476.879
1108 1 35.0681 9.21065 323 89.0186 481.802 499.632
1109 0 38.1663 9.51101 363 88.6722 481.27 499.438
1110 0 40.1682 9.93323 399 88.6792 481.526 498.504
1111 0 42.0446 12.011 505 96.5287 482.481 503.069
1112 0 45.0698 11.693 527 100.101 481.311 501.268
1113 0 47.1037 11.4428 539 99.7124 482.521 500.861
1114 0 48.1339 11.1772 538 100.545 482.281 499.628
1115 0 46.0299 11.2318 517 102.232 482.015 500.426
1116 0 49.0585 11.9042 584 99.6798 482.793 499.022
1117 0 50.0648 11.4452 573 100.272 482.443 497.311
1118 0 52.0481 10.913 568 99.9824 482.486 497.856
1119 0 50.1213 10.9335 548 103.425 480.719 497.166
1120 0 55.0849 11.564 637 100.168 480.713 495.666
1121 0 57.0725 10.7582 614 101.822 480.547 495.904
1122 0 56.1507 11.3801 639 101.216 481.405 495.626
1123 0 64.0894 13.4344 861 94.7561 481.317 495.513
1124 0 64.1424 13.1894 846 95.8416 481.83 494.332
1125 0 68.2081 13.1949 900 95.4122 481.899 492.833
1126 0 71.1939 13.105 933 95.0407 482.285 493.177
1127 0 68.099 12.2909 837 100.012 482.233 493.174
1128 0 71.1581 12.2685 873 99.8007 481.586 491.64
1129 0 74.1015 12.186 903 101.048 481.457 490.87
1130 0 78.2139 13.0156 1018 97.7859 481.773 488.492
1131 0 80.2102 12.3924 994 99.5151 481.658 488.454
1132 1 42.0121 11.6633 490 105.765 482.386 504.955
1133 0 44.0307 11.2876 497 104.998 482.012 505.66
1134 0 45.0428 11.9886 540 103.402 480.107 501.956
1135 0 45.0257 12.7039 572 103.178 479.64 502.273
1136 0 44.0154 11.5868 510 106.788 479.476 504.059
1137 0 46.0148 11.8223 544 105.241 479.572 502.233
1138 0 46.0655 12.7861 589 103.138 480.643 501.839
1139 0 47.054 12.135 571 105.725 480.623 502.919
1140 0 49.0477 12.7223 624 103.857 480.774 505.391
1141 0 51.0289 12.2088 623 106.841 479.363 502.493
1142 0 53.0281 12.3331 654 106.416 479.255 499.615
1143 0 55.0271 12.5756 692 107.368 478.793 498.496
1144 0 56.1076 12.8147 719 107.195 480.989 498.698
1145 0 58.0932 13.2374 769 105.697 481.222 497.688
1146 0 57.1056 12.7308 727 109.788 481.549 497.297
1147 0 62.0731 13.0169 808 108.979 480.13 498.058
1148 0 62.1677 12.9489 805 113.12 480.708 496.296
1149 0 64.1736 12.6688 813 114.424 481.278 495.352
1150 0 68.1828 13.4931 920 98.6565 481.737 493.407
1151 0 67.0981 13.5026 906 99.34 481.168 493.269
1152 0 71.1383 13.4667 958 99.4885 480.53 491.803
1153 0 74.1217 13.8286 1025 98.1844 479.709 491.489
1154 0 77.1505 13.4283 1036 98.6515 480.466 491.346
1155 0 79.0865 13.6686 1081 97.8871 480.068 490.097
1156 0 80.1442 13.6629 1095 99.7041 479.664 487.627
1157 0 84.1286 13.8003 1161 98.5633 480.208 488.004
1158 0 86.1494 13.9409 1201 98.9808 480.28 486.455
1159 0 89.1769 13.0751 1166 100.925 480.828 485.729
1160 0 93.0939 14.1148 1314 98.2717 480.401 483.022
1161 0 96.1179 14.5758 1401 97.2926 480.685 481.695
1162 1 50.0588 12.3055 616 106.117 481.042 503.117
1163 0 51.0434 12.7343 650 105.788 480.792 501.163
1164 0 53.0365 13.4624 714 101.083 480.115 500.301
1165 0 53.0314 13.6523 724 103.465 477.975 499.681
1166 0 54.0144 13.8852 750 102.287 478.545 499.484
1167 0 57.0702 13.9828 798 102.015 478.429 499.622
1168 0 59.0805 14.0656 831 100.16 480.788 499.178
1169 0 59.0641 14.0695 831 102.586 480.647 498.226
1170 0 61.0712 13.9182 850 102.287 481.069 497.573
1171 0 63.0723 14.2535 899 102.032 481.068 495.832
1172 0 65.1382 13.8168 900 104.181 480.02 496.03
1173 0 67.0806 14.2813 958 103.433 480.433 495.825
1174 0 69.1354 15.1731 1049 101.705 480.062 494.077
1175 0 69.1846 14.0349 971 107.457 479.951 492.004
1176 0 73.0817 13.9433 1019 106.871 479.207 490.882
1177 0 75.1145 14.0319 1054 107.354 479.741 490.13
1178 0 76.1023 13.6264 1037 109.531 479.635 488.311
1179 0 79.1503 14.0366 1111 108.619 479.382 487.152
1180 0 77.144 13.4554 1038 147.99 479.318 486.274
1181 0 83.126 13.1006 1089 113.115 479.882 488.224
1182 0 85.1239 13.2513 1128 114.053 480.505 485.944
1183 0 89.1465 13.9097 1240 110.99 478.858 484.502
1184 0 92.2628 13.2556 1223 112.617 478.95 480.752
1185 0 96.1906 12.8911 1240 111.557 478.929 479.647
1186 1 51.0427 12.323 629 109.382 480.022 500.326
1187 0 52.0318 12.9728 675 105.708 480.476 500.07
1188 0 54.0669 12.5585 679 106.819 480.046 499.672
1189 0 56.0367 13.277 744 112.608 480.429 499.704
1190 0 59.0247 13.1809 778 111.689 479.973 498.497
1191 0 61.0552 13.2994 812 111.442 481.118 495.441
1192 0 64.0732 13.3909 858 110.594 481.049 494.811
1193 0 65.0595 13.8642 902 110.897 480.878 495.151
1194 0 67.0444 13.5134 906 111.51 480.688 493.189
1195 0 68.0633 13.2377 901 112.979 480.291 492.354
1196 0 70.0242 13.5382 948 112.131 479.578 491.734
1197 0 74.0603 13.435 995 111.94 480.259 491.894
1198 0 74.0483 12.9915 962 114.325 479.762 490.714
1199 0 78.0356 14.0833 1099 110.833 479.628 488.605
1200 0 79.1397 13.8868 1099 111.397 478.388 487.631
1201 0 83.0995 13.8027 1147 111.303 478.704 486.337
1202 0 84.0336 13.923 1170 110.518 478.121 487.233
1203 0 85.1554 13.4343 1144 113.627 479.016 484.722
1204 0 89.2398 13.3797 1194 113.932 479.652 483.523
1205 0 91.2653 13.2361 1208 113.193 479.59 481.024
1206 0 94.2004 13.8853 1308 111.733 479.607 481.598
1207 0 95.1885 13.4365 1279 113.281 479.933 479.845
1208 0 98.1129 13.7699 1351 112.477 480.655 477.135
1209 0 101.177 13.1848 1334 113.154 480.774 476.672
1210 0 103.217 13.8543 1430 112.136 480.751 475.029
1211 0 107.233 13.6245 1461 112.105 480.036 473.464
1212 0 110.157 13.6351 1502 112.035 479.423 470.953
1213 0 115.292 13.9212 1605 109.179 480.023 469.574
1214 0 117.16 13.3919 1569 108.959 480.434 467.507
1215 0 120.167 12.9652 1558 108.595 480.202 466.899
1216 0 124.111 13.222 1641 105.064 479.45 463.608
1217 0 128.26 13.0048 1668 104.772 479.047 462.838
1218 0 132.177 13.2095 1746 105.498 479.721 460.081
1219 0 139.207 13.7565 1915 102.875 480.18 456.173
1220 0 140.3 13.0435 1830 106.636 480.29 453.987
1221 0 145.267 12.9968 1888 107.246 479.935 452.472
1222 0 148.338 13.267 1968 107.999 480.366 448.6
1223 0 154.348 13.5991 2099 106.487 480.216 448.707
1224 0 159.199 13.3293 2122 107.719 479.666 444.865
1225 0 163.245 13.8258 2257 108.34 479.294 442.376
1226 0 170.337 13.6964 2333 108.893 478.86 439.213
1227 0 174.16 13.6081 2370 110.588 478.917 433.163
1228 0 180.269 13.7018 2470 110.32 479.203 435.03
1229 0 186.333 14.0072 2610 109.055 478.667 431.661
1230 0 193.389 14.2821 2762 109.859 478.189 427.188
1231 0 198.381 13.7765 2733 113.013 478.727 423.846
1232 0 205.337 14.1669 2909 112.692 477.789 421.451
1233 0 210.405 13.7687 2897 113.686 479.014 416.027
1234 0 215.397 13.7792 2968 114.044 478.725 414.01
1235 0 222.447 14.0663 3129 112.037 479.23 410.764
1236 0 228.381 13.7446 3139 113.32 479.052 404.712
1237 1 61.2579 10.4313 639 97.7324 480.056 489.563
1238 0 65.1291 11.7613 766 93.124 480.415 490.415
1239 0 66.0385 11.357 750 95.9173 479.539 490.536
1240 0 67.1504 11.9136 800 94.925 481.031 493.064
1241 0 71.1338 12.596 896 91.3482 481.59 488.643
1242 0 73.1515 12.2759 898 92.461 481.078 487.637
1243 0 74.1419 12.0715 895 95.7609 480.697 484.042
1244 0 76.3229 11.7396 896 99.0279 479.426 483.419
1245 0 79.1813 12.0862 957 95.721 480.043 481.515
1246 0 84.2645 12.6388 1065 93.1446 480.143 479.247
1247 0 85.2183 11.6876 996 95.2299 479.146 476.988
1248 0 87.2047 11.5934 1011 95.4857 479.18 475.561
1249 0 93.1305 13.6046 1267 87.5667 478.281 470.809
1250 0 94.1058 12.0928 1138 93.1511 479.331 472.254
1251 0 95.1643 11.559 1100 93.1473 479.304 469.115
1252 0 100.165 11.3313 1135 91.2511 479.532 470.264
1253 0 101.255 10.8143 1095 91.937 479.531 469.374
1254 0 104.2 11.3916 1187 89.957 480.334 471.467
1255 0 107.212 11.0715 1187 90.7178 480.035 467.421
1256 0 109.126 11.0515 1206 91.6451 480.878 464.155
1257 0 111.232 9.74536 1084 93.1596 479.145 464.855
1258 0 113.308 9.85812 1117 93.6043 480.219 460.724
1259 0 118.324 10.336 1223 92.8414 479.355 454.055
1260 0 123.361 10.4247 1286 92.9168 479.824 455.026
1261 0 125.377 9.65089 1210 94.676 479.868 449.441
1262 0 128.418 9.53134 1224 94.8268 480.134 449.614
1263 0 132.423 10.474 1387 94.5753 479.738 447.847
1264 0 134.374 10.2103 1372 95.4155 480.329 443.578
1265 0 140.358 10.7369 1507 94.2966 480.014 442.039
1266 0 145.39 11.2525 1636 92.8105 480.187 444
1267 0 150.387 11.2044 1685 91.8475 479.65 443.627
1268 0 155.405 11.4153 1774 92.9752 479.809 439.783
1269 0 160.403 11.9262 1913 92.5044 479.596 439.81
1270 0 165.25 12.0302 1988 95.1569 479.01 436.013
1271 0 169.28 12.3759 2095 95.3041 479.747 432.499
1272 0 174.355 11.9928 2091 96.5103 478.991 429.63
1273 0 177.359 12.6918 2251 96.8894 479.216 425.874
1274 0 183.332 12.8455 2355 98.0301 478.701 423.058
1275 0 190.423 13.5488 2580 97.324 479.662 418.621
1276 0 195.519 13.6048 2660 98.6278 480.118 416.365
1277 0 201.513 13.4979 2720 98.5364 480.608 415.846
1278 0 208.511 13.4525 2805 100.246 479.903 412.063
1279 0 214.459 13.8441 2969 101.188 478.881 410.099
1280 1 163.352 11.1477 1821 104.427 479.465 435.617
1281 0 168.376 12.092 2036 104.331 479.377 435.461
1282 0 173.399 12.4626 2161 103.276 479.719 432.761
1283 0 177.429 12.343 2190 105.047 479.466 430.095
1284 0 185.411 12.7446 2363 102.813 479.892 427.143
1285 0 190.357 12.5553 2390 102.432 480.369 424.493
1286 0 196.466 11.7272 2304 104.004 479.857 417.528
1287 0 202.527 12.5069 2533 103.383 479.92 409.569
1288 1 59.1909 8.78513 520 85.025 481.319 488.25
1289 0 54.3428 10.0105 544 82.5404 481.673 488.779
1290 0 55.1696 11.0387 609 81.2069 481.645 489.767
1291 0 57.1533 11.233 642 80.6604 481.249 488.707
1292 0 58.1618 12.087 703 85.5462 482.612 487.34
1293 0 60.1094 11.4125 686 87.0802 482.208 490.37
1294 0 61.0916 11.6219 710 87.4887 482.494 490.237
1295 0 62.1208 12.1698 756 86.9907 482.524 490.499
1296 0 63.1296 11.7061 739 98.5792 482.413 488.727
1297 0 66.1095 11.8289 782 88.7455 481.977 487.155
1298 0 65.1761 10.9396 713 77.3675 480.236 488.776
1299 0 68.1109 10.5857 721 77.2857 480.369 488.291
1300 0 68.1587 9.84468 671 78.8405 480.295 486.133
1301 0 71.084 10.6634 758 76.3153 479.573 484.609
1302 0 71.1508 9.88042 703 78.0754 479.75 484.482
1303 0 73.1869 10.0291 734 77.6975 480.061 485.76
1304 0 76.1098 9.7228 740 78.6581 479.546 485.161
1305 0 76.1323 9.35214 712 80.236 479.331 483.483
1306 0 80.123 8.61176 690 81.1942 479.112 483.051
1307 0 82.1912 8.34639 686 80.6895 479.515 483.405
1308 0 85.3131 9.83437 839 81.5697 479.162 478.706
1309 0 89.1289 10.0753 898 88.5156 477.913 475.922
1310 0 92.1115 10.5741 974 87.694 478.235 473.833
1311 1 44.0229 8.35929 368 85.6984 478.736 493.079
1312 0 41.0551 9.13407 375 83.5867 478.568 490.811
1313 0 46.0675 9.85511 454 81.5947 478.293 490.421
1314 0 46.0675 9.85511 454 108.797 477.295 490.465
1315 0 50.0873 9.86279 494 81.4757 481.745 500.184
1316 0 53.1085 10.7892 573 80.925 481.632 497.618
1317 0 55.149 9.62846 531 82.3578 481.65 497.682
1318 0 55.1742 9.58782 529 82.189 481.565 494.896
1319 0 58.216 10.1175 589 80.5025 481.837 495.73
1320 0 60.1012 9.68367 582 81.0756 482.107 498.216
1321 0 60.2521 10.8876 656 79.4665 482.056 496.915
1322 0 63.2588 10.4333 660 79.4682 481.473 494.32
1323 0 67.1551 11.5851 778 78.2841 481.343 492.937
1324 0 68.2687 12.1725 831 78.7605 481.546 489.31
1325 0 71.2586 11.7039 834 78.8333 482.098 490.693
1326 0 72.1978 11.9256 861 78.9466 483.498 489.422
1327 0 75.2209 11.7654 885 79.6147 481.451 486.938
1328 0 76.2136 11.1398 849 81.636 482.642 487.291
1329 0 80.2935 11.4331 918 80.5098 480.546 485.559
1330 0 84.3157 11.623 980 80.3429 480.162 483.479
1331 0 87.2522 12.3206 1075 80.3312 480.403 481.132
1332 0 89.3143 11.5995 1036 82.7288 480.263 478.914
1333 0 88.1479 11.9118 1050 81.5238 481.81 478.31
1334 1 47.0145 10.4436 491 84.6925 482.802 498.226
1335 0 48.0337 11.1172 534 81.9981 482.345 498.468
1336 0 49.0187 11.0774 543 83.7587 481.932 496.363
1337 0 52.0505 11.2199 584 84.7808 479.122 496.825
1338 0 51.1199 10.3874 531 79.2863 481.36 499.791
1339 0 48.1718 8.53197 411 84.6594 481.547 493.881
1340 0 54.128 10.0687 545 79.9523 481.022 499.147
1341 0 56.1298 10.8677 610 78.3623 480.693 498.182
1342 0 56.1129 10.1937 572 79.9388 481.262 499.075
1343 0 60.1416 10.7081 644 79.0606 480.879 497.79
1344 0 63.207 11.3753 719 75.3074 480.074 497.273
1345 0 62.1604 10.7464 668 77.4192 480.678 496.804
1346 0 64.1641 10.9407 702 76.7393 480.204 495.299
1347 0 66.1827 10.8488 718 76.1295 480.086 494.595
1348 0 68.234 10.7278 732 77.097 480.44 493.825
1349 0 73.1923 12.0368 881 75.7753 480.07 492.558
1350 0 74.1986 12.0487 894 77.6141 479.672 491.488
1351 0 77.1917 11.6722 901 78.707 480.204 487.296
1352 0 78.181 11.7548 919 79.2481 479.864 487.99
1353 0 82.2283 11.6991 962 78.7911 479.475 486.877
1354 0 86.2071 11.8552 1022 78.1194 479.551 484.324
1355 0 87.2232 12.0381 1050 79.3152 478.595 483.316
1356 0 90.1784 11.8543 1069 79.6324 479.299 482.842
1357 0 93.3638 12.2639 1145 78.4917 478.985 478.835
1358 1 51.0437 10.5204 537 79.7728 479.939 499.512
1359 0 53.0919 11.5272 612 79.415 480.369 499.034
1360 0 53.1163 11.1454 592 80.3632 480.465 498.483
1361 0 55.0818 11.2015 617 79.0648 481.037 496.227
1362 0 58.1498 11.7799 685 75.4 480.422 499.715
1363 0 56.1224 11.2967 634 74.9117 480.822 500.789
1364 0 58.1738 11.139 648 75.3256 480.787 498.002
1365 0 61.1798 11.8013 722 74.1094 480.429 498.724
1366 0 62.2021 11.3983 709 74.8604 480.186 496.577
1367 0 64.2052 10.8091 694 75.621 480.122 497.187
1368 0 65.282 11.0291 720 76.4736 480.038 495.547
1369 0 67.2159 11.6342 782 77.3619 480.301 494.825
1370 0 69.243 11.4091 790 76.038 479.687 492.703
1371 0 72.1823 11.2631 813 77.0135 479.432 494.449
1372 0 75.1261 11.8334 889 75.8616 479.731 491.109
1373 0 76.2196 11.7686 897 76.379 479.835 489.242
1374 0 79.1321 11.9926 949 76.176 480.07 489.653
1375 0 80.178 11.7239 940 76.683 479.555 487.483
1376 0 83.1743 12.1312 1009 74.5679 479.503 486.478
1377 0 84.2143 12.0882 1018 73.4253 479.49 483.638
1378 0 85.1682 11.8237 1007 74.2334 479.422 482.28
1379 0 86.1857 11.8117 1018 70.7495 479.821 485.277
1380 0 87.1314 12.3492 1076 75.4796 480.035 484.179
1381 0 86.2381 11.2015 966 79.5828 479.814 483.617
1382 0 88.1454 11.7079 1032 80.1841 478.007 483.986
1383 0 90.1263 10.6961 964 81.5446 477.804 482.554
1384 0 90.0617 11.3145 1019 79.316 477.573 478.546
1385 0 95.1079 11.1768 1063 77.6914 477.193 477.396
1386 0 97.0761 11.2901 1096 75.6697 477.963 476.939
1387 1 51.039 10.443 533 74.8199 477.475 498.925
1388 0 57.0447 11.5173 657 72.4216 478.139 500.909
1389 0 59.0378 11.5011 679 71.2239 477.626 498.443
1390 0 59.2488 12.2028 723 69.538 478.014 498.361
1391 0 58.2553 11.5354 672 72.497 478.54 496.515
1392 0 61.2384 12.1002 741 71.0229 478.314 497.538
1393 0 64.2236 11.8648 762 72.1693 478.949 495.406
1394 0 64.2672 12.1057 778 74.0167 478.645 493.954
1395 0 64.2672 12.0901 777 127.039 478.646 494.069
1396 0 69.3042 12.3802 858 76.4615 478.826 492.255
1397 0 70.3511 11.6842 822 79.7336 478.622 491.803
1398 0 72.2742 12.2312 884 82.4186 479.035 491.777
1399 0 74.2809 12.52 930 83.3054 478.442 490.158
1400 0 77.2465 12.5054 966 82.9607 477.961 490.171
1401 0 79.3668 12.9147 1025 83.9063 478.446 490.247
1402 0 83.3239 12.9495 1079 85.2882 478.086 486.491
1403 0 83.2064 12.6192 1050 88.3714 477.513 485.099
1404 0 87.3831 12.0504 1053 89.8936 477.784 484.938
1405 0 89.3845 12.3735 1106 91.3788 477.39 483.563
1406 0 92.1962 12.289 1133 93.6205 477.68 481.388
1407 1 47.1054 10.9117 514 91.1673 479.27 505.27
1408 0 48.1498 10.945 527 94.4516 478.543 499.184
1409 0 50.0521 11.5879 580 92.0862 478.478 499.836
1410 0 50.1172 11.5729 580 95.7724 478.791 501.533
1411 0 48.0546 11.695 562 95.4021 477.69 503.961
1412 0 52.102 12.5139 652 94.0414 477.925 503.026
1413 0 53.1152 13.0283 692 92.4668 478.256 502.238
1414 0 56.1008 13.2797 745 95.3436 477.894 501.243
1415 0 57.1276 12.7434 728 95.3874 477.53 500.62
1416 0 57.0934 13.0663 746 96.1743 477.66 499.5
1417 0 59.1454 13.0695 773 98.1811 478.119 499.34
1418 0 61.1315 13.7572 841 96.6992 478.191 498.586
1419 0 62.0685 13.2273 821 98.592 477.669 498.715
1420 0 64.1542 13.5611 870 97.3494 478.436 496.922
1421 0 67.2254 13.2985 894 97.1767 477.768 497.369
1422 0 68.2158 13.7212 936 97.469 478.438 495.215
1423 0 70.2805 13.688 962 96.7069 477.953 492.208
1424 0 70.1713 13.2818 932 97.647 478.237 491.267
1425 0 75.1667 13.4102 1008 95.7798 478.093 491.202
1426 0 75.1787 12.6765 953 94.0871 478.237 487.915
1427 0 78.2538 13.0601 1022 92.5568 478.636 486.522
1428 0 80.2307 13.0997 1051 92.7441 479.393 487.397
1429 0 82.3371 13.3233 1097 105.315 478.896 484.875
1430 0 83.1486 12.3273 1025 101.719 479.184 485.95
1431 0 86.142 12.6884 1093 101.142 479.217 484.023
1432 0 90.2328 13.3433 1204 101.317 479.436 481.027
1433 0 91.3049 12.7923 1168 99.3682 479.345 480.606
1434 0 95.3543 12.679 1209 99.2969 479.543 480.037
1435 0 95.4742 12.5269 1196 100.572 479.452 476.004
1436 0 98.2527 12.1014 1189 98.603 479.717 475.558
1437 0 100.392 11.5347 1158 100.168 479.492 474.123
1438 0 105.35 11.6659 1229 97.2571 479.729 473.052
1439 1 55.2551 10.0805 557 89.7271 479.953 498.248
1440 0 57.2215 11.4642 656 86.4314 480.064 496.886
1441 0 59.3359 10.9883 652 86.9739 479.758 494.566
1442 0 63.2075 11.4543 724 92.0276 479.046 494.356
1443 0 64.325 11.2087 721 96.5798 479.535 492.989
1444 0 66.2923 11.4191 757 96.074 480.038 491.169
1445 0 67.367 11.801 795 99.0528 480.275 489.689
1446 0 68.2754 11.644 795 100.02 480.484 488.584
1447 0 75.2964 12.4707 939 94.6688 479.886 488.531
1448 0 75.2922 12.4714 939 95.3237 480.23 486.229
1449 0 77.2495 12.1036 935 95.6321 479.632 482.954
1450 0 79.2505 12.1892 966 96.2629 480.519 483.598
1451 0 81.317 12.3467 1004 97.5966 480.564 482.691
1452 0 85.3107 12.8706 1098 94.8561 480.046 480.537
1453 0 87.3804 11.9706 1046 98.0335 480.601 477
1454 0 89.3173 12.0805 1079 98.0982 480.892 474.906
1455 0 93.2771 12.2645 1144 96.2771 480.572 475.807
1456 1 47.0713 10.7497 506 94.7332 481.215 498.65
1457 0 50.0998 11.9362 598 90.2826 481.05 497.059
1458 0 50.0533 11.248 563 94.4316 481.615 498.087
1459 0 52.1764 11.9786 625 90.6864 480.88 497.146
1460 0 56.3012 11.0477 622 97.082 479.712 496.265
1461 0 55.3397 11.3481 628 97.5717 479.917 494.909
1462 0 58.3678 11.3933 665 95.415 479.576 494.841
1463 0 60.3297 11.1554 673 92.8395 479.654 494.612
1464 0 60.34 11.5512 697 93.6399 479.442 493.9
1465 0 64.3627 11.7459 756 91.2063 479.394 491.901
1466 0 64.299 11.3843 732 92.3429 479.585 491.399
1467 0 66.1702 12.0145 795 91.1208 479.224 489.312
1468 0 68.3511 12.1724 832 90.655 479.404 490.076
1469 0 69.3923 11.7592 816 91.7279 479.262 487.643
1470 0 69.3347 11.4517 794 91.2179 479.258 487.122
1471 0 74.275 11.3228 841 90.9168 478.725 485.741
1472 0 74.3432 11.2182 834 91.1067 478.76 484.9
1473 0 74.3027 11.1705 830 128.904 478.739 484.833
1474 0 79.4218 10.7023 850 92.0012 478.644 481.282
1475 0 82.2607 11.1232 915 89.6721 479.13 481.993
1476 0 84.4372 11.0852 936 92.7553 479.274 476.247
1477 0 87.2822 11.1248 971 90.4964 478.82 473.228
1478 1 44.0722 10.6643 470 83.5106 479.838 490.113
1479 0 45.0839 10.3141 465 83.1183 479.994 490.705
1480 0 46.0686 11.5697 533 82.0056 479.49 492.347
1481 0 48.2247 10.1608 490 87.0367 480.822 495.02
1482 0 49.1679 11.0031 541 87.7043 480.327 494.209
1483 0 50.2398 11.2859 567 89.3333 479.825 493.212
1484 0 53.2029 11.1836 595 95.7983 479.884 493.013
1485 0 54.1939 10.4993 569 94.7575 479.62 489.376
1486 0 55.4367 11.1118 616 93.086 479.393 490.08
1487 0 58.3774 11.5456 674 92.3501 479.479 488.58
1488 0 56.4149 10.8659 613 94.2904 479.914 486.92
1489 0 60.2865 10.6823 644 95.6444 479.947 484.744
1490 0 59.2967 10.1692 603 101.584 479.914 484.071
1491 0 62.4149 10.2379 639 92.5352 480.31 483.629
1492 0 63.2959 9.35289 592 91.7568 479.878 478.353
1493 0 62.3222 9.29043 579 91.2608 480.007 473.252
1494 0 66.2799 8.75077 580 92.9259 479.771 475.609
1495 0 67.1403 8.89183 597 92.7236 479.858 476.191
1496 0 70.3082 8.8752 624 91.226 479.524 476.082
1497 1 82.3026 11.7129 964 83.4544 479.591 478.879
1498 0 84.3618 11.3084 954 85.8983 479.731 476.1
1499 0 86.3532 11.8583 1024 85.8799 479.676 475.185
1500 0 88.3077 10.973 969 87.7595 479.794 472.343
1501 1 48.0852 10.4398 502 83.6653 480.175 494.414
1502 0 47.1169 10.6968 504 82.494 481.036 493.52
1503 0 49.0477 11.234 551 85.5172 481.143 495.494
1504 0 51.2416 11.9434 612 85.2974 480.757 495.564
1505 0 53.2773 11.6935 623 84.9502 481.03 495.116
1506 0 53.4299 12.4275 664 86.7756 481.163 492.86
1507 0 56.3041 12.4858 703 85.2432 480.923 493.287
1508 0 58.2981 12.6762 739 84.6455 481.019 493.054
1509 0 57.233 11.4794 657 86.8813 481.157 491.376
1510 0 58.388 11.8004 689 87.8636 480.53 490.177
1511 0 61.3232 12.214 749 84.6983 480.764 488.873
1512 0 62.279 12.3316 768 85.4896 480.09 488.033
1513 0 66.264 12.3144 816 85.4289 479.672 485.85
1514 0 66.3313 12.1059 803 86.0909 479.465 485.289
1515 0 69.3152 11.7867 817 85.2668 480.088 484.965
1516 0 68.2896 11.7002 799 84.5382 480.349 483.793
1517 0 75.2406 11.7756 886 82.1309 479.765 478.657
1518 0 76.2498 11.1476 850 82.5271 479.631 477.008
1519 0 76.1956 11.2211 855 82.3146 479.25 473.566
1520 0 82.2942 12.0543 992 81.1028 479.425 474.282
1521 0 84.3294 10.6962 902 83.5166 480.131 473.368
1522 1 42.1173 9.75846 411 77.0754 480.136 496.258
1523 0 41.0608 9.57117 393 78.4809 479.562 494.817
1524 0 43.0877 10.0957 435 82.7632 480.267 496.028
1525 0 46.0361 10.5569 486 83.7963 479.496 498.988
1526 0 47.0866 11.5107 542 85.0314 479.496 496.31
1527 0 47.0069 11.1473 524 86.7786 479.145 496.664
1528 0 49.1163 10.8722 534 83.9719 479.882 495.723
1529 0 51.0841 11.2364 574 83.2491 479.341 495.256
1530 0 53.1169 11.277 599 82.6093 480.265 494.354
1531 0 54.1274 10.7524 582 83.2079 480.536 492.672
1532 0 55.1324 10.8103 596 82.3826 480.221 491.611
1533 0 55.0706 9.53321 525 85.0476 480.77 492.061
1534 0 58.1366 10.0281 583 83.4425 480.432 488.252
1535 0 65.1015 12.5036 814 102.296 480.031 424.635
1536 0 67.0786 12.6866 851 103.364 478.536 419.975
1537 0 62.1731 9.50572 591 85.3435 479.765 483.523
1538 1 0 0 0 -nan -nan -nan
1539 0 0 0 0 -nan -nan -nan
1540 0 0 0 0 -nan -nan -nan
1541 1 79.1305 11.7022 926 83.662 480.023 482.952
1542 0 82.196 11.8497 974 84.4579 479.558 481.668
1543 0 83.206 11.4775 955 85.133 479.864 479.34
1544 0 86.1854 11.2316 968 87.0372 480.13 477.965
1545 0 89.2185 10.7489 959 89.9385 480.127 476.907
1546 1 49.0309 11.3398 556 84.7518 479.656 496.122
1547 0 50.0627 11.0861 555 85.1081 479.56 496.638
1548 0 51.0149 11.0164 562 90.2633 479.221 495.826
1549 0 52.0391 10.8188 563 90.3481 478.925 495.647
1550 0 54.052 11.8035 638 88.7712 479.158 494.318
1551 0 55.0308 11.7752 648 90.8333 479.21 493.003
1552 0 57.0302 11.4851 655 92.3618 479.157 492.881
1553 0 58.0478 12.2485 711 90.8748 479.539 491.907
1554 0 60.031 11.544 693 92.5238 479.43 491.004
1555 0 62.051 12.0224 746 92.681 479.009 489.072
1556 0 64.0758 12.4072 795 92.512 479.347 488.209
1557 0 65.0863 12.5833 819 93.0855 479.096 488.888
1558 0 68.0697 12.6488 861 93.4704 479.28 486.412
1559 0 71.0494 13.005 924 92.8983 479.544 485.079
1560 0 73.0901 12.3683 904 94.7345 479.861 484.363
1561 0 74.0933 11.9984 889 95.64 479.38 483.44
1562 0 77.161 12.7266 982 93.9196 479.906 484.072
1563 0 81.2221 13.1614 1069 91.3807 480.032 478.883
1564 0 84.0983 13.0086 1094 90.0411 479.472 477.963
1565 0 85.1183 12.1596 1035 93.0135 480.511 475.32
1566 0 90.2246 13.2558 1196 89.0033 480.155 474.689
1567 1 46.0338 10.1013 465 92.1011 479.419 493.544
1568 0 49.0368 11.2772 553 88.7378 479.595 492.617
1569 0 50.0423 11.4303 572 86.1538 480.341 490.28
1570 0 53.0221 11.863 629 90.2607 481.973 494.161
1571 0 57.1036 12.1884 696 89.5216 481.67 491.642
1572 0 58.0716 12.0196 698 89.3195 481.605 490.802
1573 0 59.1033 12.3513 730 89.0589 481.482 491.453
1574 0 61.0808 12.6063 770 89.3636 481.199 490.2
1575 0 63.034 12.168 767 89.528 480.682 487.909
1576 0 64.0564 12.0363 771 91.048 481.62 486.921
1577 0 66.0756 12.5765 831 89.8664 480.581 484.86
1578 0 67.0612 12.1083 812 90.5369 481.541 484.983
1579 0 69.0541 12.0196 830 90.6614 480.928 482.287
1580 0 75.1298 12.9509 973 87.2631 480.7 482.597
1581 0 76.098 12.6153 960 88.3052 480.596 482.568
1582 0 77.0749 12.8965 994 88.5453 480.849 481.412
1583 0 81.0587 12.4108 1006 89.4264 480.802 479.243
1584 0 84.2375 12.9396 1090 89.6734 480.164 479.942
1585 0 86.1531 13.1742 1135 89.4502 480.161 478.482
1586 0 89.1448 13.0013 1159 91.2424 480.179 475.792
1587 1 47.1195 11.1843 527 92.2011 481.731 497.573
1588 0 48.0756 11.7107 563 92.7389 481.496 496.867
1589 0 51.2372 12.53 642 91.3707 480.461 495.972
1590 0 53.1381 13.305 707 92.7553 480.844 495.406
1591 0 54.0454 11.9344 645 96.031 481.243 494.701
1592 0 57.0682 13.0721 746 92.807 482.025 494.074
1593 0 59.0342 12.9755 766 91.346 481.112 492.659
1594 0 60.0305 13.0767 785 92.0917 481.372 491.918
1595 0 62.0462 11.9266 740 94.6081 480.893 489.823
1596 0 63.0607 12.5752 793 92.7049 480.958 489.166
1597 0 67.0628 12.3168 826 92.6973 480.407 487.442
1598 0 68.054 12.7252 866 92.3129 480.206 486.507
1599 0 70.0374 12.8931 903 92.536 480.243 486.228
1600 0 73.052 12.6485 924 92.4957 480.032 484.497
1601 0 76.0941 13.365 1017 90.003 480.61 483.792
1602 0 76.2166 13.1992 1006 94.4553 480.008 482.326
1603 0 78.2004 12.89 1008 93.2242 480.173 481.641
1604 0 81.2187 12.7311 1034 95.1944 480.553 481.594
1605 0 81.185 12.3545 1003 96.0808 480.011 477.874
1606 0 88.1575 13.5326 1193 89.0897 480.082 477.699
1607 0 93.0739 13.0541 1215 85.7696 480.208 477.501
1608 0 92.1782 12.7687 1177 87.3356 480.236 474.737
1609 0 96.1797 12.799 1231 88 479.863 472.458
1610 0 99.0756 12.0312 1192 88.6133 479.846 470.857
1611 1 54.07 12.6318 683 81.552 480.233 495.296
1612 0 56.0572 12.4516 698 81.6719 480.076 491.325
1613 0 56.0743 12.6974 712 83.5295 480.084 489.381
1614 0 58.1234 12.095 703 80.7966 480.137 492.299
1615 0 61.2173 13.3949 820 86.5037 480.276 492.116
1616 0 61.1953 13.1219 803 88.0112 479.585 491.237
1617 0 64.2069 13.2696 852 86.4883 480.421 489.589
1618 0 65.2169 12.3741 807 87.0322 479.875 488.768
1619 0 68.1848 13.4341 916 84.6703 480.115 486.683
1620 0 70.2317 13.0853 919 84.9075 480.518 487.133
1621 0 73.318 13.5028 990 82.1252 479.875 485.959
1622 0 73.3845 12.4004 910 84.5472 480.444 485.375
1623 0 76.2658 12.8891 983 84.4201 479.715 482.332
1624 0 78.1508 12.9621 1013 82.155 479.505 482.196
1625 0 83.1203 12.9932 1080 82.3768 479.365 480.169
1626 0 83.2484 13.6579 1137 82.5207 479.963 475.934
1627 0 85.2535 13.0317 1111 82.6364 480.167 475.318
1628 0 89.2605 13.1637 1175 80.9319 479.726 476.723
1629 0 89.2113 12.9356 1154 81.8154 479.466 475.549
1630 0 92.2479 13.5938 1254 82.5399 479.194 471.911
1631 0 95.1513 13.4102 1276 79.6708 479.008 469.343
1632 0 97.0681 13.2175 1283 80.9096 478.885 469.041
1633 0 98.2216 13.439 1320 83.2674 478.886 472.095
1634 0 101.205 12.9144 1307 82.1125 477.996 460.764
1635 0 104.309 12.8848 1344 83.1094 478.933 462.731
1636 0 108.163 12.9896 1405 83.7836 478.3 458.935
1637 0 110.21 13.2021 1455 83.5842 478.383 461.929
1638 1 56.0941 11.4629 643 79.7372 479.919 491.036
1639 0 60.0735 11.2362 675 79.597 479.849 491.944
1640 0 61.1148 11.143 681 81.906 480.116 489.803
1641 0 62.0457 11.5882 719 81.7413 479.665 485.745
1642 0 66.0428 12.1133 800 81.9638 480.445 486.62
1643 0 65.1061 10.9513 713 81.8471 477.774 487.268
1644 0 67.1046 11.117 746 81.0389 478.647 486.702
1645 0 71.0299 10.9109 775 78.96 477.959 485.728
1646 0 74.0415 10.5887 784 81.8469 478.462 485.075
1647 0 76.0386 11.6388 885 79.5232 478.442 482.198
1648 0 80.0133 11.7106 937 76.9232 478.8 481.942
1649 0 81.1048 10.4186 845 79.1112 478.931 480.508
1650 0 86.0744 11.5598 995 74.5648 478.616 480.037
1651 0 88.0972 10.9765 967 75.1851 479.008 478.007
1652 0 92.0866 11.3806 1048 76.1212 478.709 475.858
1653 0 95.1531 11.1505 1061 75.0188 478.318 474.635
1654 0 100.148 11.8026 1182 75.1345 477.932 469.438
1655 0 101.117 11.0466 1117 77.727 478.069 465.825
1656 0 111.213 12.6783 1410 79.434 477.922 463.89
1657 1 58.1594 10.7119 623 77.2167 478.576 489.921
1658 0 58.0826 11.3976 662 72.4139 477.411 494.189
1659 0 61.0686 11.3151 691 75.7164 478.213 494.478
1660 0 65.1302 12.3599 805 76.6 478.855 492.594
1661 0 67.0953 12.8772 864 76.2581 478.678 490.574
1662 0 67.1285 12.3048 826 78.2264 478.358 487.78
1663 0 71.1085 12.0661 858 78.8718 477.977 487.487
1664 0 73.1561 12.4528 911 77.652 478.632 487.159
1665 0 75.123 12.7125 955 76.6419 478.278 484.365
1666 0 77.166 12.6221 974 76.9589 477.92 483.681
1667 0 78.0722 12.5141 977 78.8434 478.822 480.539
1668 0 81.1339 12.5718 1020 78.1686 477.802 479.254
1669 0 84.1877 12.4009 1044 77.8908 477.267 479.35
1670 0 85.1832 12.0212 1024 80.1592 478.241 477.582
1671 0 88.182 13.0752 1153 78.059 477.454 475.685
1672 0 90.1355 12.8917 1162 79.2263 477.682 475.239
1673 0 92.2516 12.7694 1178 80.7895 477.587 472.105
1674 0 94.1779 12.4658 1174 82.7606 477.97 470.971
1675 0 97.2473 12.2574 1192 83.9262 477.715 470.039
1676 0 102.126 12.6804 1295 83.4703 477.772 470.819
1677 0 103.134 12.6534 1305 83.9195 477.804 468.834
1678 1 53.0898 10.0019 531 86.6177 478.26 492.075
1679 0 57.1154 10.7852 616 86.0276 477.862 491.302
1680 0 59.0932 10.9657 648 84.179 477.494 491.455
1681 0 59.0582 11.3786 672 84.5521 477.696 489.098
1682 0 60.1092 11.6455 700 85.3914 478.051 488.413
1683 0 65.1361 12.4048 808 82.0953 478.616 487.582
1684 0 67.1585 12.6119 847 83.0059 478.659 486.842
1685 0 71.2274 12.2846 875 84.0126 478.888 484.515
1686 0 69.2683 11.6792 809 85.4858 478.103 483.215
1687 0 69.2585 11.6376 806 120.933 477.094 483.099
1688 0 76.2453 12.5122 954 85.5933 478.71 477.983
1689 0 78.3231 12.2186 957 85.4295 479.059 480.824
1690 0 81.2744 12.2056 992 85.2349 478.208 477.547
1691 0 86.3641 13.5357 1169 81.722 478.179 473.044
1692 0 88.2987 13.409 1184 83.2483 478.131 471.519
1693 0 90.256 13.0296 1176 83.4082 478.622 473.129
1694 0 92.3172 12.6412 1167 84.0943 478.458 471.673
1695 0 97.3286 12.7814 1244 83.5691 478.011 471.335
1696 0 100.331 12.5983 1264 81.7824 478.305 467.08
1697 0 99.3409 12.6031 1252 82.5623 478.135 467.427
1698 0 106.221 12.6905 1348 79.2619 478.926 461.674
1699 1 55.2106 10.9218 603 73.2935 479.337 488.439
1700 0 57.1217 10.9766 627 71.5566 479.48 487.876
1701 0 59.124 11.5351 682 71.4619 479.176 489.113
1702 0 60.0807 12.0838 726 71.3678 479.489 488.194
1703 0 62.0312 11.8811 737 72.8901 479.304 492.806
1704 0 62.1564 12.3398 767 78.399 478.317 489.541
1705 0 66.0644 12.2153 807 77.5204 477.999 490.202
1706 0 67.1202 12.5596 843 76.5979 478.834 487.629
1707 0 67.0864 11.9995 805 77.846 478.398 487.663
1708 0 69.0749 12.0594 833 76.6987 478.133 486.367
1709 0 70.1754 11.286 792 78.4331 477.08 485.616
1710 0 75.1376 12.2841 923 75.3261 477.315 484.278
1711 0 75.0417 12.06 905 76.6354 477.875 483.872
1712 0 78.0922 11.8834 928 76.8136 477.665 480.986
1713 0 80.0475 13.0922 1048 73.9752 477.901 478.858
1714 0 83.0915 11.9627 994 77.2726 478.646 478.855
1715 0 85.1322 11.8287 1007 78.8054 478.494 476.713
1716 0 87.0769 11.4152 994 79.5372 478.018 475.927
1717 0 90.1037 11.7642 1060 78.2943 478.697 473.142
1718 0 90.0875 11.0781 998 80.1423 477.623 472.71
1719 0 93.1344 11.3814 1060 78.9443 477.836 468.562
1720 0 98.0984 12.0593 1183 78.3584 477.312 467.405
1721 0 101.138 11.6178 1175 79.12 477.896 468.014
1722 0 104.124 11.7552 1224 79.0098 478 467.004
1723 0 110.133 12.2579 1350 78.6741 477.926 463.311
1724 0 113.171 11.8935 1346 79.1478 478.53 463.926
1725 1 64.1065 11.8085 757 81.4795 478.864 485.528
1726 0 67.0835 12.4025 832 79.7969 479.371 483.314
1727 0 69.0944 13.2717 917 79.8277 477.79 484.405
1728 0 70.1933 12.5083 878 81.6549 477.683 484.188
1729 0 71.2231 11.9765 853 84.2556 477.562 483.596
1730 0 73.0687 12.4404 909 85.2211 477.657 481.05
1731 0 76.0969 12.6549 963 85.8536 477.716 480.941
1732 0 79.1684 12.5808 996 87.5442 478.109 480.519
1733 0 82.1206 12.7617 1048 87.209 477.279 479.927
1734 0 84.1257 12.5408 1055 88.4777 478.168 479.783
1735 0 86.2156 13.0951 1129 89.45 477.95 477.724
1736 0 89.1578 12.9097 1151 89.6725 478.253 477.029
1737 0 92.1597 12.6737 1168 91.1721 477.955 474.866
1738 0 95.1619 12.8938 1227 89.9266 477.979 472.056
1739 0 98.1365 13.4812 1323 89.421 478.655 471.066
1740 0 101.137 13.4669 1362 88.9765 479.082 468.029
1741 0 103.104 13.5107 1393 88.1709 479.128 462.979
1742 0 107.216 13.692 1468 86.5572 478.356 462.416
1743 0 110.199 14.011 1544 85.1723 478.516 458.821
1744 0 114.351 13.3361 1525 86.7987 478.591 457.359
1745 0 117.116 13.602 1593 85.6102 478.401 457.243
1746 1 65.038 10.1172 658 81.1915 477.968 486.442
1747 0 65.0946 10.3234 672 82.6696 478.132 484.47
1748 0 68.195 11.1445 760 87.4303 479.03 483.7
1749 0 74.1347 13.1787 977 87.8547 478.796 485.89
1750 0 75.1212 12.5131 940 90.9372 479.108 482.451
1751 0 78.0788 12.3209 962 88.317 477.869 482.42
1752 0 81.0593 12.6204 1023 85.7947 480.147 481.202
1753 0 82.2552 12.0843 994 87.9165 479.729 481.219
1754 0 83.1542 12.8075 1065 87.6413 479.395 480.615
1755 0 86.1592 13.0456 1124 86.2927 479.646 481.1
1756 0 90.1115 12.9284 1165 85.5356 479.252 478.829
1757 0 91.299 12.0702 1102 88.0554 479.645 477.261
1758 0 95.1438 12.6335 1202 85.5233 478.029 475.847
1759 0 98.1734 12.1214 1190 85.9857 478.403 472.638
1760 0 101.174 12.6021 1275 83.691 478.015 471.972
1761 0 102.099 11.8023 1205 85.6996 478.708 470.709
1762 0 106.123 12.0615 1280 85.9281 478.606 468.262
1763 0 109.112 11.7769 1285 86.2638 478.898 466.03
1764 0 114.133 12.2051 1393 82.6267 478.134 465.807
1765 0 116.116 11.8072 1371 85.5996 478.641 464.594
1766 0 121.07 12.2244 1480 87.5764 478.634 461.214
1767 1 65.0574 10.729 698 87.4226 477.195 488.795
1768 0 69.0745 11.9871 828 89.0918 477.205 486.679
1769 0 70.0479 11.5778 811 87.947 477.234 485.274
1770 0 72.0626 11.8092 851 78.7015 477.723 485.867
1771 0 74.1203 11.2115 831 79.1468 477.325 483.786
1772 0 76.0919 11.013 838 80.2948 477.481 483.732
1773 0 76.2072 10.5896 807 81.7348 477.441 481.882
1774 0 79.0772 10.964 867 80.564 477.947 480.277
1775 0 83.151 11.5693 962 78.9054 477.559 479.698
1776 0 88.203 11.4282 1008 78.876 477.611 477.514
1777 0 90.2333 10.9605 989 79.9171 477.769 475.496
1778 0 90.1975 11.375 1026 82.0867 477.976 475.91
1779 0 94.0851 11.564 1088 83.9302 478.012 474.924
1780 1 52.0833 10.4448 544 84.8585 477.647 493.722
1781 0 51.0971 11.3509 580 81.5431 477.272 491.964
1782 0 54.2298 11.7832 639 83.8435 478.762 490.997
1783 0 54.2073 11.3822 617 81.342 480.452 492.3
1784 0 57.203 11.4155 653 80.7703 481.035 492.432
1785 0 56.2827 10.8026 608 84.3158 480.589 491.987
1786 0 59.2108 11.2142 664 84.6672 480.791 490.126
1787 0 61.2118 11.5664 708 86.0212 480.667 491.158
1788 0 63.185 11.3793 719 87.8609 480.865 489.303
1789 0 66.218 11.6132 769 88.3329 480.847 488.834
1790 0 66.2036 11.7516 778 90.2198 480.436 488.683
1791 0 69.2107 11.6456 806 91.0025 480.256 485.458
1792 0 70.1622 11.5447 810 90.9679 479.862 483.868
1793 0 73.1634 11.6452 852 90.9988 480.577 484.676
1794 0 75.1944 12.1818 916 90.1081 480.425 483.367
1795 0 77.1902 11.8797 917 91.3239 480.356 482.213
1796 0 79.2102 12.2964 974 91.2577 479.759 480.67
1797 0 80.2115 11.6318 933 93.7192 480.38 479.748
1798 0 85.1901 12.3606 1053 90.3058 480.179 480.527
1799 0 86.1129 12.5184 1078 91.3154 480.175 477.306
1800 0 89.189 12.5576 1120 91.0402 480.216 476.163
1801 0 91.133 12.6738 1155 92.1264 479.45 475.94
1802 0 95.1195 12.4054 1180 92.0432 479.408 473.872
1803 0 97.0992 12.2761 1192 92.1024 479.084 473.931
1804 0 99.1254 12.2471 1214 92.2694 479.143 470.784
1805 0 102.233 12.0705 1234 91.2715 478.958 470.14
1806 0 106.191 12.6093 1339 87.8559 479.468 468.997
1807 0 110.171 12.6259 1391 89.6053 479.594 469.388
1808 0 111.191 12.2492 1362 90.5991 479.437 466.592
1809 0 115.133 12.4291 1431 88.7918 479.027 464.892
1810 0 117.116 11.6466 1364 91.1239 478.888 462.014
1811 1 63.0364 10.248 646 89.2136 479.387 488.464
1812 0 70.0398 11.8647 831 88.0842 479.678 485.889
1813 0 71.1331 11.6542 829 87.9867 479.344 485.27
1814 0 74.1633 12.5264 929 87.4995 479.014 485.089
1815 0 75.0632 12.283 922 86.8644 479.261 484.274
1816 0 76.1544 12.8423 978 85.7004 479.415 483.809
1817 0 80.0681 12.1646 974 87.3214 479.473 479.49
1818 0 83.0818 12.4696 1036 86.6351 478.977 480.489
1819 0 86.1927 12.4489 1073 87.0541 478.933 479.387
1820 0 88.3173 12.3192 1088 88.5037 479.059 478.244
1821 0 91.2294 12.6165 1151 88.497 479.365 476.367
1822 0 96.2002 13.3888 1288 86.1956 479.715 474.145
1823 0 98.4114 13.3623 1315 86.2844 479.398 474.11
1824 0 102.302 13.2646 1357 87.3117 478.825 471.722
1825 0 104.3 12.9723 1353 88.5418 479.304 470.191
1826 0 109.336 12.4478 1361 87.9706 479.08 467.542
1827 0 112.075 12.6255 1415 89.0163 479.213 464.213
1828 0 115.166 12.2605 1412 89.8612 478.749 462.688
1829 0 119.321 12.6047 1504 88.9721 478.62 461.078
1830 0 121.355 12.1627 1476 91.9404 478.822 460.506
1831 1 63.2401 11.5275 729 86.8368 479.403 490.374
1832 0 67.2533 11.8359 796 85.3166 479.256 488.173
1833 0 68.2871 12.4474 850 85.3588 479.564 486.669
1834 0 70.1705 13.2107 927 86.1381 479.56 487.156
1835 0 74.2409 13.2811 986 84.8134 479.1 485.524
1836 0 75.162 12.5728 945 87.0021 479.542 483.706
1837 0 76.1434 13.1988 1005 91.8935 480.35 480.731
1838 0 79.1012 13.4385 1063 91.2982 479.711 479.911
1839 0 81.1409 12.8172 1040 92.9442 479.104 477.244
1840 0 84.1617 13.2721 1117 91.7287 479.435 477.238
1841 0 88.2078 13.0374 1150 91.5635 479.714 475.026
1842 0 90.2333 13.1991 1191 90.7825 479.427 474.342
1843 0 93.1736 13.7378 1280 87.757 479.644 472.77
1844 0 96.3022 12.9384 1246 89.0281 480.014 471.1
1845 0 97.3694 12.1188 1180 92.7 479.592 470.03
1846 0 99.2238 12.7389 1264 91.3521 479.78 469.82
1847 0 104.251 12.1918 1271 92.8474 479.555 466.06
1848 0 108.287 12.513 1355 91.4317 479.507 463.167
1849 1 56.1378 10.8661 610 92.3541 478.28 486.341
1850 0 59.1797 11.3046 669 91.4066 479.338 486.57
1851 0 61.1221 12.7286 778 87.8715 479.342 485.478
1852 0 62.202 11.6556 725 90.3779 478.036 482.93
1853 0 67.109 12.502 839 89.919 477.209 485.153
1854 0 68.1487 12.6341 861 89.6225 478.372 483.757
1855 0 70.1846 12.98 911 87.6762 478.554 483.045
1856 0 71.1099 13.2893 945 86.8423 479.289 482.238
1857 0 73.1788 12.9136 945 87.0042 478.387 479.677
1858 0 78.1865 13.5701 1061 84.3629 478.959 478.965
1859 0 80.2612 14.2784 1146 83.0113 479.168 479.301
1860 0 80.2436 12.973 1041 86.8223 478.462 478.184
1861 0 83.2674 13.1504 1095 86.3087 478.507 475.864
1862 0 85.2736 13.6267 1162 85.7384 478.846 476.839
1863 0 88.1592 14.1676 1249 85.1121 478.653 474.944
1864 0 90.2252 13.4774 1216 86.8117 478.652 473.383
1865 0 92.2678 13.981 1290 85.576 478.213 472.046
1866 0 95.1061 13.5743 1291 86.8978 478.422 471.926
1867 0 96.1933 13.2026 1270 89.1591 478.416 469.42
1868 0 100.257 13.9941 1403 85.7292 478.303 469.134
1869 0 103.218 13.6314 1407 86.4407 478.321 466.797
1870 0 104.184 13.4666 1403 87.3999 478.185 462.42
1871 0 110.251 13.7413 1515 85.697 478.966 463.886
1872 0 111.197 13.7594 1530 85.4529 478.714 462.216
1873 0 112.11 13.4333 1506 85.1786 478.48 460.602
1874 0 116.106 11.7909 1369 77.935 477.822 460.196
1875 0 118.186 11.7442 1388 79.5994 479.215 458.669
1876 0 124.132 12.0033 1490 80.7141 478.521 456.874
1877 0 128.255 12.1321 1556 81.9332 478.479 454.586
1878 0 134.313 12.9846 1744 84.7208 479.11 449.944
1879 0 138.254 12.9906 1796 85.0629 478.973 445.639
1880 1 74.1923 10.9041 809 79.1965 480.247 477.601
1881 0 75.1089 11.5033 864 80.3924 479.781 472.319
1882 0 77.2022 11.6966 903 79.7763 479.339 472.71
1883 0 81.3223 12.9239 1051 78.6851 478.339 477.745
1884 0 84.2133 12.4208 1046 78.1797 479.873 474.964
1885 0 85.0512 12.4748 1061 79 479.025 476.023
1886 0 87.0988 12.4112 1081 79.4968 478.695 474.479
1887 0 91.0932 12.9977 1184 77.8176 478.961 473.072
1888 0 94.0573 12.2372 1151 79.3328 477.993 472.295
1889 0 96.0923 13.05 1254 78.815 478.57 470.161
1890 0 99.1248 12.2371 1213 79.2943 477.807 470.447
1891 0 101.147 12.5362 1268 80.6798 478.095 466.405
1892 0 104.08 12.5576 1307 83.2862 478.114 464.295
1893 0 107.125 12.126 1299 84.7429 478.456 466.189
1894 0 113.106 13.7128 1551 82.3295 478.966 464.903
1895 0 115.133 12.2988 1416 87.3065 478.778 461.96
1896 0 120.143 12.3852 1488 87.5995 478.89 459.612
1897 1 65.1527 11.3579 740 80.7622 480.351 487.462
1898 0 66.0958 12.3306 815 80.2822 480.329 486.432
1899 0 67.1113 12.144 815 81.2724 478.072 484.141
1900 0 73.1121 13.2536 969 87.872 479.59 484.647
1901 0 75.1264 12.3658 929 90.8407 479.281 483.949
1902 0 76.1399 12.9367 985 91.9726 478.18 481.389
1903 0 77.1758 13.385 1033 92.8132 478.152 480.046
1904 0 80.1492 13.425 1076 91.8996 478.046 479.876
1905 0 82.2186 13.4398 1105 91.5502 478.186 479.76
1906 0 84.2485 13.199 1112 93.1457 478.184 477.778
1907 0 87.2041 13.5085 1178 92.9278 478.245 474.87
1908 0 90.3298 13.5393 1223 92.9125 477.832 473.703
1909 0 92.3678 13.8468 1279 93.0321 477.728 472.762
1910 0 95.1666 13.324 1268 93.6065 478.244 472.011
1911 0 100.164 13.6576 1368 90.6338 478.207 471.379
1912 0 102.185 13.1722 1346 91.4019 478.138 470.767
1913 0 102.098 12.6642 1293 86.3689 478.016 468.715
1914 0 107.304 12.6369 1356 85.3112 477.264 467.829
1915 0 110.211 13.0931 1443 84.2384 477.455 468.501
1916 0 113.145 12.6298 1429 85.8236 477.698 466.526
1917 0 118.19 12.9368 1529 86.8476 476.987 462.314
1918 0 121.215 11.8384 1435 88.6014 477.784 462.163
1919 1 60.1407 10.7248 645 84.9659 477.958 491.619
1920 0 62.1442 10.3147 641 86.3619 477.797 491.133
1921 0 66.2301 10.8712 720 86.9889 478.554 490.386
1922 0 70.236 11.5895 814 90.7764 477.939 487.531
1923 0 71.2274 12.2144 870 91.3195 478.837 486.444
1924 0 71.1108 12.4876 888 90.7669 477.667 486.381
1925 0 76.223 13.1719 1004 88.9163 477.918 483.664
1926 0 78.2556 14.491 1134 83.7663 478.001 486.954
1927 0 80.1868 14.6408 1174 84.776 477.808 485.509
1928 0 83.1759 13.766 1145 86.4288 477.281 483.068
1929 0 83.2253 13.6137 1133 87.5772 476.832 482.748
1930 0 85.2783 13.6377 1163 87.3758 476.673 480.767
1931 0 88.1746 13.7455 1212 88.0479 477.261 479.79
1932 0 90.3013 13.8426 1250 87.668 477.321 478.894
1933 0 93.3176 13.7916 1287 88.1717 477.221 476.925
1934 0 96.4374 13.9676 1347 88.0193 477.048 474.31
1935 0 97.3449 13.8785 1351 88.886 476.714 471.384
1936 0 100.387 13.3782 1343 89.4348 477.158 470.156
1937 0 101.411 13.4798 1367 90.3694 477.199 469.925
1938 0 103.558 12.959 1342 89.9173 476.889 467.421
1939 0 107.437 12.9657 1393 89.028 476.888 466.113
1940 0 110.435 13.5826 1500 87.5867 476.88 464.604
1941 0 115.483 13.1968 1524 86.9856 476.591 463.33
1942 0 118.403 13.5723 1607 86.6683 476.487 458.768
1943 0 123.381 13.7217 1693 85.3715 476.746 458.032
1944 1 67.3711 10.7316 723 89.1452 477.245 486.972
1945 0 71.2804 12.4017 884 87.9502 477.381 484.862
1946 0 74.388 13.4161 998 86.6453 476.607 484.215
1947 0 77.3114 13.2322 1023 88.3314 477.241 482.872
1948 0 81.2733 14.2482 1158 85.0829 477.352 482.452
1949 0 82.2395 13.5823 1117 86.8478 477.454 480.589
1950 0 82.1795 12.9838 1067 84.0122 478.031 480.093
1951 0 85.2763 12.9344 1103 85.0363 477.898 480.789
1952 0 89.2751 13.1168 1171 84.4577 477.776 480.981
1953 0 92.1668 13.1392 1211 85.3064 478.291 477.751
1954 0 94.1794 13.2407 1247 85.6175 477.727 476.225
1955 0 97.2714 13.2619 1290 87.1527 478.164 474.164
1956 0 99.2262 13.2727 1317 88.5923 478.181 471.352
1957 0 102.257 13.2704 1357 88.4149 477.887 472.344
1958 0 105.319 12.9891 1368 86.943 477.273 468.612
1959 0 110.266 13.3677 1474 86.0163 477.387 466.115
1960 0 116.166 14.2296 1653 83.4761 477.725 465.891
1961 1 62.1114 12.2844 763 84.0315 478.73 491.477
1962 0 63.1228 12.4361 785 85.0803 479.279 490.98
1963 0 67.1608 14.1898 953 75.5939 478.775 489.517
1964 0 67.1421 13.4938 906 77.9834 479.286 488.131
1965 0 71.141 12.6509 900 78.7456 478.809 487.63
1966 0 73.2374 13.4357 984 77.0976 477.909 487.999
1967 0 76.2072 13.5945 1036 76.889 478.98 485.62
1968 0 77.205 13.1598 1016 77.2933 478.272 485.384
1969 0 79.1474 12.9252 1023 78.0958 478.107 484.101
1970 0 82.1128 13.3597 1097 77.1923 477.807 481.402
1971 0 85.2382 13.7262 1170 77.0769 478.292 481.758
1972 0 87.2275 12.9776 1132 79.045 478.829 480.829
1973 0 90.2245 13.7989 1245 78.4064 478.338 478.292
1974 0 93.2415 14.2319 1327 77.7641 478.663 478.674
1975 0 95.1768 13.6063 1295 79.9946 478.526 476.593
1976 0 97.1348 13.5173 1313 79.623 478.414 474.849
1977 0 99.1296 13.6892 1357 79.4348 478.607 475.254
1978 0 99.1423 13.1427 1303 82.4981 478.147 473.916
1979 0 103.226 12.836 1325 82.9087 477.91 470.844
1980 0 106.135 12.9457 1374 85.6201 477.166 469.116
1981 0 109.122 13.4254 1465 83.7843 477.281 467.483
1982 0 111.166 12.7287 1415 85.8 477.252 464.742
1983 0 114.219 12.5811 1437 85.4656 477.2 462.207
1984 0 120.257 12.8724 1548 84.2209 476.979 460.559
1985 1 60.1348 11.2747 678 87.6667 478.41 488.901
1986 0 64.1403 12.7221 816 85.0098 478.273 488.214
1987 0 67.23 13.8034 928 81.8265 476.133 488.677
1988 0 70.491 12.7676 900 84.8456 476.894 487.773
1989 0 72.3071 13.1246 949 84.0453 476.784 487.345
1990 0 74.3973 12.823 954 85.9392 476.773 485.792
1991 0 77.3968 13.1659 1019 86.4632 476.496 484.61
1992 0 81.5077 13.7165 1118 84.8488 476.446 485.242
1993 0 81.4119 13.1553 1071 86.1102 476.111 483.518
1994 0 82.4252 13.8793 1144 85.0009 475.952 484.314
1995 0 85.4608 13.3394 1140 86.9228 476.774 481.169
1996 0 87.4811 13.8773 1214 85.9259 476.596 479.979
1997 0 88.383 13.1473 1162 87.494 476.351 479.138
1998 0 91.4277 13.2126 1208 86.2823 476.518 479.46
1999 0 93.357 13.8608 1294 86.0448 477.107 475.361
2000 0 93.4589 13.5996 1271 88.1589 477.039 473.034
2001 0 98.2537 12.4168 1220 86.4336 476.957 474.174
2002 0 101.2 12.826 1298 84.1294 476.019 472.303
2003 0 103.251 12.6295 1304 86.1595 475.901 474.225
2004 0 105.29 12.4608 1312 87.513 476.156 470.213
2005 0 110.37 12.7209 1404 86.7229 475.93 470.288
2006 0 112.264 12.8625 1444 87.9986 476.26 467.862
2007 0 114.314 13.0867 1496 88.7808 475.999 466.467
2008 0 118.344 12.7088 1504 90.4222 476.166 462.512
2009 0 124.394 13.1919 1641 91.0085 476.66 459.266
2010 0 127.425 13.0037 1657 93.2951 475.911 458.033
2011 0 130.371 13.2238 1724 94.7732 476.003 454.675
2012 0 135.318 13.206 1787 96.521 475.819 453.951
2013 0 139.416 13.1692 1836 96.2467 475.761 450.316
2014 0 144.399 13.2272 1910 95.7628 475.454 448.729
2015 0 150.579 13.0496 1965 94.0458 475.309 447.94
2016 1 83.2803 12.8482 1070 90.3009 476.537 481.357
2017 0 83.2523 12.5882 1048 90.437 476.555 483.903
2018 0 86.0746 12.9306 1113 91.3738 476.365 480.726
2019 0 90.0921 13.5528 1221 91.7248 477.117 478.785
2020 0 96.166 13.4455 1293 97.546 477.083 478.002
2021 0 97.1325 13.8574 1346 98.3425 477.126 477.126
2022 0 98.1518 13.6421 1339 98.9925 476.045 474.519
2023 0 102.24 13.9379 1425 97.419 476.404 474.562
2024 0 102.24 13.8792 1419 150.435 475.404 474.536
2025 0 107.172 13.6603 1464 95.9891 476.036 472.152
2026 0 110.15 13.5361 1491 95.9155 476.085 470.58
2027 0 112.16 13.2044 1481 96.5233 475.88 469.743
2028 0 117.114 13.2094 1547 96.9076 476.023 465.169
2029 0 121.132 13.1097 1588 96.1946 477.305 464.684
2030 1 69.165 13.6341 943 94.2375 478.071 490.506
2031 0 71.0794 13.8015 981 92.8145 477.554 489.594
2032 0 71.1328 13.5381 963 93.8297 477.741 488.336
2033 0 74.0879 13.3625 990 88.6182 476.721 489.472
2034 0 74.1679 13.2133 980 90.8888 477.219 488.344
2035 0 76.0902 13.3394 1015 90.6374 476.896 486.803
2036 0 78.137 12.8236 1002 92.3862 477.439 485.842
2037 0 81.1472 13.2722 1077 91.6286 477.007 484.93
2038 0 84.1308 13.8356 1164 89.2655 477.803 484.046
2039 0 87.1494 13.2646 1156 91.1497 478.333 482.867
2040 0 91.2957 13.3632 1220 90.3926 478.085 482.359
2041 0 92.2557 13.0832 1207 91.9503 477.875 480.843
2042 0 92.2557 13.0615 1205 161.725 477.876 480.9
2043 0 99.2309 14.1488 1404 92.3454 477.237 475.14
2044 0 102.161 13.7234 1402 94.1341 477.045 473.071
2045 0 104.226 13.5667 1414 95.1047 476.929 470.887
2046 0 107.467 13.5855 1460 94.3192 476.426 467.904
2047 0 112.174 13.176 1478 95.3681 475.951 466.341
2048 1 61.0352 11.9767 731 96.327 476.562 490.601
2049 0 63.0705 13.2233 834 96.8549 476.122 491.636
2050 0 66.1017 13.6608 903 97.0044 476.704 489.961
2051 0 69.0591 13.8287 955 96.3393 476.253 490.84
2052 0 71.0984 14.1353 1005 97.0687 476.909 488.469
2053 0 72.0713 13.778 993 97.5932 476.683 488.127
2054 0 75.1038 12.9155 970 94.765 477.012 487.382
2055 0 76.024 12.9564 985 96.9574 477.045 485.729
2056 0 79.0941 13.3385 1055 96.854 476.815 485.236
2057 0 83.0248 13.7911 1145 96.1179 476.632 485.442
2058 0 84.0708 13.7265 1154 97.7184 477.248 483.977
2059 0 86.0513 13.3525 1149 99.2228 476.104 480.978
2060 0 90.0826 13.7873 1242 98.4461 476.444 480.166
2061 0 92.0747 13.7171 1263 98.8226 476.653 479.352
2062 0 95.036 14.3209 1361 98.3343 477.047 479.021
2063 0 100.101 14.2157 1423 98.8686 476.904 474.685
2064 0 104.081 14.4311 1502 99.8069 476.688 474.322
2065 0 106.066 14.095 1495 100.864 477.716 472.197
2066 0 108.191 14.4744 1566 100.304 477.46 470.142
2067 0 114.176 14.3638 1640 98.1848 477.635 470.44
2068 0 115.137 14.7563 1699 99.4979 477.585 468.912
2069 1 63.0478 12.7681 805 104.057 478.282 492.132
2070 0 66.0886 13.028 861 101.819 478.102 489.814
2071 0 67.0272 13.3677 896 96.6618 477.763 492.266
2072 0 69.0147 13.6058 939 97.1171 477.415 491.802
2073 0 72.0164 13.0526 940 98.4872 477.114 487.62
2074 0 74.0142 12.8759 953 98.3085 477.323 486.128
2075 0 75.0187 13.0501 979 97.7457 476.978 486.564
2076 0 77.0668 13.0406 1005 97.3403 477.232 484.555
2077 0 81.039 13.3886 1085 96.4267 476.998 483.281
2078 0 85.0479 13.5336 1151 95.993 477.224 479.87
2079 0 85.0397 13.041 1109 97.6907 476.531 479.048
2080 0 89.0339 12.8378 1143 97.9326 476.38 479.015
2081 0 91.0303 13.2923 1210 97.6091 476.874 476.754
2082 0 91.0852 11.9339 1087 103.166 477.194 475.491
2083 0 95.0779 12.8421 1221 100.846 476.795 475.604
2084 0 97.0979 13.2135 1283 101.242 476.912 475.401
2085 0 100.062 13.022 1303 102.963 477.276 474.023
2086 0 103.06 13.2253 1363 103.932 477.349 472.034
2087 0 105.056 12.8979 1355 104.545 477.586 472.159
2088 0 110.083 13.29 1463 101.157 476.628 470.534
2089 0 113.192 13.0751 1480 100.662 476.142 469.201
2090 1 67.116 11.8899 798 102.706 477.018 489.688
2091 0 69.1083 12.8928 891 101.411 477.607 488.284
2092 0 71.1386 12.8903 917 101.025 477.395 488.256
2093 0 76.0911 12.577 957 100.269 477.39 486.865
2094 0 78.1016 12.8935 1007 100.026 478.082 484.887
2095 0 81.127 13.3741 1085 97.6359 478.605 484.185
2096 0 84.2382 12.8089 1079 98.4115 478.095 481.657
2097 0 87.1352 13.7028 1194 95.9824 478.271 480.851
2098 0 89.1286 13.7442 1225 96.3012 477.705 478.27
2099 0 91.1096 13.4563 1226 97.4935 478.336 476.843
2100 0 94.1586 13.1587 1239 99.5504 477.822 475.918
2101 0 97.1178 13.3343 1295 99.0077 477.586 474.907
2102 0 99.1122 13.1568 1304 101.128 478.023 473.161
2103 0 102.117 12.9655 1324 102.263 477.571 472.736
2104 0 105.104 13.558 1425 101.313 478.199 472.574
2105 0 107.239 13.4279 1440 102.676 477.217 468.381
2106 0 112.206 13.912 1561 101.014 477.001 467.06
2107 0 115.222 14.0598 1620 100.486 476.655 466.063
2108 1 63.0273 11.4871 724 99.616 476.961 490.104
2109 0 67.0948 12.1023 812 95.4175 477.232 489.038
2110 0 68.0657 12.8552 875 94.3394 477.464 487.09
2111 0 70.1373 13.3595 937 92.3703 477.539 485.015
2112 0 71.0806 13.2385 941 93.6791 477.107 481.842
2113 0 77.2933 13.4423 1039 100.328 476.948 481.641
2114 0 77.3621 13.6889 1059 100.525 476.687 480.673
2115 0 79.3159 13.7299 1089 101.03 477.042 479.006
2116 0 80.2128 12.7286 1021 105.744 476.61 476.983
2117 0 84.2151 13.798 1162 103.06 476.67 475.929
2118 0 87.4073 13.3742 1169 103.317 477.047 475.505
2119 0 81.1027 11.9108 966 111.013 477.236 469.641
2120 1 92.3472 13.8174 1276 103.368 477.292 472.719
2121 0 95.4375 13.9987 1336 102.421 477.255 471.846
2122 0 97.3521 14.124 1375 103.402 477.263 469.373
2123 0 98.3504 13.6349 1341 104.411 478.084 467.459
2124 0 103.447 14.4906 1499 101.582 478.01 466.529
2125 0 103.429 12.917 1336 106.449 477.663 465.745
2126 0 106.335 13.4856 1434 103.55 476.788 463.22
2127 0 110.4 13.0706 1443 104.451 477.166 462.986
2128 0 113.375 12.9835 1472 105.86 476.976 460.029
2129 0 117.519 13.4362 1579 103.723 477.32 459.244
2130 0 121.457 12.3171 1496 101.83 476.795 456.787
2131 1 66.171 10.7298 710 98.8324 477.266 480.155
2132 0 67.2163 10.9348 735 98.8789 477.269 478.554
2133 0 70.3097 12.004 844 96.2678 477.19 479.756
2134 0 73.3678 12.8122 940 94.1085 477.215 479.183
2135 0 76.4001 12.2775 938 104.915 478.054 478.103
2136 0 79.3439 13.1579 1044 101.584 478.392 477.208
2137 0 78.481 12.2195 959 104.776 478.04 475.4
2138 0 82.4518 12.2132 1007 103.612 478.06 473.298
2139 0 83.3256 11.3411 945 105.414 478.014 471.642
2140 0 86.4695 11.9002 1029 104.125 477.819 468.769
2141 0 87.4917 11.4297 1000 104.224 477.404 466.414
2142 0 92.4932 11.8928 1100 100.787 477.735 468.198
2143 0 92.3972 11.2449 1039 102.247 477.394 467.036
2144 0 96.2952 11.7763 1134 101.276 478.253 462.393
2145 0 101.387 11.5992 1176 101.156 477.932 462.546
2146 0 104.419 12.0093 1254 98.8182 477.474 459.518
2147 0 108.381 11.9486 1295 99.4687 477.771 459.594
2148 0 110.245 12.2999 1356 99.3791 477.994 458.084
2149 0 116.239 12.7152 1478 95.7165 479.061 459.085
2150 0 120.281 12.7285 1531 96.0673 478.048 457.906
2151 0 121.321 12.199 1480 99.0277 479.215 453.668
2152 0 126.316 12.3262 1557 98.4123 478.866 453.236
2153 0 130.352 12.7884 1667 97.7307 479.092 452.245
2154 0 133.298 12.2958 1639 99.2611 478.641 450.909
2155 0 136.4 12.2068 1665 99.9652 479.202 448.95
2156 0 138.408 12.3476 1709 100.602 477.796 445.065
2157 0 144.326 12.1114 1748 102.072 478.447 443.353
2158 0 147.21 12.0101 1768 103.397 478.386 439.841
2159 0 153.334 12.5804 1929 101.92 478.323 438.42
2160 0 160.333 13.3347 2138 101.12 477.936 435.413
2161 0 162.258 13.2875 2156 102.763 478.958 431.924
2162 0 171.281 12.9903 2225 103.468 478.076 431.987
2163 0 174.272 12.7617 2224 105.328 478.415 427.331
2164 0 181.42 12.9644 2352 104.59 478.369 423.096
2165 0 188.263 12.7534 2401 105.682 478.264 421.536
2166 1 144.144 11.7244 1690 104.544 478.529 445.337
2167 0 148.293 12.1651 1804 104.099 478.444 441.176
2168 0 147.221 12.179 1793 105.578 478.306 437.157
2169 0 154.187 13.0621 2014 101.855 478.872 432.951
2170 0 159.28 13.3915 2133 99.7398 478.752 430.817
2171 0 166.284 14.2407 2368 97.9552 479.112 427.952
2172 0 169.26 13.9726 2365 99.3569 478.289 425.689
2173 0 175.275 13.727 2406 100.727 478.368 422.056
2174 0 181.341 13.8248 2507 100.245 478.283 418.896
2175 0 189.408 14.1758 2685 98.3747 478.439 419.095
2176 0 197.421 14.4817 2859 97.9353 478.733 415.207
2177 0 201.517 13.9839 2818 100.039 478.56 412.945
2178 0 208.398 14.05 2928 100.348 478.333 410.167
2179 0 215.574 13.6891 2951 102.357 477.962 405.143
2180 0 222.455 14.2321 3166 101.351 478.436 404.105
2181 0 228.403 13.7695 3145 103.178 477.954 399.95
2182 0 236.534 14.036 3320 102.339 477.493 392.898
2183 0 244.33 14.3453 3505 101.931 477.712 390.454
2184 0 251.28 13.3238 3348 104.164 477.888 389.571
2185 0 259.398 13.3694 3468 104.069 477.879 385.275
2186 0 268.398 13.6328 3659 104.563 477.017 381.364
2187 0 276.481 12.9919 3592 107.415 476.714 378.562
2188 0 282.375 12.5542 3545 109.97 477.135 374.002
2189 0 286.422 12.7923 3664 110.849 476.966 368.005
2190 0 288.354 12.8384 3702 136.306 475.956 367.253
2191 1 58.1787 11.8428 689 93.5704 479.569 481.826
2192 0 60.2007 12.6909 764 92.2094 479.774 481.217
2193 0 61.2571 12.7495 781 92.5544 479.712 479.567
2194 0 63.2195 12.9707 820 91.9829 479.676 479.352
2195 0 68.185 13.2874 906 90.5154 479.191 479.928
2196 0 67.2444 12.4918 840 93.5393 479.486 477.365
2197 0 68.145 12.2826 837 95.1792 479.928 477.742
2198 0 71.2662 13.3163 949 92.7039 479.848 475.855
2199 0 71.1401 12.6792 902 95.6109 479.488 473.87
2200 0 71.1351 12.8769 916 95.8461 479.573 473.576
2201 0 78.1441 12.6561 989 94.0425 479.582 472.169
2202 0 72.2399 12.7492 921 97.7068 479.689 469.061
2203 0 74.1839 12.6038 935 98.3176 479.696 467.597
2204 0 77.2046 12.8231 990 98.6535 479.842 467.093
2205 0 78.1644 12.3586 966 102.234 479.498 465.462
2206 0 85.3375 12.0228 1026 102.315 479.523 464.562
2207 0 90.1307 11.9826 1080 103.169 479.231 464.151
2208 0 95.1937 12.4903 1189 101.791 479.077 462.898
2209 0 101.294 12.8734 1304 99.5537 478.795 463.749
2210 0 103.251 12.242 1264 102.773 478.917 462.013
2211 0 105.329 12.9784 1367 101.057 479.498 460.175
2212 0 112.381 12.0927 1359 102.82 479.154 458.081
2213 0 116.295 12.8381 1493 101.74 478.419 458.166
2214 1 67.197 10.2832 691 93.2547 479.207 482.854
2215 0 68.2899 10.2211 698 95.5358 479.822 482.004
2216 0 72.2662 11.6514 842 92.8527 479.743 483.011
2217 0 70.2284 10.3377 726 97.4711 479.919 481.54
2218 0 74.3106 11.0482 821 96.313 479.56 480.547
2219 0 77.3699 11.5807 896 94.4442 480.008 479.906
2220 0 77.3597 11.8279 915 95.8525 479.408 479.66
2221 0 78.2179 11.5958 907 96.5866 480.109 479.258
2222 0 82.1715 11.549 949 96.3109 479.364 477.9
2223 0 81.2759 11.5532 939 97.279 479.477 477.003
2224 0 85.3002 11.5123 982 97.8717 479.531 474.972
2225 0 85.3373 11.7299 1001 97.1738 479.21 475.118
2226 0 86.3538 11.6961 1010 97.9277 478.846 474.279
2227 0 89.3117 11.2415 1004 98.8108 479.332 472.318
2228 0 91.1542 11.3763 1037 100.238 478.985 471.096
2229 0 93.2594 11.1731 1042 101.691 478.993 469.679
2230 0 96.1632 11.4285 1099 102.308 479.172 469.39
2231 0 96.2501 12.0727 1162 102.436 478.626 467.244
2232 0 100.165 11.7705 1179 102.841 479.052 465.329
2233 0 101.18 11.5734 1171 103.386 478.576 463.457
2234 0 103.256 11.4666 1184 103.096 478.454 463.973
2235 0 106.247 11.285 1199 103.445 478.667 461.935
2236 0 111.19 11.2421 1250 103.042 478.297 458.53
2237 0 115.4 11.0918 1280 102.469 478.239 455.948
2238 0 116.325 10.6512 1239 104.958 477.404 453.249
2239 1 68.1042 8.70725 593 86.5767 479.973 484.366
2240 0 72.1233 9.06781 654 85.2141 480.046 484.664
2241 0 71.1635 9.11984 649 85.7458 479.934 483.205
2242 0 75.4166 9.08289 685 83.727 478.523 481.926
2243 0 79.4018 8.8663 704 93.6534 478.526 480.479
2244 0 80.4175 8.91597 717 92.6918 478.053 479.349
2245 0 85.4066 9.23816 789 90.1331 478.792 478.844
2246 0 86.3898 8.85521 765 90.8039 477.969 476.05
2247 0 87.4751 8.34523 730 91.3877 477.759 474.626
2248 0 88.3745 8.44135 746 91.6796 477.941 474.453
2249 0 91.1684 8.48978 774 90.6292 479.252 470.546
2250 0 93.2419 8.24737 769 89.1248 479.046 471.138
2251 0 98.3306 7.50529 738 88.6057 479.313 472.497
2252 1 54.2872 7.68136 417 79.8177 480.06 488.978
2253 0 58.2498 6.78114 395 80.7671 480.405 493.347
2254 0 58.2945 8.14828 475 80.9516 480.229 490.006
2255 0 61.2314 8.80267 539 80.167 480.811 488.347
2256 0 62.2466 9.47842 590 80.9576 480.747 488.592
2257 0 62.2526 9.23656 575 82.6609 480.725 487.678
2258 0 66.3659 9.05585 601 83.6739 479.792 486.062
2259 0 70.6238 8.22669 581 90.5095 479.031 483.162
2260 0 79.7811 7.53311 601 92.2047 478.895 481.461
2261 0 78.7203 7.78706 613 93.7781 479.158 478.041
2262 0 77.5631 7.36175 571 93.5412 478.709 479.506
2263 0 75.5737 7.92604 599 95.6411 478.85 477.152
2264 0 82.5489 7.46224 616 93.5081 479.128 478.771
2265 0 84.518 8.15211 689 92.7576 478.493 474.599
2266 0 84.5026 6.26016 529 95.637 478.508 471.917
2267 0 89.4777 5.99032 536 95.3619 478.047 469.021
2268 0 91.5414 5.70234 522 94.5345 477.9 469.178
2269 0 93.7404 4.99251 468 97.9145 477.925 468.32
2270 1 0 0 0 -nan -nan -nan
2271 0 25.0088 4.51841 113 82.0708 481.912 510.903
2272 0 26.0437 4.99162 130 80.0923 481.369 510.685
2273 0 25.0083 6.03798 151 83.4172 481.106 509.94
2274 0 25.0325 5.1533 129 84.5194 481.504 509.225
2275 0 26.0323 6.10779 159 82.8679 481.252 510.572
2276 1 176.739 10.9993 1944 108.376 478.241 433.912
2277 0 177.977 10.3777 1847 111.21 477.481 429.888
2278 0 183.852 10.106 1858 112.906 477.623 427.117
2279 0 188.921 10.56 1995 112.26 477.719 426.887
2280 0 193.807 10.0822 1954 113.671 478.427 425.748
2281 0 284.978 4.50561 1284 122.768 478.326 424.223
2282 0 244.967 5.91916 1450 115.617 478.079 430.94
2283 0 243.126 7.34188 1785 116.489 477.034 406.509
2284 1 126.973 8.67113 1101 103.808 478.539 452.256
2285 0 131.922 8.65662 1142 101.126 478.378 450.564
2286 0 136.855 8.425 1153 100.805 478.023 450.004
2287 0 140.88 8.92957 1258 99.7011 478.357 450.225
2288 0 146.83 9.39181 1379 98.5671 477.366 449.42
2289 0 148.91 8.97857 1337 100.776 477.995 445.689
2290 0 153.123 9.03197 1383 101.315 477.946 445.844
2291 0 158.902 9.62228 1529 99.8679 478.264 446.635
2292 0 161.872 9.74224 1577 99.8884 478.166 445.378
2293 0 165.838 9.32236 1546 102.056 477.602 443.285
2294 0 171.762 10.4389 1793 100.476 477.429 439.936
2295 0 173.821 8.969 1559 105.015 477.543 438.645
2296 0 180.821 9.87164 1785 103.684 478.052 437.752
2297 0 184.822 9.85812 1822 105.295 477.583 430.51
2298 1 51.0368 8.4253 430 81.4023 480.293 497.977
2299 0 52.0464 8.41556 438 80.9498 479.005 500.215
2300 0 55.0892 8.40456 463 79.9719 479.773 498.918
2301 0 54.0869 8.91158 482 80.3506 479.606 496.865
2302 0 52.0921 6.66128 347 82.8934 479.092 497.199
2303 1 207.795 9.39386 1952 112.157 477.498 412.632
2304 0 210.884 8.86742 1870 115.205 478.043 403.738
2305 0 220.788 9.08566 2006 113.659 477.872 405.558
2306 0 227.793 10.7115 2440 107.524 477.628 409.369
2307 0 231.827 9.78746 2269 111.155 477.239 404.405
2308 0 237.936 9.72111 2313 113.892 476.803 393.489
2309 0 241.042 8.91544 2149 116.822 477.328 385.554
2310 0 250.11 9.97161 2494 113.182 477.685 392.739
2311 0 259.064 10.3063 2670 113.599 476.874 385.326
2312 0 265.047 10.2963 2729 113.716 476.756 385.177
2313 0 274.025 10.78 2954 112.995 476.168 380.158
2314 1 138.54 7.84614 1087 96.9108 476.697 455.903
2315 0 141.394 8.28891 1172 97.0444 476.23 453.268
2316 0 148.393 9.28616 1378 95.0907 477.101 450.147
2317 0 152.41 8.31965 1268 96.3155 477.119 447.028
2318 0 156.486 8.47358 1326 96.6516 477.133 442.318
2319 1 81.219 8.06462 655 84.8473 478.663 482.008
2320 0 83.2502 8.75674 729 84.1248 479.278 478.266
2321 0 86.264 8.7522 755 84.8887 478.911 478.252
2322 0 88.2841 8.11018 716 86.5042 479.207 479.525
2323 0 87.2621 8.18225 714 87.2227 479.293 477.557
2324 0 93.1631 8.42608 785 86.8217 479.811 475.917
2325 0 91.1456 8.05305 734 89.8828 479.242 472.721
2326 0 94.1454 8.37003 788 90.2005 478.883 469.657
2327 0 96.2554 8.7995 847 88.7249 478.795 465.352
2328 0 100.249 6.96268 698 90.9971 478.837 462.951
2329 0 99.205 7.16698 711 91.4051 478.494 460.428
2330 0 103.426 7.71568 798 90.5815 478.739 459.61
2331 1 0 0 0 -nan -nan -nan
2332 1 98.1329 5.13589 504 95.9643 479.69 461.107
2333 1 111.314 7.18687 800 94.1288 479.028 452.268
2334 0 115.45 7.95152 918 96.5893 478.073 447.592
2335 0 117.466 7.40641 870 101.817 478.105 445.97
2336 0 119.497 7.03784 841 100.717 479.86 445.291
2337 0 123.52 7.99064 987 99.2148 480.256 442.44
2338 0 132.483 8.52183 1129 98.3702 479.968 447.814
2339 0 136.622 9.90321 1353 95.5188 479.779 445.91
2340 0 133.423 7.33009 978 100.677 479.665 446.136
2341 0 138.535 7.86083 1089 98.3049 479.933 452.97
2342 0 133.358 5.96142 795 100.922 481.21 454.057
2343 1 157.422 8.52487 1342 96.9806 480.104 436.785
2344 0 165.485 9.85585 1631 93.7505 479.149 436.855
2345 0 170.492 9.41981 1606 94.6171 478.858 434.046
2346 0 178.423 9.25892 1652 93.8608 479.543 434.136
2347 0 184.441 9.88936 1824 91.6393 479.521 431.064
2348 0 188.506 8.10054 1527 95.0832 478.281 425.082
2349 0 195.614 8.95128 1751 94.1508 477.919 421.455
2350 0 198.63 8.78516 1745 96.3221 477.353 418.033
2351 0 204.793 10.7425 2200 93.4745 477.181 426.78
2352 0 206.654 11.1442 2303 93.1003 477.185 425.929
2353 0 213.649 10.6998 2286 94.9519 477.489 420.618
2354 0 219.822 10.7769 2369 94.4648 476.851 419.062
2355 0 224.58 10.651 2392 95.9176 476.271 414.356
2356 0 229.662 9.85798 2264 99.0358 476.098 411.617
2357 1 180.433 9.65457 1742 95.5431 476.741 434.608
2358 0 185.618 9.86972 1832 95.4121 476.835 435.02
2359 1 127.388 8.67431 1105 91.9231 476.915 460.651
2360 0 126.432 7.87772 996 92.6677 476.888 460.386
2361 0 133.363 8.00072 1067 92.9756 476.791 459.274
2362 0 133.346 8.03924 1072 92.6259 477.099 462.626
2363 1 26.0189 5.11167 133 90.594 478.068 510.812
2364 0 30.005 4.93251 148 87.8108 477.77 513.392
2365 0 25.0168 2.87807 72 94.4306 478.292 511.486
2366 0 18.0004 3.05549 55 96.6182 478.582 507.218
2367 1 83.1703 8.76515 729 88.5487 476.486 480.413
2368 0 86.1134 8.01269 690 88.9072 475.946 481.912
2369 1 45.0224 8.64015 389 87.8689 478.707 500.401
2370 0 47.0844 7.77328 366 88.8688 477.251 497.063
2371 0 50.0845 9.44404 473 85.8689 477.038 495.387
2372 0 51.1944 9.12209 467 78.9379 476.21 500.296
2373 0 51.1656 8.65816 443 80.0858 475.977 500.102
2374 0 52.2011 8.44809 441 81.8118 475.449 498.043
2375 0 50.1754 7.03532 353 86.7167 475.697 497.385
2376 0 55.159 9.22786 509 83.1965 475.817 496.416
2377 0 59.1628 9.26258 548 82.3303 476.157 498.13
2378 0 59.2816 9.66573 573 82.452 476.346 495.782
2379 0 65.1633 10.2665 669 80.5411 476.837 495.593
2380 0 66.2771 10.5617 700 80.5143 477.224 496.629
2381 0 64.1731 10.534 676 82.1938 476.756 495.46
2382 0 69.1965 10.7231 742 82.3032 476.714 494.178
2383 0 70.3088 10.2405 720 83.3056 477.171 492.246
2384 0 73.2431 10.6904 783 83.0409 477.056 491.356
2385 0 73.3199 10.0382 736 85.6264 477.3 492.038
2386 0 79.2018 10.669 845 84.6698 476.783 487.257
2387 0 81.217 10.6751 867 86.0565 477.299 487.118
2388 0 85.2171 10.7138 913 85.3374 477.047 484.574
2389 0 87.2253 11.178 975 85.3836 476.856 481.666
2390 0 89.2335 10.7247 957 87.3574 476.607 482.114
2391 0 94.2044 11.6024 1093 84.9039 476.933 481.161
2392 1 51.0401 10.4232 532 86.3515 479.06 500.047
2393 0 54.0175 10.7558 581 85.9432 478.25 497.924
2394 0 55.046 11.0271 607 85.1746 478.774 496.427
2395 0 54.0175 11.3667 614 86.1026 478.151 495.342
2396 0 54.0551 10.4523 565 78.669 478.196 497.478
2397 0 55.0701 10.0962 556 78.982 479.059 497.405
2398 0 56.1788 9.36297 526 80.7852 478.779 496.51
2399 0 59.0994 10.66 630 79.0889 478.378 494.767
2400 0 61.0925 9.88665 604 81.7765 478.084 493.639
2401 0 62.1234 10.125 629 80.3068 478.677 493.157
2402 0 63.077 10.3049 650 80.5969 478.468 492.258
2403 0 64.0751 10.1444 650 81.0062 478.263 492.663
2404 0 66.0877 10.5466 697 80.1621 478.228 492.511
2405 0 69.0353 10.2701 709 80.2581 478.54 493.757
2406 0 70.0387 10.3086 722 81.7382 478.999 492.719
2407 0 72.0452 10.7294 773 82.8939 478.506 488.721
2408 0 74.0921 11.0268 817 82.8323 478.704 487.43
2409 0 76.0698 10.3063 784 84.7194 478.597 490.295
2410 0 79.1146 10.6934 846 82.9988 479.334 487.77
2411 0 81.0661 11.0157 893 83.0538 480.02 486.457
2412 0 85.0951 11.8691 1010 82.6891 479.345 483.504
2413 0 86.0967 11.9749 1031 84.4277 478.933 481.829
2414 0 88.0793 11.501 1013 85.4808 478.824 484.306
2415 0 92.1607 12.0767 1113 85.0018 479.714 482.828
2416 0 95.1122 12.1541 1156 85.1289 479.616 483.111
2417 0 95.2026 11.3862 1084 87.7149 479.3 480.345
2418 0 98.1783 11.7032 1149 87.7467 478.86 476.107
2419 0 101.17 11.4856 1162 86.5267 479.243 476.964
2420 0 105.17 11.762 1237 85.4171 479.383 476.947
2421 0 108.185 11.582 1253 86.2067 479.475 474.221
2422 0 110.268 11.4448 1262 86.7702 479.151 473.196
2423 0 112.228 10.8885 1222 87.8977 479.469 471.818
2424 0 117.168 11.7865 1381 86.3939 479.219 470.056
2425 0 120.254 11.7086 1408 87.0312 479.58 466.957
2426 1 62.0442 11.2662 699 85.4006 480.618 493.937
2427 0 66.031 11.5855 765 83.2549 480.537 493.569
2428 0 65.027 11.2876 734 84.9223 480.169 492.691
2429 0 69.0732 10.9739 758 84.7362 478.904 491.702
2430 0 72.0233 11.5102 829 82.3571 479.285 492.302
2431 0 73.0552 10.6084 775 83.969 479.657 491.96
2432 0 74.0695 10.5847 784 84.6645 479.784 491.591
2433 0 78.0497 10.8905 850 83.8318 479.601 489.939
2434 0 78.0635 11.0167 860 84.7256 479.443 487.631
2435 0 80.0589 10.6796 855 82.4047 479.306 488.292
2436 0 82.1142 10.7411 882 81.7619 479.05 488.548
2437 0 84.0997 10.6302 894 82.2058 478.732 487.257
2438 0 84.1868 10.9518 922 82.1963 479.074 486.175
2439 0 87.1085 10.3549 902 81.1086 479.006 485.591
2440 0 90.118 10.6527 960 81.4896 479.045 483.376
2441 0 91.1425 10.4232 950 82.2568 478.885 482.451
2442 1 195.397 12.2008 2384 92.005 477.733 426.745
2443 1 149.134 10.856 1619 85.2353 478.183 454.358
2444 0 152.148 10.3978 1582 87.414 478.141 453.776
2445 0 156.218 11.0103 1720 86.2674 478.319 450.898
2446 0 160.229 11.1466 1786 86.0554 478.568 450.303
2447 0 164.299 11.0774 1820 87.4522 477.811 442.086
2448 0 171.227 11.3592 1945 87.909 477.554 442.361
2449 0 175.271 11.2454 1971 88.1634 477.42 439.638
2450 0 181.244 10.621 1925 89.0551 477.561 436.308
2451 0 186.31 10.2786 1915 90.2903 477.154 434.192
2452 1 46.0513 9.55456 440 78.0273 479.382 504.527
2453 0 48.0852 10.315 496 76.629 479.216 502.839
2454 0 49.0566 9.88654 485 83.8268 479.895 501.641
2455 0 50.058 10.1283 507 83.9961 479.961 501.58
2456 0 53.0616 9.47956 503 84.3499 480.062 501.032
2457 0 54.0462 10.3615 560 83.8696 479.221 499.723
2458 0 53.0149 9.28041 492 86.0955 480.207 500.167
2459 0 56.1037 10.0172 562 84.0623 479.632 498.687
2460 0 57.0635 9.62085 549 85.6849 480.35 498.594
2461 0 59.0382 10.417 615 83.6114 480.325 495.902
2462 0 62.0744 10.2135 634 83.6309 479.759 494.252
2463 0 62.0794 10.0355 623 83.8058 479.987 494.987
2464 0 66.0534 10.764 711 81.6231 480.498 494.976
2465 0 67.0315 9.13004 612 84.714 479.869 494.503
2466 1 29.016 7.27185 211 84.2654 479.284 506.929
2467 0 30.0233 7.76065 233 82.9828 479.76 508.408
2468 0 30.0217 7.2281 217 81.3226 479.097 508
2469 0 29.0193 7.27103 211 78.3649 478.488 507.919
2470 0 33.0389 8.80779 291 74.9381 476.832 508.557
2471 0 33.068 9.07221 300 75.23 477.38 508.307
2472 1 73.5028 8.38064 616 89.0584 477.802 487.323
2473 0 74.548 8.28996 618 89.4142 477.801 484.642
2474 0 76.5206 8.06319 617 89.5802 477.511 486.092
2475 0 79.7312 8.36561 667 87.8726 478.034 485.412
2476 0 84.7107 8.9363 757 86.3316 477.832 485.771
2477 0 81.6226 7.90222 645 89.9736 477.895 477.29
2478 0 83.5482 6.58303 550 91.86 477.956 478.535
2479 0 88.669 6.55246 581 91.7917 477.828 478.102
2480 0 90.506 8.08786 732 90.6038 477.477 475.847
2481 0 94.5918 8.15082 771 89.9637 476.874 477.231
2482 0 99.6858 9.07853 905 88.8221 477.736 474.967
2483 0 99.6453 7.15538 713 92.3436 477.111 475.376
2484 0 102.632 7.5902 779 90.344 477.462 471.893
2485 0 104.637 7.97042 834 91.3597 477.606 469.926
2486 0 109.555 9.44727 1035 89.5614 477.803 469.987
2487 0 114.563 9.20017 1054 90.2932 478.566 471.141
2488 0 117.609 9.81218 1154 89.9783 478.127 468.9
2489 0 123.634 10.5392 1303 87.9839 477.313 468.751
2490 0 125.597 10.4381 1311 89.553 477.871 465.329
2491 0 128.547 10.3931 1336 90.128 477.138 465.481
2492 0 131.531 9.86842 1298 91.8683 477.888 464.689
2493 0 134.586 10.1571 1367 94.4938 477.382 460.07
2494 0 139.605 10.3291 1442 94.8752 477.085 458.139
2495 0 142.42 9.64754 1374 96.9964 476.807 456.859
2496 0 147.536 10.0586 1484 96.2406 476.841 456.578
2497 0 150.583 9.6226 1449 98.9724 476.152 452.467
2498 0 157.543 9.43871 1487 100.365 476.813 450.019
2499 0 162.647 10.6119 1726 97.4154 476.606 450.319
2500 0 168.504 10.9315 1842 97.8268 476.788 447.801
2501 0 173.845 10.9753 1908 97.4465 476.606 445.494
2502 0 178.646 10.6971 1911 97.8441 476.633 442.873
2503 0 185.688 10.8623 2017 97.8532 476.819 441.851
2504 0 189.625 11.1589 2116 98.3228 477.29 440.04
2505 0 194.708 9.95851 1939 100.031 476.879 436.461
2506 1 84.2044 11.8046 994 92.1298 478.033 485.478
2507 0 86.1588 11.3047 974 94.9805 477.488 484.065
2508 0 88.1834 11.5781 1021 95.5984 477.356 481.98
2509 0 91.2223 11.9488 1090 95.7578 477.893 481.906
2510 0 93.22 11.6284 1084 97.7841 477.573 480.304
2511 0 97.212 11.192 1088 99.6737 477.219 477.149
2512 0 99.2641 12.0487 1196 101.26 476.716 475.384
2513 0 102.245 12.3038 1258 99.6479 476.727 473.722
2514 0 106.302 11.9471 1270 100.465 477.632 470.821
2515 1 58.1938 10.1901 593 98.8398 477.393 496.486
2516 0 61.1574 10.1868 623 98.3018 477.669 494.856
2517 0 63.1487 11.2591 711 96.1505 477.837 491.94
2518 0 65.2303 11.789 769 95.2575 477.99 489.852
2519 0 65.1162 11.1493 726 87.3664 478.552 492.694
2520 0 67.1233 11.2331 754 87.6525 478.662 492.174
2521 0 68.1596 10.8715 741 89.3023 478.331 490.525
2522 0 70.1678 10.7599 755 88.9881 477.66 491.22
2523 0 73.24 11.278 826 87.2906 478.622 489.898
2524 0 75.205 11.1296 837 88.583 478.253 487.452
2525 0 77.2125 11.6173 897 88.8952 477.476 485.379
2526 0 78.1686 10.5413 824 92.3107 476.976 482.621
2527 0 83.3258 12.4331 1036 88.2346 477.342 484.909
2528 0 86.1633 11.9424 1029 89.7376 478.155 484.373
2529 0 88.3111 12.2635 1083 90.1487 477.779 484.399
2530 0 91.2789 12.7521 1164 91.3462 477.983 482.682
2531 1 51.0868 11.4511 585 91.1658 478.67 500.85
2532 0 50.1121 12.1328 608 91.0197 478.512 499.903
2533 0 52.1025 12.1299 632 91.6788 478.782 499.12
2534 0 55.1201 12.5907 694 88.5 478.137 497.72
2535 0 54.1526 11.7077 634 84.9132 478.509 498.601
2536 0 55.1243 11.2473 620 84.8452 477.96 498.274
2537 0 57.2124 11.1514 638 84.5564 477.893 498.23
2538 0 58.1703 11.6898 680 83.0809 478.462 496.332
2539 0 59.18 11.4735 679 82.7349 478.568 495.601
2540 0 61.1513 11.4307 699 81.3662 477.731 493.966
2541 0 63.1048 11.4571 723 80.9461 477.611 491.531
2542 0 66.1669 11.1838 740 79.9378 477.674 492.539
2543 0 66.1487 11.323 749 79.8772 478.179 490.093
2544 0 69.1139 10.9819 759 79.8182 477.863 492.419
2545 0 72.0906 13.9685 1007 65.4578 477.099 489.188
2546 0 73.1521 10.7584 787 80.5032 478.114 490.967
2547 0 75.1667 11.4545 861 79.6167 478.165 488.908
2548 0 78.1703 11.6157 908 78.6476 478.444 487.535
2549 0 81.0916 11.1726 906 79.3653 478.217 486.567
2550 0 81.1183 10.2566 832 81.2452 477.466 485.189
2551 0 85.1228 11.5363 982 78.7984 478.199 484.175
2552 1 46.0796 10.8074 498 77.1185 478.432 503.247
2553 0 47.107 10.3806 489 77.5644 480.106 503.681
2554 0 48.1263 11.7399 565 76.8407 480.72 501.435
2555 0 51.1493 11.6522 596 75.8138 478.926 500.124
2556 0 49.1516 11.2102 551 79.5027 480.368 500.04
2557 0 51.0577 11.4576 585 78.5966 480.291 499.99
2558 0 54.0808 11.7047 633 78.6193 479.142 497.673
2559 0 56.0515 11.0612 620 79.3613 479.384 497.689
2560 0 57.1028 11.418 652 78.9432 478.572 496.517
2561 0 58.0747 11.5024 668 79.9326 478.316 494.296
2562 0 60.1089 12.0282 723 79.6017 478.08 493.656
2563 0 62.0595 10.8122 671 82.3085 478.335 491.998
2564 0 64.065 11.1449 714 81.8922 477.987 491.931
2565 0 64.1078 10.5915 679 84.4831 478.57 488.667
2566 0 68.0602 10.8433 738 84.7344 477.614 486.663
2567 0 70.1012 11.0554 775 84.1613 478.151 487.463
2568 0 72.0674 10.8232 780 86.4731 477.863 487.313
2569 0 73.1162 10.5996 775 86.7987 478.502 487.886
2570 0 75.2426 10.4462 786 88.14 478.36 486.574
2571 0 78.1164 11.4061 891 87.8743 478.123 484.877
2572 0 82.1403 11.0543 908 88.2896 478.568 484.278
2573 0 83.206 11.4655 954 88.6593 478.603 483.526
2574 0 84.3122 10.1646 857 91.2742 478.555 482.273
2575 0 88.2014 11.2923 996 89.6275 478.269 481.622
2576 1 45.0324 10.548 475 87.7495 479.705 500.156
2577 0 46.1 11.1063 512 86.373 479.025 500.316
2578 0 46.0763 11.5027 530 86.5868 479.106 499.757
2579 0 48.1229 11.0758 533 88.1313 479.503 497.281
2580 0 46.1349 9.97076 460 92.9348 479.648 499.08
2581 0 51.2625 11.6655 598 88.4448 479.42 498.49
2582 0 48.2109 10.6407 513 93.577 479.378 498.963
2583 0 50.1379 10.3714 520 93.8654 479.417 498.794
2584 0 53.2636 10.7578 573 94.2443 479.78 496.607
2585 0 55.3161 11.3529 628 93.8344 479.533 496.307
2586 0 58.27 11.6183 677 93.6263 479.322 494.722
2587 0 57.2687 10.9833 629 98.7822 479.685 493.059
2588 0 60.237 11.2721 679 98.9131 479.654 491.218
2589 0 61.1933 11.194 685 100.62 479.244 490.82
2590 0 65.2271 11.5596 754 99.508 478.342 490.301
2591 0 67.1718 12.1926 819 100.507 478.311 486.873
2592 0 68.2398 11.6354 794 102.686 478.112 485.918
2593 0 73.281 12.7591 935 101.902 478.304 486.271
2594 0 74.2833 12.4119 922 104.732 479.189 486.792
2595 0 78.1855 12.1762 952 104.007 478.839 486.227
2596 0 79.1791 12.3265 976 103.885 478.336 484.881
2597 1 42.0443 10.3462 435 99.3609 479.143 504.025
2598 0 42.0166 10.1864 428 99.2687 479.484 503.46
2599 0 43.0334 10.8056 465 97.6258 479.578 501.695
2600 0 43.0531 10.8935 469 100.584 479.684 502.051
2601 0 45.0208 10.8617 489 100.771 479.759 501.438
2602 0 46.0151 11.3006 520 99.3058 479.806 499.404
2603 0 48.0578 11.5694 556 98.268 479.104 500.106
2604 0 50.0874 11.3202 567 98.1429 478.702 499.474
2605 0 50.081 11.3616 569 98.9402 478.39 499.715
2606 0 52.0769 10.5997 552 100.163 478.346 497.935
2607 0 52.075 10.5041 547 101.943 478.951 497.634
2608 0 55.118 11.9562 659 100.81 478.344 496.217
2609 0 57.0959 11.3493 648 102.806 477.664 494.934
2610 0 58.0948 11.8255 687 100.684 478.431 495.927
2611 0 59.1344 11.55 683 101.152 478.258 494.792
2612 0 62.0866 11.8866 738 100.073 478.187 493.988
2613 0 64.1517 12.0807 775 99.7561 477.978 492.505
2614 0 64.1195 11.0419 708 103.284 478.021 491.456
2615 0 66.1343 11.6883 773 100.325 478.395 491.211
2616 0 69.1308 12.3679 855 99.0959 478.277 488.719
2617 0 70.1592 11.3741 798 101.081 477.832 488.832
2618 0 71.0958 11.5619 822 101.605 478.605 486.068
2619 0 75.105 11.7436 882 100.62 478.688 486.11
2620 0 76.0863 11.4081 868 101.619 478.226 485.109
2621 0 77.18 11.4019 880 102.35 478.315 484.956
2622 0 80.0969 11.4361 916 101.832 478.19 483.003
2623 0 82.0723 11.7457 964 99.9917 478.144 481.941
2624 0 85.1655 11.8358 1008 98.5188 478.495 480.678
2625 0 88.1189 11.8249 1042 98.8474 478.737 479.607
2626 0 89.1325 11.7578 1048 98.4494 478.556 477.849
2627 0 91.0974 11.3285 1032 99.7277 478.035 476.726
2628 0 95.1362 12.4874 1188 96.9806 478.408 474.798
2629 1 47.1255 9.71872 458 100.072 478.603 498.821
2630 0 48.1126 10.0182 482 99.473 478.402 498.197
2631 0 51.196 10.157 520 97.4788 478.596 498.965
2632 0 52.1429 10.8931 568 94.3063 478.891 497.338
2633 0 53.2042 11.5592 615 93.7203 478.48 496.572
2634 0 51.1002 9.92168 507 97.9704 479.055 498.361
2635 0 54.1068 10.6271 575 95.9009 478.522 497.43
2636 0 55.2267 10.4841 579 95.4922 479.121 496.048
2637 0 58.1519 11.3668 661 92.9909 478.669 496.225
2638 0 58.1374 10.6128 617 93.953 479.227 496.047
2639 0 61.2107 11.0928 679 91.7658 478.702 494.361
2640 0 63.1566 10.7669 680 92.1926 479.101 492.537
2641 0 65.1208 11.3174 737 90.0828 479.357 491.185
2642 0 68.1621 11.37 775 89.3536 478.871 491.023
2643 0 70.1784 10.915 766 89.3629 478.54 489.142
2644 0 75.19 11.3579 854 87.4871 479.078 487.478
2645 0 77.144 11.4591 884 88.2489 478.696 486.963
2646 0 78.1178 10.8554 848 89.7984 478.139 484.647
2647 0 83.1476 10.9083 907 88.9945 478.487 486.423
2648 1 39.0314 11.068 432 89.0046 480.676 506.009
2649 0 41.0065 10.9251 448 89.9174 480.672 504.344
2650 0 41.0271 11.5533 474 90.3143 479.658 503.409
2651 0 40.0963 11.0983 445 87.6427 479.27 504.96
2652 0 40.1072 10.821 434 89.5806 478.991 505.724
2653 0 41.1113 11.0918 456 90.0855 479.026 503.974
2654 0 44.0995 11.5421 509 87.6601 479.552 503.265
2655 0 43.1036 11.1128 479 90.6054 479.24 503.265
2656 0 45.0982 11.1313 502 90.9582 478.908 502.305
2657 0 46.1687 11.3497 524 90.3397 478.742 501.849
2658 0 48.1396 11.5705 557 91.7558 479.454 500.424
2659 0 50.133 11.27 565 91.9434 479.89 500.977
2660 0 51.2352 11.2032 574 94.1098 479.828 500.352
2661 0 53.175 11.5656 615 94.7171 479.507 498.512
2662 0 54.2116 11.6211 630 95.4333 478.979 498.114
2663 0 54.1956 11.4031 618 96.7362 479.46 496.9
2664 0 56.1387 11.0441 620 98.7048 478.716 496.537
2665 0 60.1584 10.7882 649 98.718 478.545 494.998
2666 0 62.2857 10.9174 680 97.8809 478.993 495.403
2667 0 63.2388 11.2747 713 96.4839 478.893 490.391
2668 0 64.123 10.6982 686 96.7901 478.494 491.485
2669 1 33.0249 10.8706 359 96.4178 479.797 506.702
2670 0 35.0199 11.1651 391 96.2788 479.386 505.578
2671 0 37.0233 11.4252 423 97.0875 480.028 505.683
2672 0 35.0561 10.7827 378 100.635 479.569 505.767
2673 0 34.0723 9.92007 338 103.766 480.08 505.805
2674 0 37.1037 11.2118 416 99.7572 479.971 506.228
2675 0 38.1381 11.1175 424 100.814 479.734 504.616
2676 0 38.145 11.063 422 100.576 479.408 505.668
2677 0 39.1406 10.2707 402 101.923 479.182 504.167
2678 0 38.1562 9.17283 350 105.746 479.083 502.417
2679 0 40.1972 9.42851 379 104.438 479.488 501.612
2680 0 40.0669 9.28447 372 104.659 478.884 501.871
2681 0 43.1352 9.80638 423 104.463 478.953 499.553
2682 0 45.1569 9.61094 434 103.65 478.659 502.177
2683 0 50.1019 8.52263 427 102.759 478.67 504.314
2684 0 50.1262 9.77532 490 101.604 478.104 501.869
2685 0 49.0583 10.3346 507 100.951 478.209 501.164
2686 0 49.2003 10.5894 521 100.336 478.47 500.981
2687 0 51.2263 10.0144 513 101.335 478.953 501.113
2688 0 54.2027 10.4238 565 99.285 478.395 501.069
2689 0 54.1728 10.6326 576 99.7031 478.026 499.88
2690 0 54.2082 10.2014 553 100.906 478.588 498.631
2691 0 58.1614 10.8319 630 99.2683 478.19 497.243
2692 0 57.1283 10.3626 592 102.647 478.742 498.334
2693 0 62.173 10.0687 626 102.118 478.038 495.919
2694 0 64.195 11.1379 715 99.6336 478.779 495.343
2695 0 64.2457 10.9735 705 101.016 478.711 494.252
2696 0 67.1751 10.8076 726 99.8402 478.09 493.799
2697 0 70.1908 11.597 814 98.3477 478.275 492.222
2698 0 70.1924 11.5112 808 125.657 478.265 492.207
2699 0 75.1725 10.8151 813 98.4637 477.807 490.121
2700 0 79.2612 11.5189 913 96.184 478.014 488.926
2701 0 81.2452 11.176 908 96.0705 478.341 488.482
2702 0 82.2519 11.9146 980 93.8796 478.18 487.791
2703 0 87.2189 10.7087 934 97.1574 477.792 485.886
2704 1 49.2117 11.8061 581 93.8313 479.279 503.205
2705 0 46.1855 11.8002 545 95.8055 479.297 504.338
2706 0 47.1704 11.2359 530 98.0509 478.53 503.732
2707 0 49.2153 11.8866 585 98.2581 478.426 501.682
2708 0 49.2105 12.1112 596 99.6695 478.794 501.077
2709 0 51.2167 11.8321 606 102.023 478.662 498.944
2710 0 54.2934 12.1193 658 101.036 477.921 499.178
2711 0 55.2839 12.4268 687 101.713 477.562 499.477
2712 0 56.2292 12.6269 710 102.092 477.53 496.837
2713 0 57.2928 12.0434 690 105.612 477.081 495.329
2714 0 60.1948 12.4762 751 104.442 477.814 494.348
2715 0 63.1689 12.2687 775 103.347 477.145 494.329
2716 0 64.195 12.2907 789 103.909 477.06 493.326
2717 0 67.1347 12.1845 818 103.068 477.48 491.181
2718 0 67.1644 12.5662 844 102.294 476.986 490.487
2719 0 72.1816 12.7318 919 102.385 476.933 488.533
2720 0 73.2295 12.5223 917 105.432 477.109 488.216
2721 0 77.2907 12.5888 973 105.026 476.804 485.993
2722 0 78.2302 12.7828 1000 107.983 476.442 484.447
2723 0 80.2157 13.0648 1048 107.342 476.559 483.802
2724 0 82.2707 12.5075 1029 109.524 476.672 482.994
2725 0 86.2325 12.2576 1057 110.217 476.48 480.196
2726 1 44.0423 10.9894 484 103.473 478.025 501.494
2727 0 45.0739 11.2704 508 104.455 478.665 500.898
2728 0 47.0847 11.8935 560 100.711 479.079 499.166
2729 0 48.2048 11.2437 542 100.306 478.352 499.83
2730 0 50.1015 11.4767 575 98.9722 477.91 498.605
2731 0 48.2505 11.1709 539 100.783 478.406 499.065
2732 0 52.1814 11.4025 595 98.6538 477.43 495.509
2733 0 54.193 11.7358 636 97.9984 476.915 495.164
2734 0 56.0946 11.6945 656 97.1128 477.367 494.826
2735 0 57.1723 11.9463 683 95.9283 477.624 494.11
2736 0 60.1733 11.9488 719 97.3115 477.612 492.083
2737 0 62.1814 11.4343 711 96.9156 477.616 490.736
2738 0 63.21 12.2924 777 94.3565 477.287 489.695
2739 0 66.1392 11.7328 776 96.3015 478.067 488.925
2740 0 67.1895 12.1448 816 99.9412 478.056 487.962
2741 0 72.1906 12.9934 938 97.8337 477.713 487.908
2742 0 73.1344 12.5933 921 99.202 477.261 486.425
2743 0 74.1501 12.704 942 98.4013 477.601 485.33
2744 0 76.154 12.501 952 98.8487 477.183 484.128
2745 0 79.1159 12.4627 986 98.7931 477.37 482.491
2746 0 83.0958 13.0933 1088 95.568 478.324 482.367
2747 0 85.0964 12.386 1054 96.4867 478.163 480.528
2748 0 87.1101 11.9274 1039 97.7286 477.355 480.326
2749 0 91.1232 12.4776 1137 96.3958 476.984 478.435
2750 0 93.1406 12.916 1203 97.3184 477.288 476.739
2751 0 94.1185 12.3993 1167 99.0171 477.277 474.471
2752 0 99.0971 12.7955 1268 96.597 477.079 474.033
2753 0 101.114 11.9073 1204 98.7857 477.417 472.851
2754 0 105.089 11.9803 1259 97.2232 476.705 471.416
2755 0 109.075 12.8077 1397 93.9871 477.9 469.361
2756 0 111.075 11.8658 1318 96.4568 478.476 466.494
2757 1 55.1016 9.96342 549 89.3315 478.627 492.444
2758 0 58.1074 10.8248 629 88.2242 478.537 491.18
2759 0 61.0897 11.4913 702 87.8946 478.618 489.261
2760 0 66.1016 11.7546 777 94.3539 479.376 487.604
2761 0 66.0354 11.6756 771 94.9338 479.276 487.298
2762 0 69.1079 11.6195 803 94.4085 479.268 486.668
2763 0 70.1086 11.4251 801 93.9126 479.226 484.813
2764 0 73.0304 11.4062 833 93.7059 478.351 483.337
2765 0 77.1589 11.5476 891 92.2525 478.735 483.019
2766 0 76.1005 10.3679 789 94.8416 477.997 480.767
2767 0 81.2411 11.3489 922 93.0152 477.894 480.56
2768 0 85.174 11.5059 980 92.1429 477.714 479.552
2769 0 88.2189 11.2448 992 91.8145 478.239 478.985
2770 0 91.1841 11.6468 1062 90.9925 478.393 478.863
2771 0 94.2141 11.2085 1056 90.2992 478.143 479.382
2772 1 47.0125 10.6993 503 87.658 478.127 500.042
2773 0 48.0437 11.3022 543 88.4567 477.777 497.116
2774 0 49.0564 11.762 577 88.8995 477.504 497.875
2775 0 53.0244 11.9756 635 87.8126 479.066 498.501
2776 0 53.0214 12.1083 642 88.8894 478.419 496.782
2777 0 52.0125 12.074 628 91.0334 478.516 495.654
2778 0 54.0236 11.0692 598 93.2742 477.858 492.495
2779 0 56.0062 10.7131 600 100.955 478.772 492.397
2780 0 58.0224 11.3577 659 101.241 478.402 491.206
2781 0 63.0327 11.8193 745 98.9503 478.399 492.067
2782 0 65.0323 12.4246 808 97.3738 478.493 491.123
2783 0 65.0331 11.8401 770 101.505 478.557 488.705
2784 0 65.0155 11.3819 740 103.72 479.42 487.574
2785 0 66.0209 11.1934 739 104.675 479.02 485.292
2786 0 69.0382 10.7187 740 105.226 478.692 484.389
2787 0 74.0258 11.0097 815 103.785 478.523 483.374
2788 0 75.0427 10.9404 821 105.649 478.738 481.95
2789 0 79.029 10.8821 860 104.081 478.58 481.756
2790 0 81.023 10.6636 864 104.48 478.684 479.78
2791 1 42.0218 8.44799 355 98.3577 477.338 498.679
2792 0 45.0335 9.54844 430 97.6 477.586 498.714
2793 0 46.0283 9.45071 435 97.8966 477.205 498.267
2794 0 47.0537 10.7112 504 94.7857 477.403 499.173
2795 0 49.0498 10.5811 519 93.6647 477.328 499.378
2796 0 50.072 11.2638 564 93.2216 477.401 498.105
2797 0 52.0494 10.8359 564 93.2535 477.266 497.867
2798 0 52.0789 10.8105 563 94.3677 477.412 495.231
2799 0 48.0291 9.07783 436 100.521 477.986 494.615
2800 0 52.0193 8.8621 461 99.9436 478.377 493.948
2801 0 57.0122 11.1906 638 94.1458 478.647 495.915
2802 0 58.0644 10.6261 617 94.7066 478.82 495.587
2803 0 56.0419 9.7427 546 96.9212 478.353 492.736
2804 0 59.0247 9.82639 580 96.4621 478.616 492.869
2805 0 60.0383 9.64385 579 97.1105 478.765 490.765
2806 0 62.0805 10.2287 635 96.1008 478.258 490.986
2807 0 63.0739 10.4481 659 96.0531 479.225 491.249
2808 0 68.071 12.0315 819 90.3541 478.993 492.07
2809 0 69.0845 11.8116 816 92.788 478.722 489.839
2810 0 71.0713 11.2985 803 93.9564 478.55 491.291
2811 0 71.087 11.1413 792 96.0366 478.451 488.263
2812 0 73.1342 11.8823 869 95.588 478.19 484.648
2813 0 75.1155 10.9165 820 96.7561 478.07 486.366
2814 0 79.0788 11.6719 923 96.3207 477.92 485.548
2815 0 81.0789 12.716 1031 94.7129 477.544 486.06
2816 0 82.1965 12.2025 1003 97.2712 478.176 484.152
2817 0 85.1211 12.4881 1063 98.3876 478.23 482.891
2818 0 86.2115 11.8894 1025 100.064 478.668 483.697
2819 0 90.1342 12.3261 1111 99.3258 477.577 481.471
2820 0 93.2344 12.5168 1167 99.8766 477.906 480.554
2821 0 95.1175 12.4478 1184 100.202 477.305 479.26
2822 0 95.1487 11.687 1112 104.307 477.852 475.196
2823 0 96.1144 11.788 1133 104.97 477.744 473.773
2824 0 103.139 13.0697 1348 98.7381 477.508 474.937
2825 0 106.101 13.1667 1397 102.285 477.248 474.021
2826 0 108.114 13.0788 1414 103.456 477.986 471.349
2827 0 110.168 12.0724 1330 105.368 477.677 468.982
2828 1 60.0638 10.0393 603 108.836 477.478 491.34
2829 0 64.0436 11.7576 753 104.444 477.238 490.19
2830 0 68.1084 12.6122 859 100.278 476.88 490.902
2831 0 67.0901 11.9839 804 92.444 477.358 492.802
2832 0 66.0842 10.759 711 95.8481 477.549 491.757
2833 0 68.1286 10.7297 731 95.8276 476.691 489.873
2834 0 71.091 10.4514 743 95.7847 476.763 489.351
2835 0 71.0693 10.5249 748 95.9813 476.779 487.969
2836 0 76.0746 11.2653 857 95.3069 476.517 485.995
2837 0 77.0611 10.9913 847 97.4864 476.829 485.697
2838 0 77.125 9.72447 750 99.8973 477.115 483.476
2839 0 77.0748 10.9244 842 97.6069 476.666 481.536
2840 0 83.1023 10.7578 894 96.0324 476.412 480.06
2841 0 87.0888 10.9658 955 94.445 476.987 480.837
2842 0 89.0974 11.1451 993 93.3877 476.954 481.082
2843 0 92.1118 11.0952 1022 92.6566 476.758 480.098
2844 0 94.1343 11.1118 1046 92.8059 476.49 476.598
2845 0 97.1341 11.3966 1107 92.4182 476.492 476.287
2846 0 99.1146 11.5422 1144 91.8549 477.521 474.108
2847 1 54.1375 10.658 577 85.5685 476.653 498.832
2848 0 55.1484 10.2088 563 86.4671 476.499 497.547
2849 0 57.2421 11.0758 634 85.7792 476.536 494.454
2850 0 54.2322 9.45932 513 90.9337 477.405 495.669
2851 0 57.1572 11.0047 629 89.5199 477.289 496.571
2852 0 61.1993 11.7158 717 89.2273 477.179 496.594
2853 0 62.1827 11.032 686 90.7245 476.819 496.733
2854 0 64.2474 10.5685 679 93.5876 476.398 493.71
2855 0 65.2834 11.3658 742 95.4636 476.303 492.894
2856 0 68.1951 11.3938 777 95.2522 476.269 493.583
2857 0 71.1938 11.2088 798 95.9248 476.104 490.828
2858 0 71.2888 10.9414 780 98.7077 476.369 489.413
2859 0 75.2941 12.325 928 95.5657 476.935 489.013
2860 0 77.2053 12.1494 938 96.8476 477.36 488.484
2861 0 81.1571 12.5436 1018 96.0481 477.644 488.276
2862 0 81.2918 11.7232 953 98.7471 478.064 488.439
2863 0 83.2124 12.2217 1017 99.7404 478.004 485.936
2864 0 84.1588 12.4051 1044 100.461 477.456 484.627
2865 0 87.1855 11.2289 979 102.561 476.935 484.378
2866 0 89.1994 12.3431 1101 100.376 476.68 482.685
2867 0 91.1737 12.0978 1103 102.364 476.698 480.702
2868 0 94.2922 11.8886 1121 103.09 477.224 479.908
2869 0 95.2027 11.7854 1122 105.014 476.664 477.852
2870 0 100.256 12.2686 1230 102.706 476.73 476.179
2871 0 103.27 12.5109 1292 101.983 476.863 473.846
2872 0 106.238 12.3496 1312 104.024 476.462 471.992
2873 0 108.193 11.5257 1247 106.053 477.002 470.69
2874 0 111.248 11.8025 1313 106.02 477.2 471.703
2875 0 114.321 11.6339 1330 107.576 477.771 468.443
2876 0 118.184 11.4567 1354 109.526 477.276 465.531
2877 0 121.271 11.6598 1414 110.488 476.975 465.178
2878 0 126.378 12.241 1547 109.335 476.922 463.908
2879 0 124.447 11.5551 1438 110.798 476.035 464.843
2880 0 127.383 12.1838 1552 111.688 476.838 461.061
2881 0 130.51 11.8458 1546 112.66 476.638 461.495
2882 0 134.448 11.9154 1602 113.614 476.885 458.538
2883 0 137.429 12.0353 1654 114.497 477.64 459.308
2884 0 138.644 11.1653 1548 119.972 477.245 455.759
2885 0 145.478 11.7199 1705 118.855 477.008 453.395
2886 1 57.209 9.43907 540 113.48 477.852 496.089
2887 0 61.1521 9.61536 588 113.165 477.726 497.073
2888 0 61.203 10.1792 623 115.149 478.212 494.477
2889 0 61.167 9.12257 558 119.892 477.552 493.464
2890 0 66.2157 10.2695 680 117.237 477 492.613
2891 0 67.2089 10.7278 721 115.793 476.846 493.825
2892 1 34.0209 8.96507 305 109.816 478.17 504.344
2893 0 37.0054 9.80938 363 113.033 478.303 504.273
2894 0 37.0224 9.45373 350 121.403 478.057 503.983
2895 0 33.1233 8.36268 277 122.74 476.82 505.881
2896 0 34.1012 9.20788 314 112.752 476.787 506.003
2897 0 33.1365 8.90256 295 118.041 477.475 506
2898 0 33.1367 8.78181 291 120.206 477.533 506.718
2899 0 34.0903 8.47749 289 122.522 477.356 507.578
2900 0 37.1107 7.92225 294 123.33 477.102 506.16
2901 0 37.1393 9.10087 338 118.272 477.077 504.479
2902 0 37.1627 8.90679 331 116.949 477.782 504.81
2903 0 38.0916 8.8471 337 115.789 477.525 503.602
2904 1 80.3661 8.72258 701 124.251 476.682 481.668
2905 0 82.2879 9.75842 803 119.858 476.818 482.019
2906 0 87.4881 10.0699 881 118.537 476.688 481.313
2907 0 86.3744 9.20411 795 119.439 476.463 480.379
2908 0 88.2388 9.31563 822 119.421 475.916 479.844
2909 1 161.6 10.6126 1715 120.053 475.644 438.868
2910 0 163.615 9.84627 1611 124.988 476.263 436.572
2911 0 167.569 11.273 1889 124.25 475.87 436.468
2912 0 170.473 10.6703 1819 128.162 475.644 436.371
2913 0 173.475 10.9238 1895 127.908 476.193 437.209
2914 0 175.909 10.5282 1852 129.67 476.481 434.51
2915 0 181.635 10.2623 1864 129.792 476.723 432.572
2916 0 186.734 10.8122 2019 130.251 476.388 428.084
2917 1 151.721 10.605 1609 129.253 476.02 448.912
2918 0 152.817 10.5486 1612 129.321 476.37 446.645
2919 0 155.714 11.1229 1732 130.07 475.6 444.045
2920 0 159.751 10.8544 1734 131.314 475.884 440.538
2921 0 162.769 10.2169 1663 132.087 476.124 440.818
2922 0 165.871 9.98366 1656 133.567 476.029 440.752
2923 0 169.855 9.99085 1697 133.104 475.833 441.908
2924 0 171.873 9.41394 1618 137.47 475.544 439.374
2925 1 98.5409 9.69141 955 132.707 476.863 474.748
2926 0 102.566 10.7638 1104 130.059 476.86 473.793
2927 0 106.592 11.3236 1207 129.207 476.33 471.719
2928 0 108.823 11.2017 1219 132.739 476.9 471.296
2929 0 105.578 11.4892 1213 133.19 477.045 474.409
2930 0 106.522 11.3028 1204 136.726 477.411 473.937
2931 0 106.534 10.8698 1158 141.712 477.055 471.993
2932 0 108.489 10.8674 1179 142.73 477.294 473.387
2933 0 113.572 11.2527 1278 143.523 477.129 470.569
2934 0 113.399 11.2435 1275 144.617 477.624 470.136
2935 0 116.404 10.9876 1279 145.137 477.375 471.131
2936 0 119.601 11.0284 1319 146.985 477.305 467.827
2937 0 124.604 11.3399 1413 144.772 476.924 466.314
2938 1 168.748 11.7987 1991 143.472 476.592 445.778
2939 0 170.633 11.2639 1922 146.906 476.381 444.329
2940 0 178.741 11.2733 2015 145.239 476.419 442.889
2941 0 181.844 11.1964 2036 145.693 476.609 442.103
2942 1 138.518 11.6158 1609 146.324 477.15 459.363
2943 0 141.478 11.2879 1597 149.115 477.477 457.882
2944 0 144.419 11.806 1705 148.907 477.256 456.116
2945 0 148.512 12.2617 1821 145.846 477.958 450.829
2946 0 153.511 11.6734 1792 146.174 477.836 451.77
2947 0 155.473 11.5647 1798 146.34 478.268 451.994
2948 0 159.465 11.965 1908 143.642 478.248 448.776
2949 0 162.422 11.6918 1899 143.606 478.105 448.702
2950 0 167.53 12.0754 2023 141.252 477.518 446.956
2951 1 113.247 11.8061 1337 140.945 477.744 471.008
2952 0 116.289 11.6348 1353 141.149 478.532 470.213
2953 0 118.297 11.0147 1303 143.875 478.194 469.74
2954 0 122.348 11.5327 1411 142.772 478.228 466.646
2955 0 125.344 11.4405 1434 143.108 477.732 464.906
2956 0 129.334 11.8221 1529 141.596 478.004 464.613
2957 0 132.413 11.8493 1569 142.138 477.591 461.001
2958 0 137.373 12.0694 1658 139.226 478.077 460.669
2959 0 139.343 11.5398 1608 139.509 478.278 459.719
2960 0 145.36 12.1561 1767 137.525 477.556 456.003
2961 0 150.302 11.4436 1720 140.531 477.214 454.456
2962 0 155.339 11.4652 1781 141.596 477.392 450.026
2963 1 82.1405 10.7864 886 139.429 477.882 483.605
2964 0 86.2498 10.4116 898 140.344 478.098 483.186
2965 0 89.1743 10.7094 955 139.88 478.228 482.663
2966 0 90.2842 11.2977 1020 138.376 477.846 482.376
2967 0 91.2254 11.214 1023 145.294 477.487 481.064
2968 0 93.2086 11.308 1054 143.866 478.01 480.749
2969 0 95.247 11.087 1056 144.821 477.965 479.231
2970 1 48.0941 10.9161 525 143.804 478.844 499.512
2971 0 51.0746 11.4734 586 138.799 478.567 498.594
2972 0 51.0987 11.6441 595 139.432 479.119 498.188
2973 0 52.0937 11.2298 585 139.651 479.176 497.323
2974 0 53.089 11.7727 625 135.406 478.899 497.717
2975 0 53.0559 11.7989 626 135.487 478.513 497.034
2976 0 56.0793 11.5729 649 132.504 479.542 495.972
2977 0 56.1336 11.0451 620 132.148 478.966 496.082
2978 0 59.0995 10.9646 648 130.233 479.207 493.997
2979 0 60.0899 11.8489 712 124.456 478.896 495.5
2980 0 61.0921 10.2796 628 127.839 478.768 493.806
2981 0 62.0531 11.4418 710 122.424 478.749 492.427
2982 0 65.0847 10.9242 711 119.513 478.64 489.883
2983 0 66.0764 11.3051 747 115.177 478.178 489.889
2984 0 68.079 10.8697 740 116.114 477.865 487.23
2985 0 69.032 10.1692 702 116.728 477.963 485.215
2986 0 73.0777 10.6325 777 115.211 478.078 486.279
2987 0 77.1864 11.3751 878 108.459 476.97 487.057
2988 0 79.1934 10.6448 843 111.358 476.953 484.012
2989 0 80.0835 10.2393 820 111.32 477.555 483.328
2990 1 42.1062 9.3573 394 102.739 477.221 502.35
2991 0 44.0732 9.82457 433 102.028 477.146 500.171
2992 0 47.0724 10.5582 497 99.2515 477.712 500.189
2993 0 48.1106 10.4551 503 98.8231 477.191 499.523
2994 0 48.1141 10.5582 508 99.1909 476.75 498.104
2995 0 50.1422 10.6497 534 103.468 477.021 497.045
2996 0 52.1526 10.3734 541 103.732 477.274 495.701
2997 0 53.1325 10.4644 556 101.818 477.66 494.237
2998 0 56.1678 10.522 591 99.7225 477.711 493.322
2999 0 59.1814 12.0646 714 93.4636 477.399 493.01
3000 0 61.2325 11.9054 729 92.5377 477.517 492.147
3001 0 62.2503 11.3895 709 93.7391 477.715 491.952
3002 0 61.1614 11.2489 688 94.5174 476.91 489.807
3003 0 64.2306 10.8671 698 92.3381 477.526 489.36
3004 0 65.3218 11.4204 746 92.6072 477.957 487.256
3005 0 67.2189 11.5444 776 91.6147 477.698 487.179
3006 0 70.1449 11.7043 821 90.8709 478.177 486.546
3007 0 71.1964 11.9669 852 90.757 478.282 486.251
3008 0 74.1671 11.7572 872 90.8601 478.089 483.112
3009 0 76.1897 11.222 855 91.8222 477.499 483.187
3010 0 79.1595 12.2158 967 89.334 478.328 481.162
3011 0 82.1548 12.2452 1006 89.3986 478.148 480.22
3012 0 84.1625 12.4877 1051 88.216 479.192 478.545
3013 0 87.2258 12.5078 1091 88.286 478.246 477.331
3014 0 89.1933 12.8934 1150 87.3183 478.336 478.013
3015 0 93.2063 13.4755 1256 84.9578 478.197 476.185
3016 0 96.1997 13.2121 1271 85.7758 478.05 473.512
3017 0 97.1778 13.4804 1310 86.5351 478.737 473.005
3018 0 102.125 13.8948 1419 84.9521 478.973 470.089
3019 0 103.204 13.3522 1378 86.836 478.197 470.189
3020 0 106.406 13.8526 1474 85.8345 478.488 467.964
3021 0 111.357 13.6409 1519 85.5319 478.654 467.462
3022 0 113.365 13.7961 1564 85.5051 478.659 466.129
3023 0 118.274 13.8323 1636 85.4554 478.347 462.635
3024 0 121.234 14.0637 1705 84.2205 478.216 460.175
3025 0 125.282 14.5272 1820 82.9571 478.706 457.015
3026 0 129.242 14.2833 1846 84.7752 478.691 454.568
3027 0 134.259 14.7476 1980 84.5707 478.263 453.296
3028 0 137.324 14.1563 1944 85.5051 477.528 452.104
3029 0 144.281 14.0421 2026 85.6673 478.2 449.315
3030 1 250.552 9.90611 2482 82.996 477.337 420.752
3031 1 73.3128 10.9258 801 85.9251 478.894 487.079
3032 0 75.2631 11.2937 850 83.9106 478.756 485.793
3033 0 75.353 11.2006 844 84.282 478.454 484.397
3034 0 78.2486 11.2334 879 83.397 478.84 481.544
3035 0 83.2149 11.272 938 82.9755 477.852 482.616
3036 0 84.2218 11.3154 953 86.9664 477.14 479.286
3037 0 86.2108 11.1819 964 87.9927 477.741 478.145
3038 0 89.2284 12.0365 1074 85.7514 477.406 477.438
3039 0 95.2132 10.4502 995 89.0563 478.05 474.313
3040 0 97.0826 11.3306 1100 86.6927 478.156 474.315
3041 0 99.1587 8.67296 860 92.6523 478.381 470.65
3042 0 103.238 11.149 1151 88.7628 478.609 470.195
3043 0 103.16 11.0605 1141 89.2349 478.68 470.797
3044 0 110.132 11.2774 1242 88.7601 478.058 468.378
3045 1 346.512 10.7442 3723 88.9084 476.771 391.205
3046 1 129.191 9.91556 1281 88.1577 477.865 466.692
3047 1 54.0153 10.9599 592 79.7162 479.302 497.429
3048 0 54.0726 10.8928 589 81.2801 478.732 496.341
3049 0 55.0718 11.8391 652 80.4509 478.922 496.006
3050 0 57.0311 12.0285 686 79.1137 478.232 494.169
3051 0 59.0134 12.1667 718 78.4916 479.311 493.124
3052 0 59.0367 11.6538 688 81.234 478.828 492.89
3053 0 60.058 11.4722 689 82.0711 478.505 492.237
3054 0 61.0576 12.2999 751 81.3435 479.129 490.956
3055 0 66.1427 11.7927 780 82.2154 479.024 490.572
3056 0 65.0323 12.4861 812 83.2537 478.483 489.505
3057 0 65.0271 12.4871 812 130.016 478.483 489.505
3058 0 69.0977 12.2435 846 84.3416 478.567 488.144
3059 0 71.0504 12.2589 871 86.4282 478.262 488.241
3060 0 71.0666 11.0178 783 90.7229 478.411 488.061
3061 0 73.1189 11.2283 821 90.5493 478.03 488.224
3062 0 77.0558 11.602 894 88.1007 477.52 486.773
3063 0 79.1077 11.7561 930 87.714 478.408 485.835
3064 0 80.1233 11.4573 918 89.1569 478.601 484.215
3065 0 82.0767 11.0263 905 90.6011 478.423 483.45
3066 0 84.0711 11.3238 952 90.4643 478.11 481.888
3067 0 87.1115 11.5484 1006 91.3728 478.72 479.918
3068 0 91.128 11.5771 1055 92.0483 478.436 477.561
3069 0 94.1242 11.2511 1059 91.9556 478.58 477.19
3070 1 50.0233 10.9749 549 92.8106 479.659 496.612
3071 0 52.0112 11.6898 608 92.4424 479.02 495.377
3072 0 52.0085 11.2866 587 94.0238 479.196 495.061
3073 0 50.0292 10.314 516 100.229 478.614 492.025
3074 0 56.0569 12.63 708 89.0847 478.427 494.027
3075 0 56.03 11.6366 652 91.0644 478.368 494.977
3076 0 59.0396 11.5685 683 91.1479 478.277 495.05
3077 0 59.023 12.4019 732 90.6749 478.82 493.41
3078 0 60.0904 11.9986 721 93.6297 478.398 492.803
3079 0 62.1234 12.7971 795 91.7937 477.923 491.845
3080 0 62.0301 12.107 751 95.1358 478.31 491.866
3081 0 65.1698 12.3217 803 95.2752 477.79 489.536
3082 0 66.08 12.3789 818 95.9951 478.05 489.269
3083 0 69.0538 12.6423 873 92.9393 477.811 491.639
3084 0 71.0187 13.4472 955 93.6115 477.675 488.308
3085 0 74.0702 13.4062 993 92.3484 478.031 487.644
3086 0 75.134 12.4311 934 93.2088 478.118 487.676
3087 0 78.1392 13.3224 1041 91.8934 477.963 486.388
3088 0 80.1922 13.9166 1116 90.9624 477.507 484.665
3089 0 81.1079 13.032 1057 94.8098 477.64 484.558
3090 0 83.0573 13.4124 1114 93.982 477.77 482.914
3091 0 87.1877 13.2932 1159 93.5229 477.783 481.749
3092 0 89.1697 13.4351 1198 92.6536 477.215 480.61
3093 0 91.1269 13.2672 1209 94.2928 477.132 478.293
3094 0 93.2256 13.6229 1270 93.9276 476.605 478.252
3095 0 96.1539 13.7176 1319 95.1281 477.349 476.516
3096 0 97.1099 13.0368 1266 97.4676 477.75 475.315
3097 0 101.24 13.2655 1343 95.6947 477.724 473.853
3098 0 105.131 13.5355 1423 93.7997 477.495 472.73
3099 0 107.183 13.2483 1420 94.6042 476.287 471.223
3100 0 108.324 12.3611 1339 95.7513 477.326 470.795
3101 1 63.0561 11.9576 754 94.118 477.017 491.724
3102 0 64.1139 12.6806 813 91.0467 476.791 491.13
3103 0 66.0784 13.0603 863 90.7532 476.415 488.627
3104 0 67.0794 12.8802 864 88.5648 477.845 488.362
3105 0 71.0613 12.9044 917 85.5802 477.301 487.808
3106 0 72.0927 13.4549 970 85.5804 477.253 485.741
3107 0 73.0554 12.7711 933 88.8039 477.527 483.7
3108 0 77.0717 12.8841 993 87.5801 478.034 483.964
3109 0 80.05 13.5041 1081 85.655 477.577 482.574
3110 0 80.1002 12.9463 1037 87.5352 477.234 481.024
3111 0 85.0893 12.7513 1085 86.2903 477.053 479.061
3112 0 87.0539 12.8541 1119 86.0331 476.906 479.486
3113 0 88.0935 13.1565 1159 85.8637 477.01 476.203
3114 0 92.0991 13.3443 1229 84.3434 477.232 477.18
3115 0 95.1697 13.1344 1250 84.0808 476.979 474.201
3116 0 95.0673 12.7909 1216 85.972 476.822 473.328
3117 0 99.1082 13.006 1289 84.8542 477.024 472.498
3118 0 103.129 13.1292 1354 84.6167 476.488 468.885
3119 1 58.032 10.9422 635 86.2504 476.609 494.883
3120 0 59.0914 11.423 675 86.3422 476.047 492.047
3121 0 60.0224 11.1958 672 88.2173 476.726 490.25
3122 0 63.0623 12.1467 766 84.8721 477.148 488.898
3123 0 64.0254 11.6516 746 86.1153 476.853 491.012
3124 0 67.0219 12.4437 834 84.9005 476.825 489.48
3125 0 68.094 11.6604 794 87.5164 477.024 488.53
3126 0 69.0473 11.427 789 88.8542 477.212 487.567
3127 0 73.0497 11.5675 845 88.4237 477.466 487.028
3128 0 74.0672 11.9216 883 88.436 477.357 486.04
3129 0 76.0402 12.3093 936 88.6987 477.402 485.557
3130 0 77.0522 11.6674 899 92.5161 477.59 483.336
3131 0 81.0651 12.1754 987 90.5755 477.457 482.898
3132 0 86.0606 13.688 1178 87.6197 477.907 479.806
3133 0 85.0639 11.4385 973 95.2025 477.031 479.542
3134 0 88.125 12.5844 1109 92.7223 477.48 479.17
3135 0 89.0684 12.3276 1098 95.5638 477.41 477.465
3136 0 92.085 11.9238 1098 95.867 477.528 476.285
3137 0 96.1473 12.7721 1228 92.7695 477.511 476.116
3138 0 100.127 12.594 1261 93.8255 476.48 473.908
3139 0 101.15 11.8043 1194 96.8534 476.328 472.95
3140 0 106.154 12.6608 1344 92.0119 476.537 471.078
3141 0 109.213 12.7183 1389 91.1944 476.564 469.148
3142 1 59.096 10.6606 630 91.9508 477.046 490.348
3143 0 61.0799 11.4931 702 91.6496 477.135 489.18
3144 0 65.1783 12.5195 816 88.6127 477.115 487.623
3145 0 67.134 12.1548 816 87.0172 476.944 487.531
3146 0 67.1722 12.0883 812 89.1934 477.151 486.549
3147 0 71.201 12.1628 866 88.6305 476.909 485.98
3148 0 74.2046 12.3712 918 88.4793 477.024 484.815
3149 0 73.1682 12.3961 907 91.0595 476.947 482.191
3150 0 77.2348 12.1318 937 90.9989 476.751 480.567
3151 0 80.1884 12.0217 964 90.4533 476.907 480.425
3152 0 82.2412 12.9862 1068 89.9223 477.53 479.665
3153 0 82.2738 12.6164 1038 92.5751 476.668 478.676
3154 0 85.2916 11.8652 1012 93.416 477.119 477.89
3155 0 88.2656 13.0289 1150 91.4991 476.601 476.457
3156 0 90.2571 12.5863 1136 93.8926 476.93 474.898
3157 0 91.269 11.8989 1086 97.0663 476.89 472.61
3158 0 96.2639 12.6943 1222 94.171 476.198 472.501
3159 0 97.2297 12.1876 1185 97.054 476.625 468.789
3160 0 101.191 12.5703 1272 96.2398 476.09 467.66
3161 0 104.16 11.9432 1244 96.8449 476.711 466.924
3162 1 56.124 10.1204 568 88.8856 476.166 493.556
3163 0 57.134 11.6743 667 81.7166 476.678 492.922
3164 0 61.1553 11.9532 731 83.5075 476.509 493.2
3165 0 59.1482 11.1753 661 88.1679 476.706 492.091
3166 0 61.0709 11.413 697 85.1937 476.689 491.644
3167 0 62.0861 11.5163 715 84.4587 477.361 491.401
3168 0 66.1089 11.7685 778 83.6208 477.2 490.512
3169 0 68.1495 11.9443 814 82.3612 477.02 489.973
3170 0 68.1686 10.8261 738 86.1667 477.331 490.161
3171 0 71.1344 12.1038 861 83.6225 477.391 487.767
3172 0 71.1423 10.8374 771 87.668 477.608 486.737
3173 0 75.1645 10.936 822 87.5584 477.049 486.235
3174 0 77.1263 10.7745 831 87.2419 477.732 484.941
3175 0 80.1756 10.8886 873 86.2898 477.9 483.585
3176 0 82.0996 10.7674 884 86.362 477.842 483.339
3177 0 83.2303 11.9308 993 84.863 477.908 482.332
3178 0 89.1819 11.527 1028 85.5029 477.84 480.861
3179 0 90.1126 11.641 1049 87.8713 477.448 479.143
3180 0 92.1791 11.1956 1032 89.0988 477.953 478.171
3181 0 95.195 11.3241 1078 90.7134 477.373 476.591
3182 0 98.1792 11.8049 1159 89.6963 477.08 474.54
3183 0 100.199 11.4173 1144 91.75 477.677 472.353
3184 0 104.156 11.3388 1181 90.7214 477.274 471.272
3185 1 59.0858 10.9163 645 86.9705 476.375 493.712
3186 0 60.1471 11.5051 692 86.065 477.215 493.289
3187 0 62.0881 11.7092 727 85.6616 478.062 492.127
3188 0 62.054 11.7801 731 88.8878 477.662 491.929
3189 0 67.0782 12.0605 809 87.6724 477.98 491.297
3190 0 67.0675 12.5098 839 87.6806 477.386 489.672
3191 0 69.1648 11.9859 829 88.8227 477.15 488.267
3192 0 70.0673 12.6164 884 87.7545 477.067 486.984
3193 0 74.0474 12.3029 911 86.8738 477.643 486.401
3194 0 75.0758 12.7604 958 86.0804 477.654 485.709
3195 0 78.1263 12.083 944 88.2945 477.588 483.462
3196 0 79.1039 12.0727 955 88.378 477.657 482.501
3197 0 82.1406 12.8438 1055 87.5517 477.669 481.202
3198 0 84.196 12.2452 1031 87.966 478.144 480.605
3199 0 86.1356 12.3874 1067 89.2877 477.844 478.539
3200 0 88.2095 12.7764 1127 90.1091 477.644 477.5
3201 0 90.2534 12.9524 1169 91.923 477.617 476.271
3202 0 92.1809 13.4627 1241 90.8114 477.334 474.825
3203 0 96.1882 12.7355 1225 91.329 476.967 472.962
3204 0 99.3096 13.04 1295 90.5961 477.946 471.192
3205 0 102.309 13.4103 1372 90.0313 477.852 470.176
3206 0 104.284 12.7537 1330 92.3233 477.623 469.19
3207 0 107.228 13.4947 1447 90.8141 476.794 467.467
3208 0 110.35 12.4151 1370 92.9467 477.03 464.636
3209 0 114.282 12.8542 1469 94.0238 476.703 462.536
3210 1 64.0933 10.5939 679 90.3063 477.455 489.409
3211 0 64.1354 10.3063 661 89.4962 477.632 489.985
3212 0 68.1043 10.6454 725 93.4676 477.058 487.579
3213 0 69.0953 12.0848 835 89.6419 477.384 488.018
3214 0 73.1495 11.6474 852 86.6021 477.496 485.613
3215 0 74.1065 11.7264 869 87.977 477.338 483.809
3216 0 78.1724 11.6281 909 91.4268 477.22 483.033
3217 0 78.1438 11.1205 869 94.6467 477.044 483.784
3218 0 82.179 11.7305 964 93.1525 477.454 480.943
3219 0 85.2686 11.8332 1009 91.4272 477.771 482.057
3220 0 90.2992 12.6468 1142 88.9457 477.419 480.205
3221 0 91.2292 12.0356 1098 92.1466 477.611 478.524
3222 0 93.2664 12.1802 1136 91.6488 477.126 475.975
3223 1 50.2087 10.3767 521 90.595 478.328 496.864
3224 0 54.2667 11.3882 618 90.3544 478.002 495.095
3225 0 54.3618 11.5706 629 90.876 477.665 494.948
3226 0 56.2657 12.1566 684 90.8772 478.177 493.496
3227 0 57.2421 12.5083 716 90.2039 477.687 493.348
3228 0 58.2449 11.9839 698 92.033 478.079 493.175
3229 0 61.2429 12.4749 764 90.2853 477.89 492.397
3230 0 61.3045 11.8752 728 94.0082 478.321 491.743
3231 0 64.2916 12.1011 778 93.8612 478.416 491.501
3232 0 64.4393 11.732 756 94.8201 477.848 489.681
3233 0 67.4227 12.2807 828 93.4686 477.552 489.773
3234 0 69.3192 11.9159 826 92.9201 477.598 487.83
3235 0 70.2901 12.5338 881 95.0409 477.632 486.526
3236 0 73.401 12.6974 932 97.3133 477.264 485.756
3237 0 76.4624 12.9606 991 97.0938 477.303 483.169
3238 0 78.3849 12.4769 978 98.7035 477.275 483.424
3239 0 80.3632 12.9786 1043 96.8082 477.462 482.841
3240 0 81.3271 12.6157 1026 98.2076 477.635 482.286
3241 0 81.3217 12.3706 1006 100.135 477.597 479.888
3242 0 87.31 13.2631 1158 96.7651 477.662 478.48
3243 0 88.3165 13.1912 1165 97.5871 477.799 477.051
3244 0 92.4213 13.406 1239 97.7328 477.738 475.614
3245 0 94.4077 13.251 1251 98.4021 477.217 475.381
3246 0 94.4562 12.8419 1213 100.848 477.641 472.904
3247 0 98.4665 12.7353 1254 99.6587 477.56 473.381
3248 0 100.463 13.0198 1308 100.003 477.719 471.336
3249 0 103.505 13.1878 1365 98.7092 477.722 469.206
3250 0 105.442 12.5282 1321 100.633 477.726 466.596
3251 0 108.428 12.1464 1317 99.9491 477.228 466.237
3252 0 112.377 12.4936 1404 98.1852 478.061 464.245
3253 1 62.267 9.86076 614 92.8339 478.342 490.464
3254 0 65.1792 10.4021 678 93.0472 478.049 487.24
3255 0 68.1974 11.6133 792 89.5442 478.391 486.432
3256 0 70.2762 11.839 832 89.5841 478.419 484.645
3257 0 68.2693 11.2935 771 94.3346 478.684 482.467
3258 0 73.2134 11.7601 861 91.3682 478.107 481.246
3259 0 76.1907 11.7731 897 91.3623 477.804 479.689
3260 0 76.1763 11.3421 864 92.8206 478.095 478.595
3261 0 79.2669 10.8999 864 94.2546 477.711 478.21
3262 0 82.1736 11.4149 938 92.4328 478.226 478.628
3263 0 85.2572 12.3391 1052 90.8717 477.982 478.941
3264 0 89.2497 12.1681 1086 91.5672 477.881 478.208
3265 0 91.2302 12.0903 1103 92.6863 477.735 476.47
3266 0 93.1801 12.3739 1153 93.7259 478.065 473.865
3267 0 95.2648 12.628 1203 93.0391 477.14 471.727
3268 0 99.2036 12.9834 1288 92.5225 477.343 469.877
3269 0 100.2 12.6847 1271 93.7592 476.526 471.904
3270 0 104.18 12.4112 1293 95.9288 476.737 467.424
3271 0 107.204 12.6675 1358 95.2445 477.228 464.015
3272 0 110.112 12.3965 1365 96.5363 477.062 463.36
3273 0 113.205 12.6585 1433 96.3357 477.406 462.877
3274 0 116.228 12.5185 1455 96.5952 477.867 461.636
3275 1 61.1063 10.5063 642 91.8271 478.171 489.263
3276 0 62.1286 10.9772 682 93.239 478.562 486.154
3277 0 64.1018 10.6393 682 93.9677 478.427 485.523
3278 0 67.0702 11.3016 758 92.405 478.354 486.063
3279 0 70.1965 12.0519 846 90.8061 478.111 483.388
3280 0 72.1387 12.0601 870 89.4529 478.221 483.551
3281 0 74.1457 11.4369 848 90.6557 478.341 480.776
3282 0 75.2675 11.8378 891 90.1762 478.012 478.216
3283 0 81.2092 12.8557 1044 85.9952 478.316 480.979
3284 0 83.2479 12.9853 1081 84.753 477.433 479.5
3285 0 86.2904 13.4893 1164 84.8101 477.121 476.607
3286 0 89.2862 13.5743 1212 84.4257 476.996 476.932
3287 0 89.2449 12.6954 1133 91.1015 477.01 475.019
3288 0 91.1823 13.0069 1186 91.516 477.349 471.874
3289 0 95.2184 12.9492 1233 90.6302 477.387 472.569
3290 0 97.2499 12.6992 1235 90.4785 477.579 470.306
3291 0 98.2147 12.7069 1248 91.1434 477.458 470.259
3292 0 101.214 12.5675 1272 92.5668 476.691 468.568
3293 0 106.208 13.596 1444 88.8823 477.091 466.708
3294 0 108.244 12.9061 1397 90.1911 476.953 463.636
3295 0 112.212 12.6457 1419 91.7844 477.686 462.848
3296 0 116.251 12.9204 1502 89.7723 477.893 459.238
3297 1 61.2321 11.2033 686 85.4636 478.232 490.016
3298 0 63.2307 11.2762 713 87.1094 478.095 488.597
3299 0 66.2598 12.3303 817 86.9253 477.725 486.153
3300 0 69.1314 12.4545 861 87.6167 477.706 484.368
3301 0 70.2668 12.1679 855 88.9404 478.012 483.587
3302 0 73.3099 12.0993 887 88.2018 477.961 481.945
3303 0 75.268 13.1397 989 85.8524 477.656 480.525
3304 0 78.2194 13.0019 1017 85.8977 477.951 480.468
3305 0 80.2246 12.6769 1017 86.4631 477.521 479.433
3306 0 81.3528 12.538 1020 87.0716 477.67 477.501
3307 0 85.314 12.6943 1083 85.783 477.343 476.077
3308 0 85.513 12.3607 1057 85.9338 477.215 474.148
3309 0 89.4194 13.0844 1170 85.6598 477.016 473.013
3310 0 91.3514 13.2674 1212 84.8152 477.491 472.93
3311 0 94.4708 12.9458 1223 85.3868 477.581 471.593
3312 0 94.5487 12.9986 1229 86.4695 478.458 470.051
3313 0 99.479 12.3041 1224 86.6185 477.965 470.877
3314 0 101.405 12.9876 1317 86.1359 477.766 466.285
3315 0 104.495 13.168 1376 86.5378 477.789 465.613
3316 0 108.367 12.4761 1352 88.6139 477.607 460.852
3317 0 110.298 12.4572 1374 88.8326 477.175 461.487
3318 0 113.399 12.1342 1376 90.9964 477.967 457.854
3319 1 57.2978 9.09284 521 87.9731 478.894 489.678
3320 0 60.3445 10.2246 617 86.9303 478.269 486.438
3321 0 62.3278 11.0866 691 85.6396 478.489 486.224
3322 0 63.352 11.9965 760 86.0013 478.459 484.742
3323 0 64.3998 11.6305 749 88.9239 477.714 484.303
3324 0 66.3249 11.9563 793 87.966 477.583 481.808
3325 0 70.2382 12.8847 905 86.4177 477.43 480.147
3326 0 72.4607 12.8346 930 86.5054 477.612 481.385
3327 0 74.3405 12.3486 918 88.4673 477.883 477.881
3328 0 78.4951 12.0899 949 87.9673 477.809 476.857
3329 0 79.2717 12.741 1010 87.0683 477.812 478.683
3330 0 82.2909 12.3951 1020 88.4716 477.579 476.911
3331 0 85.3542 12.6063 1076 88.7909 477.752 474.604
3332 0 87.3466 12.5248 1094 89.2377 477.643 473.991
3333 0 89.287 12.6894 1133 88.6531 477.944 472.492
3334 0 90.2563 13.0739 1180 88.8288 477.769 473.344
3335 0 94.3254 12.4251 1172 88.5179 477.875 469.439
3336 0 97.2141 12.7554 1240 88.6645 477.659 469.217
3337 0 98.3162 11.88 1168 91.7072 477.805 465.928
3338 0 102.364 12.2992 1259 92.5282 477.667 463.862
3339 0 104.317 12.8646 1342 91.5596 477.659 464.715
3340 0 107.256 13.1928 1415 92.0537 477.902 462.495
3341 0 110.362 12.5767 1388 94.6297 477.732 460.874
3342 0 114.299 13.0797 1495 93.3231 477.737 460.748
3343 0 116.446 12.9674 1510 94.4887 477.794 456.472
3344 0 118.492 12.946 1534 95.0202 477.438 458.26
3345 0 120.514 13.0524 1573 95.4488 477.721 457.622
3346 0 125.399 13.4211 1683 95.9239 477.803 455.239
3347 0 127.406 13.406 1708 99.0158 477.813 452.267
3348 0 130.446 13.1856 1720 99.6663 478.538 450.735
3349 0 135.58 14.0286 1902 97.0862 478.087 449.746
3350 0 136.471 12.5595 1714 100.339 477.378 449.285
3351 0 142.36 13.1357 1870 99.7187 477.448 446.837
3352 0 145.466 12.5115 1820 101.565 477.455 444.553
3353 0 151.532 12.8026 1940 100.816 477.144 443.466
3354 1 83.5423 11.8144 987 86.7589 477.988 480.756
3355 0 84.3683 12.078 1019 86.7311 478.405 479.235
3356 0 86.3326 12.0464 1040 86.7808 478.071 477.161
3357 0 89.6217 11.8498 1062 94.6563 478.021 477.047
3358 0 91.3303 12.2741 1121 94.3542 478.213 474.837
3359 0 94.3384 11.7555 1109 94.5356 478.16 472.488
3360 0 97.3082 12.1881 1186 92.2513 478.558 473.27
3361 0 101.368 11.7295 1189 93.0706 478.214 470.87
3362 0 104.346 11.5481 1205 92.244 478.095 469.13
3363 0 108.45 12.8908 1398 88.2296 477.646 464.908
3364 0 109.348 12.4648 1363 90.5121 477.796 462.373
3365 0 112.383 11.4164 1283 91.7857 477.883 461.464
3366 0 114.35 11.3599 1299 91.6982 477.973 462.262
3367 0 117.448 11.4519 1345 90.5472 477.753 460.686
3368 0 121.408 11.4819 1394 90.6636 477.705 457.397
3369 0 124.407 11.7598 1463 90.0684 477 453.506
3370 0 130.408 11.9318 1556 89.9473 477.486 451.019
3371 0 135.395 11.8616 1606 88.4851 477.378 448.07
3372 1 70.2544 10.0919 709 77.4528 479.014 482.646
3373 0 71.284 9.42707 672 77.6696 478.51 481.452
3374 0 73.3668 10.7269 787 80.845 478.611 479.563
3375 0 76.273 10.7246 818 81.0917 478.598 478.829
3376 0 77.4356 11.3255 877 80.5143 478.749 478.139
3377 0 82.3027 10.3277 850 82.4671 477.849 476.492
3378 0 80.3054 9.98688 802 84.6197 478.392 473.91
3379 0 81.3094 10.4416 849 84.0907 478.24 471.386
3380 0 86.3352 10.7604 929 83.3811 478.215 471.2
3381 0 88.3354 9.84882 870 85.0954 478.163 466.018
3382 0 88.394 11.8334 1046 83.434 478.35 464.561
3383 0 91.4114 10.7755 985 85.1827 478.447 464.604
3384 0 92.2573 9.96127 919 86.741 478.18 459.894
3385 0 97.2405 10.8802 1058 85.1682 477.602 460.011
3386 0 100.316 11.2345 1127 84.8784 478.613 457.908
3387 0 103.37 10.7091 1107 86.5583 478.284 456.142
3388 0 106.252 11.068 1176 86.4872 477.804 455.584
3389 0 106.315 10.3372 1099 89.0737 477.842 453.133
3390 0 110.329 10.6228 1172 88.9795 477.154 451.797
3391 0 113.213 10.573 1197 88.4996 477.285 450.221
3392 0 121.211 11.2778 1367 87.3855 477.441 447.064
3393 0 124.197 10.6202 1319 91.3237 476.848 443.876
3394 0 128.248 10.6513 1366 93.131 476.379 442.559
3395 0 131.192 11.3192 1485 92.9152 476.338 441.258
3396 1 68.0757 13.485 918 103.256 476.175 416.321
3397 0 62.2276 8.46891 527 81.8444 478.476 484.431
3398 0 68.2418 10.4335 712 78.1404 478.573 487.08
3399 0 69.1891 10.7531 744 80.9798 478.272 486.617
3400 0 71.2224 10.404 741 83.6167 478.282 487.321
3401 0 72.2758 10.8197 782 84.2775 477.936 485.968
3402 0 76.184 11.1703 851 85.1915 477.702 484.657
3403 0 78.2688 11.205 877 85.0867 477.607 485.595
3404 0 79.3444 11.3934 904 88.2611 477.253 484.39
3405 0 82.3341 10.5546 869 90.4419 477.066 484.269
3406 0 86.2466 12.0353 1038 87.3208 477.032 482.223
3407 0 87.2692 11.9744 1045 87.3072 477.287 481.864
3408 0 91.2632 12.6119 1151 86.1121 476.379 481.207
3409 0 94.1964 12.7393 1200 86.4667 476.341 479.29
3410 1 48.0703 10.3598 498 87.1948 477.044 503.165
3411 0 49.098 10.6929 525 87.2152 478.162 502.181
3412 0 52.0375 11.0113 573 87.9145 477.649 500.787
3413 0 52.0482 11.2396 585 87.2889 477.675 500.344
3414 0 54.0687 11.5779 626 92 477.276 498.706
3415 0 56.0376 12.902 723 92.7704 476.741 496.88
3416 0 56.0403 11.7772 660 92.8727 477.244 497.456
3417 0 60.0522 12.4725 749 89.6168 477.49 496.049
3418 0 59.0449 11.8893 702 90.8946 478.02 495.887
3419 0 62.0952 12.7224 790 88.5785 477.905 496.267
3420 0 63.0519 12.3708 780 89.0705 477.955 495.117
3421 0 64.114 11.8539 760 89.7671 477.404 494.062
3422 0 66.0885 12.9826 858 85.662 477.566 494.848
3423 0 66.0611 12.6852 838 88.1885 477.671 493.023
3424 0 67.1046 12.0558 809 89.5624 477.864 492.061
3425 0 71.1046 13.4028 953 84.3893 477.952 490.863
3426 0 73.1604 12.9988 951 85.6225 476.9 490.376
3427 0 74.1721 12.6058 935 88.2235 476.643 489.162
3428 0 75.1797 12.5167 941 89.1966 476.116 487.1
3429 0 79.1669 12.1137 959 90.3306 476.351 485.374
3430 0 81.1751 12.8734 1045 88.8316 476.438 484.059
3431 0 83.2683 12.9701 1080 94.8676 476.469 484.094
3432 0 85.3031 12.2973 1049 98.0572 476.436 483.152
3433 0 89.2734 12.7698 1140 95.7263 476.983 482.633
3434 0 92.3386 12.53 1157 95.9922 476.357 479.811
3435 0 95.2762 12.0912 1152 98.2552 476.379 478.269
3436 0 99.1885 12.8846 1278 94.2621 476.2 475.171
3437 0 100.239 12.8992 1293 95.0116 476.402 473.698
3438 0 103.233 12.4863 1289 97.1365 476.343 468.96
3439 1 55.0387 10.9014 600 93.1917 477.79 495.285
3440 0 57.0745 11.8792 678 88.2994 477.279 495.189
3441 0 56.0463 11.883 666 91.3213 477.647 493.504
3442 0 59.095 11.8115 698 90.4628 477.771 493.226
3443 0 62.1397 12.0374 748 87.9612 478.16 493.163
3444 0 63.165 13.061 825 86.2545 477.827 492.021
3445 0 66.1622 12.1671 805 87.5006 478.391 491.558
3446 0 67.0769 12.2695 823 88.2053 478 490.216
3447 0 69.1979 12.4859 864 87.919 478.565 490.243
3448 0 70.1374 12.7607 895 88.8391 478.086 489.392
3449 0 74.1922 12.0767 896 90.7154 477.382 487.991
3450 0 77.2473 12.7124 982 89.4715 477.461 486.354
3451 0 78.1649 12.2306 956 92.1067 478.168 485.894
3452 0 82.1864 12.6177 1037 91.9701 477.749 483.849
3453 0 84.179 12.6635 1066 93.1773 477.536 484.852
3454 0 86.2805 12.865 1110 93.8207 476.654 481.659
3455 1 43.0558 11.2644 485 98.3113 478.095 502.227
3456 0 45.0491 11.5873 522 96.6226 478.337 500.874
3457 0 46.0435 11.4891 529 98.6994 477.981 501.055
3458 0 49.0841 12.0406 591 94.3858 477.904 500.428
3459 0 49.0328 12.3999 608 95.4918 478.416 499.758
3460 0 52.0499 12.9875 676 93.8166 477.976 498.368
3461 0 51.0309 13.2077 674 95.8947 477.651 498.318
3462 0 52.12 12.4137 647 98.9335 477.879 498.631
3463 0 53.0518 12.4218 659 99.2564 477.938 497.763
3464 0 54.0332 13.029 704 98.6719 478.013 498.017
3465 0 56.0573 12.8262 719 99.9458 478.099 497.089
3466 0 58.193 12.9569 754 99.439 477.702 496.05
3467 0 58.1404 13.3814 778 99.563 477.909 496.03
3468 0 60.1365 12.2887 739 103.12 478.286 496.566
3469 0 62.1528 12.6302 785 102.056 477.479 493.558
3470 0 65.176 12.8115 835 100.886 477.777 492.698
3471 0 66.2366 12.6365 837 101.951 477.885 491.773
3472 0 69.1995 13.2949 920 101.261 478.1 489.801
3473 0 71.2307 12.4806 889 101.823 478.245 488.124
3474 0 75.1648 13.477 1013 99.8322 478.893 488.631
3475 0 76.1636 12.5782 958 103.431 478.578 486.931
3476 0 80.2036 13.2787 1065 101.311 478.202 485.56
3477 0 82.1692 12.7663 1049 101.668 477.946 483.461
3478 0 84.1407 12.7406 1072 101.623 477.465 479.702
3479 1 43.1248 12.4058 535 104.277 479.135 500.379
3480 0 44.1294 11.7835 520 105.246 479.231 500.865
3481 0 46.1082 12.3622 570 104.547 479.281 496.902
3482 0 46.0553 12.7456 587 102.583 479.262 498.102
3483 0 48.0998 12.6196 607 102.582 479.308 497.491
3484 0 49.1241 12.6414 621 102.406 479.502 497.771
3485 0 50.0954 12.037 603 104.789 479.625 495.72
3486 0 48.1189 11.9288 574 106.58 479.521 495.789
3487 0 51.1582 11.7283 600 104.353 479.147 495.272
3488 0 51.145 11.4576 586 105.794 479.51 495.655
3489 0 52.2422 11.4658 599 106.786 479.279 493.995
3490 0 54.1881 11.9399 647 106.649 479.091 493.136
3491 0 57.1842 12.6434 723 105.299 478.739 491.625
3492 0 60.1711 12.3814 745 103.011 479.026 491.179
3493 0 60.1801 12.1469 731 101.707 478.907 491.268
3494 0 62.15 12.2928 764 102.329 478.518 488.47
3495 0 63.171 12.1416 767 103.953 479.181 488.812
3496 0 65.1694 12.0762 787 105.41 478.71 487.174
3497 0 70.2232 12.4603 875 104.369 478.671 487.327
3498 0 68.1914 13.8287 943 92.9014 478.108 485.296
3499 0 72.2153 12.8089 925 105.988 478.616 484.889
3500 0 75.18 11.9979 902 108.624 478.102 483.839
3501 0 77.1702 12.5048 965 107.189 477.914 483.12
3502 0 80.2349 11.8652 952 107.96 477.864 482.729
3503 0 81.2223 11.4624 931 107.114 477.74 482.198
3504 0 85.259 11.5765 987 105.965 477.756 480.886
3505 0 87.1516 11.4169 995 105.995 477.794 479.417
3506 1 50.0856 10.4621 524 104.796 478.601 498.034
3507 0 49.1214 10.7692 529 106.374 478.834 497.151
3508 0 50.0901 10.9602 549 105.714 478.556 496.441
3509 0 51.1228 10.5824 541 106.116 478.128 493.821
3510 0 49.1798 10.7971 531 107.966 477.817 495.262
3511 0 52.1554 11.4657 598 107.281 478.12 494.381
3512 0 57.3168 11.166 640 115.105 478.005 493.338
3513 0 62.2628 13.0736 814 103.027 477.904 494.166
3514 0 65.2799 12.6839 828 102.395 477.587 493.56
3515 0 64.2789 12.5547 807 103.628 477.581 492.452
3516 0 65.1858 11.9658 780 108.009 477.56 491.414
3517 0 71.3551 12.4028 885 104.567 477.993 490.61
3518 0 71.2108 11.3326 807 108.421 477.463 486.815
3519 0 75.3324 12.3453 930 106.319 477.675 489.057
3520 0 78.3272 12.6265 989 103.828 476.889 487.65
3521 0 80.3229 11.8646 953 106.326 476.612 487.496
3522 0 82.2449 12.1102 996 104.812 476.678 487.066
3523 0 84.1685 12.0591 1015 105.24 476.502 483.197
3524 1 44.1281 10.3562 457 103.888 477.477 502.479
3525 0 47.2274 11.0953 524 101.227 477.389 501.763
3526 0 48.2513 12.0618 582 98.7577 476.773 502.132
3527 0 49.1436 11.8021 580 101.341 477.152 499.4
3528 0 50.236 12.1427 610 100.592 476.684 499.451
3529 0 53.3042 13.0759 697 99.2769 475.898 497.846
3530 0 53.3411 12.4107 662 104.634 476.434 497.444
3531 0 54.1973 12.436 674 106.409 475.935 495.166
3532 0 56.2419 12.5351 705 105.841 476.099 494.271
3533 0 60.2813 12.5246 755 106.309 475.923 493.591
3534 0 58.2037 12.0095 699 110.439 476.655 492.266
3535 0 62.1757 12.8024 796 107.989 476.582 491.24
3536 0 63.3197 11.8131 748 109.77 476.434 489.41
3537 0 67.2271 12.3611 831 106.947 476.215 488.44
3538 0 69.3154 12.8254 889 104.778 476.771 487.456
3539 0 70.1926 12.2947 863 105.943 477.125 484.49
3540 0 73.1973 12.4595 912 103.3 476.895 483.647
3541 0 76.2312 12.0948 922 104.509 476.806 481.112
3542 0 75.2414 9.80843 738 109.186 476.39 479.408
3543 0 82.1795 12.5944 1035 100.036 476.674 478.957
3544 0 85.1668 12.4814 1063 100.698 476.703 478.444
3545 0 89.207 12.3309 1100 101.579 477.835 476.449
3546 0 90.1912 11.9191 1075 101.906 477.926 475.032
3547 1 47.0899 11.1914 527 99.4573 478.93 498.277
3548 0 48.1692 11.7503 566 102.187 478.387 497.767
3549 0 50.0849 12.339 618 101.251 478.175 496.042
3550 0 51.1768 12.6425 647 101.592 478.134 492.541
3551 0 54.271 12.2165 663 102.062 478.487 491.43
3552 0 55.1746 12.2158 674 100.651 479.039 492.061
3553 0 58.274 12.0809 704 100.418 478.679 491.182
3554 0 58.1874 12.3566 719 100.52 478.751 491.118
3555 0 60.2149 11.5254 694 102.069 478.507 487.716
3556 0 62.2944 12.0396 750 99.192 478.505 486.193
3557 0 65.1832 11.9816 781 98.3047 478.305 483.622
3558 0 66.2669 12.1478 805 98.9851 478.425 481.896
3559 0 68.14 12.2835 837 99.2939 478.585 482.065
3560 0 72.2007 12.6592 914 98.4245 478.293 479.769
3561 0 71.2053 11.9373 850 101.759 478.699 477.646
3562 0 75.2394 12.7992 963 99.6064 479.105 478.52
3563 0 79.1838 13.0582 1034 98.6818 478.635 475.319
3564 0 81.1869 13.0563 1060 99.2094 478.969 474.191
3565 0 85.2162 13.6476 1163 97.6733 478.931 474.284
3566 0 87.3398 13.7394 1200 98.2542 478.857 471.532
3567 0 88.2638 13.6409 1204 101.326 479.09 468.96
3568 0 92.2308 14.236 1313 100.592 478.909 468.516
3569 0 93.1927 14.2393 1327 102.516 478.983 465.64
3570 0 96.2547 14.4409 1390 102.665 479.268 463.909
3571 0 99.2628 13.9529 1385 106.948 480.149 463.794
3572 0 101.313 14.4206 1461 105.933 479.901 465.929
3573 0 103.274 14.1856 1465 107.111 480.414 464.07
3574 0 107.237 15.0974 1619 104.7 480.452 459.834
3575 0 111.224 14.4574 1608 108.081 480.736 458.27
3576 0 113.268 15.097 1710 107.908 480.006 455.619
3577 0 117.357 14.7413 1730 110.242 480.671 455.706
3578 0 120.23 14.9547 1798 108.011 480.316 453.964
3579 0 124.283 14.4347 1794 109.834 480.813 451.026
3580 0 128.271 15.3503 1969 109.604 480.566 450.366
3581 0 133.32 15.6015 2080 108.409 480.485 448.68
3582 0 136.268 14.6477 1996 111.708 480.863 445.908
3583 0 142.239 15.0802 2145 110.917 480.496 444.516
3584 0 143.271 14.7831 2118 112.184 480.243 442.415
3585 0 149.281 15.099 2254 110.736 480.071 443.432
3586 0 153.178 14.7932 2266 112.163 480.343 438.317
3587 0 160.218 14.0122 2245 113.366 481.299 436.926
3588 0 162.26 13.7002 2223 115.415 480.158 434.631
3589 0 169.227 13.9989 2369 113.588 479.902 431.038
3590 0 173.262 14.3944 2494 112.418 480.304 430.219
3591 0 181.22 14.292 2590 111.607 480.325 427.71
3592 0 185.21 14.5889 2702 111.757 480.388 424.563
3593 1 96.0777 11.8342 1137 109.162 480.706 472.144
3594 0 98.0939 12.4676 1223 109.948 480.664 469.675
3595 0 101.06 12.8538 1299 108.828 480.586 467.252
3596 0 104.128 12.7823 1331 108.704 480.833 467.07
3597 0 107.185 12.791 1371 109.624 480.61 464.127
3598 0 111.172 12.4672 1386 110.209 480.229 461.559
3599 0 115.17 12.7029 1463 109.126 480.462 460.632
3600 0 121.181 12.3369 1495 108.881 480.524 459.373
3601 0 123.16 12.8938 1588 108.706 480.452 456.63
3602 0 126.213 12.7087 1604 110.517 480.536 454.057
3603 0 133.187 13.5374 1803 107.856 480.463 454.246
3604 0 137.13 13.396 1837 107.134 479.568 449.384
3605 0 143.088 13.8796 1986 105.63 480.294 447.99
3606 0 145.127 13.2023 1916 108.547 480.428 447.513
3607 0 150.123 13.5888 2040 106.566 480.421 443.729
3608 0 154.146 13.085 2017 105.26 480.501 443.425
3609 0 160.188 13.1533 2107 103.49 480.128 440.314
3610 0 164.196 13.3987 2200 109.252 479.674 433.852
3611 1 89.0538 10.9484 975 100.602 479.768 475.016
3612 0 91.1295 11.7086 1067 98.1303 479.852 473.196
3613 0 92.0396 11.7667 1083 97.7221 479.869 472.869
3614 0 96.1014 11.6752 1122 97.4438 479.735 470.679
3615 0 98.0906 12.1928 1196 96.9707 479.918 469.911
3616 0 101.13 12.0934 1223 98.1038 479.413 467.723
3617 0 107.124 12.4155 1330 98.9038 479.599 466.886
3618 0 110.111 12.1695 1340 101.491 478.896 464.675
3619 0 111.132 11.6618 1296 104.889 478.666 464.073
3620 1 49.0374 9.21746 452 88.5177 478.761 497.894
3621 0 50.0272 9.33492 467 90.4925 478.991 496.773
3622 0 50.0255 10.4347 522 90.7624 478.649 496.86
3623 0 53.0298 10.6355 564 89.2571 478.466 493.917
3624 0 54.0147 10.6267 574 90.6568 478.444 493.878
3625 0 55.0341 11.1204 612 90.8154 478.572 492.809
3626 0 58.0309 11.425 663 87.7888 478.922 493.338
3627 0 59.028 10.9101 644 89.1444 478.503 493.856
3628 0 62.0127 11.2396 697 88.7217 477.875 492.552
3629 0 63.0171 11.4889 724 88.4116 478.244 492.011
3630 0 63.0116 10.9345 689 90.7881 478.389 491.28
3631 0 67.033 12.3223 826 86.3692 478.506 491.069
3632 0 70.0274 12.4237 870 85.3931 478.634 490.579
3633 0 70.0191 11.7396 822 88.7518 477.822 487.479
3634 0 72.0192 11.1776 805 90.7553 477.421 488.629
3635 0 72.0371 11.8272 852 91.2958 478.062 487.528
3636 0 76.0322 11.6924 889 91.1282 478.324 484.932
3637 0 78.0431 12.0959 944 90.5572 478.63 484.492
3638 0 80.0287 12.1706 974 90.771 478.684 483.618
3639 0 83.0237 11.852 984 91.2063 477.77 481.833
3640 0 86.0651 12.5022 1076 90.6636 477.186 480.014
3641 0 87.0515 12.1652 1059 93.2181 477.075 479.126
3642 0 91.143 12.4859 1138 91.0501 477.502 476.322
3643 1 47.0178 10.1026 475 89.099 477.583 502.648
3644 0 48.0445 10.8025 519 84.5607 478.395 499.834
3645 0 50.0254 10.9944 550 84.9909 477.922 498.385
3646 0 47.0507 10.0317 472 89.2606 478.064 498.686
3647 0 49.0316 10.789 529 87.1853 478.405 499.019
3648 0 52.0239 10.3798 540 86.7426 478.283 499.609
3649 0 52.0418 10.088 525 89.9505 477.928 496.865
3650 0 55.0478 10.4091 573 88.0122 477.784 495.19
3651 0 57.0899 11.1929 639 85.385 478.457 494.593
3652 0 56.0324 10.7438 602 87.6811 478.231 494.375
3653 0 58.0836 11.0358 641 87.4306 478.208 493.2
3654 0 59.17 10.8839 644 88.3385 478.298 491.366
3655 0 61.1349 10.8612 664 87.9126 478.345 492.764
3656 0 63.1266 11.3264 715 86.849 478.263 491.773
3657 0 64.1886 10.734 689 89.0784 478.821 490.087
3658 0 66.1735 11.0921 734 88.7929 478.738 489.674
3659 0 66.0809 11.0471 730 90.3356 479.344 487.412
3660 0 69.0874 10.6242 734 90.0082 479.732 486.377
3661 0 71.1383 11.063 787 90.3939 479.362 485.316
3662 0 71.0804 10.8187 769 91.8166 479.687 485.752
3663 0 72.1049 11.0395 796 92.4786 480.275 482.487
3664 0 75.0718 11.1893 840 92.625 479.719 481.829
3665 0 75.1059 11.3573 853 93.2532 480.4 481.712
3666 0 79.1482 11.2068 887 92.9966 480.556 481.059
3667 0 82.154 11.4906 944 92.5858 479.642 478.392
3668 0 85.2382 11.5911 988 92.3664 479.485 478.067
3669 0 87.2614 11.3796 993 93.9557 479.273 475.991
3670 0 90.2156 11.3949 1028 93.2072 479.565 475.239
3671 1 49.0953 10.4491 513 90.2944 480.431 495.513
3672 0 50.104 10.7177 537 90.8529 480.372 496.372
3673 0 53.0814 11.2092 595 87.6689 480.008 494.958
3674 0 51.0555 10.6355 543 91.5617 480.169 493.814
3675 0 54.0698 10.9673 593 90.9275 480.111 494.032
3676 0 53.1107 10.3181 548 94.1131 480.113 492.409
3677 0 56.0848 10.4306 585 93.5538 480.02 492.911
3678 0 56.0611 11.2021 628 93.535 479.807 494.451
3679 0 56.078 10.2892 577 97.4229 480.369 492.239
3680 0 58.0414 11.0266 640 94.9656 480.206 491.566
3681 0 62.0671 10.7464 667 94.6147 480.139 491.186
3682 0 62.0506 11.0555 686 94.7085 479.168 490.185
3683 0 64.0823 11.3136 725 93.5283 479.597 489.03
3684 0 67.107 11.4146 766 93.5614 478.946 488.419
3685 0 68.1 11.4978 783 94.3525 478.923 487.513
3686 0 70.1222 12.0932 848 93.4693 478.866 487.435
3687 0 73.1964 12.0088 879 93.7008 478.387 485.543
3688 0 74.1563 11.8533 879 94.7929 479.189 484.526
3689 0 76.2914 12.3605 943 92.4422 478.454 484.793
3690 0 80.302 12.4779 1002 91.7535 478.573 486.062
3691 0 81.2127 11.8824 965 94.942 477.899 485.399
3692 0 82.3403 11.9626 985 96.4568 477.658 482.641
3693 0 86.285 12.3196 1063 95.969 477.711 481.874
3694 0 90.2609 12.486 1127 95.2014 477.594 479.365
3695 1 49.1086 11.1997 550 92.7036 479.104 498.969
3696 0 51.037 11.3055 577 92.0728 478.969 500.111
3697 0 51.1055 11.7208 599 92.7646 478.942 498.184
3698 0 55.1351 12.4603 687 89.2751 478.622 497.652
3699 0 54.139 12.2462 663 91.1584 478.911 497.508
3700 0 57.0872 12.4721 712 91.3708 478.715 496.219
3701 0 60.1284 12.9556 779 89.6752 478.739 496.372
3702 0 61.127 12.5149 765 92.0784 478.587 494.83
3703 0 61.15 12.3467 755 94.0238 478.58 496.461
3704 0 60.1318 11.375 684 98.7968 478.003 495.377
3705 0 63.1322 11.9907 757 96.856 478.522 493.435
3706 0 66.1431 12.473 825 95.6752 479.101 493.782
3707 0 68.1656 12.6604 863 95.6385 478.4 493.634
3708 0 69.1424 12.4381 860 97.65 478.379 491.286
3709 0 70.2175 12.2762 862 98.8005 478.03 491.865
3710 0 73.2396 12.7663 935 97.4182 478.108 489.267
3711 0 75.2591 12.3573 930 97.3763 478.7 489.083
3712 0 76.2051 12.5451 956 97.1287 478.115 487.416
3713 0 80.2206 12.7648 1024 95.8184 477.337 485.947
3714 0 83.2016 12.7161 1058 95.0444 477.933 485.417
3715 0 84.1634 12.5946 1060 95.634 478 483.981
3716 0 88.2644 13.4256 1185 94.746 476.935 481.505
3717 0 91.1742 12.3719 1128 96.6862 477.005 478.41
3718 0 94.1081 12.7619 1201 94.632 477.051 477.338
3719 0 96.0918 12.9356 1243 95.2639 476.679 474.232
3720 0 99.114 12.7732 1266 94.6106 476.972 475.248
3721 0 102.16 12.5881 1286 94.9067 476.803 471.426
3722 0 104.145 11.6953 1218 96.2578 476.715 469.489
3723 0 108.177 12.498 1352 93.5747 476.435 469.733
3724 0 112.093 12.2844 1377 95.4067 476.609 466.447
3725 0 115.166 11.8785 1368 96.049 476.723 462.41
3726 0 117.192 12.0572 1413 96.6143 476.876 463.098
3727 0 121.231 12.4968 1515 95.5756 476.673 462.589
3728 1 45.0285 10.993 495 91.002 477.778 498.073
3729 0 47.0774 10.8757 512 90.8027 477.738 498.869
3730 0 49.0849 11.2255 551 88.7132 477.964 496.773
3731 0 49.0886 11.632 571 89.2942 477.485 495.778
3732 0 53.1035 11.9578 635 87.715 477.502 494.49
3733 0 54.0861 11.4077 617 88.3874 477.904 495.037
3734 0 55.1866 11.6695 644 88.0109 478.234 497.644
3735 0 57.1054 11.6451 665 87.8797 477.77 493.186
3736 0 58.143 11.3513 660 88.4742 477.708 491.926
3737 0 61.2063 11.7145 717 88.145 477.583 490.946
3738 0 62.1567 12.3559 768 86.5964 477.766 491.146
3739 0 62.2517 11.5017 716 88.8897 477.147 491.151
3740 0 65.146 11.3437 739 88.6631 477.279 490.225
3741 0 68.26 11.4562 782 88.6483 477.579 489.794
3742 0 69.199 11.6042 803 90.0822 477.174 487.654
3743 0 70.1488 11.9175 836 89.933 477.225 485.317
3744 0 73.1931 11.7088 857 89.5018 477.015 484.394
3745 0 74.2212 11.4927 853 89.7292 477.226 483.277
3746 0 78.2348 11.8489 927 88.4293 477.258 481.592
3747 0 81.2153 11.6234 944 87.6981 477.506 482.09
3748 0 83.1638 11.1828 930 88.7086 476.944 480.734
3749 0 88.2776 12.0982 1068 87.9654 477.74 477.788
3750 1 47.102 10.7002 504 88.631 478.619 497.093
3751 0 48.1233 10.8887 524 91.1221 478.534 494.897
3752 0 51.1931 11.7008 599 88.4441 478.399 495.906
3753 0 51.1764 11.9391 611 87.6416 477.917 495.128
3754 0 55.146 12.1858 672 85.1577 478.632 495.112
3755 0 56.1303 12.1325 681 86.2996 478.314 494.391
3756 0 55.0824 11.2196 618 90.1052 478.536 494.877
3757 0 55.127 11.283 622 90.8553 479.13 493.437
3758 0 57.3065 10.5747 606 91.104 478.969 492.63
3759 0 59.379 11.7382 697 88.8407 478.518 491.224
3760 0 62.2472 11.3419 706 88.2663 478.433 491.014
3761 0 65.1917 11.3358 739 89.1299 478.679 489.302
3762 0 67.2728 11.5202 775 88.56 479.046 488.966
3763 0 68.3419 11.662 797 88.9297 478.55 488.872
3764 0 71.2937 11.9786 854 88.1967 478.47 486.242
3765 0 71.2708 11.295 805 90.4783 478.851 485.009
3766 0 74.3929 11.3586 845 91.4154 478.33 484.399
3767 0 77.2709 11.4273 883 90.3284 478.586 481.103
3768 0 80.3682 12.1068 973 93.1542 477.899 481.139
3769 0 81.3232 12.0138 977 94.3009 478.483 478.882
3770 0 84.3688 12.5995 1063 92.3104 478.495 478.24
3771 0 87.3546 12.3176 1076 91.6125 478.703 477.542
3772 0 93.3184 12.4734 1164 88.8247 478.74 475.872
3773 0 95.295 12.5505 1196 87.301 478.653 474.385
3774 0 97.3816 12.1173 1180 88.761 478.479 472.038
3775 0 100.328 12.0306 1207 88.9785 478.601 469.952
3776 0 102.278 11.8696 1214 88.4358 478.492 468.996
3777 0 105.264 11.4189 1202 89.3802 478.241 466.901
3778 1 58.0481 10.4052 604 86.4636 479.371 490.007
3779 0 62.0724 10.9711 681 84.9912 478.74 490.31
3780 0 61.12 11.2075 685 84.8847 479.009 488.566
3781 0 64.0516 12.4119 795 83.127 478.797 488.862
3782 0 66.0592 11.959 790 83.9722 478.881 486.389
3783 0 66.0325 11.9487 789 80.7706 479.086 487.771
3784 0 68.0528 11.829 805 80.6733 479.106 484.358
3785 0 69.0497 12.672 875 78.68 479.306 486.351
3786 0 71.0631 13.2558 942 77.5042 478.656 485.813
3787 0 75.0931 12.7708 959 77.9134 478.618 485.117
3788 0 75.0412 12.4465 934 79.9433 478.686 483.194
3789 0 78.041 13.3263 1040 78 479.139 480.445
3790 0 80.1154 12.4446 997 79.9178 478.737 480.395
3791 0 82.0554 12.7475 1046 79.7648 478.749 477.538
3792 0 84.0356 12.7208 1069 80.5856 478.807 476.134
3793 0 87.0299 13.4092 1167 78.8089 479.028 476.597
3794 0 89.055 12.9471 1153 81.1925 478.526 473.588
3795 0 91.0655 12.9138 1176 86.7372 479.219 473.688
3796 0 95.0492 12.6987 1207 81.9553 478.957 471.179
3797 0 97.0894 12.5966 1223 84.359 478.181 470.021
3798 0 97.1049 11.2868 1096 88.6506 479.151 465.529
3799 0 101.123 12.8754 1302 84.5707 479.181 467.379
3800 0 104.151 12.1074 1261 87.1594 478.728 464.817
3801 0 107.223 12.8051 1373 87.1712 477.821 461.94
3802 0 109.114 12.9773 1416 87.7458 477.799 461.646
3803 0 112.133 13.5018 1514 86.0568 478.375 464.706
3804 0 117.188 14.3957 1687 85.5133 478.892 459.539
3805 0 119.288 13.765 1642 89.7893 480.105 457.676
3806 0 124.262 13.544 1683 89.5573 480.54 456.274
3807 0 128.31 14.1766 1819 88.9786 480.981 453.408
3808 0 133.256 14.0931 1878 88.6912 481.443 452.703
3809 0 137.26 14.9497 2052 86.4971 480.401 451.532
3810 0 140.203 13.6588 1915 90.4543 480.65 447.58
3811 0 145.319 14.217 2066 90.759 480.016 444.788
3812 0 151.268 14.1801 2145 89.4695 479.864 443.751
3813 0 155.282 13.4722 2092 92.3982 479.572 443.374
3814 0 160.201 13.2022 2115 90.0109 479.632 438.46
3815 1 84.1725 11.4289 962 86.1362 480.442 478.651
3816 0 87.174 11.586 1010 86.0762 480.083 476.042
3817 0 88.1463 12.0481 1062 87.1309 479.721 474.415
3818 0 89.2077 12.2411 1092 88.0833 479.702 471.517
3819 0 94.0975 12.147 1143 88.8784 480.607 473.372
3820 0 95.1526 12.2855 1169 89.7297 479.885 469.723
3821 0 99.1415 13.0319 1292 88.2376 480.178 470.635
3822 0 102.185 12.7318 1301 89.538 479.524 470.505
3823 0 104.151 12.3667 1288 91.2539 479.746 467.771
3824 0 108.186 13.1255 1420 89.3528 479.808 468.309
3825 0 111.174 12.9707 1442 89.613 480.096 465.621
3826 0 117.128 13.2676 1554 87.9627 479.521 462.963
3827 0 119.16 13.142 1566 88.311 479.596 462.118
3828 0 124.167 13.6026 1689 86.6371 479.294 459.732
3829 0 126.196 13.4315 1695 87.7758 479.439 456.64
3830 0 130.265 13.6568 1779 87.4148 479.506 455.644
3831 0 134.224 13.5147 1814 87.6389 478.94 451.529
3832 0 139.302 13.9338 1941 87.0845 479.175 448.785
3833 1 76.1528 11.6739 889 86.9471 479.796 479.838
3834 0 78.0536 12.1583 949 85.4226 480.145 478.102
3835 0 81.0927 12.3439 1001 85.2408 480.001 477.474
3836 0 81.1417 11.7819 956 84.2385 479.793 478.748
3837 0 84.0998 11.9739 1007 83.5144 479.735 476.97
3838 0 85.1443 11.7683 1002 84.8363 479.893 475.702
3839 0 88.1756 11.0461 974 86.4856 479.849 474.771
3840 0 89.1431 11.6105 1035 85.3459 480.22 473.513
3841 0 93.1429 11.7561 1095 85.1845 479.932 470.555
3842 0 95.1209 11.4276 1087 84.9963 479.798 469.414
3843 0 98.0834 11.4494 1123 86.7311 478.757 465.991
3844 0 98.0801 11.1032 1089 87.596 479.455 465.189
3845 0 103.092 10.9805 1132 86.2553 478.766 464.118
3846 0 105.077 11.6296 1222 86.6481 478.529 460.786
3847 0 108.093 11.3606 1228 87.0204 477.63 462.176
3848 0 112.064 10.9937 1232 87.2687 477.907 458.631
3849 0 115.205 11.2409 1295 87.9035 478.076 457.955
3850 1 67.0611 9.84177 660 85.4652 479.088 484.415
3851 0 69.0197 10.794 745 83.6671 479.38 482.832
3852 0 69.0303 11.4298 789 80.3219 479.231 480.317
3853 0 71.0438 11.4155 811 78.9556 479.08 480.692
