time division length width area intensity CMx CMy
0 0 43.1208 12.9404 558 55.129 868.835 493.473
1 0 44.0395 12.9883 572 57.028 868.234 492.545
2 0 43.0076 11.8816 511 59.7417 869.127 493.926
3 0 45.0292 12.2365 551 61.0581 868.374 493.543
4 0 44.0291 12.6507 557 62.1364 869.092 492.174
5 0 46.006 13.1939 607 62.2784 868.792 492.282
6 0 46.0144 12.8873 593 63.6324 869.098 492.03
7 0 46.0057 12.4115 571 65.6988 868.764 492.844
8 0 47.0206 11.5481 543 67.5783 868.676 492.042
9 0 49.0459 12.3966 608 67.1924 869.146 492
10 0 51.0338 12.2664 626 67.8514 868.458 491.88
11 0 51.0207 11.8187 603 68.7778 868.221 491.507
12 0 52.0185 12.7262 662 68.6843 869.06 490.086
13 0 54.0091 12.4979 675 68.5482 867.966 487.366
14 0 54.0229 12.1245 655 69.7053 867.673 488.986
15 0 55.0431 12.3176 678 70.0369 867.659 488.839
16 0 57.0611 12.4078 708 69.6031 868.025 488.684
17 0 57.0317 12.7122 725 70.9862 867.199 486.354
18 0 60.0412 12.2249 734 70.4714 867.471 488.112
19 0 61.0339 12.4849 762 70.8123 867.47 486.468
20 0 63.0751 12.2552 773 70.9224 866.367 485.326
21 0 64.0776 12.4849 800 71.9425 866.814 484.735
22 0 66.0634 13.0027 859 70.3376 866.093 484.683
23 0 65.0166 12.2123 794 72.0869 867.244 483.741
24 0 67.0966 12.3106 826 72.4879 866.942 481.967
25 0 70.0961 12.2261 857 74.007 867.026 479.299
26 0 71.1058 12.1931 867 74.0784 866.931 477.007
27 0 74.0712 11.813 875 74.9611 867.014 475.611
28 0 76.1088 12.7318 969 73.2105 866.88 474.618
29 0 75.1248 11.3145 850 76.0471 866.215 473.265
30 0 80.0546 12.0418 964 73.8558 865.995 470.533
31 0 81.082 11.8769 963 74.6677 866.68 465.947
32 0 83.0845 11.0129 915 76.2918 865.989 467.65
33 0 88.0878 11.4204 1006 74.4771 865.537 469.077
34 1 48.0581 10.8618 522 74.6034 865.216 490.826
35 0 49.063 12.2496 601 73.5541 865.867 489.694
36 0 50.0651 12.5037 626 73.369 866.949 491.629
37 0 52.1362 11.7385 612 74.3922 866.408 488.157
38 0 51.1104 11.2306 574 71.27 865.92 490.096
39 0 54.0896 10.9263 591 71.5093 865.697 488.115
40 0 55.0878 10.9643 604 74.2119 865.83 488.157
41 0 58.0541 13.1774 765 72.2706 865.719 487.05
42 0 62.0927 12.4491 773 68.4114 865.899 489.132
43 0 63.1205 12.8801 813 69.2497 866.004 486.994
44 0 65.1324 12.3748 806 70.5447 865.799 485.666
45 0 66.0493 12.7481 842 71.367 865.283 484.109
46 0 68.0735 12.2074 831 73.0012 865.644 483.753
47 0 71.1124 12.192 867 73.0946 865.36 482.354
48 0 74.1137 12.1435 900 74.4344 865.712 479.851
49 0 76.0945 12.445 947 74.8258 865.655 478.973
50 0 79.0935 12.1249 959 74.5297 865.47 477.166
51 0 81.0662 12.5083 1014 73.7032 865.314 476.349
52 0 84.0595 13.4191 1128 72.2376 866.201 474.597
53 0 86.1235 12.3892 1067 75.2812 865.232 474.104
54 0 88.0857 12.6808 1117 74.5228 865.784 474.251
55 0 91.0476 12.2683 1117 74.4091 865.713 471.231
56 0 95.0744 11.612 1104 76.769 866.454 469.527
57 0 97.1757 12.4825 1213 75.3289 866.42 467.104
58 1 52.1083 10.7277 559 72.6619 866.578 491.882
59 0 55.0393 11.8643 653 70.5054 867.398 492.248
60 0 52.0484 11.4509 596 73.6628 866.512 490.732
61 0 54.0861 11.1304 602 73.9834 866.357 492.439
62 0 56.0767 11.7874 661 74.5855 866.339 489.201
63 0 60.115 11.661 701 73.5892 866.13 488.879
64 0 61.0916 11.6055 709 74.5839 866.079 488.772
65 0 62.0835 11.4362 710 75.9268 866.427 487.917
66 0 65.0343 11.4555 745 75.5235 866.281 487.221
67 0 68.0602 12.3567 841 74.9227 866.592 484.545
68 0 70.0705 11.9023 834 75.3837 866.693 482.504
69 0 71.0976 11.4912 817 75.8433 866.945 482.45
70 0 75.0941 12.531 941 74.3613 867.041 481.154
71 0 78.2128 12.2103 955 75.2094 867.084 479.859
72 0 77.0719 11.0287 850 78.3024 866.851 477.942
73 0 83.0719 12.5554 1043 75.6251 867.004 476.842
74 0 87.0945 12.1248 1056 76.1572 866.214 475.604
75 0 88.0604 11.6624 1027 78.4352 866.318 474.215
76 1 43.0449 10.129 436 77.6032 866.415 497.929
77 0 44.039 10.3999 458 78.2533 865.921 495.801
78 0 45.0628 10.9847 495 77.5576 866.356 495.275
79 0 49.0059 11.2435 551 75.9419 866.16 493.897
80 0 47.0278 11.355 534 74.3258 867.393 494.68
81 0 48.033 11.2839 542 76.0849 869.055 494.207
82 0 50.1089 11.5748 580 73.8707 868.205 492.514
83 0 51.1105 11.5436 590 73.5475 867.849 491.681
84 0 53.0391 11.369 603 73.6866 868.091 492.138
85 0 55.0538 11.7703 648 73.4259 867.887 491.034
86 0 57.0992 12.417 709 71.8293 868.333 490.784
87 0 58.0944 12.5313 728 71.5549 868.878 490.39
88 0 60.0599 12.8372 771 71.0428 869.122 488.249
89 0 63.1042 12.0436 760 72.6 868.438 486.989
90 0 63.0763 13.444 848 70.625 869.191 485.355
91 0 65.1689 13.6261 888 70.3254 868.978 485.369
92 0 68.0665 13.0461 888 71.2466 868.858 484.93
93 0 70.0864 13.8829 973 69.517 868.883 484.543
94 0 71.1128 13.4856 959 71.3358 868.508 483.489
95 0 74.0961 13.577 1006 71.9881 868.618 481.255
96 0 74.18 13.0359 967 75.2503 868.29 481.725
97 0 75.113 11.942 897 76.1293 867 480.119
98 0 79.1204 13.0813 1035 73.5749 866.204 478.847
99 0 82.1701 13.3747 1099 72.8872 867.382 477.524
100 1 39.0347 10.5547 412 78.6966 867.379 498.801
101 0 42.1503 10.4151 439 80.8018 868.585 497.289
102 0 43.0827 11.3271 488 77.7049 867.916 497.83
103 0 45.0619 11.5175 519 76.0019 867.53 497.069
104 0 44.0895 12.3839 546 73.0458 868.028 496.242
105 0 47.0141 13.1237 617 68.2561 867.198 494.075
106 0 47.1291 12.1793 574 70.0192 867.554 493.991
107 0 49.0622 11.6791 573 71.7941 867.335 493.689
108 0 50.0986 12.7748 640 69.8156 866.75 493.381
109 0 50.0436 11.8696 594 72.0875 867.04 492.672
110 0 50.0998 12.7346 638 72.4686 866.694 491.743
111 0 54.0767 13.185 713 71.6213 867.452 491.393
112 0 55.0754 12.8914 710 73.0986 867.672 491.048
113 0 55.0587 12.7319 701 74.6419 867.195 490.496
114 0 57.0919 12.9966 742 74.6388 867.443 488.822
115 0 60.0671 13.1686 791 74.7181 867.081 487.475
116 0 62.0985 13.543 841 75.0155 867.177 485.788
117 0 64.0771 13.2341 848 76.1285 867.198 485.486
118 0 64.0889 13.4657 863 77.5156 866.472 484.649
119 0 65.0376 13.1616 856 79.4509 866.486 485.518
120 0 68.0613 12.7385 867 80.4095 866.57 485.053
121 0 69.0755 13.5504 936 81.0118 866.554 483.052
122 0 72.0714 13.2091 952 82.187 866.828 481.191
123 0 74.0754 13.3513 989 82.3751 866.644 480.042
124 0 78.0696 13.4495 1050 83.1371 867.466 477.317
125 0 80.0981 14.0078 1122 82.4581 867.904 477.882
126 0 82.0584 13.5879 1115 84.2852 867.082 476.691
127 0 84.0959 13.6154 1145 85.4105 867.691 476.188
128 0 86.0744 13.6161 1172 84.0239 867.104 475.154
129 0 89.0654 14.0908 1255 89.5825 867.666 474.656
130 0 92.1046 13.4847 1242 90.215 867.242 472.281
131 0 94.0808 13.6372 1283 84.9127 866.5 470.882
132 0 98.0755 14.3767 1410 84.066 865.764 470.762
133 0 101.088 14.334 1449 85.1705 866.403 468.581
134 1 51.0419 12.4799 637 85.1099 866.826 495.107
135 0 54.0209 12.6803 685 83.7387 866.326 493.581
136 0 55.0417 13.2808 731 83.2271 867.051 491.632
137 0 56.0219 13.3341 747 83.8916 866.588 491.299
138 0 57.0583 13.5125 771 85.8003 865.91 489.423
139 0 60.0456 13.523 812 85.4643 865.566 489.094
140 0 61.0762 12.6236 771 87.4656 866.014 488.322
141 0 65.0775 13.8143 899 86.2436 865.177 489.037
142 0 65.0751 13.3999 872 89.9541 865.31 487.1
143 0 69.1079 13.8624 958 89.8455 866.17 486.469
144 0 71.1386 13.5791 966 90.001 865.991 484.513
145 0 74.1347 13.4485 997 91.2227 866.188 483.037
146 0 77.1255 13.29 1025 84.7005 866.03 484.966
147 0 80.1562 13.4986 1082 84.7958 866.562 483.114
148 0 83.0908 13.1543 1093 84.7072 865.966 481.143
149 0 85.3475 13.0291 1112 86.5189 866.201 477.924
150 0 89.2237 13.5614 1210 86.9248 865.936 474.006
151 0 91.1279 13.1683 1200 88.0292 866.308 472.603
152 1 48.1056 11.6619 561 89.4207 866.23 494.264
153 0 51.24 12.3341 632 84.6725 865.581 493.195
154 0 50.0388 11.631 582 90.3488 866.168 492.751
155 0 52.1395 12.6392 659 87.6161 866.475 492.393
156 0 56.0718 12.6623 710 85.3972 866.696 491.268
157 0 58.0684 13.1052 761 83.6308 866.56 490.21
158 0 58.0962 12.6514 735 84.434 866.773 490.124
159 0 62.074 12.8073 795 84.1648 866.546 488.181
160 0 62.1066 12.9133 802 85.9776 866.492 487.875
161 0 66.0945 13.0117 860 85.6395 867.079 485.63
162 0 68.1032 13.553 923 84.6609 866.477 484.373
163 0 69.1434 13.4069 927 85.7411 866.416 484.039
164 0 71.2485 13.4599 959 86.0688 865.733 481.634
165 0 74.2377 12.8371 953 86.6968 866.355 480.253
166 0 77.2412 12.9335 999 86.0581 866.369 480.358
167 0 79.1889 12.8175 1015 87.7675 867.166 477.39
168 0 80.2692 13.1433 1055 87.5308 867.464 475.371
169 0 83.1874 12.586 1047 88.4489 867.385 475.183
170 0 86.2318 12.2345 1055 88.8844 866.735 472.196
171 0 89.1453 12.0477 1074 82.2356 866.605 471.057
172 1 45.1563 10.6076 479 82.4405 866.67 493.461
173 0 46.0948 10.7821 497 82.336 866.565 493.559
174 0 46.0351 11.1002 511 81.0215 865.589 491.941
175 0 45.0205 10.2842 463 76.9028 865.08 495.659
176 0 47.0131 10.6141 499 76.3828 864.717 494.321
177 0 47.0087 10.7214 504 76.8333 865.192 494.339
178 0 50.026 10.8943 545 77.855 864.587 492.473
179 0 51.0409 11.6573 595 77.1916 864.975 492.145
180 0 53.0322 11.3705 603 77.9254 864.796 491.597
181 0 55.0199 10.996 605 78.3835 865.053 492.85
182 0 54.0592 10.8215 585 82.6547 865.157 491.597
183 0 58.0601 12.0909 702 80.5043 864.548 488.963
184 0 59.0175 11.3864 672 82.5074 864.899 488.256
185 0 60.0328 11.1272 668 83.8428 865.283 487.376
186 0 64.0477 11.3509 727 83.8556 865.154 486.414
187 0 65.0736 11.9096 775 84.1484 865.366 487.335
188 0 68.0428 11.9043 810 84.3716 865.375 485.436
189 0 71.051 11.738 834 85.9604 865.553 483.836
190 0 71.0471 10.8379 770 89.2922 865.021 481.092
191 0 77.0897 12.5438 967 84.908 864.472 481.57
192 0 77.0499 12.161 937 88.3799 863.902 480.593
193 0 79.0662 12.3441 976 86.8525 864.038 479.752
194 0 82.0433 11.9327 979 88.5138 863.79 478.854
195 0 87.0476 12.1887 1061 87.0066 864.022 477.645
196 0 88.0614 12.3664 1089 87.8099 864.534 475.366
197 0 92.0863 11.815 1088 87.1994 863.614 474.468
198 1 49.0756 10.9219 536 81.2146 863.834 495.164
199 0 50.0331 11.5324 577 75.7123 865.263 493.759
200 0 53.0502 11.4608 608 75.3388 865.625 492.276
201 0 55.0607 12.1139 667 72.988 865.225 491.78
202 0 57.0231 12.4336 709 91.4542 865.585 492.425
203 0 57.0794 12.2461 699 91.4492 864.263 490.043
204 0 59.0524 11.8708 701 93.0157 864.322 489.87
205 0 61.0581 12.4144 758 89.9354 864.755 488.203
206 0 62.0682 11.9385 741 92.78 864.852 486.19
207 0 66.0892 11.6812 772 91.2513 864.7 485.174
208 0 68.1053 12.0989 824 89.8653 863.835 485.299
209 0 70.0487 11.3921 798 89.6967 864.338 482.877
210 0 73.1183 11.5976 848 91.0436 863.863 480.05
211 0 76.0766 12.1851 927 88.4596 863.928 481.197
212 0 78.0326 11.649 909 90.9098 864.167 479.275
213 0 79.0894 12.214 966 89.7919 863.803 478.347
214 0 80.0573 11.217 898 91.2227 863.713 477.503
215 0 85.1407 12.5322 1067 89.597 863.733 475.485
216 0 87.152 12.897 1124 93.6895 864.035 473.898
217 0 89.1311 12.2965 1096 94.7381 863.474 473.592
218 0 92.0771 12.4244 1144 94.8488 862.844 471.691
219 0 93.1077 11.7176 1091 97.0202 863.473 470.545
220 0 95.2416 11.4971 1095 98.5671 862.963 467.777
221 1 46.0739 9.33284 430 95.0605 862.302 487.728
222 0 47.1317 9.61137 453 89.8609 862.91 481.806
223 0 47.0697 9.79399 461 89.6573 862.781 481.121
224 0 57.0262 11.5912 661 91.4009 863.284 487.693
225 0 58.0724 11.2446 653 90.3048 863.312 485.61
226 0 60.0786 10.969 659 90.0759 863.174 485.014
227 0 60.0287 11.2446 675 90.3274 862.63 485.593
228 0 62.0741 11.1641 693 89.1515 862.68 484.092
229 0 67.0684 11.287 757 87.5284 862.786 484.342
230 0 68.0815 11.6625 794 86.6675 862.785 482.802
231 0 71.0985 11.2801 802 86.3092 863.041 481.413
232 0 72.1692 10.8079 780 88.0897 862.43 480.908
233 0 76.0719 11.4628 872 86.6261 863.095 478.356
234 0 76.0714 10.9765 835 89.0012 862.848 476.684
235 0 78.0905 11.2178 876 89.258 862.882 476.079
236 0 80.072 10.9027 873 90.2154 862.821 474.52
237 0 84.1015 11.3197 952 89.8971 862.586 473.494
238 0 89.0874 12.1117 1079 87.7488 863.222 476.085
239 0 92.0582 12.2531 1128 88.672 862.646 472.215
240 0 94.0813 11.9152 1121 90.8252 863.133 471.112
241 0 97.0606 12.2398 1188 90.2071 862.877 471.227
242 1 50.0443 9.43164 472 88.7903 863.021 494.08
243 0 51.0133 10.3502 528 84.7784 863.413 494.049
244 0 53.0221 10.0147 531 85.7232 862.476 491.827
245 0 54.0264 11.4018 616 83.5828 862.161 491.343
246 0 55.041 10.792 594 74.3485 863.005 493.258
247 0 55.0374 10.9199 601 73.995 862.616 491.075
248 0 59.0522 10.8379 640 74.4094 862.444 489.47
249 0 60.03 10.6114 637 76.1633 862.557 488.873
250 0 61.0475 11.0733 676 77.1405 862.189 488.815
251 0 63.0541 11.3395 715 76.4951 862.997 487.954
252 0 61.0762 10.4787 640 80.0297 863.283 488.636
253 0 64.0357 10.6191 680 81.6691 862.507 486.487
254 0 66.0576 10.8693 718 80.3872 862.318 484.276
255 0 68.0393 10.6262 723 80.5657 862.474 486.391
256 0 70.0373 11.4796 804 80.4689 862.612 483.394
257 0 73.0535 10.9098 797 80.0489 863.143 483.163
258 0 74.0364 11.1702 827 79.3809 863.192 481.681
259 0 78.0807 12.0772 943 79.2778 863.471 479.95
260 0 79.0862 12.0375 952 79.3267 863.045 480.484
261 0 83.0568 11.7871 979 78.7007 862.884 478.014
262 0 85.071 11.2847 960 79.2542 863.057 475.292
263 1 43.044 10.3382 445 78.7191 861.834 498.121
264 0 44.059 10.3725 457 79.4245 862.015 496.567
265 0 46.0527 11.856 546 75.1099 863.029 496.696
266 0 48.0293 11.7636 565 75.5504 862.835 495.634
267 0 47.0219 11.484 540 74.2722 863.133 494.022
268 0 48.0712 11.7326 564 75.5496 862.52 493.362
269 0 49.1172 11.6049 570 75.8702 862.877 493.419
270 0 50.0672 11.4047 571 76.4518 862.893 493.476
271 0 52.1262 11.453 597 73.8626 863.345 491.511
272 0 54.0989 11.4975 622 73.9325 863.093 491.116
273 0 55.0803 11.5649 637 73.3611 862.51 490.526
274 0 57.1336 12.0595 689 72.2293 863.295 490.946
275 0 55.0598 10.6975 589 77.0408 863.7 492.752
276 0 58.0675 10.4361 606 75.7228 863.21 490.262
277 0 60.0559 11.2395 675 74.5333 863.04 490.57
278 0 62.0804 11.5173 715 77.2434 863.008 488.469
279 0 63.0781 11.7632 742 79.1078 863.132 487.007
280 0 64.0751 11.5489 740 78.6311 862.98 487.811
281 0 66.0757 11.9409 789 78.5399 863.335 485.276
282 0 68.192 10.8957 743 79.3768 863.031 484.425
283 0 71.1002 11.1814 795 79.7975 862.889 482.943
284 0 74.1549 11.6378 863 77.9699 862.862 481.973
285 0 76.0626 11.3196 861 77.9605 863.049 481.439
286 0 78.142 11.1336 870 78.277 862.905 480.733
287 0 80.2324 10.7563 863 78.7949 863.326 478.279
288 0 83.1647 11.0383 918 78.7876 863.339 477.096
289 1 42.3816 9.74479 413 78.6344 864.002 496.186
290 0 42.2986 10.5441 446 79.213 863.738 493.718
291 0 38.1602 10.3249 394 75.8503 864.721 489.652
292 0 43.0286 10.3884 447 79.774 862.517 493.91
293 0 44.0609 10.7351 473 80.2368 862.693 493.844
294 0 45.0358 11.2133 505 79.798 862.174 494.871
295 0 46.0541 10.4225 480 81.975 862.438 493.283
296 0 47.1123 11.2285 529 81.8979 861.879 492.839
297 0 47.1123 11.2073 528 123.629 860.886 492.801
298 0 51.0269 10.955 559 81.7531 862.402 492.583
299 0 52.1039 11.2468 586 84.0887 862.927 491.686
300 0 53.0947 10.9804 583 85.2213 862.58 490.894
301 0 56.1388 11.5963 651 84.3088 862.674 488.604
302 0 59.155 11.9178 705 83.0156 862.784 489.908
303 0 61.2529 12.1953 747 82.9652 863.462 489.614
304 0 62.1614 11.6471 724 84.913 863.528 486.566
305 0 64.2308 12.0347 773 85.1966 862.708 486.32
306 0 65.2525 12.4899 815 84.7804 863.377 486.422
307 0 69.233 12.3641 856 85.3026 863.244 484.945
308 0 71.229 12.3264 878 86.0934 863.011 485.089
309 0 72.2995 11.9503 864 87.8553 862.758 483.885
310 0 71.1339 11.8368 842 80.2435 864.19 485.843
311 0 73.1832 11.724 858 80.8683 864.71 484.429
312 0 77.2692 11.7382 907 82.645 864.528 484.524
313 0 79.2673 11.4423 907 85.6262 864.454 483.287
314 0 82.3269 11.0656 911 86.8046 864.203 482.828
315 1 46.0106 11.9103 548 88.4307 861.485 499.146
316 0 45.0234 11.0609 498 81.3012 861.594 501.58
317 0 46.1025 10.2597 473 81.4038 862.478 500.744
318 0 46.0155 10.9963 506 80.8419 861.338 499.516
319 0 47.026 10.4198 490 81.8143 861.996 500.112
320 0 49.0772 10.9419 537 80.8082 863.088 498.926
321 0 51.0925 11.3128 578 80.846 862.63 497.256
322 0 53.0396 11.2557 597 78.8626 862.094 497.821
323 0 54.0571 10.8219 585 81.3949 861.403 497.728
324 0 55.1165 11.1945 617 82.4749 861.997 498.016
325 0 56.1609 10.8973 612 84.4216 861.64 497.355
326 0 57.0402 11.6234 663 82.2685 861.471 495.793
327 0 59.0511 12.0912 714 81.3375 861.688 494.822
328 0 60.111 11.0629 665 82.803 861.343 495.716
329 0 62.0941 11.708 727 82.6795 861.707 495.146
330 0 64.052 12.0215 770 81.9688 861.087 494.344
331 0 64.052 11.9903 768 134.344 860.087 494.328
332 0 68.0605 11.7836 802 83.3005 861.597 489.395
333 0 70.0686 12.2451 858 83.9219 861.343 488.333
334 0 72.1218 11.2726 813 86.0148 861.207 487.213
335 0 74.0987 11.984 888 84.8345 861.306 486.236
336 0 74.0964 12.0114 890 86.3045 861.421 484.575
337 0 75.1538 11.3101 850 89.2235 861.452 481.961
338 0 80.1932 11.8963 954 86.4235 861.393 481.499
339 0 82.2327 12.0147 988 88.0567 861.465 480.292
340 0 83.0608 11.3652 944 85.4989 860.515 480.129
341 0 85.0572 10.9926 935 87.4011 859.867 479.756
342 0 89.0411 12.0057 1069 86.7091 859.986 478.087
343 0 90.0422 11.6723 1051 88.4006 860.028 475.264
344 0 94.0683 12.1189 1140 88.65 859.786 475.868
345 0 98.1011 11.7022 1148 89.1699 859.498 474.476
346 0 100.047 11.7645 1177 90.2702 859.601 471.771
347 0 103.065 11.973 1234 89.5543 859.788 470.27
348 0 107.068 11.7962 1263 89.1045 859.64 469.387
349 0 112.071 12.4029 1390 88.523 859.059 465.009
350 0 114.071 12.4571 1421 88.7312 859.626 464.767
351 0 120.072 12.5091 1502 87.8615 859.796 462.951
352 1 64.0519 10.4759 671 85.2489 859.086 491.365
353 0 68.0516 11.6529 793 80.8348 859.449 488.905
354 0 69.1378 11.8459 819 80.3687 859.95 487.332
355 0 69.1129 11.9804 828 79.6292 860.539 486.436
356 0 67.0448 10.4855 703 83.3016 859.619 477.091
357 0 73.0447 10.2129 746 82.8485 860.063 477.091
358 0 73.0177 10.7645 786 82.6298 859.644 475.178
359 0 75.0529 10.6725 801 83.8065 859.774 472.981
360 0 79.0767 10.6858 845 86.1112 859.555 471.833
361 0 82.047 10.7743 884 86.8156 858.805 470.376
362 0 85.1111 10.8681 925 86.3719 859.551 467.595
363 0 89.0941 11.4598 1021 83.7434 859.247 469.518
364 0 93.0769 11.4959 1070 83.3093 859.726 469.635
365 0 95.1256 10.7752 1025 86.161 860.244 466.771
366 0 97.0724 11.5687 1123 84.8272 860.658 466.59
367 0 102.106 12.8298 1310 89.9931 860.828 469.316
368 0 104.082 12.1154 1261 91.18 860.421 467.64
369 0 110.104 12.9059 1421 88.3096 860.619 468.621
370 0 112.092 12.7039 1424 91.1973 861.04 466.14
371 0 116.054 12.7785 1483 90.1456 860.748 463.777
372 0 119.107 13.3914 1595 88.1756 860.282 460.708
373 0 123.105 13.0295 1604 86.2724 861.191 459.728
374 0 125.17 12.7666 1598 88.4443 860.713 455.993
375 0 130.093 12.7832 1663 88.6584 861.728 453.538
376 0 134.135 13.0987 1757 87.1816 861.34 452.061
377 0 140.113 12.8182 1796 88.0139 861.389 451.339
378 0 145.399 12.5791 1829 88.9109 862.634 444.345
379 0 149.338 12.7764 1908 88.6399 862.328 441.44
380 1 80.2235 10.4209 836 81.7034 863.305 478.938
381 0 82.1295 11.8715 975 80.7456 862.611 479.864
382 0 85.1164 11.6429 991 82.3471 862.7 475.986
383 0 86.2022 12.0879 1042 82.0413 862.763 472.765
384 0 89.1466 11.6101 1035 82.9845 862.938 472.986
385 0 93.1459 12.3892 1154 84.0494 863.048 470.114
386 0 96.1234 12.0678 1160 84.9388 863.491 468.073
387 0 99.1253 11.6519 1155 85.4753 862.745 468.076
388 0 104.133 11.8886 1238 85.1809 863.266 465.922
389 0 106.158 11.8314 1256 86.051 863.208 461.276
390 0 110.102 12.3159 1356 88.7773 861.387 462.034
391 0 114.068 12.1155 1382 87.8459 861.182 459.317
392 0 117.075 12.445 1457 96.4269 861.064 456.542
393 0 121.171 12.5113 1516 96.496 860.997 454.991
394 0 126.2 12.5357 1582 103.128 861.741 453.066
395 0 130.227 12.0405 1568 99.8674 862.536 450.422
396 0 136.242 12.9182 1760 99.7892 863.993 447.654
397 0 139.152 12.0156 1672 99.7638 863.471 446.093
398 1 74.2886 10.89 809 85.5154 863.813 481.655
399 0 77.1033 11.1409 859 87.3329 864.343 478.563
400 0 81.1256 11.7965 957 85.3438 864.425 477.881
401 0 81.0984 10.7647 873 87.1535 862.233 476.84
402 0 83.1181 10.6956 889 87.0079 862.039 474.281
403 0 86.0523 11.3652 978 87.5204 860.753 471.532
404 0 89.1214 11.4338 1019 88.8361 862.338 472.87
405 0 92.2775 11.162 1030 90.7621 864.29 472.72
406 0 97.1369 11.0977 1078 89.808 863.824 470.001
407 0 99.0926 11.4237 1132 88.9187 862.051 470.139
408 0 102.146 10.8178 1105 91.8063 864.342 468.279
409 0 106.194 10.8951 1157 88.2515 863.211 466.533
410 1 48.245 10.0321 484 85.5909 864.897 494.767
411 0 49.0965 10.2044 501 90.7425 865.206 492.77
412 0 51.0472 10.9311 558 85.1057 864.763 493.149
413 0 51.2001 10.4687 536 82.097 864.798 492.612
414 0 52.0915 10.232 533 82.2364 864.206 492.356
415 0 57.0729 11.7043 668 80.3503 864.663 491.088
416 0 57.1438 10.8148 618 81.932 864.552 491.403
417 0 57.1674 11.0727 633 81.1485 864.46 489.272
418 0 60.2805 11.2308 677 82.0059 864.106 489.191
419 0 60.0872 11.8328 711 84.3882 863.66 487.239
420 0 63.1394 11.2291 709 86.6121 864.265 486.659
421 0 66.2652 11.6652 773 93.0233 863.383 484.109
422 0 67.155 11.7192 787 93.9898 863.779 485.16
423 0 69.2356 12.3202 853 93.3646 864.783 484.941
424 0 73.2796 12.1453 890 94.2079 863.974 482.828
425 0 73.2532 11.863 869 96.1312 863.443 483.274
426 0 76.316 12.3303 941 96.0425 862.981 480.694
427 0 78.2518 12.447 974 95.3932 863.429 481.311
428 0 78.2978 12.3758 969 96.0918 863.806 479.89
429 0 83.5152 12.7402 1064 93.7519 863.32 478.245
430 0 84.4042 12.0847 1020 96.748 862.145 477.165
431 0 87.4668 11.9017 1041 97.4352 862.693 475.776
432 1 47.0267 9.6541 454 85.9978 861.859 497.401
433 0 46.0798 10.6988 493 84.211 862.864 496.304
434 0 49.1634 10.7397 528 79.9015 861.388 495.453
435 0 49.1415 10.7648 529 80.9168 861.622 493.696
436 0 48.1441 10.9463 527 114.554 862.602 493.791
437 0 54.0729 10.3749 561 97.0125 862.898 491.799
438 0 57.0416 11.1147 634 93.6104 863.806 488.951
439 0 56.0321 10.2977 577 97.6482 863.255 486.527
440 0 56.0311 10.6548 597 97.593 863.308 487.397
441 0 58.0364 10.4417 606 97.9076 863.865 486.259
442 0 59.048 10.4661 618 96.534 864.264 485.89
443 0 62.0839 11.1462 692 94.8237 864.068 484.092
444 0 63.0786 10.5107 663 95.7617 864.252 483.857
445 0 65.0822 11.3088 736 92.5272 863.451 482.573
446 0 67.0591 11.1096 745 93.3638 863.132 484.183
447 0 67.0296 11.1145 745 94.5141 862.961 481.06
448 0 68.0687 10.9154 743 94.0525 864.012 479.394
449 0 70.0414 11.4646 803 94.934 864.019 479.344
450 0 72.0371 11.5357 831 95.0686 863.868 479.104
451 0 73.0305 11.0228 805 98.0025 863.734 477.166
452 0 74.0626 10.9637 812 97.5456 864.271 477.571
453 0 78.0447 11.3909 889 95.7019 864.411 478.089
454 0 81.0759 11.3351 919 95.3286 863.75 474.757
455 0 84.1192 11.4243 961 96.462 863.309 473.716
456 0 88.1333 11.6755 1029 94.4334 863.367 474.823
457 0 89.1258 12.0055 1070 94.5187 864.127 472.067
458 0 91.2469 11.6278 1061 95.4109 863.38 471.259
459 1 46.0763 8.96339 413 92.7216 863.954 494.051
460 0 51.0219 10.1133 516 90.0736 864.258 491.504
461 0 50.0259 10.2147 511 87.8611 864.184 489.824
462 0 49.064 10.3742 509 88.3045 861.399 488.65
463 0 51.0454 10.9706 560 80.9018 861.366 492.595
464 0 52.0625 11.6207 605 76.519 861.593 492.218
465 0 56.0252 11.7269 657 74.8615 860.925 491.142
466 0 58.0208 11.3752 660 77.5318 861.48 489.867
467 0 59.0101 11.1167 656 77.622 861.316 488.631
468 0 61.0215 10.9142 666 77.982 861.075 488.131
469 0 63.0436 11.9441 753 76.409 860.967 486.564
470 0 62.0478 11.6201 721 79.2746 861.759 487.291
471 0 67.151 12.1219 814 76.3071 861.671 486.305
472 0 69.1458 12.1772 842 79.2387 861.14 484.004
473 0 70.0948 12.1407 851 78.5993 860.693 482.874
474 0 74.1093 13.1562 975 77.6246 860.605 481.97
475 0 78.0626 13.4379 1049 76.2412 860.789 480.118
476 0 80.1034 13.4701 1079 75.7952 860.799 478.747
477 0 82.0299 13.4463 1103 76.0952 860.074 479.226
478 0 83.0558 12.5819 1045 78.9512 860.504 478.285
479 0 85.0408 12.2177 1039 79.5188 860.723 476.28
480 0 87.0851 12.2524 1067 79.7441 860.264 474.396
481 0 90.0818 12.1667 1096 81.6706 860.096 473.554
482 0 91.1372 11.0383 1006 83.331 860.071 472.967
483 0 95.0956 11.6725 1110 82.9901 860.397 470.525
484 0 99.0946 11.8574 1175 82.4774 860.21 469.537
485 1 49.0379 10.6856 524 85.5534 859.237 493.546
486 0 51.0299 10.9152 557 84.6768 859.323 491.526
487 0 53.0442 10.7835 572 85.9021 860.009 491.402
488 0 54.0282 11.7161 633 84.0853 860.218 490.043
489 0 52.0427 10.3569 539 80.2449 860.352 492.607
490 0 55.0495 10.9719 604 78.3096 860.629 493.089
491 0 56.0352 10.4756 587 78.9727 860.119 491.308
492 0 59.0529 10.9055 644 78.4736 860.683 491.581
493 0 62.073 11.3576 705 78.3674 860.74 489.247
494 0 65.0728 11.7407 764 77.0838 860.772 490.194
495 0 65.0378 11.3934 741 80.5223 860.03 487.372
496 0 67.1606 11.1673 750 81.036 859.545 486.865
497 0 69.0836 11.8986 822 81.4197 859.425 484.522
498 0 72.0435 11.9233 859 82.2678 860.34 482.878
499 0 74.0404 12.2366 906 84.2892 860.749 483.065
500 0 75.025 11.7294 880 85.5795 860.34 483.467
501 0 77.047 12.3042 948 86.6973 859.511 481.474
502 0 81.0825 12.4194 1007 87.1023 859.659 481.461
503 0 82.0354 12.068 990 88.5545 859.548 481.819
504 0 86.0392 12.7268 1095 88.4247 859.744 478.326
505 0 89.0662 13.1363 1170 87.3419 859.299 476.444
506 0 93.0523 12.724 1184 89.5059 859.643 474.413
507 0 93.0266 12.7275 1184 90.2905 859.122 474.91
508 0 98.0651 12.5733 1233 89.8167 859.556 473.833
509 0 100.067 13.7008 1371 87.8702 859.724 473.042
510 0 105.028 13.8821 1458 86.7208 859.776 469.496
511 0 106.125 12.8151 1360 88.5824 859.625 466.626
512 1 62.0244 12.1565 754 86.7135 860.084 490.318
513 0 64.015 11.6223 744 86.1398 858.94 490.978
514 0 64.0224 12.6518 810 82.3716 858.637 489.427
515 0 65.0896 12.4751 812 77.7759 860.023 489.129
516 0 69.0592 12.8875 890 77.0371 859.756 487.215
517 0 71.0655 12.3829 880 78.4011 859.583 485.877
518 0 72.1091 12.8417 926 78.6814 859.545 486.222
519 0 73.0999 12.1614 889 82.4589 859.174 484.92
520 0 75.0405 11.687 877 83.2463 859.447 484.407
521 0 78.0511 11.8512 925 82.8595 858.842 482.534
522 0 82.07 12.3675 1015 79.9054 859.358 481.828
523 0 83.0449 11.3914 946 81.667 858.923 481.223
524 0 85.1867 11.4455 975 84.36 858.998 479.153
525 0 90.145 12.2026 1100 84.4727 859.503 477.595
526 0 91.1586 11.8146 1077 83.961 859.719 476.173
527 0 94.0602 11.6946 1100 84.2645 859.519 474.301
528 0 97.1185 11.8721 1153 85.2151 859.66 474.181
529 0 99.0568 12.0941 1198 86.9825 859.851 471.009
530 1 47.0411 10.5015 494 81.8866 858.822 498.565
531 0 49.0316 10.2995 505 83.8733 859.469 498.038
532 0 50.0255 10.5546 528 78.3958 858.964 499.536
533 0 49.0571 10.8241 531 79.5104 858.478 498.697
534 0 52.0598 11.2371 585 80.8581 859.193 496.879
535 0 55.0959 10.4726 577 78.896 859.289 496.776
536 0 56.023 11.5488 647 77.5301 859.173 497.097
537 0 58.043 11.5776 672 76.1443 859.046 494.549
538 0 56.0744 10.4682 587 80.3203 859.048 494.158
539 0 60.0321 11.5605 694 77.2896 859.173 494.448
540 0 61.0378 10.6655 651 78.7204 858.983 494.095
541 0 64.065 11.7381 752 77.2965 858.856 492.125
542 0 63.0804 10.7323 677 79.3146 859.36 491.669
543 0 67.04 10.7399 720 79.8806 859.329 491.094
544 0 69.0458 10.9203 754 80.1459 859.015 491.602
545 0 70.0329 11.7373 822 79.9075 858.783 489.939
546 0 71.0501 10.387 738 81.6463 859.234 490.348
547 0 75.0357 11.7677 883 79.5685 859.364 488.815
548 0 76.1182 11.4033 868 81.7465 859.66 487.285
549 0 79.0736 11.1668 883 82.3001 859.241 485.114
550 0 80.0379 11.1197 890 82.5494 859.589 483.944
551 0 85.082 12.247 1042 80.9559 859.489 482.328
552 0 86.1012 12.0672 1039 82.6218 859.526 482.111
553 0 88.1374 11.6182 1024 83.2275 858.786 479.766
554 0 92.1308 11.158 1028 84.606 859.179 480.406
555 0 95.2152 10.8491 1033 83.8383 859.408 478.582
556 0 99.2226 11.1467 1106 83.528 859.518 474.639
557 0 101.4 11.0848 1124 84.0721 859.755 473.07
558 1 59.1152 11.0293 652 78.7853 859.577 496.756
559 0 61.0923 10.787 659 76.9348 859.524 496.907
560 0 62.0564 10.5388 654 71.5031 859.309 494.161
561 0 65.1832 11.9969 782 71.7532 859.637 493.917
562 0 65.1233 11.7623 766 72.7755 860.217 493.501
563 0 69.1644 11.263 779 72.8164 859.444 490.587
564 0 71.06 11.3003 803 72.3462 858.725 491.239
565 0 71.231 11.8066 841 72.2545 858.899 490.558
566 0 72.106 10.5816 763 75.9659 858.692 490.959
567 0 75.1454 10.9255 821 75.6175 859.006 490.191
568 0 76.1224 10.667 812 77.2438 859.59 488.691
569 0 79.0827 10.7862 853 79.0481 859.619 486.226
570 0 81.1744 10.9887 892 76.6592 859.564 486.102
571 0 85.312 10.9012 930 76.3591 859.455 483.665
572 0 86.3529 10.596 915 77.6033 859.095 481.397
573 0 88.2228 10.5075 927 79.521 859.403 478.691
574 0 93.2772 10.4956 979 81.335 859.293 478.802
575 0 98.266 11.825 1162 82.3873 859.53 473.841
576 0 102.328 11.3557 1162 81.2857 858.956 474.629
577 1 53.0722 9.70376 515 74.4194 858.874 497.975
578 0 54.1158 9.60903 520 76.8712 858.729 497.981
579 0 58.1346 9.59841 558 75.3262 858.76 496.522
580 0 58.1346 9.56401 556 101.793 858.757 496.534
581 0 61.2243 10.584 648 72.0602 858.931 494.551
582 0 60.2214 10.3618 624 71.3045 859.553 494.457
583 0 65.1543 10.4675 682 70.2419 859.931 491.509
584 0 68.2071 10.688 729 69.9794 860.354 491.088
585 0 71.2062 12.19 868 68.3802 860.039 489.83
586 0 73.1636 12.1919 892 67.6816 860.29 490.397
587 0 75.2079 11.9668 900 69.0867 860.429 489.109
588 0 76.1325 11.283 859 72.0652 859.339 487.451
589 0 78.1527 11.4008 891 73.2222 860.323 486.818
590 0 82.2042 11.6052 954 73.7379 860.812 487.334
591 0 84.183 11.1305 937 75.4984 860.614 485.409
592 1 43.0672 10.3559 446 75.0673 861.043 505.274
593 0 42.0577 11.0325 464 76.2586 860.869 507.153
594 0 44.0379 10.9451 482 76.7344 860.095 506.284
595 0 45.1184 10.7938 487 77.9055 860.807 505.148
596 0 45.1184 10.683 482 121.033 861.82 505.224
597 0 50.1407 11.6273 583 78.5523 859.182 502.599
598 0 51.1658 12.4497 637 79.6499 860.509 500.867
599 0 52.2229 11.7956 616 81.823 859.841 500.198
600 0 55.1817 12.3773 683 80.3441 860.05 500.164
601 0 55.1581 11.7843 650 82.22 860.343 501.248
602 0 58.1216 12.3362 717 81.5914 860.399 499.254
603 0 59.1439 11.6834 691 85.4052 859.946 499.66
604 0 63.1501 12.4149 784 83.7398 859.86 497.23
605 0 66.1859 12.6915 840 83.0464 859.214 497.176
606 0 67.142 12.2129 820 84.389 859.145 495.717
607 0 70.0889 12.3415 865 81.0382 859.336 494.235
608 0 74.1332 13.206 979 79.2237 859.168 492.207
609 0 76.1637 12.5782 958 80.7484 859.959 490.979
610 0 77.1929 12.8509 992 81.4204 858.079 489.828
611 0 81.0749 12.1739 987 82.8176 858.711 489.421
612 0 83.1332 11.8003 981 84.4934 858.799 488.81
613 0 86.1166 12.2857 1058 84.6692 858.457 486.891
614 1 44.1297 12.6672 559 88.1789 858.585 505.805
615 0 46.0175 13.321 613 89.2561 858.129 506.362
616 0 43.0431 12.0112 517 86.7447 858.035 506.667
617 0 45.0954 12.6621 571 86.345 858.529 506.158
618 0 46.0494 12.5083 576 90.8004 859.03 504.851
619 0 49.063 12.3922 608 88.1036 859.595 503.97
620 0 50.1528 12.3821 621 89.4718 859.615 500.778
621 0 51.1578 12.6081 645 89.8155 859.195 500.938
622 0 53.1841 12.5413 667 89.1829 859.711 500
623 0 56.2571 12.6384 711 88.1336 859.329 500.547
624 0 58.0738 13.3623 776 88.3647 859.51 498.524
625 0 58.266 12.3914 722 91.2964 859.669 497.33
626 0 63.173 12.8536 812 90.3768 859.458 495.906
627 0 63.1755 13.3913 846 91.5225 859.614 494.7
628 0 66.1082 13.0241 861 92.9303 859.438 493.992
629 0 68.2002 13.1525 897 94.398 859.162 493.375
630 0 70.2059 12.9334 908 97.1718 860.342 490.762
631 0 72.11 13.7984 995 96.7035 860.704 489.039
632 0 74.2202 13.5408 1005 97.8826 860.265 487.777
633 0 76.2651 13.1777 1005 98.5751 859.623 487.406
634 0 79.3027 13.8583 1099 97.7334 859.597 484.583
635 0 82.2485 13.216 1087 101.063 858.839 483.388
636 1 42.0793 11.1694 470 98.8362 859.543 502.56
637 0 44.1026 11.5186 508 97.1555 859.949 502.644
638 0 42.0938 10.6191 447 100.293 860.047 504.246
639 0 47.0983 11.2531 530 97.5472 859.976 503.27
640 0 45.0955 12.3072 555 97.5802 859.681 500.784
641 0 50.054 12.3267 617 96.1021 860.271 500.214
642 0 51.0535 12.7905 653 94.0046 860.764 500.479
643 0 53.1248 12.8754 684 91.6535 861.595 499.611
644 0 54.2441 12.4622 676 93.7722 861.214 497.778
645 0 55.1631 13.2516 731 92.0369 861.263 496.606
646 0 58.1196 12.87 748 91.8529 860.88 496.517
647 0 58.1917 12.7166 740 93.7703 861.026 495.295
648 0 60.1441 12.2705 738 95.4065 861.045 494.317
649 0 61.1181 12.4186 759 95.4532 861.643 491.236
650 0 65.0957 12.1821 793 95.2774 861.352 491.204
651 0 67.1115 12.3675 830 95.2651 861.187 490.753
652 0 68.0611 12.9002 878 93.3155 861.591 488.491
653 0 71.102 12.6157 897 94.5463 861.972 486.91
654 0 74.0311 13.0891 969 93.3808 860.563 487.11
655 0 76.0771 12.8948 981 94.0856 860.129 487.749
656 0 80.0742 13.1378 1052 93.558 859.878 486.608
657 0 81.0955 13.5149 1096 94.6268 860.558 482.182
658 0 86.076 13.6972 1179 93.1815 860.948 480.572
659 0 87.2051 13.13 1145 96.91 861.583 477.831
660 0 90.2518 12.9194 1166 95.8088 862.09 476.84
661 0 93.2717 13.0479 1217 96.9433 861.288 473.954
662 1 51.1534 12.2573 627 91.5008 863.121 496.078
663 0 52.3393 12.6291 661 95.0923 862.557 491.259
664 0 53.2043 13.232 704 94.6335 861.707 492.233
665 0 57.248 13.6599 782 89.6317 862.02 493.341
666 0 58.0588 13.383 777 90.2291 861.732 495.035
667 0 61.0442 13.2527 809 89.8059 861.173 492.923
668 0 62.0588 12.8104 795 91.1924 860.73 492.147
669 0 65.0933 13.9492 908 89.1024 861.232 489.514
670 0 69.0668 13.7403 949 96.7871 861.296 489.168
671 0 70.0262 13.3807 937 91.064 862.761 487.044
672 0 71.1401 13.3118 947 91.6684 862.65 487.891
673 0 73.0969 13.4616 984 92.7083 862.187 487.583
674 0 77.1082 14.1879 1094 91.4973 861.823 485.451
675 0 80.1236 13.3294 1068 92.7219 861.179 483.754
676 0 81.071 13.7657 1116 92.2043 860.92 483.901
677 0 86.1344 13.6531 1176 90.7432 861.514 481.969
678 0 87.1736 13.2494 1155 89.6234 861.186 479.664
679 0 92.1766 13.5067 1245 96.1606 861.349 477.913
680 0 93.1386 13.5497 1262 89.7837 860.851 476.519
681 0 96.1327 13.523 1300 89.8869 861.425 474.589
682 0 98.1314 13.7265 1347 87.8352 861.912 471.451
683 0 103.134 13.4582 1388 88.6635 862.592 473.317
684 0 104.072 13.3176 1386 89.948 862.847 472.599
685 0 106.129 13.5872 1442 89.7178 862.451 471.954
686 0 111.083 13.0533 1450 95.3848 862.094 469.641
687 0 115.087 13.0336 1500 95.6593 861.783 467.988
688 0 121.321 13.8558 1681 95.6044 862.317 463.212
689 0 124.365 13.581 1689 98.9544 861.94 459.45
690 0 126.297 13.1515 1661 101.564 862.093 456.226
691 0 131.316 13.5018 1773 102.063 861.673 457.284
692 0 134.373 13.5146 1816 103.254 862.556 455.301
693 0 139.359 12.9234 1801 105.634 862.146 451.22
694 0 143.502 14.188 2036 104.574 862.558 448.409
695 0 149.383 14.3658 2146 105.205 862.32 443.793
696 0 153.476 14.3931 2209 104.784 862.172 442.605
697 0 159.544 14.1967 2265 105.772 862.269 439.607
698 0 161.391 14.5671 2351 105.146 861.912 438.613
699 0 167.521 15.1802 2543 103.549 861.459 438.22
700 0 170.455 14.7136 2508 106.821 861.124 435.788
701 0 178.341 15.5825 2779 104.721 861.19 434.756
702 0 182.353 14.8284 2704 106.532 861.194 434.714
703 0 188.368 15.199 2863 106.45 861.394 428.319
704 0 195.465 14.775 2888 107.702 860.349 426.45
705 0 201.569 14.3673 2896 109.228 861.169 426.216
706 0 207.491 13.9428 2893 112.902 860.335 421.783
707 0 215.518 14.1566 3051 111.247 859.99 418.822
708 1 167.367 13.3061 2227 110.691 860.371 442.824
709 0 172.371 13.9409 2403 106.248 859.879 439.596
710 0 177.462 14.2679 2532 105.035 860.004 436.825
711 0 183.305 14.4677 2652 103.852 860.621 435.733
712 0 189.362 14.2689 2702 105.544 859.663 428.835
713 0 195.516 14.0193 2741 107.023 859.814 431.049
714 0 203.63 14.271 2906 107.487 858.877 426.553
715 0 211.435 14.4063 3046 107.852 859.451 421.646
716 0 216.403 13.8815 3004 109.929 859.462 418.222
717 0 224.535 14.1314 3173 110.078 859.067 414.844
718 0 231.481 14.1653 3279 109.819 859.16 412.348
719 0 240.43 14.5988 3510 109.858 859.126 408.389
720 0 249.627 14.3895 3592 111.237 860.053 401.546
721 0 257.678 14.5259 3743 110.764 859.414 398.471
722 0 266.662 14.8465 3959 109.542 859.614 392.181
723 0 275.652 15.2112 4193 108.747 859.553 390.874
724 1 210.533 13.7603 2897 111.093 859.944 424.26
725 0 217.703 14.5611 3170 111.321 859.882 419.636
726 0 224.711 15.3219 3443 110.621 859.306 414.729
727 0 229.708 14.7274 3383 115.221 859.406 410.761
728 0 235.638 14.361 3384 115.757 859.481 408.578
729 1 246.731 15.0002 3701 114.247 859.303 402.465
730 0 255.958 14.4008 3686 116.014 859.647 397.202
731 0 264.688 15.1764 4017 114.931 859.498 391.917
732 0 272.815 15.0395 4103 116.902 859.531 386.269
733 0 281.883 14.6408 4127 116.484 859.054 380.981
734 0 281.752 10.9706 3091 119.03 859.735 396.936
735 1 67.4729 10.5227 710 95.4197 860.53 482.665
736 0 69.3923 10.8225 751 96.1332 860.831 481.217
737 0 72.599 11.5842 841 94.9049 860.402 480.553
738 0 71.3137 12.0874 862 97.9803 860.861 476.049
739 0 73.4093 12.7777 938 97.0736 861.018 474.569
740 0 79.3147 12.4693 989 97.3367 861.672 473.187
741 0 81.2568 13.1435 1068 97.8165 861.312 470.919
742 0 82.2937 12.1516 1000 101.644 860.936 470.13
743 0 88.3241 13.7222 1212 97.1865 860.099 467.2
744 0 88.2565 12.3617 1091 101.76 860.23 466.26
745 0 96.3476 15.3714 1481 90.8751 860.492 460.58
746 0 96.3429 14.1163 1360 97.725 860.85 458.56
747 0 101.338 12.0093 1217 104.341 861.272 460.105
748 0 102.334 12.3517 1264 107.39 861.118 457.616
749 1 53.1502 9.29442 494 95.6417 861.731 485.338
750 0 52.1962 9.56008 499 98.8277 862.22 482.459
751 0 61.2759 11.0158 675 97.6237 861.716 488.966
752 0 62.1284 10.929 679 98.4845 862.944 489.513
753 0 61.1405 9.74803 596 88.8775 862.411 492.218
754 0 62.1332 9.46354 588 90.1548 861.847 493.872
755 0 64.0671 9.58371 614 89.9349 861.992 491.79
756 0 68.1026 9.88214 673 90.211 861.909 490.3
757 0 68.0746 10.2975 701 91.2197 861.906 487.98
758 0 71.0953 11.0415 785 91.5121 862.011 486.978
759 0 72.1223 10.2881 742 94.1482 862.132 488.489
760 0 74.2308 10.8311 804 94.0498 862.628 485.595
761 0 75.2031 10.0661 757 96.2748 862.243 485.76
762 0 77.2433 10.4216 805 96.8037 862.406 483.23
763 0 81.1168 11.2061 909 97.0627 861.45 481.771
764 0 84.2533 11.2162 945 96.1545 861.652 480.596
765 0 84.1415 10.2328 861 98.5621 861.365 478.566
766 0 88.2353 11.356 1002 95.989 860.795 476.053
767 0 92.2499 11.2737 1040 98.0337 861.424 475.573
768 0 93.318 11.4662 1070 100.456 861.242 472.635
769 0 95.1698 11.3797 1083 100.437 861.139 469.35
770 0 99.2353 11.6188 1153 100.219 861.492 466.341
771 0 102.192 12.0558 1232 98.2313 861.076 465.893
772 0 104.148 11.186 1165 99.9416 861.24 463.795
773 1 58.0954 9.63932 560 95.3 861.586 488.509
774 0 61.137 10.2884 629 94.5469 861.329 485.197
775 0 64.0994 10.6709 684 91.8026 860.627 484.629
776 0 66.0871 11.3184 748 86.2366 860.663 485.154
777 0 65.07 10.4349 679 89.0869 860.904 486.181
778 0 66.0744 10.7001 707 87.9222 860.721 485.286
779 0 67.1997 10.4614 703 88.6117 860.899 483.711
780 0 68.084 10.7514 732 87.5355 861.279 483.87
781 0 69.0996 10.521 727 88.7607 861.106 481.359
782 0 72.0955 11.0686 798 88.1504 860.594 480.018
783 0 75.1008 10.5725 794 86.6385 860.922 479.566
784 0 77.1001 10.7912 832 87.4014 860.85 477.773
785 0 78.1268 10.9565 856 86.6098 860.659 477.543
786 0 78.1031 9.83316 768 89.4844 860.846 474.691
787 0 84.1009 10.5706 889 86.1001 861.115 475.098
788 0 86.0745 10.7233 923 85.7725 861.328 473.333
789 0 89.0691 10.9241 973 86.8674 861.003 472.293
790 0 91.0438 11.0167 1003 87.5015 861.006 470.534
791 0 93.07 10.4223 970 87.7608 861.152 470.155
792 0 98.0671 10.8191 1061 86.3968 860.626 467.398
793 0 98.0396 10.506 1030 87.3913 860.578 464.059
794 1 197.561 10.6398 2102 98.9734 860 413.155
795 1 105.13 9.70226 1020 86.3088 861.794 458.117
796 0 109.179 9.36077 1022 85.7818 862.314 458.266
797 0 111.144 9.71712 1080 85.588 862.713 456.574
798 0 115.253 9.52684 1098 86.0264 862.656 455.822
799 0 118.433 6.20602 735 87.3891 861.287 457.199
800 0 119.34 9.29275 1109 83.0424 861.291 452.212
801 0 121.512 8.08152 982 87.0153 860.876 449.488
802 0 122.335 8.08436 989 87.1759 860.39 451.267
803 0 128.368 7.94592 1020 89.5206 860.1 445.746
804 1 63.0704 7.94351 501 73.5389 860.507 486.549
805 0 71.11 9.75953 694 69.513 859.932 487.137
806 0 73.1164 9.58746 701 70.291 860.427 485.248
807 0 75.0728 9.65729 725 70.4966 860.538 485.108
808 0 76.1401 9.44311 719 71.2587 861.462 484.805
809 0 79.1528 9.17213 726 72.6997 861.175 481.242
810 0 81.0855 10.1128 820 72.4902 860.673 480.878
811 0 86.0894 9.94316 856 72.972 860.361 477.414
812 0 85.0802 8.99151 765 75.2444 860.532 476.315
813 0 91.1156 9.18613 837 74.0968 860.587 477.162
814 1 47.1226 9.12514 430 74.986 859.316 499.565
815 0 47.0593 9.58366 451 79.3836 858.876 498.461
816 0 48.0519 9.94757 478 68.7134 859.588 499.077
817 0 51.1086 10.2722 525 78.5543 859.571 497.726
818 0 53.0606 10.2713 545 79 858.996 496.435
819 0 54.1602 10.2843 557 79.3519 859.194 496.33
820 0 57.0985 11.5064 657 75.8813 859.545 496.399
821 0 58.0912 11.2237 652 76.0752 858.945 496.423
822 0 60.113 11.312 680 76.5279 858.76 494.56
823 0 59.1203 10.7746 637 78.9702 858.923 494.069
824 0 60.1414 11.2402 676 78.568 858.228 492.541
825 0 63.2314 11.6398 736 76.8573 858.148 491.796
826 0 65.2532 11.8308 772 74.9391 858.504 492.289
827 0 66.2282 11.249 745 76.5503 858.494 489.859
828 0 70.154 11.375 798 75.2318 858.559 489.752
829 0 70.2073 10.6399 747 75.8849 858.967 488.297
830 0 73.1888 11.5318 844 74.5735 859.214 486.589
831 0 76.171 11.6974 891 73.8373 858.539 485.712
832 0 79.3289 11.3578 901 75.4883 858.709 482.154
833 1 42.02 10.257 431 70.413 858.39 503.065
834 0 41.074 8.74031 359 69.9471 858.855 504.713
835 0 43.038 9.85175 424 65.7335 858.399 503.377
836 0 43.0394 10.1535 437 66.6499 859.915 502.339
837 0 44.087 10.2525 452 66.9823 859.75 500.369
838 0 49.0692 11.1679 548 66.9453 859.973 496.896
839 0 49.0559 10.6613 523 77.7304 860.293 495.17
840 0 51.0576 11.1247 568 75.5827 859.637 494.187
841 0 52.0618 10.9869 572 76.3759 860.133 494.664
842 0 54.0552 11.6733 631 74.9731 859.548 494.328
843 0 58.1138 11.7872 685 73.8934 859.905 495.038
844 0 57.1545 11.5826 662 73.4366 859.776 493.424
845 0 59.0718 11.3929 673 73.8975 860.397 493.158
846 0 61.1291 11.762 719 73.6064 860.111 491.104
847 0 63.0545 12.1799 768 73.4206 859.533 491.744
848 0 64.0588 12.0827 774 74.4961 859.607 489.609
849 0 66.093 12.1949 806 74.6725 859.897 488.491
850 0 71.0864 12.7732 908 72.7335 859.638 487.09
851 0 72.0785 13.1523 948 72.3544 859.99 486.139
852 0 74.1242 13.0187 965 73.342 860.079 484.054
853 0 77.0981 13.178 1016 73.7126 859.841 486.229
854 0 78.1077 13.3278 1041 74.6042 859.818 485.419
855 0 82.1548 12.6347 1038 76.4846 860.292 483.04
856 0 84.0953 12.8782 1083 76.0166 859.91 482.402
857 0 85.1641 12.3174 1049 78.5234 860.14 479.952
858 0 87.1989 12.8327 1119 78.7748 860.042 477.883
859 0 91.3164 12.9769 1185 77.9038 859.39 478.326
860 0 94.2554 12.6253 1190 79.421 859.415 476.255
861 0 96.3046 12.5435 1208 79.7384 859.646 475.079
862 0 99.4024 11.881 1181 77.834 859.358 472.754
863 1 52.0439 10.299 536 68.1119 860.187 497.194
864 0 51.1395 10.9504 560 69.0518 860.395 497.202
865 0 54.1533 11.1351 603 68.6799 859.391 496.285
866 0 57.1277 11.8857 679 67.7216 859.358 495.233
867 0 57.0345 11.7473 670 68.506 858.97 492.867
868 0 58.0447 11.3361 658 69.1049 858.608 492.134
869 0 61.065 12.4457 760 68.5803 858.67 490.661
870 0 63.1642 12.8079 809 68.9617 858.928 490.282
871 0 64.0652 12.378 793 70.6885 858.643 490.2
872 0 67.0936 12.4602 836 71.4617 858.433 488.932
873 0 69.0579 13.105 905 71.8928 859.025 487.365
874 0 70.0518 12.7192 891 72.486 858.866 486.502
875 0 74.0749 13.1624 975 71.4359 859.079 485.372
876 0 75.0903 12.6115 947 73.5977 858.623 482.925
877 0 79.0652 13.0146 1029 72.8941 858.991 481.82
878 0 80.0954 12.3977 993 74.6485 858.714 480.554
879 0 84.1088 13.2091 1111 74.1917 857.842 479.283
880 0 84.1615 12.5117 1053 75.283 858.018 479.767
881 0 88.1014 12.8034 1128 76.1161 858.205 476.867
882 0 90.062 12.7579 1149 76.8077 858.514 476.873
883 0 94.1417 12.5662 1183 77.344 858.444 474.467
884 0 98.0781 13.5504 1329 75.9812 858.542 470.613
885 0 99.0435 12.863 1274 77.4286 858.674 472.847
886 0 102.104 12.1934 1245 78.9896 858.602 467.392
887 0 107.06 12.8993 1381 76.5974 858.631 465.083
888 1 53.033 10.3898 551 81.1397 858.034 494.583
889 0 55.0521 10.4447 575 79.3322 857.927 494.191
890 0 58.0509 11.1798 649 77.9553 858.037 493.237
891 0 59.1143 11.7907 697 76.4534 858.304 491.221
892 0 60.0793 11.385 684 75.9605 858.462 491.181
893 0 64.093 11.9514 766 75.3368 858.537 489.966
894 0 64.1108 11.8545 760 77.1934 858.778 489.171
895 0 68.1438 11.6959 797 77.7265 859.206 487.237
896 0 71.1696 12.9971 925 84.5449 860.022 485.396
897 0 74.167 12.1887 904 87.6527 859.139 484.384
898 0 77.0781 12.1435 936 87.8932 859.626 483.151
899 0 77.1206 12.1757 939 90.2013 859.639 481.377
900 0 81.0842 12.5425 1017 88.6303 860.578 481.212
901 0 83.1051 12.9114 1073 89.9627 859.999 478.173
902 0 87.0612 12.9909 1131 90.0186 860.065 477.521
903 0 90.0522 12.3817 1115 91.4924 860.412 476.918
904 0 92.0981 12.5844 1159 92.0181 860.495 473.974
905 0 93.2037 12.5746 1172 92.5239 859.807 472.061
906 0 97.1442 12.2395 1189 93.2868 860.919 471.673
907 1 51.0905 11.3524 580 86.0707 860.421 494.195
908 0 51.0612 10.8106 552 85.3478 859.507 493.676
909 0 52.0334 11.5118 599 81.2137 859.122 492.526
910 0 54.1045 11.9953 649 80.5701 860.111 490.954
911 0 53.0998 11.1488 592 82.5811 860.35 492.823
912 0 56.1431 11.2926 634 84.5158 860.483 492.009
913 0 60.1278 11.2261 675 84.9793 860.551 490.544
914 0 61.1022 11.4071 697 86.2956 861.093 487.471
915 0 64.0791 11.5014 737 84.0611 861.328 487.905
916 0 65.1545 11.2962 736 84.7011 861.319 488.168
917 0 67.3441 11.3744 766 85.8198 861.41 487.631
918 0 70.1842 11.598 814 84.4238 860.958 486.44
919 0 72.1614 12.2642 885 83.6915 861.799 482.533
920 0 75.1513 12.1621 914 84.0711 861.525 481.903
921 0 77.191 12.2165 943 84.5684 861.039 481.439
922 0 80.1701 12.4735 1000 84.875 861.78 482.012
923 0 83.1728 12.5281 1042 84.0902 861.595 481.527
924 0 86.247 12.0352 1038 84.9374 860.735 481.688
925 0 89.4575 11.6592 1043 86.9473 860.547 477.959
926 0 90.2656 11.8096 1066 88.4006 860.385 475.131
927 0 90.2656 11.9204 1076 130.592 860.371 475.075
928 1 50.2802 10.521 529 81.2854 860.412 495.149
929 0 52.2925 10.1162 529 77.3119 859.314 495.72
930 0 54.0355 11.696 632 73.144 858.818 496.332
931 0 52.0736 9.98586 520 77.5808 859.231 498.183
932 0 55.0644 10.2244 563 77.4867 859.002 498.732
933 0 55.1099 10.0163 552 78.1141 858.989 496.478
934 0 58.1148 10.0319 583 76.7015 857.696 496.635
935 0 60.0484 10.2251 614 76.9234 857.974 496.28
936 0 61.0624 9.94066 607 77.7825 857.809 495.498
937 0 62.1196 10.2544 637 78.2072 857.507 493.532
938 0 64.0925 10.4848 672 77.7917 857.231 494.064
939 0 69.0315 11.9366 824 75.5461 857.136 493.772
940 0 68.0578 10.1531 691 78.2012 857.327 493.592
941 0 72.0346 10.5921 763 77.8991 856.87 491.966
942 0 75.0871 12.1193 910 76.5264 856.951 489.791
943 0 77.1378 11.3822 878 77.4601 856.892 488.294
944 0 80.0648 11.8779 951 76.0252 856.97 487.285
945 0 83.0419 12.1505 1009 76.8513 856.857 484.435
946 0 88.1064 12.4395 1096 76.2947 856.558 481.099
947 0 90.0523 11.9042 1072 78.055 856.393 481.332
948 1 46.12 10.4293 481 79.8358 856.854 503.335
949 0 48.115 10.7243 516 79.4419 857.046 502.39
950 0 49.1855 12.0361 592 86.6047 858.983 500.514
951 0 51.2009 11.9724 613 95.8825 858.817 498.414
952 0 52.2152 12.1612 635 95.9008 858.46 499.17
953 0 56.2171 11.9003 669 98.8027 859.84 498.099
954 0 56.1852 12.6368 710 99.5155 858.134 498.041
955 0 61.1368 11.6787 714 100.192 857.658 496.703
956 0 61.189 12.8291 785 87.3605 857.789 496.181
957 0 62.2189 12.44 774 89.6525 857.534 494.274
958 0 64.1968 13.1159 842 88.6152 858.38 492.629
959 0 67.1221 13.17 884 88.836 858.611 491.934
960 0 67.1824 12.6968 853 89.0727 858.53 489.762
961 0 70.2177 12.7033 892 87.1693 858.314 489.914
962 0 74.2375 13.2817 986 85.7505 858.215 488.827
963 0 75.1628 13.2246 994 88.1318 857.944 485.881
964 0 78.3448 12.7258 997 89.326 858.035 486.057
965 0 79.23 12.672 1004 89.248 858.323 486.638
966 0 81.1469 13.1367 1066 90.4503 858.972 488.437
967 0 84.15 13.3333 1122 89.9991 858.981 486.032
968 0 86.2254 13.2675 1144 91.1084 859.059 481.138
969 0 90.2192 13.6445 1231 90.1267 859.468 483.907
970 0 92.1779 13.0726 1205 92.2191 859.231 477.565
971 0 95.2607 13.4893 1285 90.7463 859.47 477.1
972 0 96.0972 12.6434 1215 97.4938 859.21 476.235
973 0 99.121 11.9954 1189 91.8873 859.748 472.276
974 0 102.256 11.4419 1170 93.188 859.802 470.387
975 0 105.168 11.8097 1242 93.8317 860.003 470.279
976 0 107.123 11.8742 1272 94.2995 859.85 468.125
977 0 111.222 12.6324 1405 93.3352 859.752 466.214
978 0 114.084 13.008 1484 92.7655 859.282 464.271
979 0 117.16 12.0433 1411 104.605 860.805 461.79
980 0 119.112 12.2489 1459 106.202 861.166 459.755
981 0 125.122 12.9793 1624 103.579 861.356 457.387
982 0 128.13 12.2064 1564 106.871 860.538 456.581
983 0 131.08 12.2521 1606 97.2416 860.816 450.444
984 1 70.0941 10.4431 732 85.1284 859.49 482.336
985 0 75.074 11.189 840 85.5702 860.061 481.905
986 0 76.0879 9.65988 735 88.2639 859.918 479.133
987 0 79.0969 10.6705 844 87.0379 859.607 477.583
988 0 81.133 10.5629 857 86.28 860.396 475.211
989 0 83.1146 9.87792 821 87.7942 859.82 473.447
990 0 88.1607 10.6397 938 86.645 860.07 473.522
991 0 92.1236 11.0178 1015 84.7537 859.347 474.255
992 0 96.0575 10.2855 988 87.3563 860.021 473.613
993 0 100.265 9.804 983 89.7538 860.658 471.566
994 0 104.183 9.55046 995 90.9457 859.088 467.287
995 0 108.256 10.5029 1137 88.3571 859.366 466.522
996 0 112.178 10.0643 1129 89.7281 859.841 464.926
997 1 60.0773 11.1024 667 87.4678 862.238 490.115
998 0 63.0136 11.3785 717 90.1395 862.209 488.852
999 0 65.0953 11.6291 757 90.0343 862.086 486.664
1000 0 67.0673 11.6003 778 89.7532 862.077 485.258
1001 0 70.0323 10.6094 743 91.1978 861.884 484.226
1002 0 73.1378 11.5262 843 89.0368 862.087 483.422
1003 0 77.0882 11.4933 886 88.8758 862.388 482.198
1004 0 80.1018 12.0347 964 87.7023 862.424 481.134
1005 0 82.15 11.7346 964 92.223 862.838 478.5
1006 0 84.0948 11.7486 988 89.2399 863.405 477.404
1007 0 87.1447 11.2801 983 90.5097 864.065 474.96
1008 0 92.1667 11.8698 1094 88.0311 863.715 475.441
1009 0 94.1279 12.1006 1139 87.8894 862.968 474.209
1010 1 48.0725 10.1513 488 85.3893 863.359 497.674
1011 0 47.1265 9.76097 460 80.6848 860.744 494.674
1012 0 45.0785 9.51673 429 76.1492 861.242 488.277
1013 0 53.052 10.7442 570 83.179 862.142 494.735
1014 0 53.0474 11.7065 621 83.7021 862.615 494.341
1015 0 55.1185 10.9038 601 85.604 862.288 493.441
1016 0 57.1311 11.3773 650 83.5077 862.512 493.489
1017 0 55.027 10.4131 573 74.8848 859.553 496.686
1018 0 58.0218 10.7546 624 74.3558 860.231 495.317
1019 0 59.0495 10.0424 593 76.2782 860.563 495.526
1020 0 61.0328 10.5517 644 75.4456 860.216 494.882
1021 0 62.0356 10.3005 639 76.7293 860.916 493.513
1022 0 66.0953 11.0447 730 76.1151 861.474 492.01
1023 0 68.1495 10.7851 735 76.8653 861.554 490.407
1024 0 71.1227 10.6436 757 77.7569 861.448 489.225
1025 0 72.0893 10.2096 736 77.9375 861.251 489.537
1026 0 77.0876 11.3118 872 75.7959 860.54 487.772
1027 0 79.0935 11.5939 917 77.0371 860.526 485.963
1028 0 82.0283 12.0446 988 76.7692 860.246 484.671
1029 0 85.051 12.7453 1084 75.8524 860.184 483.329
1030 0 89.0507 12.4087 1105 77.0869 859.818 483.223
1031 0 90.0593 11.9366 1075 78.0372 859.552 483.126
1032 0 92.0935 12.3136 1134 79.1737 859.774 481.089
1033 0 96.0624 11.9402 1147 80.5231 859.899 477.996
1034 0 98.0721 12.1339 1190 80.3924 859.763 477.878
1035 0 102.105 12.4773 1274 82.2755 859.856 474.582
1036 0 105.076 12.648 1329 81.4996 859.355 473.056
1037 1 54.0594 12.1163 655 83.2382 859.563 496.166
1038 0 56.0769 12.8395 720 82.8597 859.556 494.833
1039 0 59.0782 12.7458 753 82.6746 859.009 495.34
1040 0 61.0647 12.8061 782 82.3248 859.102 493.802
1041 0 62.0974 12.8669 799 82.7522 859.84 492.668
1042 0 64.1 13.1825 845 89.4521 861.105 490.64
1043 0 67.1203 13.8408 929 87.8698 861.398 490.498
1044 0 68.1502 13.8958 947 89.0528 861.292 489.035
1045 0 69.106 13.3129 920 93.3315 861.334 488.388
1046 0 70.088 14.1679 993 92.4099 861.074 487.204
1047 0 74.1375 14.1629 1050 91.8029 861.625 484.778
1048 0 76.1529 12.9476 986 94.8702 860.986 487.185
1049 0 76.0899 13.3789 1018 95.1955 859.532 485.741
1050 0 81.1033 13.563 1100 93.38 860.437 484.005
1051 0 83.095 13.1055 1089 95.5289 861.527 482.457
1052 0 87.1431 12.8983 1124 94.7758 861.721 481.481
1053 0 89.099 12.8846 1148 95.3058 861.628 479.87
1054 0 91.1217 12.4668 1136 98.6849 861.533 479.384
1055 0 95.2066 12.184 1160 99.0448 862.197 477.503
1056 0 96.1193 13.0983 1259 97.9118 862.317 477.169
1057 1 49.0676 11.3517 557 94.7774 862.156 498.98
1058 0 51.0542 12.1635 621 93.2657 861.451 497.731
1059 0 55.0787 13.4535 741 86.6883 861.387 498.193
1060 0 55.0921 12.6697 698 87.0888 861.12 500.705
1061 0 57.0691 13.0193 743 86.576 860.289 496.256
1062 0 59.1511 13.0682 773 87.48 860.461 496.525
1063 0 62.1036 13.0266 809 91.1619 860.586 496.2
1064 0 63.11 12.4544 786 93.4873 860.916 494.656
1065 0 64.1006 13.432 861 90.8583 860.545 493.545
1066 0 67.0724 13.2991 892 92.2478 860.234 491.596
1067 0 69.075 13.869 958 90.714 860.688 490.448
1068 0 71.153 13.7872 981 91.5902 860.48 490.321
1069 0 74.0618 13.5427 1003 92.7797 860.729 488.726
1070 0 77.1366 13.703 1057 92.7266 860.4 486.91
1071 0 78.0472 13.2228 1032 94.7355 859.91 486.272
1072 0 81.0823 13.2211 1072 91.5793 860.97 482.789
1073 0 84.0439 13.6714 1149 93.2567 861.04 483.039
1074 0 87.0914 13.1586 1146 95.4145 860.761 481.153
1075 0 91.0626 13.3754 1218 95.1773 860.824 481.107
1076 0 93.0936 13.2555 1234 94.5972 860.385 479.6
1077 0 95.1196 13.3937 1274 94.9819 860.597 476.897
1078 1 46.0174 10.496 483 91.4224 860.137 501.807
1079 0 49.2469 11.4525 564 102.113 860.988 499.488
1080 0 48.077 11.6064 558 97.5878 861.342 491.91
1081 0 50.0558 11.7069 586 90.1792 860.515 496.688
1082 0 54.099 12.3847 670 88.4269 860.645 497.478
1083 0 54.052 12.192 659 90.8483 860.304 496.218
1084 0 57.0764 12.0715 689 90.7431 860.514 494.856
1085 0 58.0576 12.0225 698 90.8324 860.797 495.043
1086 0 58.0967 12.0489 700 91.8471 860.956 494.354
1087 0 63.0246 12.6141 795 89.5623 861.023 493.53
1088 0 63.051 12.1806 768 91.8906 860.565 491.764
1089 0 67.0902 12.6397 848 103.112 860.277 491.769
1090 0 68.1616 12.5144 853 105.345 860.903 491.433
1091 0 68.0698 12.5312 853 107.794 860.326 489.776
1092 0 72.0357 13.0352 939 106.145 860.313 488.423
1093 0 74.0977 12.605 934 108.578 860.344 485.985
1094 0 77.1999 13.057 1008 107.173 860.488 485.38
1095 0 79.0971 13.0346 1031 108.734 860.497 482.996
1096 0 82.0371 13.0551 1071 109.372 860.58 482.921
1097 0 84.0808 13.1659 1107 113.895 860.45 484.275
1098 0 86.1106 13.4246 1156 114.184 861.174 485.615
1099 0 89.0735 12.6974 1131 111.635 860.348 485.531
1100 0 92.0705 12.9792 1195 111.082 862.138 483.314
1101 1 47.114 11.0371 520 103.396 862.206 504.208
1102 0 45.1073 10.6191 479 106.795 862.036 504.025
1103 0 49.0454 11.0714 543 103.989 861.247 502.72
1104 0 51.0341 11.8156 603 104.861 860.808 502.29
1105 0 53.0438 12.4991 663 101.964 861.057 500.747
1106 0 52.0307 11.3202 589 107.261 861.027 502.623
1107 0 54.0433 11.8609 641 104.449 860.746 500.743
1108 0 56.0467 11.7045 656 104.669 860.674 500.133
1109 0 55.0302 11.4664 631 104.973 860.076 499.628
1110 0 59.0194 11.0472 652 104.252 860.463 498.258
1111 0 59.0962 11.4221 675 104.244 860.089 496.372
1112 0 61.0382 11.3535 693 107.387 859.319 494.706
1113 0 65.027 11.3491 738 108.263 860.094 494.539
1114 0 66.0675 11.2158 741 108.154 859.885 493.889
1115 0 69.1164 11.893 822 106.288 859.89 492.493
1116 0 70.0535 11.3627 796 109.192 860.623 492.339
1117 0 73.0603 11.7027 855 108.688 860.075 487.24
1118 0 74.075 11.4614 849 108.35 860.14 488.942
1119 0 80.0402 12.0439 964 107.053 859.664 486.79
1120 0 81.0913 11.5425 936 109.076 859.74 485.608
1121 0 83.0596 11.6784 970 108.692 859.771 485.28
1122 0 85.0875 11.9642 1018 107.032 860.516 483.279
1123 0 90.0996 12.6083 1136 105.302 859.954 481.588
1124 0 92.0893 10.9242 1006 110.381 859.95 479.838
1125 0 96.0456 11.7548 1129 108.622 860.668 478.619
1126 0 101.062 11.9629 1209 107.529 861.058 478.208
1127 1 52.0134 11.0164 573 106.503 861.063 499.445
1128 0 54.0525 11.4148 617 102.677 860.173 498.421
1129 0 55.0707 10.5319 580 97.6931 860.021 500.098
1130 0 56.0252 10.8701 609 97.2742 860.156 499.32
1131 0 56.0283 10.3519 580 99.9759 860.176 497.024
1132 0 60.0759 11.2191 674 100.378 860.325 496.117
1133 0 58.0738 10.6244 617 102.494 860.162 495.54
1134 0 62.0591 10.9573 680 102.466 860.121 491.66
1135 0 65.1181 10.6115 691 101.829 860.056 493.677
1136 0 66.1193 10.8289 716 102.74 859.905 490.33
1137 0 70.0649 10.6901 749 102.259 858.838 486.312
1138 0 73.0873 11.1374 814 99.7617 859.38 487.758
1139 0 76.0982 11.2618 857 95.4621 859.368 487.875
1140 0 77.103 11.2317 866 96.1617 859.755 489.127
1141 0 81.0718 11.3973 924 95.7338 859.363 487.45
1142 0 82.1041 11.3027 928 96.653 859.329 483.954
1143 0 85.1626 11.754 1001 96.9311 858.894 481.987
1144 0 87.1059 11.377 991 97.2846 858.884 482.069
1145 0 90.092 10.7224 966 96.9658 859.25 480.349
1146 0 92.1655 10.1556 936 99.9316 860.638 480.573
1147 0 95.1461 11.1092 1057 99.6244 859.676 479.871
1148 1 49.0187 10.4858 514 101.004 860.319 502.158
1149 0 50.0361 10.6523 533 98.9737 860.234 498.923
1150 0 51.0247 10.6615 544 85.6562 860.294 500.781
1151 0 51.0308 11.0326 563 81.1385 860.925 499.995
1152 0 56.1177 11.957 671 89.1952 860.678 497.42
1153 0 58.1299 12.2312 711 87.948 859.893 497.63
1154 0 59.1659 11.5269 682 89.7874 860.658 497.736
1155 0 62.0686 11.3745 706 89.8414 860.218 496.221
1156 0 63.1341 11.5785 731 90.223 860.001 494.101
1157 0 65.0532 11.6981 761 89.7714 860.534 493.951
1158 0 69.1574 11.3654 786 89.1896 860.387 492.63
1159 0 70.1082 11.5393 809 89.1582 861.058 491.473
1160 0 71.1313 11.0078 783 91.5172 860.76 492.083
1161 0 75.1536 11.7892 886 89.6354 861.049 489.665
1162 0 77.1464 11.4328 882 91.7392 860.863 487.034
1163 0 78.1316 10.7639 841 92.7111 860.602 486.163
1164 0 82.106 11.6922 960 90.6375 860.206 485.922
1165 0 85.1981 11.4791 978 92.8241 859.409 484.26
1166 1 40.0809 9.73032 390 87.518 858.785 507.52
1167 0 40.0377 9.31622 373 82.5201 858.488 506.992
1168 0 43.0325 10.1319 436 78.5092 858.259 506.787
1169 0 41.1144 10.8721 447 79.387 860.09 505.776
1170 0 45.0095 10.3534 466 76.7318 858.659 505.343
1171 0 47.0326 11.1837 526 75.0038 858.69 504.743
1172 0 47.0331 11.4175 537 76.8659 858.212 502.993
1173 0 47.0194 9.847 463 79.6631 858.732 504.987
1174 0 47.0286 8.8882 418 81.3086 858.593 503.56
1175 0 50.015 10.8967 545 78.0349 858.501 501.972
1176 0 51.0134 10.017 511 79.0059 857.806 500.932
1177 0 53.0325 10.0504 533 79.7355 858.381 501.936
1178 0 54.0229 9.27384 501 82.5788 858.242 500.99
1179 0 54.0886 9.50292 514 82.321 858.222 498.339
1180 0 54.0812 9.41178 509 108.603 858.212 498.328
1181 0 60.0387 10.2767 617 81.4425 858.699 498.807
1182 0 61.028 10.5198 642 82.1776 859.405 498.67
1183 0 62.1442 9.81588 610 84.0852 859.039 498.172
1184 0 64.1364 10.6804 685 83.0161 859.172 495.527
1185 0 67.0632 10.259 688 83.0145 859.529 495.969
1186 0 67.0962 10.5967 711 84.8383 859.398 493.723
1187 0 69.1239 10.9224 755 84.1192 859.638 493.177
1188 0 72.1125 10.7055 772 85.4754 859.058 492.824
1189 0 75.1052 11.3973 856 85.132 859.51 494.301
1190 0 76.1589 11.3578 865 87.5202 858.83 491.734
1191 0 78.1418 11.8375 925 89.0249 859.577 488.088
1192 0 80.15 11.1541 894 91.3009 859.613 488.15
1193 0 84.2482 12.5344 1056 92.8097 859.824 486.915
1194 0 86.2451 12.1746 1050 95.5705 859.386 485.051
1195 0 88.2885 12.1533 1073 97.4809 859.225 484.994
1196 0 90.2997 12.226 1104 97.9855 858.761 484.255
1197 0 94.2964 12.991 1225 97.0449 859.677 482.825
1198 0 95.3059 12.4127 1183 99.6957 859.236 480.665
1199 0 97.5527 12.1063 1181 102.478 859.04 477.149
1200 0 101.465 12.3195 1250 101.973 858.714 477.173
1201 0 105.396 13.3971 1412 101.183 859.042 475.022
1202 0 108.557 12.6938 1378 102.924 859.021 473.528
1203 0 112.409 12.8371 1443 103.011 859.313 472.358
1204 0 115.38 13.4252 1549 103.068 859.32 468.877
1205 0 120.448 12.6029 1518 102.949 859.109 468.041
1206 0 124.492 12.1534 1513 106.256 858.73 465.44
1207 0 129.54 12.336 1598 106.586 859.132 463.186
1208 0 133.444 12.7169 1697 106.917 859.093 460.941
1209 0 138.525 12.828 1777 106.262 859.392 458.924
1210 1 68.2101 11.9044 812 98.3756 859.732 494.918
1211 0 69.154 12.4649 862 99.1415 859.072 492.944
1212 0 70.1718 11.7996 828 103.28 859.341 492.134
1213 0 71.1253 12.1898 867 104.172 859.52 492.464
1214 0 73.2057 11.5565 846 108.312 859.986 492.617
1215 0 75.2666 12.0372 906 107.394 860.24 490.842
1216 0 78.4823 12.3085 966 105.156 859.938 485.116
1217 0 82.4802 13.3972 1105 103.712 859.737 483.257
1218 0 83.6369 12.8412 1074 108.132 860.225 480.01
1219 0 85.6938 12.428 1065 109.057 860.275 480.066
1220 0 86.5582 12.0381 1042 112.917 860.486 477.895
1221 0 89.514 12.7466 1141 112.039 860.059 477.423
1222 0 90.5142 11.9097 1078 115.469 860.551 475.497
1223 0 94.6397 12.1831 1153 113.618 860.54 476.26
1224 0 95.6881 12.0182 1150 113.937 860.173 474.11
1225 0 99.6914 12.629 1259 113.861 859.91 471.475
1226 0 102.573 12.3522 1267 114.373 859.652 468.841
1227 0 104.648 12.1838 1275 115.572 859.758 465.753
1228 0 107.472 12.5428 1348 112.805 860.002 466.711
1229 0 111.466 12.5868 1403 111.315 859.575 465.385
1230 1 61.2647 10.5771 648 107.676 859.719 490.441
1231 0 63.2516 11.3041 715 106.115 860.509 489.366
1232 0 65.0783 11.8012 768 107.931 859.728 489.824
1233 0 66.0859 10.9857 726 104.023 859.315 485.719
1234 0 68.2277 12.6342 862 106.242 860.196 489.353
1235 0 68.1498 12.135 827 108.709 860.99 487.712
1236 0 71.2056 12.8782 917 105.758 860.608 487.461
1237 0 73.2157 12.429 910 106.72 859.825 485.885
1238 0 75.1337 12.7639 959 105.338 860.014 485.349
1239 0 77.247 13.0879 1011 106.495 859.588 483.772
1240 0 80.1897 12.8196 1028 106.157 860.012 485.685
1241 0 81.2888 13.0276 1059 106.695 860.623 482.245
1242 0 84.2067 13.0868 1102 106.314 860.198 480.464
1243 0 85.2679 13.3344 1137 107.338 859.605 478.793
1244 0 88.2139 13.762 1214 107.052 859.943 476.582
1245 0 90.1701 13.3636 1205 108.546 860.532 475.584
1246 0 94.2086 13.8841 1308 106.924 860.576 475.066
1247 0 98.2746 13.9711 1373 108.358 859.541 471.942
1248 0 100.218 13.9696 1400 109.149 859.569 470.174
1249 0 101.32 14.2717 1446 109.535 858.741 469.886
1250 0 106.264 14.4921 1540 108.571 859.656 468.806
1251 0 107.223 14.1947 1522 110.312 859.813 467.168
1252 0 109.231 13.6317 1489 112.353 859.938 465.807
1253 0 116.288 14.1373 1644 113.682 859.909 464.598
1254 0 117.203 13.7027 1606 108.769 860.828 465.696
1255 0 120.149 13.1087 1575 108.383 859.658 457.246
1256 1 52.0602 8.98958 468 90.2115 860.226 494.041
1257 0 51.0609 9.73347 497 89.6157 859.406 493.026
1258 0 53.0123 10.6579 565 87.7894 859.42 492.418
1259 0 54.1718 11.1128 602 90.3272 860.178 493.64
1260 0 57.1179 11.2399 642 89.3271 860.774 492.62
1261 0 60.1483 12.0702 726 87.7493 860.554 490.251
1262 0 62.2046 12.1374 755 87.4 860.74 490.009
1263 0 62.2664 11.242 700 89.7786 860.54 489.103
1264 0 65.2177 11.178 729 88.9534 861.06 489.413
1265 0 67.1868 11.4011 766 89.6867 860.602 488.23
1266 0 69.0508 11.5712 799 89.4343 859.365 487.971
1267 0 69.0912 10.971 758 97.4354 858.439 486.364
1268 0 73.0552 11.4708 838 95.4785 858.604 486.054
1269 0 75.123 10.7557 808 96.5087 858.395 484.678
1270 0 76.0761 10.5815 805 98.0857 857.933 482.655
1271 0 77.0972 11.0121 849 97.6078 858.828 482.558
1272 0 79.0755 10.9136 863 96.6199 858.076 480.589
1273 0 81.0525 11.0669 897 96.4002 858.659 481.259
1274 0 86.1193 11.1473 960 95.7458 858.252 479.291
1275 0 88.1498 11.2309 990 96.5646 859.245 475.644
1276 0 90.1259 10.9292 985 96.9868 859.753 475.091
1277 0 94.238 11.4816 1082 95.1858 860.192 475.476
1278 0 94.2736 11.4878 1083 97.832 860.409 471.812
1279 0 99.3657 11.2212 1115 97 859.569 470.615
1280 1 50.309 10.4156 524 87.1813 860.326 496.708
1281 0 51.288 10.5093 539 87.8386 859.859 494.399
1282 0 53.1036 10.6396 565 84.2513 859.241 494.519
1283 0 54.1754 10.8167 586 85.4932 859.718 495.266
1284 0 57.1226 10.8013 617 83.7148 859.89 493.956
1285 0 58.0599 10.5581 613 83.7047 860.741 492.315
1286 0 59.1381 10.9067 645 82.2713 860.358 491.479
1287 0 62.0998 10.2899 639 83.0626 860.51 490.729
1288 0 60.0983 9.58429 576 84.0278 860.674 487.406
1289 0 63.0909 11.0475 697 81.2023 861.125 487.631
1290 0 64.0682 9.50549 609 84.1544 860.972 487.903
1291 0 67.0783 10.7039 718 90.7994 861.926 486.013
1292 0 66.0928 10.7425 710 88.4986 861.425 482.69
1293 0 69.1654 10.2942 712 84.5829 860.406 478.729
1294 0 69.1194 10.1563 702 86.1439 861.014 478.044
1295 0 73.1208 10.4895 767 85.2621 860.755 478.005
1296 0 70.0827 9.20342 645 99.2016 859.892 475.453
1297 0 76.1568 10.4259 794 85.6234 859.791 478.134
1298 0 77.2111 10.1151 781 85.6504 860.197 475.012
1299 0 80.4543 9.39664 756 86.3915 860.241 472.759
1300 0 82.2327 10.0811 829 85.1532 860.338 471.856
1301 0 86.4072 9.40894 813 84.4084 860.025 471.154
1302 0 87.2316 9.56076 834 84.9305 860.278 467.911
1303 0 90.358 10.2813 929 84.6232 860.458 467.032
1304 0 90.2502 9.3961 848 87.0578 859.876 464.992
1305 1 43.0961 5.45293 235 82.2808 860.906 491.936
1306 0 45.1438 7.753 350 80.1486 860.64 489.363
1307 0 48.137 7.47866 360 79.7417 861.006 487.964
1308 0 51.1418 6.64818 340 80.3676 860.668 489.232
1309 0 52.1562 7.61176 397 79.7179 859.995 489.378
1310 0 56.0605 6.4573 362 80.0193 860.351 489.63
1311 0 61.255 8.5544 524 75.9389 860.521 489.626
1312 0 62.1965 9.59861 597 75.5745 860.625 488.3
1313 0 64.2352 9.6676 621 75.839 860.206 485.605
1314 0 64.234 9.6055 617 102.618 860.206 485.499
1315 0 71.1754 11.1836 796 73.4146 859.397 484.392
1316 0 74.2028 11.1047 824 74.3386 859.322 483.999
1317 0 74.227 10.7239 796 75.5804 859.202 482.845
1318 0 76.258 10.7661 821 76.4543 859.4 481.287
1319 0 79.2235 10.4009 824 77.557 859.648 480.26
1320 0 84.0611 11.1348 936 78.7276 858.983 480.088
1321 0 85.0872 10.9065 928 80.0873 859.216 477.996
1322 0 85.1526 9.5006 809 81.7862 859.084 474.514
1323 0 89.2298 10.8372 967 80.6391 859.038 472.781
1324 0 89.252 9.90454 884 83.2489 859.748 470.971
1325 0 94.2768 10.9147 1029 80.8552 860.086 471.021
1326 0 96.2929 11.2366 1082 80.3226 861.638 467.406
1327 0 98.2891 10.4996 1032 81.6696 859.764 466.518
1328 0 102.239 10.3385 1057 81.8051 860.977 466.232
1329 0 105.183 9.41214 990 83.6778 859.111 462.085
1330 0 110.284 10.3007 1136 82.4815 858.913 464.708
1331 1 57.0866 9.16152 523 73.2103 859.455 492.304
1332 0 57.1967 9.546 546 74.0403 859.095 490.742
1333 0 60.0979 9.81732 590 73.0186 860.197 489.073
1334 0 61.1406 10.7457 657 79.0715 861.998 487.843
1335 0 64.0808 10.9705 703 78.3101 861.903 488.64
1336 0 64.0988 9.51657 610 82.1902 861.082 486.789
1337 0 67.1418 10.3363 694 80.7349 861.895 485.084
1338 0 70.2088 10.0842 708 81.3319 861.65 487.319
1339 0 72.309 9.95727 720 84.3194 862.053 483.886
1340 0 74.186 10.285 763 85.8912 861.009 483.109
1341 0 76.1425 10.9006 830 85.3855 860.853 482.21
1342 0 82.1443 10.9198 897 84.3802 861.268 485.458
1343 0 85.2487 11.2729 961 85.6244 860.719 483.344
1344 0 90.2781 11.8412 1069 82.2703 859.333 482.981
1345 0 92.3197 12.435 1148 87.047 860.181 479.459
1346 0 93.3111 11.9707 1117 89.8424 859.733 477.844
1347 0 95.2837 11.576 1103 91.2684 859.605 476.811
1348 0 99.3993 12.2234 1215 90.0848 859.798 475.617
1349 0 103.406 12.3591 1278 88.838 859.553 475.742
1350 0 103.35 11.524 1191 92.9345 859.223 472.718
1351 0 109.339 11.9994 1312 91.5427 859.818 471.321
1352 0 112.394 12.2249 1374 92.3566 859.455 469.413
1353 0 115.444 12.0925 1396 91.3202 858.785 468.976
1354 1 64.1982 10.7635 691 88.1114 859.527 493.602
1355 0 68.1916 11.4384 780 87.0974 858.29 492.854
1356 0 70.0895 11.2 785 87.1312 856.927 491.871
1357 0 70.0763 11.7872 826 86.9939 856.699 490.65
1358 0 75.1709 11.5071 865 85.7387 857.044 488.81
1359 0 76.0651 11.4639 872 86.7649 857.483 488.927
1360 0 79.0465 11.5628 914 86.8534 857.39 488.06
1361 0 79.0675 11.3068 894 88.4105 857.764 486.244
1362 0 83.0453 11.0903 921 87.6558 857.184 486.194
1363 0 85.1266 11.383 969 85.8782 857.821 485.218
1364 0 88.1426 11.402 1005 86.3373 857.952 482.21
1365 0 89.1216 10.6484 949 88.3235 857.682 480.688
1366 0 91.0805 10.8915 992 89.374 857.472 477.231
1367 0 93.1351 10.2432 954 90.9518 857.395 477.844
1368 0 97.1192 11.213 1089 89.3526 857.388 475.648
1369 0 98.178 10.2569 1007 84.0308 858.19 476.038
1370 1 49.0872 8.94327 439 82.4806 859.934 500.487
1371 0 53.0673 10.873 577 78.5373 859.241 501.035
1372 0 54.1504 11.3942 617 85.5397 859.99 499.836
1373 0 55.0811 12.527 690 83.8232 860.593 499.381
1374 0 58.0936 12.0667 701 83.1854 860.652 501.136
1375 0 58.0554 11.5579 671 84.4069 860.276 498.548
1376 0 56.0543 11.6673 654 85.5963 860.02 499.673
1377 0 62.0376 12.6697 786 78.6934 859.922 497.24
1378 0 60.0684 12.1861 732 82.6708 859.78 496.801
1379 0 61.0949 11.0975 678 83.9115 860.075 499.058
1380 0 62.113 11.2215 697 89.5983 860.201 498.281
1381 0 61.1408 11.5635 707 92.3267 860.014 498.383
1382 0 64.1025 12.0432 772 92.1205 859.521 497.637
1383 0 65.169 12.0149 783 92.9106 859.379 497.097
1384 0 67.1663 11.8958 799 90.8523 859.04 496.937
1385 0 69.1871 12.3 851 89.3102 858.496 495.177
1386 0 70.3451 12.5666 884 87.8326 859.334 495.11
1387 0 73.5273 12.4444 915 87.2164 858.693 494.342
1388 0 73.5787 11.8784 874 88.2769 859.14 493.128
1389 0 76.5221 11.9704 916 86.2675 858.63 492.355
1390 0 77.4531 12.6528 980 86.4143 857.716 490.646
1391 0 81.5634 13.1431 1072 85.5457 858.056 488.24
1392 0 82.522 12.8329 1059 87.2106 857.969 488.256
1393 0 83.447 12.7506 1064 89.047 858.453 485.991
1394 0 84.507 12.2948 1039 90.9923 858.306 485.655
1395 0 84.507 12.354 1044 155.981 859.311 485.657
1396 0 94.4504 13.1921 1246 97.4101 858.099 482.498
1397 0 93.6647 12.9825 1216 99.9252 857.873 480.666
1398 0 96.1492 11.8878 1143 92.5258 857.038 480.9
1399 1 51.055 10.3418 528 91.6345 857.019 504.059
1400 0 53.1779 10.9256 581 88.2358 856.69 502.854
1401 0 54.1622 11.004 596 89.1493 857.334 502.928
1402 0 56.1355 11.7216 658 90.266 857.315 501.5
1403 0 55.0453 11.2816 621 92.971 856.332 501.448
1404 0 57.0471 11.5519 659 93.0046 856.504 499.716
1405 0 60.0387 12.3587 742 92.6671 856.391 498.489
1406 0 61.0395 11.5171 703 96.2048 856.684 497.915
1407 0 62.0715 12.0023 745 96.1195 856.844 499.762
1408 0 64.0328 12.1969 781 100.015 856.835 495.547
1409 0 64.0427 11.9608 766 107.315 857.05 495.376
1410 0 67.0535 11.7071 785 105.406 856.831 494.958
1411 0 68.083 11.4272 778 107.247 857.139 494.233
1412 0 69.2284 11.2959 782 108.024 857.058 493.239
1413 0 73.4371 11.4656 842 106.197 857.968 490.982
1414 0 71.4894 11.8479 847 108.107 857.639 489.519
1415 0 76.4783 12.2257 935 103.973 857.156 488.137
1416 0 78.5604 11.9526 939 105.72 857.363 485.69
1417 0 80.4492 11.9579 962 107.793 857.831 486.03
1418 1 43.2862 10.419 451 102.439 857.741 506.111
1419 0 43.1613 9.66143 417 105.17 857.18 506.122
1420 0 45.2509 10.2981 466 103.251 858.045 504.049
1421 0 45.2026 10.2206 462 102.491 857.4 505.494
1422 0 47.1429 11.3909 537 101.115 858.155 503.006
1423 0 48.0787 11.3772 547 104.525 857.304 501.461
1424 0 50.0655 11.5449 578 104.495 857.284 500.182
1425 0 50.0632 11.2058 561 99.0214 857.431 502.52
1426 0 48.0855 10.7517 517 102.745 857.522 501.81
1427 0 52.1206 11.0129 574 101.261 858.537 499.913
1428 0 52.1206 11.6653 608 101.283 859.112 500.78
1429 0 54.1058 12.1983 660 97.15 858.226 500.256
1430 0 56.0654 12.3784 694 97.2565 858.2 499.79
1431 0 58.0895 11.2241 652 99.227 858.368 498.847
1432 0 59.1038 12.2496 724 94.7818 858.728 498.664
1433 0 61.0882 12.0809 738 95.2426 858.501 496.673
1434 0 60.0729 11.536 693 98.3911 858.732 496.309
1435 0 63.1122 11.8361 747 97.4833 858.814 494.323
1436 0 65.1426 12.3422 804 96.6157 858.932 493.4
1437 0 67.1239 11.7693 790 97.9278 858.623 491.585
1438 0 68.0873 11.6762 795 97.078 858.814 489.309
1439 0 71.1282 12.2736 873 94.7927 858.733 488.451
1440 0 73.0625 12.2361 894 95.3378 858.832 488.706
1441 0 75.1701 12.199 917 96.3413 858.821 485.893
1442 0 74.1255 11.3996 845 98.8947 858.636 485.15
1443 0 77.1416 12.2761 947 98.2344 858.725 482.529
1444 0 80.1355 12.9031 1034 96.177 859.034 481.996
1445 0 82.1824 11.6692 959 100.406 858.622 477.871
1446 0 83.0958 12.0343 1000 101.861 858.891 474.949
1447 0 86.1647 11.8146 1018 101.717 858.34 473.86
1448 0 89.1347 11.9033 1061 100.655 858.723 473.356
1449 0 90.1738 11.8105 1065 101.09 858.279 469.989
1450 1 50.0976 8.82277 442 95.0294 858.321 493.998
1451 0 50.1068 9.75915 489 94.591 858.184 493.092
1452 0 48.0069 9.74859 468 95.2479 857.6 488.989
1453 0 50.0446 10.4307 522 92.8831 858.209 485.282
1454 0 60.0454 10.975 659 91.4537 859.216 490.123
1455 0 58.0511 10.4046 604 87.3891 859.649 492.54
1456 0 62.1618 10.7622 669 87.2451 859.416 491.622
1457 0 60.08 9.97004 599 89.9349 859.511 490.798
1458 0 64.0812 10.3463 663 91.7587 859.557 490.333
1459 0 68.1127 11.202 763 88.3408 858.81 489.596
1460 0 68.1619 10.0349 684 93.5863 858.75 490.256
1461 0 72.0777 10.4193 751 93.4714 858.919 488.165
1462 0 74.1618 10.4097 772 92.7889 858.472 486.664
1463 0 77.1335 10.968 846 93.3924 858.723 484.279
1464 0 81.1003 10.9124 885 93.6622 858.588 485.742
1465 0 83.0629 11.2204 932 93.4506 858.612 484.461
1466 0 84.0966 11.2371 945 94.763 858.61 482.226
1467 0 88.1172 11.4166 1006 94.494 858.297 479.446
1468 0 90.2092 11.7061 1056 94.1581 859.406 477.828
1469 0 93.048 11.4242 1063 93.9605 858.404 476.753
1470 0 97.0714 11.6718 1133 91.6655 858.312 475.33
1471 0 99.0674 11.0127 1091 94.1347 857.84 473.564
1472 0 102.113 11.2327 1147 94.3766 857.723 472.555
1473 0 102.123 11.2707 1151 123.214 857.707 472.308
1474 1 59.0638 10.8019 638 85.6317 857.893 493.53
1475 0 59.0795 9.73264 575 89.0661 858.652 494.581
1476 0 60.0895 9.55242 574 90.5174 859.044 494.202
1477 0 62.1123 9.67602 601 88.7155 858.679 493.118
1478 0 65.0769 9.71159 632 89.1598 858.494 488.973
1479 0 68.0598 10.3585 705 89.366 858.833 488.237
1480 0 69.1175 9.99747 691 91.4385 858.237 487.485
1481 0 73.1437 10.035 734 89.0654 859.086 486.654
1482 0 74.177 10.9872 815 89.3472 858.655 484.113
1483 0 75.1336 10.4081 782 93.844 858.303 483.247
1484 0 79.1363 11.2717 892 92.4271 858.618 483.776
1485 0 82.141 10.7133 880 89.7193 858.334 480.197
1486 0 86.3026 11.6914 1009 88.2547 858.134 480.639
1487 0 87.1756 10.6452 928 91.4138 858.292 479.408
1488 0 92.2692 11.6507 1075 89.7126 858.807 477.694
1489 0 93.2468 11.239 1048 97.6584 858.96 474.365
1490 0 93.26 11.2374 1048 134.719 858.97 474.552
1491 1 52.0744 10.2546 534 86.7228 859.524 499.916
1492 0 53.0802 10.795 573 86.9023 859.288 497.611
1493 0 55.0506 11.4803 632 85.8734 859.666 496.187
1494 0 54.055 10.9888 594 87.0673 859.049 495.707
1495 0 56.0883 10.9827 616 86.2078 859.188 494.526
1496 0 56.0372 10.1897 571 87.8126 858.849 495.364
1497 0 61.1693 11.4436 700 95.7857 860.266 493.239
1498 0 61.1672 11.7383 718 96.6894 859.72 493.063
1499 0 65.2499 11.6629 761 95.975 860.003 492.014
1500 0 67.23 11.959 804 94.5224 859.57 491.019
1501 0 69.2323 12.2342 847 93.9256 859.217 489.978
1502 0 69.2185 11.861 821 94.4361 859.935 489.177
1503 0 72.2055 12.1459 877 93.3558 859.67 486.649
1504 0 74.317 12.7023 944 92.9047 859.72 487.398
1505 0 74.227 12.0307 893 95.6752 860.134 485.465
1506 0 77.1889 12.4888 964 94.8838 860.052 485.234
1507 0 81.2021 12.9553 1052 92.9002 859.976 483.964
1508 0 81.1953 12.8086 1040 94.2846 860.262 482.685
1509 0 85.1598 12.5764 1071 94.7507 860.346 482.735
1510 0 88.241 13.0212 1149 93.3159 859.89 480.839
1511 0 90.182 12.7409 1149 94.7102 860.096 478.791
1512 0 91.1753 13.1724 1201 95.2689 859.52 477.754
1513 0 93.1617 11.8611 1105 98.1077 859.068 476.521
1514 0 96.2147 12.6072 1213 96.4435 858.89 474.464
1515 0 100.232 12.7405 1277 96.1676 859.463 474.312
1516 0 103.147 13.3208 1374 94.3916 859.841 473.555
1517 0 106.164 13.5451 1438 94.2712 859.556 471.354
1518 0 109.176 13.8859 1516 94.1187 859.375 470.477
1519 0 112.139 13.8221 1550 94.8581 859.246 469.491
1520 0 113.136 13.1612 1489 97.8522 859.535 467.755
1521 0 118.13 13.1803 1557 96.7309 860.293 465.294
1522 0 122.159 13.6543 1668 96.6517 860.014 460.428
1523 0 125.119 13.587 1700 96.6947 859.248 460.854
1524 0 129.113 13.6702 1765 98.7637 859.441 458.897
1525 0 133.206 13.588 1810 97.847 859.606 456.565
1526 0 138.148 13.6954 1892 96.9434 859.99 453.916
1527 0 141.142 13.1711 1859 98.6417 859.861 450.518
1528 0 147.168 14.2083 2091 98.1368 859.876 450.704
1529 0 150.056 13.9414 2092 99.9025 859.463 448.835
1530 0 155.129 13.5758 2106 99.9549 860.345 447.497
1531 0 160.141 13.8315 2215 99.2479 860.488 446.064
1532 0 164.137 14.165 2325 101.041 860.418 444.036
1533 0 169.153 13.5972 2300 103.704 861.094 440.366
1534 0 174.16 13.9412 2428 100.791 860.222 437.109
1535 1 88.0414 10.5859 932 93.5569 859.813 482.915
1536 0 92.0749 11.5884 1067 94.1068 858.829 479.453
1537 0 95.1743 12.703 1209 88.4764 859.31 478.464
1538 0 98.1786 13.0782 1284 98.4564 859.561 477.181
1539 0 100.043 12.6246 1263 86.1378 859.322 476.261
1540 0 100.064 10.913 1092 84.0348 859.283 472.665
1541 0 105.066 11.5071 1209 82.3234 859.39 474.057
1542 0 106.111 10.9319 1160 84.0707 859.07 471.247
1543 0 109.069 11.5523 1260 88.4064 859.132 472.845
1544 0 114.107 11.2701 1286 84.217 859.844 468.073
1545 0 115.108 9.77342 1125 88.0178 859.983 468.644
1546 0 120.1 10.4163 1251 87.4037 859.464 464.316
1547 0 127.088 11.1183 1413 86.8436 859.856 462.954
1548 1 56.0422 11.2772 632 80.1503 858.797 497.938
1549 0 57.1224 11.3266 647 80.0433 860.034 496.122
1550 0 59.1011 11.5565 683 79.6955 860.129 495.751
1551 0 59.0979 11.1848 661 83.2421 861.274 494.929
1552 0 61.1292 11.0422 675 83.8356 861.132 496.839
1553 0 64.2057 12.1485 780 82.7526 861.162 495.173
1554 0 67.1951 12.6795 852 81.9214 861.03 494.036
1555 0 68.2578 12.907 881 83.235 860.488 492.26
1556 0 72.1383 12.1988 880 82.3239 860.85 490.517
1557 0 70.1614 12.2432 859 84.9511 860.829 491.446
1558 0 74.2009 11.5228 855 85.4561 860.903 488.672
1559 0 75.1455 11.4445 860 88.3512 861.113 488.49
1560 0 78.196 12.3664 967 84.4136 861.228 487.485
1561 0 79.2895 11.0733 878 87.1902 860.538 486.99
1562 1 37.0357 11.1244 412 89.1529 861.478 506.779
1563 0 39.1361 11.1406 436 87.617 861.289 506.466
1564 0 42.0951 11.7828 496 84.3609 861.036 504.942
1565 0 43.1955 11.6447 503 84.4433 861.105 503.302
1566 0 44.1826 12.1994 539 82.5826 860.859 501.755
1567 0 46.1379 12.3543 570 81.6386 860.221 500.858
1568 0 49.131 11.3777 559 95.1342 861.238 499.145
1569 0 52.1928 12.0515 629 92.6979 861.091 497.27
1570 0 53.1378 12.1006 643 92.7932 860.729 497.645
1571 0 55.2452 11.4218 631 92.8193 860.602 496.742
1572 0 56.1916 12.5464 705 89.2752 860.224 495.53
1573 0 59.1299 13.3266 788 86.25 860.293 496.789
1574 0 59.1081 12.7732 755 84.9682 860.192 495.057
1575 0 61.1278 12.9892 794 84.6222 859.708 495.025
1576 0 63.0981 13.1383 829 84.2774 860.069 496.333
1577 0 64.1052 13.0879 839 86.472 859.244 493.344
1578 0 65.127 13.2817 865 87.778 860.096 491.961
1579 0 68.1079 13.1409 895 87.4279 859.031 490.677
1580 0 68.2005 12.5659 857 89.4002 858.454 488.965
1581 0 72.0624 12.6279 910 88.8824 858.201 488.292
1582 0 73.1258 13.3058 973 88.2724 858.379 487.237
1583 0 75.2306 13.4387 1011 87.7943 858.463 484.896
1584 0 78.3017 12.9371 1013 89.2478 858.364 484.113
1585 0 80.2752 13.0177 1045 89.6469 858.361 483.184
1586 0 83.1874 12.9827 1080 90.9009 858.567 483.249
1587 0 84.2082 13.1816 1110 91.9496 858.895 481.479
1588 0 86.1625 12.6853 1093 94.3962 858.714 481.652
1589 0 89.3102 12.8653 1149 93.9826 858.238 479.214
1590 0 92.1472 13.0118 1199 94.553 858.303 476.746
1591 0 95.2752 12.8995 1229 96.4166 858.434 477.006
1592 0 96.2267 12.9486 1246 97.7183 859.133 474.723
1593 0 96.237 12.9576 1247 145.229 860.129 474.579
1594 0 103.202 13.0521 1347 99.2494 858.591 472.094
1595 0 107.267 13.527 1451 100.311 858.115 469.914
1596 0 110.308 13.7795 1520 100.647 858.158 466.579
1597 0 114.239 13.6293 1557 101.096 857.708 465.685
1598 0 117.222 13.6238 1597 101.62 857.703 462.545
1599 0 120.197 13.4446 1616 102.275 857.863 463.13
1600 1 61.0682 13.1984 806 104.857 858.14 487.681
1601 0 63.2099 12.6721 801 105.373 858.734 487.546
1602 0 64.1036 13.6186 873 105.318 858.701 485.629
1603 0 69.1223 14.4237 997 102.206 858.772 485.79
1604 0 72.1053 14.4233 1040 102.416 858.911 486.66
1605 0 74.1858 13.7627 1021 104.175 858.353 485.315
1606 0 75.1752 14.4329 1085 103.873 858.549 483.747
1607 0 80.1198 13.7419 1101 102.568 858.15 482.597
1608 0 81.1905 14.6199 1187 101.102 858.611 480.836
1609 0 84.0697 14.7259 1238 101.805 858.504 479.15
1610 0 86.1964 14.4438 1245 103.255 858.336 477.174
1611 0 89.1449 14.4372 1287 102.287 858.155 476.496
1612 0 92.1647 14.6477 1350 101.821 858.162 474.241
1613 0 94.1906 14.7042 1385 105.376 858.428 473.035
1614 0 96.122 14.4296 1387 107.212 858.452 473.169
1615 0 101.233 15.2816 1547 104.156 858.503 471.941
1616 0 104.21 14.8931 1552 107.108 858.082 467.786
1617 0 105.232 14.4822 1524 109.303 858.905 467.493
1618 0 110.314 14.7397 1626 108.367 858.308 465.351
1619 0 112.289 14.5785 1637 110.48 858.55 462.458
1620 0 117.333 14.6506 1719 110.016 859.01 462.447
1621 0 120.277 14.5415 1749 109.985 858.391 459.368
1622 0 125.295 14.4698 1813 111.067 858.999 456.323
1623 0 128.226 14.3341 1838 112.532 858.606 455.417
1624 0 133.373 14.5532 1941 111.547 858.533 452.754
1625 0 139.418 15.0411 2097 111.443 858.59 450.548
1626 1 77.2407 10.3572 800 104.115 860.101 481.705
1627 0 80.2114 10.971 880 103.427 860.516 479.836
1628 0 83.2163 12.4134 1033 101.64 860.046 477.801
1629 0 84.1076 11.6636 981 104.063 858.005 474.989
1630 0 85.0773 10.3083 877 97.0091 858.569 477.505
1631 0 89.1638 10.6545 950 95.4495 858.548 476.904
1632 0 93.236 10.8756 1014 94.9882 858.281 474.695
1633 0 97.0715 11.6512 1131 92.7418 858.113 472.015
1634 0 102.083 10.854 1108 91.8619 857.099 471.54
1635 0 106.141 10.9006 1157 92.7848 858.068 467.177
1636 0 110.131 11.0232 1214 92.7776 857.414 466.404
1637 1 64.1013 9.71899 623 87.2841 857.067 488.787
1638 0 66.0804 10.6234 702 86.0926 857.746 489.246
1639 0 67.1258 10.1749 683 86.1157 857.628 487.234
1640 0 67.0959 9.77705 656 88.0594 858.169 487.049
1641 0 71.1083 9.4363 671 87.1774 858.522 485.869
1642 0 72.1813 10.3489 747 87.0509 858.383 483.042
1643 0 73.1602 9.36302 685 89.454 857.544 482.426
1644 0 76.1264 8.78801 669 90.0673 858.266 481.326
1645 0 79.1469 10.0699 797 87.5834 857.661 481.093
1646 0 82.1647 9.79739 805 89.0832 858.735 478.184
1647 0 84.1266 9.36683 788 89.9467 858.722 475.694
1648 0 88.1028 10.624 936 87.8846 858.857 476.976
1649 0 90.1875 10.1566 916 88.5633 859.022 474.898
1650 0 92.1038 10.1082 931 88.2041 858.362 472.916
1651 0 97.1287 9.29694 903 90.0731 858.715 470.18
1652 0 99.1914 9.33549 926 90.9708 858.333 467.495
1653 0 100.131 9.56743 958 92.3434 858.054 466.152
1654 0 103.276 9.33425 964 92.694 857.69 464.276
1655 0 105.163 9.26181 974 94.1786 857.891 462.396
1656 0 108.218 8.77855 950 94.7947 857.237 458.415
1657 1 57.0365 8.39813 479 89.3612 857.403 490.376
1658 0 60.0658 9.02343 542 91.1937 856.792 490.083
1659 0 59.07 7.97359 471 93.0998 857.724 488.622
1660 0 61.0431 8.7643 535 90.5888 857.908 487.65
1661 0 63.1177 9.7437 615 89.1236 858.885 487.39
1662 0 67.2372 9.44418 635 88.5039 858.709 487.198
1663 0 67.1898 8.82575 593 90.3103 858.401 484.739
1664 0 69.1975 8.93096 618 89.7314 859.074 485.987
1665 0 69.1504 8.98043 621 88.8309 858.828 481.432
1666 0 69.2223 9.23113 639 87.6338 858.966 482.199
1667 0 72.3225 8.64184 625 90.1776 858.926 478.6
1668 0 75.3119 9.20173 693 89.8802 858.616 477.986
1669 0 78.1255 8.69114 679 85.9043 858.05 477.44
1670 0 80.0229 8.7225 698 90.5244 859.936 479.718
1671 0 80.2165 8.97571 720 89.7167 858.485 475.435
1672 0 86.2872 9.75811 842 89.3575 858.473 478.215
1673 0 86.2707 9.69043 836 91.0754 858.267 475.327
1674 0 88.4488 9.47441 838 92.8317 858.575 476.149
1675 0 89.4402 9.66009 864 94.0995 858.331 474.285
1676 0 90.594 9.64744 874 96.5503 858.001 469.49
1677 0 94.4528 10.3332 976 96.2438 858.154 467.219
1678 0 93.2524 9.233 861 100.095 858.61 466.984
1679 0 98.416 10.1203 996 100.444 858.232 464.107
1680 0 100.495 10.8264 1088 98.8438 857.775 466.074
1681 0 102.433 10.1628 1041 99.3285 858.095 463.908
1682 0 106.508 11.2761 1201 96.1848 857.581 463.717
1683 0 108.454 10.9539 1188 96.7567 858.203 462.992
1684 0 109.343 10.7368 1174 99.6627 858.679 460.605
1685 0 113.37 11.1582 1265 98.4988 859.138 462.93
1686 0 118.347 11.4494 1355 98.5498 857.908 460.911
1687 0 116.315 10.8154 1258 136.243 856.942 458.884
1688 0 121.427 10.9778 1333 101.429 858.533 454.197
1689 1 52.2802 8.95176 468 88.8419 859.237 495.299
1690 0 53.1976 9.15454 487 87.4846 858.002 492.618
1691 0 54.0823 10.2436 554 84.5343 858.116 493.821
1692 0 54.0332 10.1604 549 88.5501 859.537 492.209
1693 0 53.1267 9.80674 521 92.9424 856.996 494.058
1694 0 55.1143 10.3784 572 94.1171 856.841 493.729
1695 0 57.1369 9.83602 562 96.6157 856.603 492.746
1696 0 58.2366 10.6634 621 99.343 857.253 489.659
1697 0 60.1062 10.3483 622 96.9502 856.707 490.534
1698 0 61.1869 10.5742 647 97.8037 857.376 488.505
1699 0 62.2046 10.7548 669 97.4395 857.208 488.221
1700 0 67.104 10.521 706 97.0878 857.276 487.203
1701 0 66.1614 9.85469 652 100.313 856.995 486.983
1702 0 69.1631 10.7283 742 98.7749 857.675 485.858
1703 0 70.1389 10.8356 760 99.625 857.771 485.853
1704 0 73.1496 10.8955 797 99.2635 857.346 483.13
1705 0 75.2127 10.5301 792 100.527 857.038 483.444
1706 0 77.2351 10.7335 829 100.376 857.867 483.046
1707 0 80.1488 11.3664 911 99.7376 857.482 481.03
1708 0 82.29 11.1678 919 101.018 857.663 479.025
1709 0 85.1664 11.0724 943 101.435 856.551 478.522
1710 0 88.1392 11.2663 993 101.244 856.863 475.842
1711 0 92.1297 11.4404 1054 102.487 857.498 475.096
1712 0 94.256 11.5961 1093 102.254 857.551 472.11
1713 1 50.2302 9.35691 470 96.4298 857.981 495
1714 0 48.0419 9.49171 456 87.8509 857.57 491.276
1715 0 50.1611 9.5891 481 88.738 858.173 484.871
1716 0 53.2402 10.2179 544 88.136 858.241 480.434
1717 0 52.1744 9.19992 480 82.8688 859.152 488.515
1718 0 54.037 8.8828 480 82.6583 857.894 492.675
1719 0 56.018 10.4609 586 89.6382 857.123 497.323
1720 0 59.0327 10.3502 611 89.4517 856.732 496.383
1721 0 57.0668 9.97078 569 93.58 857.858 495.243
1722 0 61.0578 10.0233 612 91.2418 857.784 493.935
1723 0 64.0549 10.8969 698 92.851 857.289 490.762
1724 0 64.1202 9.90327 635 91.6016 858.496 491.402
1725 0 67.0814 11.2252 753 89.7968 858.823 489.349
1726 0 68.1049 10.2929 701 92.0399 858.94 486.705
1727 0 72.0957 11.1657 805 90.8261 857.584 487.299
1728 0 73.0648 10.9355 799 92.0263 857.091 481.68
1729 0 75.0334 11.2083 841 91.3793 857.01 482.215
1730 0 77.0326 9.86595 760 91.6013 858.078 484.45
1731 0 81.0413 10.8216 877 89.8905 858.068 483.115
1732 0 83.0871 10.3867 863 89.73 858.031 482.096
1733 0 86.1184 10.4507 900 88.9222 856.852 481.071
1734 1 47.0905 10.5542 497 91.5171 857.757 499.29
1735 0 45.0494 9.65607 435 91.0851 857.501 499.062
1736 0 48.0262 10.0362 482 86.749 857.82 499.129
1737 0 50.0276 10.954 548 85.7482 857.588 498.434
1738 0 54.0801 12.1671 658 88.424 857.506 498.386
1739 0 53.0626 12.3062 653 85.0781 858.116 498.063
1740 0 54.0492 12.2296 661 85.3949 858.641 498.333
1741 0 53.0626 12.5889 668 86.0569 858.62 495.951
1742 0 58.1083 12.58 731 83.2722 858.094 496.844
1743 0 60.0958 12.9959 781 82.2049 858.147 495.407
1744 0 60.0899 13.2635 797 82.5232 858.496 494.198
1745 0 61.0981 13.2574 810 83.8691 858.309 492.783
1746 0 62.049 13.1348 815 85.827 857.627 492.32
1747 0 66.0491 13.6262 900 84.6522 857.65 491.06
1748 0 68.0386 13.507 919 85.6126 857.939 491.665
1749 0 69.0531 13.5982 939 87.147 858.426 490.162
1750 0 72.1318 14.0437 1013 86.923 858.48 487.934
1751 0 72.0701 14.0835 1015 89.1941 857.638 487.93
1752 0 76.1552 13.4068 1021 91.2165 858.08 486.964
1753 0 78.1174 14.491 1132 89.5716 857.954 486.583
1754 0 80.1382 13.8386 1109 91.9549 857.395 484.462
1755 0 84.048 14.3727 1208 91.0364 857.767 484.022
1756 0 86.0689 14.2793 1229 92.1326 857.211 483.01
1757 0 86.0842 14.2651 1228 94.5529 858.069 481.713
1758 0 89.095 13.4463 1198 96.3806 858.07 480.385
1759 1 43.0281 10.6907 460 98.4217 857.509 500.265
1760 0 46.1491 11.1811 516 97.7752 858.676 497.395
1761 0 46.1367 11.6393 537 98.4469 859.629 491.866
1762 0 49.2271 12.4525 613 100.794 858.237 498.274
1763 0 51.3387 12.3883 636 101.171 858.426 499.748
1764 0 52.2035 12.8918 673 101.924 857.633 498.319
1765 0 52.2038 12.9876 678 101.962 858.209 498.288
1766 0 54.284 13.0241 707 102.356 858.174 497.532
1767 0 54.0428 12.2681 663 101.43 857.259 497.9
1768 0 55.0557 12.3148 678 101.724 857.195 497.395
1769 0 56.0596 13.0219 730 101.232 857.241 495.793
1770 0 58.0555 12.0058 697 102.339 857.532 496.478
1771 0 60.1259 12.6568 761 100.234 857.155 494.817
1772 0 62.0471 12.6678 786 100.001 857.125 494.198
1773 0 65.1001 12.9339 842 98.6734 857.352 492.378
1774 0 66.0982 12.663 837 100.369 857.743 491.048
1775 0 67.0827 12.4622 836 100.791 857.437 489.13
1776 0 71.0574 13.2569 942 96.9873 857.338 488.589
1777 0 72.0386 12.7015 915 99.0754 857.791 487.62
1778 0 73.0696 12.8781 941 99.3475 858.404 487.098
1779 0 76.148 13.0929 997 99.4784 858.474 485.998
1780 0 78.044 12.9414 1010 99.6277 858.106 483.659
1781 0 81.1414 12.9897 1054 98.9744 857.709 482.449
1782 0 81.1655 12.3821 1005 101.658 857.937 482.152
1783 0 85.3092 12.9177 1102 98.922 858.463 481.182
1784 0 88.2242 13.4317 1185 97.8068 859.111 477.173
1785 0 91.3484 13.4759 1231 97.606 858.763 475.567
1786 0 92.294 12.9586 1196 100.238 858.714 474.094
1787 0 98.3061 12.9087 1269 98.7029 858.589 473.322
1788 0 100.258 12.787 1282 98.5928 858.818 473.541
1789 0 99.1939 12.0774 1198 96.4324 858.902 464.918
1790 0 104.219 12.2914 1281 94.0945 858.587 465.347
1791 1 53.041 9.74717 517 86.3133 857.938 488.797
1792 0 54.0568 10.9514 592 83.1182 857.649 486.274
1793 0 58.0098 11.6187 674 87.2864 858.055 494.374
1794 0 60.0395 11.7589 706 86.67 857.993 493.603
1795 0 61.077 11.4609 700 87.4057 858.019 491.819
1796 0 65.0667 11.4344 744 88.1411 857.683 490.587
1797 0 65.0415 12.0231 782 89.22 858.221 490.312
1798 0 68.0968 11.4836 782 90.3926 857.922 488.224
1799 0 71.0616 11.3282 805 91.3317 857.964 486.65
1800 0 73.0678 11.9752 875 90.9326 857.963 487.206
1801 0 73.0564 12.1276 886 95.3476 857.296 486.109
1802 0 77.079 11.7412 905 95.1691 857.231 486.202
1803 0 79.0435 12.4742 986 94.4513 856.851 485.069
1804 0 81.0398 11.8584 961 95.3632 857.118 480.165
1805 0 84.0338 12.1737 1023 94.4692 856.723 480.687
1806 0 88.0421 12.5281 1103 93.4352 857.329 479.988
1807 0 90.0471 12.4601 1122 95.3289 857.336 479.966
1808 0 90.042 12.683 1142 96.7058 857.278 477.894
1809 0 94.0541 12.1419 1142 98.0683 857.055 475.939
1810 0 97.0628 13.0122 1263 96.1108 856.939 473.59
1811 0 99.084 13.0092 1289 98.2002 856.652 473.868
1812 0 104.104 12.6508 1317 98.3523 856.901 471.211
1813 0 106.217 12.4462 1322 97.9743 856.921 471.3
1814 1 57.1896 11.4007 652 88.2822 856.88 495.452
1815 0 58.1144 11.3913 662 86.6934 856.959 494.736
1816 0 60.1469 12.0039 722 79.4127 857.053 494.681
1817 0 63.1441 12.1152 765 78.315 857.276 493.159
1818 0 64.206 12.1484 780 77.5923 856.897 493.109
1819 0 66.1351 11.7184 775 79.0787 857.093 490.626
1820 0 67.1558 11.7637 790 79.119 857.267 490.406
1821 0 70.1305 11.6497 817 79.2142 857.785 488.754
1822 0 74.1629 11.2051 831 78.5584 858.262 485.733
1823 0 74.1381 11.546 856 78.1554 857.981 486.463
1824 0 79.0851 11.3675 899 78.2725 857.452 484.927
1825 0 80.0844 11.2881 904 79.3241 858.094 481.427
1826 0 85.0948 12.0101 1022 76.0636 858.31 481.094
1827 0 85.0996 10.2586 873 83.7274 857.986 477.884
1828 0 89.1668 10.7439 958 88.0772 857.662 476.212
1829 0 92.1443 11.3192 1043 82.8658 857.725 472.254
1830 0 95.1187 10.9758 1044 89.4291 858.265 471.03
1831 1 49.0386 8.95212 439 82.8337 856.904 496.948
1832 0 52.1133 10.2853 536 80.5112 856.882 497.05
1833 0 52.0545 10.854 565 80.4354 857.591 496.104
1834 0 53.0789 10.8518 576 79.7517 857.51 496.113
1835 0 55.0326 10.5756 582 78.012 857.038 495.1
1836 0 58.0476 10.5258 611 77.2831 857.435 494.103
1837 0 60.2072 11.2113 675 80.7867 857.8 491.939
1838 0 61.2322 12.0688 739 79.3884 857.49 491.313
1839 0 64.1022 11.5285 739 79.0852 856.731 491.244
1840 0 63.1489 11.0532 698 81.0014 857.092 489.612
1841 0 68.1162 11.2161 764 80.9725 857.44 486.97
1842 0 69.1189 10.7785 745 81.4309 857.321 485.533
1843 0 70.1034 11.5401 809 78.0705 857.644 483.702
1844 0 74.1707 11.5409 856 77.6308 858.252 482.123
1845 0 73.0626 11.018 805 80.7764 857.948 480.916
1846 0 78.1251 11.0208 861 80.1347 858.391 479.741
1847 0 81.1616 10.7933 876 81.3139 858.179 477.506
1848 0 81.1281 11.0566 897 82.0089 858.022 475.94
1849 0 85.1313 10.6071 903 82.4629 857.575 474.279
1850 0 86.1411 10.8427 934 82.4561 858.009 472.966
1851 0 91.1108 10.8659 990 81.1667 857.568 471.897
1852 0 92.187 10.5546 973 82.2929 858.084 470.744
1853 0 93.1159 10.3312 962 83.2599 857.335 467.867
1854 0 98.1352 9.85376 967 83.6184 858.373 467.361
1855 0 100.135 9.3773 939 85.885 858.491 464.413
1856 1 52.031 8.07211 420 74.481 858.376 494.269
1857 0 51.1625 9.12778 467 75.7944 859.492 483.227
1858 0 55.3986 9.85584 546 74.2619 860.201 480.658
1859 0 55.2672 10.3678 573 74.9494 859.845 481.035
1860 0 60.1018 10.4489 628 69.3917 857.986 489.694
1861 0 60.0465 9.94229 597 70.1977 857.658 488.472
1862 0 63.1039 10.7917 681 69.1189 857.996 487.667
1863 0 64.0586 10.1626 651 71.5745 857.734 487.131
1864 0 66.0747 10.8059 714 70.1989 857.829 486.964
1865 0 65.1959 9.64784 629 73.372 858.798 486.224
1866 0 68.1286 10.3774 707 73.1245 859.348 487.038
1867 0 69.1348 9.82139 679 74.9617 859.493 483.864
1868 0 73.1566 11.1542 816 79.5441 860.244 483.924
1869 0 74.2382 11.0051 817 81.0967 860.07 481.532
1870 0 79.2034 11.5904 918 78.7691 859.576 479.857
1871 0 83.1801 12.3707 1029 77.5326 860.126 478.568
1872 0 86.2326 12.0024 1035 77.2358 859.937 478.969
1873 0 88.2257 12.3433 1089 77.4968 859.439 475.902
1874 0 90.326 11.1485 1007 80.0467 858.397 474.125
1875 0 92.2591 11.6953 1079 80.203 859.493 470.676
1876 1 47.1524 9.09815 429 75.4592 859.538 487.569
1877 0 49.1211 9.66997 475 75.5979 859.076 486.556
1878 0 56.1112 11.2812 633 79.4218 859.626 490.842
1879 0 57.0539 11.8309 675 79.2785 857.293 491.533
1880 0 59.0166 11.878 701 78.6933 857.896 490.512
1881 0 59.0182 12.098 714 80.0196 857.744 487.123
1882 0 61.0185 12.3569 754 79.7931 857.171 488.683
1883 0 59.0463 10.6019 626 76.4952 856.575 489.647
1884 0 61.0353 11.2558 687 74.8632 857.303 488.789
1885 0 63.0366 10.7239 676 76.3698 858.328 486.999
1886 0 65.0278 10.9338 711 75.4374 857.793 486.57
1887 0 68.0386 11.126 757 74.8653 858.004 486.354
1888 0 70.0492 12.2343 857 74.6908 857.164 484.485
1889 0 72.1373 10.6741 770 76.7247 857.665 485.474
1890 0 76.0747 11.8436 901 74.4018 857.023 484.701
1891 0 76.0318 11.3242 861 77.2276 857.405 481.052
1892 0 79.059 11.4598 906 78.394 857.259 479.979
1893 0 82.0721 11.9529 981 78.5882 857.644 480.988
1894 0 85.1166 11.5136 980 81.1704 858.135 479.059
1895 0 87.104 11.5953 1010 81.4455 858.013 475.517
1896 0 90.0947 12.2094 1100 80.2418 857.729 475.272
1897 0 91.1271 12.2576 1117 81.2113 858.193 473.338
1898 0 94.0569 12.6625 1191 81.712 857.966 472.422
1899 0 96.0216 12.1014 1162 83.7212 857.251 472.358
1900 0 100.053 12.1336 1214 85.9926 856.911 469.668
1901 0 101.057 11.6567 1178 87.9474 857.279 469.053
1902 0 104.086 12.1054 1260 87.3746 857.239 467.774
1903 0 107.064 12.1142 1297 88.1557 857.484 467.37
1904 0 109.079 11.432 1247 88.9952 857.418 464.239
1905 0 112.107 12.5683 1409 91.8091 859.247 465.767
1906 0 114.126 12.9156 1474 92.3568 859.458 464.34
1907 0 117.127 12.7384 1492 93.6501 858.928 463.698
1908 0 122.205 13.3219 1628 95.3458 858.064 459.646
1909 0 122.12 12.2748 1499 93.926 857.381 451.58
1910 0 125.122 12.6677 1585 94.8095 857.946 446.474
1911 0 134.198 12.1537 1631 95.4819 857.649 446.081
1912 1 70.127 9.69669 680 81.3912 857.684 480.779
1913 0 73.0395 11.2679 823 77.9927 857.626 481.047
1914 0 76.1454 11.2285 855 78.5181 857.157 479.356
1915 0 76.1368 10.4943 799 86.4693 856.911 487.314
1916 0 78.1439 11.6196 908 87.0991 858.022 486.395
1917 0 80.1257 11.3946 913 88.4951 858.53 483.184
1918 0 84.1758 11.9987 1010 88.4673 858.95 481.838
1919 0 86.122 12.0062 1034 89.8046 858.797 480.701
1920 0 88.1379 12.7187 1121 88.4371 858.485 480.948
1921 0 94.1696 12.9978 1224 88.0621 858.938 478.309
1922 0 93.1604 12.1725 1134 91.7028 858.588 477.275
1923 0 99.2573 12.6741 1258 90.5827 859.366 476.278
1924 0 101.257 12.2658 1242 90.5105 858.431 473.202
1925 0 104.32 11.992 1251 91.2702 858.379 471.535
1926 0 108.189 11.9144 1289 91.519 858.135 472.598
1927 0 112.311 12.8037 1438 90.0772 858.006 469.648
1928 1 61.2997 11.8761 728 86.7143 858.459 494.26
1929 0 61.1782 11.7362 718 86.9123 858.139 493.011
1930 0 63.2396 12.8875 815 84.2356 857.957 490.027
1931 0 66.1664 12.4837 826 83.5278 858.344 491.766
1932 0 68.1758 11.8517 808 78.6349 858.313 492.66
1933 0 71.1971 12.4022 883 78.0714 857.971 491.692
1934 0 72.1102 12.1758 878 78.5148 858.183 487.375
1935 0 75.0924 12.2649 921 77.2421 856.59 487.256
1936 0 75.0386 11.634 873 79.5212 857.101 485.548
1937 0 79.2121 12.1699 964 80.0124 857.215 484.687
1938 0 83.3739 12.234 1020 78.8441 858.134 484.612
1939 0 84.1213 11.9114 1002 80.0768 858.113 483.192
1940 0 88.2568 12.203 1077 79.247 858.096 483.227
1941 0 91.1954 12.7419 1162 78.0938 857.877 481.745
1942 0 92.2114 12.2328 1128 80.8812 857.871 478.253
1943 0 96.1409 12.6585 1217 78.6771 857.948 478.821
1944 0 98.0745 12.4599 1222 80.4738 856.734 476.808
1945 0 104.163 12.9316 1347 78.3185 856.63 472.091
1946 0 106.261 12.3282 1310 79.5069 855.738 470.791
1947 0 110.303 12.1665 1342 85.2996 856.331 468.293
1948 0 115.172 11.3743 1310 84.7099 856.551 465.946
1949 1 58.0094 11.1878 649 76.0339 856.465 494.427
1950 0 59.1043 11.4882 679 76.5125 857.037 493.161
1951 0 62.1007 11.578 719 75.128 856.318 491.95
1952 0 63.1364 11.7682 743 75.2463 856.237 492.184
1953 0 67.1072 12.1894 818 74.7592 856.693 491.256
1954 0 69.0727 12.1321 838 75.1671 856.179 488.885
1955 0 70.107 12.3098 863 76.1008 856.676 487.738
1956 0 75.1928 12.0091 903 76.1274 856.792 487.653
1957 0 76.11 11.4702 873 79.1134 856.529 484.464
1958 0 79.1016 11.4031 902 77.6486 856.01 483.391
1959 0 83.1684 13.0338 1084 75.428 856.266 482.512
1960 0 85.2118 12.3574 1053 77.1928 856.354 482.675
1961 0 87.1478 12.932 1127 77.126 856.351 482.08
1962 0 91.0736 12.2977 1120 78.8196 856.862 479.543
1963 1 49.0369 10.5023 515 80.3243 856.2 499.709
1964 0 51.0497 11.2831 576 79.1337 856.872 499.642
1965 0 51.0244 12.0139 613 80.4927 856.419 497.63
1966 0 54.0197 12.1252 655 81.913 855.782 497.792
1967 0 54.0677 12.3364 667 80.1259 857.822 497.399
1968 0 54.0326 11.8077 638 81.8856 855.652 495.964
1969 0 57.0283 11.7485 670 81.4955 855.64 496.193
1970 0 58.022 12.2023 708 81.3008 855.405 494.237
1971 0 62.0311 12.0585 748 81.3275 855.785 493.524
1972 0 64.046 12.3349 790 81.7152 856.296 492.225
1973 0 66.0482 12.7634 843 82.2645 855.887 491.269
1974 0 69.0336 12.6605 874 83.5263 856.5 490.249
1975 0 68.0244 12.2309 832 86.5216 856.244 488.602
1976 0 72.0246 12.4124 894 84.0459 855.974 486.383
1977 0 74.1086 12.5357 929 83.7729 856.18 486.76
1978 0 76.0737 12.7902 973 84.4255 855.986 485.369
1979 0 79.0564 12.6112 997 86.5376 856.162 483.603
1980 0 82.0646 12.149 997 91.6901 855.7 482.558
1981 0 85.0838 12.6346 1075 90.0056 855.87 481.286
1982 0 88.1005 12.5538 1106 90.4864 856.366 480.13
1983 1 45.0023 10.955 493 91.9858 856.243 501.554
1984 0 45.0589 10.2533 462 89.803 856.638 496.626
1985 0 47.0398 10.9907 517 94.2263 856.147 500.006
1986 0 49.0041 12.2235 599 91.1452 855.601 498.84
1987 0 52.0426 11.5098 599 90.5442 855.244 499.851
1988 0 53.0199 12.0144 637 90.416 855.896 499.458
1989 0 55.0512 12.1523 669 90.7369 855.94 497.749
1990 0 55.0317 11.4843 632 93.6377 856.059 498.299
1991 0 56.0547 12.2559 687 94.4862 855.852 495.866
1992 0 58.2794 12.543 731 94.6553 856.617 494.424
1993 0 60.1217 12.5579 755 93.9497 856.261 494.248
1994 0 61.2295 11.8897 728 96.1305 856.003 494.152
1995 0 63.1834 12.709 803 95.2329 856.706 492.961
1996 0 66.1977 12.6591 838 95.0847 856.306 493.265
1997 0 66.2117 12.6715 839 144.552 856.311 493.298
1998 0 69.1991 12.4279 860 97.9779 856.021 490.79
1999 0 71.1752 13.1647 937 96.6532 856.519 489.585
2000 0 72.1996 12.8256 926 98.2322 856.211 489.455
2001 0 75.2626 12.8616 968 97.2138 856.366 487.388
2002 0 78.171 13.3425 1043 96.6961 856.276 486.086
2003 0 79.1212 13.4477 1064 96.5855 856.141 487.133
2004 0 83.2038 13.485 1122 96.1105 856.439 483.552
2005 0 84.1725 13.4129 1129 94.8175 855.558 484.679
2006 0 88.1316 13.2983 1172 95.058 856.061 482.914
2007 0 90.1774 13.1186 1183 95.5959 855.949 482.258
2008 1 46.1126 10.9514 505 94.6257 855.879 502.99
2009 0 48.0264 11.4937 552 93.5 856.395 500.875
2010 0 48.019 12.5992 605 85.9207 855.82 501.374
2011 0 49.0666 12.1875 598 88.4967 855.706 499.906
2012 0 51.0564 12.7898 653 84.2175 855.334 498.631
2013 0 54.0476 13.6176 736 81.2717 855.323 498.787
2014 0 54.0568 12.8938 697 84.4749 855.072 497.149
2015 0 55.0486 12.8614 708 83.6314 855.085 498.035
2016 0 57.0434 13.779 786 81.1336 855.528 495.592
2017 0 57.047 13.2522 756 84.1336 855.335 498.366
2018 0 57.0469 12.9718 740 86.4311 855.27 495.939
2019 0 61.0347 13.1073 800 83.6538 856.032 495.965
2020 0 61.0617 12.8231 783 84.4215 855.816 494.829
2021 0 63.0404 12.9599 817 84.5459 855.787 491.852
2022 0 64.0452 12.9128 827 85.8138 855.427 491.127
2023 0 65.0645 12.7566 830 86.9458 855.313 490.301
2024 0 69.1002 12.9377 894 85.6756 855.452 490.048
2025 0 68.0177 12.6438 860 86.9454 855.527 490.57
2026 0 70.0775 12.158 852 86.9014 856.471 489.994
2027 0 75.1278 12.4987 939 85.3727 856.46 489.616
2028 0 76.0247 12.3381 938 86.7878 856.148 486.996
2029 0 78.0529 13.0296 1017 86.6785 856.392 485.711
2030 0 79.0933 12.4031 981 88.37 856.843 482.303
2031 0 82.0438 12.1277 995 83.1879 856.656 480.931
2032 0 86.0694 12.2459 1054 83.2268 856.891 480.147
2033 0 90.0939 12.4426 1121 82.6583 856.465 479.303
2034 0 93.1903 13.1773 1228 83.8583 856.783 480.734
2035 0 96.2666 12.5693 1210 86.8512 856.163 476.587
2036 1 50.026 12.3736 619 88.2811 856.64 499.885
2037 0 51.0382 12.4025 633 89.8736 856.16 497.863
2038 0 52.0372 13.548 705 89.1376 856.714 496.515
2039 0 54.0744 13.2225 715 84.0685 857.66 497.281
2040 0 57.1202 12.5525 717 84.5063 857.597 496.42
2041 0 58.0374 12.9572 752 84.3324 857.375 495.746
2042 0 58.0429 13.0249 756 127.339 857.365 495.639
2043 0 63.0232 12.6303 796 85.4975 856.854 492.559
2044 0 65.0262 13.2562 862 84.7912 856.706 490.107
2045 0 67.0475 13.304 892 86.8879 856.608 488.144
2046 0 69.0628 12.9592 895 87.7911 856.299 488.592
2047 0 70.0392 12.2931 861 90.2636 855.677 487.628
2048 0 72.0281 12.3285 888 87.4155 856.728 483.214
2049 0 75.0313 12.3948 930 87.4151 855.882 483.713
2050 0 77.0397 12.3573 952 87.8624 857.096 482.965
2051 0 81.1744 12.9844 1054 85.6717 856.682 483.766
2052 0 84.0794 13.4991 1135 85.3013 856.804 481.707
2053 0 87.1428 13.1853 1149 86.322 856.598 479.636
2054 0 88.0709 13.2166 1164 89.8007 856.704 479.877
2055 0 90.0584 12.1699 1096 90.2582 856.864 478.03
2056 0 95.1014 13.0072 1237 89.169 856.576 474.93
2057 0 98.1496 13.3062 1306 88.1064 856.229 474.043
2058 0 103.15 13.7858 1422 86.2342 856.961 472.075
2059 1 52.0115 11.6705 607 83.7644 855.75 496.606
2060 0 55.2019 12.101 668 85.4596 857.326 496.15
2061 0 56.0183 12.8887 722 83.705 856.31 495.744
2062 0 59.0595 13.3425 788 81.9327 856.909 496.909
2063 0 60.0505 13.3055 799 81.826 856.982 494.03
2064 0 62.0311 12.8 794 81.5453 856.832 493.839
2065 0 64.0503 12.5683 805 82.1627 857.311 493.164
2066 0 65.1268 12.6062 821 81.6261 857.138 491.009
2067 0 70.0684 12.602 883 79.5096 857.364 490.932
2068 0 70.102 13.0239 913 78.8981 857.317 489.946
2069 0 74.049 12.9239 957 79.4713 857.5 489.275
2070 0 75.2056 12.7251 957 80.2602 857.505 488.222
2071 0 78.2251 13.4356 1051 80.6375 857.006 486.526
2072 0 79.1679 13.2377 1048 87.8903 856.625 485.096
2073 0 83.1929 12.2006 1015 89.2956 856.207 480.938
2074 0 85.1979 12.8407 1094 88.1526 856.408 479.123
2075 0 88.2046 12.5957 1111 89.7777 855.98 479.112
2076 0 88.2046 12.6297 1114 136.582 854.979 479.093
2077 0 92.3328 12.5416 1158 90.8558 856.11 473.978
2078 0 96.3515 11.8628 1143 92.6404 856.395 470.454
2079 0 100.265 12.806 1284 90.7165 855.561 468.048
2080 0 103.435 12.4523 1288 91.5559 855.3 465.471
2081 0 106.346 13.0706 1390 90.8748 855.75 461.291
2082 0 110.386 11.9852 1323 92.8541 856.133 459.321
2083 1 59.2129 11.2475 666 85.1922 856.432 487.303
2084 0 62.4123 10.9273 682 85.2771 856.613 486.655
2085 0 65.1842 12.0121 783 83.4687 857.239 486.22
2086 0 67.128 11.0982 745 88.1141 858.568 485.968
2087 0 68.0566 11.6668 794 87.4131 858.518 484.913
2088 0 74.1029 12.0238 891 85.5398 857.965 484.623
2089 0 75.0911 12.1053 909 82.2871 857.534 483.876
2090 0 77.1114 12.4495 960 85.6573 857.694 482.13
2091 0 80.0998 11.9975 961 90.744 858.226 479.444
2092 0 83.1669 11.7956 981 89.2793 857.824 478.655
2093 0 88.2152 11.8007 1041 89.902 857.938 477.504
2094 0 91.323 12.3737 1130 89.1858 857.702 476.669
2095 1 47.1852 9.24018 436 81.4908 859.376 501.736
2096 0 48.1671 10.9411 527 81.3681 858.404 497.051
2097 0 50.26 11.7191 589 80.5823 858.165 494.847
2098 0 52.4501 11.2107 588 80.3742 857.893 494.534
2099 0 55.1553 11.658 643 79.154 859.005 494.978
2100 0 56.1685 11.7147 658 80.348 858.489 495.416
2101 0 56.0833 11.2868 633 83.3602 858.487 492.948
2102 0 60.1901 11.7461 707 83.9024 858.409 492.907
2103 0 61.2121 11.6317 712 84.1798 858.048 492.576
2104 0 62.2923 11.719 730 84.726 858.781 490.374
2105 0 65.3198 12.3699 808 81.5223 858.093 488.83
2106 0 67.4034 11.676 787 81.9161 857.738 487.264
2107 0 71.4686 11.9073 851 80.6616 857.512 486.777
2108 0 71.471 11.5152 823 82.599 857.636 484.067
2109 0 74.4081 11.7057 871 83.1183 858.121 484.667
2110 0 76.3351 11.8032 901 83.1088 858.123 482.762
2111 0 77.3325 11.8967 920 83.313 858.05 478.163
2112 0 80.4148 11.9381 960 83.1 857.653 476.444
2113 0 83.3919 12.5552 1047 82.6332 857.333 474.902
2114 0 87.3306 12.7332 1112 81.2329 856.84 472.74
2115 0 88.2632 11.7829 1040 78.6788 857.324 473.605
2116 0 89.2616 11.0574 987 80.4194 856.936 473.065
2117 0 94.4905 11.5779 1094 80.021 856.713 472.212
2118 1 51.201 9.41389 482 77.6328 857.475 494.046
2119 0 52.1176 9.61288 501 78.026 858.018 493.543
2120 0 52.1693 10.2167 533 78.2533 857.852 493.058
2121 0 54.1584 10.9494 593 79.2007 857.868 490.69
2122 0 56.22 11.2771 634 83.448 857.811 489.292
2123 0 59.029 11.7569 694 80.4669 859.463 488.689
2124 0 62.1195 12.4599 774 80.7597 858.747 488.045
2125 0 64.1949 11.9168 765 82.0902 858.427 487.648
2126 0 65.1913 11.658 760 83.446 857.618 485.509
2127 0 65.1632 11.0492 720 85.4167 857.975 486.083
2128 0 67.2309 11.8993 800 84.6912 857.021 484.042
2129 0 69.1904 11.9525 827 84.1826 857.326 481.682
2130 0 72.1852 12.4679 900 81.9633 856.516 483.201
2131 0 72.2297 12.0172 868 84.9781 857.205 479.235
2132 0 75.1908 12.2089 918 84.6296 857.204 479.882
2133 0 75.1737 11.959 899 86.6062 857.152 478.541
2134 0 79.1939 13.0313 1032 84.2064 857.115 477.306
2135 0 81.1217 12.4504 1010 86.0564 857.588 476.433
2136 0 80.1354 11.9423 957 86.7074 858.042 475.822
2137 0 85.1795 12.5617 1070 86.9215 857.655 474.346
2138 0 86.1248 12.0523 1038 83.0713 857.238 473.174
2139 0 88.1338 11.596 1022 85.725 857.23 472.686
2140 0 92.0936 12.3353 1136 84.6153 857.041 473.013
2141 0 93.1299 11.6934 1089 87.2277 856.535 470.324
2142 0 96.1898 12.1427 1168 86.8664 856.846 469.314
2143 0 97.1572 12.0423 1170 88.9137 856.518 468.198
2144 0 101.136 12.5376 1268 88.586 857.337 465.309
2145 0 103.111 11.6186 1198 91.3114 856.987 464.775
2146 0 108.198 12.2461 1325 89.1004 856.564 460.666
2147 0 112.182 12.551 1408 88.8977 856.873 460.145
2148 0 114.122 12.1362 1385 90.1061 857.043 458.69
2149 0 119.218 12.7497 1520 88.9895 858.152 455.783
2150 0 123.177 12.9732 1598 89.5651 857.2 452.752
2151 0 129.244 12.6737 1638 90.8052 858.423 451.11
2152 0 131.204 12.6749 1663 92.2429 858.204 446.759
2153 0 137.198 12.2961 1687 91.4529 858.517 450.712
2154 0 144.431 12.1927 1761 92.5894 858.408 445.522
2155 1 74.3609 10.5835 787 85.7814 860.358 477.447
2156 0 75.3987 12.162 917 83.8833 858.891 476.142
2157 0 78.4537 11.8159 927 85.4865 859.578 474.669
2158 0 81.374 12.2275 995 84.4392 859.474 476.342
2159 0 84.2744 12.1745 1026 85.3801 859.435 474.69
2160 0 86.4024 12.2219 1056 85.5767 859.057 473.774
2161 0 87.3491 12.078 1055 86.836 860.198 472.636
2162 0 91.2694 12.3919 1131 86.7365 859.294 470.085
2163 0 93.2568 11.9777 1117 88.2372 859.749 467.924
2164 0 96.3337 12.384 1193 87.2867 859.45 466.248
2165 0 98.3149 11.87 1167 90.3788 859.426 466.039
2166 0 100.373 11.9354 1198 91.2412 859.431 464.609
2167 0 105.213 12.9927 1367 88.1748 859.529 463.065
2168 0 108.307 12.0398 1304 89.921 859.457 461.603
2169 0 109.16 11.4786 1253 85.7358 859.66 459.557
2170 0 114.225 11.5124 1315 85.1658 859.18 459.284
2171 0 117.35 12.1602 1427 85.946 859.599 455.324
2172 0 122.367 11.5636 1415 87.388 859.069 452.124
2173 1 41.1365 8.58118 353 73.6119 859.436 490.762
2174 0 45.0803 9.09488 410 73.3707 859.493 491.89
2175 0 48.0336 10.2845 494 76.4372 859.235 494.96
2176 0 50.0887 10.5014 526 77.4068 858.357 492.49
2177 0 52.2018 10.3636 541 78.0869 858.412 495.323
2178 0 52.2018 10.3445 540 127.322 858.411 495.196
2179 0 59.169 9.95453 589 78.3922 858.008 494.299
2180 0 58.1034 11.0321 641 78.1154 858.555 492.223
2181 0 58.111 11.4608 666 78.2387 858.077 489.797
2182 0 61.1351 11.3519 694 78.683 857.876 487.375
2183 0 62.0997 10.8535 674 80.8101 857.846 486.772
2184 0 65.1117 10.8122 704 81.9815 858.053 487.354
2185 0 66.1153 11.6917 773 83.357 858.039 485.807
2186 0 67.263 12.1166 815 84.3104 858.805 483.6
2187 0 68.2906 11.7293 801 86.437 858.607 483.564
2188 0 71.2794 11.8688 846 86.9338 859.066 482.666
2189 0 72.2506 11.8476 856 87.6285 858.963 483.266
2190 0 77.3376 11.4951 889 87.3363 859.498 480.736
2191 0 78.3699 11.6882 916 87.2205 859.214 479.681
2192 0 81.1991 12.0568 979 87.2554 859.365 480.392
2193 0 82.3133 12.0515 992 86.9476 859.353 479.274
2194 0 86.3119 12.7097 1097 86.4002 859.274 477.23
2195 0 87.3222 11.7725 1028 89.9251 858.843 476.602
2196 0 91.2898 12.8492 1173 86.4203 859.795 476.186
2197 0 94.2599 12.7944 1206 87.2852 859.404 475.929
2198 0 97.2182 12.4565 1211 82.0974 860.192 472.998
2199 1 50.0741 11.2633 564 82.8085 860.801 496.681
2200 0 53.1352 11.1602 593 81.3406 859.388 496.423
2201 0 54.0465 11.4716 620 81.45 859.223 494.702
2202 0 54.0213 11.551 624 78.5112 857.681 495.546
2203 0 53.0413 10.9726 582 82.3265 857.83 496.856
2204 0 54.0621 10.5804 572 84.2745 858.077 495.178
2205 0 57.0679 11.46 654 82.2049 857.841 495.431
2206 0 56.0465 11.1693 626 84.7556 857.879 493.569
2207 0 56.0403 11.2241 629 130.816 857.882 493.321
2208 0 59.0736 11.5111 680 85.2279 857.434 488.728
2209 0 62.0588 11.9725 743 82.8022 857.221 488.35
2210 0 61.1836 11.3266 693 86.6421 857.86 490.062
2211 0 63.1724 11.8406 748 84.3436 858.382 490.636
2212 0 66.1254 11.3421 750 85.6893 858.193 489.439
2213 0 70.1939 13.5197 949 79.8736 857.665 484.611
2214 0 70.2023 11.8657 833 85.1393 857.6 484.766
2215 0 71.251 11.2279 800 87.4162 858.118 485.149
2216 0 73.2321 11.88 870 86.5368 858.086 484.6
2217 0 74.2302 11.7203 870 88.4609 858.197 481.202
2218 0 79.2913 12.473 989 86.8271 858.152 481.312
2219 0 80.3169 11.8281 950 90.2442 858.607 477.991
2220 0 78.0476 11.8005 921 91.6851 857.216 479.218
2221 0 84.07 12.6085 1060 88.6038 857.916 478.156
2222 0 88.0423 13.5389 1192 86.2383 857.282 475.7
2223 0 91.0724 13.6814 1246 86.37 857.59 475.966
2224 0 91.1122 13.1376 1197 89.0585 857.556 473.404
2225 0 94.0525 13.9603 1313 88.5453 857.306 471.597
2226 0 98.0725 13.5002 1324 88.9313 856.898 471.385
2227 0 100.123 14.1726 1419 89.401 857.51 468.429
2228 0 102.148 14.1461 1445 91.3543 857.219 465.89
2229 0 105.074 13.8665 1457 93.2951 857.261 463.62
2230 0 110.129 14.1653 1560 92.5526 857.527 462.854
2231 0 112.149 13.9011 1559 93.4176 857.007 458.836
2232 0 115.157 13.7031 1578 96.3929 857.435 453.434
2233 0 118.142 13.8223 1633 95.1904 857.054 452.375
2234 0 122.298 14.62 1788 92.5526 856.904 450.271
2235 0 122.217 14.147 1729 96.0405 857.036 443.825
2236 0 127.314 13.832 1761 95.9801 856.645 442.27
2237 0 133.227 13.5258 1802 96.7342 856.673 439.333
2238 0 138.27 14.1824 1961 95.6094 855.93 436.814
2239 0 142.346 14.261 2030 94.6773 856.999 436.13
2240 0 147.283 14.3126 2108 94.5 856.954 432.396
2241 0 151.417 14.0077 2121 95.5823 856.913 429.74
2242 0 155.37 14.636 2274 94.9952 856.241 426.78
2243 0 161.38 14.1839 2289 96.3381 856.608 426.557
2244 0 165.325 13.8575 2291 98.2628 856.004 421.203
2245 0 171.455 13.6304 2337 99.0522 856.708 419.723
2246 0 175.433 13.7089 2405 98.5592 856.066 418.141
2247 0 180.392 12.7944 2308 101.029 856.035 414.851
2248 0 185.38 12.763 2366 101.169 856.215 411.115
2249 0 193.385 13.0207 2518 99.587 856.803 411.087
2250 0 198.319 13.4531 2668 97.196 856.346 402.857
2251 0 206.431 13.9223 2874 94.3629 856.646 402.334
2252 0 211.45 13.2608 2804 96.3577 856.524 399.043
2253 0 221.466 13.9344 3086 95.4339 856.497 396.815
2254 0 231.412 13.53 3131 94.916 856.715 394.254
2255 1 174.313 12.2539 2136 96.3731 857.277 417.304
2256 0 182.425 12.8108 2337 95.2948 857.282 416.154
2257 0 189.476 12.8987 2444 95.4689 857.124 411.353
2258 1 45.0263 9.1502 412 69.7791 859.141 487.665
2259 0 45.0263 9.26125 417 112.031 858.142 487.504
2260 0 52.0388 11.3185 589 75.0034 856.097 496.209
2261 0 56.0544 10.8645 609 71.0493 856.839 496.854
2262 0 58.1081 11.2549 654 70.8333 856.298 496.049
2263 0 60.0745 11.236 675 71.9437 856.951 497.084
2264 0 61.0298 11.1257 679 73.1812 857.317 496.119
2265 0 64.1554 11.7995 757 73.2087 857.535 494.598
2266 0 64.069 11.1599 715 75.3119 857.056 494.866
2267 0 67.0908 11 738 75.9268 857.495 492.458
2268 0 69.1713 11.3197 783 74.7178 857.28 490.627
2269 0 69.0638 10.6423 735 76.8286 857.049 491.027
2270 0 71.0993 10.6611 758 76.8298 857.406 490.255
2271 0 72.0804 9.73913 702 77.8974 857.775 491.258
2272 0 72.1086 9.69371 699 78.7797 857.164 490.568
2273 0 75.0472 9.44738 709 78.9774 856.712 490.228
2274 0 77.0934 9.62468 742 79.7965 857.097 486.313
2275 0 78.0389 9.5209 743 80.1844 856.97 484.843
2276 0 84.0582 10.7426 903 79.7265 857.394 484.769
2277 0 84.0504 9.77984 822 82.4124 856.837 483.796
2278 0 85.0462 9.08918 773 82.4994 856.851 486.067
2279 0 90.0867 9.20225 829 82.1713 857.052 480.537
2280 0 91.1261 8.44983 770 80.8494 858.23 483.196
2281 1 44.0124 9.02019 397 78.1159 857.542 501.758
2282 0 48.127 10.3476 498 82.3554 860.159 501.41
2283 0 49.0475 10.1534 498 83.6285 859.944 497.074
2284 0 51.0521 9.95062 508 76.0079 859.303 500.967
2285 0 51.0834 9.94452 508 74.9134 856.998 502.795
2286 0 51.0434 8.58093 438 77.6872 856.521 502.5
2287 0 52.0212 9.3039 484 77.9256 856.866 499.45
2288 0 54.0581 9.61928 520 78.0712 855.938 498.317
2289 0 56.0845 9.48569 532 78.5414 856.694 499.992
2290 0 58.0493 9.75033 566 79.2314 856.724 499.91
2291 0 60.0642 10.9383 657 78.2298 857.024 497.495
2292 0 62.069 10.9878 682 79.7933 857.067 497.155
2293 0 64.0878 10.7821 691 80.4284 856.622 495.774
2294 0 65.0878 10.8776 708 80.8503 856.431 496.407
2295 0 69.0848 11.6234 803 79.8692 856.625 495.831
2296 0 70.1166 11.2242 787 80.9072 857.142 494.386
2297 0 71.115 10.3635 737 84.0638 856.809 489.593
2298 0 74.1029 10.4719 776 82.6598 857.108 491.595
2299 0 74.1306 11.1155 824 83.2706 855.755 489.749
2300 0 77.0826 11.2736 869 82.5259 856.632 489.537
2301 0 79.0944 11.4167 903 82.5349 856.539 487.07
2302 0 82.1537 11.3324 931 82.246 856.489 487.723
2303 0 85.1102 11.3735 968 83.4452 856.965 484.365
2304 0 89.073 11.8105 1052 83.0703 857.606 482.623
2305 0 91.0757 12.2096 1112 83.0153 857.514 479.29
2306 0 94.1272 12.8018 1205 81.5145 857.341 479.113
2307 0 98.1049 12.2624 1203 83.1879 856.855 477.953
2308 0 101.09 13.0181 1316 82.3761 856.616 473.619
2309 0 104.127 11.9854 1248 85.0489 857.169 476.358
2310 0 106.125 12.099 1284 86.2874 857.678 476.329
2311 1 62.0521 10.604 658 82.9164 856.535 499.225
2312 0 60.011 10.7647 646 82.8142 856.532 497.263
2313 0 62.0768 11.6146 721 81.6172 856.062 495.982
2314 0 65.0251 11.98 779 87.2336 855.35 493.128
2315 0 66.0296 12.979 857 85.3221 855.142 493.207
2316 0 69.0362 12.4717 861 86.1034 855.76 492.113
2317 0 72.0372 13.0766 942 84.3323 856.084 491.598
2318 0 73.0609 13.4956 986 84.214 855.972 489.96
2319 0 76.0675 12.6204 960 86.5948 855.902 488.418
2320 0 78.0374 12.7503 995 86.602 856.552 488.14
2321 0 78.0495 11.9155 930 90.5452 856.098 486.598
2322 0 81.0252 12.601 1021 90.383 856.228 483.806
2323 0 84.0185 13.3066 1118 88.2442 856.184 483.013
2324 0 88.1017 13.3142 1173 89.1654 856.896 481.129
2325 0 89.0516 13.6326 1214 90.7257 856.455 480.257
2326 0 90.0583 12.9694 1168 94.1832 856.399 477.75
2327 0 93.1382 13.0129 1212 93.236 856.775 477.171
2328 0 96.1325 13.0653 1256 94.5414 856.801 472.653
2329 0 101.063 13.5163 1366 92.6698 856.694 472.595
2330 0 101.097 13.314 1346 92.9406 857.111 473.236
2331 0 104.228 13.5185 1409 87.3598 858.681 472.434
2332 0 105.15 12.8198 1348 89.5846 859.269 469.657
2333 0 111.167 12.7735 1420 90.8521 858.894 466.482
2334 0 114.165 13.4718 1538 91.2068 858.985 464.839
2335 0 117.23 12.9745 1521 93.146 859.084 463.78
2336 0 121.166 13.2546 1606 93.5834 859.45 462.474
2337 0 125.197 12.9955 1627 94.2999 859.963 462.113
2338 0 128.293 12.5182 1606 97.2864 859.428 457.944
2339 0 133.211 12.4765 1662 96.7467 859.498 452.255
2340 0 135.225 12.5643 1699 97.7652 859.057 447.334
2341 0 143.209 12.7995 1833 96.8478 859.216 445.267
2342 1 80.1051 10.7109 858 92.3019 861.354 478.965
2343 0 78.1483 11.926 932 91.7661 860.847 475.281
2344 0 84.1555 12.1085 1019 91.0873 860.014 476.819
2345 0 87.1065 12.3871 1079 91.4504 859.714 475.375
2346 0 90.2587 12.5085 1129 91.868 860.006 476.482
2347 0 92.107 13.1152 1208 89.1093 860.312 475.283
2348 0 95.1095 13.1848 1254 89.079 859.629 474.175
2349 0 99.3288 13.108 1302 88.6582 858.891 474.32
2350 0 99.2037 12.8221 1272 89.4843 858.38 470.817
2351 0 104.278 12.716 1326 89.5664 858.338 470.653
2352 0 106.323 12.3962 1318 90.4226 858.322 470.9
2353 0 107.232 12.6642 1358 90.9315 858.475 468.094
2354 0 109.213 11.8392 1293 92.2452 857.864 466.685
2355 0 112.407 12.3212 1385 91.5155 857.258 460.926
2356 0 115.232 11.6026 1337 94.0352 857.232 459.632
2357 0 123.253 12.1214 1494 93.2617 857.394 464.216
2358 1 65.0609 10.7284 698 89.6547 857.683 486.974
2359 0 67.0893 11.5369 774 88.1292 857.057 484.584
2360 0 71.1076 11.8272 841 86.8312 856.828 486.49
2361 0 73.2263 11.5123 843 88.669 856.409 492.629
2362 0 77.2184 12.4711 963 86.028 856.541 490.697
2363 0 80.2125 11.5817 929 87.3811 855.396 489.686
2364 0 83.2634 12.2143 1017 86.4867 855.24 487.912
2365 0 86.2218 12.3867 1068 86.5684 855.665 487.831
2366 0 86.166 12.1974 1051 87.2112 855.893 483.375
2367 0 91.2708 13.1586 1201 84.6661 855.304 481.008
2368 0 92.1649 12.8357 1183 85.5258 854.756 480.173
2369 0 92.1649 12.8899 1188 128.523 853.738 480.128
2370 0 100.144 12.8615 1288 81.9845 855.514 477.86
2371 0 101.209 12.0542 1220 85.9697 855.525 473.409
2372 0 104.229 11.8105 1231 87.0479 855.405 472.452
2373 0 107.19 12.2679 1315 86.4844 854.932 469.085
2374 0 113.17 13.2633 1501 83.9847 854.386 466.62
2375 0 117.168 12.768 1496 85.4225 854.545 464.616
2376 1 61.0993 10.8676 664 84.759 855.792 491.893
2377 0 65.0186 10.9046 709 78.7884 856.008 491.138
2378 0 66.1943 11.8439 784 82.8406 854.826 489.296
2379 0 67.0834 11.6422 781 79.5455 854.508 489.658
2380 0 67.1188 10.772 723 81.8008 854.614 489.382
2381 0 71.123 11.1497 793 80.5032 854.269 487.117
2382 0 75.098 11.5849 870 80.2724 854.413 485.67
2383 0 80.117 12.7314 1020 77.4304 854.991 484.706
2384 0 81.1322 12.8802 1045 78.4708 855.053 483.603
2385 0 84.1069 12.8527 1081 80.4006 855.057 480.847
2386 0 87.1208 12.4195 1082 82.5185 854.682 479.284
2387 0 89.0601 12.8228 1142 83.5053 855.225 478.56
2388 0 92.0659 12.7192 1171 83.9112 855.021 476.457
2389 0 95.1208 12.4894 1188 84.8443 855.013 473.418
2390 0 100.078 12.9699 1298 84.171 854.602 473.161
2391 0 104.131 13.7614 1433 82.3426 855.177 472.905
2392 0 104.106 11.6036 1208 82.2732 855.878 470.426
2393 0 108.044 12.7818 1381 81.2991 855.045 468.315
2394 0 112.087 12.9809 1455 83.0728 855.562 465.186
2395 0 116.155 12.9826 1508 83.3495 854.87 461.287
2396 1 65.0198 10.3661 674 85.2982 855.359 489.834
2397 0 67.1472 10.7674 723 87.592 856.423 487.184
2398 0 69.0949 11.6651 806 80.634 855.978 487.512
2399 0 72.0907 11.9017 858 75.4732 855.641 486.322
2400 0 74.0692 11.8403 877 78.7058 856.52 486.097
2401 0 77.2268 13.3632 1032 77.2432 858.405 483.983
2402 0 79.1114 12.9438 1024 78.5234 858.264 483.48
2403 0 81.156 13.4556 1092 77.9643 857.767 481.024
2404 0 83.2028 12.9563 1078 79.2968 857.629 481.638
2405 0 87.1646 12.9755 1131 79.6225 857.89 479.779
2406 0 90.1668 13.597 1226 79.1476 858.231 478.802
2407 0 92.2739 13.0915 1208 81.2574 857.964 475.947
2408 0 94.2853 13.2364 1248 82.1002 858.155 474.261
2409 0 96.1923 12.6102 1213 81.6595 857.872 474.302
2410 0 100.257 12.6575 1269 80.944 858.693 471.805
2411 0 102.214 13.0413 1333 81.2941 859.359 470.269
2412 0 105.198 12.6903 1335 86.388 858.892 467.601
2413 0 109.164 13.3103 1453 87.6153 858.531 465.076
2414 0 113.228 12.8502 1455 90.9072 858.149 464.311
2415 0 117.198 12.7221 1491 92.34 859.124 463.655
2416 0 119.266 12.4008 1479 94.1346 858.902 460.915
2417 0 125.267 13.3635 1674 93.1547 858.372 458.234
2418 0 129.244 13.0993 1693 94.9728 857.934 455.248
2419 0 131.225 12.2233 1604 98.1222 858.269 453.165
2420 0 137.275 13.2435 1818 95.0352 858.573 452.028
2421 0 142.305 12.8808 1833 96.7534 858.617 449.22
2422 0 149.317 12.3964 1851 90.8952 857.797 447.018
2423 0 153.391 11.8782 1822 94.573 857.592 439.35
2424 0 158.401 12.0201 1904 95.7295 857.732 439.796
2425 0 163.332 12.4165 2028 96.6573 858.89 436.891
2426 0 165.348 12.0897 1999 99.2801 857.356 435.273
2427 1 90.0672 9.42629 849 83.0612 857.518 477.677
2428 0 92.112 9.4016 866 83.5912 857.233 476.905
2429 0 97.1563 9.63396 936 83.6592 856.228 474.288
2430 0 97.1056 9.35064 908 84.9053 857.533 474.828
2431 0 101.196 9.50628 962 86.9958 857.912 471.703
2432 0 107.345 10.6293 1141 87.2209 858.151 470.932
2433 0 112.282 10.4469 1173 91.2498 857.41 465.431
2434 0 113.396 10.1415 1150 94.6365 857.648 463.43
2435 1 58.1623 8.6998 506 81.9605 857.621 492.755
2436 0 61.1825 9.70866 594 81.032 857.234 490.404
2437 0 64.2543 10.6763 686 80.121 857.143 490.152
2438 0 65.1002 10.1382 660 81.6576 856.421 490.927
2439 0 68.0451 10.1991 694 81.1484 855.987 491.974
2440 0 70.1367 10.8788 763 80.2176 856.312 489.324
2441 0 73.1325 11.2535 823 79.8919 856.243 489.228
2442 0 73.0763 11.2896 825 80.5988 856.265 487.937
2443 0 77.1104 11.5808 893 80.8914 856.378 487.703
2444 0 76.1227 10.864 827 84.7352 856.305 486.416
2445 0 80.0934 11.2993 905 85.1845 856.562 485.249
2446 0 80.0848 11.2631 902 87.5 857.052 483.914
2447 0 84.1554 11.1104 935 86.4695 856.52 484.758
2448 0 85.1411 11.2402 957 87.6008 856.458 482.384
2449 0 88.1403 11.1867 986 88.1014 856.481 480.556
2450 0 93.0934 11.5583 1076 86.632 856.612 479.7
2451 0 95.1428 11.6667 1110 86.3532 856.515 478.536
2452 0 99.1287 11.3892 1129 87.388 855.783 474.924
2453 0 104.09 11.1346 1159 87.5384 855.712 474.506
2454 1 55.0391 9.64769 531 83.5066 856.61 497.569
2455 0 58.0551 10.0594 584 82.5668 857.132 496.998
2456 0 60.2764 10.9662 661 81.2012 859.159 491.483
2457 0 60.3018 10.9947 663 82.5928 858.446 492.16
2458 0 64.0151 11.9972 768 80.3841 856.521 495.092
2459 0 65.0707 12.4326 809 80.0964 856.2 493.441
2460 0 66.0926 12.5581 830 81.1843 856.381 491.93
2461 0 68.0322 12.4353 846 81.3652 856.467 490.889
2462 0 69.1376 12.2365 846 80.8558 856.465 489.817
2463 0 72.1062 12.0794 871 79.9839 856.674 488.069
2464 0 74.068 12.691 940 79.2936 857.365 489.193
2465 0 74.2065 12.3574 917 81.5278 857.034 487.183
2466 0 77.12 12.9538 999 80.5756 856.539 486.843
2467 0 78.1641 12.9215 1010 80.4396 856.899 486.293
2468 0 83.2323 12.7354 1060 79.3472 856.641 484.16
2469 0 84.1044 12.4964 1051 76.1789 856.425 484.643
2470 0 88.1401 11.8902 1048 77.6966 855.954 482.502
2471 0 92.0858 12.1409 1118 77.4767 856.512 481.528
2472 0 90.0758 11.4015 1027 86.3369 857.002 479.231
2473 0 95.1316 11.3212 1077 80.6564 857.147 478.363
2474 0 96.1547 11.3879 1095 80.6594 856.784 477.593
2475 0 100.121 11.9155 1193 79.3462 857.326 476.803
2476 1 58.0499 10.5771 614 77.2313 856.394 499.2
2477 0 60.0793 11.3184 680 76.2382 856.765 496.99
2478 0 60.1446 12.3536 743 74.533 857.985 495.882
2479 0 61.2507 11.8856 728 75.4272 858.927 490.195
2480 0 63.027 11.9155 751 71.984 856.097 495.409
2481 0 65.0645 11.6192 756 72.496 855.562 493.308
2482 0 68.0554 11.7404 799 71.0463 856.524 491.158
2483 0 67.0621 11.8547 795 71.4679 855.888 490.419
2484 0 70.0599 12.1896 854 68.2775 856.205 489.225
2485 0 74.0658 11.9083 882 68.9694 856.54 488.169
2486 0 76.1638 12.0924 921 69.1564 856.541 487.224
2487 0 78.067 12.1946 952 69.8918 857.313 484.938
2488 0 79.0964 12.2762 971 71.0144 856.976 483.986
2489 0 82.0497 11.9318 979 72.2114 856.139 483.11
2490 0 86.0877 12.5918 1084 71.1172 856.922 481.375
2491 0 88.0511 12.9811 1143 71.6509 856.358 480.804
2492 0 91.0456 13.0923 1192 71.5973 856.985 481.906
2493 0 91.0401 13.0162 1185 74.7013 856.586 479.515
2494 0 93.09 12.1173 1128 76.8378 856.246 478.876
2495 0 95.0436 12.6258 1200 76.5892 856.09 477.616
2496 0 97.0819 12.783 1241 76.8308 856.143 475.77
2497 0 103.045 13.3243 1373 75.0291 855.741 475.709
2498 0 106.106 13.2226 1403 74.9914 856.5 471.756
2499 1 56.1069 10.177 571 75.0035 856.165 499.105
2500 0 59.0546 10.0754 595 75.0235 857.319 497.176
2501 0 60.102 11.6635 701 76.8745 858.709 496.185
2502 0 63.0442 12.293 775 71.5587 858.289 494.941
2503 0 65.232 12.2179 797 73.3024 858.79 495.376
2504 0 67.146 12.0782 811 74.0197 859.166 495.996
2505 0 69.142 11.6861 808 74.6114 858.802 493.953
2506 0 69.1401 11.0934 767 75.4889 859.082 491.442
2507 0 73.1022 11.7233 857 74.5799 858.441 491.687
2508 0 75.1324 11.5662 869 75.13 858.479 489.339
2509 0 77.1956 11.3478 876 75.7055 859.143 488.855
2510 0 77.1592 10.5107 811 77.8718 858.782 486.92
2511 0 81.1389 11.5604 938 75.5256 858.419 484.751
2512 0 83.1528 11.3045 940 76.7213 857.751 484.037
2513 0 85.1432 10.9815 935 77.616 857.746 483.135
2514 0 89.1374 11.0952 989 78.7836 858.628 478.4
2515 0 91.1052 11.0861 1010 78.6901 857.785 479.479
2516 0 94.1587 11.2895 1063 78.7582 858.008 479.044
2517 0 100.209 11.9152 1194 77.938 857.881 474.866
2518 0 100.221 11.6841 1171 79.8531 857.967 470.865
2519 0 104.141 11.5901 1207 80.6015 857.998 470.672
2520 0 106.192 11.5451 1226 81.8842 858.29 466.802
2521 0 109.271 11.7048 1279 81.6341 858.04 465.662
2522 0 114.141 11.626 1327 82.1372 857.385 464.264
2523 0 116.174 11.6722 1356 82.7655 858.138 460.867
2524 0 121.199 12.2856 1489 82.8482 857.929 460.156
2525 0 123.092 11.0974 1366 87.4041 857.774 456.876
2526 1 69.2052 10.0137 693 80.7677 857.919 487.094
2527 0 73.2302 11.0883 812 80.6379 857.924 484.656
2528 0 75.2063 10.6108 798 82.7782 858.64 483.273
2529 0 78.1749 11.2312 878 82.6276 857.969 480.743
2530 0 79.1564 12.1784 964 81.5415 858.223 479.473
2531 0 80.0521 11.9297 955 83.0419 858.326 480.252
2532 0 84.1294 11.9934 1009 81.7274 857.994 478.722
2533 0 89.0634 12.6651 1128 81.1933 858.24 478.171
2534 0 89.0683 12.0357 1072 83.7603 857.617 475.675
2535 0 92.1821 12.4862 1151 83.5196 857.82 474.315
2536 0 93.2652 12.77 1191 84.2762 856.861 473.305
2537 0 96.2667 12.4238 1196 86.5844 856.655 473.837
2538 0 96.2088 12.6288 1215 85.916 857.675 467.031
2539 0 97.2151 12.0763 1174 87.5332 857.643 463.473
2540 0 103.16 12.2237 1261 86.7526 856.716 460.685
2541 0 104.228 12.7413 1328 86.494 856.513 457.226
2542 0 107.181 11.8212 1267 88.4917 856.61 458.582
2543 0 109.255 11.8713 1297 88.5466 857.059 457.277
2544 0 116.241 11.0632 1286 81.8048 856.189 456.016
2545 1 63.042 12.5472 791 65.4463 855.244 488.884
2546 0 59.0653 10.463 618 75.466 856.049 486.311
2547 0 62.0525 9.71757 603 76.6617 856.917 486.035
2548 0 59.101 9.69527 573 79.007 857.405 483.344
2549 0 63.0856 10.9058 688 77.9549 857.151 481.176
2550 0 66.195 10.9676 726 78.0634 856.335 481.35
2551 0 68.0821 10.6048 722 78.8476 857.33 480.291
2552 0 73.1431 10.9922 804 78.4789 856.619 479.359
2553 0 77.151 12.1321 936 87.6656 859.107 485.193
2554 0 80.2054 12.8545 1031 86.2541 860.003 483.469
2555 0 81.2905 12.5353 1019 87.266 858.41 481.496
2556 0 82.1528 12.4402 1022 88.5068 859.497 481.37
2557 0 84.3189 12.2985 1037 89.6162 859.392 479.788
2558 0 89.2373 12.6965 1133 88.6664 858.227 477.983
2559 0 91.283 12.401 1132 89.9673 858.416 475.57
2560 0 95.3602 12.5524 1197 89.6892 857.495 472.49
2561 0 98.2864 12.7993 1258 90.3474 857.308 469.721
2562 0 99.251 11.9898 1190 86.2118 857.101 469.997
2563 1 52.0327 9.59012 499 82.9218 856.212 492.118
2564 0 54.0905 10.7228 580 81.6655 856.566 492.053
2565 0 57.1761 11.2285 642 79.9206 858.59 484.606
2566 0 60.0462 11.5744 695 78.4014 855.843 487.069
2567 0 58.1632 10.9863 639 80.9859 857.031 485.876
2568 0 63.1596 11.6055 733 80.0232 856.61 486.306
2569 0 64.1469 11.6296 746 80.1769 857.084 487.684
2570 0 67.1395 12.124 814 80.43 857.173 486.264
2571 0 68.1202 11.9495 814 82.2764 857.038 485.187
2572 0 71.1228 12.1902 867 88.6609 857.694 485.737
2573 0 74.1909 12.0904 897 89.6734 858.23 483.584
2574 0 75.1783 11.8252 889 90.9494 858.224 481.792
2575 0 78.1346 12.0177 939 84.5527 857.38 481.11
2576 0 81.1078 12.28 996 85.4749 857.757 478.837
2577 0 83.0936 12.0707 1003 87.3041 857.26 476.921
2578 0 85.1149 12.0073 1022 88.7847 857.348 476.286
2579 0 88.1062 12.2352 1078 87.7458 856.989 473.342
2580 0 92.1104 11.9748 1103 89.8432 857.225 472.687
2581 1 50.0531 11.1282 557 83.4865 857.093 494.898
2582 0 51.087 10.9225 558 84.0305 857.201 494.762
2583 0 51.1191 11.0917 567 85.4885 857.293 493.282
2584 0 53.1211 11.1067 590 85.4763 857.881 493.253
2585 0 54.034 11.0486 597 85.933 857.157 493.786
2586 0 56.0213 11.8705 665 85.1263 857.104 492.12
2587 0 58.0945 12.1698 707 85.0255 857.682 490.689
2588 0 60.0258 12.2614 736 85.409 857.637 490.539
2589 0 63.0667 12.6374 797 83.5809 857.118 488.89
2590 0 64.0557 12.7077 814 84.4889 856.259 487.694
2591 0 66.027 12.7069 839 85.4493 856.484 487.856
2592 0 68.0452 12.5358 853 85.2872 856.362 485.989
2593 0 67.0531 12.2142 819 87.0989 856.586 485.834
2594 0 69.078 12.1312 838 86.9809 857.598 485.988
2595 0 74.0504 13.0587 967 83.7477 857.283 486.874
2596 0 75.0876 12.9049 969 84.6522 856.79 485.272
2597 0 77.0703 12.6248 973 85.4018 856.63 484.502
2598 0 81.1261 12.8688 1044 84.8467 856.916 483.471
2599 0 81.0351 12.5254 1015 85.67 856.98 481.595
2600 0 83.0751 13.1447 1092 85.9606 857.121 479.391
2601 0 86.1373 12.5497 1081 87.5439 857.172 480.197
2602 0 88.0792 12.5342 1104 87.2346 857.189 477.363
2603 0 88.1998 13.4467 1186 93.7032 858.933 476.704
2604 0 91.205 12.8392 1171 93.877 858.503 476.388
2605 0 93.2398 12.9344 1206 94.5332 858.197 475.995
2606 0 96.292 12.8567 1238 94.538 858.364 474.009
2607 0 98.2019 12.9427 1271 94.8946 858.379 471.511
2608 0 99.243 12.8573 1276 97.1277 857.473 469.123
2609 0 103.234 12.5927 1300 96.9538 856.755 467.677
2610 0 105.19 12.4346 1308 96.8792 857.66 467.141
2611 0 108.113 12.3667 1337 96.3605 858.246 463.999
2612 0 113.168 12.7421 1442 95.251 858.108 460.605
2613 0 116.156 12.1991 1417 96.2477 858.006 459.418
2614 1 60.0641 9.45656 568 90.7359 859.093 484.285
2615 0 62.1148 9.96542 619 90.7658 859.481 482.847
2616 0 63.0398 10.6916 674 91.23 859.303 478.071
2617 0 67.1075 10.6098 712 79.0618 858.014 480.452
2618 0 69.0628 9.99091 690 83.3014 857.252 478.646
2619 0 71.0563 11.1883 795 82.3233 857.499 477.989
2620 0 75.1131 10.6107 797 84.6788 856.897 478.604
2621 0 78.083 11.6799 912 81.3586 857.082 478.368
2622 0 78.1172 10.6507 832 85.6647 856.849 475.189
2623 0 82.1042 10.9739 901 85.3607 856.71 474.834
2624 0 86.1374 11.6674 1005 83.2179 857.23 473.346
2625 0 86.0911 10.7212 923 86.0986 858.188 471.112
2626 0 89.0847 10.9222 973 85.3864 858.069 470.082
2627 0 88.1097 11.3835 1003 87.3848 857.608 467.184
2628 0 94.0891 10.9577 1031 88.4675 857.891 465.21
2629 0 97.1274 11.9534 1161 86.0706 857.903 464.901
2630 0 101.146 11.9135 1205 86.351 857.764 464.476
2631 0 106.295 11.8067 1255 83.9283 858.028 465.082
2632 0 110.318 12.1196 1337 83.3478 858.156 465.527
2633 0 112.324 11.8585 1332 86.0991 857.285 465.604
2634 0 118.31 11.9939 1419 86.2227 857.71 462.875
2635 0 121.332 11.6458 1413 88.2781 857.076 459.102
2636 1 70.1792 10.6157 745 78.0604 858.687 489.098
2637 0 71.1316 11.0218 784 79.4656 858.779 485.274
2638 0 74.174 11.2169 832 79.8642 859.322 486.1
2639 0 77.3019 11.8626 917 78.795 858.735 484.396
2640 0 79.1322 12.0431 953 78.7251 859.956 483.346
2641 0 82.1441 11.3946 936 78.8718 860.035 481.485
2642 0 84.1293 11.4704 965 79.5358 859.391 478.79
2643 0 89.1773 11.8864 1060 77.7962 859.184 476.661
2644 0 93.1964 11.7708 1097 77.6436 859.704 475.725
2645 0 93.3612 11.5787 1081 78.3302 859.014 475.074
2646 0 98.2227 12.268 1205 76.7452 858.761 472.795
2647 0 101.391 11.9537 1212 76.9942 858.523 470.687
2648 0 104.245 12.0197 1253 77.4382 859.092 470.118
2649 0 107.226 11.7789 1263 76.901 858.736 467.378
2650 0 111.235 11.5971 1290 75.8411 857.641 464.53
2651 0 115.267 12.111 1396 74.7607 857.988 463.625
2652 1 61.2028 10.4407 639 75.8185 859.086 491.382
2653 0 63.1761 10.811 683 73.1728 859.186 492.284
2654 0 64.3436 11.221 722 71.91 859.18 488.141
2655 0 65.212 11.0409 720 73.8056 858.721 488.275
2656 0 67.2423 11.6147 781 72.3393 858.206 486.045
2657 0 71.3001 11.5428 823 71.5346 857.995 485.176
2658 0 72.2469 11.2946 816 73.3333 858.714 482.88
2659 0 75.2224 12.3766 931 71.7712 858.823 481.701
2660 0 77.3712 12.1363 939 73.5421 858.652 482.07
2661 0 80.3968 12.4134 998 74.1633 858.387 480.626
2662 0 84.5019 12.1772 1029 75.4451 857.785 479.112
2663 0 83.4135 11.9525 997 77.9699 858.267 475.759
2664 0 87.4729 12.4038 1085 79.5594 857.473 475.589
2665 0 93.6066 13.3751 1252 76.8618 857.273 474.874
2666 0 95.5852 13.1924 1261 78.9001 857.774 472.669
2667 0 95.5686 13.0273 1245 80.7382 857.682 466.779
2668 0 100.486 13.1163 1318 88.3346 857.046 465.403
2669 0 103.593 13.109 1358 87.9168 857.387 466.113
2670 0 104.261 12.2001 1272 86.1714 856.82 465.476
2671 0 109.091 12.1642 1327 83.9073 856.776 466.923
2672 0 112.145 12.5552 1408 83.6179 857.148 463.871
2673 0 116.25 12.6537 1471 83.4385 857.62 462.352
2674 0 118.269 12.0996 1431 85.4333 857.454 460.004
2675 1 63.2265 10.0591 636 79.8915 858.448 487.915
2676 0 64.2389 9.69817 623 80.1974 858.01 486.414
2677 0 67.3438 10.6469 717 79.1046 857.704 484.216
2678 0 68.2644 10.3568 707 79.5743 857.569 483.044
2679 0 71.1402 10.402 740 79.7432 857.704 483.341
2680 0 73.1514 10.8132 791 79.9886 857.236 482.01
2681 0 77.1776 10.4953 810 82.2691 857.305 480.804
2682 0 79.1215 10.9957 870 82.569 856.964 481.161
2683 0 82.1021 11.0229 905 82.1834 856.877 480.508
2684 0 83.0752 11.5317 958 81.8977 856.666 480.33
2685 0 88.0541 12.0835 1064 82.2162 857.83 478.378
2686 0 91.0797 12.2311 1114 83.5601 858.202 478.251
2687 0 93.08 12.1616 1132 82.924 858.157 477.992
2688 0 94.1612 12.468 1174 84.7879 857.997 476.371
2689 0 97.1571 12.6599 1230 85.7293 857.486 473.923
2690 0 99.1221 12.3787 1227 87.2355 857.895 472.044
2691 0 103.109 11.6673 1203 89.419 857.353 470.46
2692 0 105.186 12.1974 1283 91.0507 857.853 467.541
2693 0 108.202 12.5322 1356 90.1932 857.176 465.748
2694 0 112.269 12.2296 1373 89.8842 857.205 464.212
2695 0 115.318 12.0016 1384 90.8613 857.138 462.184
2696 0 119.317 12.4878 1490 89.1476 856.387 459.851
2697 0 120.305 11.6454 1401 92.469 856.836 456.468
2698 0 120.305 11.7119 1409 147.476 856.842 456.6
2699 0 131.402 12.633 1660 88.8229 856.436 452.775
2700 0 135.418 13.078 1771 87.6251 856.766 451.299
2701 0 138.448 13.4564 1863 87.5234 857.04 449.067
2702 1 76.2614 9.76902 745 79.8389 856.991 479.736
2703 0 80.2442 9.83249 789 80.1318 856.598 479.399
2704 0 82.2956 10.9848 904 79.7135 857.072 477.081
2705 0 84.2508 10.623 895 82.4279 857.577 477.229
2706 0 87.3618 10.7827 942 82.7197 856.463 473.734
2707 0 88.2286 10.1894 899 85.5673 856.561 470.765
2708 0 91.3649 11.0655 1011 84.4886 856.929 468.711
2709 0 94.3479 11.1078 1048 85.3702 856.792 468.188
2710 0 97.2891 11.1215 1082 86.5222 856.164 467.151
2711 0 99.364 10.7484 1068 88.6882 855.824 465.176
2712 0 100.327 10.6751 1071 90.0346 855.929 461.793
2713 0 99.1942 10.5651 1048 93.0057 855.485 454.978
2714 0 104.226 10.8898 1135 92.4731 856.382 456.463
2715 0 109.331 11.2045 1225 92.4065 855.592 455.301
2716 0 113.316 11.1282 1261 93.0373 855.46 454.982
2717 0 117.299 11.1936 1313 92.7395 856.059 453.67
2718 0 119.302 10.3351 1233 95.6748 855.388 449.702
2719 0 124.337 10.9058 1356 96.2316 855.446 446.241
2720 0 128.328 10.7303 1377 97.8424 855.778 446.489
2721 1 69.1137 9.27457 641 83.8081 855.995 480.574
2722 0 71.1162 9.36496 666 84.3078 855.938 477.766
2723 0 73.1358 10.2549 750 82.76 855.897 480.028
2724 0 77.2073 10.6208 820 83.5439 857.545 480.502
2725 0 79.1605 10.7882 854 83.8466 857.143 479.591
2726 0 82.0746 10.5148 863 84.679 857.129 478.129
2727 0 83.1898 10.3017 857 86.7235 858.08 476.02
2728 0 86.1876 11.1269 959 85.5777 858.48 474.468
2729 0 90.1848 11.0218 994 85.4457 858.292 475.399
2730 0 92.1929 10.7275 989 85.4419 856.282 471.292
2731 0 95.1208 10.7442 1022 86.4687 856.838 469.908
2732 0 100.177 10.9207 1094 85.989 855.776 468.639
2733 0 99.2175 10.1595 1008 88.9851 856.59 466.255
2734 0 106.24 11.6906 1242 85.8502 856.779 466.816
2735 0 107.267 10.6836 1146 88.6544 857.154 462.439
2736 0 112.268 11.1519 1252 88.0823 857.108 462.397
2737 0 115.24 11.7928 1359 85.9654 857.291 460.719
2738 0 118.353 11.3643 1345 85.5613 857.02 460.51
2739 0 122.389 11.9618 1464 84.9351 857.77 459.158
2740 0 125.413 11.1153 1394 87.6722 857.161 453.188
2741 0 128.394 12.0099 1542 86.5149 856.868 452.702
2742 0 132.416 11.4035 1510 87.8358 856.514 451.636
2743 1 71.1964 10.6045 755 79.5536 857.037 482.943
2744 0 74.1601 10.8144 802 80.1783 856.896 481.549
2745 0 76.2932 11.7311 895 78.2078 857.991 482.277
2746 0 77.3723 11.1022 859 80.546 859.005 480.331
2747 0 80.3113 11.2064 900 80.1211 858.859 479.433
2748 0 83.29 12.1263 1010 79.395 858.064 479.227
2749 0 85.1768 12.1982 1039 78.2618 857.862 477.678
2750 0 87.2243 11.8316 1032 80.7035 857.952 475.99
2751 0 91.2717 12.1505 1109 81.5077 857.854 476.264
2752 0 94.2524 12.2119 1151 82.4804 857.702 474.861
2753 0 96.2793 12.256 1180 86.2686 857.937 473.708
2754 0 97.2765 12.706 1236 85.6262 857.23 472.455
2755 0 100.311 12.6707 1271 86.6522 858.231 470.987
2756 0 105.347 13.1755 1388 86.0223 858.507 469.476
2757 0 107.323 13.4267 1441 85.7738 858.185 466.75
2758 0 109.369 12.6544 1384 88.6156 858.072 466.148
2759 0 113.44 13.0113 1476 89.4729 858.213 464.012
2760 0 117.461 13.6045 1598 88.4262 858.103 461.969
2761 0 120.614 12.8592 1551 91.8833 857.955 457.621
2762 1 66.4919 11.3247 753 85.6295 858.849 486.497
2763 0 69.6095 11.6076 808 84.6535 858.859 486.65
2765 0 71.6103 12.1072 867 85.2364 858.294 484.814
2766 0 73.141 12.6058 922 80.1236 858.112 486.954
2767 0 76.177 12.0771 920 81.4891 857.759 485.645
2768 0 78.1454 11.9905 937 83.5571 858.678 484.134
2769 0 78.1828 11.844 926 85.5659 858.423 483.1
2770 0 82.1506 11.9902 985 85.2071 859.166 481.138
2771 0 88.1865 11.8159 1042 86.0346 858.702 480.971
2772 0 90.214 11.2732 1017 90.3324 858.316 478.794
2773 0 91.1708 11.4181 1041 91.194 858.082 477.764
2774 0 93.172 11.7525 1095 93.1534 857.657 476.444
2775 0 96.3692 11.8191 1139 92.7954 858.522 474.56
2776 0 99.3186 12.0521 1197 92.5581 857.896 472.537
2777 0 102.287 12.025 1230 92.5032 858.093 471.624
2778 0 104.286 11.7081 1221 93.5381 857.5 468.961
2779 0 109.272 12.2538 1339 92.6184 858.029 468.225
2780 0 111.343 12.2864 1368 93.1031 857.605 467.131
2781 0 115.374 12.8279 1480 92.0486 857.578 463.638
2782 1 62.1457 10.7811 670 85.7627 858.081 490.555
2783 0 64.1805 10.9379 702 86.9943 857.796 490.724
2784 0 67.1969 11.9053 800 85.5625 858.902 488.74
2785 0 67.1792 11.2832 758 85.9723 858.872 488.48
2786 0 70.2078 11.1384 782 84.7455 858.495 487.125
2787 0 71.1981 11.6436 829 84.953 858.314 486.18
2788 0 75.1922 11.4108 858 86.0641 858.512 484.842
2789 0 76.2179 11.6246 886 86.974 858.367 484.003
2790 0 79.2986 11.7026 928 88.3438 858.557 482.372
2791 0 81.2474 11.225 912 90.295 857.452 479.62
2792 0 83.434 12.2252 1020 89.1343 858.079 479.212
2793 0 88.4175 12.1922 1078 88.1503 857.737 478.468
2794 0 90.3609 12.2951 1111 89.4662 857.789 477.469
2795 0 93.4875 12.269 1147 89.857 857.354 473.851
2796 0 96.5452 12.1083 1169 95.1052 857.305 470.642
2797 1 53.2765 10.0419 535 90.9234 857.626 494.533
2798 0 54.2126 10.053 545 91.6917 857.323 492.391
2799 0 55.2898 10.9785 607 89.3031 857.55 491.666
2800 0 58.2356 11.4535 667 87.4603 857.804 490.774
2801 0 58.2531 11.4672 668 88.8892 858.15 489.406
2802 0 61.1314 12.285 751 87.5646 858.229 487.778
2803 0 62.193 11.9788 745 87.3732 856.603 489.286
2804 0 61.16 11.8705 726 88.843 856.865 488.397
2805 0 64.1344 11.8969 763 88.4561 856.914 487.843
2806 0 63.0957 11.7916 744 88.9449 856.418 486.078
2807 0 64.1408 11.9269 765 89.5869 857.29 485.991
2808 0 68.0927 12.2627 835 87.0036 857.313 484.986
2809 0 68.1328 12.0206 819 88.5665 857.09 485.093
2810 0 70.1913 12.1098 850 88.4518 856.771 483.512
2811 0 72.1567 12.1818 879 87.8965 857.034 480.757
2812 0 76.1677 12.8663 980 86.0571 856.993 479.101
2813 0 76.088 11.4341 870 88.6529 857.433 480.844
2814 0 78.1675 11.744 918 88.8627 857.247 479.817
2815 0 80.0744 11.789 944 89.2744 856.835 479.736
2816 0 84.1919 12.1508 1023 88.9726 857.062 476.775
2817 0 87.0969 12.6181 1099 88.5414 857.438 477.013
2818 0 89.1497 12.4622 1111 89.3933 857.65 475.219
2819 0 90.1579 12.0123 1083 90.7378 856.484 473.268
2820 0 94.1711 13.0932 1233 88.9124 856.929 471.982
2821 0 95.2205 12.3923 1180 90.411 856.488 472.163
2822 0 99.1989 12.601 1250 90.4144 857.247 469.477
2823 0 102.275 12.3881 1267 91.3157 857.126 466.738
2824 0 104.188 12.6407 1317 90.7942 856.894 464.484
2825 0 108.356 12.7543 1382 92.7489 856.748 462.332
2826 0 112.517 12.9759 1460 92.1514 857.514 457.514
2827 0 115.306 12.5318 1445 90.9578 857.355 452.256
2828 0 121.169 13.1387 1592 90.2977 856.782 454.574
2829 0 125.355 13.2902 1666 89.6098 857.017 453.643
2830 0 128.366 13.0408 1674 90.7336 857.093 451.352
2831 0 133.318 13.269 1769 90.0362 856.495 446.892
2832 0 138.298 13.4348 1858 90.134 857.017 448.708
2833 0 143.222 13.6711 1958 89.8652 856.124 449.853
2834 0 147.202 13.6547 2010 90.6493 855.349 449.391
2835 1 85.142 11.8156 1006 81.3807 856.176 483.893
2836 0 87.097 12.4918 1088 83.0873 855.931 480.195
2837 0 89.1489 12.2043 1088 84.8088 856.234 479.384
2838 0 95.1052 13.1013 1246 82.3692 856.259 479.231
2839 0 98.1094 12.6491 1241 83.8832 855.701 477.044
2840 0 99.088 12.4738 1236 85.4676 855.484 476.149
2841 0 102.116 12.7698 1304 87.1695 856.189 473.162
2842 0 105.122 13.1943 1387 85.8962 856.177 473.133
2843 0 109.14 12.7634 1393 89.2182 856.029 469.838
2844 0 113.112 12.7307 1440 88.6056 855.922 468.121
2845 0 113.098 12.6439 1430 88.421 856 464.921
2846 0 116.106 12.6436 1468 88.7003 857.037 463.983
2847 0 119.123 12.7599 1520 87.1105 856.241 462.289
2848 0 123.449 13.3415 1647 86.7851 856.105 461.768
2849 0 126.28 12.8682 1625 89.5077 856.308 457.101
2850 0 131.242 12.9074 1694 90.1009 856.886 455.853
2851 0 135.259 12.7681 1727 91.0174 856.791 454.352
2852 0 138.334 13.0265 1802 91.3474 856.626 452.624
2853 0 144.251 13.0883 1888 90.5148 856.329 450.018
2854 0 147.273 12.3784 1823 93.0653 856.101 445.976
2855 0 153.324 13.4421 2061 91.9656 855.888 444.823
2856 0 160.279 13.489 2162 90.7072 855.943 441.838
2857 0 164.186 12.6015 2069 92.6022 855.66 436.49
2858 0 168.43 12.8718 2168 92.9202 855.976 435.281
2859 0 175.275 13.4417 2356 91.2742 856.534 432.493
2860 0 180.323 13.2374 2387 91.9145 856.907 429.353
2861 0 184.217 13.4895 2485 91.396 857.209 426.15
2862 0 192.281 13.1578 2530 90.6711 857.625 420.722
2863 0 195.268 12.4393 2429 92.8613 857.68 420.193
2864 0 201.188 12.451 2505 93.5533 857.161 414.691
2865 0 205.409 12.2293 2512 94.3838 856.496 410.855
2866 0 212.345 12.6492 2686 92.5823 856.168 410.832
2867 0 219.486 12.5657 2758 93.0761 856.341 407.326
2868 0 227.389 12.8678 2926 92.2758 856.872 403.359
2869 0 231.453 12.3826 2866 94.6221 856.266 398.424
2870 0 238.486 12.6381 3014 93.1705 856.34 400.193
2871 0 248.373 13.7092 3405 90.6326 856.393 395.824
2872 0 255.471 12.4006 3168 95.3557 856.122 388.034
2873 0 265.512 13.7696 3656 92.3534 856.504 384.161
2874 0 274.64 13.5304 3716 94.26 856.243 380.828
2875 1 221.429 11.6832 2587 94.6776 856.714 408.64
2876 0 229.359 12.6003 2890 95.5495 856.305 403.545
2877 0 235.295 12.6055 2966 96.587 856.098 401.381
2878 0 246.361 13.5167 3330 97.0742 855.694 396.274
2879 0 252.367 13.1356 3315 100.119 855.128 386.794
2880 0 261.378 13.5436 3540 100.377 856.003 386.634
2881 0 267.307 13.1759 3522 102.529 855.992 382.926
2882 0 276.361 13.0409 3604 103.073 856.284 378.102
2883 1 216.238 10.826 2341 102.456 857.585 413.224
2884 0 223.275 11.5687 2583 104.496 857.202 407.411
2885 0 230.28 12.2851 2829 104.412 857.135 404.3
2886 0 239.27 12.7095 3041 104.051 857.256 397.962
2887 0 248.238 12.5726 3121 105.221 857.023 393.831
2888 0 256.276 13.1616 3373 104.406 857.616 389.879
2889 0 264.318 13.2076 3491 105.008 856.846 383.128
2890 0 272.319 13.0545 3555 106.517 856.37 378.273
2891 0 281.232 13.288 3737 106.306 855.658 375.361
2892 0 291.349 15.2051 4430 92.7413 854.945 353.134
2893 0 293.386 14.2065 4168 101.934 855.054 358.111
2894 0 295.492 13.6011 4019 108.982 854.849 357.547
2895 0 299.344 13.7734 4123 113.724 854.946 356.193
2896 0 300.313 13.7024 4115 104.899 854.863 358.833
2897 1 241.264 11.1289 2685 110.58 855.81 394.232
2898 0 246.344 11.5083 2835 110.758 855.822 392.418
2899 0 253.244 11.7594 2978 110.673 855.181 390.443
2900 0 262.274 11.5719 3035 109.619 855.102 385.419
2901 0 269.311 11.8376 3188 106.957 854.876 374.911
2902 0 279.313 12.051 3366 105.856 855.154 366.753
2903 0 285.294 12.2996 3509 104.954 854.989 359.035
2904 1 295.334 12.5045 3693 102.707 855.008 355.683
2905 0 300.382 14.1353 4246 97.0869 855.102 348.011
2906 0 307.437 13.8467 4257 98.9373 854.901 342.142
2907 0 319.414 14.8647 4748 95.3951 854.814 335.566
2908 0 326.447 14.4311 4711 97.8378 854.244 334.39
2909 0 338.407 15.0765 5102 93.6595 854.608 328.038
2910 0 341.376 13.8762 4737 99.8934 855.108 323.014
2911 0 350.515 13.9281 4882 102.896 854.531 320.114
2912 0 359.521 13.7043 4927 106.741 854.225 315.863
2913 1 58.081 8.90136 517 90.3482 854.942 482.286
2914 0 63.1258 9.90087 625 87.1488 855.115 486.843
2915 0 64.0409 10.7275 687 86.5735 854.999 485.584
2916 0 64.0629 9.53751 611 89.0573 854.949 488.913
2917 0 64.0431 9.05641 580 92.2845 854.081 489.309
2918 0 67.0412 9.65078 647 90.9505 854.487 487.878
2919 0 69.0805 9.01846 623 93.8876 854.162 487.551
2920 0 79.0444 13.8909 1098 75.8388 854.697 477.557
2921 0 80.2495 12.6107 1012 81.165 855.04 477.051
2922 0 0 0 2.1222e-313 -nan 7.99738e-214 7.99738e-214
2923 0 77.2382 9.38655 725 93.4331 854.872 482.669
2924 1 44.2381 9.24542 409 90.7702 854.391 498.927
2925 0 46.1622 9.7699 451 90.612 854.497 500.71
2926 0 47.0602 9.41348 443 92.1264 854.824 498.357
2927 0 43.0262 8.97127 386 91.101 854.246 500.176
2928 0 47.0863 10.725 505 93.0455 854.438 496.889
2929 0 47.1296 9.8664 465 95.4817 854.09 496.914
2930 0 53.2814 11.5612 616 88.5844 854.695 499.245
2931 0 57.0866 11.5614 660 88.2227 854.229 496.844
2932 0 55.0529 12.1156 667 89.7166 854.486 495.394
2933 0 58.0206 10.7376 623 93.4815 854.38 496.459
2934 0 61.0528 11.2034 684 92.7661 854.987 495.246
2935 0 61.0172 11.5705 706 92.3102 854.846 497.106
2936 0 63.0273 13.4704 849 88.1673 854.954 494.492
2937 0 62.0485 12.039 747 96.1352 854.758 493.527
2938 0 65.0264 11.8106 768 96.0859 854.844 493.915
2939 0 66.1155 12.9017 853 94.4103 855.095 491.499
2940 0 67.2022 12.4401 836 96.4474 855.618 492.676
2941 0 66.1549 13.3172 881 97.1737 855.949 491.378
2942 0 70.2446 13.4388 944 95.947 856.233 490.892
2943 0 72.1712 13.6204 983 97.1221 856.605 487.927
2944 0 71.1935 13.681 974 98.7002 856.505 487.864
2945 0 75.2807 13.4696 1014 98.6874 857.411 486.141
2946 0 76.3121 13.5496 1034 98.1905 857.466 486.983
2947 0 77.3095 12.9609 1002 100.457 857.939 485.548
2948 0 79.1019 12.5661 994 94.1901 857.806 483.97
2949 0 83.1391 12.461 1036 96.2712 857.699 483.482
2950 0 85.2146 12.8851 1098 94.3852 856.812 481.706
2951 1 41.0506 10.3531 425 87.8235 856.259 504.341
2952 0 43.0622 11.286 486 87.2181 858.154 502.92
2953 0 44.0701 11.5271 508 87.8307 859.492 501.185
2954 0 47.0523 12.4755 587 87.0443 859.118 501.441
2955 0 48.1282 12.529 603 92.7479 857.34 501.06
2956 0 48.1386 12.6925 611 93.5761 857.586 500.363
2957 0 49.1912 13.3357 656 92.564 857.105 499.244
2958 0 53.1792 13.0878 696 92.5575 857.783 499.389
2959 0 52.148 13.1165 684 94.3801 858.044 498.592
2960 0 54.1774 13.0128 705 94.261 857.37 497.637
2961 0 56.1571 13.2485 744 94.6707 856.669 497.337
2962 0 55.1847 13.2464 731 93.4843 856.726 497.249
2963 0 57.125 13.3567 763 93.5439 856.492 496.725
2964 0 59.0801 13.6086 804 92.3396 856.602 496.061
2965 0 58.1316 14.4672 841 91.8977 856.912 495.78
2966 0 60.0729 13.6667 821 94.1523 856.398 495.499
2967 0 61.0638 13.3795 817 94.5251 855.676 494.543
2968 0 62.0678 14.2103 882 92.5363 856.298 494.729
2969 0 65.0486 14.3278 932 92.7822 856.263 493.172
2970 0 65.1134 14.1753 923 94.6306 856.436 492.416
2971 0 68.031 13.7437 935 94.4118 856.172 489.938
2972 0 69.0066 13.7958 952 94.0809 856.437 488.571
2973 0 71.1408 13.8739 987 93.7275 858.222 488.812
2974 0 73.1671 13.5033 988 91.7915 857.804 488.799
2975 0 76.3206 13.4433 1026 91.3655 857.439 488.162
2976 0 79.302 13.9467 1106 89.6718 858.413 487.15
2977 0 80.2132 13.6636 1096 90.3385 857.911 485.977
2978 0 84.1275 13.5509 1140 90.4456 858.093 484.462
2979 0 85.1405 13.8477 1179 90.229 857.739 483.268
2980 0 88.2073 13.3209 1175 91.2281 857.939 482.67
2981 0 91.2391 14.1606 1292 89.3181 857.759 479.02
2982 0 92.2544 13.7663 1270 88.8378 857.895 478.473
2983 0 96.1123 13.2241 1271 90.7443 857.876 475.57
2984 0 100.329 13.9442 1399 91.1565 857.211 473.973
2985 0 105.252 14.1471 1489 91.4177 857.464 472.312
2986 1 54.0624 11.8937 643 93.4603 858.429 495.722
2987 0 52.1243 11.3575 592 90.0659 856.748 489.758
2988 0 56.143 12.1119 680 87.4044 856.803 487.706
2989 0 60.1807 12.5954 758 90.5752 858.264 494.007
2990 0 62.1676 13.2384 823 88.5966 857.989 492.228
2991 0 63.0178 13.4089 845 88.8414 857.982 491.323
2992 0 65.0545 12.8508 836 91.5682 858.565 489.257
2993 0 69.048 12.8461 887 90.7621 857.87 488.706
2994 0 70.0625 12.7172 891 87.6308 856.863 488.513
2995 0 72.0494 12.6163 909 87.868 857.164 488.279
2996 0 73.1317 12.498 914 87.6762 857.102 487.119
2997 0 77.0444 12.5901 970 86.3732 856.982 485.398
2998 0 80.1221 13.0301 1044 84.9713 856.899 483.808
2999 0 81.0829 12.3207 999 86.1111 856.636 481.669
3000 0 84.0962 12.4619 1048 84.6928 856.389 481.707
3001 0 86.0665 12.1185 1043 87.1131 856.568 479.652
3002 0 91.0665 13.3639 1217 84.0123 855.993 478.904
3003 0 91.1002 12.7552 1162 85.0714 856.602 476.855
3004 0 94.1077 12.4326 1170 86.9111 856.873 474.984
3005 0 97.1774 12.6573 1230 86.0699 856.582 474.877
3006 0 101.151 12.4566 1260 87.8206 857.564 472.362
3007 0 101.081 11.9607 1209 88.2109 857.247 472.388
3008 0 107.111 12.8278 1374 84.7183 857.176 470.721
3009 0 111.214 12.0039 1335 85.2936 856.396 468.307
3010 0 115.077 11.7747 1355 86.1085 857.05 467.931
3011 0 117.113 10.921 1279 87.6669 857.063 464.493
3012 1 68.1087 11.9808 816 83.7071 857.984 488.376
3013 0 70.1073 12.0387 844 87.096 857.511 487.861
3014 0 73.0411 11.9522 873 86.0355 856.724 487.491
3015 0 75.0225 11.9431 896 85.1172 856.473 486.256
3016 0 75.0511 11.8319 888 86.7027 856.436 484.823
3017 0 79.0369 11.792 932 88.4324 856.999 482.647
3018 0 79.0437 12.1072 957 89.2414 857.203 481.173
3019 0 84.0682 11.8713 998 88.9609 856.42 481.194
3020 0 85.0268 12.0785 1027 89.779 856.603 479.618
3021 0 89.0505 12.0044 1069 90.7596 856.712 477.538
3022 0 91.0519 12.3117 1121 90.4621 856.833 476.706
3023 0 94.118 12.1868 1147 90.7899 858.439 475.834
3024 0 97.125 12.4994 1214 89.6219 858.362 473.494
3025 0 101.108 12.2542 1239 89.7934 858.907 471.609
3026 0 104.104 12.0745 1257 92.3898 859.135 469.54
3027 0 106.098 12.2905 1304 93.0123 858.566 467.61
3028 0 110.11 12.2696 1351 92.3842 858.007 466.333
3029 0 115.16 12.2699 1413 91.0283 858.587 466.301
3030 0 117.194 12.5348 1469 90.9884 858.855 464.631
3031 0 120.229 11.9189 1433 92.351 858.971 461.017
3032 0 127.303 12.4035 1579 89.7201 858.821 458.19
3033 1 69.0792 10.7123 740 85.7784 858.365 488.086
3034 0 71.2704 11.0705 789 79.4297 858.877 482.625
3035 0 73.142 12.3595 904 81.3219 857.165 484.228
3036 0 75.0657 11.1902 840 81.8679 855.514 486.02
3037 0 77.026 11.7623 906 82.4371 856.021 483.521
3038 0 80.0415 11.9563 957 83.0533 855.898 483.272
3039 0 80.0683 11.2029 897 87.2207 856.526 480.341
3040 0 87.0499 12.0965 1053 86.1396 855.993 479.759
3041 0 89.1048 12.2777 1094 87.4333 856.474 477.73
3042 0 92.154 12.2621 1130 87.785 857.148 476.85
3043 0 95.1991 11.9539 1138 88.6292 857.249 475.463
3044 0 98.319 12.1543 1195 89.3966 856.856 473.821
3045 0 100.26 11.8692 1190 90.7361 857.009 469.632
3046 0 104.211 11.6783 1217 90.3657 856.721 469.734
3047 0 107.215 12.0692 1294 90.939 857.276 469.311
3048 0 111.188 11.6919 1300 92.6946 856.916 465.884
3049 0 112.28 11.7831 1323 93.5896 857.224 464.8
3050 0 117.247 12.0088 1408 90.38 856.717 464.276
3051 0 122.322 12.5734 1538 89.8251 857.563 459.382
3052 0 125.279 12.1968 1528 90.9529 857.123 460.278
3053 0 130.313 11.9788 1561 90.8027 856.879 458.024
3054 0 130.451 11.4832 1498 93.9392 857.624 452.692
3055 1 76.2141 10.418 794 84.8388 857.538 483.686
3056 0 80.1184 10.3347 828 84.8756 857.3 481.627
3057 0 80.1362 10.4073 834 123.434 857.278 481.597
3058 0 84.1511 11.4081 960 85.0938 857.29 479.596
3059 0 85.1081 10.4808 892 87.0964 857.448 476.455
3060 0 88.1108 10.7138 944 85.7966 857.664 476.753
3061 0 91.1561 10.7618 981 86.7482 857.311 475.22
3062 0 95.2044 10.9449 1042 86.8944 856.952 470.791
3063 0 98.3969 11.3621 1118 86.1225 857.742 467.02
3064 0 101.38 11.4223 1158 87.7902 857.848 460.428
3065 0 104.318 10.9281 1140 89.0544 857.571 457.418
3066 0 109.475 11.3908 1247 87.5638 857.419 456.409
3067 1 63.1764 10.5103 664 84.8208 858.67 478.883
3068 0 65.1609 11.0189 718 85.5571 858.224 479.163
3069 0 66.0433 10.266 678 87.4145 856.546 486.173
3070 0 67.1797 11.4767 771 93.4527 857.63 485.243
3071 0 69.146 10.9768 759 93.3241 857.184 484.91
3072 0 72.1111 11.5239 831 92.4188 857.69 483.034
3073 0 73.1618 11.208 820 95.1268 857.261 481.733
3074 0 76.1249 11.954 910 91.6857 856.882 480.519
3075 0 78.2129 11.865 928 93.3815 856.524 479.222
3076 0 84.161 12.7969 1077 90.4123 856.557 480.495
3077 0 87.1996 12.9817 1132 89.5062 857.121 479.672
3078 0 89.0968 13.042 1162 89.5069 856.898 478.732
3079 0 89.0968 13.042 1162 158.374 855.89 478.79
3080 0 92.0602 11.6989 1077 94.5747 856.968 474.64
3081 0 96.0855 11.8436 1138 91.3735 856.905 474.018
3082 1 51.0774 11.1791 571 83.2697 856.3 498.053
3083 0 53.0283 10.5604 560 84.1589 856.032 497.166
3084 0 54.1609 11.7428 636 83.2657 856.333 495.396
3085 0 57.3094 12.6157 723 82.4232 857.939 488.924
3086 0 54.0293 11.1236 601 89.6706 856.649 495.692
3087 0 56.1366 11.6501 654 89.4358 856.624 493.965
3088 0 59.1264 11.5853 685 89.0015 856.222 494.178
3089 0 59.1758 12.1671 720 89.2347 856.343 492.307
3090 0 60.1274 11.5422 694 90.621 856.682 492.774
3091 0 63.1678 12.3164 778 88.0758 856.672 491.302
3092 0 65.0891 12.4445 810 88.3543 856.23 489.172
3093 0 65.139 11.6827 761 90.7162 856.319 488.848
3094 0 67.2155 12.1549 817 90.0196 856.009 488.655
3095 0 67.155 12.3148 827 93.6264 856.429 487.752
3096 0 68.0756 12.6036 858 94.3205 857.076 485.406
3097 0 72.0923 12.2482 883 93.1518 857.072 483.965
3098 0 73.0836 12.0136 878 93.9761 856.868 482.637
3099 0 75.0714 12.2017 916 92.369 855.501 482.219
3100 0 76.0903 12.0909 920 92.5294 856.774 480.351
3101 0 77.1458 12.1718 939 93.4398 856.727 477.79
3102 0 81.0882 12.7145 1031 91.872 856.622 474.774
3103 0 81.0601 12.9163 1047 94.2178 856.472 473.238
3104 0 85.0755 12.2715 1044 94.704 857.145 470.556
3105 0 86.1024 12.4154 1069 94.5688 856.591 469.772
3106 0 89.0833 12.8644 1146 94.0672 856.51 467.603
3107 0 92.1982 12.1694 1122 97.2237 857.777 465.163
3108 0 94.1524 11.9593 1126 96.9076 858.352 463.146
3109 0 97.1454 12.3423 1199 94.6972 858.072 460.784
3110 0 99.2133 12.4882 1239 94.113 857.773 456.729
3111 0 102.177 12.772 1305 93.5831 857.535 456.002
3112 0 103.174 12.6195 1302 94.0891 857.324 454.8
3113 0 109.385 12.7988 1400 91.8079 857.651 455.342
3114 0 111.202 12.3739 1376 93.4528 857.949 452.447
3115 0 112.348 11.678 1312 94.4581 857.664 450.235
3116 0 119.236 11.8085 1408 93.5369 857.577 449.58
3117 0 124.159 12.9592 1609 90.9192 857.729 445.973
3118 0 128.296 12.0113 1541 93.5516 857.34 444.438
3119 0 131.162 11.5201 1511 94.4533 857.175 444.712
3120 0 138.162 12.2392 1691 94.3684 856.691 439.211
3121 0 140.224 12.1876 1709 96.3054 856.982 436.441
3122 0 147.224 12.3621 1820 96.3725 857.104 434.146
3123 0 148.223 12.1708 1804 98.6951 856.915 432.797
3124 0 157.289 12.0733 1899 98.0284 857.168 430.392
3125 0 161.231 12.3487 1991 99.3119 857.152 426.087
3126 0 166.179 12.5467 2085 100.2 857.2 422.583
3127 0 172.183 12.6668 2181 100.997 857.359 419.376
3128 0 181.199 13.4383 2435 99.5811 857.334 416.36
3129 0 185.191 12.9326 2395 101.583 857.484 413.337
3130 0 194.167 13.6841 2657 100.537 857.711 412.253
3131 0 200.187 13.2376 2650 101.475 857.466 408.443
3132 0 206.146 13.505 2784 102.351 858.083 401.865
3133 0 213.197 13.3398 2844 103.565 857.196 401.31
3134 0 219.288 13.5256 2966 103.523 857.234 394.905
3135 0 226.244 12.6545 2863 107.169 857.025 392.067
3136 0 235.304 12.8642 3027 105.695 857.472 386.915
3137 1 57.0981 9.98282 570 84.1509 859.265 477.865
3138 0 57.0939 9.77338 558 85.862 855.735 475.158
3139 0 62.2339 10.5248 655 88.4397 855.994 484.986
3140 0 63.2867 9.65448 611 77.712 857.972 488.633
3141 0 65.2237 8.9538 584 77.7123 857.682 488.462
3142 0 72.0974 9.36234 675 76.5333 856.362 483.225
3143 0 71.1081 8.71912 620 77.7952 856.006 484.029
3144 0 74.059 9.72197 720 77.6278 855.932 480.979
3145 0 77.052 9.21455 710 79.2479 855.216 481.434
3146 0 79.0505 9.17136 725 80.8621 855.217 480.993
3147 0 82.0586 9.78569 803 80.5928 855.027 478.406
3148 0 84.0504 9.9821 839 80.5244 855.335 476.462
3149 0 88.1155 10.838 955 80.1068 855.35 472.901
3150 0 93.0867 11.6128 1081 79.2155 855.376 472.478
3151 0 97.0711 11.1671 1084 87.5018 855.286 471.252
3152 1 50.1117 9.33913 468 89.515 858.69 495.733
3153 0 51.2937 10.6641 547 87.7569 856.737 494.545
3154 0 46.0077 9.93312 457 83.1466 858.602 485.91
3155 0 51.0394 9.32612 476 81.2836 854.975 496.212
3156 0 52.0677 9.39162 489 81.4601 855.654 497.004
3157 0 57.0231 10.978 626 78.508 855.65 493.553
3158 0 54.0291 10.1057 546 84.2472 855.74 494.522
3159 0 59.0386 10.5694 624 81.9872 855.303 491.252
3160 0 59.0481 9.97492 589 85.2241 855.954 492.581
3161 0 61.0568 10.1381 619 86 856.231 491.032
3162 0 64.0618 10.4118 667 86.3208 855.733 489.7
3163 0 65.1038 9.72293 633 86.1675 856.016 490.447
3164 0 71.0627 12.3131 875 79.5966 855.24 484.61
3165 0 73.1468 12.6458 925 94.5135 856.471 484.405
3166 0 76.0486 12.4131 944 95.1006 858.52 484.49
3167 0 77.0544 12.0954 932 95.5043 858.04 483.734
3168 0 80.1051 12.2839 984 96.9045 859.015 482.239
3169 0 85.0589 12.5207 1065 94.5211 858.775 482.071
3170 0 87.0395 12.1554 1058 97.7429 858.971 479.599
3171 0 90.0604 12.4916 1125 96.3387 859.034 479.04
3172 0 92.0803 12.8475 1183 96.0685 859.39 476.56
3173 0 94.091 12.5623 1182 97.346 858.709 475.098
3174 0 96.0795 12.7082 1221 97.4767 859.319 474.001
3175 0 101.177 13.2243 1338 95.8871 859.463 474.084
3176 1 55.0967 11.1259 613 94.3344 859.648 496.987
3177 0 57.1183 11.0647 632 95.1329 859.109 494.736
3178 0 59.2197 12.0061 711 96.225 858.314 490.949
3179 0 58.218 10.8729 633 90.0569 858.191 488.134
3180 0 58.0974 11.3086 657 86.6651 856.499 495.627
3181 0 61.0232 11.5366 704 88.4489 856.08 492.886
3182 0 61.0626 10.9068 666 91.1802 855.545 492.59
3183 0 64.0266 11.9325 764 89.5105 856.614 491.308
3184 0 67.0957 12.1468 815 87.535 856.427 490.757
3185 0 67.0464 11.6337 780 90.309 854.713 490.091
3186 0 71.0698 11.9038 846 89.5307 855.006 489.031
3187 0 72.0487 12.0613 869 90.1231 855.64 487.502
3188 0 75.0863 11.9596 898 91.4098 855.753 487.871
3189 0 75.0473 12.0191 902 94.3259 856.426 486.225
3190 0 78.0438 12.0061 937 93.9114 855.69 484.585
3191 0 81.0275 12.4649 1010 92.4703 855.669 483.886
3192 0 82.0718 12.2576 1006 95.4066 855.831 482.033
3193 0 84.0649 12.3714 1040 95.2192 856.507 481.154
3194 0 87.1426 12.2672 1069 95.8344 856.608 478.279
3195 0 88.1768 11.9646 1055 99.49 857.576 479.476
3196 0 92.1642 12.4994 1152 99.8438 858.301 477.378
3197 0 95.156 12.4427 1184 100.507 858.2 475.602
3198 0 98.1861 12.9244 1269 97.9299 858.729 474.603
3199 0 102.226 12.9223 1321 98.3618 858.497 471.702
3200 0 106.401 12.4811 1328 98.9277 858.337 470.609
3201 0 108.357 13.2986 1441 102.115 858.248 466.335
3202 1 58.17 11.0366 642 97.3396 858.629 493.41
3203 0 60.2891 11.0302 665 96.8586 858.269 492.872
3204 0 62.2986 12.0227 749 84.5701 858.853 491.626
3205 0 64.2046 11.8372 760 88.2605 858.364 487.8
3206 0 64.0307 11.3227 725 82.1062 856.495 490.852
3207 0 66.0299 10.571 698 83.7665 855.725 489.95
3208 0 68.1411 10.9919 749 82.2283 857.052 488.92
3209 0 69.1579 11.1918 774 84.062 856.097 486.78
3210 0 72.0488 10.7982 778 85.7648 855.838 485.29
3211 0 75.0547 11.1652 838 84.1706 856.276 484.939
3212 0 77.1021 11.3616 876 85.2534 855.93 482.987
3213 0 79.1618 11.3312 897 86.2977 856.388 481.829
3214 0 81.0648 11.756 953 85.5572 856.507 479.17
3215 0 84.0564 11.9325 1003 85.4576 856.447 478.613
3216 0 86.0518 11.7487 1011 86.4085 856.366 476.817
3217 0 87.224 11.5106 1004 85.5717 856.791 477.538
3218 0 89.2556 11.4503 1022 86.3522 857.16 473.898
3219 0 91.2588 10.914 996 87.3584 857.527 474.223
3220 0 95.2235 11.2997 1076 86.3058 857.038 471.828
3221 0 98.147 11.8598 1164 86.9528 857.156 471.057
3222 0 101.193 10.5244 1065 90.1897 856.534 466.68
3223 0 104.195 11.4209 1190 88.1908 856.982 466.176
3224 1 56.1327 8.71151 489 83.7485 856.654 492.583
3225 0 58.0501 9.87079 573 82.3508 855.846 489.866
3226 0 59.0784 11.307 668 82.3204 856.346 488.531
3227 0 59.2265 10.1981 604 84.7169 857.859 490.863
3228 0 60.227 9.44759 569 86.42 858.236 489.51
3229 0 62.14 9.96138 619 85.9192 857.885 487.483
3230 0 65.2211 9.73611 635 87.0945 858.435 487.438
3231 0 67.1858 10.5379 708 85.4322 858.383 486.71
3232 0 70.1777 10.2739 721 85.6852 857.877 484.918
3233 0 70.1981 10.9832 771 86.4086 857.537 483.18
3234 0 73.166 10.2643 751 87.5672 857.61 483.514
3235 0 77.295 11.0356 853 86.2333 857.781 481.707
3236 0 82.1573 11.2467 924 84.2489 857.341 481.896
3237 0 82.1231 11.3245 930 85.7624 857.256 479.959
3238 0 82.1415 11.7358 964 85.9056 856.708 479.461
3239 0 86.2014 11.3803 981 86.1203 857.261 478.531
3240 0 89.1109 11.7494 1047 84.6953 856.77 476.016
3241 0 90.1776 11.7657 1061 85.1574 856.813 475.473
3242 0 94.1578 11.6825 1100 86.1291 857.116 472.805
3243 0 97.1888 11.74 1141 85.1455 857.393 470.894
3244 0 99.3151 12.2942 1221 85.3686 857.057 465.545
3245 0 102.388 11.7397 1202 86.7255 856.627 464.508
3246 0 106.275 11.7431 1248 86.871 857.086 463.108
3247 1 55.1309 10.1032 557 81.2496 857.201 490.713
3248 0 57.1024 10.9803 627 78.9936 857.494 490.608
3249 0 56.0625 10.5953 594 79.3384 857.721 490.682
3250 0 61.1117 10.8654 664 78.9699 857.369 487.419
3251 0 63.0168 10.9495 690 77.9188 856.255 487.616
3252 0 65.0635 10.8048 703 79.1437 857.151 488.149
3253 0 67.0257 11.0555 741 80.0418 856.634 486.533
3254 0 67.0836 10.3602 695 82.5583 856.488 485.77
3255 0 71.0979 11.1255 791 81.1378 856.968 486.083
3256 0 72.0799 11.3901 821 83.5104 857.089 482.692
3257 0 74.0583 11.3964 844 83.5581 857.254 481.988
3258 0 78.1008 11.3955 890 84.1393 856.771 478.443
3259 0 80.1036 11.585 928 85.181 856.637 478.49
3260 0 81.041 11.6361 943 87.4062 856.946 478.475
3261 0 84.0646 11.515 968 88.0227 856.602 477.397
3262 0 88.096 12.5204 1103 85.5929 857.058 475.861
3263 0 89.1165 11.3447 1011 89.8783 856.8 474.71
3264 0 91.0654 11.7169 1067 89.2465 856.855 474.873
3265 0 95.1192 11.2911 1074 89.9395 856.596 473.384
3266 0 96.0702 11.8039 1134 90.0855 856.871 471.333
3267 0 101.035 12.1344 1226 88.5489 856.443 467.508
3268 0 102.222 11.6902 1195 90.3891 856.239 465.421
3269 0 105.185 12.0169 1264 92.674 856.924 468.708
3270 0 110.116 12.0237 1324 90.3074 855.833 462.585
3271 0 114.095 12.7701 1457 88.9012 856.359 457.642
3272 0 118.06 12.2395 1445 91.0007 856.109 456.35
3273 0 125.076 12.6563 1583 89.6785 856.577 455.162
3274 0 129.125 12.9642 1674 90.0723 856.936 453.369
3275 0 133.241 12.4961 1665 93.803 856.4 450.313
3276 0 136.173 12.1904 1660 96.9759 856.658 447.51
3277 0 144.155 12.7224 1834 94.6401 856.257 445.37
3278 1 75.0616 10.8311 813 87.0886 856.403 481.494
3279 0 78.0876 11.2438 878 87.5216 856.345 480.842
3280 0 80.0458 12.3429 988 83.829 857.417 479.769
3281 0 83.122 12.4877 1038 94.5501 858.973 477.297
3282 0 84.124 11.7208 986 96.3529 858.929 476.012
3283 0 86.0612 12.2006 1050 95.6867 858.995 475.756
3284 0 89.0788 12.0792 1076 95.6933 858.098 473.68
3285 0 94.1033 12.1143 1140 95.7675 857.835 471.218
3286 0 95.1449 12.4757 1187 95.4861 857.738 471.439
3287 0 96.0913 11.8533 1139 97.1607 857.996 468.973
3288 0 101.113 12.2141 1235 97.2186 858.352 466.355
3289 0 101.053 11.9046 1203 99.0756 858.235 466.23
3290 0 105.137 11.642 1224 98.5123 858.44 463.763
3291 0 110.121 12.1865 1342 94.6542 858.292 463.093
3292 0 112.087 11.6695 1308 96.3647 857.413 460.682
3293 1 60.0775 10.037 603 91.1824 857.955 489.113
3294 0 65.0408 11.193 728 84.2157 857.21 488.431
3295 0 65.2656 11.2004 731 83.3584 858.544 482.176
3296 0 67.1881 11.8176 794 81.9081 858.67 481.564
3297 0 70.0482 12.0203 842 82.9216 857.442 483.176
3298 0 71.0621 11.8629 843 85.4543 857.121 484.535
3299 0 72.0506 11.5613 833 87.8379 856.689 481.927
3300 0 75.1031 11.1979 841 87.9929 856.732 480.037
3301 0 79.0846 12.4677 986 83.4817 857.254 479.931
3302 0 82.0769 12.1593 998 83.7966 857.197 477.965
3303 0 84.0638 11.8362 995 85.209 857.009 474.102
3304 0 87.1135 12.1795 1061 84.6616 857.4 474.554
3305 0 90.1106 11.7189 1056 86.501 857.098 473.871
3306 0 91.1941 11.8648 1082 84.6433 858.167 471.3
3307 0 94.1124 11.7732 1108 86.3998 858.136 470.173
3308 0 96.0717 10.9397 1051 83.5385 857.705 467.692
3309 0 98.0401 11.4953 1127 86.1934 856.34 468.481
3310 0 101.109 11.2749 1140 85.4219 856.847 467.871
3311 0 105.158 11.5636 1216 83.3454 856.918 466.787
3312 0 109.078 11.9089 1299 82.8876 857.846 465.117
3313 0 111.107 11.7815 1309 83.8633 857.312 462.987
3314 1 60.1306 10.7932 649 80.6348 858.34 490.276
3315 0 60.1085 10.1816 612 83.1471 858.358 487.479
3316 0 64.1555 11.2383 721 83.0804 858.689 483.205
3317 0 65.1833 11.7668 767 81.3729 858.064 483.424
3318 0 67.1829 12.6818 852 86.0399 858.488 484.633
3319 0 71.1695 12.7161 905 85.6851 858.599 485.33
3320 0 70.1837 12.8662 903 132.399 860.592 485.402
3321 0 72.0695 11.9884 864 87.6296 857.697 481.659
3322 0 76.1277 12.0324 916 87.4607 857.892 477.458
3323 0 78.1342 12.2098 954 87.2568 857.345 478.296
3324 0 82.1172 13.3224 1094 83.6782 857.294 476.5
3325 0 85.1553 13.1055 1116 84.3441 857.267 475.461
3326 0 88.1662 12.8507 1133 85.1156 857.501 473.663
3327 0 90.1217 13.0046 1172 85.4292 857.809 471.507
3328 0 91.2196 12.8372 1171 86.222 857.726 469.728
3329 0 95.2048 13.3607 1272 83.9984 857.664 471.305
3330 0 96.3049 12.6889 1222 85.491 857.349 470.242
3331 0 99.3184 12.1931 1211 87.4955 857.475 466.756
3332 0 105.216 12.27 1291 86.5391 857.176 464.768
3333 1 52.0806 9.4853 494 83.2955 856.988 487.986
3334 0 52.1058 9.92212 517 82.0077 856.83 485.714
3335 0 56.096 10.4999 589 77.3464 856.744 482.387
3336 0 59.038 11.4164 674 80.1498 856.089 490.665
3337 0 61.0296 11.6501 711 79.9831 856.228 489.048
3338 0 63.0343 12.1363 765 80.0157 855.963 488.706
3339 0 66.0562 12.4137 820 79.1378 856.137 487.115
3340 0 66.0545 11.6268 768 81.4753 856.307 487.992
3341 0 68.079 12.5002 851 80.3819 856.115 485.77
3342 0 71.1092 12.0941 860 80.4535 856.206 484.734
3343 0 72.0828 11.5978 836 81.3588 856.281 482.685
3344 0 75.095 12.4509 935 79.6706 856.079 484.653
3345 0 76.1325 11.9266 908 81.0815 856.387 483.095
3346 0 77.0721 11.7422 905 81.421 856.446 480.681
3347 0 82.0641 12.3074 1010 81.5069 856.614 479.035
3348 0 83.0731 12.4589 1035 81.429 857.437 477.951
3349 0 87.175 12.343 1076 81.5483 857.123 477.468
3350 0 89.134 12.4868 1113 80.035 856.339 475.593
3351 0 92.3098 12.2847 1134 80.6808 856.65 473.13
3352 0 95.1571 12.5477 1194 80.9632 856.93 472.982
3353 0 99.1918 13.2168 1311 79.7399 856.767 471.457
3354 0 100.144 12.2823 1230 81.0073 856.811 469.616
3355 1 58.1115 10.4799 609 80.9737 856.906 490.857
3356 0 60.1562 11.6696 702 78.0684 856.728 487.474
3357 0 59.0792 11.0699 654 78.471 856.246 484.856
3358 0 62.0324 11.494 713 70.8527 856.689 490.645
3359 0 67.054 12.3184 826 68.2893 856.708 489.96
3360 0 68.0604 12.8268 873 68.4754 857.003 488.974
3361 0 69.0965 11.8819 821 70.19 857.429 488.372
3362 0 71.0531 12.3288 876 69.7694 857.485 487.597
3363 0 73.1269 12.745 932 69.6127 857.22 486.348
3364 0 75.0984 12.1574 913 70.9617 857.434 483.526
3365 0 77.0862 12.4276 958 70.453 857.646 484.431
3366 0 80.0777 11.851 949 72.5153 857.725 483.623
3367 0 83.053 11.9321 991 72.1857 857.682 481.607
3368 0 85.1228 11.7242 998 73.9659 857.813 478.895
3369 0 89.0889 11.8533 1056 73.0057 857.031 477.111
3370 0 92.0503 12.189 1122 73.6355 857.756 476.208
3371 0 96.0595 12.003 1153 75.4883 857.675 474.572
3372 0 98.0904 12.0297 1180 75.617 857.942 472.275
3373 1 52.1903 10.5767 552 75.0634 857.178 495.696
3374 0 53.0547 10.8379 575 77.9826 857.689 495.666
3375 0 55.0772 11.2569 620 82.0258 857.589 495.031
3376 0 55.143 11.0621 610 83.9607 858.262 494.352
3377 0 58.1493 12.038 700 82.4986 857.64 493.544
3378 0 58.201 11.34 660 85.6818 858.256 492.838
3379 0 61.1589 12.165 744 84.4046 858.738 489.653
3380 0 62.031 11.2686 699 79.0086 857.671 491.01
3381 0 63.0491 10.5473 665 80.4947 857.919 488.295
3382 0 66.047 11.1133 734 81.9537 859.812 486.839
3383 0 69.07 11.7417 811 81.4846 859.815 484.933
3384 0 70.0424 11.3074 792 83.3965 859.8 484.422
3385 0 71.0592 11.1456 792 83.2348 859.101 483.578
3386 0 72.039 10.3 742 82.589 857.887 482.635
3387 0 74.0466 11.2362 832 81.3714 857.674 482.401
3388 0 77.036 11.3973 878 80.8041 857.161 482.027
3389 0 81.0589 11.1154 901 80.9489 857.231 480.3
3390 0 83.0371 11.3202 940 80.3447 856.65 478.649
3391 0 86.0746 11.6759 1005 78.7562 856.833 477.624
3392 0 87.0537 11.0392 961 80.9698 856.948 475.456
3393 0 90.0769 10.3578 933 80.5145 856.373 471.342
3394 0 90.0963 9.80062 883 81.214 857.178 470.186
3395 1 45.0208 9.19574 414 78.1812 856.71 494.251
3396 0 49.0428 11.0924 544 77.9577 857.193 496.822
3397 0 50.1331 11.5892 581 77.8589 858.542 492.337
3398 0 53.1178 11.4839 610 77.5492 858.575 493.807
3399 0 53.0648 10.3835 551 78.9673 856.773 496.419
3400 0 54.0638 10.7466 581 79.3993 856.945 495.384
3401 0 56.0367 10.5288 590 79.2492 857.032 494.464
3402 0 57.0312 10.5381 601 80.1997 856.531 493.544
3403 0 59.0424 10.6364 628 79.2707 857.111 493.957
3404 0 61.1227 10.2253 625 80.6896 857.357 492.426
3405 0 63.0509 10.6581 672 80.2842 856.1 491.201
3406 0 66.1221 10.7075 708 80.5056 856.788 491.374
3407 0 71.1234 11.6417 828 78.5821 857.301 490.553
3408 0 70.1408 10.208 716 82.7905 856.585 490.352
3409 0 74.0765 11.4611 849 81.4299 856.464 487.458
3410 0 75.1415 11.3918 856 82.9463 856.188 486.717
3411 0 78.2178 11.9922 938 83.1301 857.128 484.372
3412 0 84.1905 12.4242 1046 84.2486 855.85 484.331
3413 0 86.1764 12.8806 1110 84.5333 856.141 482.336
3414 0 88.1924 12.6541 1116 86.078 855.744 480.899
3415 0 91.4515 12.5422 1147 87.4699 855.892 477.853
3416 0 93.3332 12.525 1169 88.9983 855.645 474.919
3417 0 96.3828 12.7201 1226 89.3776 855.768 473.676
3418 0 101.365 12.746 1292 87.9714 855.862 472.651
3419 0 104.375 12.7809 1334 88.7541 855.992 473.058
3420 1 54.1188 10.8835 589 87.9745 856.941 498.423
3421 0 56.2182 11.9178 670 88.3896 856.384 495.764
3422 0 59.1934 11.6905 692 86.8049 856.785 496.366
3423 0 61.1457 12.2331 748 87.7955 856.846 495.273
3424 0 59.1217 12.5166 740 90.323 857.097 494.2
3425 0 62.0709 11.793 732 90.7514 857.108 493.429
3426 0 66.0677 11.9726 791 90.885 855.896 490.912
3427 0 68.235 11.6656 796 92.9736 855.817 486.171
3428 0 71.3246 12.1978 870 91.5793 855.471 479.836
3429 0 72.2991 12.7664 923 91.4984 855.76 477.348
3430 0 75.2139 12.0589 907 91.9019 855.906 477.612
3431 0 75.3692 12.2995 927 92.9968 855.879 473.29
3432 0 82.3985 13.2041 1088 88.8438 856.092 474.727
3433 0 84.332 13.3046 1122 89.4358 856.668 472.289
3434 0 87.2998 12.7148 1110 90.8973 856.133 470.883
3435 1 46.2086 11.6861 540 87.0648 856.494 491.724
3436 0 48.109 11.5779 557 87.2083 856.307 488.262
3437 0 50.1747 11.44 574 87.2143 856.603 491.585
3438 0 52.2082 12.4693 651 85.5146 856.813 490.771
3439 0 51.0871 12.1557 621 85.8551 856.14 496.003
3440 0 53.069 12.7004 674 85.9822 856.159 493.369
3441 0 57.1008 12.7144 726 85.314 856.432 494.537
3442 0 58.1282 12.9541 753 85.7145 856.538 493.819
3443 0 59.1088 13.3483 789 86.1153 857.067 492.124
3444 0 61.0436 13.1054 800 86.8462 856.91 490.998
3445 0 62.0783 13.193 819 87.2137 857.766 488.622
3446 0 65.3104 13.4435 878 86.4681 857.779 483.27
3447 0 68.1614 13.6294 929 85.8805 858.42 481.549
3448 0 69.3131 13.2875 921 87.4799 857.756 479.927
3449 0 69.1836 13.2257 915 88.8842 856.961 478.769
3450 0 72.2043 13.2402 956 89.6726 857.118 477.451
3451 0 76.2889 13.3702 1020 89.4471 857.902 474.137
3452 0 79.2297 13.7322 1088 88.6985 857.494 473.011
3453 0 82.2961 13.9132 1145 88.9188 857.324 472.242
3454 0 82.2572 13.9319 1146 89.9511 856.652 471.354
3455 0 85.2519 14.6742 1251 88.263 856.952 470.5
3456 0 87.2355 14.2029 1239 89.7506 857.103 468.017
3457 0 90.2718 13.5258 1221 92.303 856.743 468.739
3458 0 90.2718 13.5369 1222 153.297 856.732 468.848
3459 0 95.2389 14.5739 1388 90.7896 857.154 464.568
3460 0 99.2262 14.3712 1426 91.249 856.774 462.311
3461 0 100.225 14.4774 1451 92.0772 856.307 460.56
3462 0 105.18 14.0901 1482 92.8698 856.61 460.292
3463 0 107.291 13.8223 1483 95.1861 856.394 455.686
3464 0 109.279 13.5433 1480 97.6791 856.508 452.709
3465 0 115.264 13.7164 1581 97.723 856.596 451.797
3466 0 117.277 13.7964 1618 98.7157 856.365 449.917
3467 0 122.329 13.4801 1649 99.2268 856.531 449.22
3468 0 127.293 13.7792 1754 98.6585 856.82 450.269
3469 1 50.2061 9.97886 501 90.996 856.112 489.533
3470 0 49.1447 10.4793 515 87.8155 856.342 486.748
3471 0 54.1685 11.0027 596 80.948 856.765 493.144
3472 0 55.064 12.0769 665 79.6707 857.259 492.385
3473 0 59.0634 11.7331 693 79.6638 857.494 491.071
3474 0 60.1402 12.0219 723 81.1826 858.155 492.177
3475 0 62.1021 12.0608 749 82.1202 857.928 490.053
3476 0 67.0754 11.748 788 81.7525 857.725 490.447
3477 0 69.2314 12.6099 873 80.9347 857.414 488.3
3478 0 69.1498 12.2921 850 83.7282 857.327 484.576
3479 0 72.0986 12.5106 902 84.0876 858.343 484.712
3480 0 73.0539 11.7174 856 85.8657 857.637 483.828
3481 0 75.1888 12.2492 921 85.7351 857.568 480.558
3482 0 79.271 12.287 974 85.0667 857.735 478.807
3483 0 80.2253 12.1159 972 86.3364 857.707 477.837
3484 0 84.2874 11.6269 980 87.402 858.042 474.778
3485 0 87.2468 11.9546 1043 87.2253 858.232 474.166
3486 0 91.2456 12.4718 1138 86.21 858.199 472.668
3487 0 93.374 12.4874 1166 86.6158 857.996 468.254
3488 0 96.2579 11.9159 1147 88.8483 858.233 466.406
3489 0 99.2755 12.0372 1195 90.0594 858.104 466.202
3490 1 52.1108 10.0171 522 84.9942 858.546 490.454
3491 0 54.1507 11.2833 611 84.3699 858.098 489.028
3492 0 55.2255 12.2226 675 83.8607 858.402 488.532
3493 0 56.154 12.1096 680 84.7147 858.219 488.935
3494 0 56.2034 11.5651 650 86.2 858.06 488.266
3495 0 57.1928 11.3826 651 88.2396 858.601 486.717
3496 0 61.2254 11.6455 713 87.9944 858.257 486.245
3497 0 61.2221 12.1035 741 88.1201 858.367 483.783
3498 0 66.2104 12.9134 855 76.2901 857.772 483.766
3499 0 63.2554 11.6828 739 88.5142 858.369 482.199
3500 0 63.1127 11.1071 701 89.2254 858.027 479.775
3501 0 65.1208 11.7474 765 88.1556 857.816 476.434
3502 0 69.2543 11.6671 808 88.323 857.783 473.467
3503 0 71.2445 11.1728 796 89.2977 857.696 473.663
3504 0 71.2218 11.5555 823 89.4945 857.66 470.747
3505 0 75.2815 11.8356 891 88.6386 857.713 468.516
3506 0 76.2749 11.865 905 89.9613 857.436 467.185
3507 0 81.3048 12.1641 989 88.5602 857.704 466.84
3508 0 82.1375 11.6634 958 90.8455 857.294 461.26
3509 0 84.2786 12.0909 1019 91.1227 856.925 456.177
3510 0 88.2012 12.5622 1108 89.787 856.67 457.997
3511 0 92.254 12.3897 1143 90.1584 857.307 455.858
3512 0 96.2136 12.1293 1167 90.4816 857.435 455.248
3513 0 100.441 11.8777 1193 90.9413 857.148 453.821
3514 1 53.3863 10.1711 543 86.2873 856.849 481.781
3515 0 56.228 10.2796 578 83.5623 857.133 485.246
3516 0 57.2279 10.2398 586 79.5597 857.287 487.66
3517 0 59.2109 10.319 611 79.5172 857.781 487.735
3518 0 61.1511 10.6785 653 79.1179 857.646 490.087
3519 0 62.1462 10.6523 662 80.1767 857.628 489.976
3520 0 64.1503 11.3172 726 80.1887 857.068 488.824
3521 0 69.1221 11.2265 776 78.4884 856.619 488.707
3522 0 70.227 11.3204 795 79.1031 856.932 488.611
3523 0 71.1962 10.5483 751 81.028 856.666 483.369
3524 0 72.3408 11.4458 828 80.8587 856.344 481.528
3525 0 75.3639 10.7877 813 82.6691 856.284 478.336
3526 0 77.4537 10.4579 810 84.1235 855.636 478.031
3527 0 81.2936 11.2063 911 84.1065 856.081 475.362
3528 0 84.5064 11.2181 948 84.423 855.674 474.016
3529 0 90.3166 12.8769 1163 81.2683 855.064 477.178
3530 0 91.495 12.7001 1162 84.4432 855.588 474.972
3531 0 95.3443 12.6384 1205 85.0042 855.179 473.012
3532 0 97.5115 13.4241 1309 84.3048 855.395 471.557
3533 0 102.382 13.1762 1349 84.8191 855.345 471.382
3534 0 103.306 13.0583 1349 85.9481 856.001 470.792
3535 0 106.393 13.8167 1470 84.385 855.963 467.928
3536 0 109.462 13.338 1460 85.1747 855.888 466.168
3537 0 112.465 13.7821 1550 84.3252 855.584 463.688
3538 0 118.396 13.3197 1577 83.6988 856.177 461.105
3539 0 122.451 13.1073 1605 83.853 856.443 456.845
3540 1 65.3189 10.9157 713 76.7055 857.086 488.369
3541 0 67.2609 12.3549 831 75.6619 857.117 486.304
3542 0 70.4035 12.0875 851 79.8461 856.959 483.898
3543 0 73.1212 12.4724 912 80.5987 856.868 483.359
3544 0 78.0691 11.5283 900 81.6867 857.387 482.92
3545 0 81.0994 12.4292 1008 80.4137 858.454 480.6
3546 0 81.0689 11.1757 906 83.1347 858.698 478.4
3547 0 82.0555 11.0535 907 86.0309 858.433 473.894
3548 0 87.0839 12.2526 1067 80.0066 857.092 475.269
3549 0 90.0939 11.4103 1028 85.0759 857.373 474.207
3550 0 93.2143 11.908 1110 84.0486 857.55 471.732
3551 0 95.1021 11.6296 1106 84.104 857.976 469.881
3552 0 98.1204 11.4655 1125 85.4498 858.29 465.076
3553 0 102.148 11.454 1170 85.3205 857.981 468.44
3554 0 104.115 11.1416 1160 85.8552 858.295 469.164
3555 0 105.136 11.2996 1188 86.9411 858.054 464.544
3556 0 105.142 10.6048 1115 90.2771 858.038 458.329
3557 0 108.112 10.9516 1184 90.3032 857.938 454.073
3558 0 108.134 10.9309 1182 93.4501 858.142 449.667
3559 0 113.211 10.6703 1208 95.4801 858.517 448.339
3560 0 112.304 10.5873 1189 98.7687 858.373 441.49
3561 0 122.24 11.2156 1371 95.5996 858.927 438.443
3562 0 121.367 11.2386 1364 97.5279 859.128 436.319
3563 1 132.172 11.4623 1515 95.4812 858.669 442.371
3564 0 140.678 12.7881 1799 92.5136 859.312 432.634
3565 0 143.471 12.7273 1826 93.6572 859.269 430.723
3566 0 148.378 12.8725 1910 93.8492 859.325 427.271
3567 0 154.507 12.7049 1963 95.6602 859.716 424.752
3568 0 154.657 12.3111 1904 100.354 859.446 416.076
3569 0 153.349 11.8292 1814 103.831 859.267 407.955
3570 0 157.354 12.0175 1891 103.952 859.508 405.964
3571 1 170.565 12.2417 2088 103.31 860.368 414.576
3572 0 175.533 12.2427 2149 103.385 859.994 416.036
3573 0 180.518 12.2813 2217 103.014 860.391 413.582
3574 0 184.531 11.9167 2199 105.031 860.389 404.371
3575 0 190.472 11.8233 2252 106.706 860.677 401.537
3576 0 190.394 11.0088 2096 109.02 859.984 402.19
3577 0 192.288 10.9731 2110 111.138 860.49 399.029
3578 0 200.461 11.299 2265 109.111 860.054 387.145
3579 1 157.394 11.252 1771 102.544 861.374 422.063
3580 0 161.404 11.4929 1855 104.091 861.206 420.511
3581 0 168.36 12.4732 2100 101.153 861.086 418.928
3582 0 174.38 12.0255 2097 101.925 861.422 416.671
3583 0 179.477 12.0684 2166 102.844 860.65 408.368
3584 0 189.377 13.3068 2520 97.5008 860.593 411.886
3585 0 196.35 12.6611 2486 99.0808 860.491 411.134
3586 0 203.348 12.8106 2605 99.4453 860.706 406.413
3587 0 209.33 13.1133 2745 100.116 861.231 405.281
3588 0 215.324 13.0083 2801 101.303 860.031 401.234
3589 1 56.1155 9.74776 547 84.3181 859.976 486.771
3590 0 58.0676 9.76448 567 85.1499 860.938 485.778
3591 0 61.189 10.5901 648 83.6018 862.386 485.86
3592 0 64.1354 11.0859 711 82.7398 862.714 486.765
3593 0 64.0751 11.3929 730 82.9493 862.596 486.415
3594 0 64.207 9.96776 640 82.1312 862.275 486.15
3595 0 66.2414 10.5976 702 82.641 862.016 484.681
3596 0 57.2295 9.66285 553 90.5244 862.508 477.843
3597 1 69.2972 10.924 757 86.8124 862.306 481.464
3598 0 71.3524 10.9877 784 86.8903 861.966 481.61
3599 0 73.2218 11.3491 831 86.8412 862.073 479.368
3600 0 76.3053 10.8118 825 87.7952 862.002 478.793
3601 0 79.3726 11.2885 896 88.0536 861.951 476.21
3602 0 74.2154 10.2809 763 94.1009 861.892 470.024
3603 0 82.4498 11.1462 919 90.5147 861.409 473.707
3604 0 82.3035 10.8379 892 90.7489 860.674 467.229
3605 1 40.0936 9.00393 361 86.964 862.413 486.986
3606 0 40.0536 9.46232 379 88.1557 861.974 485.554
3607 0 50.1119 10.297 516 86.3605 862.095 493.531
3608 0 48.023 9.87026 474 81.135 859.091 492.753
3609 0 50.1394 9.27413 465 82.6473 858.903 490.774
3610 0 46.0945 8.95985 413 88.6029 858.356 486.86
3611 0 45.1275 8.9081 402 90.7985 857.774 486.356
3612 0 43.1268 8.16197 352 90.8665 857.997 485.653
3613 0 50.1304 9.01649 452 91.5531 857.94 485.597
3614 0 47.0436 8.80035 414 94.3672 858.065 484.379
3615 0 47.2503 8.69836 411 96.8394 858.406 483.579
3616 0 48.0188 8.95482 430 98.0163 858.628 483.102
3617 0 51.0169 8.89902 454 98.5022 858.974 481.661
3618 0 50.0441 8.9521 448 99.2991 858.75 482.145
3619 0 56.0499 9.95542 558 96.7401 858.556 482.631
3620 0 57.0425 9.88737 564 97.3103 858.333 482.413
3621 0 62.0593 10.0871 626 99.0048 858.203 481.712
3622 1 71.147 11.3006 804 88.4254 859.307 486.031
3623 0 73.1705 11.89 870 91.6609 859.361 483.817
3624 0 75.2323 12.0959 910 92.0791 859.19 483.336
3625 0 76.1504 11.9894 913 94.8182 859.451 480.599
3626 0 76.2557 11.0943 846 95.7837 859.554 483.032
3627 0 79.2299 11.9147 944 94.089 858.803 482.984
3628 0 82.2646 12.399 1020 93.3735 857.61 481.381
3629 0 83.2833 12.2834 1023 92.9022 857.872 479.071
3630 0 89.382 12.8102 1145 95.4952 857.986 476.198
3631 0 90.4626 12.6351 1143 95.7183 858.099 476.013
3632 0 93.3343 12.5892 1175 95.5753 858.155 474.286
3633 0 96.3102 12.5428 1208 92.9429 857.1 470.873
3634 0 99.1702 11.9895 1189 89.4146 856.696 473.117
3635 0 102.257 12.273 1255 89.9466 857.46 470.232
3636 0 104.084 12.4322 1294 90.83 856.684 467.906
3637 1 57.0542 10.306 588 83.3571 856.326 493.553
3638 0 57.0385 10.2387 584 83.0651 856.622 494.009
3639 0 61.0352 10.9445 668 84.4281 855.855 493.656
3640 0 55.0059 9.99893 550 85.7855 855.64 482.662
3641 0 57.1408 10.3079 589 78.3531 855.769 482.779
3642 0 59.0898 9.56172 565 80.9628 855.835 483.784
3643 0 61.1235 10.4542 639 79.8326 855.546 485.698
3644 0 62.0889 9.64745 599 82.0735 856.242 483.139
3645 0 63.0991 10.5231 664 83.2304 855.896 479.88
3646 0 66.0973 10.1063 668 84.9506 855.389 480.196
3647 0 70.0847 10.9439 767 83.7014 855.777 480.043
3648 0 72.0579 10.8385 781 84.2471 855.729 481.37
3649 0 74.0334 10.8059 800 86.0288 855.442 479.469
3650 0 75.0175 10.7975 810 85.5926 855.353 474.986
3651 0 78.0873 11.0005 859 84.8778 855.998 474.765
3652 0 80.2176 10.7956 866 87.4065 855.842 472.865
3653 0 86.0699 11.4907 989 85.9525 855.918 474.306
3654 0 88.0329 11.757 1035 91.8087 855.652 475.321
3655 0 91.0654 11.8596 1080 91.6194 855.794 477.1
3656 0 94.0622 11.4392 1076 93.9684 855.792 475.829
3657 1 52.0296 10.5133 547 91.8885 855.633 494.629
3658 0 50.0479 10.5499 528 91.2462 856.044 490.896
3659 0 50.0498 11.3487 568 90.2606 858.706 479.681
3660 0 56.1447 11.8622 666 93.9504 858.916 491.261
3661 0 56.1717 11.7853 662 95.6148 858.532 490.921
3662 0 56.1146 12.421 697 93.8551 858.696 489.782
3663 0 59.126 11.6531 689 95.6546 859.509 488.161
3664 0 58.0893 11.1552 648 98.0062 858.992 488.73
3665 0 60.1068 12.3281 741 95.2618 859.147 487.113
3666 0 63.1362 12.2751 775 95.2684 859.534 487.139
3667 0 65.0844 12.599 820 95.1695 858.704 486.795
3668 0 63.0293 10.8204 682 93.3255 857.279 487.415
3669 0 65.0772 11.0484 719 94.8734 857.075 484.819
3670 0 65.0772 11.1099 723 146.382 857.091 484.896
3671 0 69.0289 11.4879 793 93.0038 857.137 483.701
3672 0 69.0785 11.4652 792 93.9735 857.1 483.929
3673 0 73.0394 11.487 839 94.3123 857.589 483.64
3674 0 74.0316 11.7247 868 95.2811 857.531 482.767
3675 0 76.0153 11.7608 894 96.5783 857.567 479.528
3676 0 79.0436 11.7404 928 95.4483 857.633 479.427
3677 0 79.0397 11.4373 904 97.1792 857.267 479.315
3678 0 81.0856 11.605 941 98.9522 857.113 478.63
3679 0 84.0784 12.1434 1021 99.1498 857.634 478.103
3680 0 88.0453 11.8008 1039 98.9355 857.426 476.952
3681 0 90.0783 12.256 1104 98.5888 857.214 475.047
3682 0 92.1404 12.4158 1144 98.4886 856.42 473.395
3683 0 92.0568 11.2974 1040 101.53 857.099 472.985
3684 0 98.1822 11.5092 1130 100.053 856.58 471.508
3685 1 55.0337 10.5208 579 99.5164 856.831 491.663
3686 0 58.041 11.199 650 96.8523 857.306 489.642
3687 0 58.0488 10.405 604 99.1573 857.005 488.627
3688 0 60.0452 11.9743 719 95.1516 858.004 486.533
3689 0 62.118 11.5426 717 95.6471 858.06 487.463
3690 0 62.2372 11.7936 734 95.9278 858.035 485.677
3691 0 64.1468 11.7699 755 95.102 857.446 485.63
3692 0 67.1378 12.0796 811 93.9445 857.245 484.44
3693 0 69.1892 12.0539 834 94.4149 857.109 482.412
3694 0 71.1411 11.428 813 96.6396 857.273 480.373
3695 0 74.2961 11.2926 839 95.3492 857.558 478.008
3696 0 76.2154 11.2707 859 95.1746 857.395 479.151
3697 0 74.1641 11.4476 849 96.1567 857.248 477.537
3698 0 79.1852 11.6436 922 94.7397 857.12 474.262
3699 0 80.1631 11.539 925 94.4141 857.248 475.76
3700 0 84.1052 11.6045 976 95.1875 857.037 473.436
3701 0 87.1238 11.4435 997 94.1143 857.096 473.581
3702 0 89.1285 11.4329 1019 94.8597 856.876 471.861
3703 0 92.2117 11.2242 1035 97.1111 856.758 470.292
3704 0 92.2234 11.2661 1039 98.025 856.264 469.546
3705 1 46.0663 9.37779 432 93.2106 855.574 494.148
3706 0 48.1227 10.2031 491 91.6558 856.87 490.611
3707 0 45.0313 10.5704 476 88.6534 855.754 488.252
3708 0 51.0257 11.3864 581 85.8503 855.652 492.747
3709 0 52.0143 11.3623 591 83.4501 855.552 494.841
3710 0 56.1044 11.0687 621 82.1063 856.058 492.264
3711 0 57.1115 11.0486 631 90.962 857.975 491.304
3712 0 58.087 10.863 631 91.9509 857.406 491.529
3713 0 62.1336 11.0568 687 91.3668 856.606 490.394
3714 0 62.2455 11.6796 727 90.9257 857.18 488.964
3715 0 66.0953 11.0447 730 93.137 857.062 489.038
3716 0 64.1403 10.5862 679 97.6421 856.124 487.445
3717 0 67.0966 11.1779 750 96.616 855.849 485.66
3718 0 70.1781 11.8698 833 94.3734 855.927 484.121
3719 0 71.1472 10.907 776 98.058 855.673 482.954
3720 0 72.1442 11.5463 833 97.1693 855.647 483.466
3721 0 73.1732 11.3976 834 99.452 855.782 478.024
3722 0 75.1332 11.3931 856 99.486 855.428 478.279
3723 0 78.1574 11.2593 880 100.341 855.29 478.142
3724 0 79.1304 11.083 877 101.125 855.615 476.286
3725 0 83.208 11.2609 937 99.3842 856.117 473.771
3726 1 41.1146 8.26958 340 103.721 855.926 494.774
3727 0 43.0905 10.0254 432 99.6065 855.606 495.31
3728 0 43.2429 9.5507 413 101.361 856.186 492.528
3729 0 44.1257 10.81 477 95.5535 855.105 492.704
3730 0 45.1741 11.2454 508 97.8189 856.283 490.25
3731 0 45.1685 11.2025 506 92.8498 855.251 491.192
3732 0 46.0501 11.9435 550 93.4745 854.984 490.764
3733 0 45.0385 11.5679 521 94.0269 855.092 491.019
3734 0 49.0638 11.6175 570 93.479 855.416 492.739
3735 0 49.0472 10.8875 534 97.8895 855.214 488.129
3736 0 52.0694 10.9661 571 97.2837 855.214 487.497
3737 0 53.0514 11.5171 611 97.3928 855.285 485.174
3738 0 54.0533 11.4147 617 99.0924 855.447 485.697
3739 0 55.0497 11.6077 639 99.9562 854.869 486.955
3740 0 61.0551 11.5961 708 98.2076 855.138 486.541
3741 0 62.0917 11.4347 710 101.734 855.444 483.444
3742 0 65.0395 12.2233 795 99.9245 855.089 483.229
3743 0 65.0814 12.5689 818 99.835 855.282 482.543
3744 0 68.059 12.2982 837 100.755 855.254 480.356
3745 0 68.0415 12.5365 853 101.28 855.837 478.188
3746 0 73.0744 11.9057 870 102.556 855.669 478.423
3747 0 76.0519 12.2022 928 101.52 855.794 479.006
3748 0 79.0748 11.7863 932 102.644 855.334 475.975
3749 0 82.0934 12.4371 1021 101.738 856.298 475.224
3750 0 85.0852 12.1173 1031 102.598 856.174 473.952
3751 0 88.1074 12.428 1095 101.831 856.229 473.132
3752 0 90.2272 12.5904 1136 101.744 856.462 469.82
3753 0 93.1385 12.2076 1137 103.047 856.026 468.776
3754 1 51.2461 10.5179 539 103.746 857.18 486.889
3755 0 51.207 10.0182 513 95.8363 857.713 484.846
3756 0 52.0154 10.9391 569 102.787 855.645 488.29
3757 0 53.0245 10.5234 558 103.543 856.34 488.192
3758 0 55.0064 10.726 590 101.514 856.156 485.658
3759 0 58.0317 11.1318 646 98.8591 855.822 484.992
3760 0 60.0506 10.7576 646 99.4272 855.72 482.994
3761 0 61.0086 10.8509 662 99.571 856.125 483.175
3762 0 61.0181 10.7673 657 99.9543 856.644 482.419
3763 0 63.0486 11.6894 737 96.9606 856.262 482.023
3764 0 64.0417 10.8211 693 98.7374 856.31 480.355
3765 0 66.0695 11.5182 761 95.7727 856.788 478.486
3766 0 65.1373 11.2685 734 98.9932 857.417 476.369
3767 0 69.1672 11.6385 805 97.1826 857.553 475.216
3768 0 74.1337 11.3983 845 95.9752 856.652 476.781
3769 0 74.058 11.1804 828 97.4698 858.03 474.254
3770 0 83.0986 13.0688 1086 89.2652 857.224 477.079
3771 0 84.1107 12.4598 1048 90.5906 857.386 475.701
3772 0 87.1735 12.6873 1106 89.736 857.477 474.081
3773 0 90.1236 12.1056 1091 89.4913 857.367 472.238
3774 0 93.1053 11.8146 1100 88.8327 857.655 468.392
3775 0 96.0935 11.749 1129 90.4783 857.922 469.454
3776 0 99.0797 11.6977 1159 93.4668 857.905 465.74
3777 1 55.0752 10.6582 587 84.2981 857.92 489.603
3778 0 54.0471 9.34371 505 88.5604 857.291 486.053
3779 0 56.036 11.2785 632 83.2848 856.552 487.274
3780 0 58.0218 9.94453 577 79.2444 856.542 484.31
3781 0 60.0798 11.5846 696 83.1149 858.737 485.822
3782 0 59.0864 10.9331 646 86.9242 858.602 484.051
3783 0 62.0739 11.5185 715 84.1986 858.723 485.677
3784 0 63.0457 11.8644 748 85.254 858.787 482.524
3785 0 65.1005 11.4746 747 86.5569 858.896 484.167
3786 0 63.2444 11.4476 724 87.9006 857.91 481.164
3787 0 69.1866 12.0544 834 84.3549 857.819 484.276
3788 0 71.0383 11.6979 831 89.2623 857.64 481.402
3789 0 73.0803 12.0963 884 89.0192 858.081 479.75
3790 0 74.0963 12.0924 896 90.0257 857.935 479.153
3791 0 76.1326 11.9134 907 91.7861 857.201 478.225
3792 0 78.2558 12.5486 982 91.5377 858.087 478.444
3793 0 79.0872 12.0247 951 94.4669 858.213 477.474
3794 0 81.1841 12.7858 1038 93.6705 857.592 475.643
3795 0 83.2876 12.6669 1055 98.7194 858.014 474.561
3796 0 84.0921 12.5577 1056 94.7358 857.923 474.819
3797 0 88.1163 12.858 1133 96.6461 857.197 472.906
3798 0 88.1315 13.4572 1186 97.9949 858.118 471.638
3799 0 89.1405 12.6542 1128 95.5612 858.018 471.887
3800 0 91.1132 13.2034 1203 96.5827 858.346 470.19
3801 0 92.0897 13.1937 1215 98.5482 857.344 470.196
3802 0 94.1455 13.203 1243 100.273 857.38 467.599
3803 0 97.1647 13.719 1333 100.249 858.136 470.376
3804 0 98.1358 13.4711 1322 103.706 858.747 467.082
3805 0 102.203 13.9134 1422 106.812 860.116 464.116
3806 0 102.158 13.7532 1405 109.618 860.594 463.589
3807 0 106.117 13.815 1466 110.319 861.093 461.188
3808 0 107.131 14.2256 1524 111.925 861.543 457.655
3809 0 112.208 14.6692 1646 112.38 860.532 457.964
3810 0 115.15 13.3392 1536 116.481 860.767 456.536
3811 0 121.181 13.9956 1696 115.562 860.195 454.111
3812 0 122.168 14.0545 1717 118.016 860.008 453.464
3813 0 126.159 14.3628 1812 119.067 859.514 450.733
3814 0 129.115 14.8317 1915 118.555 859.865 450.67
3815 0 132.144 14.8021 1956 121.857 859.912 446.559
3816 0 134.197 14.6576 1967 123.53 859.61 445.822
3817 0 140.211 14.8419 2081 123.486 859.269 442.945
3818 0 142.207 15.5689 2214 123.16 859.071 440.856
3819 0 144.175 14.9402 2154 126.745 859.64 440.353
3820 0 149.306 15.3778 2296 124.937 858.996 438.652
3821 0 151.206 15.6012 2359 125.874 859.135 437.774
3822 0 153.109 15.6947 2403 127.482 858.366 435.821
3823 0 152.224 15.7137 2392 127.408 858.61 434.71
3824 0 158.183 16.7211 2645 123.315 858.311 429.757
3825 0 162.19 17.0788 2770 120.673 858.612 429.207
3826 0 166.185 17.2038 2859 121.13 858.066 426.306
3827 0 167.23 17.3294 2898 121.647 858.013 422.591
3828 0 171.212 16.7161 2862 123.265 858.055 421.513
3829 0 174.144 16.9974 2960 123.044 858.348 419.319
3830 0 179.227 17.3857 3116 123.681 858.386 418.359
3831 0 179.221 17.3529 3110 159.282 858.379 418.328
3832 0 187.193 17.0573 3193 126.792 858.095 412.466
3833 0 189.151 17.1292 3240 128.367 857.638 410.662
3834 0 193.195 17.7075 3421 127.885 857.886 407.974
3835 0 197.196 17.2113 3394 131.037 857.704 408.243
3836 0 201.302 17.2378 3470 132.237 857.72 407.463
3837 0 205.226 17.4637 3584 132.296 857.626 403.855
3838 0 210.156 17.7439 3729 131.867 857.863 402.946
3839 0 213.253 17.2377 3676 135.22 857.75 399.433
3840 0 219.2 17.3996 3814 135.392 858.24 397.955
3841 0 223.157 17.5796 3923 135.823 857.951 396.418
3842 0 227.221 17.9077 4069 135.285 857.821 394.275
3843 0 231.187 17.7562 4105 138.345 856.958 390.818
3844 0 235.227 17.7573 4177 138.27 857.791 389.914
3845 0 240.166 18.2041 4372 136.554 857.023 388.159
3846 0 243.226 17.6132 4284 140.108 857.106 385.346
3847 0 247.219 17.9274 4432 139.59 856.348 382.956
3848 0 252.139 17.998 4538 139.87 856.764 380.724
3849 0 256.176 17.8354 4569 140.885 856.545 378.971
3850 0 259.325 18.0507 4681 141.614 857.219 375.565
3851 0 264.209 18.3907 4859 141.031 857.219 374.063
3852 0 269.16 18.1565 4887 142.732 856.865 374.473
3853 0 271.215 18.2475 4949 142.935 856.911 371.793
