time division length width area intensity CMx CMy
0 0 52.0503 14.2362 741 70.4265 262.459 489.887
1 0 52.1735 13.8001 720 74.7069 261.799 488.224
2 0 51.1263 13.0852 669 79.1241 262.698 489.359
3 0 56.0833 14.211 797 77.8143 261.793 489.183
4 0 55.0626 13.6572 752 81.4189 262.779 488.733
5 0 59.0763 13.5757 802 83.3791 262.43 488.126
6 0 58.0508 13.5571 787 86.5616 262.574 486.891
7 0 60.0857 13.6638 821 87.894 262.367 486.893
8 0 61.0798 13.3596 816 90.7794 262.191 486.544
9 0 64.113 14.1313 906 89.8797 262.4 486.848
10 0 66.1156 13.3403 882 94.0057 261.961 485.426
11 1 34.0522 12.1872 415 96.7494 261.684 499.366
12 0 35.0462 13.1541 461 95.7722 262.221 498.158
13 0 35.0361 13.0722 458 92.0218 261.358 498.522
14 0 35.0461 12.6405 443 94.3815 260.989 498.623
15 0 37.0435 12.7148 471 95.1805 260.89 499.293
16 0 38.0276 13.0432 496 94.8145 261.192 498.849
17 0 40.0297 13.0403 522 95.1188 260.511 497.659
18 0 41.0291 13.5026 554 93.8159 260.715 498.413
19 0 41.0402 13.3528 548 96.9361 260.801 496.637
20 0 44.0384 14.283 629 93.6296 259.544 496.765
21 0 46.0477 13.638 628 95.8121 259.846 495.916
22 0 46.0174 13.7991 635 95.9417 259.18 496.011
23 0 48.0247 13.8887 667 101.357 260.522 493.927
24 0 48.0129 14.5378 698 101.523 260.206 493.915
25 0 49.0732 14.2237 698 103.699 260.211 492.33
26 0 51.0086 14.3113 730 103.027 260.388 491.39
27 0 54.0228 14.3828 777 104.104 260.399 490.543
28 0 55.0362 14.3178 788 105.234 260.211 490.763
29 0 58.043 14.1275 820 106.772 259.613 489.633
30 0 61.0354 14.6309 893 105.419 259.502 488.372
31 0 62.0724 14.4831 899 107.198 260.458 487.762
32 1 32.0115 12.2456 392 107.518 260.153 502.724
33 0 31.0032 12.3536 383 110.606 259.572 503.371
34 0 34.0177 12.3759 421 110.325 259.352 502.463
35 0 32.0212 12.8665 412 102.959 259.939 505.248
36 0 33.0102 12.7839 422 103.391 260.209 503.424
37 0 34.0207 12.463 424 103.625 259.639 502.278
38 0 35.0239 12.4772 437 104.49 259.801 502.897
39 0 37.0267 12.9636 480 103.556 259.358 501.731
40 0 38.0678 12.1363 462 107.173 259.825 500.745
41 0 40.0793 12.7747 512 106.326 259.725 500.424
42 0 41.0541 12.8367 527 105.975 259.713 499.822
43 0 43.037 13.3374 574 104.089 259.861 499.3
44 0 43.046 13.1255 565 106.651 259.646 497.519
45 0 46.0745 12.6968 585 105.236 259.118 497.109
46 0 48.0476 13.0704 628 104.654 259.553 495.575
47 0 49.0233 12.5655 616 107.669 259.398 494.369
48 0 53.0269 13.578 720 106.701 259.74 492.774
49 0 53.0391 13.3863 710 106.287 259.48 492.177
50 0 55.0424 13.8984 765 107.85 259.324 490.894
51 0 55.0189 13.5772 747 113.653 259.531 490.179
52 0 60.0462 13.7061 823 110.673 260.295 489.532
53 0 60.0254 13.411 805 111.374 259.245 488.933
54 0 63.0333 14.0085 883 109.993 259.804 487.554
55 0 65.0668 13.5707 883 110.536 259.701 487.046
56 0 64.0772 13.4369 861 115.472 260.476 485.394
57 0 67.1114 13.3211 894 114.471 260.395 482.021
58 0 70.1224 13.1627 923 113.974 260.369 483.273
59 0 71.1224 13.0198 926 113.653 261.084 483.421
60 0 75.1041 13.7276 1031 109.723 260.291 482.403
61 0 77.0726 13.3381 1028 110.859 260.096 481.785
62 0 79.061 12.6738 1002 112.889 260.106 480.29
63 0 81.1117 12.7972 1038 111.958 260.036 478.651
64 0 85.1111 13.2768 1130 109.72 259.81 477.665
65 1 47.0547 12.3686 582 110.469 260.931 496.595
66 0 46.0174 12.8212 590 111.519 260.834 494.805
67 0 49.0124 12.9763 636 109.234 261.035 495.093
68 0 50.0451 13.0083 651 109.78 260.664 493.086
69 0 51.0423 13.2243 675 109.319 260.655 492.721
70 0 53.0886 12.5074 664 110.063 260.899 491.925
71 0 57.0947 13.5739 775 104.907 260.791 491.484
72 0 58.0761 13.6889 795 105.067 260.762 490.791
73 0 59.0681 13.222 781 106.643 260.675 490.557
74 0 57.0864 12.192 696 102.124 259.641 491.316
75 0 60.1124 12.2105 734 101.512 259.556 489.35
76 0 62.1051 12.5594 780 99.9949 259.979 487.922
77 0 64.1258 12.647 811 99.312 259.908 487.673
78 0 67.142 12.1236 814 99.9742 260.086 485.686
79 0 68.1201 12.2137 832 101.202 259.844 485.02
80 0 73.0832 12.7389 931 97.3061 260.461 483.698
81 0 75.0922 12.2516 920 99.5957 260.632 482.657
82 0 79.0889 13.0107 1029 98.1254 260.065 481.336
83 1 37.0566 11.1451 413 102.54 260.293 499.245
84 0 39.1339 11.6012 454 100.883 260.824 499.672
85 0 42.0997 12.0428 507 97.2406 259.667 498.759
86 0 40.0368 12.014 481 90.9647 261.1 500.025
87 0 38.0336 10.7799 410 95.2341 260.9 501.429
88 0 40.0889 10.9257 438 95.516 261.199 499.354
89 0 41.0761 11.4422 470 93.6149 260.074 498.762
90 0 42.0364 11.2997 475 94.1179 260.956 499.954
91 0 45.0763 11.0479 498 92.6807 260.785 499.07
92 0 44.0737 11.1631 492 94.2764 260.841 498.364
93 0 48.04 11.4904 552 92.8822 261.176 497.139
94 0 48.0336 11.5752 556 93.4802 261.25 497.158
95 0 50.0886 11.3998 571 95.7881 261.047 494.299
96 0 51.0539 11.5956 592 96.3581 260.946 494.422
97 0 52.051 11.3158 589 97.635 260.165 493.649
98 0 54.0448 11.8975 643 96.4712 259.292 491.328
99 0 56.1066 11.4782 644 97.104 260.967 490.63
100 0 58.133 12.2134 710 97.1324 260.985 490.404
101 0 61.1409 12.4957 764 96.3024 261.891 490.01
102 0 64.0783 12.6096 808 95.4554 260.228 489.123
103 0 67.1309 12.4682 837 96.9952 261.157 486.534
104 0 70.159 12.5429 880 95.467 260.13 485.773
105 0 72.2479 12.9969 939 96.0745 261.646 483.458
106 0 74.1739 12.6864 941 96.9256 261.524 484.115
107 0 78.1155 12.9296 1010 97.3891 261.12 481.507
108 0 80.0533 13.0913 1048 93.7376 259.022 482.072
109 0 81.076 12.6795 1028 96.4076 259.428 480.186
110 1 45.0823 11.8228 533 100.488 259.689 497.629
111 0 48.0367 12.5529 603 97.3002 261.272 497.053
112 0 51.0207 13.3475 681 93.674 261.327 496.674
113 0 52.0215 12.8985 671 99.6587 261.599 494.438
114 0 52.0168 13.0727 680 100.082 261.757 493.228
115 0 53.0313 13.3129 706 99.4575 261.254 492.603
116 0 55.0222 13.4491 740 99.077 261.191 490.554
117 0 57.021 13.2407 755 98.5192 261.111 490.962
118 0 60.0245 13.6278 818 96.0611 260.342 490.894
119 0 59.0244 13.5707 801 98.1885 260.461 490.438
120 0 63.0411 14.0067 883 94.4723 260.545 490.367
121 0 64.0408 14.0535 900 95.8678 260.524 488.416
122 0 64.0457 13.1 839 100.07 260.826 487.791
123 0 64.0867 12.6235 809 96.8047 260.468 488.698
124 0 67.0445 12.708 852 97.5634 260.758 487.538
125 0 69.0263 12.9371 893 97.6954 261.493 485.712
126 0 71.0311 13.304 945 97.1333 260.64 485.077
127 0 73.0553 13.127 959 98.5735 261.39 483.947
128 0 76.0847 12.7358 969 97.6182 261.343 483.78
129 0 79.0914 13.0861 1035 96.4203 261.698 483.33
130 0 80.0815 12.5622 1006 96.837 261.239 482.226
131 0 83.1327 13.0995 1089 94.3131 260.638 481.019
132 0 84.0708 13.2388 1113 94.4897 260.147 479.234
133 1 47.0915 11.2759 531 96.9284 261.569 497.179
134 0 48.0279 12.0555 579 94.8117 262.112 497.107
135 0 49.0452 12.0909 593 95.5531 261.465 495.894
136 0 52.0259 12.7629 664 92.6717 261.236 494.691
137 0 47.0351 11.8635 558 86.9982 260.013 498.009
138 0 51.0746 11.493 587 87.6661 259.988 495.656
139 0 52.0452 11.7014 609 88.3547 259.833 496.136
140 0 54.0738 11.5398 624 87.5625 260.212 495.598
141 0 55.152 12.2026 673 88.2526 259.737 494.832
142 0 55.1322 11.5541 637 91.9215 259.719 494.342
143 0 59.1583 12.1031 716 90.5531 260.38 494.006
144 0 61.2201 11.8915 728 89.6813 260.135 491.986
145 0 63.1776 12.2828 776 89.1959 260.121 491.697
146 0 65.1337 12.5281 816 90.1066 259.256 490.718
147 0 68.1386 12.5039 852 90.0082 260.169 490.399
148 0 71.158 12.4652 887 89.3303 259.432 488.997
149 0 73.124 12.9369 946 89.3742 259.882 487.116
150 0 75.1867 13.2071 993 88.9778 259.68 483.942
151 0 78.2198 13.2192 1034 88.8985 259.996 482.485
152 0 81.2227 13.58 1103 88.9184 259.622 481.063
153 0 84.1662 13.1763 1109 88.7187 259.441 480.583
154 0 87.1789 13.7419 1198 90.0467 259.053 478.923
155 0 90.1941 13.6373 1230 89.3244 259.114 478.293
156 1 48.1008 11.3512 546 95.3004 260.313 497.921
157 0 50.0533 12.0072 601 93.1048 260.135 496.423
158 0 51.0629 11.8481 605 91.4298 260.05 497.717
159 0 53.0933 13.109 696 85.4483 259.746 493.955
160 0 55.1198 12.5363 691 88.0376 259.745 494.159
161 0 56.1013 12.8874 723 87.6584 260.337 493.43
162 0 57.0922 12.6812 724 88.6298 259.823 492.836
163 0 57.1443 12.3372 705 90.983 259.925 494.006
164 0 58.0728 12.1572 706 91.2748 259.092 491.261
165 0 60.1233 12.1916 733 91.1869 259.748 492.21
166 0 63.1805 12.6621 800 87.4888 259.658 489.915
167 0 64.1851 12.4172 797 89.3952 260.462 489.737
168 0 66.174 12.724 842 88.9276 260.409 488.862
169 0 69.1591 13.0279 901 87.8269 260.29 487.824
170 0 72.1664 13.1086 946 87.3298 259.856 484.949
171 0 72.2866 12.5611 908 88.5264 260.079 482.333
172 0 74.1963 12.6826 941 87.0255 260.146 482.186
173 0 77.3218 12.338 954 88.1667 259.821 480.671
174 0 79.255 12.5292 993 87.3182 260.025 479.769
175 0 82.267 12.3987 1020 88.2725 259.303 478.121
176 0 84.2879 11.7217 988 90.0314 258.868 477.054
177 0 89.3247 12.7624 1140 85.9061 259.291 477.396
178 0 90.197 12.2399 1104 89.5245 258.967 474.723
179 1 50.0699 11.1444 558 88.8011 260.781 494.665
180 0 52.0343 11.5885 603 87.7977 259.972 493.272
181 0 54.1058 12.1059 655 85.1649 259.576 492.159
182 0 54.069 11.8182 639 77.0516 260.194 491.962
183 0 52.1361 10.837 565 80.8177 259.848 491.765
184 0 56.245 10.312 580 80.4793 260.06 492.541
185 0 56.1338 10.2968 578 80.4446 259.995 492.657
186 0 57.2082 10.7327 614 79.4788 260.445 490.528
187 0 60.2486 11.0874 668 77.7305 260.596 492.133
188 0 62.1939 11.2391 699 78.1144 260.33 491.742
189 0 63.243 10.8154 684 78.9137 260.56 489.699
190 0 69.1328 12.3241 852 73.7441 259.627 485.885
191 0 69.2367 11.6846 809 75.6119 259.038 485.452
192 0 72.157 11.5304 832 76.4916 258.433 484.797
193 0 75.1538 11.5763 870 75.2138 258.333 484.39
194 0 76.1809 12.1947 929 76.0097 257.971 482.829
195 0 79.188 11.4411 906 77.2285 258.168 482.019
196 0 83.1638 12.4694 1037 75.7097 258.689 480.003
197 0 85.2616 12.3033 1049 77.3451 258.061 478.043
198 0 86.2212 12.1432 1047 77.788 258.261 478.462
199 0 91.2207 12.6506 1154 76.318 258.666 475.815
200 0 91.2011 12.3573 1127 78.575 258.74 472.395
201 0 97.2015 12.6233 1227 77.6186 257.809 472.034
202 1 51.0721 11.2782 576 101.804 258.793 495.528
203 0 52.0631 11.2556 586 97.2372 259.213 495.253
204 0 53.113 11.372 604 96.8742 259.497 493.459
205 0 55.0637 11.7863 649 94.5778 259.256 493.598
206 0 56.1131 12.3144 691 96.9291 259.595 491.124
207 0 59.0449 12.5836 743 95.3324 258.973 490.68
208 0 58.0459 12.4212 721 103.961 258.8 489.779
209 0 59.0451 12.2787 725 103.428 258.777 487.766
210 0 64.0283 12.3539 791 101.503 258.539 487.805
211 0 64.0249 12.6201 808 99.8651 258.984 487.756
212 0 68.0665 13.2077 899 98.2058 259.534 486.959
213 0 69.0374 12.5584 867 99.5352 259.134 486.248
214 0 72.0543 12.7959 922 96.6931 259.148 484.742
215 0 73.0939 12.6002 921 98.4897 258.89 484.039
216 0 75.0638 12.8957 968 97.8337 258.995 483.601
217 0 77.0371 13.513 1041 97.1499 258.523 481.532
218 0 80.0398 12.7936 1024 98.0928 257.964 480.015
219 0 83.0678 12.556 1043 98.9041 258.611 477.802
220 0 87.0597 12.7039 1106 96.4014 258.037 476.296
221 0 88.2477 12.7255 1123 97.0151 256.825 474.955
222 0 92.2089 13.1441 1212 95.5297 257.229 474.403
223 0 95.1602 12.8205 1220 97.3861 256.915 470.949
224 1 48.0232 10.8073 519 97.0077 259.012 495.605
225 0 48.0981 10.6657 513 97.7817 259.023 495.057
226 0 51.0527 12.3206 629 96.221 258.843 493.391
227 0 53.0667 12.6633 672 94.4345 258.129 492.99
228 0 55.0805 12.0732 665 92.1023 258.394 493.982
229 0 52.0774 11.5981 604 96.2318 258.545 494.401
230 0 52.0493 11.5083 599 98.586 258.422 494.371
231 0 56.1206 11.8139 663 96.2549 258.664 491.899
232 0 56.0783 12.3042 690 96.7 258.03 490.986
233 0 58.1647 12.3099 716 98.1522 258.721 490.297
234 0 61.118 11.9605 731 100.152 258.62 488.454
235 0 63.1471 12.7005 802 98.6509 258.147 488.713
236 0 63.0919 12.2044 770 102.262 257.86 487.684
237 0 67.1425 12.8086 860 100.003 257.537 488.338
238 0 68.0852 12.4403 847 101.704 258.759 487.945
239 0 72.0956 13.1631 949 101.164 258.153 484.654
240 0 74.1635 13.2006 979 101.733 258.698 484.663
241 0 77.1074 12.8133 988 103.104 257.983 485.76
242 0 79.1346 12.346 977 105.167 258.852 482.153
243 0 80.1746 12.585 1009 103.735 258.047 482.648
244 0 84.1975 13.2664 1117 103.041 258.103 481.726
245 0 88.1945 13.8217 1219 102.158 257.532 479.45
246 0 89.188 12.5241 1117 106.859 257.902 478.378
247 1 49.0118 11.2218 550 103.504 258.235 497.258
248 0 49.0326 11.6453 571 103.508 258.168 495.604
249 0 53.0388 12.2929 652 102.433 258.503 494.842
250 0 53.0272 12.239 649 104.284 257.604 494.773
251 0 51.0861 11.6666 596 97.3255 256.936 497.391
252 0 52.0485 11.1819 582 98.0653 257.284 495.567
253 0 55.0774 11.7653 648 96.9537 256.914 495.404
254 0 56.1163 11.6544 654 96.0321 256.635 493.456
255 0 58.0668 11.2801 655 96.2366 256.852 494.385
256 0 59.0685 10.9703 648 94.8981 257.157 492.426
257 0 61.0765 10.9535 669 93.71 257.629 491.694
258 0 61.1105 10.7837 659 94.5478 257.387 489.809
259 0 65.1601 11.418 744 91.6815 258.293 488.805
260 0 66.1426 11.7625 778 91.5373 257.712 486.915
261 0 69.0503 11.1947 773 90.9069 256.314 487.028
262 0 71.1597 11.4391 814 90.543 256.287 484.065
263 0 74.0439 10.8989 807 91.5217 255.11 483.685
264 0 78.0403 12.0322 939 89.0618 255.086 482.646
265 0 79.0898 11.2657 891 90.8563 256.258 480.87
266 0 80.0741 11.1022 889 91.0877 256.534 480.85
267 0 84.0829 11.7622 989 88.9717 256.595 478.57
268 0 87.0751 11.4499 997 89.5486 255.206 474.731
269 0 89.116 11.2213 1000 88.702 255.647 474.857
270 0 92.163 10.8612 1001 92.7073 256.883 476.247
271 1 48.0369 11.5953 557 89.8671 256.743 495.677
272 0 51.1132 11.1909 572 90.5262 255.094 493.893
273 0 53.0438 11.4245 606 91.8449 254.658 492.904
274 0 53.0295 12.1442 644 90.9938 256.857 494.452
275 0 53.1028 11.619 617 96.5964 258.044 494.705
276 0 53.0741 10.7774 572 99.2238 257.629 494.117
277 0 55.0731 11.7299 646 97.1811 257.452 492.876
278 0 57.1535 11.8628 678 95.7139 258.683 492.15
279 0 58.1284 11.337 659 99.1684 257.769 492.206
280 0 59.1694 11.8135 699 97.8412 258.697 491.293
281 0 62.1912 11.8023 734 97.3488 258.711 489.575
282 0 65.1969 12.1785 794 95.5995 258.591 489.053
283 0 65.1247 11.2707 734 101.24 258.308 488.018
284 0 67.1317 11.8573 796 101.729 258.198 486.686
285 0 69.2419 11.9292 826 100.655 258.172 485.772
286 0 71.1725 12.4767 888 100.06 258.034 484.047
287 0 74.1433 11.8015 875 101.419 258.601 483.887
288 0 77.0897 12.4141 957 101.539 258.308 483.785
289 0 78.1198 11.4824 897 103.387 258.428 482.247
290 0 83.204 12.6677 1054 99.888 257.982 480.54
291 0 83.1691 11.7592 978 103.575 258.209 479.665
292 0 87.0977 12.2621 1068 102.57 257.522 478.618
293 1 48.0428 11.4481 550 106.307 258.405 496.704
294 0 49.0347 11.3797 558 107.93 258.48 495.966
295 0 52.0537 12.2566 638 106.571 258.522 495.461
296 0 53.0806 12.4904 663 108.452 258.137 493.727
297 0 53.0806 12.4528 661 167.12 257.154 493.672
298 0 55.1002 13.0852 721 98.2413 257.072 494.137
299 0 57.0359 13.1496 750 100.124 257.231 494.308
300 0 57.0603 13.179 752 102.37 256.965 493.215
301 0 58.0422 13.025 756 102.525 257.033 491.241
302 0 61.0744 12.8368 784 101.061 256.768 493.029
303 0 63.0646 13.3355 841 99.9596 256.832 492.226
304 0 66.0639 13.1237 867 99.0761 256.829 490.877
305 0 65.0937 12.5511 817 104.419 255.826 488.506
306 0 67.1492 13.3881 899 101.43 257.26 487.904
307 0 70.1244 13.6472 957 100.09 256.843 486.4
308 0 71.0506 13.427 954 104.36 256.226 489.496
309 0 72.1467 13.0567 942 104.546 256.552 488.086
310 0 73.0796 13.3279 974 105.533 256.308 487.717
311 0 74.0607 13.0839 969 106.094 256.991 486.895
312 0 76.0565 12.9246 983 108.574 256.565 486.475
313 0 78.0728 13.0904 1022 109.566 256.387 485.697
314 0 83.1846 13.993 1164 104.345 257.154 483.623
315 0 84.2219 13.7257 1156 105.966 256.852 482.421
316 0 86.1964 13.7013 1181 108.595 255.976 481.624
317 0 88.2367 13.3845 1181 106.411 257.228 479.427
318 0 90.2318 13.5429 1222 106.344 255.858 477.998
319 0 91.2021 13.0918 1194 107.903 255.699 479.905
320 0 95.1921 13.1629 1253 106.615 255.968 478.325
321 0 97.1302 13.0135 1264 106.442 256.057 475.506
322 0 98.2375 13.2434 1301 106.538 255.939 476.307
323 0 101.325 13.6096 1379 105.994 255.179 475.683
324 0 101.281 13.1416 1331 106.684 255.358 475.911
325 0 103.364 12.9832 1342 108.87 254.925 472.823
326 0 107.301 13.15 1411 106.732 254.937 472.221
327 0 110.312 13.2352 1460 106.062 255.007 470.718
328 0 113.215 13.7968 1562 103.567 254.866 470.949
329 0 116.331 13.5131 1572 104.952 255.013 469.407
330 1 63.289 11.329 717 109.515 255.835 496.013
331 0 64.2529 11.6104 746 109.425 256.692 493.076
332 0 65.286 11.396 744 107.375 256.164 492.504
333 0 66.2693 11.5589 766 110.969 255.33 490.358
334 0 67.1262 11.9774 804 110.374 255.56 488.587
335 0 71.3168 12.7319 908 108.443 255.349 489.741
336 0 72.3385 13.5336 979 105.915 255.389 487.885
337 0 74.1311 13.6515 1012 102.702 255.391 486.949
338 0 76.1475 13.7759 1049 101.124 255.392 487.704
339 0 77.1862 13.5776 1048 103.281 255.097 485.932
340 0 80.1971 13.7037 1099 102.194 254.639 485.434
341 0 84.1666 14.1743 1193 98.8391 253.681 483.863
342 0 85.2319 13.3635 1139 102.654 253.74 483.585
343 0 87.1881 13.0866 1141 103.42 253.649 480.799
344 0 90.3164 12.9434 1169 114.714 253.368 479.264
345 0 93.3337 13.2535 1237 112.724 253.078 477.787
346 0 96.2721 13.1502 1266 112.486 253.145 476.624
347 0 99.3046 13.2219 1313 112.506 253.192 474.375
348 0 100.313 13.0292 1307 114.04 252.966 472.854
349 0 102.365 13.3151 1363 112.74 252.39 471.674
350 0 106.346 13.2963 1414 111.972 252.912 471.479
351 0 106.201 13.3709 1420 107.889 252.908 471.275
352 0 107.257 12.1297 1301 109.08 253.763 468.132
353 0 112.241 12.7494 1431 106.815 253.929 466.015
354 0 112.21 11.5498 1296 106.373 253.61 463.722
355 0 118.296 12.6294 1494 103.475 253.869 462.388
356 0 121.35 12.3775 1502 106.914 253.565 458.826
357 0 123.298 11.7926 1454 108.641 253.853 456.596
358 0 127.304 12.0028 1528 108.316 253.234 456.402
359 0 132.264 12.3238 1630 109.015 253.312 453.061
360 0 137.332 11.9419 1640 113.265 252.935 451.505
361 0 142.377 12.0033 1709 113.771 252.217 447.545
362 0 146.359 12.36 1809 112.511 252.783 443.829
363 0 150.37 12.6621 1904 110.035 252.362 443.049
364 0 155.263 12.6366 1962 109.193 252.879 442.926
365 0 160.419 12.7229 2041 110.491 252.933 441.189
366 0 164.361 12.0466 1980 113.196 253.312 438.067
367 0 172.422 13.0784 2255 109.658 252.797 435.437
368 0 176.397 12.2565 2162 113.211 252.328 431.58
369 0 182.367 13.4893 2460 110.189 252.599 430.096
370 0 189.305 13.1111 2482 112.666 252.663 425.205
371 1 201.301 10.914 2197 115.243 252.228 425.469
372 0 200.367 12.6418 2533 111.339 251.932 418.862
373 0 208.401 12.7015 2647 110.015 252.782 418.036
374 0 216.441 12.4745 2700 111.767 252.271 410.374
375 0 226.411 13.1796 2984 108.629 253.02 406.557
376 1 58.1948 10.0181 583 95.1269 254.806 487.702
377 0 59.1353 11.4652 678 94.0841 255.594 488.15
378 0 63.0386 12.6748 799 103.297 256.009 491.471
379 0 65.2599 11.7683 768 94.0091 255.484 491.56
380 0 68.2741 12.6549 864 90.6875 255.477 489.931
381 0 69.2437 12.4632 863 91.0487 254.934 489.949
382 0 72.2085 12.4224 897 91.2821 254.97 488.414
383 0 74.4554 12.5982 938 109.892 255.26 484.615
384 0 76.4189 11.6856 893 106.545 255.231 484.436
385 0 81.2934 11.6492 947 105.683 255.155 483.976
386 0 81.3084 12.139 987 105.294 255.438 481.954
387 0 84.3313 11.9766 1010 104.2 254.428 480.645
388 0 86.2053 11.3334 977 101.061 254.929 476.727
389 0 89.2655 11.9307 1065 100.412 254.758 475.518
390 0 90.3023 11.9709 1081 101.757 254.552 474.334
391 0 94.233 11.9173 1123 103.134 254.423 473.989
392 0 97.2404 12.1966 1186 102.785 254.683 471.739
393 0 99.2715 12.1686 1208 104.167 254.516 468.997
394 0 103.302 12.2166 1262 103.086 254.616 469.02
395 0 108.331 11.9818 1298 102.342 255.007 465.648
396 0 109.379 12.2784 1343 102.99 254.967 464.341
397 0 113.34 12.0435 1365 103.311 254.059 462.722
398 0 116.238 11.8808 1381 103.834 254.533 464.797
399 0 119.336 11.807 1409 102.612 254.659 459.663
400 0 123.301 12.1897 1503 100.363 254.286 455.224
401 0 128.289 11.9418 1532 98.7356 253.943 450.829
402 0 130.417 12.3374 1609 97.5693 253.782 447.669
403 0 135.368 12.2481 1658 97.5048 253.386 443.739
404 0 139.562 12.4819 1742 96.0367 254.025 445.846
405 0 145.495 12.1104 1762 95.7963 254.123 445.308
406 0 147.504 12.5284 1848 95.0758 253.895 443.63
407 0 153.447 12.3691 1898 94.1902 254.341 443.001
408 0 157.417 12.3176 1939 94.7236 254.099 439.435
409 0 161.373 12.6229 2037 93.9082 254.298 438.029
410 0 165.38 12.6073 2085 95.2173 254.366 435.861
411 0 171.526 12.7503 2187 95.4266 254.518 432.194
412 0 177.354 12.196 2163 95.178 253.54 427.545
413 0 183.493 13.2158 2425 91.1142 253.915 422.389
414 1 96.1867 10.4068 1001 84.1648 254.45 469.521
415 0 98.1412 11.1676 1096 82.8321 254.433 467.977
416 0 101.237 11.5867 1173 82.4169 254.558 465.985
417 0 103.171 11.5052 1187 81.7852 254.639 468.233
418 0 107.207 11.6783 1252 81.8658 254.284 468.216
419 0 111.206 11.9418 1328 80.2959 253.523 466.883
420 0 115.254 11.3748 1311 81.868 254.445 466.586
421 0 118.32 11.5618 1368 83.6762 253.624 463.201
422 0 121.32 11.4986 1395 82.2724 254.236 461.692
423 0 125.224 11.7789 1475 82.1675 255.209 458.871
424 1 70.0706 11.2315 787 78.8971 255.554 487.065
425 0 72.0267 11.8567 854 80.8653 254.947 486.136
426 0 73.1788 11.6701 854 81.1171 253.662 482.123
427 0 76.2882 12.1644 928 79.8631 255.444 484.208
428 0 78.2945 11.6356 911 81.2064 255.767 484.854
429 0 82.2134 12.4311 1022 79.6135 255.363 481.9
430 0 82.228 11.7843 969 82.1775 254.271 482.082
431 0 85.2822 12.1596 1037 81.9238 254.799 480.763
432 0 88.3028 11.7324 1036 84.638 253.837 477.875
433 0 91.2602 11.7357 1071 88.4426 254.074 475.575
434 0 93.2891 11.459 1069 89.2984 254.133 472.515
435 0 95.2583 11.2116 1068 90.6301 254.972 472.893
436 0 95.2583 11.2851 1075 150.804 255.988 472.899
437 0 100.262 11.4999 1153 91.8335 254.163 472.329
438 0 104.323 12.1546 1268 91.7697 253.333 469.734
439 0 108.299 12.4654 1350 90.5281 252.937 465.838
440 0 109.404 12.4492 1362 90.4112 253.352 466.636
441 0 113.314 12.7081 1440 90.7639 253.223 463.603
442 0 115.212 11.9172 1373 91.9803 253.419 461.585
443 0 120.248 12.258 1474 89.9403 253.602 462.422
444 0 125.34 12.885 1615 88.4601 253.434 459.461
445 0 127.374 12.6713 1614 88.3649 252.766 456.721
446 1 66.2774 10.6522 706 85.7975 254.076 486.603
447 0 69.3084 11.3406 786 85.5115 254.335 481.545
448 0 72.36 12.0647 873 83.0412 254.451 479.99
449 0 72.2452 12.0008 867 85.5755 254.483 480.107
450 0 76.3327 13.035 995 85.9568 254.905 480.141
451 0 77.0503 13.3419 1028 94.5049 255.921 480.644
452 0 80.0857 13.4481 1077 93.7939 256.552 479.43
453 0 84.1274 13.7292 1155 92.916 256.771 478.889
454 0 85.0971 13.467 1146 94.8761 256.206 476.84
455 0 88.0824 14.0323 1236 94.7557 255.663 476.147
456 0 90.0735 13.5556 1221 95.8608 255.831 475.98
457 0 93.1536 13.6763 1274 95.9356 256.363 472.881
458 0 96.13 13.825 1329 95.2686 255.789 470.919
459 0 99.1416 13.5765 1346 96.4443 255.738 469.249
460 0 102.119 13.5528 1384 95.8837 255.875 468.697
461 0 106.102 13.7415 1458 94.4506 255.811 466.848
462 0 107.153 13.504 1447 94.9157 256.142 465.133
463 0 111.216 13.1365 1461 95.3901 255.83 464.001
464 0 114.171 13.4798 1539 94.6316 255.938 461.309
465 0 114.208 13.3791 1528 95.498 255.249 459.502
466 0 119.216 13.6726 1630 95.1006 255.699 456.982
467 0 124.252 13.5772 1687 93.9016 255.423 453.204
468 0 127.304 13.5817 1729 93.2637 254.54 453.146
469 0 132.416 12.8232 1698 91.9494 254.283 448.931
470 1 67.346 10.6465 717 88.8926 255.368 482.179
471 0 70.333 11.147 784 88.1033 254.997 479.974
472 0 73.236 11.5517 846 87.4917 254.879 478.147
473 0 74.1985 12.6687 940 84.1213 254.528 476.654
474 0 77.3353 12.9695 1003 84.8425 254.573 474.157
475 0 80.2275 13.1127 1052 84.0827 254.384 473.715
476 0 79.2544 12.4157 984 87.1524 254.547 470.978
477 0 83.2885 12.7989 1066 86.7448 253.796 470.03
478 0 86.1794 13.2978 1146 86.4101 253.654 466.569
479 0 86.2806 12.3898 1069 89.7119 254.318 467.554
480 0 89.2543 12.8845 1150 89.0687 253.563 465.083
481 0 92.275 12.4302 1147 89.7733 253.28 464.553
482 0 95.2297 12.1076 1153 89.6019 253.124 461.659
483 0 96.2914 12.2441 1179 90.3715 253.562 461.118
484 0 100.236 12.5204 1255 89.5251 253.3 459.767
485 0 105.312 12.4202 1308 89.4885 252.772 457.531
486 0 106.231 12.2658 1303 89.9985 252.698 455.945
487 0 108.147 11.5306 1247 91.7779 253.333 455.373
488 0 111.264 11.675 1299 88.933 253.504 455.773
489 0 113.278 11.0701 1254 90.8876 253.491 450.827
490 0 121.406 10.8232 1314 89.1149 253.531 449.24
491 0 127.275 11.5969 1476 86.9844 252.825 445.976
492 0 129.227 11.8628 1533 85.9061 253.44 443.977
493 1 69.0755 11.2775 779 89.8626 254.128 470.942
494 0 74.0912 11.8368 877 87.3478 254.038 470.977
495 0 76.124 12.8343 977 86.5619 253.281 469.89
496 0 83.0346 13.1752 1094 84.1682 252.984 472.786
497 0 83.0856 13.5403 1125 84.6764 252.895 473.644
498 0 86.059 13.7464 1183 84.4539 253.884 471.912
499 0 89.0463 13.5435 1206 85.9784 254.359 471.311
500 0 92.0796 13.5861 1251 85.4309 254.154 469.444
501 0 95.1012 13.8064 1313 85.6801 253.548 468.861
502 0 94.2202 13.15 1239 90.4867 253.575 469.175
503 0 96.1 12.7784 1228 92.4886 253.34 468.484
504 0 99.1125 13.0256 1291 90.3424 253.69 465.146
505 0 102.165 12.656 1293 91.4401 253.25 461.905
506 0 105.214 12.831 1350 92.2481 253.451 461.606
507 0 107.281 12.6211 1354 92.5037 252.906 458.97
508 0 112.227 13.4905 1514 89.609 253.233 459.662
509 0 114.324 13.5667 1551 89.3243 252.93 455.179
510 0 117.332 13.628 1599 89.676 253.056 452.878
511 0 120.347 13.8101 1662 88.6504 252.816 449.063
512 0 125.364 14.3901 1804 88.5033 253.254 445.029
513 0 132.364 13.9917 1852 88.8445 252.15 445.28
514 0 134.424 14.0824 1893 89.3455 251.786 443.882
515 0 137.455 13.408 1843 92.0429 252.907 443.124
516 0 143.378 13.6074 1951 91.6848 252.45 439.461
517 0 147.308 14.0522 2070 89.3087 252.203 436.983
518 0 152.282 13.1729 2006 91.2223 251.88 436.012
519 0 158.306 13.6445 2160 91.5296 251.696 434.037
520 0 161.274 13.2073 2130 94.3709 252.106 430.684
521 0 170.325 13.9615 2378 92.9769 251.506 428.067
522 0 173.401 13.7773 2389 93.0979 252.028 425.376
523 0 179.335 13.472 2416 94.7599 251.646 422.375
524 0 186.399 13.6321 2541 93.8721 251.627 420.989
525 1 98.303 11.3628 1117 92.9597 252.913 462.347
526 0 103.345 12.1534 1256 91.1178 253.029 461.361
527 0 106.435 12.5993 1341 90.6555 252.955 460.695
528 0 111.227 12.7307 1416 92.3213 253.576 464.809
529 0 112.184 12.2566 1375 94.6749 253.127 463.97
530 0 116.199 12.6335 1468 93.577 252.255 461.012
531 0 119.29 12.0715 1440 96.0278 252.495 458.811
532 0 125.215 12.786 1601 94.5996 251.618 455.892
533 0 129.222 12.5133 1617 96.9481 251.184 452.287
534 0 134.188 12.9296 1735 95.1896 251.176 450.22
535 0 136.267 12.5195 1706 96.8593 250.988 445.358
536 0 145.221 12.9664 1883 95.7854 251.628 444.837
537 1 80.2047 10.7226 860 94.4663 252.766 479.692
538 0 81.2895 11.5882 942 95.3386 253.766 478.149
539 0 83.3853 11.4169 952 97.0021 253.634 477.452
540 0 88.439 12.0648 1067 95.5239 253.342 478.184
541 0 93.3686 12.8202 1197 96.2698 252.567 477.947
542 0 95.4949 12.8174 1224 97.1528 253.029 476.765
543 0 100.569 12.7176 1279 98.4042 252.926 474.761
544 0 102.459 12.6684 1298 100.233 252.354 474.712
545 0 103.577 12.4642 1291 101.684 252.063 474.134
546 0 107.417 11.9068 1279 97.3729 252.367 471.507
547 0 113.397 12.7428 1445 93.854 252.599 471.647
548 0 116.356 12.2383 1424 97.3308 252.88 469.152
549 0 116.384 11.6683 1358 100.608 252.296 465.861
550 0 123.393 12.3183 1520 98.6493 252.718 463.578
551 0 125.389 11.7155 1469 100.255 252.498 463.161
552 0 128.315 11.3938 1462 102.718 252.447 461.594
553 0 133.422 11.9096 1589 103.209 251.454 458.27
554 1 68.0524 10.9181 743 91.9004 252.696 494.172
555 0 71.1531 11.0044 783 90.6169 252.446 493.259
556 0 72.2271 11.4085 824 91.3422 253.329 489.563
557 0 75.1384 11.6984 879 91.2218 253.588 490.223
558 0 76.1711 12.0649 919 91.5996 252.816 490.038
559 0 77.2232 11.4473 884 98.7907 253.27 489.178
560 0 80.1889 12.3957 994 92.4054 253.471 488.833
561 0 82.2119 12.3097 1012 92.2915 253.112 487.186
562 0 86.1272 12.2842 1058 93.8639 254.058 485.195
563 0 87.125 12.0976 1054 94.9583 252.694 483.477
564 0 91.0507 11.6309 1059 100.797 253.173 482.533
565 0 93.1956 11.3739 1060 103.529 253.296 480.104
566 0 96.058 12.4612 1197 99.4987 252.98 479.944
567 0 99.1977 12.1676 1207 100.159 253.317 477.817
568 0 100.166 12.2497 1227 100.053 253.713 475.132
569 0 103.241 11.8558 1224 101.791 253.464 475.315
570 0 105.289 11.3403 1194 103.425 252.987 473.875
571 0 110.563 11.8756 1313 101.826 252.807 469.685
572 0 112.626 11.223 1264 104.231 252.475 469.718
573 0 117.487 12.2056 1434 101.887 252.902 468.299
574 0 120.37 12.7357 1533 101.744 252.385 466.485
575 0 124.471 12.1635 1514 102.546 252.634 463.503
576 1 64.412 10.2621 661 96.6884 253.782 493.897
577 0 66.259 10.9872 728 95.1099 254.257 493.136
578 0 69.3046 11.8318 820 95.1561 253.582 490.999
579 0 70.1048 12.6097 884 105.124 253.89 491.676
580 0 72.0854 12.9152 931 104.841 253.328 490.43
581 0 75.1074 12.9415 972 104.773 253.289 488.464
582 0 80.1397 12.5281 1004 102.873 253.726 488.63
583 0 80.1521 13.2748 1064 102.149 254.007 486.062
584 0 83.1427 13.3746 1112 101.925 254.202 484.085
585 0 85.1427 13.7416 1170 101.816 253.783 482.893
586 0 88.1441 13.3531 1177 101.489 253.827 483.288
587 0 89.2253 13.606 1214 103.414 253.785 481.252
588 0 93.2061 14.012 1306 103.21 252.672 479.096
589 0 93.1033 13.1252 1222 104.869 253.522 478.89
590 0 97.08 13.7103 1331 100.761 253.682 479.056
591 0 99.1585 13.2616 1315 102.255 253.535 476.275
592 0 102.082 13.1756 1345 104.042 253.611 477.421
593 0 104.18 12.6992 1323 105.118 253.252 476.384
594 0 108.265 12.5248 1356 103.277 252.397 475.584
595 0 110.285 12.3317 1360 102.816 253.237 472.019
596 1 58.0487 10.1811 591 153.081 256.108 498.369
597 0 59.0716 9.90324 585 88.1812 252.337 492.342
598 0 61.3323 11.7556 721 94.6588 253.42 496.712
599 0 62.2979 11.7821 734 95.688 253.054 498.917
600 0 65.3013 11.5159 752 96.9415 253.336 495.209
601 0 68.2942 11.7726 804 95.1779 253.438 495.756
602 0 70.2436 11.9726 841 96.3234 253.447 494.057
603 0 71.2761 11.9956 855 98.5415 253.096 493.759
604 0 75.2735 11.9165 897 98.9231 252.918 491.436
605 0 78.3486 12.9039 1011 96.7003 252.309 490.362
606 0 80.327 12.835 1031 96.3792 252.203 488.373
607 0 81.2906 12.3015 1000 94.457 252.266 488.377
608 0 84.3257 12.7008 1071 93.5938 251.982 484.889
609 0 88.3193 12.6133 1114 93.3752 252.137 481.681
610 0 91.2834 13.2226 1207 91.4085 251.273 479.266
611 0 93.4295 12.8118 1197 91.721 251.909 478.396
612 0 95.256 12.4087 1182 89.1201 252.315 478.611
613 0 98.2629 12.782 1256 87.574 252.069 476.476
614 0 101.286 12.8448 1301 86.7948 251.945 475.183
615 0 102.298 11.8379 1211 88.872 251.433 473.722
616 1 54.0932 10.0197 542 95.8542 252.703 496.882
617 0 55.0744 10.967 604 91.0679 252.548 496.164
618 0 58.0808 11.2946 656 94.2424 252.887 493.465
619 0 60.2669 12.2123 736 83.1522 253.37 496.164
620 0 64.1699 11.8436 760 96.0579 252.259 493.705
621 0 65.194 11.4888 749 97.7664 252.438 493.203
622 0 68.18 12.0563 822 93.9185 252.504 494.022
623 0 69.311 12.2636 850 94.94 253.028 492.814
624 0 70.2475 11.73 824 96.4587 252.937 492.03
625 0 73.25 11.6587 854 97.2143 253.145 490.207
626 0 74.3064 12.4215 923 94.922 253.06 489.923
627 0 75.3644 12.4197 936 96.4722 252.955 487.78
628 0 78.3276 12.8307 1005 95.4378 252.884 486.737
629 0 81.2538 11.8271 961 97.9719 252.587 484.844
630 0 83.282 12.1155 1009 97.2815 253.836 484.865
631 0 84.235 12.0259 1013 99.0809 254.124 483.104
632 0 87.2552 12.4806 1089 98.4766 253.681 482.812
633 0 89.2955 12.2627 1095 98.811 252.942 481.754
634 0 92.2656 12.063 1113 98.2228 253.323 479.975
635 0 95.2641 12.3131 1173 99.5899 252.824 478.199
636 0 98.2258 12.1557 1194 100.228 253.405 476.707
637 0 101.224 12.3489 1250 100.683 253.802 475.873
638 0 104.215 12.2439 1276 100.103 254.029 474.652
639 0 108.293 12.7524 1381 98.6206 254.03 474.048
640 0 110.209 12.0408 1327 99.792 253.751 471.666
641 0 111.3 12.345 1374 94.3763 253.509 471.744
642 0 115.288 12.1782 1404 95.1168 253.367 469.35
643 0 118.266 12.1675 1439 95.4635 254.229 467.714
644 0 121.229 11.9773 1452 96.6508 253.124 465.368
645 0 125.263 12.318 1543 96.1672 253.828 464.579
646 0 129.335 12.0308 1556 97.2963 252.715 460.881
647 0 131.345 11.8467 1556 97.7802 252.916 460.683
648 0 135.286 11.7825 1594 98.8243 253.281 458.453
649 0 138.269 11.5572 1598 100.568 253.753 455.496
650 0 144.296 12.4951 1803 100.013 253.572 454.321
651 0 148.361 12.2674 1820 103.141 253.274 451.781
652 0 151.225 12.8814 1948 102.956 253.201 450.096
653 0 154.239 12.1564 1875 106.225 253.577 447.637
654 0 160.295 12.4708 1999 105.748 253.383 447.965
655 0 166.238 12.2355 2034 107.407 252.967 444.614
656 0 169.407 12.1424 2057 108.846 252.507 443.215
657 0 175.275 12.392 2172 108.212 253.075 437.999
658 0 181.316 12.2107 2214 108.396 253.336 434.112
659 0 186.385 12.2274 2279 109.476 253.22 432.324
660 1 98.2448 12.2347 1202 104.636 254.843 472.859
661 0 101.226 12.5659 1272 104.494 254.281 470.597
662 0 105.188 13.1669 1385 102.773 255.419 468.891
663 0 108.278 13.4745 1459 110.661 254.649 466.904
664 0 111.288 13.8919 1546 107.537 254.171 466.956
665 0 114.323 13.2957 1520 109.112 253.87 464.075
666 0 118.302 13.5078 1598 107.255 254.367 462.837
667 0 119.208 11.719 1397 100.068 254.002 464.177
668 0 123.278 11.5512 1424 99.96 253.539 462.344
669 0 128.2 12.2543 1571 99.1871 254.054 458.826
670 0 133.162 12.1732 1621 98.1178 253.724 455.867
671 1 80.0984 11.7106 938 94.6301 255.466 482.067
672 0 82.1039 11.8874 976 94.1824 255.394 480.357
673 0 82.1027 11.3273 930 92.0043 254.913 476.378
674 0 84.172 11.5359 971 93.0566 254.119 474.657
675 0 89.2338 11.9573 1067 89.9353 254.363 477.897
676 0 92.1501 12.9897 1197 89.0769 254.169 477.109
677 0 94.1833 13.0703 1231 91.2453 254.875 476.506
678 0 94.1259 12.2602 1154 92.896 254.648 477.136
679 0 98.1791 12.3753 1215 94.9704 254.868 474.51
680 0 101.166 12.0199 1216 96.4523 254.319 474.069
681 0 105.211 11.6908 1230 96.9805 254.716 472.366
682 0 107.287 12.5272 1344 97.0179 254.441 470.263
683 1 61.2331 12.0686 739 99.6035 256.158 493.545
684 0 61.2287 13.1474 805 91.6882 257.048 492.884
685 0 65.0427 11.8845 773 99.5045 256.679 492.629
686 0 66.0391 11.6295 768 102.307 255.879 490.514
687 0 69.0689 12.1907 842 100.296 256.247 490.64
688 0 69.0863 11.8403 818 102.345 256.531 488.933
689 0 70.0424 12.1212 849 102.168 256.347 487.846
690 0 73.0706 12.5221 915 100.701 256.24 487.424
691 0 77.0672 12.6643 976 100.533 255.719 486.662
692 0 77.1849 12.7616 985 101.89 256.507 485.601
693 0 81.307 12.7418 1036 100.963 255.501 484.835
694 0 84.3201 13.3657 1127 99.8651 255.775 484.374
695 0 85.2955 13.4239 1145 100.268 255.243 481.387
696 0 86.1994 13.1671 1135 100.722 255.086 481.938
697 0 88.2432 13.4061 1183 101.73 255.018 480.227
698 0 88.2509 12.2832 1084 95.1006 255.203 482.696
699 0 91.2552 11.9664 1092 94.1053 254.828 481.33
700 0 94.2973 11.8667 1119 95.3128 254.798 480.635
701 0 98.2603 12.1921 1198 96.1052 254.724 476.85
702 0 99.341 12.2507 1217 95.903 254.866 476.736
703 0 103.324 12.1752 1258 95.8959 254.883 474.089
704 0 106.35 12.3649 1315 95.8464 253.815 473.478
705 0 109.243 12.312 1345 95.4572 254.445 471.621
706 0 114.221 12.5371 1432 96.8946 253.478 470.648
707 0 116.342 12.6782 1475 98.1295 253.14 466.927
708 0 120.438 12.9777 1563 101.937 253.258 463.407
709 0 120.438 12.986 1564 153.678 254.264 463.459
710 0 128.425 12.9959 1669 95.8826 252.659 461.455
711 0 132.419 12.4378 1647 96.5908 253.363 461.772
712 0 136.404 12.8442 1752 95.9834 252.165 457.251
713 1 77.2809 11.9434 923 94.7909 253.603 488.53
714 0 80.2631 13.2066 1060 93.9745 252.756 484.342
715 0 83.4172 12.4555 1039 103.158 253.169 483.834
716 0 84.1124 11.7105 985 90.8599 253.533 484.693
717 0 84.1235 10.7937 908 93.5958 253.313 484.225
718 0 88.0886 11.7041 1031 91.3434 253.308 482.805
719 0 91.0863 11.3628 1035 90.8039 253.121 483.006
720 0 94.185 11.0846 1044 89.6197 253.798 479.193
721 0 98.1293 11.546 1133 88.2745 252.996 477.776
722 0 100.221 11.3849 1141 88.5311 253.569 474.679
723 0 104.139 11.6767 1216 87.2344 253.093 476.519
724 0 105.059 10.7844 1133 90.0591 253.143 474.092
725 0 112.245 11.6352 1306 87.9701 252.805 472.681
726 0 115.191 10.9818 1265 89.8047 252.671 471.354
727 1 65.2905 10.4763 684 85.7982 253.558 495.73
728 0 66.1157 11.8278 782 82.3389 253.188 494.02
729 0 68.2341 12.6183 861 86.3484 253.314 493.79
730 0 67.1779 11.7152 787 91.1474 253.714 494.568
731 0 68.2161 11.361 775 92.2761 253.578 492.409
732 0 71.2112 11.501 819 91.1074 253.584 491.199
733 0 73.2785 11.4085 836 88.7249 252.556 489.217
734 0 75.2123 11.4742 863 89.1854 253.465 487.349
735 0 78.4401 11.8689 931 87.9259 253.044 483.827
736 0 79.3493 11.4053 905 89.4807 253.307 483.685
737 0 82.3849 11.1185 916 89.5076 252.653 482.183
738 0 87.3565 11.6419 1017 85.41 253.209 481.885
739 0 87.276 10.9308 954 87.2694 253.406 482.405
740 0 91.2608 11.1768 1020 87.8382 253.811 478.993
741 1 49.1435 10.4185 512 86.7344 254.682 500.35
742 0 52.1396 10.3568 540 86.6463 254.424 499.463
743 0 51.1307 10.0136 512 87.2207 252.924 497.859
744 0 55.1571 10.9687 605 85.5355 252.843 496.792
745 0 57.2471 11.3892 652 85.8466 252.546 492.296
746 0 58.1577 12.019 699 84.3691 252.873 492.192
747 0 59.1161 11.2152 663 86.175 255.709 495.762
748 0 58.1643 10.2812 598 90.505 255.349 494.754
749 0 62.121 11.3005 702 88.2521 254.033 494.748
750 0 64.117 10.59 679 90.9514 254.252 494.359
751 0 65.0969 11.5827 754 87.0623 255.476 492.048
752 0 65.1055 10.7825 702 90.5214 255.199 489.887
753 0 69.1618 11.1622 772 88.2759 254.719 488.716
754 0 71.1403 11.8498 843 87.6145 254.937 487.706
755 0 73.2432 11.769 862 87.6125 255.13 486.604
756 0 76.1045 11.6419 886 87.6501 255.146 486.674
757 0 75.1864 11.4648 862 88.9791 254.795 485.469
758 0 79.1795 11.4045 903 89.0742 254.75 484.305
759 0 80.2062 10.7473 862 92.0998 254.783 482.539
760 0 83.2547 11.5189 959 90.3212 255.437 481.587
761 0 86.1825 11.8934 1025 90.28 255.113 480.8
762 0 92.2254 12.155 1121 88.6182 255.12 478.485
763 0 93.1699 11.5273 1074 92.432 254.338 478.169
764 0 96.1812 11.8838 1143 91.3185 254.665 475.868
765 0 98.1353 11.2702 1106 92.1962 254.306 475.733
766 0 102.181 11.7243 1198 90.429 253.735 473.11
767 1 52.1033 10.0186 522 88.1858 255.167 496.598
768 0 52.0708 10.7738 561 88.6845 254.841 495.948
769 0 56.329 10.9358 616 86.5779 254.308 491.513
770 0 57.3207 11.6188 666 85.2432 254.683 490.183
771 0 58.1769 12.2213 711 83.2729 254.404 491.935
772 0 59.1417 12.4278 735 82.732 254.61 490.348
773 0 61.1311 12.3178 753 83.0691 254.64 490.166
774 0 62.1647 11.7591 731 83.4665 254.301 487.387
775 0 63.1896 11.8374 748 83.6297 253.648 485.11
776 0 66.1846 12.6464 837 82.1517 254.748 485.912
777 0 66.1543 12.0325 796 84.0239 254.456 484.735
778 0 69.1688 12.0141 831 84.1757 254.07 484.919
779 0 71.1456 12.6361 899 83.1491 254.146 484.075
780 0 72.1425 12.9189 932 84.074 254.479 482.278
781 0 76.1508 12.2389 932 87.4399 254.279 481.51
782 0 77.2304 13.1943 1019 88.8548 253.802 479.79
783 0 80.3049 13.0004 1044 96.5172 253.951 477.282
784 0 82.2927 12.5163 1030 98.933 253.999 478.807
785 0 82.3581 12.6642 1043 100.71 253.607 476.65
786 0 87.2557 12.8129 1118 100.6 253.801 476.287
787 0 89.2633 13.2865 1186 99.7319 253.968 475.329
788 0 89.1482 12.7316 1135 104.186 253.715 475.414
789 0 93.075 12.8713 1198 103.07 254.538 474.351
790 0 94.1863 12.8363 1209 104.7 254.856 473.29
791 0 97.1027 13.0686 1269 104.902 254.972 472.327
792 0 101.144 13.466 1362 102.965 254.455 471.872
793 0 103.122 13.0428 1345 104.949 254.515 471.135
794 0 107.19 13.2008 1415 104.128 254.59 469.535
795 0 109.156 13.0181 1421 105.091 254.35 465.6
796 0 111.177 13.5459 1506 104.384 254.426 464.144
797 0 114.25 13.0678 1493 106.118 254.514 464.066
798 0 118.265 13.7234 1623 104.652 254.627 461.85
799 0 123.273 13.9041 1714 102.765 255.123 461.914
800 1 61.1118 12.338 754 99.5106 256.154 490.434
801 0 64.1091 12.2447 785 98.7758 256.033 490.127
802 0 66.1494 13.1974 873 92.1317 255.491 490.049
803 0 68.0632 13.0908 891 94.0595 254.668 489.175
804 0 69.2324 13.5486 938 92.838 254.616 488.472
805 0 72.0838 13.7895 994 95.8994 254.843 488.149
806 0 73.1263 13.3468 976 98.3371 255.339 487.682
807 0 77.071 14.2726 1100 95.2555 254.998 488.147
808 0 77.1235 13.5367 1044 96.3688 255.606 488.005
809 0 79.1803 12.9704 1027 100.976 255.444 486.023
810 0 80.2839 12.7547 1024 102.856 254.998 485.307
811 0 83.1731 12.985 1080 102.377 254.453 483.407
812 0 85.1612 13.175 1122 102.067 254.404 483.271
813 0 87.2397 13.5947 1186 101.691 254.399 482.336
814 0 90.2479 13.618 1229 101.801 253.457 481.936
815 0 92.273 13.2108 1219 101.094 252.503 478.34
816 0 94.1306 13.3219 1254 102.014 253.05 479.464
817 0 96.2144 13.023 1253 103.858 253.053 477.338
818 0 99.2875 13.7782 1368 103.23 252.423 475.048
819 0 100.126 12.7539 1277 103.437 252.977 471.41
820 0 102.228 12.5601 1284 102.504 253.312 468.953
821 0 107.195 13.0324 1397 100.54 252.764 467.057
822 0 111.23 12.0561 1341 99.5884 252.444 465.221
823 1 59.1234 10.5035 621 93.0886 253.477 490.947
824 0 63.2104 11.6437 736 90.2609 252.548 490.462
825 0 66.3249 13.5243 897 92.3579 252.831 492.41
826 0 67.2435 13.057 878 94.0615 252.761 493.011
827 0 69.1844 13.3122 921 93.4886 252.387 492.63
828 0 71.1702 12.6176 898 97.3374 252.729 491.556
829 0 73.2042 13.0867 958 96.6106 253.114 488.573
830 0 77.2182 13.559 1047 96.2865 253.23 487.63
831 0 79.2467 13.0226 1032 105.02 252.359 486.265
832 0 83.2382 13.0949 1090 104.36 252.616 484.904
833 0 85.2232 12.4849 1064 105.747 252.651 484.409
834 0 87.2388 12.9071 1126 103.128 253.031 484.595
835 0 89.2136 12.9801 1158 103.292 252.516 482.801
836 0 93.1597 13.1173 1222 101.664 251.724 482.415
837 0 95.1562 13.315 1267 100.616 251.435 478.894
838 0 95.1974 12.3428 1175 106.53 251.363 474.786
839 0 98.2022 12.2197 1200 107.132 251.065 473.716
840 0 101.172 11.9796 1212 104.13 250.399 472.69
841 0 104.237 12.203 1272 104.112 250.591 469.672
842 1 56.1356 10.9912 617 99.0729 250.13 493.686
843 0 57.0284 10.8718 620 97.3952 251.069 495.484
844 0 62.06 11.65 723 92.6266 251.094 494.86
845 0 63.0222 12.6305 796 92.951 252.612 493.888
846 0 64.0437 11.7576 753 91.8194 251.598 493.361
847 0 64.0682 11.3005 724 94.4213 250.985 494.963
848 0 66.0618 11.7012 773 95.5252 250.889 492.828
849 0 69.1048 11.8082 816 95.7108 251.654 490.02
850 0 73.1112 12.1869 891 92.9574 251.524 489.428
851 0 74.1387 12.1664 902 92.4091 251.868 489.229
852 0 76.0831 12.6441 962 91.5322 252.219 487.956
853 0 79.1198 11.4636 907 95.0783 252.191 488.175
854 0 79.0718 12.0397 952 96.0651 252.327 487.484
855 0 82.0489 11.9563 981 96.3863 252.666 486.583
856 0 84.1709 11.8568 998 97.5391 252.615 484.353
857 0 85.1637 11.566 985 100.181 252.621 482.78
858 0 89.2222 11.6002 1035 100.782 252.341 480.894
859 0 90.2283 11.5596 1043 103.36 252.559 480.76
860 0 95.1642 12.5257 1192 101.475 252.576 478.529
861 1 51.0325 10.9538 559 100.717 253.238 499.848
862 0 53.0465 12.3288 654 94.0963 252.472 498.758
863 0 54.0488 12.0077 649 94.7596 253.401 498.344
864 0 55.0233 12.4311 684 101.015 254.537 497.123
865 0 57.0406 12.272 700 102.43 253.48 496.296
866 0 59.0485 12.3288 728 102.442 253.596 494.103
867 0 61.0632 12.8719 786 99.9873 253.207 493.223
868 0 63.0247 12.3761 780 100.888 252.76 492.903
869 0 65.0168 13.0428 848 99.9092 253.081 492.088
870 0 64.0109 12.6541 810 102.643 253.465 490.733
871 0 67.0381 12.6794 850 102.773 253.038 491.626
872 0 69.0481 13.0634 902 102.61 252.676 489.585
873 0 70.0438 12.6349 885 105.664 253.549 487.438
874 0 74.0242 12.8336 950 103.785 253.359 486.031
875 0 77.056 13.2501 1021 103.389 253.084 485.845
876 0 77.0319 12.7609 983 106.539 253.052 484.072
877 0 79.0292 12.9319 1022 107.231 252.862 483.412
878 0 83.0833 13.2879 1104 106.645 252.603 481.777
879 0 85.0597 12.6735 1078 109.191 251.59 481.235
880 0 86.0415 12.7148 1094 107.477 251.915 482.829
881 0 89.063 12.4294 1107 108.793 251.967 480.228
882 0 91.0379 12.5882 1146 109.177 252.446 479.286
883 0 94.0403 12.1437 1142 111.793 252.289 478.786
884 0 97.0348 13.3354 1294 108.008 252.485 475.75
885 0 100.049 12.9936 1300 108.953 252.633 477.229
886 0 104.049 13.5705 1412 104.802 252.197 472.704
887 1 55.044 11.1729 615 104.262 252.738 498.654
888 0 54.0164 11.0892 599 107.444 252.382 497.76
889 0 58.0353 12.389 719 103.897 252.075 497.163
890 0 57.0311 12.1688 694 108.401 251.716 495.935
891 0 59.1705 12.878 762 102.551 251.542 495.699
892 0 62.1558 12.9192 803 111.234 251.234 493.346
893 0 66.0806 12.2275 808 112.574 251.899 492.938
894 0 66.0722 12.668 837 112.822 251.995 492.178
895 0 67.0894 13.0274 874 111.063 252.429 490.646
896 0 71.0574 13.2147 939 111.323 252.257 489.399
897 0 71.0481 13.4979 959 112.271 251.396 488.501
898 0 74.1267 12.9508 960 113.014 251.952 487.548
899 0 78.0896 13.2156 1032 112.595 251.82 485.665
900 0 80.078 13.0498 1045 111.774 252.676 486.202
901 0 79.1262 12.8782 1019 115.413 252.132 484.439
902 0 85.0477 13.463 1145 112.958 252.271 483.297
903 0 86.1084 12.8675 1108 115.588 252.325 482.477
904 0 88.1406 13.3196 1174 113.528 252.484 480.501
905 0 90.0874 13.3981 1207 113.06 252.299 480.428
906 0 92.1554 13.5098 1245 113.81 253.08 477.784
907 0 94.1342 13.4383 1265 113.837 253.497 476.172
908 0 98.125 14.2675 1400 111.184 252.714 474.776
909 0 101.171 13.9467 1411 110.332 252.23 473.037
910 0 100.083 12.7194 1273 104.474 253.272 468.84
911 0 105.1 13.0067 1367 101.516 253.286 468.876
912 0 109.128 13.4887 1472 110.084 253.69 469.985
913 1 57.0858 12.2973 702 108.839 254.191 494.064
914 0 59.0262 13.1467 776 110.26 254.606 492.661
915 0 59.0993 12.8089 757 105.947 253.975 492.062
916 0 62.0223 13.221 820 94.6427 253.505 489.69
917 0 64.0417 12.7729 818 97.2787 253.578 489.207
918 0 66.0719 13.5307 894 94.4004 253.264 487.408
919 0 70.0554 13.6892 959 93.0386 253.578 485.854
920 0 73.104 13.5013 987 93.0486 253.179 483.82
921 0 72.1344 13.1699 950 95.4895 252.6 482.946
922 0 77.0811 13.8815 1070 95.2383 253.382 484.207
923 0 79.1296 13.6611 1081 96.5828 253.068 484.576
924 0 81.1657 13.2692 1077 97.3055 252.481 483.398
925 0 83.1037 13.8261 1149 97.6893 252.289 480.238
926 0 85.22 13.9287 1187 99.3665 252.393 479.472
927 0 91.1574 13.8771 1265 109.643 251.948 479.008
928 0 94.2658 13.8757 1308 108.99 252.374 477.354
929 0 96.2696 13.8673 1335 109.943 252.105 475.729
930 0 100.209 14.1205 1415 108.413 251.978 476.066
931 0 101.309 14.1349 1432 108.554 252.06 473.524
932 1 54.1604 12.1676 659 107.179 252.901 497.288
933 0 56.0719 12.377 694 106.519 253.056 497.434
934 0 59.1582 13.6076 805 98.9602 251.82 496.327
935 0 60.0467 13.2064 793 100.608 251.752 495.142
936 0 62.0757 13.5641 842 101.973 251.721 494.287
937 0 63.1194 13.1338 829 104.659 251.27 493.895
938 0 65.1476 13.1394 856 105.855 251.291 492.918
939 0 67.1631 13.2215 888 105.936 250.8 492.928
940 0 71.1185 13.6814 973 102.521 251.115 492.092
941 0 71.1009 13.5582 964 104.013 250.424 490.466
942 0 75.1361 13.2293 994 105.12 250.259 488.307
943 0 77.1372 13.3917 1033 104.533 250.038 488.963
944 0 78.1689 13.5604 1060 104.687 250.201 485.673
945 0 81.3129 13.3435 1085 106.336 249.999 484.862
946 0 85.1455 13.4828 1148 105.255 249.749 483.854
947 0 87.2294 13.6995 1195 104.685 249.697 482.717
948 0 91.2113 13.7044 1250 104.934 249.258 481.425
949 0 93.2342 13.804 1287 105.037 250.301 480.194
950 0 96.1846 13.3181 1281 106.262 250.219 477.849
951 0 99.1801 13.541 1343 113.35 250.173 478.49
952 0 102.23 14.0565 1437 111.988 250.717 477.347
953 0 105.165 13.7023 1441 116.11 252.001 478.731
954 0 108.223 14.4424 1563 114.815 250.235 475.305
955 0 112.239 14.4513 1622 115.586 250.403 473.183
956 0 115.253 13.6569 1574 106.945 250.12 471.713
957 0 119.27 14.3707 1714 106.372 249.65 468.981
958 0 123.302 14.6713 1809 105.443 250.481 467.473
959 0 128.185 14.8145 1899 105.835 250.74 465.755
960 0 131.157 15.1117 1982 103.624 250.939 463.783
961 0 136.232 15.2534 2078 102.828 250.994 459.958
962 0 139.255 15.4896 2157 104.578 250.554 455.111
963 0 144.248 15.2584 2201 106.167 250.363 451.89
964 0 149.254 15.1018 2254 106.997 250.361 449.533
965 0 154.344 15.3488 2369 104.866 250.866 450.464
966 0 159.239 15.3605 2446 106.927 251.336 449.571
967 0 165.455 15.5208 2568 105.812 251.552 445.597
968 0 171.277 15.6472 2680 105.356 251.424 439.091
969 0 176.291 15.1114 2664 106.782 251.741 441.13
970 0 182.403 15.8605 2893 105.254 251.521 433.504
971 0 188.375 16.1062 3034 104.507 251.607 429.634
972 0 193.396 15.6466 3026 110.227 251.219 427.725
973 0 203.373 15.8969 3233 106.451 251.467 423.2
974 0 210.431 15.9102 3348 106.125 251.479 417.958
975 1 164.24 13.6203 2237 111.223 251.988 445.408
976 0 170.2 14.5946 2484 110.041 251.702 441.809
977 0 174.266 14.65 2553 113.142 251.532 438.607
978 0 181.228 14.3466 2600 113.953 251.102 433.6
979 0 186.278 14.6501 2729 121.457 252.154 429.996
980 0 193.205 14.6011 2821 122.643 252.541 428.888
981 0 200.25 14.387 2881 122.858 253.141 425.4
982 0 208.303 14.8725 3098 122.874 252.46 423.586
983 0 215.333 14.9118 3211 111.857 252.585 419.131
984 0 222.34 14.8286 3297 112.921 251.65 413.385
985 0 230.282 14.9946 3453 112.944 252.283 410.652
986 0 236.35 14.4404 3413 115.249 252.022 404.985
987 0 246.339 15.0727 3713 114.196 251.938 401.913
988 0 255.35 15.2653 3898 112.937 252.779 396.926
989 0 263.282 14.5699 3836 115.861 252.064 393.92
990 0 272.603 14.71 4010 115.14 251.989 388.624
991 0 281.54 15.1097 4254 113.915 250.761 382.461
992 1 217.313 14.3295 3114 114.012 251.661 419.44
993 0 222.329 14.0603 3126 116.129 251.827 414.547
994 0 231.328 15.0911 3491 114.575 251.404 411.449
995 0 239.346 14.8154 3546 113.799 251.214 406.33
996 0 248.415 14.9669 3718 113.042 251.02 402.219
997 0 257.51 15.1567 3903 113.171 251.528 395.685
998 0 266.461 15.6946 4182 111.157 252.236 392.615
999 0 275.565 15.1616 4178 112.919 251.886 389.66
1000 0 274.558 14.5434 3993 176.503 250.877 387.209
1001 0 275.609 13.1854 3634 116.596 251.857 394.474
1002 0 274.715 11.6084 3189 115.811 251.987 401.739
1003 1 57.1103 12.9924 742 97.8571 253.434 490.387
1004 0 60.1617 13.1978 794 96.1889 253.49 489.238
1005 0 62.116 14.2475 885 96.678 253.705 488.601
1006 0 65.1952 13.7433 896 95.6507 254.219 487.098
1007 0 67.0811 13.6402 915 96.294 254.985 486.169
1008 0 69.1701 13.3873 926 97.2322 254.814 486.217
1009 0 71.2702 13.6663 974 96.5821 254.119 486.132
1010 0 74.2185 14.2283 1056 94.9403 254.569 482.196
1011 0 77.2865 13.6246 1053 96.8613 253.709 479.215
1012 0 76.2282 15.0207 1145 92.5022 253.334 478.824
1013 0 76.4229 14.4852 1107 94.1147 252.677 479.072
1014 0 78.2284 13.3455 1044 97.4808 253.127 479.997
1015 0 77.4677 13.0377 1010 98.4505 252.951 480.51
1016 1 44.4982 12.8769 573 101.192 253.421 496.829
1017 0 45.3378 12.9914 589 103.295 253.652 497.097
1018 0 47.3258 13.3542 632 103.915 254.426 495.976
1019 0 47.1897 13.5199 638 106.494 254.625 495.187
1020 0 50.5092 12.9877 656 108.105 254.383 495.329
1021 0 50.2851 13.682 688 108.52 254.971 494.42
1022 0 54.2752 13.45 730 108.81 255.353 493.879
1023 0 54.2634 13.3792 726 112.023 255.255 493.565
1024 0 55.3258 13.3572 739 114.342 255.096 493.084
1025 0 58.3253 13.9733 815 110.733 254.783 491.335
1026 0 58.4089 14.5697 851 110.526 254.002 490.539
1027 0 59.2384 13.5048 800 115.354 253.911 490.655
1028 0 62.2867 14.4172 898 112.616 253.987 488.78
1029 0 61.2175 14.2116 870 116.263 253.892 488.353
1030 0 63.4743 14.0529 892 117.9 253.443 488.452
1031 0 66.2651 14.1854 940 116.12 253.329 487.804
1032 0 66.313 14.3562 952 118.049 253.419 486.897
1033 0 69.1923 14.7271 1019 116.974 253.635 485.995
1034 0 69.1816 13.6597 945 121.172 253.236 485.977
1035 0 73.1146 14.5935 1067 118.766 253.455 484.231
1036 0 74.1339 14.6492 1086 118.764 252.791 484.068
1037 0 77.1364 14.7272 1136 117.489 252.727 484.537
1038 0 84.2341 15.2314 1283 112.39 252.891 483.35
1039 0 84.2204 14.6639 1235 114.949 252.194 481.794
1040 0 87.1141 14.7737 1287 113.643 252.274 481.514
1041 0 89.1303 15.6512 1395 111.379 252.771 479.442
1042 0 91.2188 15.5999 1423 113.03 253.121 477.492
1043 0 93.1171 15.3033 1425 115.561 253.382 476.664
1044 0 95.1368 16.0821 1530 113.019 253.283 475.252
1045 0 98.1407 15.4574 1517 117.363 253.358 473.496
1046 0 101.226 15.4901 1568 116.448 253.118 472.72
1047 0 105.176 16.0969 1693 113.826 253.746 468.814
1048 0 108.313 15.7414 1705 114.715 253.219 469.445
1049 0 111.312 15.3982 1714 116.571 251.787 470.073
1050 0 115.131 15.6083 1797 115.196 252.554 465.068
1051 0 118.139 15.5241 1834 116.432 252.174 462.419
1052 0 122.133 15.5732 1902 116.318 252.325 460.558
1053 0 127.327 16.0531 2044 115.034 252.338 458.61
1054 0 130.209 16.1049 2097 117.159 252.412 457.454
1055 0 133.188 15.587 2076 120.018 253.142 455.675
1056 0 137.432 15.1275 2079 121.171 253.381 454.769
1057 0 139.316 15.1742 2114 120.996 252.956 451.76
1058 0 145.325 14.994 2179 120.446 252.431 449.809
1059 0 149.128 14.9871 2235 119.012 252.855 449.72
1060 0 155.292 15.5256 2411 116.355 253.074 449.175
1061 0 159.324 14.8063 2359 117.838 252.443 444.291
1062 0 163.28 15.648 2555 114.388 252.623 441.078
1063 0 170.362 15.1325 2578 118.911 252.744 439.032
1064 0 175.279 15.7863 2767 117.897 252.955 434.776
1065 0 180.509 15.5893 2814 117.111 252.591 432.853
1066 0 187.432 15.4883 2903 118.033 252.219 427.732
1067 0 192.361 15.2006 2924 118.043 252.671 427.224
1068 0 200.354 16.1415 3234 115.551 252.558 425.025
1069 0 206.374 15.8257 3266 117.224 252.574 422.473
1070 0 212.63 15.2754 3248 118.274 252.158 420.511
1071 0 220.643 15.5727 3436 117.385 251.63 418.308
1072 0 228.485 15.1344 3458 118.165 252.34 414.519
1073 0 236.489 15.8993 3760 116.934 252.477 412.723
1074 0 246.409 15.5392 3829 117.774 252.158 408.771
1075 1 183.307 14.653 2686 126.07 252.608 433.907
1076 0 192.658 15.3744 2962 121.512 251.983 430.491
1077 0 200.397 15.4893 3104 119.015 252.487 427.57
1078 1 78.3137 11.0453 865 119.134 253.382 484.839
1079 0 80.2961 11.744 943 118.258 253.718 482.459
1080 0 84.1968 12.9696 1092 115.125 253.116 480.671
1081 0 85.3236 13.4664 1149 114.036 253.176 478.37
1082 0 87.2336 13.3779 1167 114.652 253.274 478.715
1083 0 93.1961 13.7452 1281 111.937 252.842 476.715
1084 0 95.3162 13.1352 1252 113.164 252.978 475.09
1085 0 96.2082 13.055 1256 114.705 253.083 472.623
1086 0 102.214 13.462 1376 110.746 253.304 472.233
1087 0 106.391 13.6101 1448 109.677 253.385 469.108
1088 0 111.271 13.3188 1482 108.722 252.896 466.96
1089 0 112.27 12.755 1432 125.661 252.596 464.326
1090 0 117.225 13.2736 1556 124.459 253.213 462.999
1091 0 121.294 13.3395 1618 124.743 252.56 459.716
1092 0 125.268 12.9642 1624 126.917 252.516 456.232
1093 0 130.272 13.2723 1729 126.096 252.687 454.844
1094 0 135.221 12.4759 1687 130.631 252.704 449.206
1095 1 76.0639 7.45426 567 103.113 253.917 488.044
1096 0 79.1231 7.60839 602 106.083 254.095 485.636
1097 0 83.0723 9.72647 808 103.723 253.73 482.624
1098 0 86.2359 9.13773 788 113.449 253.947 483.434
1099 0 87.2496 7.54158 658 117.533 252.79 482.491
1100 0 91.1834 8.83933 806 114.263 254.474 479.984
1101 0 95.233 8.68396 827 115.002 254.109 476.549
1102 0 96.212 7.98237 768 118.496 253.807 471.538
1103 0 99.2315 7.96118 790 117.499 253.672 473.429
1104 0 103.202 8.40104 867 116.851 253.563 470.339
1105 0 107.196 8.19057 878 117.011 253.564 468.858
1106 0 109.205 7.07844 773 120.845 253.036 464.658
1107 0 113.451 6.68128 758 120.648 252.35 460.893
1108 1 62.3237 7.74986 483 93.2588 253.996 492.493
1109 0 63.3656 7.78025 493 93.5477 253.389 492.162
1110 0 65.3149 8.08391 528 94.4981 253.536 492.748
1111 0 65.2839 7.47504 488 97.5164 253.189 492.48
1112 0 68.2628 6.81191 465 102.585 252.26 489.071
1113 0 70.2206 6.73592 473 103.066 253.091 487.869
1114 0 72.1868 7.23123 522 101.921 252.814 486.314
1115 0 74.2579 6.81409 506 102.986 252.591 486.935
1116 0 77.2859 7.71163 596 101.643 253.482 486.767
1117 0 78.3814 6.90215 541 103.481 253.115 485.847
1118 0 82.2353 7.3691 606 101.635 253.216 485.746
1119 1 43.0406 6.22668 268 96.2015 253.481 507.194
1120 0 46.0734 6.48965 299 97.5686 253.421 506.669
1121 0 46.0427 7.53649 347 98.1931 254.242 507.156
1122 0 47.0876 6.94451 327 101.205 255.936 505.694
1123 0 48.1808 8.13602 392 99.4949 255.541 506.401
1124 0 50.1661 8.27252 415 100.761 255.453 503.969
1125 0 50.2038 8.40575 422 102.341 255.457 503.453
1126 0 50.1079 8.04264 403 102.871 256.112 504.365
1127 0 52.1563 8.01437 418 102.998 255.9 502.553
1128 0 53.2499 8.03757 428 101.631 255.544 502.706
1129 0 54.2009 8.30244 450 102.004 254.202 501.833
1130 0 54.2152 8.57693 465 102.553 254.411 502.286
1131 0 57.2899 8.51808 488 101.814 254.451 502.346
1132 0 57.3451 7.63797 438 105.251 254.874 501.642
1133 0 59.3555 9.06404 538 101.801 254.572 498.545
1134 0 58.3972 7.80859 456 103.452 255.171 498.759
1135 0 59.4333 8.21089 488 103.33 254.398 497.49
1136 0 64.3808 9.07103 584 100.663 254.098 496.281
1137 0 64.3447 8.40784 541 101.649 253.982 493.747
1138 0 66.3833 8.72208 579 100.522 254.489 493.872
1139 0 68.4014 8.74251 598 101.032 254.5 492.749
1140 0 70.4845 8.93814 630 101.159 254.416 493.649
1141 0 71.2978 8.61176 614 101.779 253.982 493.158
1142 0 67.2303 7.68998 517 105.217 254.306 493.779
1143 0 75.3698 9.00891 679 102.043 253.037 486.769
1144 0 76.3598 9.32427 712 101.216 253.188 488.07
1145 0 79.4134 8.23538 654 102.144 253.222 485.391
1146 0 87.2926 10.8829 950 94.5463 253.383 485.264
1147 0 90.4253 11.8993 1076 92.6422 252.411 483.599
1148 0 93.4267 11.8275 1105 94.7701 252.356 482.519
1149 0 94.2559 11.5749 1091 96.2264 252.893 481.079
1150 0 95.2461 11.4335 1089 85.1607 253.321 480.266
1151 0 97.2728 11.3701 1106 83.9548 252.663 476.319
1152 0 100.256 11.5504 1158 83.7504 252.066 475.821
1153 0 102.254 11.1193 1137 84.8452 251.457 475.275
1154 0 106.22 10.9019 1158 85.6891 252.353 474.094
1155 1 57.0618 9.69125 553 87.915 253.602 500.631
1156 0 59.1848 10.1546 601 89.1032 253.276 498.879
1157 0 61.0953 11.1792 683 85.3748 253.628 498.57
1158 0 61.1167 10.9299 668 86.1647 253.317 497.799
1159 0 64.1144 12.1346 778 81.9743 253.648 498.117
1160 0 61.1436 10.598 648 89.1327 253.221 500.401
1161 0 60.1677 10.1217 609 92.9507 253.296 499.207
1162 0 65.1252 10.4875 683 93.7936 252.963 497.508
1163 0 65.2367 11.0214 719 93.5619 253.067 496.164
1164 0 67.1214 10.1011 678 97.0929 253.174 496.982
1165 0 68.3675 11.1456 762 96.9554 252.377 495.533
1166 0 70.2633 10.973 771 98.2983 252.565 493.829
1167 0 73.2222 11.4856 841 98.2854 252.365 491.813
1168 0 74.1316 11.7224 869 95.4672 252.634 493.466
1169 0 75.1344 11.0469 830 100.092 252.83 491.861
1170 0 79.181 11.7831 933 97.09 253.138 491.16
1171 0 81.2834 11.9951 975 97.3621 252.977 489.517
1172 0 83.2682 11.6371 969 100.346 252.335 488.049
1173 0 85.2642 12.2326 1043 98.5081 252.771 486.83
1174 0 87.2633 11.7002 1021 100.649 252.366 486.148
1175 0 89.2588 11.8196 1055 99.9431 252.289 482.579
1176 0 92.3634 11.9744 1106 97.8092 251.73 484.308
1177 0 94.3421 12.2321 1154 101.184 251.85 482.449
1178 0 98.2815 12.9017 1268 99.3297 251.483 479.471
1179 0 100.362 12.425 1247 106.811 251.588 476.558
1180 0 100.362 12.4549 1250 153.027 251.582 476.546
1181 0 107.22 12.6842 1360 106.107 251.399 474.912
1182 0 108.188 12.8203 1387 100.154 252.011 476.607
1183 0 111.208 12.3642 1375 101.343 251.289 473.921
1184 0 114.137 11.8192 1349 101.914 250.932 470.337
1185 0 119.067 12.7911 1523 98.0624 250.632 467.502
1186 1 71.0278 11.2913 802 97.1322 252.455 492.176
1187 0 73.0144 11.2991 825 96.1176 252.114 491.998
1188 0 75.0305 12.3816 929 93.2454 251.649 491.658
1189 0 79.0976 12.8196 1014 93.2959 251.123 490.151
1190 0 81.0456 12.3511 1001 96.3546 250.793 488.593
1191 0 82.0344 11.8609 973 95.2528 251.113 487.707
1192 0 85.0831 12.0235 1023 93.9462 251.257 486.196
1193 0 86.0554 11.8993 1024 94.4102 251.369 484.473
1194 0 89.0511 12.33 1098 89.5291 251.529 483.036
1195 0 93.0579 12.4331 1157 89.643 250.899 483.44
1196 0 96.0651 12.7414 1224 90.415 250.517 483.394
1197 0 96.0745 12.407 1192 89.255 251.915 482.254
1198 0 100.057 12.4829 1249 87.438 251.195 479.297
1199 0 101.06 11.9731 1210 93.4777 251.784 477.874
1200 0 105.067 12.1542 1277 92.2153 251.265 477.341
1201 0 107.097 11.513 1233 95.9943 251.636 474.945
1202 1 62.036 10.4133 646 90.517 251.365 499.511
1203 0 64.0178 10.6689 683 89.6515 252.01 498.669
1204 0 64.0136 10.5134 673 91.0996 252.177 496.306
1205 0 65.0561 10.7599 700 86.55 251.266 495.669
1206 0 68.0861 12.0436 820 77.0183 251.395 497.689
1207 0 68.1265 12.3887 844 76.6872 251.977 496.572
1208 0 71.0979 12.1382 863 76.0915 251.857 493.883
1209 0 73.0855 11.726 857 83.1459 253.541 494.524
1210 0 75.0888 12.0124 902 84.2262 253.624 492.506
1211 0 75.0672 11.8827 892 84.2152 253.065 492.201
1212 0 77.1048 12.0226 927 83.0863 252.998 490.732
1213 0 77.0879 11.1561 860 84.6047 253.463 489.377
1214 0 80.0613 11.6286 931 84.0967 253.854 487.633
1215 0 81.0429 11.4384 927 82.7929 253.645 488.447
1216 0 84.0692 11.3954 958 81.6576 253.039 486.367
1217 0 84.052 11.2668 947 81.7381 252.757 485.799
1218 0 88.1084 11.4518 1009 81.1615 253.136 483.763
1219 0 88.076 11.1949 986 80.9128 253.293 482.184
1220 0 90.0773 10.3578 933 81.4544 253.495 482.997
1221 0 91.058 11.0589 1007 81.006 253.148 482.221
1222 0 94.1159 10.7739 1014 81.0464 253.547 477.943
1223 0 95.1285 10.5647 1005 80.608 253.497 477.986
1224 0 96.0631 10.5972 1018 80.2407 253.194 476.794
1225 0 99.1153 10.9569 1086 78.5359 252.938 476.72
1226 0 100.08 9.78214 979 80.6108 252.568 473.594
1227 0 102.117 10.0963 1031 79.2852 252.822 471.288
1228 0 105.142 9.83432 1034 79.2041 252.97 471.052
1229 0 104.126 10.036 1045 78.399 252.298 468.417
1230 0 108.145 10.1993 1103 77.3246 251.712 467.273
1231 0 109.113 9.33891 1019 77.9647 252.597 469.196
1232 0 110.093 9.6646 1064 78.0555 251.654 467.066
1233 0 115.083 10.1926 1173 76.254 252.624 465.953
1234 0 113.144 9.48345 1073 78.5424 252.253 462.923
1235 0 117.099 9.59019 1123 76.2769 252.625 465.105
1236 1 54.0643 8.4344 456 71.2544 253.41 496.684
1237 0 55.045 8.7928 484 69.8037 252.543 498.246
1238 0 57.0175 9.38309 535 67.6075 252.505 496.034
1239 0 57.0246 10.2587 585 66.9624 251.921 495.289
1240 0 54.0854 8.9673 485 70.2309 252.043 501.384
1241 0 55.0597 7.5736 417 71.2566 252.94 500.17
1242 0 55.042 8.97497 494 69.9615 252.447 497.83
1243 0 57.0828 9.14461 522 69.4655 251.879 494.833
1244 0 58.0725 9.40203 546 69.0293 252.311 493.976
1245 0 58.0458 9.28577 539 68.9202 252.881 493.427
1246 0 61.0708 7.99073 488 70.1824 252.807 493.5
1247 0 62.0882 9.40597 584 68.9606 251.863 490.336
1248 0 61.0964 8.8385 540 69.7463 251.943 491.343
1249 0 63.0959 9.17651 579 69.7979 250.929 490.28
1250 0 65.0775 8.2978 540 70.5593 251.885 489.578
1251 0 69.143 10.4132 720 66.4986 252.046 488.899
1252 1 165.619 10.663 1766 73.5883 251.678 442.31
1253 0 166.512 10.3536 1724 74.7529 251.514 441.124
1254 0 171.565 10.8297 1858 73.5118 252.514 442.712
1255 0 174.67 10.1449 1772 75.1845 252.203 436.704
1256 0 178.482 10.819 1931 74.6882 252.861 431.103
1257 0 181.409 10.2806 1865 75.556 252.288 431.567
1258 0 185.501 9.64413 1789 75.5388 252.258 431.742
1259 0 189.488 9.779 1853 76.0594 251.077 426.913
1260 1 140.735 10.9141 1536 70.584 251.889 450.071
1261 0 141.659 10.9206 1547 69.7886 252.137 448.712
1262 1 41.0073 8.99839 369 68.477 254.808 498.309
1263 0 42.0367 9.27761 390 67.2256 254.885 498.579
1264 0 42.0483 10.6068 446 64.352 255.664 499.46
1265 0 43.0828 9.26124 399 66.995 255.261 497.506
1266 0 44.0509 9.53443 420 66.1643 255.426 499.988
1267 0 42.1628 8.94154 377 60.8196 254.464 502.682
1268 0 41.0972 8.39472 345 60.658 254.73 502.82
1269 0 41.0883 8.2992 341 60.5191 254.519 501.821
1270 0 40.0463 8.24047 330 61.4242 254.158 502.188
1271 0 41.2507 8.41199 347 60.7003 254.888 501.767
1272 0 39.0487 7.32418 286 61.6189 254.206 503.066
1273 0 41.0236 7.45913 306 61.4216 254.598 502.356
1274 0 38.0312 7.41497 282 61.6348 254.202 500.117
1275 0 45.0387 8.12635 366 70.306 250.402 456.087
1276 0 43.0813 6.29043 271 71.6015 250.945 453.657
1277 0 43.0142 5.62605 242 72.2107 251.293 454.566
1278 0 43.015 5.04475 217 73.2258 250.636 456.742
1279 0 53.0395 6.74968 358 69.0391 249.953 456.444
1280 0 50.0366 8.09408 405 68.8691 250.368 452.911
1281 1 92.6741 6.25849 580 66.4845 251.722 469.14
1282 1 220.015 10.422 2293 77.7013 250.696 369.459
1283 0 224.797 11.0989 2495 77.1499 250.527 365.128
1284 1 166.743 7.34662 1225 82.0808 251.21 391.642
1285 0 167.799 7.36002 1235 85.7976 251.627 382.849
1286 0 174.726 8.48758 1483 82.5691 251.16 383.443
1287 0 172.842 7.72381 1335 85.1633 251.196 376.772
1288 0 173.599 6.05418 1051 84.5614 251.194 393.027
1289 0 176.671 5.68853 1005 81.8109 251.647 405.754
1290 1 65.1156 9.42939 614 62.7964 250.897 445.414
1291 1 104.508 4.13364 432 65.4306 252.093 466.755
1292 0 107.627 7.06146 760 61.6382 252.093 459.182
1293 0 109.805 8.20549 901 59.1287 252.287 467.228
1294 0 110.587 7.95753 880 59.9557 252.572 464.691
1295 0 109.04 5.50256 600 63.165 252.37 468.122
1296 0 110.683 4.02048 445 77.9798 251.33 449.061
1297 1 199.184 9.91547 1975 72.8871 251.632 414.562
1298 1 155.653 11.0052 1713 76.8687 251.121 394.81
1299 1 196.023 6.50945 1276 79.4397 251.515 406.868
1300 1 123.888 5.87626 728 62.9025 252.646 458.82
1301 0 125.808 7.10606 894 60.9374 252.39 457.941
1302 0 124.029 5.57935 692 64.724 252.013 449.681
1303 1 58.107 9.22436 536 62.4067 250.858 453.61
1304 0 57.0658 8.67419 495 64.8141 250.279 452.226
1305 0 54.0405 8.32709 450 65.3933 249.898 451.751
1306 0 53.0277 7.61866 404 66.5866 249.658 451.45
1307 0 62.1339 9.28639 577 63.0347 250.237 450.392
1308 1 96.4253 7.73656 746 66.5496 250.723 436.299
1309 0 141.913 5.41176 768 65.2865 250.548 445.669
1310 1 65.1278 9.38155 611 63.329 249.501 449.627
1311 0 71.1968 9.42458 671 62.0641 250.158 447.168
1312 0 72.3805 8.67636 628 63.0557 250.29 450.164
1313 0 68.0733 9.66605 658 63.0015 249.813 445.603
1314 0 68.0733 9.68074 659 117.243 248.803 445.806
1315 0 70.0669 8.94859 627 64.9234 249.308 443.308
1316 0 81.1512 9.79652 795 61.7384 249.553 445.528
1317 0 83.1702 8.54873 711 62.8889 249.478 448.006
1318 0 81.1021 9.99975 811 62.5253 249.763 442.568
1319 0 81.1557 10.178 826 62.7252 251.472 441.939
1320 0 84.4842 10.2978 870 61.8609 251.917 442.074
1321 0 84.3827 10.4524 882 62.4252 252.132 441.798
1322 1 40.0747 9.43239 378 61.2302 249.823 460.061
1323 0 40.0224 9.66957 387 61.5556 249.664 457.889
1324 0 38.0391 8.83301 336 63.0714 250.253 457.208
1325 0 47.1353 9.31361 439 65.2756 252.797 415.927
1326 0 54.2281 7.5791 411 59.5572 252.436 459.927
1327 1 86.49 9.51555 823 63.4411 251.48 430.736
1328 0 88.4236 9.61282 850 62.9388 252.705 431.421
1329 0 92.3635 10.0148 925 62.1081 250.92 433.148
1330 0 94.6259 10.494 993 62.4985 250.76 429.834
1331 0 96.5387 10.2032 985 63.6376 251.159 428.385
1332 0 102.464 11.0087 1128 63.4752 251.02 428.177
1333 0 103.353 10.4013 1075 64.6791 251.532 429.414
1334 0 105.37 11.0848 1168 65.2945 251.836 427.651
1335 0 106.403 10.6858 1137 67.066 251.534 427.066
1336 0 108.466 9.98466 1083 69.0083 251.387 427.819
1337 0 112.268 10.7421 1206 68.8599 251.675 424.361
1338 0 115.334 10.9942 1268 69.1751 251.275 426.376
1339 0 117.473 11.1941 1315 70.2989 251.737 423.239
1340 0 121.461 11.304 1373 72.0765 250.82 421.534
1341 0 123.477 10.6903 1320 74.0129 250.564 421.843
1342 0 125.446 10.7855 1353 76.0576 251.069 420.709
1343 0 126.453 11.008 1392 77.8822 250.846 417.548
1344 0 130.531 11.4303 1492 77.7869 249.948 417.318
1345 0 129.475 11.4076 1477 79.6473 250.5 417.903
1346 1 66.0442 10.175 672 81.9449 249.098 448.491
1347 0 69.0928 9.94315 687 83.4614 248.946 447.477
1348 0 70.0768 10.2031 715 86.2587 249.484 447.951
1349 1 37.1137 10.7508 399 89.1404 249.509 461.416
1350 0 37.2337 10.9578 408 88.6324 249.755 461.196
1351 0 41.2441 11.6623 481 85.5696 250.491 460.376
1352 0 41.3617 11.5808 479 87.2965 250.495 460.983
1353 0 37.0724 9.71073 360 85.5694 248.728 463.4
