time division length width area intensity CMx CMy
0 0 40.1488 12.2793 493 121.316 481.963 502.639
1 0 43.08 11.792 508 118.72 481.709 502.02
2 0 42.1035 11.4717 483 117.424 481.975 503.24
3 0 43.1049 12.0636 520 113.908 481.977 501.773
4 0 44.1534 12.2301 540 111.607 481.563 502.43
5 0 44.1604 12.2282 540 148.143 480.563 502.43
6 0 50.1328 13.1251 658 103.485 481.78 501.137
7 0 50.1509 12.4225 623 104.918 481.809 501.413
8 0 49.1032 12.1377 596 105.896 481.733 500.654
9 0 54.1647 12.6651 686 101.433 481.258 499.08
10 0 55.1145 12.3561 681 100.282 481.342 497.222
11 0 56.0967 12.5676 705 100.692 480.94 497.427
12 0 58.1267 12.9717 754 98.5013 480.272 497.058
13 0 61.0684 13.4931 824 95.1347 480.251 496.09
14 0 63.1841 13.2153 835 94.5186 479.95 493.568
15 0 64.1287 12.8024 821 94.296 480.428 494.587
16 0 67.0943 12.8923 865 93.437 479.453 493.869
17 0 70.1021 12.7956 897 93.0067 479.144 490.31
18 0 73.1368 14.0832 1030 96.2786 478.773 489.355
19 0 74.1281 13.5306 1003 97.5872 478.303 487.322
20 0 77.1598 13.5692 1047 97.2235 478.452 485.512
21 0 80.1219 13.1799 1056 97.822 478.958 484.649
22 0 84.1037 13.8519 1165 95.3511 478.9 483.705
23 0 85.1897 13.3702 1139 97.2555 478.915 481.966
24 1 44.0542 11.3951 502 93.6693 478.797 504.03
25 0 47.0588 11.2838 531 94.3766 478.689 502.036
26 0 49.0875 11.9379 586 92.8294 479.369 501.874
27 0 51.0556 12.3982 633 93.0126 478.961 499.482
28 0 53.106 12.3526 656 92.593 478.453 501.337
29 0 54.1205 12.7493 690 91.7884 478.338 500.4
30 0 55.0904 13.0876 721 90.8904 478.731 500.383
31 0 58.1003 13.2529 770 88.5442 478.868 499.444
32 0 59.0897 13.5895 803 88.1706 478.583 499.665
33 0 62.1401 13.7109 852 85.0012 478.353 498.039
34 0 61.1557 12.9179 790 87.1392 478.319 497.037
35 0 65.104 13.4247 874 90.8627 478.428 496.181
36 0 68.0843 13.4539 916 89.8362 478.861 492.879
37 0 71.1088 13.177 937 90.048 478.588 491.281
38 0 72.1105 12.883 929 90.3961 478.79 490.05
39 0 74.0946 13.0104 964 90.4056 478.624 489.374
40 0 76.1255 13.2807 1011 89.9288 478.646 488.351
41 0 78.1805 12.9316 1011 90.1355 478.229 486.439
42 0 82.2836 12.9187 1063 88.5729 478.516 485.524
43 0 84.2275 12.8224 1080 88.4546 478.086 483.262
44 0 87.2224 12.5541 1095 88.0886 478.495 481.787
45 1 46.0997 11.5402 532 79.6128 479.485 503.709
46 0 48.0784 12.6252 607 85.5437 479.868 502.109
47 0 50.055 11.6072 581 87.4475 479.248 500.735
48 0 52.0254 12.6669 659 86.1366 479.338 501.15
49 0 54.0627 13.2994 719 83.8095 478.832 500.11
50 0 54.1854 13.6015 737 81.2795 477.718 498.611
51 0 56.1041 13.0828 734 83.4169 477.992 499.443
52 0 57.0745 13.4386 767 82.8735 477.54 497.621
53 0 59.1432 13.5265 800 81.6088 477.365 497.649
54 0 61.038 13.7455 839 80.8713 477.673 495.981
55 0 61.0292 12.9938 793 83.1211 478.112 495.518
56 0 61.1304 13.1359 803 83.8929 478.394 495.973
57 0 64.0386 14.0696 901 82.4983 478.614 492.851
58 0 66.0806 13.4079 886 84.667 478.09 493.518
59 0 68.0576 12.9596 882 87.0646 477.96 490.248
60 0 71.0473 12.6535 899 86.04 478.665 489.69
61 0 73.1002 13.16 962 85.3638 478.248 490.049
62 0 75.0668 13.881 1042 83.9664 478.411 488.566
63 0 78.0524 13.2731 1036 84.9566 478.126 488.187
64 0 80.035 13.6565 1093 85.2113 477.836 486.489
65 0 82.0684 13.9518 1145 85.2821 478.445 486.104
66 0 86.0598 13.4674 1159 86.5349 478.033 484.134
67 0 88.1124 14.1864 1250 87.7712 478.078 485.355
68 0 91.2258 13.6694 1247 87.4034 477.999 484.172
69 0 95.1075 13.5531 1289 87.6129 478.946 481.071
70 0 97.1323 13.1779 1280 88.2992 478.898 480.373
71 0 97.1555 12.7219 1236 91.661 478.569 480.745
72 0 103.145 13.4277 1385 87.7119 478.091 476.234
73 0 106.28 13.3139 1415 88.0551 477.526 473.541
74 0 111.161 13.3141 1480 87.2709 477.368 471.436
75 0 118.116 14.1386 1670 86.8204 477.487 470.487
76 0 121.096 13.8485 1677 86.5188 476.661 467.96
77 0 126.127 13.1058 1653 86.8155 476.724 466.092
78 1 72.0681 12.2801 885 82.6237 478.484 493.686
79 0 74.0808 12.4459 922 84.0575 478.73 491.166
80 0 75.2088 12.4454 936 82.1186 479.149 490.158
81 0 78.18 12.7654 998 80.3557 479.161 488.886
82 0 81.176 13.3537 1084 79.3321 478.948 486.976
83 0 83.2132 13.2431 1102 78.8394 479.116 485.037
84 0 85.1438 13.1307 1118 80.3122 479.313 483.825
85 0 87.1618 13.7216 1196 79.413 478.911 483.846
86 0 89.0657 12.9118 1150 80.3948 478.584 482.881
87 0 91.1455 12.5623 1145 82.0856 478.96 481.004
88 0 97.0926 13.9455 1354 78.63 478.744 479.126
89 0 97.1299 13.5283 1314 80.6598 479.306 477.489
90 0 102.115 13.7884 1408 79.4979 478.604 475.51
91 0 105.149 13.7234 1443 80.9508 479.042 473.066
92 0 106.172 12.5269 1330 80.9338 479.129 474.074
93 0 109.198 12.7566 1393 81.6899 478.83 471.422
94 0 111.173 12.6739 1409 81.6018 478.714 471.314
95 0 116.145 12.9579 1505 82.412 477.696 466.914
96 0 120.204 13.0029 1563 83.7857 477.937 464.706
97 0 122.177 13.1695 1609 82.3344 477.963 465.035
98 0 128.142 13.1494 1685 81.8136 477.768 462.108
99 0 132.23 13.4765 1782 82.2974 477.807 460.237
100 0 132.23 13.4841 1783 140.039 477.799 460.116
101 0 141.172 13.4162 1894 86.1172 477.674 454.18
102 0 148.336 14.7233 2184 84.5755 478.036 452.946
103 0 152.361 14.6166 2227 86.0368 477.804 449.586
104 0 158.36 14.9469 2367 85.564 477.706 445.496
105 0 163.349 14.9006 2434 85.4219 477.943 442.559
106 0 167.489 14.6218 2449 87.0061 477.511 439.004
107 0 172.356 14.3018 2465 89.0499 477.433 434.296
108 0 179.576 14.7626 2651 87.5458 477.031 430.395
109 0 181.506 14.848 2695 88.2122 476.883 424.965
110 0 187.25 14.3605 2689 85.4898 478.036 424.035
111 0 192.315 14.3723 2764 85.0514 477.242 424.417
112 0 200.336 14.3359 2872 85.5923 477.916 419.845
113 1 109.206 12.3528 1349 82.4744 478.801 466.344
114 0 110.266 12.6784 1398 82.133 478.479 462.801
115 0 114.149 13.0181 1486 81.7032 477.95 458.591
116 0 118.296 13.7621 1628 81.3145 478.082 457.853
117 0 122.238 13.5392 1655 82.9287 477.354 454.902
118 0 128.194 13.6668 1752 82.5371 478.037 454.027
119 0 132.241 13.6493 1805 84.3612 477.476 449.747
120 0 136.212 13.3322 1816 85.353 477.5 447.861
121 0 140.306 13.3138 1868 86.4561 477.542 443.839
122 0 147.308 13.3122 1961 86.592 477.368 440.175
123 0 152.308 13.4333 2046 86.5425 477.775 438.282
124 1 81.1165 11.0212 894 82.9989 479.2 476.501
125 0 84.1063 11.6876 983 82.9837 478.452 472.505
126 0 83.1876 11.6243 967 84.7528 477.978 470.113
127 0 92.2554 12.8123 1182 79.5753 478.25 469.208
128 0 94.1689 12.3502 1163 78.3775 478.23 474.663
129 0 96.2131 12.5763 1210 79.9752 478.139 473.96
130 0 100.152 12.1815 1220 81.8172 478.184 470.061
131 0 97.2918 11.9537 1163 84.0679 478.089 465.556
132 0 102.065 11.8258 1207 84.4292 477.67 464.578
133 0 106.119 11.751 1247 84.6111 477.253 463.72
134 0 110.277 12.5412 1383 83.6356 477.025 461.482
135 0 115.307 13.0695 1507 83.3942 477.028 456.565
136 0 120.298 12.4441 1497 84.1055 477.259 456.022
137 0 122.208 12.7651 1560 84.8635 477.419 452.918
138 1 65.1294 10.3179 672 81.9494 477.786 482.21
139 0 67.0887 10.8364 727 81.945 477.656 480.133
140 0 70.0217 11.2965 791 79.3211 476.228 482.425
141 0 74.0402 10.7374 795 72.3333 475.781 483.596
142 0 79.051 11.8405 936 82.0994 477.733 490.214
143 0 82.1413 12.3446 1014 81.4665 478.508 486.986
144 0 85.1587 12.3064 1048 79.9971 478.442 484.428
145 0 88.1592 12.6476 1115 80.365 478.051 484.042
146 0 89.0457 12.9035 1149 79.537 475.872 482.581
147 0 93.0811 12.806 1192 79.6728 475.461 480.247
148 0 95.078 11.9481 1136 79.9621 475.914 479.952
149 0 97.1096 12.4087 1205 81.5502 476.58 478.134
150 0 100.086 12.5493 1256 82.6768 476.008 474.945
151 0 104.131 12.6187 1314 82.411 475.855 474.52
152 0 106.156 12.1142 1286 85.7115 475.848 471.59
153 0 111.121 12.5899 1399 84.2881 475.515 469.442
154 1 59.0584 9.82079 580 85.1931 476.045 496.633
155 0 60.075 10.6866 642 84.6854 475.882 495.646
156 0 63.0678 11.4956 725 81.64 475.233 494.586
157 0 66.0989 12.0728 798 80.2406 476.259 494.508
158 0 68.1011 12.6283 860 78.6186 476.549 493.791
159 0 71.1612 11.7761 838 79.0513 477.131 493.594
160 0 71.1514 12.101 861 79.1254 477.318 492.427
161 0 71.1433 11.9337 849 80.8563 476.289 488.485
162 0 74.162 11.9873 889 79.2182 476.186 489.659
163 0 76.0878 12.0782 919 80.9913 477.305 488.632
164 0 78.1473 11.747 918 80.7484 476.951 485.804
165 0 78.0744 11.361 887 82.6223 477.383 486.036
166 0 82.0582 12.3083 1010 79.5416 476.746 484.353
167 0 84.1515 11.9903 1009 80.4113 475.82 483.454
168 0 87.1328 11.9588 1042 81.215 476.187 479.304
169 0 90.1185 11.6957 1054 78.7011 477.444 480.496
170 0 92.0634 11.7528 1082 78.1996 477.979 478.686
171 0 93.0627 11.9274 1110 77.9595 478.265 476.713
172 0 97.1181 12.1399 1179 76.5131 477.335 475.903
173 0 99.1931 11.3818 1129 77.0974 477.052 473.532
174 0 102.087 11.0201 1125 77.0764 476.43 470.178
175 0 104.057 10.254 1067 75.4695 477.187 469.483
176 0 110.088 11.0275 1214 73.8946 477.376 469.736
177 1 56.0543 9.24104 518 68.9923 477.071 498.041
178 0 56.2815 9.91445 558 68.3459 479.679 493.991
179 0 59.4004 10.7912 641 65.9563 479.757 491.964
180 0 59.2812 11.4707 680 64.8868 479.188 492.754
181 0 62.0353 10.8648 674 65.1157 476.352 494.804
182 0 64.286 11.3399 729 67.0837 476.604 493.597
183 0 64.2507 11.3462 729 67.7641 477.062 492.745
184 0 67.2229 11.9453 803 66.8842 477.03 492.991
185 0 68.2232 12.5324 855 66.9883 477.254 492.053
186 0 68.1112 12.3181 839 68.0667 477.232 491.125
187 0 74.243 13.4289 997 71.2497 477.973 488.995
188 0 74.1763 12.2007 905 75.1215 477.484 487.427
189 0 75.1866 12.1032 910 76.1549 477.496 486.519
190 0 78.2096 13.2976 1040 74.4173 477.469 484.042
191 0 81.1593 13.3811 1086 74.9033 476.937 484.75
192 0 82.0945 12.778 1049 76.1077 476.514 483.685
193 0 83.2583 12.5633 1046 76.4092 475.918 484.124
194 0 86.2609 12.8332 1107 76.4616 476.335 483.157
195 0 87.1883 12.5934 1098 76.7523 476.105 483.412
196 0 90.2654 12.6294 1140 75.8447 476.615 481.433
197 0 93.2779 12.1143 1130 77.3504 475.793 478.213
198 0 94.1595 12.2877 1157 76.4892 475.963 478.436
199 0 98.3005 12.828 1261 74.5813 475.519 477.473
200 0 97.1329 11.86 1152 71.5903 476.09 477.262
201 0 102.114 12.1531 1241 74.4005 474.912 475.168
202 0 105.185 11.7223 1233 95.7129 475.007 473.245
203 0 109.221 12.1589 1328 94.8645 475.425 472.455
204 0 111.1 12.5382 1393 89.6992 474.899 467.684
205 0 117.121 12.3633 1448 98.9489 475.375 467.325
206 0 117.121 12.406 1453 143.566 476.378 467.348
207 0 124.163 13.144 1632 98.6612 474.83 462.917
208 1 64.0654 11.5975 743 97.4805 475.341 493.779
209 0 66.1382 12.0505 797 96.7102 475.277 489.386
210 0 69.0994 11.7222 810 96.142 475.122 489.354
211 0 71.143 11.9759 852 88.5528 475.33 489.624
212 0 74.0917 12.3226 913 87.3363 475.358 490.268
213 0 75.1206 11.7944 886 90.4549 475.098 488.524
214 0 78.1116 11.9444 933 89.9271 475.678 485.219
215 0 81.0782 12.7778 1036 88.0685 475.569 486.239
216 0 83.1257 12.2826 1021 89.5504 475.687 486.04
217 0 84.125 12.1129 1019 91.3759 474.964 485.524
218 0 87.0937 12.2971 1071 90.8786 475.289 483.068
219 0 88.0874 11.7383 1034 92.4207 474.692 482.333
220 0 89.1916 11.593 1034 93.3598 474.823 480.606
221 0 93.1728 11.6021 1081 93.4329 474.765 480.408
222 0 96.1752 12.4252 1195 91.6669 475.464 478.111
223 0 98.1379 11.7284 1151 93.5743 475.469 476.182
224 0 102.19 12.5159 1279 92.3518 475.547 475.154
225 0 106.12 12.4293 1319 92.8916 474.738 472.82
226 0 107.128 12.3217 1320 92.3083 474.962 470.303
227 0 113.136 12.5954 1425 92.3333 474.961 469.478
228 0 114.115 12.3297 1407 93.8579 475.894 468.574
229 0 118.204 12.6476 1495 95.499 475.235 465.209
230 0 121.337 12.0573 1463 96.9658 475.805 462.761
231 0 126.568 12.357 1564 97.2487 476.433 459.561
232 0 129.416 12.8423 1662 96.6757 476.368 458.505
233 0 134.395 13.0287 1751 96.4632 476.29 459.077
234 0 135.356 12.2861 1663 103.799 475.367 456.322
235 0 143.355 13.3863 1919 96.0839 475.675 453.157
236 0 145.382 11.996 1744 100.064 475.396 451.64
237 0 150.341 12.4916 1878 99.1656 475.256 447.104
238 0 156.413 12.5885 1969 99.5241 475.705 446.626
239 0 162.34 12.3013 1997 99.0676 474.912 444.283
240 0 162.345 12.2887 1995 154.756 474.895 444.217
241 1 91.1488 11.3551 1035 90.8522 475.777 481.174
242 0 94.0953 11.8391 1114 89.7585 475.314 481.914
243 0 98.0922 11.6115 1139 91.1993 474.702 477.648
244 0 98.1626 12.0107 1179 88.0483 474.694 477.838
245 0 101.216 11.5298 1167 89.3856 474.539 474.529
246 0 103.13 11.5583 1192 90.8683 474.506 473.225
247 0 107.145 12.1144 1298 89.2735 474.055 473.133
248 0 112.339 12.7027 1427 96.8977 474.79 467.507
249 0 116.291 12.5032 1454 96.7283 473.775 467.447
250 0 121.255 13.1293 1592 93.8003 474.143 466.533
251 0 124.363 12.3751 1539 96.0052 474.682 464.334
252 0 127.414 12.9892 1655 93.1323 475.209 463.008
253 1 75.0727 11.349 852 83.9343 476.977 489.779
254 0 76.1942 11.1951 853 82.1536 475.278 487.802
255 0 80.3604 11.9711 962 80.9574 476.131 485.69
256 0 83.1182 11.9468 993 81.0886 475.127 485.557
257 0 87.085 12.1835 1061 90.1385 476.865 483.224
258 0 88.0439 12.4938 1100 88.2536 477.045 481.535
259 0 90.1094 12.0742 1088 89.0303 475.996 480.754
260 0 93.0536 12.0898 1125 87.1929 476.827 477.839
261 0 96.0811 12.1044 1163 88.5864 476.161 475.739
262 0 102.049 12.8173 1308 86.094 476.365 475.513
263 0 105.147 12.763 1342 86.3003 475.67 475.686
264 1 58.0666 10.2469 595 88.1143 476.373 499.637
265 0 57.0539 10.1132 577 89.2253 473.073 497.536
266 0 59.0208 11.0131 650 81.9892 473.295 497.798
267 0 60.0533 11.2067 673 81.1976 473.952 497.932
268 0 62.1308 11.9747 744 79.2648 473.493 496.321
269 0 63.0351 11.9933 756 79.4656 473.561 495.548
270 0 63.0859 11.9837 756 81.6799 472.396 493.815
271 0 64.0571 11.4585 734 82.6921 473.601 493.856
272 0 68.0575 12.1368 826 80.4552 472.82 494.729
273 0 69.0788 12.2614 847 79.8725 473.668 493.681
274 0 70.0866 11.5286 808 80.0545 473.667 492.884
275 0 70.0654 11.8604 831 83.7846 474.036 492.563
276 0 71.0637 11.75 835 84.5473 474.205 491.69
277 0 71.0637 11.7359 834 136.125 474.186 491.783
278 0 75.102 11.5842 870 85.3908 473.641 489.829
279 0 79.1794 12.1117 959 85.7706 474.565 487.805
280 0 80.1656 12.3494 990 86.6222 474.025 486.455
281 0 82.16 11.9279 980 89.15 473.676 484.9
282 0 87.1547 12.5753 1096 87.0411 474.078 485.59
283 0 90.1535 12.9446 1167 86.5373 474.279 483.344
284 0 91.1716 12.6904 1157 89.0553 474.623 482.202
285 0 96.2669 13.286 1279 89.8264 474.285 479.339
286 0 100.411 13.2356 1329 88.8412 474.786 478.631
287 1 53.133 10.0879 536 84.1922 473.922 503.313
288 0 56.0614 10.7739 604 83.2964 474.96 502.219
289 0 56.5537 11.0868 627 84.5869 477.073 496.633
290 0 59.0901 12.1002 715 80.7371 475.224 498.592
291 0 59.202 12.2462 725 80.8303 476.646 498.808
292 0 63.2797 12.1998 772 79.9145 476.21 499.022
293 0 63.1642 12.5862 795 81.7409 476.177 498.782
294 0 65.2204 12.5421 818 81.9535 475.616 496.218
295 0 67.29 12.7508 858 88.1247 476.141 495.16
296 0 67.225 12.778 859 88.5041 476.081 494.019
297 0 70.1858 13.336 936 86.1453 476.528 494.861
298 0 71.2405 13.3351 950 87.0063 476.124 493.264
299 0 72.2484 13.066 944 88.91 476.026 492.475
300 0 72.177 12.3031 888 93.1363 476.363 493.611
301 0 76.2197 12.6345 963 92.3884 476.075 490.602
302 0 78.1682 12.8441 1004 93.1245 475.224 491.182
303 0 79.1932 13.3219 1055 93.8483 475.813 488.79
304 0 81.336 12.9094 1050 97.5467 475.452 487.858
305 0 81.2984 13.0015 1057 99.9896 474.962 485.124
306 0 86.3427 13.0526 1127 98.1162 475.213 484.662
307 0 89.3426 13.9351 1245 97.3863 474.56 483.175
308 0 92.2917 13.0239 1202 100.531 474.857 482.423
309 0 98.3979 14.1263 1390 101.649 474.703 479.801
310 0 100.305 12.6115 1265 99.2364 474.996 479.417
311 0 102.181 12.8204 1310 99.9214 474.743 479.756
312 0 104.053 13.1567 1369 97.691 473.992 478.472
313 0 107.097 12.2413 1311 100.464 473.982 475.32
314 0 112.276 13.4936 1515 95.8845 474.117 478.06
315 0 113.164 13.3434 1510 98.5894 474.505 472.701
316 0 117.264 13.2436 1553 98.5963 475.074 472.247
317 0 119.271 13.1214 1565 100.399 474.727 470.516
318 0 124.532 14.0848 1754 97.6682 475.17 467.536
319 0 126.495 13.3365 1687 101.558 475.012 464.962
320 0 129.439 13.265 1717 101.254 475.033 462.169
321 0 134.508 13.4193 1805 100.88 474.637 461.915
322 0 138.466 12.9273 1790 103.425 474.355 457.402
323 0 141.436 12.7549 1804 105.392 474.093 457.042
324 0 145.314 12.6484 1838 105.332 474.344 454.492
325 0 149.318 13.0326 1946 105.307 473.547 454.501
326 0 154.363 13.4099 2070 104.485 474.172 448.33
327 0 161.397 13.9284 2248 103.292 474.278 444.275
328 0 165.396 13.4465 2224 103.94 473.902 442.901
329 0 171.394 13.5769 2327 102.576 473.908 439.761
330 0 176.582 13.5235 2388 102.687 473.528 437.74
331 0 181.292 13.4866 2445 103.085 473.16 436.255
332 0 186.416 13.6093 2537 102.381 472.106 433.765
333 0 193.29 13.7203 2652 101.019 472.588 431.279
334 0 198.383 13.2572 2630 103.376 472.634 424.497
335 0 204.529 13.2157 2703 104.385 472.917 419.769
336 0 210.418 13.3924 2818 104.932 472.314 417.204
337 0 216.334 12.5824 2722 104.807 471.464 413.429
338 0 224.579 14.0441 3154 101.024 471.919 410.78
339 0 233.591 13.9817 3266 100.727 471.508 406.559
340 1 43.2911 9.33217 404 81.1535 473.49 507.545
341 0 44.2659 10.2562 454 77.9075 472.782 507.456
342 0 41.0366 9.45498 388 71.6314 470.655 508.518
343 0 42.0805 8.19856 345 72.9217 472.003 511.049
344 0 43.1029 8.12011 350 73.2629 471.666 510.126
345 0 43.1075 8.09604 349 73.0372 471.799 510.759
346 0 45.1375 8.13071 367 73.3433 472.025 507.161
347 0 45.0794 8.54048 385 73.3584 471.439 509.47
348 0 46.1231 8.19547 378 73.9762 471.183 507.537
349 0 48.0856 8.3393 401 75.2843 471.229 506.092
350 0 52.0882 8.85037 461 74.5271 471.338 506.247
351 0 51.1157 8.1971 419 76.5442 471.403 504.957
352 0 55.0824 9.6038 529 73.8526 471.56 504.371
353 0 55.1327 8.74254 482 75.9066 471.747 502.71
354 0 56.0361 9.17267 514 75.2743 470.469 500.179
355 0 57.1973 8.63677 494 76.2733 472.425 501.749
356 0 59.0968 9.42522 557 77.307 471.601 501.409
357 0 61.1265 9.22676 564 79.0887 471.851 499.257
358 0 64.1083 8.9068 571 80.3643 472.245 499.303
359 0 64.1625 9.88116 634 80.2934 471.891 497.024
360 0 67.1249 9.11733 612 81.7565 471.977 496.83
361 0 68.3359 8.98503 614 83.3762 473.311 489.472
362 0 70.1191 9.32698 654 82.0856 472.317 494.96
363 0 73.0929 10.0831 737 81.0896 472.282 490.232
364 0 78.1531 10.3643 810 80.2395 472.743 491.056
365 0 81.3755 12.0184 978 76.1339 473.366 488.541
366 0 84.4016 11.9429 1008 77.0724 474.29 489.032
367 0 87.281 11.4687 1001 77.3247 474.844 489.14
368 0 89.2523 12.3582 1103 76.6945 474.071 485.413
369 0 91.3201 12.0565 1101 78.0309 474.017 486.188
370 0 93.2953 11.5976 1082 78.915 473.727 484.067
371 0 96.2498 11.1481 1073 80.7689 473.672 482.616
372 0 101.271 12.3233 1248 79.0761 473.549 481.296
373 0 104.251 12.7384 1328 78.7372 473.975 479.778
374 0 106.195 12.4488 1322 80.1452 473.554 476.759
375 0 109.192 13.206 1442 78.5971 473.368 476.59
376 0 111.2 12.8057 1424 80.2156 473.406 475.834
377 0 115.238 12.8864 1485 80.7098 474.088 473.269
378 0 117.418 12.7238 1494 82.1245 473.77 473.246
379 0 121.295 13.43 1629 81.1019 473.316 471.428
380 0 124.296 13.1219 1631 82.832 473.421 466.505
381 0 125.384 12.9043 1618 85.0247 473.151 464.66
382 0 131.283 13.5585 1780 83.3242 473.358 462.202
383 0 132.267 12.7998 1693 84.4672 473.701 462.414
384 0 137.396 12.242 1682 85.3835 473.684 456.988
385 0 137.322 12.3214 1692 83.0833 472.752 449.472
386 0 142.365 12.9596 1845 82.2602 473.246 445.011
387 0 147.415 12.414 1830 83.9907 473.072 441.683
388 0 149.353 12.293 1836 85.5784 473.027 439.855
389 0 152.43 12.3401 1881 87.2589 472.566 436.438
390 0 156.394 12.558 1964 87.9969 472.857 432.471
391 0 163.545 12.3575 2021 88.0935 472.684 430.455
392 0 170.327 12.5817 2143 88.8745 473.411 427.298
393 0 173.407 12.9118 2239 90.2443 473.215 424.048
394 0 182.387 12.9615 2364 89.5482 472.698 420.462
395 1 89.2068 9.87593 881 80.1805 474.115 463.848
396 0 97.3202 10.9124 1062 78.1667 474.588 465.346
397 0 105.283 11.9867 1262 82.145 474.737 471.893
398 0 107.361 12.0249 1291 84.0403 475.317 472.913
399 0 111.302 12.174 1355 83.9771 474.368 470.206
400 0 111.296 11.1954 1246 86.3042 474.469 468.694
401 0 117.23 12.7015 1489 82.3915 473.851 464.504
402 0 119.279 12.4665 1487 83.846 474.531 464.549
403 0 125.348 12.3576 1549 88.3861 474.154 462.347
404 0 126.134 11.5829 1461 80.9945 474.661 462.681
405 0 130.123 11.735 1527 79.9555 474.095 462.24
406 0 133.162 11.8052 1572 84.1412 473.865 460.896
407 0 137.237 11.389 1563 84.9002 473.928 457.825
408 0 140.506 11.2949 1587 87.6074 474.495 452.855
409 0 145.41 11.5329 1677 87.3214 473.999 452.682
410 1 68.286 9.57736 654 79.2569 475.277 492.827
411 0 70.2686 9.80523 689 78.0697 476.553 494.386
412 0 72.1647 10.5453 761 78.4547 475.799 490.685
413 0 75.1209 10.8359 814 79.1474 474.818 489.654
414 0 76.2129 11.4679 874 77.0984 474.976 489.842
415 0 76.1454 10.086 768 79.569 473.658 491.691
416 0 78.18 9.55487 747 81.2918 473.912 488.585
417 0 79.1105 9.89755 783 81.3372 473.868 487.019
418 0 82.1114 9.73068 799 81.7484 473.399 486.981
419 0 86.1156 10.6717 919 81.7965 473.653 485.842
420 0 86.1573 10.4692 902 83.8437 474.014 483.965
421 0 88.1596 9.4828 836 83.9222 474.367 482.127
422 0 94.2055 10.6682 1005 80.9532 474.389 482.005
423 0 97.2715 10.6917 1040 81.0587 474.205 480.893
424 0 100.261 11.1509 1118 81.1646 474.784 478.077
425 0 103.279 11.2994 1167 83.0968 474.778 477.35
426 0 106.235 11.2581 1196 82.1764 474.233 477.926
427 0 108.325 10.7639 1166 86.5214 473.414 472.449
428 0 111.244 11.1467 1240 86.2371 473.798 471.491
429 0 116.303 11.6764 1358 85.7003 473.546 470.137
430 0 118.222 11.749 1389 86.6919 473.59 467.423
431 0 121.208 11.8392 1435 86.1401 474.53 465.967
432 0 125.203 12.2201 1530 85.6405 473.412 464.369
433 0 128.241 11.2756 1446 88.7185 473.815 462.375
434 0 132.225 11.9493 1580 88.0861 473.651 460.009
435 0 137.175 12.2763 1684 86.8492 473.551 458.585
436 0 141.426 12.4729 1764 89.0471 472.954 457.531
437 0 146.337 12.8607 1882 88.7019 473.541 454.819
438 0 150.365 12.3366 1855 92.5461 473.142 449.801
439 0 156.2 11.4276 1785 82.8745 472.115 447.756
440 0 158.254 11.0645 1751 85.2113 472.094 443.836
441 0 165.366 11.8767 1964 84.1996 472.474 440.378
442 0 170.42 11.3484 1934 84.6861 473.176 436.706
443 0 176.401 11.1054 1959 84.1087 472.562 434.212
444 0 180.428 11.0903 2001 84.1764 472.55 431.819
445 0 185.465 10.6921 1983 84.8255 471.605 426.231
446 0 192.429 10.6013 2040 86.3882 472.08 423.947
447 1 107.283 9.11609 978 72.7791 472.708 475.946
448 0 109.281 10.4593 1143 73.6737 473.091 472.94
449 0 112.162 10.3778 1164 78.0842 474.021 471.599
450 0 115.14 10.9345 1259 79.363 472.68 469.545
451 0 117.188 10.752 1260 79.6881 472.571 469.271
452 0 121.246 10.6478 1291 78.4446 472.833 465.222
453 0 124.237 9.08747 1129 78.5447 472.096 456.586
454 0 130.41 9.56982 1248 77.3141 472.236 455.381
455 0 132.54 9.56693 1268 78.5607 472.645 453.686
456 1 64.2441 8.99694 578 68.0225 473.076 493.46
457 0 65.2688 8.85569 578 69.4637 473.522 490.19
458 0 69.2396 10.182 705 66.2525 472.909 492.522
459 0 69.1108 10.5049 726 67.5537 472.813 496.548
460 0 70.1357 9.78103 686 70.0904 472.582 495.31
461 0 72.1107 10.2065 736 70.9348 472.277 493.807
462 0 72.096 9.418 679 73.2047 472.623 492.545
463 0 76.11 10.3272 786 72.0662 472.435 490.379
464 0 76.11 10.3534 788 116.845 471.447 490.208
465 0 79.1575 10.4096 824 73.693 472.018 488.619
466 0 82.1355 10.4583 859 74.4633 472.542 486.485
467 0 84.0865 10.9411 920 73.6033 472.372 484.917
468 0 85.1327 10.1019 860 74.5267 472.407 483.798
469 0 89.1235 11.3662 1013 72.8095 472.096 481.866
470 0 93.0703 10.4437 972 71.0844 471.562 479.591
471 0 96.1905 11.9346 1148 82.649 472.998 479.155
472 0 96.1905 11.945 1149 129.837 474.015 479.272
473 0 103.144 11.5857 1195 84.5741 472.728 477.562
474 0 104.234 11.5413 1203 85.2444 472.12 475.736
475 0 107.147 10.7702 1154 85.1317 472.471 473.402
476 0 109.273 10.7804 1178 84.6418 472.547 472.188
477 0 113.217 11.3057 1280 80.9758 472.46 470.824
478 0 115.203 10.1907 1174 78.4813 472.769 467.225
479 0 118.256 9.94451 1176 80.4303 472.413 468.309
480 0 124.334 10.9785 1365 77.1194 472.768 466.221
481 0 126.459 11.4266 1445 77.3225 472.859 461.287
482 0 128.547 11.2411 1445 78.1855 472.88 460.21
483 1 70.3395 10.7194 754 72.0159 473.532 489.427
484 0 70.1075 10.3555 726 79.6446 471.384 492.435
485 0 75.0749 11.6683 876 83.0856 470.856 489.718
486 0 74.0966 11.6605 864 80.294 470.625 489.53
487 0 76.1669 11.8818 905 78.0077 471.347 488.904
488 0 80.0934 11.7738 943 77.2025 470.62 488.737
489 0 80.117 11.9076 954 77.3459 470.313 486.451
490 0 82.2297 11.1152 914 78.0996 470.907 488.2
491 0 85.1372 12.1216 1032 75.5872 471.351 484.288
492 0 87.1104 11.9504 1041 75.586 470.983 483.331
493 0 90.1248 12.0167 1083 74.9705 470.498 482.868
494 0 93.1812 11.7191 1092 75.1804 471.187 481.837
495 0 95.1699 11.8945 1132 75.4558 471.743 480.473
496 0 99.2382 11.941 1185 75.265 471.867 478.027
497 0 100.16 11.6813 1170 76.4615 473.083 476.663
498 0 102.198 11.5267 1178 77.6664 473.359 475.582
499 0 105.195 11.0176 1159 78.0457 473.356 476.862
500 0 109.222 10.5932 1157 78.7718 472.794 474.506
501 1 59.1283 9.91065 586 78.1177 474.536 497.788
502 0 60.0578 10.5232 632 75.7785 474.193 499.166
503 0 62.1371 10.3803 645 77.0388 472.225 494.856
504 0 58.0377 9.80398 569 74.1406 473.865 490.513
505 0 65.0661 11.1733 727 73.403 472.113 494.832
506 0 65.2767 10.6929 698 71.5129 472.842 494.878
507 0 65.2994 10.337 675 72.5363 472.862 494.09
508 0 66.2855 11.3147 750 71.7627 473.189 491.533
509 0 69.2795 11.1577 773 71.934 472.512 491.962
510 0 73.2858 11.6121 851 71.1516 472.079 489.514
511 0 73.3044 10.9543 803 73.0573 471.753 489.489
512 0 77.3165 11.3171 875 73.0514 472.811 486.778
513 0 78.3098 10.7522 842 73.5974 472.816 486.276
514 0 82.2695 12.4469 1024 70.8301 473.37 488.248
515 0 84.348 12.1876 1028 70.9601 473.485 487.55
516 0 87.3436 12.1818 1064 71.0235 473.056 484.485
517 0 89.2132 11.1755 997 72.3922 473.092 485.628
518 0 90.2317 11.8473 1069 73.5669 473.072 484.793
519 0 94.3222 11.9272 1125 72.7671 472.928 481.751
520 0 97.2162 11.7059 1138 72.529 472.578 480.844
521 0 99.2162 11.6312 1154 72.2262 472.652 479.295
522 0 103.313 12.3605 1277 70.3649 472.22 479.734
523 0 105.329 11.1556 1175 72.8851 472.357 477.487
524 1 57.0716 9.84728 562 71.3416 472.13 501.536
525 0 59.0837 10.392 614 70.0261 472.625 499.244
526 0 61.08 10.2816 628 70.8217 471.591 498.748
527 0 57.1954 9.23152 528 65.8864 471.748 491.663
528 0 60.0508 10.258 616 66.1104 470.523 498.315
529 0 63.0513 9.64293 608 66.3717 469.666 497.046
530 0 65.078 10.1263 659 65.1275 469.939 496.557
531 0 68.0404 11.5226 784 62.8214 469.959 497.941
532 0 68.073 10.5328 717 65.1381 470.128 496.492
533 0 71.0287 10.3479 735 66.0599 469.624 494.144
534 0 73.0821 10.7413 785 64.9172 469.918 493.257
535 0 76.1655 11.3043 861 64.2451 469.459 494.764
536 0 78.1448 9.90469 774 65.2997 470.563 494.438
537 0 79.078 10.9133 863 66.2804 470.819 493.45
538 0 83.0306 11.4175 948 66.0886 469.985 489.989
539 0 84.0745 10.2052 858 67.8531 470.272 491.782
540 0 88.0965 10.4885 924 68.2857 469.966 488.744
541 0 92.1026 10.5426 971 68.7456 470.22 488.091
542 0 91.0379 10.8966 992 69.8216 469.989 487.371
543 0 96.151 11.6275 1118 71.3497 471.641 484.051
544 0 98.0836 10.8377 1063 71.2869 469.211 480.944
545 0 103.111 10.5032 1083 72.1505 469.729 481.284
546 0 104.177 10.1846 1061 72.2036 470.238 480.783
547 0 108.091 10.6392 1150 72.5765 470.115 479.958
548 1 57.0933 10.2814 587 68.3169 470.773 505.02
549 0 59.2392 10.9725 650 69.3969 472.211 505.309
550 0 59.1739 12.3872 733 69.8799 472.261 501.6
551 0 62.1855 12.7522 793 68.5864 471.103 502.367
552 0 66.0701 12.4262 821 75.648 472.593 500.192
553 0 65.1278 12.0839 787 81.906 472.989 498.919
554 0 70.1139 11.5384 809 80.0927 473.439 499.911
555 0 72.0919 13.3163 960 78.8406 473.15 498.029
556 0 72.1024 12.0523 869 82.7215 473.06 497.234
557 0 74.1042 11.6323 862 84.6369 472.972 497.247
558 0 78.0746 12.7186 993 83.0342 472.731 494.505
559 0 80.2413 12.7864 1026 82.7758 472.576 494.235
560 0 83.1851 12.8989 1073 81.2069 472.762 492.485
561 0 84.1103 12.1983 1026 84.3012 472.382 491.794
562 0 87.099 12.9049 1124 84.1281 472.411 490.667
563 0 89.1287 12.5773 1121 84.7681 472.178 490.434
564 0 90.1005 12.4528 1122 84.6881 472.334 488.752
565 0 93.0826 12.2257 1138 85.3366 472.168 488.864
566 0 96.0902 12.072 1160 86.8155 472.624 487.245
567 0 99.1094 12.5114 1240 86.8065 472.359 484.494
568 0 99.1515 12.3246 1222 88.0393 471.869 483.543
569 0 102.163 12.6171 1289 88.8821 472.16 482.939
570 0 103.209 12.5571 1296 89.463 471.765 481.39
571 0 106.164 12.2735 1303 89.9025 472.355 480.216
572 0 109.167 11.1572 1218 91.1601 471.648 478.772
573 0 113.229 11.6843 1323 90.2411 471.314 475.98
574 0 117.28 11.6133 1362 88.3245 470.854 472.66
575 1 59.1362 10.5857 626 88.2173 472.644 504.07
576 0 61.1253 11.5828 708 90.2867 472.308 502.22
577 0 65.236 12.6617 826 86.7906 472.197 501.265
578 0 66.1965 12.5384 830 89.8277 472.143 500.695
579 0 68.2236 12.591 859 92.2375 472.531 501.284
580 0 70.2978 13.1441 924 92.0184 472.315 499.272
581 0 73.2197 13.4663 986 92.4047 471.962 498.716
582 0 74.2761 13.3287 990 93.7697 471.931 497.525
583 0 75.2514 13.5546 1020 93.2078 471.547 496.745
584 0 78.3329 13.3533 1046 94.8595 471.459 494.619
585 0 82.3612 14.0115 1154 92.4497 471.093 493.804
586 0 84.35 13.3254 1124 95.363 470.825 492.92
587 0 87.3301 13.3745 1168 95.2089 470.605 491.968
588 0 89.342 12.9167 1154 102.835 470.647 491.059
589 0 90.2866 13.003 1174 103.714 471.217 490.043
590 0 94.2223 13.4469 1267 99.4562 470.371 487.55
591 0 95.1835 12.5022 1190 101.001 470.943 487.119
592 0 99.2559 13.5005 1340 100.01 470.596 485.505
593 0 99.1126 12.8238 1271 93.2337 470.067 486.452
594 0 103.139 12.8565 1326 93.9314 470.399 484.623
595 0 106.126 13.305 1412 93.068 469.924 481.168
596 0 110.191 12.9593 1428 93.8613 469.705 480.991
597 0 114.271 13.5817 1552 91.2745 470.191 480.597
598 0 114.271 13.5904 1553 141.384 471.204 480.595
599 0 122.199 13.3471 1631 90.9779 469.798 476.475
600 0 127.254 12.5418 1596 93.3095 470.053 472.85
601 1 69.0434 11.0221 761 91.0158 469.396 502.018
602 0 72.0543 12.1991 879 87.537 469.689 498.594
603 0 74.0729 12.1367 899 85.6529 469.734 497.067
604 0 77.0355 12.8253 988 87.7267 468.915 497.2
605 0 80.0489 13.5792 1087 86.0368 469.239 495.368
606 0 82.1272 12.9555 1064 86.4746 469.251 494.197
607 0 84.0629 12.7643 1073 87.0718 469.503 492.868
608 0 87.0541 12.8311 1117 87.6034 469.252 490.158
609 0 90.1182 13.1938 1189 86.4348 469.898 487.807
610 0 92.1684 12.9329 1192 86.5101 469.674 487.711
611 0 96.2075 13.3565 1285 84.8467 469.609 488.254
612 0 97.0995 12.9661 1259 86.7419 469.338 485.884
613 0 100.187 13.1554 1318 87.8103 469.668 484.557
614 0 106.224 13.9704 1484 86.7547 469.517 483.596
615 0 109.241 13.2002 1442 95.6144 470.316 480.852
616 0 110.221 12.7743 1408 96.9169 470.145 479.031
617 0 114.449 12.7742 1462 96.6341 470.469 476.584
618 1 63.3359 11.6048 735 92.9415 470.333 499.302
619 0 64.3366 11.3466 730 83.5178 470.619 500.405
620 0 65.2334 11.6198 758 83.9446 470.966 500.881
621 0 66.0732 11.1997 740 86.1068 470.461 501.42
622 0 70.1011 12.4534 873 81.9851 470.218 500.958
623 0 71.0685 12.5231 890 82.3831 469.807 500.093
624 0 74.1219 12.4659 924 83.0844 469.946 497.465
625 0 74.2136 12.2619 910 85.6088 469.582 496.624
626 0 77.189 11.9836 925 86.0865 471.072 495.279
627 0 77.189 12.0354 929 139.747 472.082 495.227
628 0 82.1716 12.3035 1011 87.4273 471.712 491.822
629 0 85.1735 12.3865 1055 87.4938 471.471 488.9
630 0 87.1978 12.7182 1109 87.6619 472.249 487.219
631 0 91.1893 12.5563 1145 89.0384 471.679 486.459
632 0 94.2105 12.1749 1147 89.4167 471.945 484.339
633 0 94.1893 12.6766 1194 91.041 471.91 485.101
634 0 99.2377 12.7673 1267 90.397 472.17 482.391
635 0 100.215 12.9921 1302 90.7834 472.038 480.013
636 0 105.246 13.1786 1387 88.765 471.964 479.851
637 0 106.2 12.8155 1361 91.7142 471.777 479.018
638 0 108.301 12.7977 1386 90.5022 471.162 478.705
639 0 109.262 12.1452 1327 92.5652 472.201 476.189
640 0 115.251 12.373 1426 92.1753 470.974 474.173
641 0 116.224 12.6221 1467 93.1431 471.039 472.534
642 0 120.196 12.9705 1559 92.0597 471.298 472.491
643 0 125.151 13.0961 1639 91.5796 471.146 470.669
644 0 126.21 12.9626 1636 92.621 471.024 467.557
645 0 132.351 13.1544 1741 94.2022 471.622 465.144
646 0 136.236 12.882 1755 94.5937 471.629 461.971
647 0 141.249 13.2461 1871 94.5003 470.998 458.678
648 0 146.274 13.461 1969 95.807 471.775 456.843
649 0 151.209 13.6632 2066 93.8078 471.637 453.5
650 0 154.2 13.262 2045 95.7667 470.944 451.991
651 0 160.248 13.8036 2212 94.3775 471.262 449.869
652 0 165.272 13.5595 2241 95.0585 471.255 447.839
653 0 167.239 12.9216 2161 97.7922 470.869 443.376
654 0 174.2 13.9035 2422 95.4831 471.389 443.059
655 0 176.189 12.8215 2259 98.7649 471.238 439.644
656 0 182.305 13.7572 2508 97.7285 471.431 436.759
657 0 187.227 13.4863 2525 97.0598 470.876 434.533
658 0 194.3 12.9799 2522 98.094 471.359 431.897
659 0 201.254 13.391 2695 96.9503 471.378 426.488
660 0 208.247 13.1863 2746 97.3678 471.555 424.905
661 0 216.257 13.2158 2858 98.3314 471.487 419.011
662 1 168.171 12.4754 2098 93.6725 472.052 446.955
663 0 175.241 12.6455 2216 94.0532 471.32 443.119
664 0 180.181 13.159 2371 96.0477 471.426 439.381
665 0 183.265 13.3141 2440 97.7193 471.162 437.449
666 0 191.274 13.3055 2545 99.0086 471.298 433.452
667 0 196.351 12.9309 2539 99.8992 471.427 432.176
668 0 204.269 13.6437 2787 99.4177 471.753 430.488
669 0 208.335 13.4351 2799 100.847 471.295 424.941
670 0 215.347 13.3923 2884 102.382 471.35 420.014
671 0 221.345 13.671 3026 102.615 471.358 417.381
672 0 229.339 13.6872 3139 102.816 471.627 415.844
673 0 235.377 13.4338 3162 104.116 471.584 412.21
674 0 244.337 13.7311 3355 103.767 470.895 407.174
675 0 249.331 13.7648 3432 104.739 471.294 403.847
676 0 255.341 12.9161 3298 107.669 471.319 399.896
677 0 263.347 13.2791 3497 107.284 471.37 392.161
678 0 269.381 13.6795 3685 106.516 471.029 386.568
679 0 278.342 13.5876 3782 107.457 471.397 381.06
680 0 277.412 10.9116 3027 111.269 471.082 390.29
681 0 370.478 23.6937 8778 80.5777 470.057 309.843
682 0 367.587 21.7445 7993 87.3254 470.303 309.38
683 1 355.414 8.12572 2888 117.106 470.773 379.768
684 0 356.427 5.70103 2032 113.054 471.406 412.473
685 0 360.735 24.5305 8849 77.0038 470.114 319.052
686 0 361.545 23.2973 8423 82.5464 470.058 317.44
687 1 346.658 10.4455 3621 115.197 471.894 370.31
688 0 347.566 8.68324 3018 111.551 471.4 392.967
689 1 334.596 7.86321 2631 112.548 472.031 396.866
690 0 337.433 8.38981 2831 111.895 471.583 394.856
691 0 328.399 10.4081 3418 111.979 471.753 378.736
692 1 57.0538 9.97304 569 90.5817 472.591 502.917
693 0 61.224 10.9434 670 88.7701 473.27 501.052
694 0 63.1425 11.2127 708 85.7514 473.706 499.032
695 0 64.1873 11.6222 746 86.0925 473.784 495.688
696 0 66.2171 11.8247 783 84.705 471.877 500.628
697 0 70.1542 11.1326 781 85.2561 471.316 498.962
698 0 71.2106 11.3747 810 85.3 471.652 498.426
699 0 74.2036 11.2528 835 86.2024 470.99 497.22
700 0 74.1493 11.4769 851 87.3443 471.569 495.234
701 0 76.137 11.5975 883 86.8709 471.498 494.59
702 0 81.1975 11.7368 953 86.1091 471.277 493.776
703 0 83.2301 11.7746 980 86.6714 471.769 491.196
704 0 84.3234 12.9264 1090 85.9807 472.489 489.68
705 0 87.3819 13.6985 1197 83.9023 472.04 488.58
706 0 85.2869 10.9982 938 80.4307 472.89 493.819
707 0 88.2419 10.9245 964 78.9637 472.378 490.423
708 0 93.209 10.8895 1015 78.5714 472.606 487.581
709 1 176.448 10.7113 1890 67.6746 473.135 476.314
710 1 105.181 13.1393 1382 81.7294 473.146 486.041
711 0 108.191 12.8384 1389 80.3153 472.626 484.985
712 1 52.0584 11.1029 578 79.3945 473.279 509.775
713 0 52.1781 10.2342 534 72.5375 472.594 510.058
714 0 55.1737 11.8897 656 70.5838 472.659 507.825
715 0 53.1046 10.1875 541 70.6303 470.543 502.335
716 0 56.1452 10.651 598 70.2023 471.244 503.206
717 0 59.1987 12.2976 728 72.4821 472.196 507.58
718 0 60.1329 11.907 716 73.9525 472.237 505.899
719 0 61.1957 11.8146 723 75.1037 472.759 507.781
720 0 63.2154 12.6235 798 73.8947 472.079 504.466
721 0 63.226 12.0046 759 76.4638 472.042 504.487
722 0 65.2135 12.3901 808 76.599 472.501 507.106
723 0 65.1951 11.5039 750 80.088 471.669 507.436
724 0 67.1353 12.4674 837 79.6428 471.295 505.38
725 0 70.1439 12.2035 856 79.4486 471.666 505.693
726 0 71.1797 12.0119 855 80.7977 471.381 502.906
727 0 74.2586 12.5103 929 80.2034 471.437 501.242
728 0 77.1843 12.2693 947 81.2471 470.69 500.475
729 0 78.2522 11.9741 937 83.0576 470.309 499.755
730 0 78.3029 12.0813 946 85.1131 470.827 498.495
731 0 82.1285 12.6387 1038 84.9297 470.42 496.582
732 0 85.261 11.9398 1018 85.8929 470.692 495.662
733 1 45.1228 10.3939 469 84.3689 470.179 517.507
734 0 47.0569 11.6667 549 80.7687 470.215 514.337
735 0 47.5205 10.9637 521 82.3685 471.72 510.303
736 0 48.4541 11.7224 568 80.5757 472.305 510.315
737 0 50.438 12.5104 631 78.8637 472.078 509.512
738 0 49.2842 11.5453 569 83.5413 473.109 510.413
739 0 49.2048 10.9949 541 85.5841 472.996 510.427
740 0 52.2061 11.0715 578 84.3945 472.27 510.827
741 0 53.2462 11.7943 628 83.2994 471.678 509.154
742 0 55.183 11.3622 627 82.2807 472.337 509.453
743 0 58.1772 11.9463 695 81.1496 472.578 507.863
744 0 59.2109 11.383 674 82.6899 472.733 506.23
745 0 61.1636 11.6246 711 82.4135 472.297 505.591
746 0 61.2212 12.2507 750 82.0267 472.931 505.591
747 0 63.1922 11.6945 739 85.0081 472.442 503.861
748 0 66.2315 12.4563 825 83.2958 473.373 502.234
749 0 68.2381 11.6064 792 83.923 472.782 501.792
750 0 70.243 11.8446 832 84.0012 472.09 500.454
751 0 73.2107 12.3889 907 83.4024 473.19 500.096
752 0 75.2483 12.1066 911 85.2887 472.179 496.633
753 0 77.1592 11.4957 887 85.8016 472.193 497.202
754 0 80.142 12.2408 981 83.3812 471.914 494.011
755 0 84.1404 12.2296 1029 84.1419 471.656 493.431
756 1 42.0094 11.069 465 85.2839 471.968 512.759
757 0 45.3328 11.6472 528 82.7557 473.614 510.155
758 0 46.2498 11.7838 545 83.3817 473.455 509.176
759 0 48.2849 11.4114 551 84.2904 473.038 507.432
760 0 47.1978 12.4158 586 86.7167 471.561 511.549
761 0 49.0797 12.2658 602 87.2691 471.294 509.385
762 0 51.1091 12.4831 638 87.4357 471.597 508.183
763 0 51.0671 11.9255 609 89.8095 471.21 508.348
764 0 53.1097 12.0317 639 89.025 471.424 507.049
765 0 55.0719 12.5109 689 89.0856 471.549 506.99
766 0 56.0643 12.4857 700 88.9943 472.301 506.706
767 0 56.0687 12.7344 714 89.507 472.164 505.238
768 0 61.1227 12.6631 774 89.0388 472.244 504.22
769 0 63.0829 13.6963 864 87.1065 471.753 502.087
770 0 64.1326 13.5968 872 88.7408 471.307 500.552
771 0 65.2331 13.0608 852 90.8099 472.17 500.66
772 0 67.2568 13.2031 888 90.1655 472.224 498.008
773 0 71.0946 13.2218 940 88.816 471.424 496.016
774 0 74.1186 12.9927 963 89.4403 471.562 495.175
775 0 75.0868 13.3312 1001 90.1708 471.428 496.07
776 0 78.119 13.6202 1064 90.6861 471.875 492.714
777 0 80.0527 13.4661 1078 91.7746 470.927 493.104
778 0 82.0877 13.9363 1144 91.6827 471.752 491.962
779 0 85.1004 13.4782 1147 93.5187 471.173 491.642
780 0 88.1048 13.745 1211 93.9777 471.026 489.942
781 0 89.1166 13.7909 1229 95.2701 470.959 489.312
782 0 93.1466 13.4949 1257 95.9332 471.047 486.268
783 0 96.1382 13.387 1287 95.899 471.618 484.696
784 0 97.1803 13.7065 1332 96.6884 471.244 483.586
785 0 103.238 13.6481 1409 96.2945 471.939 482.247
786 0 103.207 13.6522 1409 97.2136 472.388 481.304
787 0 105.198 13.3653 1406 98.367 472.628 480.624
788 0 111.224 13.801 1535 96.2612 472.297 479.299
789 0 115.232 13.8503 1596 96.8409 472.685 477.107
790 0 117.324 14.2 1666 96.3944 472.744 476.089
791 1 63.2964 12.2914 778 98.3959 473.56 501.593
792 0 66.3553 12.855 853 99.2872 473.57 498.814
793 0 68.2756 13.4309 917 100.214 473.348 498.229
794 0 72.0841 14.4692 1043 94.3202 472.865 498.326
795 0 75.1609 13.6108 1023 96.0938 472.709 495.014
796 0 77.0817 14.2706 1100 95.7291 472.74 494.944
797 0 80.1172 13.5926 1089 97.5289 472.855 493.791
798 0 81.1783 13.8214 1122 97.951 473.34 493.468
799 0 83.1185 13.7755 1145 99.4638 472.825 492.185
800 0 86.0782 13.6388 1174 100.415 472.945 490.502
801 0 89.1603 14.6029 1302 100.595 472.898 487.227
802 0 92.1449 14.0105 1291 102.19 472.697 489.5
803 0 93.1303 13.6798 1274 105.935 472.286 487.128
804 0 97.2303 13.7817 1340 106.827 472.949 486.069
805 0 98.1955 14.2267 1397 106.4 472.809 486.801
806 0 101.184 14.1228 1429 108.057 473.267 483.085
807 0 104.297 13.8451 1444 108.666 473.435 482.204
808 0 109.252 14.407 1574 106.474 472.13 481.097
809 0 111.236 13.7186 1526 108.801 472.576 479.899
810 0 117.373 14.39 1689 107.306 473.007 475.114
811 0 120.311 13.889 1671 109.301 472.382 474.247
812 1 62.1453 12.2294 760 107.213 473.12 502.891
813 0 64.1684 12.3893 795 105.848 473.118 501.197
814 0 66.1702 12.6794 839 107.521 472.633 500.465
815 0 70.1349 13.7022 961 103.182 472.706 499.394
816 0 74.0824 13.7415 1018 102.343 471.68 499.667
817 0 75.2248 13.8784 1044 102.332 472.404 496.966
818 0 75.2248 13.9449 1049 147.038 472.396 496.948
819 0 81.2287 13.6405 1108 103.874 472.352 494.734
820 0 84.135 14.2747 1201 102.749 471.833 492.763
821 0 86.1694 13.8216 1191 104.097 471.671 491.887
822 0 89.1574 14.2669 1272 102.934 471.195 491.898
823 0 92.1488 14.1402 1303 104.936 471.357 489.034
824 0 94.1497 14.2114 1338 106.671 471.689 488.281
825 0 97.1472 13.9685 1357 106.644 471.469 487.097
826 0 100.103 13.6859 1370 107.276 471.098 488.359
827 0 104.179 13.6399 1421 106.285 471.422 486.196
828 0 106.064 13.3881 1420 106.626 470.999 485.129
829 0 108.151 13.6198 1473 107.044 471.191 481.827
830 0 113.229 13.3976 1517 106.823 471.291 480.371
831 0 115.194 13.2993 1532 106.019 471.401 478.773
832 1 64.0377 11.5557 740 109.909 471.966 503.666
833 0 64.1224 11.8991 763 109.11 471.868 500.586
834 0 67.0237 12.2942 824 106.913 470.888 502.029
835 0 70.0862 12.5702 881 105.149 470.394 500.272
836 0 71.0432 12.3587 878 100.322 469.967 499.61
837 0 74.0911 13.092 970 98.4649 469.822 496.959
838 0 77.0242 12.5285 965 98.9472 468.849 495.195
839 0 79.0338 12.1214 958 99.7338 469.01 493.124
840 0 81.0418 12.8576 1042 98.0845 468.695 491.335
841 0 83.0494 12.6551 1051 100.037 468.897 489.155
842 0 86.048 13.1554 1132 98.5928 468.897 487.801
843 0 89.0565 13.2276 1178 98.2997 468.453 487.868
844 0 91.0535 13.1791 1200 95.8475 468.867 488.493
845 0 95.0317 13.4797 1281 95.7486 469.251 485.318
846 0 97.1354 13.6819 1329 95.3311 469.214 484.616
847 0 100.124 14.3422 1436 98.9227 470.155 484.124
848 0 102.118 13.9055 1420 101.342 469.727 482.837
849 0 106.132 13.7753 1462 102.75 469.824 479.551
850 0 109.143 13.5694 1481 103.465 470.077 477.931
851 0 114.176 13.6018 1553 102.625 470.65 475.63
852 0 117.198 13.7801 1615 102.38 471.126 473.479
853 0 121.199 13.3912 1623 103.104 470.462 471.546
854 0 126.116 13.7571 1735 102.164 470.496 469.721
855 1 67.0985 11.1478 748 102.337 468.453 498.057
856 0 70.0695 11.617 814 101.986 468.749 496.569
857 0 72.2184 11.8391 855 100.839 468.263 494.979
858 0 76.1257 12.2035 929 91.8665 469.259 494.038
859 0 78.0738 12.6547 988 91.1326 468.971 493.348
860 0 81.1163 13.2156 1072 90.3396 469.606 493.06
861 0 83.0785 13.3247 1107 91.1012 469.379 490.753
862 0 86.0491 13.1088 1128 92.0266 470.051 489.913
863 0 89.0722 13.0568 1163 93.0181 469.441 489.137
864 0 90.0831 13.4653 1213 93.5862 469.373 487.847
865 0 95.1582 13.2516 1261 94.2902 469.069 486.918
866 0 96.1099 13.4637 1294 95.3895 468.828 484.864
867 0 98.1195 13.3205 1307 96.6572 468.718 483.265
868 0 102.322 14.1709 1450 95.0379 468.972 482.259
869 0 104.14 13.7315 1430 90.0867 469.773 481.387
870 0 108.232 13.6189 1474 98.6777 469.178 478.674
871 0 109.222 13.1659 1438 100.663 468.877 478.052
872 0 113.198 13.5161 1530 103.22 470.281 474.671
873 0 118.258 13.8426 1637 103.394 470.434 472.605
874 1 62.0863 11.4196 709 100.166 469.168 500.661
875 0 62.1222 11.7188 728 99.3956 469.805 501.609
876 0 65.1223 11.3632 740 99.5676 469.143 498.996
877 0 67.1016 12.0265 807 97.7869 468.705 495.595
878 0 70.3882 12.1611 856 94.2827 470.548 497.454
879 0 71.1974 12.2617 873 91.6483 470.682 496.289
880 0 74.4011 11.7068 871 100.765 470.801 494.836
881 0 78.3589 12.2768 962 97.8514 471.032 494.47
882 0 78.371 11.7518 921 99.9446 470.746 493.439
883 0 80.3009 11.5565 928 99.6875 470.931 492.143
884 0 84.3614 11.8538 1000 98.937 470.742 488.958
885 0 86.2546 12.1733 1050 97.2619 470.85 488.136
886 0 88.3497 11.6695 1031 98.9835 471.641 485.986
887 0 90.2331 11.836 1068 98.7266 471.124 483.928
888 0 94.1726 11.9568 1126 98.857 470.564 483.456
889 0 96.2849 12.0684 1162 99.3322 471.125 481.608
890 0 99.1574 11.0229 1093 101.648 471.331 480.758
891 0 101.199 11.4725 1161 100.609 471.276 476.123
892 0 105.228 11.4703 1207 99.0961 470.881 476.393
893 0 108.179 11.8045 1277 98.8778 470.561 474.617
894 1 57.0401 10.5715 603 93.6501 471.07 503.103
895 0 56.0423 10.9025 611 92.7267 470.316 502.494
896 0 58.0648 10.9705 637 93.2496 470.151 498.907
897 0 62.0589 11.6663 724 92.8936 472.075 498.367
898 0 63.0794 12.2703 774 95.5736 472.627 497.826
899 0 62.1162 11.0116 684 91.5775 470.735 499.433
900 0 66.207 10.6937 708 91.6102 471.136 497.59
901 0 68.2194 11.7855 804 88.8955 471.65 495.261
902 0 69.252 11.6242 805 90.5081 472.559 496.604
903 0 72.1388 10.7293 774 92.3152 471.081 495.341
904 0 72.1193 10.649 768 93.7578 471.359 493.031
905 0 75.156 11.1368 837 92.4636 471.219 491.888
906 0 78.1368 10.9296 854 92.534 470.824 490.356
907 0 82.2987 12.0051 988 89.6447 471.463 489.18
908 0 85.2458 12.0827 1030 88.7806 472.353 487.651
909 0 87.1276 11.9021 1037 89.4031 471.366 486.844
910 0 89.055 12.3968 1104 92.2944 470.359 486.416
911 0 92.1298 12.4173 1144 92.2299 470.836 485.541
912 0 94.1144 12.2085 1149 93.624 470.528 483.256
913 0 98.1224 12.3213 1209 91.6253 470.812 481.014
914 0 101.103 12.4626 1260 91.0968 470.328 478.502
915 0 104.116 12.9183 1345 89.4506 469.83 477.347
916 0 107.147 13.3462 1430 95.1741 471.443 474.999
917 0 112.1 11.7039 1312 97.1578 472.255 473.482
918 1 60.0667 10.505 631 89.4517 472.098 501.211
919 0 58.2295 11.4547 667 85.8951 471.381 499.31
920 0 62.2875 11.7841 734 84.5 471.875 496.569
921 0 65.1031 11.5048 749 83.6542 472.007 497.75
922 0 67.2262 11.2605 757 84.6975 471.752 496.703
923 0 69.1381 11.9182 824 83.0364 472.172 496.772
924 0 70.1867 11.4837 806 84.2221 471.522 497.773
925 0 72.1027 11.4281 824 83.7609 471.625 497.309
926 0 75.1712 11.7199 881 82.9932 471.045 494.695
927 0 78.2203 12.1963 954 82.0252 471.044 494.896
928 0 80.1859 12.259 983 81.3988 470.913 495.754
929 0 84.1513 12.2755 1033 81.2865 471.148 494.409
930 0 84.2711 12.9463 1091 81.4711 470.753 492.628
931 0 85.0951 11.4343 973 86.5982 468.982 493.239
932 0 86.1331 11.3661 979 86.8294 469.089 494.793
933 0 91.3484 10.9909 1004 87.2032 469.395 493.546
934 0 93.1707 11.7526 1095 86.8858 469.315 491.324
935 0 97.199 12.1709 1183 86.9442 469.101 489.489
936 0 98.143 12.0029 1178 88.1019 468.947 487.568
937 0 100.152 11.3228 1134 90.0767 469.207 487.973
938 0 104.144 11.7338 1222 89.3339 469.364 487.514
939 0 108.129 12.5128 1353 88.388 468.957 485.425
940 1 57.1713 12.0515 689 90.6952 470.062 509.084
941 0 57.1042 11.9956 685 91.8584 470.203 509.092
942 0 60.1712 12.8301 772 89.114 470.057 507.571
943 0 61.1494 12.7066 777 90.2227 469.452 506.968
944 0 64.1403 13.2366 849 89.232 469.656 505.38
945 0 65.2351 13.5663 885 88.6463 470.055 505.656
946 0 66.1795 13.2367 876 91.3539 469.477 504.364
947 0 68.1622 13.7319 936 90.8707 469.526 502.259
948 0 71.1141 13.3588 950 92.7147 469.925 502.277
949 0 71.1806 13.824 984 92.2124 469.95 500.643
950 0 75.1498 13.8257 1039 91.8306 469.879 498.494
951 0 78.1466 14.332 1120 99.0214 469.51 498.894
952 0 80.1165 14.7286 1180 99.4246 469.793 497.924
953 0 80.177 14.5428 1166 103.02 470.062 496.419
954 0 82.1896 14.065 1156 104.93 469.362 495.285
955 0 83.156 14.3706 1195 109.359 469.506 496.833
956 0 86.2168 14.1852 1223 98.8013 470.563 494.72
957 0 88.1194 13.6746 1205 98.956 469.288 492.958
958 0 90.2848 14.0998 1273 98.0903 469.737 491.804
959 0 94.2094 14.2661 1344 97.7448 469.76 488.535
960 0 96.1685 14.2458 1370 98.6839 470.27 486.937
961 0 99.1667 14.5613 1444 97.4321 469.893 487.312
962 0 98.137 13.42 1317 101.004 470.437 487.264
963 0 101.196 13.2416 1340 100.064 470.266 484.878
964 0 103.173 12.891 1330 96.2361 470.235 480.07
965 0 107.209 12.7788 1370 97.4321 470.353 477.148
966 0 109.197 12.8484 1403 97.3614 470.542 479.287
967 0 113.133 12.914 1461 96.0253 470.162 478.637
968 0 119.257 13.2236 1577 95.1845 470.196 473.892
969 1 60.0206 11.2795 677 87.7075 470.687 505.775
970 0 63.0476 12.8474 810 86.4926 469.299 502.048
971 0 64.0236 12.7297 815 88.4577 470.302 501.465
972 0 66.2928 13.018 863 88.9015 471.586 500.396
973 0 70.2905 13.3588 939 86.9137 472.304 499.145
974 0 71.273 13.5956 969 87.0124 471.746 496.238
975 0 75.1579 13.771 1035 86.4734 471.785 496.638
976 0 76.0388 13.5457 1030 86.9816 470.735 496.597
977 0 79.0722 13.6457 1079 87.8146 471.302 494.867
978 0 81.1493 13.6045 1104 88.048 471.603 494.959
979 0 83.0554 13.5572 1126 97.4529 471.278 493.221
980 0 86.0368 14.3311 1233 97.2928 472.311 494.135
981 0 87.1115 14.0739 1226 99.9992 471.719 492.084
982 0 91.0834 13.1418 1197 102.728 471.612 492.199
983 0 93.0709 14.215 1323 90.802 471.268 490.662
984 0 95.1194 13.7196 1305 93.387 471.054 488.871
985 0 97.119 13.7563 1336 94.018 470.957 486.923
986 0 99.1376 13.5166 1340 94.7851 470.461 485.903
987 0 102.104 12.8889 1316 97.4073 470.975 483.081
988 0 107.086 12.9896 1391 97.087 470.576 481.561
989 0 110.139 13.4649 1483 96.9919 470.234 480.617
990 0 113.193 13.2164 1496 98.0682 470.178 478.422
991 0 115.134 13.4452 1548 97.5297 470.827 476.882
992 0 118.275 12.9697 1534 99.0626 470.957 474.683
993 0 123.254 13.2004 1627 99.1506 470.166 471.458
994 0 128.361 13.5322 1737 99.1324 471.052 466.864
995 0 132.266 13.7072 1813 99.4098 471.124 464.069
996 0 136.304 13.69 1866 99.6672 471.186 460.028
997 1 72.2611 11.9566 864 97.4086 472.23 495.943
998 0 74.3506 12.199 907 96.3517 472.018 495.143
999 0 76.2859 12.6367 964 97.1411 471.941 491.786
1000 0 77.4576 12.7554 988 95.7581 471.92 490.658
1001 0 81.1559 12.1864 989 91.7644 472.205 491.97
1002 0 81.1502 12.1626 987 136.482 472.215 491.996
1003 0 87.1185 12.5576 1094 90.2669 471.264 489.101
1004 0 88.134 11.9023 1049 100.06 472.46 488.822
1005 0 92.1467 12.2196 1126 98.1936 473.62 484.988
1006 0 93.0599 11.7881 1097 97.9681 474.391 483.907
1007 0 98.0401 12.4745 1223 95.7441 473.231 482.587
1008 0 101.278 11.8684 1202 91.0458 473.253 481.26
1009 0 101.261 11.8406 1199 127.154 474.27 481.351
1010 0 108.093 11.8787 1284 98.7407 473.274 480.129
1011 0 112.185 12.6042 1414 89.331 472.278 480.105
1012 0 117.171 12.7165 1490 92.2423 472.64 476.874
1013 0 121.202 13.2259 1603 96.1847 472.829 475.7
1014 0 122.146 12.5833 1537 100.289 472.556 472.18
1015 0 128.135 12.5961 1614 102.478 472.229 470.779
1016 0 131.209 12.8421 1685 102.542 472.308 469.415
1017 0 135.195 12.9739 1754 104.999 472.811 465.706
1018 0 141.267 13.2515 1872 104.115 472.85 465.292
1019 1 78.0967 12.6766 990 101.337 474.033 495.343
1020 0 80.0624 13.0273 1043 99.2675 473.896 492.607
1021 0 82.1282 12.7605 1048 96.459 472.734 491.531
1022 0 86.2218 12.607 1087 96.345 472.237 491.426
1023 0 91.2191 13.3963 1222 93.6776 473.059 490.691
1024 0 92.1759 13.3224 1228 96.0033 473.735 489.174
1025 0 92.155 13.282 1224 152.014 474.725 489.181
1026 0 96.1379 12.6901 1220 99.6008 472.209 485.938
1027 0 101.281 12.5097 1267 98.206 473.114 484.728
1028 0 102.209 12.2397 1251 100.417 472.035 484.549
1029 0 106.117 12.8725 1366 99.4524 472.041 482.108
1030 0 109.114 12.574 1372 100.762 471.994 479.222
1031 0 112.164 13.0434 1463 100.288 472.334 479.85
1032 0 116.236 13.2575 1541 100.677 472.764 477.138
1033 0 119.29 13.0019 1551 102.603 472.794 475.364
1034 0 123.153 13.0731 1610 103.998 472.481 474.48
1035 0 129.163 12.9759 1676 103.684 471.896 471.074
1036 1 71.2405 11.6226 828 107.99 472.995 495.818
1037 0 74.052 12.2752 909 92.1331 470.686 493.534
1038 0 74.0567 11.6262 861 96.9907 470.44 491.236
1039 0 77.1067 12.6318 974 94.2402 470.283 491.91
1040 0 78.0405 11.5709 903 97.9679 470.339 489.343
1041 0 82.09 12.1574 998 97.0671 470.073 486.121
1042 0 84.1415 12.3839 1042 96.5537 470.77 484.789
1043 0 89.2356 12.5959 1124 95.8648 470.591 483.562
1044 0 90.1344 12.326 1111 96.8047 470.621 484.702
1045 0 93.1606 12.1833 1135 97.5242 470.407 483.159
1046 0 96.2098 12.5559 1208 97.6531 469.862 479.438
1047 0 99.2552 12.5334 1244 97.799 469.859 477.737
1048 0 102.171 12.6553 1293 98.0889 470.022 476.941
1049 0 104.166 12.4321 1295 97.6093 470.624 485.478
1050 0 105.192 12.1682 1280 100.468 471.218 483.448
1051 0 111.181 12.6191 1403 99.6358 471.041 481.714
1052 1 60.0661 11.7204 704 107.126 471.909 503.462
1053 0 60.1205 10.4956 631 97.6086 471.273 499.119
1054 0 62.1391 11.0237 685 98.4029 471.385 497.143
1055 0 64.176 12.1697 781 101.978 472.69 502.079
1056 0 65.2239 12.4188 810 102.781 472.379 500.788
1057 0 69.2172 12.1357 840 100.636 472.998 500.886
1058 0 70.2111 12.5194 879 101.076 472.534 499.441
1059 0 71.2233 12.1449 865 102.498 472.075 498.82
1060 0 75.1708 12.1058 910 100.757 472.523 498.47
1061 0 76.2676 12.207 931 101.039 472 497.354
1062 0 79.245 12.2153 968 96.6095 472.398 496.685
1063 0 82.2542 12.2304 1006 96.5954 472.356 496.924
1064 0 85.131 12.3457 1051 96.059 470.954 493.62
1065 0 87.3103 12.404 1083 99.1404 471.884 492.739
1066 0 88.2594 12.3953 1094 99.8473 471.616 491.745
1067 0 91.2087 12.5646 1146 98.4389 470.802 489.31
1068 0 93.2131 12.0477 1123 101.373 470.692 486.673
1069 0 93.2131 12.0262 1121 144.987 471.692 486.635
1070 0 98.2352 11.727 1152 101.905 471.516 482.981
1071 1 50.0755 10.4842 525 94.5371 471.126 501.992
1072 0 53.009 10.5831 561 99.3494 472.882 502.403
1073 0 58.0517 12.2477 711 98.5499 473.108 504.111
1074 0 58.0861 11.6207 675 93.963 470.852 504.849
1075 0 60.1103 11.5454 694 94.4582 471.424 504.48
1076 0 63.1023 12.4877 788 90.9911 470.89 503.714
1077 0 65.0624 11.7733 766 91.6971 471.098 501.837
1078 0 65.0355 12.6393 822 90.6302 469.889 501.331
1079 0 68.0197 12.8345 873 89.5384 469.723 499.905
1080 0 71.0549 12.9477 920 87.5043 470.692 498.815
1081 0 72.0632 13.0302 939 86.8126 470.347 497.823
1082 0 74.0496 13.0858 969 86.2673 470.842 496.188
1083 0 76.0753 12.9083 982 86.2576 470.664 494.893
1084 0 78.0724 12.3987 968 87.5021 471.358 493.849
1085 0 81.1059 13.2666 1076 83.7165 470.618 493.127
1086 0 83.0165 13.1781 1094 84.404 470.659 491.005
1087 0 85.0881 12.7985 1089 85.2167 470.502 491.656
1088 0 86.156 12.9765 1118 85.4848 471.165 490.247
1089 0 90.0666 13.49 1215 95.2551 470.721 490.846
1090 0 90.0321 13.2731 1195 97.2762 470.98 488.825
1091 0 93.0973 13.792 1284 97.796 470.787 488.33
1092 0 95.0789 13.1575 1251 99.4141 471.469 487.594
1093 0 99.0957 13.381 1326 99.0166 471.603 484.527
1094 0 102.11 13.3189 1360 98.8875 471.288 483.662
1095 0 107.131 13.5628 1453 103.351 471.199 482.533
1096 0 108.092 13.2017 1427 100.731 471.064 480.104
1097 1 58.0209 11.3407 658 102.643 470.839 506.886
1098 0 59.0251 12.0118 709 101.038 470.622 504.618
1099 0 62.0669 12.2448 760 95.6079 472.118 507.866
1100 0 63.0977 12.2825 775 97.4271 472.319 506.383
1101 0 65.0321 12.9628 843 97.2598 471.422 503.676
1102 0 67.0615 13.003 872 97.3888 471.216 501.725
1103 0 71.0575 13.4961 959 95.292 471.2 501.112
1104 0 71.141 13.2975 946 100.487 471.013 500.281
1105 0 73.0896 13.1346 960 99.2896 471.459 500.228
1106 0 73.3029 12.6189 925 102.371 471.334 499.256
1107 0 77.1662 13.1534 1015 100.877 470.958 498.14
1108 0 77.2085 13.3664 1032 102.658 470.394 496.54
1109 0 79.2333 13.3404 1057 103.335 470.547 496.01
1110 0 81.1905 12.6862 1030 104.994 470.825 494.748
1111 0 83.2267 13.1208 1092 105.321 471.201 492.485
1112 0 86.2395 13.4625 1161 104.501 470.792 490.513
1113 0 89.2627 13.0626 1166 102.862 470.833 490.735
1114 0 92.3718 13.1101 1211 103.692 471.438 489.584
1115 0 94.1636 13.1473 1238 103.853 471.507 488.665
1116 0 97.1431 12.9911 1262 105.395 470.77 486.53
1117 0 102.129 13.0913 1337 103.603 471.136 485.47
1118 0 104.243 13.3534 1392 104.385 471.457 483.644
1119 0 107.142 13.1975 1414 104.825 470.975 483.006
1120 0 112.288 14.0353 1576 104.468 471.261 480.157
1121 0 115.235 13.902 1602 108.939 471.197 478.423
1122 1 63.0892 11.1271 702 102.104 471.218 507.761
1123 0 64.1437 11.256 722 104.127 472.31 504.72
1124 0 66.1387 12.1412 803 102.03 471.716 502.443
1125 0 69.0809 11.8557 819 102.606 471.527 499.132
1126 0 69.182 12.0985 837 100.693 472.123 502.481
1127 0 71.1265 11.9646 851 104.517 472.424 501.181
1128 0 74.072 12.7309 943 103.793 472.595 500.098
1129 0 73.1017 11.956 874 107.209 472.727 499.03
1130 0 75.1217 12.1403 912 106.715 472.931 497.747
1131 0 78.1189 12.0329 940 106.328 472.517 497.107
1132 0 81.1835 12.9583 1052 103.533 472.359 496.965
1133 0 84.254 12.5573 1058 104.625 472.51 495.113
1134 0 84.2006 12.5177 1054 105.81 472.708 493.12
1135 0 87.3056 12.5421 1095 106.125 472.383 490.591
1136 0 86.3157 13.0104 1123 96.7311 472.118 493.426
1137 0 90.3093 12.1471 1097 107.699 471.742 488.729
1138 0 92.2706 12.1382 1120 107.649 472.195 486.602
1139 0 96.2437 12.0943 1164 106.915 471.615 485.664
1140 0 99.3201 12.1828 1210 106.097 472.137 482.631
1141 0 102.293 12.5815 1287 105.473 472.138 484.43
1142 0 104.256 12.0761 1259 106.79 471.996 482.073
1143 0 108.225 11.8457 1282 107.147 471.367 480.547
1144 0 112.274 11.8549 1331 106.973 471.663 477.811
1145 0 118.357 12.2342 1448 106.004 471.195 476.53
1146 1 61.1771 11.1316 681 101.226 472.687 504.88
1147 0 64.0501 11.8657 760 99.6803 472.126 504.53
1148 0 64.1621 12.3126 790 98.6734 472.563 503.046
1149 0 65.2106 11.6546 760 99.3145 471.395 499.849
1150 0 68.0339 12.0234 818 86.478 470.262 501.375
1151 0 70.0328 11.8659 831 86.6943 469.29 500.332
1152 0 72.0472 11.6729 841 87.9845 470.102 497.983
1153 0 74.0252 12.077 894 87.2069 469.877 498.496
1154 0 77.0571 12.8476 990 86.2071 469.557 495.804
1155 0 78.0846 11.8845 928 89.6649 469.87 494.092
1156 0 80.0425 12.6308 1011 88.8724 469.568 494.06
1157 0 82.04 12.0185 986 91.1491 469.252 493.362
1158 0 85.0856 12.4463 1059 90.0283 469.479 491.774
1159 0 87.0883 11.7237 1021 92.6298 469.871 491.595
1160 0 89.0713 12.1813 1085 94.5005 469.802 491.193
1161 0 91.0668 12.1559 1107 95.8329 469.67 490.177
1162 0 92.0432 11.7662 1083 97.9141 469.252 488.741
1163 0 96.1121 12.1733 1170 98.3718 469.198 487.291
1164 0 98.0831 11.6126 1139 98.273 468.566 485.683
1165 0 102.119 11.6139 1186 99.8954 468.856 483.407
1166 0 103.073 11.487 1184 104.709 469.224 482.744
1167 0 108.118 11.8481 1281 104.299 469.016 481.273
1168 0 111.09 11.8193 1313 105.448 468.444 480.88
1169 0 114.116 11.8738 1355 106.549 468.725 478.228
1170 0 120.111 11.7808 1415 107.795 468.904 477.235
1171 1 67.0876 10.7322 720 110.549 470.146 502.968
1172 0 69.2414 12.0304 833 107.427 470.553 500.768
1173 0 71.1748 12.1251 863 106.461 470.01 502.246
1174 0 72.068 12.8767 928 108.476 468.817 499.904
1175 0 71.0542 11.639 827 106.738 469.619 500.531
1176 0 74.0565 11.5047 852 106.157 469.569 500.13
1177 0 76.0925 11.9591 910 105.067 469.184 496.966
1178 0 79.0529 12.1944 964 105.298 468.613 495.094
1179 0 81.0241 11.9471 968 106.235 469.157 493.565
1180 0 81.0639 11.9289 967 107.425 469.722 493.352
1181 0 87.1066 11.9279 1039 106.856 469.457 495.373
1182 0 89.1052 12.0981 1078 103.977 470.746 495.298
1183 0 91.1029 12.5462 1143 104.377 469.939 494.491
1184 0 93.0928 11.9128 1109 105.415 470.23 491.339
1185 0 96.1003 11.3735 1093 105.447 469.739 490.541
1186 0 99.1172 11.663 1156 103.323 469.933 489.13
1187 0 103.181 12.3763 1277 107.755 470.93 485.962
1188 0 105.235 12.0017 1263 110.443 470.447 482.722
1189 1 57.0219 11.3816 649 111.823 471.345 508.133
1190 0 59.0506 12.4978 738 105.963 472.251 506.77
1191 0 61.0449 12.9413 790 106.403 472.42 505.506
1192 0 61.0633 12.3642 755 109.626 472.509 505.448
1193 0 64.0665 13.205 846 105.637 472.131 504.001
1194 0 67.0603 12.8839 864 106.623 472.05 502.997
1195 0 67.0458 12.484 837 109.129 471.889 502.442
1196 0 69.0946 12.8954 891 108.139 471.761 501.881
1197 0 72.079 12.7499 919 108.845 471.51 500.693
1198 0 73.0799 12.9311 945 109.418 471.455 499.514
1199 0 74.0457 12.6138 934 111.812 471.864 499.158
1200 0 76.1671 13.4047 1021 109.218 471.569 498.301
1201 0 77.0483 13.1606 1014 110.876 472.262 497.415
1202 0 81.1124 13.3149 1080 109.646 471.648 495.669
1203 0 83.1275 13.2086 1098 109.971 471.541 494.581
1204 0 86.1532 13.4992 1163 109.555 471.001 492.294
1205 0 86.2025 12.9231 1114 112.217 471.228 492.378
1206 0 88.1534 12.9207 1139 112.695 470.946 491.316
1207 0 92.244 13.3992 1236 111.756 471.236 489.386
1208 0 93.2335 13.4394 1253 112.026 470.218 488.378
1209 0 96.2317 13.9143 1339 109.659 470.786 486.644
1210 0 97.1509 13.2783 1290 112.776 470.94 485.789
1211 0 99.202 12.6913 1259 114.01 471.203 484.038
1212 0 103.209 13.7197 1416 108.727 471.656 483.464
1213 0 108.173 13.8297 1496 100.83 471.093 481.916
1214 0 109.24 12.5411 1370 105.228 470.836 480.758
1215 0 114.11 13.2592 1513 104.028 470.436 476.203
1216 0 118.241 12.8636 1521 105.815 469.833 472.843
1217 0 120.26 12.2818 1477 108.091 470.798 472.1
1218 0 127.19 13.4287 1708 104.334 471.206 470.854
1219 0 130.216 12.6943 1653 106.593 470.237 470.644
1220 0 134.183 12.8704 1727 106.55 471.151 469.818
1221 0 137.268 12.7196 1746 107.767 470.768 464.845
1222 1 78.1403 12.7335 995 100.655 470.512 497.266
1223 0 80.119 12.6936 1017 101.909 470.693 496.625
1224 0 83.2066 13.4124 1116 100.203 471.108 496.278
1225 0 86.1228 13.5853 1170 100.612 470.666 493.84
1226 0 89.1766 13.5237 1206 101.409 470.511 494.415
1227 0 91.155 13.5922 1239 102.345 470.023 491.967
1228 0 94.1379 13.3103 1253 104.077 470.31 489.318
1229 0 98.2604 13.5456 1331 102.547 470.669 487.958
1230 0 100.212 13.4614 1349 103.14 471.235 485.087
1231 0 101.212 13.4273 1359 104.082 471.865 483.135
1232 0 105.183 13.4242 1412 104.09 470.934 480.841
1233 0 109.241 13.6853 1495 102.739 471.26 479.309
1234 0 113.168 13.0249 1474 103.25 470.355 477.532
1235 0 119.278 13.4056 1599 101.418 470.448 476.725
1236 0 122.303 13.2948 1626 101.335 470.916 473.675
1237 0 127.33 13.5396 1724 99.6763 470.608 471.623
1238 1 68.2567 12.4969 853 99.5275 472.162 503.523
1239 0 70.2516 13.2239 929 97.6286 471.681 501.074
1240 0 73.1902 13.1985 966 97.1812 472.293 501.947
1241 0 75.2331 13.7307 1033 94.365 472.292 499.302
1242 0 78.1501 13.3589 1044 95.9636 471.156 497.246
1243 0 80.2041 13.7275 1101 94.3043 471.796 494.073
1244 0 82.1403 14.11 1159 93.4884 471.058 491.79
1245 0 86.1651 13.7875 1188 93.5429 471.068 489.795
1246 0 87.2368 13.5493 1182 94.5541 471.095 489.388
1247 0 92.1902 13.7759 1270 94.8984 471.65 486.888
1248 0 93.1211 13.7348 1279 95.4019 471.55 484.919
1249 0 93.1225 13.6702 1273 147.604 470.557 485.063
1250 0 100.258 13.8942 1393 94.7459 472.056 482.536
1251 0 104.167 13.7568 1433 94.7362 471.809 481.403
1252 0 106.29 13.5479 1440 96.7542 472.536 481.093
1253 0 108.298 13.195 1429 98.1812 472.763 481.786
1254 0 112.26 13.834 1553 96.4443 472.753 477.12
1255 0 116.15 13.1554 1528 97.1086 472.444 474.369
1256 0 119.303 13.185 1573 97.4584 472.619 472.712
1257 0 124.265 13.2459 1646 96.2837 472.896 468.767
1258 1 70.0739 11.4879 805 98.3118 473.716 494.417
1259 0 74.1622 12.9176 958 98.3873 471.922 494.39
1260 0 73.064 12.537 916 100.265 472.783 491.672
1261 0 78.1128 12.5972 984 99.2612 473.133 491.697
1262 0 80.0945 12.66 1014 98.9408 473.165 489.192
1263 0 83.0814 13.0835 1087 97.5014 472.985 488.626
1264 0 85.0923 12.6098 1073 98.5396 473.509 488.217
1265 0 88.1754 13.303 1173 96.6385 472.901 486.205
1266 0 90.0516 12.5817 1133 99.2789 472.541 485.184
1267 0 95.0801 13.2835 1263 96.6263 472.74 483.914
1268 0 97.1108 12.9543 1258 97.8514 472.343 481.602
1269 0 99.0985 13.1384 1302 97.2412 472.716 479.61
1270 0 99.0651 12.9915 1287 98.4172 472.549 480.382
1271 0 104.115 13.4083 1396 96.9226 472.562 478.028
1272 0 106.085 12.6973 1347 98.1715 472.289 476.082
1273 0 109.131 12.5538 1370 92.0241 471.511 475.095
1274 0 109.314 11.6454 1273 90.9678 471.113 469.365
1275 0 113.224 12.0734 1367 91.5647 470.977 468.492
1276 0 118.116 11.658 1377 94.4561 470.675 473.315
1277 0 123.177 12.7135 1566 92.1737 469.856 471.109
1278 0 125.139 12.4102 1553 94.2981 470.548 468.474
1279 1 69.0611 11.3378 783 92.1443 470.548 497.852
1280 0 71.0932 11.6467 828 91.7295 471.094 498.68
1281 0 75.1039 12.4095 932 91.1137 470.953 496.372
1282 0 75.2379 12.4804 939 93.5751 471.821 494.904
1283 0 78.1813 12.7524 997 93.4694 472.052 492.914
1284 0 82.1938 13.6263 1120 92.0152 472.125 490.303
1285 0 85.159 13.3163 1134 93.1358 472.114 487.826
1286 0 86.1433 12.4212 1070 95.3393 472.051 491.054
1287 0 88.2283 12.717 1122 95.7594 472.348 488.058
1288 0 93.2157 12.7232 1186 95.3862 471.922 486.953
1289 0 95.1587 12.3058 1171 97.1067 472.189 484.611
1290 0 99.2016 12.7417 1264 95.6195 471.88 484.708
1291 0 102.167 12.6068 1288 96.7205 472.286 485.137
1292 1 54.0888 11.0004 595 98.1076 473.185 506.587
1293 0 55.1122 11.6853 644 96.7283 473.556 506.29
1294 0 59.0768 11.4258 675 98.3822 473.599 502.09
1295 0 61.1203 12.5654 768 93.793 472.934 499.858
1296 0 61.0616 12.168 743 92.891 471.205 499.315
1297 0 64.0518 12.2557 785 92.0561 471.079 498.789
1298 0 65.037 11.6857 760 89.2803 470.899 493.878
1299 0 68.0342 12.773 869 89.9666 470.354 494.894
1300 0 68.0352 11.6557 793 89.5977 470.898 493.453
1301 0 71.0488 12.4562 885 88.4328 470.527 493.255
1302 0 73.0481 12.1564 888 89.107 470.601 492.199
1303 0 75.1642 11.7077 880 92.1 471.758 492.225
1304 0 76.1356 12.3333 939 90.8424 471.479 493.381
1305 0 78.1199 12.0328 940 91.2564 471.626 492.638
1306 0 81.1367 12.2756 996 92.4659 471.719 491.074
1307 0 84.099 12.6161 1061 89.3091 470.982 490.699
1308 0 87.0586 13.1521 1145 88.8341 470.75 489.667
1309 0 89.045 13.1507 1171 89.8292 471.214 487.913
1310 0 93.1078 12.8024 1192 90.9505 470.497 485.586
1311 0 95.0655 13.1488 1250 90.7768 470.456 486.214
1312 0 98.2132 13.0736 1284 92.0942 470.433 486.404
1313 0 99.1354 13.0125 1290 93.6357 470.422 483.229
1314 0 103.143 12.2549 1264 95.1788 470.299 480.756
1315 0 105.118 12.4812 1312 95.2797 470.165 481.37
1316 0 109.173 12.1733 1329 96.5508 470.594 481.618
1317 0 111.116 12.7344 1415 96.0523 470.561 477.764
1318 0 115.104 12.4844 1437 96.1239 470.909 475.918
1319 0 120.235 13.1908 1586 93.1431 470.439 476.6
1320 0 124.301 13.0088 1617 95.1082 471.42 473.124
1321 0 126.287 12.6695 1600 95.9044 471.438 471.838
1322 1 71.0625 11.2577 800 92.2125 471.85 499.058
1323 0 74.1062 11.9288 884 94.3643 471.441 494.416
1324 0 77.0688 12.0023 925 92.5492 471.234 493.227
1325 0 79.1343 12.3587 978 91.7342 471.201 493.351
1326 0 82.2104 12.687 1043 91.1937 473.359 491.56
1327 0 83.1969 12.7168 1058 92.5321 472.139 490.888
1328 0 85.0873 12.7046 1081 93.8844 471.771 490.07
1329 0 90.1038 12.9628 1168 92.5488 471.354 488.996
1330 0 92.276 12.5927 1162 92.568 471.979 488.94
1331 0 94.177 12.7101 1197 92.9373 472.19 486.863
1332 0 97.2889 12.8278 1248 91.6258 471.743 485.514
1333 0 100.377 12.6224 1267 92.0308 471.655 483.991
1334 0 101.32 12.5642 1273 92.9081 471.559 481.573
1335 0 105.457 12.5928 1328 92.2636 471.765 480.764
1336 0 106.398 12.1806 1296 94.0586 471.587 479.434
1337 0 112.459 12.9736 1459 91.366 471.001 478.314
1338 0 117.466 13.2719 1559 88.9384 471.187 477.264
1339 0 119.488 13.1059 1566 90.5664 470.899 473.167
1340 0 122.479 12.5246 1534 92.7784 471.029 473.561
1341 0 122.353 12.8236 1569 93.4646 470.915 472.769
1342 0 129.556 13.469 1745 91.3765 470.483 470.621
1343 0 131.325 12.9297 1698 93.9723 470.542 467.824
1344 0 135.261 13.1745 1782 94.0629 469.982 465.439
1345 0 141.249 13.5576 1915 94.1295 469.953 463.003
1346 0 144.337 13.5308 1953 95.149 470.055 462.769
1347 0 148.298 13.81 2048 96.1216 470.062 458.822
1348 0 148.263 13.3075 1973 99.5297 469.848 456.867
1349 0 155.3 13.6638 2122 99.0664 469.889 455.776
1350 0 157.259 13.1884 2074 101.052 469.149 453.687
1351 0 163.338 12.9241 2111 102.077 468.784 451.054
1352 0 169.222 13.5738 2297 100.324 470.097 449.592
1353 0 174.224 13.718 2390 101.527 469.428 446.152
1354 0 179.263 13.5722 2433 101.984 469.376 442.078
1355 0 183.259 13.2545 2429 103.774 469.183 439.669
1356 0 189.175 13.6117 2575 103.535 468.994 438.69
1357 0 194.165 12.9478 2514 105.965 468.798 435.282
1358 0 199.174 13.3903 2667 105.295 469.191 430.615
1359 0 209.159 15.6341 3270 98.2807 469.055 422.187
1360 0 212.206 13.8262 2934 104.893 467.972 423.615
1361 0 218.205 13.6706 2983 105.201 469.005 421.846
1362 1 241.431 18.2951 4417 86.7469 468.933 398.392
1363 0 248.405 18.1921 4519 87.9772 469.086 396.061
1364 0 248.531 17.1085 4252 92.9904 469.15 399.009
1365 0 249.518 13.6864 3415 104.285 469.106 404.507
1366 0 259.62 13.9358 3618 105.154 469.014 397.868
1367 0 264.623 13.404 3547 106.296 468.741 393.232
1368 0 279.773 14.619 4090 103.915 468.967 393.851
1369 1 219.553 12.448 2733 102.865 468.782 425.447
1370 0 225.54 13.2704 2993 102.849 468.657 418.081
1371 0 231.428 12.8247 2968 104.401 468.767 412.353
1372 0 237.334 12.9901 3083 106.03 468.79 407.486
1373 0 237.329 12.9651 3077 166.239 468.786 407.475
1374 1 63.1431 6.49319 410 94.561 470.439 503.183
1375 0 63.1325 8.12577 513 93.5634 469.593 500.019
1376 0 62.0692 9.4733 588 91.2483 469.765 497.328
1377 0 64.1217 9.85626 632 84.8465 469.321 498.973
1378 0 62.1726 10.1652 632 87.5791 469.79 497.12
1379 0 64.1682 10.94 702 82.4715 469.521 498.742
1380 0 67.0649 11.1534 748 88.1671 470.114 503.718
1381 0 65.057 10.9904 715 92.9888 469.706 502.22
1382 0 65.0626 11.2814 734 93.0954 469.811 503.792
1383 0 67.0442 11.306 758 93.066 468.517 501.394
1384 0 70.1007 10.3423 725 91.1145 469.852 502.254
1385 0 71.0691 10.3421 735 88.117 469.506 503.156
1386 0 75.0673 10.8836 817 84.508 469.49 502.421
1387 0 77.1342 11.2013 864 81.7627 469.839 500.627
1388 0 80.0494 10.6809 855 81.0222 468.954 498.856
1389 0 82.0528 10.2373 840 81.1988 468.383 496.674
1390 0 84.0975 10.0598 846 80.9492 468.33 496.434
1391 0 88.117 10.2704 905 80.5215 468.725 496.018
1392 0 88.3198 10.3148 911 83.404 468.87 492.481
1393 0 92.2367 10.4405 963 85.2897 469.205 488.215
1394 1 50.0202 10.2359 512 86.7051 471.361 507.857
1395 0 46.0606 9.24868 426 88.1268 470.995 503.819
1396 0 52.0361 10.4735 545 91.3028 470.084 508.017
1397 0 53.0508 11.2911 599 90.8765 470.861 507.771
1398 0 57.0626 11.9167 680 89.2324 470.609 507.938
1399 0 57.0458 11.1665 637 92.6217 469.978 505.708
1400 0 63.108 12.5024 789 87.749 470.548 506.032
1401 0 64.096 12.6217 809 90.3412 471.01 506.096
1402 0 65.0758 13.369 870 90.2701 470.79 504.571
1403 0 66.1029 12.5713 831 92.5403 470.491 505.575
1404 0 68.0669 12.6346 860 92.4919 470.277 504.53
1405 0 69.1435 13.0309 901 93.1421 470.716 502.899
1406 0 69.0995 13.0681 903 94.6955 470.495 501.681
1407 0 69.0855 13.4182 927 96.8123 470.207 502.385
1408 0 71.1632 13.3215 948 94.7384 470.269 501.81
1409 0 73.1206 13.6624 999 93.4555 470.73 500.043
1410 0 75.1794 13.3414 1003 94.1884 470.167 498.884
1411 0 76.1235 13.5044 1028 93.8638 469.92 498.533
1412 0 77.1588 13.7638 1062 94.3296 469.686 496.914
1413 0 79.2384 13.7686 1091 93.879 469.8 496.323
1414 0 82.1739 12.9725 1066 96.0882 469.553 496.665
1415 0 85.1851 12.9952 1107 95.6269 469.959 495.516
1416 0 87.1708 12.791 1115 95.9731 469.786 495.221
1417 0 89.1768 12.6042 1124 96.2891 469.753 495.781
1418 0 91.1898 12.5124 1141 97.7362 469.883 493.366
1419 0 92.2069 13.1769 1215 96.7045 469.881 492.165
1420 1 50.048 11.1893 560 99.7536 471.575 511.716
1421 0 52.1012 10.8635 566 100.869 471.226 509.823
1422 0 54.0902 11.0186 596 100.086 471.032 509.468
1423 0 53.0949 11.7149 622 96.537 470.28 505.153
1424 0 53.111 11.4477 608 94.9145 470.192 502.191
1425 0 56.0865 11.5892 650 91.5908 469.283 501.563
1426 0 57.1663 10.898 623 92.9551 469.35 500.592
1427 0 57.1908 10.9633 627 92.8708 469.244 499.405
1428 0 57.1908 10.9808 628 132.277 468.239 499.28
1429 0 62.0848 11.7742 731 89.736 469.609 496.766
1430 0 64.2763 11.8395 761 91.9448 470.247 496.975
1431 0 64.2451 12.3901 796 92.7839 470.373 496.76
1432 0 66.2425 12.3033 815 92.6196 471.497 500.948
1433 0 68.1932 12.274 837 92.7742 470.751 499.913
1434 0 71.1648 13.0402 928 90.2629 471.189 498.244
1435 0 72.2572 12.497 903 92.3355 470.557 496.234
1436 0 74.2105 12.4645 925 91.227 471.775 493.956
1437 0 76.1729 13.3118 1014 88.5927 470.686 494.088
1438 0 78.175 12.5743 983 89.3184 471.677 490.709
1439 0 80.1454 12.6146 1011 88.5539 471.389 490.419
1440 0 82.1647 12.6332 1038 88.4451 471.534 489.819
1441 0 85.2089 12.1349 1034 89.4961 471.356 488.059
1442 0 85.185 12.1031 1031 89.8671 471.572 485.174
1443 0 89.263 11.9983 1071 89.7638 471.28 483.308
1444 0 89.1542 12.1363 1082 89.951 470.98 482.114
1445 1 48.0248 10.4529 502 90.749 471.09 501.829
1446 0 49.1683 11.2064 551 88.6588 470.604 500.425
1447 0 52.1654 10.9076 569 85.3919 471.221 498.253
1448 0 55.1224 10.7942 595 84.2672 470.933 497.055
1449 0 56.1645 11.7156 658 83.7432 471.372 497.646
1450 0 60.2267 12.6854 764 84.1427 471.647 501.348
1451 0 62.1746 12.5936 783 85.1826 471.169 500.727
1452 0 62.1648 11.9682 744 86.9919 471.973 497.569
1453 0 65.1514 12.2637 799 85.6395 472.061 498.836
1454 0 67.198 11.9349 802 86.4938 471.15 497.039
1455 0 70.1075 12.7376 893 84.673 471.032 497.614
1456 0 72.2259 12.4609 900 84.9467 471.094 497.183
1457 0 73.1102 12.9257 945 85.1926 471.014 495.568
1458 0 75.1364 12.7635 959 86.5589 470.441 494.411
1459 0 80.1744 12.7971 1026 84.8431 471.178 494.865
1460 0 82.1122 13.3232 1094 84.5859 470.913 493.517
1461 0 85.1831 12.8312 1093 85.8344 471.065 491.63
1462 0 86.1644 13.4162 1156 84.1038 471.076 490.119
1463 0 88.2269 13.3066 1174 85.3867 470.583 488.175
1464 0 92.1893 13.3855 1234 85.4417 470.981 486.846
1465 0 92.2159 12.7635 1177 87.8734 470.387 484.272
1466 0 94.234 12.5751 1185 88.7367 469.45 482.043
1467 0 98.115 12.4038 1217 87.4823 470.028 481.226
1468 0 101.199 12.8163 1297 86.7911 470.685 480.598
1469 1 53.0661 10.2891 546 82.7985 470.667 499.073
1470 0 58.0436 11.8187 686 87.4446 471.42 500.491
1471 0 58.0563 11.1788 649 81.2928 469.501 497.21
1472 0 56.0577 11.5952 650 125.812 468.495 496.98
1473 0 63.0271 12.3122 776 77.875 469.331 498.129
1474 0 65.0919 11.8294 770 79.8416 469.297 497.058
1475 0 67.0228 12.7121 852 78.2793 469.363 495.506
1476 0 69.034 12.7618 881 78.706 469.126 493.729
1477 0 73.1226 13.0603 955 77.6764 469.607 493.963
1478 0 74.0995 13.077 969 79.2023 469.417 493.361
1479 0 76.2165 12.5563 957 81.466 469.688 490.952
1480 0 77.2005 13.3937 1034 81.0416 469.526 490.509
1481 0 79.081 12.4682 986 83.929 469.506 488.721
1482 0 82.219 12.9289 1063 84.191 469.51 486.651
1483 0 83.1791 13.1764 1096 84.917 469.837 486.731
1484 0 87.1014 13.1456 1145 85.9555 469.962 486.241
1485 0 90.1478 13.4668 1214 86.2661 469.407 483.227
1486 0 92.2216 13.4676 1242 87.2673 469.498 481.434
1487 0 94.1603 13.6894 1289 88.4694 469.66 481.983
1488 0 96.0816 13.322 1280 90.9641 469.589 481.168
1489 0 101.124 13.9235 1408 91.1598 470.933 479.683
1490 0 105.089 13.5029 1419 93.6794 470.373 478.163
1491 0 109.15 13.3486 1457 94.7721 470.947 477.286
1492 1 63.1047 12.8041 808 101.23 471.333 501.439
1493 0 64.1043 12.8073 821 102.398 470.29 501.519
1494 0 67.1937 13.3792 899 100.99 470.802 497.864
1495 0 69.2309 13.8811 961 99.3049 470.322 496.834
1496 0 70.2168 13.7574 966 98.9079 471.223 496.476
1497 0 75.0712 13.9201 1045 96.4115 471.587 496.7
1498 0 76.0871 14.076 1071 94.6872 471.195 495.558
1499 0 79.1633 13.8195 1094 93.3391 471.057 493.458
1500 0 82.0394 13.1766 1081 90.6161 470.475 490.695
1501 0 83.049 13.6907 1137 89.6667 470.29 489.287
1502 0 86.1784 13.5649 1169 90.9264 469.899 486.829
1503 0 88.2042 13.3894 1181 90.5478 470.737 485.644
1504 0 91.1186 13.4111 1222 91.3985 469.752 484.574
1505 0 96.0839 13.2072 1269 91.0205 470.128 484.156
1506 0 99.1112 13.4798 1336 89.7822 469.871 483.463
1507 0 99.0497 13.7709 1364 91.6584 469.443 481.92
1508 0 102.074 13.5293 1381 92.0644 468.979 481.427
1509 0 105.108 13.1198 1379 93.6534 469.558 478.966
1510 0 108.1 12.9787 1403 97.1889 469.83 477.758
1511 0 110.139 13.0834 1441 97.0028 470.233 475.3
1512 0 116.129 13.287 1543 94.2165 470.056 474.115
1513 1 63.0265 11.3286 714 94.0168 469.535 499.878
1514 0 64.0702 11.6123 744 91.5309 469.762 498.552
1515 0 67.0652 12.376 830 89.2277 469.704 497.882
1516 0 68.0383 11.9932 816 88.9902 469.991 496.381
1517 0 71.0443 12.9074 917 87.4787 469.821 495.178
1518 0 75.0632 12.5761 944 87.9237 470.189 494.191
1519 0 76.072 13.2112 1005 86.1284 470.244 493.97
1520 0 78.0296 12.5337 978 87.273 469.955 490.74
1521 0 81.0547 13.1886 1069 85.6791 469.433 491.178
1522 0 84.0593 12.9908 1092 84.9863 470.019 489.157
1523 0 86.1916 12.5534 1082 86.0933 469.869 487.267
1524 0 88.0932 12.7592 1124 85.8754 469.286 485.201
1525 0 92.0982 12.3129 1134 86.7928 469.853 483.205
1526 0 95.0653 12.8017 1217 85.3993 469.868 483.33
1527 0 97.1034 12.5742 1221 85.647 470.346 480.066
1528 0 100.102 12.9968 1301 84.4289 470.673 478.244
1529 0 102.116 12.5641 1283 86.3539 470.445 479.264
1530 0 106.133 12.767 1355 85.3137 470.427 477.175
1531 0 110.049 12.867 1416 87.1794 469.801 475.183
1532 0 115.096 13.3889 1541 86.8774 470.571 473.534
1533 0 119.118 13.3397 1589 86.8974 470.104 471.993
1534 1 65.1103 10.5513 687 88.7467 471.118 495.767
1535 0 70.095 11.6413 816 85.7623 471.169 496.085
1536 0 71.2042 11.3898 811 86.4131 472.223 493.344
1537 0 74.101 11.7407 870 88.0839 471.289 491.884
1538 0 78.0297 13.0591 1019 86.8597 469.963 492.15
1539 0 80.0562 13.3656 1070 89.5121 470.115 492.815
1540 0 82.0972 13.0821 1074 91.5512 470.094 488.909
1541 0 84.0554 13.5268 1137 90.6737 470.198 489.179
1542 0 86.1094 13.7383 1183 90.7354 470.025 488.244
1543 0 87.0836 13.1598 1146 93.0777 470.225 485.139
1544 0 93.0593 12.6693 1179 93.6514 469.605 483.558
1545 0 94.0564 13.2474 1246 92.5345 469.213 482.766
1546 0 98.1085 13.5156 1326 92.7851 469.326 481.194
1547 0 102.061 13.7467 1403 92.1283 470.014 480.276
1548 0 102.156 12.6375 1291 97.4438 469.728 478.901
1549 0 105.137 12.8879 1355 96.9196 470.596 477.97
1550 0 109.181 12.8319 1401 96.6317 470.143 475.288
1551 0 111.126 12.7783 1420 97.6063 470.409 474.227
1552 0 113.16 12.0979 1369 97.3061 470.366 472.305
1553 0 117.229 11.4136 1338 91.2833 469.796 471.263
1554 0 122.245 12.0577 1474 91.6777 470.41 466.836
1555 0 124.161 11.6703 1449 94.1449 469.813 464.6
1556 0 131.208 12.4763 1637 91.8607 470.34 463.38
1557 0 135.277 12.3377 1669 93.3487 470.37 462.816
1558 0 137.237 12.1032 1661 96.7345 470.498 458.712
1559 1 75.2074 11.1425 838 94.1348 470.175 490.92
1560 0 78.1363 12.2094 954 94.913 470.805 488.004
1561 0 80.1948 12.8811 1033 93.5973 470.624 488.22
1562 0 83.0263 11.4542 951 89.1598 470.103 491.507
1563 0 84.0657 11.6932 983 89.763 470.097 489.944
1564 0 87.0586 11.9115 1037 89.296 469.821 487.632
1565 0 90.1418 11.8036 1064 90.2331 470.116 485.049
1566 0 94.1354 12.6945 1195 88.7105 469.623 483.957
1567 0 97.0552 12.6526 1228 90.6783 469.561 480.716
1568 0 98.1363 12.4113 1218 94.408 470.232 480.489
1569 0 103.118 12.956 1336 89.7837 470.145 479.016
1570 0 106.058 12.8137 1359 92.4467 469.796 477.473
1571 0 106.086 12.3014 1305 94.6843 469.956 475.887
1572 0 111.115 12.6716 1408 93.1825 470.388 474.835
1573 0 113.138 12.171 1377 95.0719 469.718 474.958
1574 0 118.11 12.3783 1462 95.4501 469.72 472.453
1575 0 120.094 12.0739 1450 96.9221 470.203 469.165
1576 0 123.099 12.7215 1566 95.3621 470.307 467.295
1577 0 128.094 12.6704 1623 95.2532 470.264 465.68
1578 0 132.102 12.8689 1700 94.9876 470.069 463.783
1579 0 135.162 12.8734 1740 97.1282 469.595 460.678
1580 0 141.215 13.653 1928 92.6525 470.06 457.987
1581 0 145.202 13.2712 1927 94.0514 470.368 455.728
1582 0 150.223 13.3734 2009 95.9273 469.622 453.376
1583 0 153.3 13.0398 1999 97.4867 469.912 448.674
1584 1 84.1658 10.7051 901 92.8679 470.489 486.68
1585 0 87.1747 11.6548 1016 92.7992 471.089 486.653
1586 0 88.2124 12.0391 1062 91.919 470.243 485.069
1587 0 93.1052 12.5664 1170 90.8504 470.032 486.137
1588 0 97.117 12.7063 1234 89.3071 469.712 482.239
1589 0 99.091 12.6348 1252 90.0288 469.812 481.338
1590 0 102.172 12.2833 1255 91.1665 470.329 480.892
1591 0 104.063 12.8577 1338 90.0157 469.815 477.709
1592 0 107.108 12.7348 1364 90.1298 469.655 477.819
1593 0 111.111 12.7261 1414 90.6238 469.651 475.564
1594 0 111.077 12.937 1437 91.2547 469.823 472.862
1595 0 114.106 12.8477 1466 92.3022 469.984 471.806
1596 0 117.081 12.8543 1505 92.0618 469.732 469.991
1597 0 122.113 13.0371 1592 92.5785 469.253 466.491
1598 0 124.139 12.9451 1607 96.0765 470.936 465.912
1599 0 129.119 12.7169 1642 94.7509 469.743 463.352
1600 0 134.179 12.066 1619 95.9475 470.214 458.836
1601 0 138.264 12.6063 1743 94.2467 470.277 455.956
1602 1 75.2332 11.3514 854 90.5246 471.007 487.066
1603 0 78.1698 11.0657 865 92.3191 471.114 487.254
1604 0 81.1029 11.7135 950 90.7926 469.286 486.685
1605 0 84.0903 12.4271 1045 89.49 469.48 485.414
1606 0 85.055 12.5096 1064 88.625 469.609 483.729
1607 0 92.0416 13.3961 1233 84.5523 469.264 482.096
1608 0 95.0284 13.6906 1301 84.6226 469.177 480.859
1609 0 96.0436 13.9104 1336 85.268 469.007 480.338
1610 0 99.0523 13.2859 1316 87.8062 469.339 478.521
1611 0 101.104 13.4218 1357 88.157 469.654 475.592
1612 0 105.048 13.4319 1411 89.1347 469.447 476.101
1613 0 107.14 13.7017 1468 89.2452 469.69 471.305
1614 0 111.16 13.7999 1534 88.9492 469.055 469.832
1615 0 113.093 14.0681 1591 90.6964 469.668 469.838
1616 0 116.142 13.3629 1552 90.4613 470.091 469.653
1617 0 121.135 13.3487 1617 90.3995 469.433 466.916
1618 0 123.076 13.1219 1615 87.4272 470.024 464.223
1619 0 126.186 12.2834 1550 86.891 470.849 461.607
1620 0 128.089 12.1166 1552 86.5135 469.62 457.14
1621 0 133.089 12.3452 1643 85.3981 468.954 459.682
1622 0 137.137 11.9005 1632 87.223 469.144 456.43
1623 0 143.13 13.093 1874 87.4157 468.408 454.62
1624 0 148.101 12.2957 1821 90.2356 468.994 452.758
1625 0 151.075 12.4375 1879 90.9776 469.205 447.938
1626 0 158.104 12.5866 1990 88.7286 468.646 448.805
1627 1 91.0778 10.1342 923 84.3879 469.095 483.259
1628 0 96.0816 12.1876 1171 79.7225 469.152 481.863
1629 0 96.1187 11.1633 1073 83.2507 468.899 479.419
1630 0 100.135 12.0038 1202 82.8968 468.446 477.482
1631 0 102.212 11.4761 1173 84.1671 468.844 476.96
1632 0 105.144 11.6507 1225 83.7624 468.943 474.766
1633 0 109.137 11.2977 1233 83.8832 468.749 474.094
1634 0 113.08 12.0888 1367 82.008 468.611 471.175
1635 0 115.077 11.9833 1379 82.4155 468.321 468.616
1636 0 119.079 12.6555 1507 81.0836 468.617 465.686
1637 0 123.102 12.8512 1582 80.5221 468.987 466.641
1638 0 126.171 11.3021 1426 84.0996 468.054 463.576
1639 0 130.187 11.8829 1547 83.32 468.924 460.872
1640 0 135.113 12.434 1680 82.5786 469.073 460.349
1641 0 140.114 12.1686 1705 82.7871 468.204 457.04
1642 0 144.108 12.1368 1749 88.2401 468.529 456.447
1643 0 148.089 12.3304 1826 88.6019 468.081 454.332
1644 0 153.185 12.1095 1855 90.7693 468.562 452.177
1645 0 158.131 11.794 1865 90.6086 468.096 447.808
1646 0 163.175 12.1955 1990 89.5382 468.017 446.056
1647 0 168.188 11.9985 2018 88.9068 468.222 446.045
1648 0 173.15 11.7297 2031 88.193 468.402 442.799
1649 0 180.179 11.8937 2143 87.4652 467.91 440.601
1650 0 184.411 11.5774 2135 89.3279 468.91 434.241
1651 0 189.285 12.1087 2292 89.0881 469.243 430.979
1652 0 195.421 11.7081 2288 90.5616 469.039 424.947
1653 0 201.338 12.3275 2482 88.9851 468.825 423.84
1654 0 206.36 11.9839 2473 89.873 468.739 422.213
1655 0 213.392 12.4653 2660 88.9752 469.108 419.095
1656 0 218.389 12.3175 2690 89.5851 468.796 412.97
1657 0 225.287 11.8871 2678 88.9152 468.765 413.319
1658 0 231.332 12.1989 2822 88.3164 468.497 408.517
1659 0 238.397 11.699 2789 89.4217 468.85 404.775
1660 0 244.284 12.4445 3040 87.4151 468.698 395.529
1661 1 55.0208 9.3601 515 70.8874 472.016 497.423
1662 0 54.2068 10.1094 548 72.6095 471.354 499.544
1663 0 58.2944 10.224 596 67.7668 470.753 498.591
1664 0 60.1922 10.3169 621 66.475 470.874 498.491
1665 0 61.213 10.3246 632 67.2595 470.573 496.5
1666 0 63.2546 10.8134 684 66.6886 470.877 496.231
1667 0 64.2356 11.3333 728 67.8407 470.762 495.305
1668 0 67.1463 10.4399 701 66.7061 470.621 494.394
1669 0 71.2912 11.9931 855 63.0515 471.124 495.241
1670 0 71.1964 10.8433 772 64.9961 470.263 492.408
1671 0 74.2417 11.2066 832 66.0349 470.679 493.603
1672 0 74.2851 10.7424 798 65.8434 470.335 490.266
1673 0 76.2723 11.3934 869 64.9252 469.618 488.464
1674 0 77.2625 10.2767 794 67.3879 469.505 489.906
1675 0 79.1921 11.289 894 68.5548 470.158 488.562
1676 0 84.219 11.0189 928 68.4903 470.428 488.068
1677 0 84.2292 11.4331 963 70.7799 469.558 487.518
1678 0 84.2292 11.5281 971 123.349 469.54 487.354
1679 0 90.2748 11.7308 1059 73.5543 469.974 485.208
1680 0 91.1903 10.7358 979 76.8897 469.8 483.622
1681 0 93.31 11.2421 1049 72.184 469.474 482.789
1682 0 96.1248 11.1418 1071 74.3585 470.758 482.527
1683 0 99.2033 11.552 1146 74.3421 470.292 479.56
1684 0 102.253 10.787 1103 76.1677 470.673 478.152
1685 0 102.322 11.3074 1157 72.1538 469.532 475.548
1686 0 104.338 10.9739 1145 74.4323 469.281 473.935
1687 0 105.321 10.786 1136 78.2245 470.238 474.188
1688 1 115.297 12.8451 1481 70.7616 469.474 476.417
1689 0 118.33 12.4905 1478 72.0981 469.94 475.242
1690 0 120.19 12.5384 1507 73.6211 469.575 473.699
1691 0 123.262 12.1368 1496 75.4552 470.072 469.155
1692 0 128.241 12.9444 1660 73.9855 470.272 467.049
1693 0 130.31 12.125 1580 80.05 469.718 463.085
1694 1 57.1607 11.5814 662 76.6964 471.106 499.556
1695 0 55.0916 10.9454 603 76.2703 470.912 492.74
1696 0 55.0916 10.8909 600 136.748 469.938 492.543
1697 0 63.081 12.2382 772 77.7461 471.57 497.585
1698 0 64.0481 13.0215 834 76.3022 471.823 496.655
1699 0 65.054 12.5895 819 77.2137 471.6 495.416
1700 0 68.2199 13.2952 907 73.9713 471.384 497.659
1701 0 68.2676 11.9676 817 75.4296 471.013 496.2
1702 0 70.2044 12.2072 857 75.7386 470.944 495.634
1703 0 71.16 12.0995 861 76.3403 470.525 496.156
1704 0 70.1375 12.0763 847 77.9386 470.823 494.904
1705 0 74.1808 12.1595 902 77.8525 471.257 492.825
1706 0 77.2565 12.5426 969 77.3664 470.915 492.432
1707 0 79.1502 12.4068 982 76.5886 470.577 491.973
1708 0 81.2249 12.2007 991 77.8325 471.147 490.352
1709 0 83.2132 12.6062 1049 77.4824 470.973 489.869
1710 0 84.2739 12.756 1075 77.36 470.815 487.819
1711 0 86.2304 11.7708 1015 79.5409 471.029 487.227
1712 0 88.2291 12.9549 1143 77.7577 471.042 486.597
1713 0 90.2891 12.46 1125 79.5049 470.72 484.969
1714 0 90.2129 12.0936 1091 80.7782 471.015 485.177
1715 0 92.2914 12.1897 1125 80.872 470.751 481.463
1716 0 95.1459 11.866 1129 80.1966 470.887 482.335
1717 0 99.2364 12.3443 1225 79.0261 470.275 478.907
1718 0 102.192 12.5059 1278 78.7621 470.182 478.087
1719 0 103.175 12.0474 1243 79.7635 470.566 473.604
1720 0 105.14 12.5737 1322 78.938 470.652 473.727
1721 0 108.167 11.7411 1270 79.7079 471.057 472.62
1722 0 111.176 12.8265 1426 77.7903 470.466 469.275
1723 0 113.135 11.6851 1322 80.118 470.841 467.005
1724 0 117.166 12.2987 1441 77.9514 470.013 467.121
1725 0 118.119 11.9795 1415 79.3901 470.078 463.29
1726 0 126.133 13.454 1697 75.2222 470.628 463.303
1727 0 126.098 13.2357 1669 75.9125 470.25 461.283
1728 0 132.208 13.3653 1767 75.2915 470.273 460.12
1729 0 134.168 13.8409 1857 74.762 470.424 460.377
1730 0 140.172 14.3253 2008 74.5533 470.157 449.556
1731 0 139.166 12.2444 1704 79.3333 470.224 447.292
1732 0 148.305 13.7959 2046 75.2454 470.718 446.126
1733 0 149.195 12.8288 1914 77.5125 470.452 446.202
1734 0 153.201 12.526 1919 77.433 470.022 444.488
1735 0 157.138 13.2177 2077 76.6192 469.99 442.065
1736 0 162.165 13.1224 2128 78.2143 469.904 432.637
1737 0 169.161 14.2409 2409 74.6359 469.476 434.351
1738 0 171.164 13.2446 2267 79.2669 470.131 431.037
1739 0 177.151 13.6268 2414 78.7887 469.773 430.168
1740 0 180.244 12.8492 2316 80.6002 470.002 426.624
1741 0 181.25 11.9503 2166 81.9561 469.819 425.217
1742 1 196.196 13.3642 2622 78.2063 469.636 425.325
1743 0 203.312 14.1408 2875 77.4977 469.562 421.03
1744 0 211.21 14.5543 3074 76.0654 468.972 415.061
1745 1 154.281 12.7689 1970 82.0046 469.627 442.773
1746 0 160.191 13.8647 2221 79.403 469.572 440.89
1747 0 165.159 13.593 2245 79.1216 469.525 435.967
1748 0 168.175 13.2898 2235 79.7266 468.974 434.077
1749 0 173.171 13.5184 2341 78.8757 468.81 429.838
1750 0 181.237 14.092 2554 77.5979 468.921 428.488
1751 0 188.149 13.856 2607 78.7917 469.058 426.988
1752 0 194.261 14.393 2796 78.7443 468.802 425.538
1753 0 198.268 13.8096 2738 81.4547 468.732 420.711
1754 0 207.259 14.354 2975 80.8387 468.871 419.073
1755 0 208.207 13.4481 2800 83.6311 469.029 415.075
1756 0 220.272 14.4049 3173 81.6581 469.251 413.981
1757 0 228.251 14.1905 3239 83.891 468.824 409.143
1758 0 236.364 14.5538 3440 83.2398 468.763 405.037
1759 0 242.338 14.9213 3616 82.8092 469.408 401.761
1760 0 249.28 14.213 3543 85.0175 469.549 399.214
1761 1 61.1347 10.8285 662 67.3731 469.882 497.677
1762 0 62.1168 11.1564 693 68.8817 469.618 495.978
1763 0 65.1974 11.7029 763 69.7864 470.455 496.602
1764 0 69.2457 12.073 836 77.0861 470.871 494.768
1765 0 72.1467 11.7261 846 77.1596 470.891 492.378
1766 0 75.2811 11.9419 899 75.6585 471.036 492.747
1767 0 77.2499 11.4175 882 76.0998 470.715 491.057
1768 0 78.3292 11.9368 935 75.4995 470.671 489.827
1769 0 81.2698 11.874 965 75.9544 470.686 488.936
1770 0 81.0734 11.5698 938 77.3817 471.043 487.365
1771 0 84.1408 11.5283 970 76.5144 470.842 487.222
1772 0 87.0674 12.1745 1060 76.083 470.999 484.986
1773 0 88.1692 11.0016 970 78.701 471.673 482.008
1774 0 93.0571 11.5843 1078 77.7412 470.538 480.488
1775 0 94.1346 11.6748 1099 78.0127 470.662 480.387
1776 0 96.1806 11.1977 1077 79.299 470.225 479.275
1777 0 100.23 11.2043 1123 79.5859 469.589 478.606
1778 0 104.204 11.3335 1181 79.1533 469.511 476.236
1779 0 105.327 10.8994 1148 80.5462 470.704 472.524
1780 1 59.1892 9.69772 574 77.0017 470.925 497.507
1781 0 62.1525 10.6512 662 76.3852 470.446 496.56
1782 0 65.1335 11.9908 781 74.4443 470.282 494.871
1783 0 66.1099 11.5565 764 77.1976 470.491 494.971
1784 0 65.0616 11.2509 732 79.1175 470.665 495.574
1785 0 70.1252 11.7789 826 77.8402 472.584 495.361
1786 0 75.2169 12.3244 927 75.5297 471.998 496.122
1787 0 76.1527 12.2254 931 77.1493 471.54 495.046
1788 0 77.225 12.5737 971 77.0484 472.018 495.422
1789 0 79.2316 12.5581 995 76.599 471.83 494.734
1790 0 84.2185 12.4319 1047 76.5444 471.043 492.775
1791 0 86.1981 12.0536 1039 77.2589 471.765 490.938
1792 0 88.4204 11.9543 1057 78.0757 471.226 490.783
1793 0 91.2965 11.8515 1082 79.3549 471.055 489.492
1794 0 94.202 12.3883 1167 78.2939 470.891 488.067
1795 0 96.1903 12.5065 1203 79.5328 470.716 485.712
1796 0 96.1851 12.372 1190 82.163 470.85 485.351
1797 0 102.175 12.185 1245 78.9896 469.72 479.769
1798 1 56.1116 11.5841 650 76.5585 470.288 501.842
1799 0 60.1371 10.9583 659 76.3399 469.15 500.807
1800 0 61.0815 11.8366 723 79.7441 468.965 500.787
1801 0 62.0834 11.1946 695 78.5856 469.44 500.423
1802 0 64.2429 11.223 721 85.147 470.39 502.252
1803 0 66.1789 11.6502 771 84.3372 469.944 499.307
1804 0 69.2954 12.4395 862 81.9733 469.941 500.838
1805 0 72.2417 12.8873 931 81.9173 470.157 498.222
1806 0 73.246 13.5707 994 82.0805 470.861 496.353
1807 0 73.2054 12.9635 949 84.7671 470.506 495.444
1808 0 75.1381 12.5502 943 84.8823 470.075 495.797
1809 0 77.1694 12.9067 996 84.3795 470.672 491.638
1810 0 79.2577 12.8063 1015 83.9488 470.464 492.097
1811 0 80.1857 13.1196 1052 83.5932 470.392 489.612
1812 0 83.1818 12.659 1053 83.868 470.178 486.661
1813 0 85.1957 12.9467 1103 83.1614 470.447 484.956
1814 0 86.1341 12.5734 1083 83.9529 470.238 483.315
1815 0 88.1689 12.6122 1112 82.7482 470.136 481.961
1816 0 90.1739 12.8751 1161 82.1998 470.058 480.456
1817 0 92.1944 12.6906 1170 83.1017 469.942 477.231
1818 0 96.2642 12.7254 1225 82.8678 470.244 477.804
1819 0 98.1938 12.5874 1236 82.8584 470.067 475.105
1820 0 100.238 13.049 1308 81.8073 469.349 474.612
1821 0 101.245 12.9884 1315 82.7574 469.465 471.323
1822 0 104.264 12.4492 1298 84.2504 468.994 469.653
1823 0 107.166 12.7186 1363 83.3573 469.313 467.313
1824 0 111.222 11.8862 1322 84.3971 469.647 466.539
1825 0 116.312 13.1628 1531 81.7786 469.419 465.081
1826 0 120.335 13.2131 1590 80.6327 469.182 462.477
1827 0 123.33 12.5679 1550 82.2077 469.497 461.401
1828 0 125.279 12.3884 1552 83.3383 469.436 459.059
1829 0 132.343 12.8 1694 82.6824 469.262 457.248
1830 0 135.327 12.5031 1692 83.8517 469.866 454.479
1831 0 140.387 12.7932 1796 83.7734 469.253 453.972
1832 0 146.513 13.2138 1936 84.5723 469.429 450.657
1833 0 150.439 13.2745 1997 86.2669 469.002 444.525
1834 0 155.562 13.1909 2052 88.1589 469.368 442.38
1835 0 159.654 12.928 2064 89.6129 469.611 439.678
1836 0 165.63 13.4215 2223 88.9735 469.3 436.653
1837 0 171.384 13.1634 2256 92.7881 468.999 433.378
1838 0 177.432 13.4869 2393 92.0138 469.491 431.602
1839 0 181.415 13.4168 2434 93.645 469.193 425.03
1840 0 184.376 13.1254 2420 95.3554 469.687 426.156
1841 0 191.405 13.3435 2554 95.8027 469.513 422.242
1842 0 197.265 13.5959 2682 94.7498 469.469 418.698
1843 0 200.275 13.3966 2683 93.874 468.97 413.618
1844 0 209.255 14.0785 2946 91.5777 469.376 412.743
1845 0 219.264 13.7414 3013 92.7371 468.998 409.706
1846 0 224.361 13.3847 3003 93.3999 469.333 403.831
1847 1 46.1462 11.3552 524 74.1889 470.252 500.218
1848 0 47.0936 10.9569 516 75.0543 469.75 499.537
1849 0 48.0222 10.9741 527 74.8786 470.92 498.114
1850 0 50.064 11.4054 571 78.2224 472.708 497.96
1851 0 50.0534 11.4678 574 79.2997 472.111 497.171
1852 0 54.0385 11.8619 641 78.0671 472.037 494.973
1853 0 55.0313 11.8478 652 77.8558 472.11 495.73
1854 0 58.0243 12.1673 706 77.296 471.718 493.969
1855 0 61.0606 12.0045 733 77.2115 472.072 493.506
1856 0 62.0345 12.6381 784 76.5523 471.864 493.202
1857 0 63.0268 11.8204 745 77.4255 471.882 491.385
1858 0 65.0721 12.0021 781 77.5403 471.626 489.47
1859 0 66.156 11.6694 772 79.2889 469.486 489.234
1860 0 67.1601 11.6885 785 79.6752 470.027 487.794
1861 0 71.1256 12.6818 902 76.6785 469.961 486.473
1862 0 73.0967 12.2714 897 77.9688 469.602 485.779
1863 0 76.1358 12.7798 973 76.7544 470.028 486.195
1864 0 77.1454 12.457 961 77.0354 469.576 482.944
1865 0 80.0833 12.05 965 77.5451 469.926 481.212
1866 0 79.1004 11.3527 898 78.98 469.599 482.753
1867 0 83.0462 11.885 987 74.6383 470.236 481.979
1868 0 85.0851 11.7177 997 76.6941 470.353 478.674
1869 0 88.1623 11.32 998 75.2745 470.878 481.269
1870 0 90.0838 11.6225 1047 76.4623 470.297 477.025
1871 0 91.1088 10.8442 988 78.08 470.285 475.981
1872 0 95.1419 11.7088 1114 77.9057 470.355 474.11
1873 0 98.0927 12.111 1188 77.4209 470.996 471.22
1874 0 99.2171 10.9155 1083 80.1856 470.829 470.163
1875 0 103.159 11.4483 1181 79.1482 470.56 469.638
1876 0 104.127 10.199 1062 80.7222 471.046 468.613
1877 1 61.0287 11.6666 712 73.2247 469.402 491.524
1878 0 62.1087 10.5621 656 75.4604 470.323 491.738
1879 0 68.1051 13.1855 898 70.5312 470.431 491.835
1880 0 68.0979 12.1443 827 74.8597 470.079 491.005
1881 0 71.1434 13.1846 938 73.7388 469.519 488.787
1882 0 72.1011 12.4409 897 76.5574 470.101 488.423
1883 0 75.0748 12.7473 957 75.9436 470.828 488.775
1884 0 77.1936 13.2654 1024 76.0488 470.091 486.58
1885 0 77.1941 12.8119 989 78.1456 469.433 485.848
1886 0 81.2654 12.9822 1055 77.4777 469.769 484.664
1887 0 82.0993 13.4471 1104 77.6966 470.314 483.645
1888 0 86.1336 13.2933 1145 77.9537 470.348 484.715
1889 0 84.0842 13.2605 1115 80.8529 470.833 482.619
1890 0 87.1148 13.3732 1165 82.933 469.973 481.925
1891 0 89.0721 12.9895 1157 84.1409 470.375 480.453
1892 0 93.0995 13.2009 1229 85.2002 470.897 479.305
1893 0 95.1936 13.3097 1267 86.4641 470.484 478.239
1894 0 98.2926 13.7142 1348 86.0772 470.581 477.609
1895 0 99.088 13.5839 1346 87.6672 470.322 477.284
1896 0 102.077 13.196 1347 89.3712 470.076 474.891
1897 0 104.09 13.0176 1355 89.51 470.151 474.367
1898 0 109.117 14.2599 1556 86.919 469.871 474.866
1899 0 115.178 14.0478 1618 87.021 470.033 473.754
1900 0 114.113 13.583 1550 89.1871 469.721 472.271
1901 0 121.186 13.9372 1689 87.4896 469.96 470.658
1902 0 124.214 13.0179 1617 90.3816 469.994 467.568
1903 0 127.195 13.2709 1688 89.641 470.575 465.029
1904 0 134.091 13.6847 1835 88.3531 470.74 464.998
1905 1 71.1825 13.0931 932 83.2371 470.196 495.726
1906 0 73.2192 12.7972 937 85.5347 470.436 497.285
1907 0 73.1317 13.2227 967 84.8656 469.916 494.649
1908 0 77.1426 13.2482 1022 84.2123 470.159 492.005
1909 0 79.0921 14.4389 1142 82.9781 469.724 491.62
1910 0 81.1273 14.2369 1155 84.4753 470.076 490.4
1911 0 85.2411 13.9721 1191 86.6793 469.258 489.182
1912 0 87.2182 13.9764 1219 90.8064 469.554 487.246
1913 0 90.1667 14.2625 1286 90.6983 469.498 486.336
1914 0 92.1414 14.1305 1302 91.0737 469.907 485.456
1915 0 94.1698 14.0491 1323 91.39 469.45 484.1
1916 0 96.1578 14.2266 1368 89.9561 469.11 483.697
1917 0 99.1159 14.0139 1389 89.887 469.392 482.867
1918 0 99.1277 13.8306 1371 91.6375 469.217 480.723
1919 0 104.131 14.0111 1459 90.9335 469.106 479.378
1920 0 109.155 14.4565 1578 89.0665 469.246 477.318
1921 0 109.248 14.0414 1534 90.9263 469.003 474.012
1922 0 114.17 14.0667 1606 90.5467 469.083 473.237
1923 0 119.28 14.2606 1701 88.2093 468.722 472.143
1924 0 120.302 14.3971 1732 86.683 468.295 472.835
1925 0 125.161 14.2297 1781 88.9034 468.307 468.324
1926 0 131.204 14.7023 1929 87.7133 468.415 466.494
1927 0 135.183 14.8096 2002 89.6978 469.109 464.458
1928 0 138.275 14.9846 2072 90.0454 468.768 462.466
1929 0 144.397 14.841 2143 90.4125 468.76 460.686
1930 0 147.375 14.8601 2190 91.0301 468.565 458.613
1931 0 151.292 14.9512 2262 91.4717 467.716 457.012
1932 0 154.273 14.766 2278 92.669 468.196 452.894
1933 0 162.463 15.659 2544 90.8255 468.108 450.715
1934 0 165.298 15.7776 2608 91.0844 468.22 445.696
1935 0 169.426 15.2279 2580 92.6841 468.448 444.727
1936 0 175.559 14.8554 2608 94.4356 468.005 441.532
1937 0 178.522 14.8385 2649 93.7656 468.017 439.854
1938 0 183.403 14.7871 2712 93.2058 468.244 438.332
1939 0 190.486 14.5208 2766 92.7719 468.241 435.959
1940 0 200.407 15.2589 3058 91.4568 467.949 432.012
1941 0 205.478 15.0186 3086 93.5729 467.933 428.337
1942 0 214.548 15.0316 3225 94.2391 467.628 423.852
1943 0 223.524 15.3988 3442 93.706 467.732 420.858
1944 1 178.275 13.855 2470 97.4 467.718 445.257
1945 0 184.45 14.8658 2742 96.0106 468.115 443.439
1946 0 190.42 14.8987 2837 97.3719 468.225 439.074
1947 0 197.284 14.801 2920 99.5932 468.358 434.096
1948 0 204.455 14.6047 2986 101.572 468.431 429.217
1949 0 213.457 14.8742 3175 100.628 468.597 428.347
1950 0 220.377 14.9335 3291 101.279 467.957 423.272
1951 0 229.295 15.1421 3472 100.722 467.982 420.077
1952 0 235.242 14.9761 3523 101.517 468.243 416.037
1953 0 242.253 15.038 3643 101.082 468.2 412.59
1954 0 249.307 15.0818 3760 102.592 468.188 409.479
1955 0 257.448 14.9389 3846 103.418 467.331 405.204
1956 0 266.29 15.4981 4127 101.221 467.023 398.732
1957 0 274.289 15.3962 4223 102.484 467.71 396.124
1958 1 196.22 13.8977 2727 105.889 468.395 433.356
1959 1 61.0954 12.3086 752 99.0505 468.448 498.253
1960 0 64.0571 13.6597 875 99.7634 468.759 497.854
1961 0 67.0493 14.6012 979 97.7926 469.023 497.509
1962 0 70.262 14.5313 1021 99.4456 469.141 496.012
1963 0 70.1706 14.1085 990 101.197 469.076 494.036
1964 0 74.1721 13.9945 1038 100.683 469.72 493.659
1965 0 75.1879 14.0182 1054 98.6831 469.495 491.159
1966 0 79.1898 14.32 1134 99.5732 468.743 490.91
1967 0 80.1885 14.017 1124 102.3 469.038 489.658
1968 0 83.2721 14.3866 1198 103.284 469.013 490.877
1969 0 87.3149 14.6481 1279 103.035 468.866 489.554
1970 0 88.228 14.2132 1254 105.543 468.52 487.393
1971 0 92.0701 14.3804 1324 104.247 468.585 485.961
1972 0 96.1106 14.7018 1413 103.891 469.008 483.737
1973 0 98.0868 14.844 1456 103.159 468.737 484.053
1974 0 100.173 14.5748 1460 99.8514 468.828 483.073
1975 0 102.074 14.6364 1494 101.355 468.209 480.975
1976 0 104.077 14.4508 1504 101.672 468.249 478.239
1977 0 108.11 14.8738 1608 99.6648 468.317 478.134
1978 0 114.078 14.9196 1702 102.545 468.46 478.092
1979 0 116.123 15.0099 1743 103.216 468.316 474.286
1980 0 119.194 14.5393 1733 104.091 468.092 471.458
1981 0 124.1 14.6736 1821 102.934 467.496 470.23
1982 0 128.249 14.7994 1898 103.252 467.586 467.278
1983 0 133.23 15.1092 2013 101.234 468.023 465.549
1984 0 137.189 15.4458 2119 100.424 467.983 463.052
1985 0 142.224 15.0537 2141 100.459 467.265 461.867
1986 0 145.149 15.7837 2291 99.7285 467.344 459.352
1987 0 149.193 15.4096 2299 101.318 467.254 457.538
1988 0 152.136 15.4073 2344 101.809 467.877 456.332
1989 0 157.137 15.1523 2381 102.488 467.466 454.272
1990 0 161.172 14.9406 2408 102.649 467.139 451.045
1991 0 165.216 14.7746 2441 103.509 466.767 450.4
1992 0 173.26 15.6759 2716 100.556 467.31 446.948
1993 0 176.154 14.8904 2623 103.167 466.707 444.739
1994 0 182.178 15.0567 2743 102.574 467.181 442.468
1995 0 185.202 15.286 2831 103.186 467.556 441.125
1996 0 191.35 14.7008 2813 104.821 466.649 437.882
1997 0 198.154 14.519 2877 105.19 467.41 433.709
1998 0 206.242 15.0018 3094 103.462 467.519 429.378
1999 1 160.146 13.4689 2157 107.764 467.869 453.312
2000 0 166.16 14.1671 2354 107.319 466.924 447.206
2001 0 171.268 14.1533 2424 107.55 467.29 443.314
2002 0 178.249 14.5751 2598 107.332 466.811 439.379
2003 0 185.33 14.8923 2760 106.857 466.815 438.534
2004 0 191.314 15.0799 2885 107.244 466.686 434.879
2005 0 198.266 15.3178 3037 106.413 466.795 434.003
2006 0 204.367 14.978 3061 108.955 466.919 428.108
2007 0 210.217 14.7277 3096 110.755 466.462 424.321
2008 0 218.306 15.2951 3339 109.892 466.951 421.335
2009 0 226.312 14.8202 3354 112.249 466.247 419.91
2010 0 233.244 15.173 3539 112.291 466.394 415.228
2011 0 240.222 14.9528 3592 114.349 466.628 410.64
2012 0 247.205 15.3112 3785 115.408 466.497 405.857
2013 1 62.1548 10.8922 677 105.352 467.62 497.411
2014 0 63.1082 11.7259 740 102.742 467.453 495.058
2015 0 63.0646 11.8133 745 99.0658 467.983 495.205
2016 0 68.0352 12.8463 874 92.8387 467.681 496.479
2017 0 70.0708 12.9155 905 93.2177 468.271 494.502
2018 0 70.0385 12.436 871 95.5327 467.586 493.245
2019 0 75.1445 12.6556 951 93.4658 467.86 492.312
2020 0 77.0755 12.4034 956 94.2626 467.611 490.734
2021 0 80.0372 12.5442 1004 93.7201 467.343 490.15
2022 0 83.1069 13.4044 1114 92.4031 467.652 487.561
2023 0 86.0809 12.9762 1117 93.7305 467.554 485.975
2024 0 87.0945 12.584 1096 96.073 468.203 484.882
2025 0 91.0417 12.6975 1156 95.7872 468.083 483.247
2026 0 93.1056 11.8253 1101 98.257 468.422 480.874
2027 0 98.1222 13.0246 1278 95.2387 467.987 480.433
2028 0 100.128 13.3729 1339 99.3891 468.247 475.674
2029 0 102.128 12.9151 1319 100.947 468.282 475.418
2030 0 106.076 12.7173 1349 100.846 467.784 474.439
2031 0 110.151 12.5646 1384 99.8952 468.064 471.729
2032 0 113.086 12.15 1374 99.8792 467.472 468.745
2033 1 127.324 16.6269 2117 82.0458 467.95 458.042
2034 0 133.199 17.2149 2293 80.4675 468.129 456.601
2035 0 133.242 17.0517 2272 81.9173 467.929 453.651
2036 0 132.23 15.5789 2060 87.7437 467.789 454.518
2037 0 133.267 14.092 1878 93.5229 468.61 459.368
2038 0 136.19 12.5927 1715 97.3528 468.369 457.048
2039 0 140.21 12.7523 1788 97.5604 468 454.129
2040 0 147.205 12.9411 1905 95.5218 467.415 449.979
2041 0 156.197 15.9862 2497 86.3552 467.998 444.166
2042 1 87.1111 10.8253 943 90.2566 468.166 484.177
2043 0 90.1416 10.1285 913 90.2453 467.407 478.692
2044 0 93.0785 11.2593 1048 87.1746 466.855 481.336
2045 0 97.0412 11.7476 1140 86.1895 466.889 479.036
2046 0 102.17 12.2639 1253 84.0862 467.688 477.586
2047 0 105.09 12.161 1278 85.6721 467.585 475.786
2048 0 108.056 12.6046 1362 84.7651 467.651 476.115
2049 0 109.083 12.4951 1363 86.0257 467.794 473.658
2050 0 113.108 12.7135 1438 84.9951 467.85 473.354
2051 0 116.109 12.5658 1459 85.2721 467.466 471.844
2052 0 121.224 12.877 1561 83.5311 467.707 470.679
2053 0 123.11 12.9315 1592 84.7167 467.171 470.155
2054 0 125.185 12.5334 1569 86.2569 468.419 466.797
2055 0 129.227 13.2634 1714 84.8559 468.272 463.452
2056 0 134.341 13.0265 1750 85.1206 468.369 463.569
2057 0 137.215 13.1254 1801 85.1033 468.305 461.793
2058 0 141.212 13.292 1877 85.1945 468.923 458.954
2059 0 145.29 13.1737 1914 86.2665 468.254 454.452
2060 0 149.249 12.9515 1933 86.6363 468.074 454.462
2061 0 155.15 13.1034 2033 86.0182 467.518 448.081
2062 0 159.228 13.4022 2134 86.0089 467.12 445.919
2063 0 165.258 13.1067 2166 86.1662 467.318 445.115
2064 0 169.25 12.9276 2188 86.9484 467.471 442.388
2065 0 175.301 13.7307 2407 86.2127 467.749 439.926
2066 0 182.507 14.1913 2590 87.1625 467.4 438.514
2067 0 186.305 13.859 2582 88.8149 467.664 433.71
2068 0 193.235 13.838 2674 88.0823 467.544 431.319
2069 0 197.263 13.6975 2702 88.2113 467.258 427.91
2070 0 201.245 13.4214 2701 87.987 467.334 422.783
2071 0 209.256 13.8347 2895 87.3458 467.454 422.073
2072 0 215.217 14.2089 3058 86.9271 468.238 420.241
2073 0 221.358 13.8147 3058 87.3973 467.496 413.503
2074 1 170.294 12.0615 2054 87.2132 466.91 438.741
2075 0 177.232 12.9209 2290 85.9886 467.069 438.06
2076 0 183.259 13.4454 2464 85.1786 466.926 430.117
2077 0 188.198 13.6187 2563 84.9251 466.809 425.538
2078 0 192.207 13.0172 2502 86.1715 467.5 426.299
2079 0 200.241 13.6535 2734 87.8127 467.902 420.305
2080 0 207.254 12.9551 2685 88.1989 467.209 415.302
2081 0 215.304 13.4136 2888 86.2729 467.197 413.529
2082 0 221.361 14.0675 3114 87.5055 466.809 407.561
2083 0 230.45 13.5387 3120 84.3045 466.964 409.163
2084 0 237.478 13.7276 3260 83.5408 467.704 405.999
2085 0 245.473 13.4638 3305 83.9241 467.664 396.939
2086 0 250.623 13.2151 3312 84.958 467.066 392.963
2087 0 259.523 13.4979 3503 84.67 467.309 388.48
2088 0 269.431 13.4988 3637 84.6046 467.988 387.644
2089 0 277.563 13.5429 3759 85.3953 467.879 383.885
2090 1 313.401 9.08102 2846 91.5309 467.609 390.764
2091 1 207.277 11.6655 2418 85.1261 468.122 421.172
2092 0 214.336 12.933 2772 83.9026 468.551 411.451
2093 0 220.286 13.1874 2905 83.6819 468.16 408.526
2094 0 226.358 13.0766 2960 83.9189 467.493 405.494
2095 0 235.271 13.5206 3181 82.9701 467.914 401.832
2096 0 244.357 13.7258 3354 82.4484 467.269 399.298
2097 0 252.31 13.5825 3427 83.7756 467.269 394.011
2098 0 261.302 13.5744 3547 84.1184 467.267 391.504
2099 0 260.215 11.7403 3055 88.2484 467.188 394.331
2100 0 259.249 9.92098 2572 90.3118 467.25 400.235
2101 1 71.0386 10.4873 745 72.051 467.185 487.685
2102 0 78.2662 11.8442 927 69.2341 468.41 488.921
2103 0 81.0836 12.6166 1023 69.0577 467.699 484.56
2104 0 82.0877 11.7923 968 75.499 469.603 486.885
2105 0 85.063 12.6024 1072 74.8498 469.961 485.009
2106 0 87.0433 11.4885 1000 76.503 469.711 483.619
2107 0 89.1193 11.6024 1034 76.7389 469.809 479.993
2108 0 91.0355 12.4457 1133 76.0627 469.809 480.556
2109 0 95.1013 14.4372 1373 71.8689 469.817 476.046
2110 0 102.052 15.1883 1550 68.3406 469.666 470.435
2111 0 102.055 13.4241 1370 73.7182 469.74 470.496
2112 0 100.172 10.9811 1100 74.8427 467.845 477.686
2113 0 101.224 10.1853 1031 74.1765 467.09 474.677
2114 0 104.118 9.95988 1037 75.839 467.36 471.361
2115 0 109.096 11.2562 1228 73.3461 467.297 470.899
2116 0 112.128 10.6663 1196 74.7659 467.092 470.557
2117 0 116.245 10.9596 1274 74.814 467.057 467.915
2118 0 118.231 11.0377 1305 75.7686 467.19 464.114
2119 0 121.08 10.7862 1306 76.8461 467.389 463.753
2120 0 128.19 12.2552 1571 74.0344 467.777 466.346
2121 0 129.141 11.4294 1476 76.7846 467.386 463.186
2122 0 133.183 11.6156 1547 77.2321 467.878 461.526
2123 0 139.364 12.1839 1698 78.1249 468.357 458.15
2124 0 141.401 12.2347 1730 81.6445 467.377 455.424
2125 0 145.224 12.6012 1830 81.1716 467.785 453.901
2126 0 148.114 11.9908 1776 80.9285 468.052 451.285
2127 0 151.151 12.3387 1865 80.7501 467.407 450.615
2128 0 153.119 11.8339 1812 83.3637 467.623 446.825
2129 1 94.2169 9.88145 931 75.8432 467.777 479.825
2130 0 98.134 10.5366 1034 75.5106 467.811 478.023
2131 0 100.115 11.4668 1148 75.0967 468.797 475.752
2132 0 103.166 11.5154 1188 74.7744 468.579 475.606
2133 0 104.267 11.1157 1159 75.9758 468.236 469.709
2134 0 107.308 11.4624 1230 75.6293 468.458 471.186
2135 0 109.199 11.7767 1286 76.0653 468.769 468.48
2136 0 115.306 11.4131 1316 76.6679 468.548 466.768
2137 0 117.175 12.076 1415 76.7159 468.399 467.093
2138 0 120.135 11.8533 1424 80.3546 468.33 463.203
2139 0 125.28 11.9253 1494 79.8601 468.494 463.26
2140 0 127.181 11.8965 1513 81.3371 467.952 459.566
2141 0 131.264 12.2882 1613 80.2771 467.847 461.797
2142 0 134.281 12.4366 1670 80.8533 467.566 460.134
2143 0 136.244 11.7363 1599 82.6216 468.111 457.347
2144 0 139.145 11.5994 1614 83.6258 467.912 452.812
2145 0 145.186 12.0191 1745 83.1685 468.978 449.027
2146 0 149.176 11.7445 1752 83.6495 469.288 445.2
2147 0 153.241 11.942 1830 84.0683 469.062 442.427
2148 0 157.261 11.8529 1864 84.7511 468.917 440.756
2149 0 160.326 11.7074 1877 85.8226 469.318 436.601
2150 0 166.413 11.8741 1976 85.8436 469.152 434.182
2151 0 171.414 12.1169 2077 85.5604 468.795 434.105
2152 0 177.269 12.1115 2147 86.3712 468.337 429.079
2153 0 184.436 12.1126 2234 85.7744 468.571 429.393
2154 0 191.315 12.5761 2406 84.2465 469.007 428.803
2155 0 196.356 13.0376 2560 84.5348 468.615 424.319
2156 0 203.387 13.4129 2728 83.0935 468.567 421.606
2157 0 208.452 13.3412 2781 84.3434 468.492 416.72
2158 0 212.458 12.7978 2719 86.2369 468.605 412.019
2159 0 221.509 13.0062 2881 85.2652 468.98 409.307
2160 0 228.549 13.2357 3025 77.0549 469.188 403.856
2161 1 35.1251 9.1957 323 63.3684 471.771 508.796
2162 0 35.1269 9.22371 324 64.037 471.787 507.194
2163 0 34.1288 9.52276 325 65.3815 472.255 504.517
2164 0 35.1346 10.8155 380 63.1553 471.768 504.411
2165 0 35.2481 9.53242 336 64.0208 470.851 507.479
2166 0 33.0895 10.6076 351 62.7721 469.442 508.504
2167 0 32.0712 9.22946 296 66.1622 469.355 508.162
2168 0 35.1275 10.4192 366 64.6694 469.781 508.948
2169 0 31.1083 8.96868 279 65.957 469.953 508.806
2170 0 31.2287 8.87006 277 66.0144 470.235 507.491
2171 0 32.1758 9.66564 311 63.6913 470.045 507.981
2172 0 34.2642 10.4191 357 63.8095 471.062 508.188
2173 0 32.1691 10.2583 330 62.8788 471.442 510.152
2174 0 36.3302 10.7899 392 61.9005 470.77 510.439
2175 0 36.1242 10.1594 367 65.8011 470.526 509.733
2176 0 37.115 10.5618 392 64.2959 470.908 509.383
2177 0 36.0422 10.127 365 65.2082 471.526 508.863
2178 0 36.1424 10.3203 373 67.7265 469.217 508.07
2179 0 39.0798 10.6449 416 68.7885 469.608 508.147
2180 0 39.1264 10.9389 428 69.3037 469.708 507.607
2181 0 38.1843 11.3921 435 70.6391 469.257 508.777
2182 0 40.1598 10.9811 441 72.2313 469.506 508.379
2183 0 38.1368 11.7996 450 73.2 469.442 507.833
2184 0 41.0888 11.4143 469 76.4861 469.418 509.65
2185 0 39.0619 10.573 413 78.477 468.499 509.056
2186 0 41.1102 10.7029 440 78.1 468.652 509.064
2187 0 42.1605 11.0293 465 77.9935 469.755 509.299
2188 0 41.1876 10.2458 422 79.9668 470.076 510.45
2189 0 42.1193 10.9688 462 79.368 469.957 509.519
2190 0 42.0325 12.1097 509 76.1434 469.878 509.297
2191 0 44.1289 12.6448 558 72.371 469.315 511.059
2192 0 44.1238 11.8077 521 74.737 469.154 510.497
2193 0 42.1662 13.0199 549 73.7541 468.718 510.694
2194 0 45.0923 12.796 577 71.052 469.17 511.766
2195 0 44.0885 12.4069 547 73.2303 468.715 510.642
2196 0 44.1392 12.5965 556 72.8094 468.84 511.833
2197 0 44.099 12.0864 533 74.1126 468.758 511.24
2198 0 46.0491 12.4867 575 73.0296 469.525 511.997
2199 0 45.2139 12.4298 562 72.3488 469.246 512.173
2200 0 43.1482 13.4884 582 71.3316 469.644 512.491
2201 0 44.1255 12.8044 565 71.8442 469.929 511.687
2202 0 46.146 12.0704 557 72.0826 469.156 512.133
2203 0 45.1352 11.5874 523 73.4436 469.163 511.826
2204 0 46.1122 11.6021 535 73.215 469.753 511.843
2205 0 45.1177 11.5254 520 73.6808 469.756 511.569
2206 0 44.2093 11.1967 495 74.0222 469.762 511.778
2207 0 45.071 11.5373 520 73.1462 469.373 511.298
2208 0 45.2126 11.8772 537 71.8641 468.994 511.076
2209 0 45.177 11.7538 531 72.3672 469.25 511.733
2210 0 46.1801 12.1697 562 71.1085 469.384 512.488
2211 0 44.1671 11.7961 521 71.5317 469.743 511.977
2212 0 45.1436 11.4967 519 72.6185 469.22 511.917
2213 0 45.105 11.7947 532 72.1466 469.675 511.487
2214 0 45.1569 12.0469 544 71.8254 469.721 512.119
2215 0 44.0883 11.0007 485 73.2186 469.936 512.682
2216 0 43.0442 11.2442 484 73.8988 469.822 511.236
2217 0 43.0616 11.0772 477 74.1677 469.782 511.69
2218 0 43.0324 11.1079 478 74.3828 469.78 511.224
2219 0 42.0787 11.6211 489 72.908 469.687 509.933
2220 0 44.0851 11.682 515 71.7495 469.159 510.751
2221 0 44.1712 10.165 449 73.9644 469.004 510.267
2222 0 44.1731 11.2738 498 71.4779 469.504 509.681
2223 0 43.2068 11.3177 489 70.9755 468.726 511.65
2224 0 45.0855 10.6243 479 70.6367 469.881 512.211
2225 0 44.1022 11.1559 492 70.124 469.701 510.998
2226 0 45.1212 11.3472 512 69.0625 469.195 511.359
2227 0 44.0879 10.91 481 69.5904 469.497 511.175
2228 0 44.0738 10.8681 479 69.4468 469.399 510.476
2229 0 43.0571 10.9622 472 69.1716 469.665 511.316
2230 0 45.2079 11.2149 507 68.1854 469.321 511.274
2231 0 44.2103 11.0834 490 67.7224 469.418 511.757
2232 0 45.0415 11.0787 499 67.7375 469.519 510.788
2233 0 44.169 11.3428 501 66.8523 468.253 511.208
2234 0 45.0662 11.8936 536 65.3451 469.425 512.409
2235 0 45.1555 11.9144 538 64.4461 469.474 512.294
2236 0 45.2415 10.8971 493 65.4219 468.158 511.6
2237 0 44.0592 11.4619 505 64.9525 469.325 511.82
2238 0 45.1132 11.0389 498 65.1526 468.582 511.259
2239 0 43.13 11.2683 486 64.9938 468.512 511.171
2240 0 43.0925 11.0692 477 64.4822 468.371 513.025
2241 0 43.0844 10.4678 451 65.408 468.803 510.885
2242 0 43.035 10.4566 450 65.2356 469.507 511.722
2243 0 42.4166 10.8212 459 64.1481 470.664 512.017
2244 0 42.2015 10.592 447 63.6465 469.895 511.152
2245 0 44.3202 10.018 444 63.4414 470.678 510.619
2246 0 42.4005 10.8489 460 63.0391 470.602 510.998
2247 0 43.4647 10.2842 447 62.2931 470.837 511.937
2248 0 44.4389 10.6888 475 61.9389 470.455 511.566
2249 0 45.5498 10.5818 482 60.8278 470.386 512.859
2250 0 43.1938 10.5571 456 62.0987 471.116 511.368
2251 0 43.1696 11.0031 475 60.9095 470.825 511.602
2252 0 43.1696 10.9104 471 115.304 471.845 511.467
2253 0 43.1484 10.2669 443 60.2867 470.214 512.876
