time division length width area intensity CMx CMy
0 0 62.0284 12.6877 787 111.55 466.382 494.652
1 0 65.0176 12.5197 814 109.781 467.029 492.64
2 0 67.1062 12.4877 838 108.091 466.698 493.672
3 0 70.0283 12.6806 888 106.672 466.454 492.023
4 0 69.0565 12.3232 851 106.322 467.051 491.781
5 0 72.0376 12.4796 899 104.891 466.969 491.182
6 0 74.0376 11.9939 888 104.623 466.76 491.507
7 0 77.0649 13.015 1003 100.697 467.083 488.438
8 0 80.0897 12.6109 1010 100.507 467.223 487.256
9 0 84.0437 13.3264 1120 98.1554 467.014 486.786
10 0 85.0884 13.151 1119 96.7748 465.932 485.224
11 0 87.1045 12.7778 1113 96.0692 466.768 486.807
12 0 89.0811 13.1117 1168 94.8682 466.436 485.019
13 0 88.0476 12.3002 1083 97.1413 465.541 484.742
14 0 92.0592 12.3182 1134 96.6896 465.937 482.391
15 0 96.0448 11.6612 1120 97.0759 465.659 482.134
16 1 52.0461 12.1047 630 100.133 466.53 500.66
17 0 53.0298 12.1441 644 100.856 465.654 498.387
18 0 56.0302 13.0287 730 99.8466 466.125 499.003
19 0 60.0302 13.1934 792 102.355 465.649 495.283
20 0 62.0196 13.6409 846 101.071 465.385 493.657
21 0 62.0399 13.0561 810 99.279 464.336 496.283
22 0 64.0322 12.8685 824 100.239 465.217 494.966
23 0 65.0216 13.0572 849 100.538 464.84 494.376
24 0 67.0953 13.1008 879 101.026 464.843 494.101
25 0 71.0236 13.3618 949 98.45 465.169 492.319
26 0 73.0628 13.2215 966 98.6636 464.89 491.365
27 0 74.0337 12.7509 944 100.735 464.735 491.165
28 0 79.0669 13.3937 1059 98.593 465.066 490.379
29 0 81.0606 13.4344 1089 100.832 464.412 489.236
30 0 84.1941 13.9083 1171 100.199 464.763 489.342
31 0 86.1101 12.9021 1111 102.934 464.626 487.436
32 0 91.1601 14.0522 1281 99.1202 464.017 485.422
33 0 93.1512 13.6015 1267 100.515 464.107 484.357
34 0 98.0901 14.1605 1389 95.8553 463.992 483.795
35 0 101.143 14.4449 1461 93.8412 464.647 479.811
36 0 106.126 14.9727 1589 95.6331 463.439 475.677
37 1 54.0521 12.2659 663 99.0106 463.934 500.624
38 0 58.0158 13.3757 776 95.8286 463.896 499.026
39 0 60.0311 13.9261 836 91.244 464.104 498.272
40 0 61.0351 13.8609 846 89.2128 464.404 497.377
41 0 63.074 13.5396 854 89.171 464.178 496.522
42 0 64.0844 13.4354 861 88.6632 464.178 495.625
43 0 67.0846 13.6991 919 86.7889 463.748 493.23
44 0 69.069 14.1597 978 85.2055 463.713 493.193
45 0 72.0944 14.1342 1019 84.4279 463.651 491.514
46 0 72.0725 13.3754 964 87.4544 463.584 490.441
47 0 75.0696 13.1744 989 86.7422 463.63 488.026
48 0 78.0748 13.7176 1071 86.9076 464.078 487.626
49 0 81.0363 13.5988 1102 86.9955 464.296 486.808
50 0 82.0784 13.9135 1142 87.4974 463.672 485.125
51 0 86.0684 13.4893 1161 87.1568 464.097 485.444
52 0 88.0801 13.6467 1202 87.5998 463.854 481.891
53 0 91.1371 13.4084 1222 88.4051 463.521 480.819
54 0 96.0696 13.7296 1319 85.8673 463.35 479.011
55 0 100.14 14.5296 1455 83.3265 463.926 476.036
56 0 102.062 13.5701 1385 84.9054 463.759 473.857
57 0 103.138 13.2444 1366 85.7833 463.63 470.889
58 0 105.12 13.3752 1406 85.5491 463.954 468.228
59 0 110.17 12.8801 1419 85.339 464.016 465.628
60 0 112.105 13.0413 1462 85.7613 463.361 461.537
61 0 113.138 12.666 1433 86.9253 463.549 460.756
62 0 118.168 12.3806 1463 86.581 464.36 459.245
63 0 124.143 12.9125 1603 86.9133 463.854 456.225
64 1 65.1291 10.2258 666 84.4895 464.32 488.401
65 0 65.0646 11.1889 728 84.0124 464.298 486.269
66 0 69.0309 12.096 835 84.3844 464.216 485.128
67 0 72.067 12.419 895 83.8994 463.238 485.449
68 0 75.1318 12.6578 951 82.1956 462.877 485.612
69 0 78.128 12.3387 964 83.6006 463.194 484.122
70 0 81.1982 12.217 992 82.6744 464.095 484.266
71 0 83.0728 11.845 984 81.9685 464.139 483.729
72 0 86.0997 12.23 1053 80.717 463.652 480.181
73 0 88.1249 11.2794 994 81.5754 463.998 480.53
74 0 92.1063 11.5736 1066 80.6651 463.909 479.341
75 0 93.1193 11.4477 1066 81.4212 463.821 478.557
76 0 99.077 12.6669 1255 84.6223 463.577 481.072
77 0 101.141 12.7149 1286 86.1205 463.061 479.163
78 0 106.089 12.5178 1328 85.7952 463.511 477.163
79 0 108.066 12.0389 1301 86.4374 462.653 475.032
80 0 112.091 11.785 1321 86.0061 463.834 472.424
81 0 115.123 11.9437 1375 85.4327 464.412 471.534
82 1 56.0579 10.2929 577 79.487 465.005 501.173
83 0 59.1493 11.0399 653 76.6539 464.832 499.274
84 0 61.1104 11.9292 729 74.8381 465.019 499.021
85 0 61.0757 11.8869 726 74.051 464.99 497.563
86 0 62.0511 10.9426 679 76.5773 464.249 497.39
87 0 63.1097 10.2361 646 75.4954 465.156 497.536
88 0 64.1011 10.7018 686 74.9781 464.952 495.854
89 0 68.0674 11.7678 801 72.7616 464.491 493.717
90 0 71.0637 11.2294 798 72.3383 464.608 492.432
91 0 74.0602 11.8687 879 70.7304 464.287 491.046
92 0 76.0731 12.2119 929 70.2368 464.452 488.1
93 0 79.1348 11.4867 909 71.8504 463.964 487.688
94 0 79.0634 10.7129 847 73.3884 464.643 486.592
95 0 84.1292 11.7438 988 71.6761 463.562 484.952
96 0 86.0557 11.6088 999 72.0781 464.008 483.386
97 0 89.0687 12.3949 1104 71.6268 462.921 485.03
98 0 92.0468 12.6566 1165 71.5906 463.772 483.18
99 0 93.0913 12.1923 1135 73.5471 463.204 481.522
100 0 99.0551 12.4375 1232 72.6339 463.535 480.553
101 0 101.055 12.33 1246 77.4454 463.819 477.131
102 0 106.096 13.2899 1410 76.4915 463.05 476.453
103 0 106.077 12.4344 1319 79.1911 463.256 473.882
104 0 112.139 12.2258 1371 81.4872 463.822 472.497
105 0 117.124 13.379 1567 78.9662 464.05 467.864
106 0 117.118 11.8001 1382 78.0275 463.666 468.685
107 1 68.0859 11.4267 778 73.9769 463.629 494.356
108 0 70.1381 11.9621 839 77.7735 463.893 493.441
109 0 72.0326 11.9529 861 74.7154 463.814 492.826
110 0 74.0393 12.0071 889 75.5253 463.87 491.768
111 0 77.0832 11.6627 899 77.5384 464.623 488.529
112 0 79.082 12.0761 955 77.6272 463.978 487.695
113 0 82.0511 11.8341 971 78.0052 464.032 486.533
114 0 85.1373 12.2508 1043 77.7383 464.127 486.319
115 0 87.046 12.4647 1085 78.3853 464.088 483.676
116 0 90.1192 12.0285 1084 79.1042 464.269 482.932
117 0 92.1087 12.0076 1106 77.1456 463.795 481.635
118 0 95.1629 11.8218 1125 79.7049 463.688 479.521
119 0 100.216 11.9342 1196 79.0117 464.421 478.814
120 1 56.0694 11.1826 627 79.0271 463.667 501.12
121 0 57.1224 12.0268 687 79.1266 463.569 499.866
122 0 58.0865 12.051 700 82.4014 463.933 498.231
123 0 59.1298 12.2273 723 79.5187 464.05 496.88
124 0 62.1536 12.2439 761 83.0933 463.909 497.35
125 0 63.0868 12.253 773 83.4696 463.237 497.079
126 0 65.1427 12.6031 821 83.5177 462.804 495.267
127 0 64.0503 12.8805 825 84.3612 462.6 494.541
128 0 67.0693 12.5094 839 84.3528 463.827 494.036
129 0 67.0783 11.33 760 76.2882 462.888 495.867
130 0 70.0996 11.3838 798 75.6241 462.802 494.312
131 0 71.0724 11.3828 809 75.3189 462.577 492.7
132 0 73.0672 10.7846 788 75.1967 462.716 493.612
133 0 73.0499 10.4175 761 74.8528 462.806 492.127
134 0 79.0624 11.0166 871 73.5465 463.037 489.727
135 0 80.0741 9.87835 791 73.4513 463.038 488.138
136 0 85.0743 10.673 908 71.8128 463.133 487.394
137 0 87.1341 10.7535 937 70.9306 462.764 485.937
138 1 47.0474 10.6913 503 69.159 463.028 504.032
139 0 49.0355 10.8085 530 71.3226 463.153 502.872
140 0 51.0215 10.7994 551 75.1833 463.281 501.713
141 0 51.1055 10.4294 533 70.0188 462.788 503.169
142 0 51.0924 10.9997 562 70.1441 462.9 504.893
143 0 52.0735 10.2739 535 71.1159 462.774 503.656
144 0 54.0797 10.5955 573 69.9808 463.113 501.661
145 0 57.0333 10.4676 597 70.0251 462.941 501.149
146 0 57.0873 9.84457 562 70.4342 463.598 500.865
147 0 60.0496 11.1075 667 69.1634 462.817 497.745
148 0 64.0438 11.6951 749 69.8558 462.239 497.003
149 0 65.0715 10.9879 715 71.0853 463.166 496.057
150 0 67.1807 11.1342 748 71.4425 462.865 494.231
151 0 69.0951 11.7664 813 70.4797 462.536 493.002
152 0 71.1461 11.4131 812 71.436 462.277 492.096
153 0 75.0484 11.6458 874 71.151 462.191 490.458
154 0 76.0956 11.8272 900 70.4589 461.838 490.784
155 0 80.0445 11.8559 949 71.1517 462.352 487.827
156 0 81.047 11.8697 962 73.2162 462.116 487.179
157 0 83.0546 11.4864 954 74.0231 462.534 483.724
158 0 87.048 11.6258 1012 74.1492 462.712 482.993
159 1 46.0412 10.1648 468 72.297 462.278 505.481
160 0 45.027 9.68308 436 74.8326 462.711 506.328
161 0 47.0545 10.9235 514 72.2451 462.626 503.047
162 0 47.0498 10.5208 495 73.5131 462.428 503.798
163 0 50.0437 11.1503 558 71.9534 462.654 501.695
164 0 52.0111 11.6706 607 70.7166 463.043 500.83
165 0 55.0672 12.1488 669 72.0912 462.668 501.608
166 0 55.0551 12.7145 700 72.2486 462.281 499.676
167 0 57.0441 11.4999 656 75.3872 462.027 497.14
168 0 57.0631 11.7063 668 76.8758 462.746 497.156
169 0 61.0599 11.8408 723 75.408 462.952 497.599
170 0 61.0598 11.0711 676 76.6405 462.876 497.547
171 0 61.0548 11.5634 706 76.8499 463.44 495.341
172 0 62.0672 11.7131 727 74.1541 463.092 493.3
173 0 65.0529 10.9757 714 75.3655 463.522 492.27
174 0 66.0596 11.4291 755 75.2728 462.909 491.318
175 0 69.0293 11.7052 808 75.6918 462.197 488.623
176 0 73.0401 12.0756 882 75.4785 462.887 489.941
177 0 76.0346 12.3102 936 75.0118 462.411 489.501
178 0 77.0369 12.3967 955 74.6921 462.53 486.982
179 0 80.093 11.624 931 75.551 462.831 486.682
180 0 82.0433 12.2496 1005 75.2358 463.354 483.956
181 0 85.1489 12.1787 1037 76.1032 463.389 484.308
182 0 88.0567 12.7872 1126 76.6039 463.222 484.017
183 0 91.0643 12.8371 1169 77.1334 462.693 481.333
184 0 94.0231 12.5182 1177 77.9057 462.596 480.003
185 0 96.0498 12.3478 1186 80.0396 462.677 476.343
186 0 98.0527 12.1771 1194 79.7178 462.715 476.97
187 0 103.059 12.7888 1318 76.5008 462.282 471.673
188 0 106.08 12.5283 1329 77.5086 463.011 468.141
189 1 55.0868 10.1476 559 74.2701 463.835 493.962
190 0 55.1246 10.2858 567 74.9524 464.099 493.43
191 0 58.0894 11.8954 691 80.4588 463.075 496.282
192 0 63.091 12.1095 764 77.9764 463.048 496.177
193 0 61.0806 11.4439 699 74.1989 462.383 497.953
194 0 64.0243 11.9642 766 72.8264 462.422 495.933
195 0 67.0569 11.617 779 72.7253 462.561 496.1
196 0 67.0341 11.7105 785 73.5605 462.516 494.871
197 0 69.0339 11.8348 817 72.9523 462.208 492.928
198 0 73.0875 12.916 944 69.9227 462.868 491.893
199 0 77.0403 13.3696 1030 68.7825 462.062 489.976
200 0 78.0809 13.486 1053 69.5185 462.356 489.442
201 0 79.093 12.3905 980 72.0602 462.389 488.683
202 0 82.0618 12.978 1065 89.723 462.011 487.646
203 0 85.0583 12.3445 1050 91.98 461.614 485.776
204 0 87.0776 12.6783 1104 91.4275 461.471 483.63
205 0 90.0622 12.8023 1153 91.6938 461.762 483.779
206 0 92.1022 12.3558 1138 93.9358 462.142 481.113
207 0 94.0285 12.4643 1172 94.3345 461.675 480.967
208 0 97.0689 12.4551 1209 94.0695 462.289 480.827
209 0 101.107 12.8378 1298 94.1818 460.816 477.069
210 0 104.134 13.1081 1365 92.6689 461.692 476.655
211 0 107.082 13.2515 1419 92.1945 461.017 474.755
212 0 110.062 13.2471 1458 92.2984 461.04 474.172
213 0 113.066 12.8863 1457 94.0048 460.919 471.82
214 0 117.065 12.7536 1493 93.6644 460.853 470.016
215 0 121.111 12.9138 1564 91.7781 461.345 468.237
216 0 125.106 13.3887 1675 91.4561 461.488 466.925
217 0 127.098 12.9978 1652 91.7851 461.571 465.733
218 0 133.16 13.465 1793 89.9805 461.65 463.03
219 0 135.113 13.1742 1780 91.8904 461.232 459.711
220 0 141.171 13.6501 1927 91.4894 460.433 458.115
221 0 146.055 13.4265 1961 92.2784 460.407 453.712
222 0 151.074 13.6622 2064 92.1386 460.458 451.495
223 0 155.094 12.9857 2014 91.7954 460.811 446.8
224 1 90.0567 11.5816 1043 95.1285 461.298 477.96
225 0 92.0999 11.6613 1074 94.311 461.526 478.133
226 0 96.1104 12.3608 1188 96.4781 461.244 476.431
227 0 96.0842 12.4266 1194 93.1767 461.764 478.748
228 0 100.052 12.6235 1263 92.8622 461.497 480.05
229 0 103.099 12.9778 1338 93.9417 461.318 477.336
230 0 106.155 12.8115 1360 95.6456 462.324 475.777
231 0 109.197 13.0314 1423 96.9157 461.241 475.32
232 0 112.127 12.5572 1408 99.1562 461.232 471.967
233 0 115.138 13.2103 1521 98.5148 461.262 470.936
234 0 118.133 12.8245 1515 99.0112 461.079 468.362
235 0 120.117 12.6543 1520 99.0934 461.194 468.065
236 0 127.133 13.1359 1670 97.5958 461.138 465.004
237 0 128.2 13.3932 1717 97.0414 460.971 464.514
238 0 134.168 13.4608 1806 96.1894 460.649 460.105
239 0 139.256 13.2346 1843 95.6354 460.75 456.418
240 0 144.203 14.5004 2091 95.0373 460.429 454.852
241 0 148.294 13.8576 2055 96.4316 460.656 451.089
242 0 152.224 14.4524 2200 95.8136 459.942 448.417
243 0 158.244 14.8189 2345 95.5045 459.838 447.645
244 0 161.195 13.89 2239 98.6356 460.011 445.462
245 0 166.243 13.7449 2285 100.509 460.379 440.86
246 0 172.204 14.5003 2497 98.7669 460.22 439.158
247 0 177.184 14.1322 2504 100.133 460.15 438.605
248 0 180.233 13.1608 2372 103.382 460.019 435.245
249 0 186.197 13.2172 2461 103.459 459.92 434.949
250 0 190.201 12.6603 2408 105.273 460.428 430.584
251 0 197.218 12.8943 2543 106.081 460.808 426.553
252 1 108.098 12.1926 1318 96.7458 460.942 470.643
253 0 112.179 12.4622 1398 93.5229 460.016 469.539
254 0 114.235 12.5706 1436 99.516 461.1 466.339
255 0 119.262 12.4768 1488 100.953 461.418 466.243
256 0 122.107 12.2434 1495 104.219 461.007 463.646
257 0 125.247 12.5352 1570 103.514 461.083 462.696
258 0 129.307 13.031 1685 102.713 461.631 459.896
259 0 131.189 12.3181 1616 107.038 461.36 456.986
260 0 135.234 12.4081 1678 109.46 460.908 454.69
261 0 141.234 12.674 1790 109.416 461.245 452.377
262 0 146.284 12.9679 1897 109.157 461.135 450.702
263 0 149.331 12.5895 1880 110.711 460.871 449.393
264 0 154.309 12.9934 2005 109.646 460.503 448.173
265 0 159.31 13.2697 2114 109.449 460.83 442.492
266 0 163.299 12.9701 2118 110.704 460.407 441.589
267 0 171.324 13.2206 2265 109.512 460.274 439.591
268 0 174.219 12.6966 2212 112.817 460.55 435.653
269 0 180.195 13.4854 2430 112.444 459.832 433.858
270 0 185.183 12.593 2332 115.793 459.881 430.178
271 0 191.221 12.9902 2484 114.918 459.672 426.726
272 0 197.218 13.1124 2586 113.079 459.98 424.957
273 0 201.175 13.1726 2650 115.711 459.91 420.139
274 0 210.248 13.4793 2834 113.518 460.049 417.327
275 0 214.191 13.2032 2828 115.185 459.951 412.115
276 0 222.252 13.4847 2997 114.27 459.68 410.834
277 0 230.258 14.4968 3338 112.588 459.739 404.795
278 0 238.165 14.0323 3342 113.307 459.981 404.207
279 0 245.283 14.2448 3494 108.379 459.678 395.792
280 1 65.1247 10.2573 668 97.3638 460.759 492.76
281 0 67.0669 11.3022 758 96.2388 459.921 492.835
282 0 66.0624 10.036 663 90.2443 460.101 496.072
283 0 69.0172 9.50487 656 89.0747 460.843 495.806
284 0 70.0092 9.44162 661 87.2935 461.365 495.089
285 0 72.0267 9.71862 700 87.8757 461.779 492.23
286 0 75.0511 9.55349 717 88.1925 461.831 492.64
287 0 77.0237 9.85411 759 88.2437 461.639 492.328
288 0 80.0695 9.67909 775 87.9071 461.068 490.135
289 0 81.0482 10.1421 822 86.8893 460.982 490.045
290 0 83.0623 9.28219 771 89.7575 461.249 487.599
291 0 87.0964 9.7593 850 89.5082 461.216 485.66
292 1 48.0734 9.7143 467 85.621 462.465 503.163
293 0 51.0316 10.4641 534 83.8914 461.936 504.519
294 0 51.0899 10.139 518 86.3745 460.913 502.832
295 0 53.1013 10.866 577 85.2929 461.74 501.071
296 0 57.0262 10.7319 612 85.4886 461.077 501.453
297 0 56.0755 11.431 641 85.2777 459.499 500.335
298 0 58.1079 10.9796 638 84.7288 460.658 501.218
299 0 61.053 11.4163 697 83.5409 460.25 499.795
300 0 60.0702 10.8873 654 85.9939 459.586 498.349
301 0 62.0588 11.1185 690 85.7304 460.499 497.11
302 0 65.0946 10.6153 691 85.081 460.603 496.168
303 0 65.0873 10.9852 715 83.4657 460.657 496.522
304 0 67.1125 10.6835 717 82.9665 461.251 494.671
305 0 69.1095 10.7511 743 81.4065 461.18 493.618
306 0 74.1138 11.7792 873 76.5945 461.583 492.961
307 0 74.0998 10.9447 811 78.4155 461.264 492.153
308 0 76.1595 10.9244 832 77.5048 460.779 490.965
309 0 77.1054 11.1017 856 79.3271 461.37 490.513
310 0 80.1053 10.9855 880 77.9239 461.335 488.519
311 0 79.1886 9.4458 748 81.3209 461.876 490.108
312 0 82.069 9.9063 813 82.8253 461.8 489.296
313 0 86.1848 10.0598 867 81.7509 461.31 487.632
314 1 47.0466 9.90507 466 83.3755 462.498 506.079
315 0 50.0566 11.3871 570 78.4228 462.111 505.307
316 0 50.0369 11.6314 582 78.8694 462.259 504.799
317 0 50.0359 10.2526 513 72.0799 460.536 507.992
318 0 51.0675 11.0638 565 74.3434 459.556 506.607
319 0 53.05 10.5938 562 75.2616 459.335 506.972
320 0 53.1009 10.7343 570 75.4474 459.839 505.963
321 0 55.0764 10.8213 596 74.2567 460.233 505.032
322 0 56.0739 11.2708 632 73.4937 459.684 503.571
323 0 57.0571 11.0766 632 74.2769 459.625 503.671
324 0 57.0514 10.6571 608 73.9852 459.176 503.827
325 0 60.0435 10.559 634 72.3328 458.833 502.683
326 0 61.1668 11.297 691 73.2084 458.955 501.703
327 0 63.1092 10.8859 687 73.1004 458.981 500.502
328 0 64.135 11.3199 726 71.9559 458.649 500.926
329 0 67.0423 10.9632 735 71.6136 458.897 500.233
330 0 70.0307 11.1951 784 71.7742 459.055 498.531
331 0 72.0537 11.4637 826 72.1646 459.278 498.84
332 0 72.0651 11.4064 822 72.9136 458.777 496.117
333 0 73.1105 9.95754 728 77.1209 459.956 495.699
334 0 77.1501 10.2527 791 76.7484 459.775 494.463
335 0 78.1311 10.2904 804 79.3619 459.383 492.851
336 1 43.0308 9.08652 391 79.4731 460.051 510.813
337 0 43.0148 9.95007 428 76.8458 459.804 510.687
338 0 44.0351 10.2645 452 75.8031 459.631 510.117
339 0 48.0222 11.1199 534 74.2903 459.217 509.918
340 0 49.0474 11.1933 549 78.6484 457.71 509.499
341 0 49.0071 11.7534 576 80.4115 457.783 508.422
342 0 53.0652 11.5518 613 80.4111 457.884 507.762
343 0 55.0748 12.1471 669 79.9103 457.465 506.16
344 0 55.0835 11.3283 624 79.8798 457.272 505.678
345 0 56.0686 11.8248 663 77.81 456.863 506.926
346 0 58.0516 11.2658 654 78.9251 456.659 505.555
347 0 58.0323 11.4247 663 79.6124 456.724 504.285
348 0 62.0536 11.5223 715 78.6769 456.249 503.215
349 0 62.0645 11.7458 729 79.3827 456.627 501.62
350 0 64.0762 11.3927 730 79.0315 457.303 500.895
351 0 65.09 12.2907 800 78.0075 456.768 500.462
352 0 67.0721 12.3896 831 77.367 456.433 499.158
353 0 69.0473 12.1366 838 77.5358 456.807 499.263
354 0 72.1089 12.0928 872 77.3807 456.719 498.516
355 0 73.038 12.117 885 78.4463 456.581 497.173
356 0 77.1042 12.3858 955 78.4743 456.575 495.618
357 0 78.0981 12.1002 945 80.2392 457.197 495.519
358 0 81.0907 12.0729 979 82.3207 458.67 492.846
359 0 83.0914 11.7702 978 83.998 458.287 493.633
360 0 87.1059 13.3286 1161 80.7416 458.094 490.689
361 0 90.1286 12.6597 1141 82.7283 457.778 489.153
362 1 47.0375 10.7574 506 85.4545 458.569 509.595
363 0 48.0319 11.2633 541 82.6728 459.111 510.353
364 0 50.0943 11.139 558 84.9588 459.111 509.534
365 0 50.0908 11.7586 589 86.9898 458.993 508.752
366 0 51.0646 12.1415 620 88.1097 458.045 508.947
367 0 52.0366 12.4912 650 85.2031 458.132 508.169
368 0 56.0523 12.0958 678 83.2168 459.198 505.506
369 0 56.0584 12.1302 680 84.55 459.854 506.579
370 0 59.0482 13.0741 772 80.2902 459.197 504.28
371 0 59.0731 12.3068 727 82.6259 459.847 503.268
372 0 59.0926 12.252 724 85.7072 459.395 502.983
373 0 63.0584 12.8611 811 83.1023 458.764 502.099
374 0 64.0673 12.6273 809 84.3066 459.14 500.347
375 0 66.0338 12.9479 855 83.3766 458.786 500.356
376 0 70.1847 12.9658 910 95.5637 458.523 498.569
377 0 72.0498 12.5885 907 96.0243 460.235 497.654
378 0 73.1029 12.8312 938 95.8422 459.98 497.336
379 0 76.0356 12.5073 951 96.9664 460.216 496.105
380 0 79.0722 12.6214 998 96.1633 460.159 494.11
381 0 81.0647 12.8416 1041 94.3401 459.865 491.938
382 0 83.0867 12.5532 1043 94.8111 459.963 491.176
383 0 86.1051 12.9377 1114 93.4354 459.823 490.742
384 0 89.0828 12.6399 1126 94.3393 459.994 488.639
385 0 91.1241 12.3787 1128 93.3333 459.902 487.653
386 0 94.1578 12.8083 1206 92.6866 460.137 486.1
387 0 96.1535 12.272 1180 93.478 460.45 484.212
388 0 99.1038 12.3002 1219 92.3257 460.566 482.534
389 0 101.129 12.4593 1260 92.8214 460.267 481.007
390 1 54.0328 10.8638 587 79.6167 460.199 502.997
391 0 53.097 11.0741 588 83.3418 460.077 503.211
392 0 56.0996 11.5152 646 82.582 460.426 501.766
393 0 59.1184 12.4496 736 80.6794 461.024 500.435
394 0 60.1214 11.9259 717 80.6848 460.884 500.1
395 0 61.0935 11.8834 726 80.5331 460.983 498.875
396 0 63.0581 12.0682 761 79.9842 460.962 498.125
397 0 66.0937 12.3007 813 78.5523 461.016 496.22
398 0 67.0905 12.5502 842 77.6164 461.141 498.215
399 0 69.0718 12.0744 834 79.7578 461.314 495.312
400 0 73.0897 12.4641 911 78.4577 461.301 493.594
401 0 73.0896 12.2316 894 81.4698 461.095 492.081
402 0 75.1507 11.9227 896 83.8594 460.05 491.04
403 0 77.0654 12.1585 937 85.5005 460.115 490.444
404 0 81.0521 12.5722 1019 85.5957 460.309 489.744
405 0 81.0608 12.3118 998 90.7174 460.08 489.181
406 0 83.1035 12.0212 999 92.7067 459.747 488.613
407 0 85.0601 11.8152 1005 94.4527 460.226 487.059
408 0 89.0637 12.0925 1077 92.6806 460.401 485.896
409 0 92.1778 12.4867 1151 92.3423 460.498 483.006
410 0 93.141 11.7349 1093 95.8134 459.874 482.276
411 0 94.0747 11.948 1124 98.2972 459.446 480.343
412 0 99.187 12.1992 1210 98.024 460.254 479.825
413 0 103.08 11.5736 1193 98.8533 459.693 478.679
414 0 105.11 11.036 1160 101.266 459.691 476.435
415 1 58.1008 10.6023 616 88.1591 460.05 501.997
416 0 60.0841 11.3674 683 94.8111 460.168 502.615
417 0 61.0186 11.2589 687 95.1412 459.849 500.298
418 0 64.054 13.0983 839 91.2181 460.448 499.673
419 0 64.043 12.2105 782 89.6471 459.789 500.069
420 0 66.0647 12.851 849 87.9458 460.067 498.07
421 0 69.1412 12.1346 839 90.8808 460.31 498.389
422 0 69.0366 12.1095 836 92.6639 460.018 496.9
423 0 73.0729 12.1522 888 93.2331 460.221 494.812
424 0 73.0972 13.2016 965 92.7606 459.191 493.414
425 0 76.0917 12.958 986 94.9412 460.003 492.686
426 0 78.0557 11.9402 932 98.9453 460.324 492.258
427 0 81.1241 13.2267 1073 96.7763 460.548 490.169
428 0 82.0496 12.9678 1064 100.74 460.104 489.013
429 0 84.045 13.4571 1131 102.897 460.054 488.057
430 0 90.0942 13.2639 1195 108.069 460.074 486.68
431 0 91.0791 13.0546 1189 109.681 459.436 485.59
432 0 93.1212 13.0582 1216 109.287 459.08 484.17
433 0 95.0727 13.2846 1263 108.371 459.62 482.89
434 0 99.0667 13.1326 1301 109.709 459.932 482.517
435 0 101.135 12.9332 1308 109.164 459.976 480.081
436 0 105.097 13.9015 1461 105.881 459.355 480.023
437 0 108.069 12.8899 1393 109.482 459.521 477.531
438 0 110.05 12.9487 1425 108.716 459.669 475.142
439 0 116.1 13.5917 1578 107.446 459.657 473.299
440 0 120.094 13.989 1680 108.117 458.711 472.891
441 0 122.086 13.3349 1628 110.953 459.189 469.902
442 0 125.056 13.306 1664 113.489 459.23 468.153
443 0 129.07 13.6592 1763 115.225 458.85 461.965
444 0 131.105 14.1185 1851 110.998 458.874 459.585
445 1 68.0376 11.5524 786 114.117 459.043 492.676
446 0 70.1457 10.9201 766 104.587 459.879 486.518
447 0 70.0949 11.356 796 103.452 459.603 485.005
448 0 74.1344 13.0574 968 108.017 459.534 490.333
449 0 77.1024 13.0735 1008 108.81 460.446 491.83
450 0 80.0698 13.1011 1049 107.613 460.043 491.408
451 0 80.0575 13.1156 1050 109.165 460.035 490.311
452 0 84.0676 13.4535 1131 107.963 460.343 489.013
453 0 87.0661 13.484 1174 107.549 459.722 487.402
454 0 90.1192 12.7942 1153 109.905 460.589 484.316
455 0 93.0736 12.936 1204 108.713 459.962 484.243
456 0 98.1424 13.6129 1336 108.301 460.366 481.075
457 0 100.051 13.0433 1305 107.747 460.327 478.585
458 0 102.081 13.0387 1331 106.487 460.201 476.74
459 1 55.0305 10.8304 596 107.341 460.302 499.629
460 0 54.0302 10.4016 562 102.028 459.486 491.881
461 0 60.0608 10.6892 642 101.095 460.685 494.428
462 0 59.1021 11.9116 704 98.0639 460.574 498.891
463 0 62.1 11.9163 740 97.4378 460.595 497.301
464 0 63.0681 11.3687 717 100.05 460.271 497.548
465 0 64.0651 11.7693 754 99.9363 459.448 495.207
466 0 67.0462 11.5294 773 100.023 459.193 495.32
467 0 70.0414 12.1357 850 98.1353 458.895 493.629
468 0 74.0337 12.3863 917 96.5736 458.27 491.639
469 0 76.0704 12.0809 919 98.2601 458.703 489.69
470 0 77.1163 12.332 951 97.735 459.454 490.128
471 0 80.0743 12.4135 994 98.4054 458.616 488.245
472 0 81.0533 12.3746 1003 98.7168 458.915 487.276
473 0 84.0661 12.8708 1082 98.2939 459.152 486.49
474 0 87.0515 12.843 1118 97.712 459.265 485.245
475 0 90.0832 12.4663 1123 99.6919 458.637 485.076
476 0 91.0345 12.7424 1160 99.4914 458.498 483.549
477 0 93.0435 12.2953 1144 100.93 458.176 481.307
478 0 96.0697 12.4181 1193 99 458.689 480.782
479 0 99.0794 12.1014 1199 99.5313 458.62 479.114
480 0 105.061 12.3737 1300 97.4485 457.828 475.018
481 0 107.058 11.8627 1270 99.3433 458.253 471.243
482 1 61.028 10.4542 638 98.0251 458.487 495.335
483 0 62.0543 11.5544 717 94.4854 458.004 495.883
484 0 64.0263 11.6202 744 87.789 458.035 495.996
485 0 65.0402 11.2084 729 89.5226 458.473 494.165
486 0 66.1274 11.1603 738 89.7588 459.611 494.081
487 0 69.0897 11.2463 777 88.695 460.06 494.55
488 0 70.0402 11.0365 773 89.9871 458.736 494.074
489 0 72.054 10.8807 784 88.4056 459.134 493.483
490 0 75.0667 11.5764 869 88.6283 458.644 493.036
491 0 77.0453 11.7463 905 89.6917 459.238 490.128
492 0 79.0238 11.5029 909 91.1562 459.317 488.767
493 0 82.0399 11.6407 955 89.9382 459.825 487.41
494 0 85.0604 11.5095 979 90.478 459.527 486.618
495 0 88.0365 11.109 978 91.2812 458.303 483.514
496 0 90.0759 11.4903 1035 90.5536 458.21 481.911
497 0 94.0548 12.2163 1149 90.1645 458.869 480.494
498 1 51.0288 10.3275 527 92.7495 459.581 504.027
499 0 53.0583 11.0068 584 92.0702 459.541 503.021
500 0 54.0153 10.6451 575 86.9617 458.706 502.79
501 0 56.0674 10.8441 608 86.3734 458.683 501.725
502 0 57.0424 11.2197 640 85.7844 459.17 500.125
503 0 58.0573 10.9202 634 86.6151 458.752 500.02
504 0 60.0678 10.7545 646 86.0201 459.062 499.09
505 0 62.0376 11.2351 697 83.9914 459.184 498.594
506 0 64.112 10.8872 698 85.1375 458.808 497.832
507 0 66.1593 12.1374 803 83.5504 459.131 496.075
508 0 67.1021 10.7895 724 87.6547 458.613 495.673
509 0 66.0951 10.727 709 89.1016 459.044 495.436
510 0 68.0677 10.7834 734 90.5763 459.233 495.372
511 0 70.1392 10.6788 749 90.5114 459.881 494.798
512 0 73.1275 10.5022 768 91.1393 459.132 493.727
513 0 77.1009 10.9597 845 89.3811 459.328 493.147
514 0 80.109 10.9476 877 90.2052 458.843 491.507
515 0 81.1651 11.8401 961 89.2591 459.383 491.232
516 0 84.1658 11.7981 993 89.5881 458.712 488.704
517 0 90.1583 13.3543 1204 86.2226 458.194 487.517
518 0 92.2273 11.8295 1091 86.8442 458.395 488.018
519 0 94.192 11.8057 1112 88.2077 458.638 485.284
520 0 97.1309 11.3249 1100 91.3873 458.419 484.819
521 1 52.0676 11.0433 575 92.3965 458.776 504.918
522 0 52.0798 11.0792 577 94.5633 458.641 504.158
523 0 57.1186 11.4149 652 90.7101 458.83 503.244
524 0 53.0291 9.90022 525 82.741 458.897 507.501
525 0 54.1137 10.441 565 83.5646 458.866 505.241
526 0 57.0291 10.1527 579 84.5613 458.34 504.798
527 0 57.1031 9.80682 560 86.3304 458.241 505.746
528 0 59.0851 10.5949 626 85.0815 458.129 502.95
529 0 60.0375 9.99375 600 85.1867 458.877 503.01
530 0 63.0604 10.4503 659 83.5159 457.507 501.451
531 0 64.0411 10.1497 650 83.56 457.723 502.572
532 0 66.1481 10.5521 698 83.2364 458.113 499.653
533 0 70.0804 11.0445 774 82.7326 457.64 498.34
534 0 69.0457 10.2106 705 85.6326 457.03 499.296
535 0 72.0514 10.3537 746 85.3391 457.681 498.43
536 0 73.0913 10.9042 797 85.8344 457.946 495.828
537 0 77.0867 11.4936 886 85.921 457.684 496.296
538 0 77.0563 11.1996 863 87.2758 457.701 494.694
539 0 78.0654 10.5296 822 87.9392 458.536 492.282
540 0 82.0502 11.432 938 87.5469 458.165 490.885
541 0 83.0319 10.6345 883 89.3952 458.715 489.607
542 0 86.0427 11.0526 951 87.7844 457.233 488.993
543 0 90.0919 11.0887 999 89.2012 457.023 487.798
544 0 90.0644 10.6479 959 91.1095 456.824 486.167
545 0 95.0867 11.4948 1093 89.5087 457.709 484.225
546 0 97.1382 11.3138 1099 89.4786 456.861 483.588
547 0 100.054 11.7337 1174 89.9353 457.461 480.78
548 0 103.14 11.9158 1229 90.9284 457.343 479.513
549 0 106.077 11.0109 1168 92.3579 457.545 477.985
550 0 109.052 11.3891 1242 91.7383 457.931 475.523
551 0 112.077 11.0192 1235 90.9393 458.036 472.304
552 0 114.089 10.9563 1250 91.0688 457.729 471.648
553 0 118.08 10.9502 1293 90.5112 457.449 469.531
554 0 124.152 11.7839 1463 88.4805 457.327 469.78
555 0 129.068 12.2571 1582 88.5632 457.239 464.755
556 0 133.13 11.8681 1580 89.3089 457.296 461.701
557 0 140.111 12.9326 1812 89.947 457.493 460.248
558 0 145.072 11.9044 1727 93.9473 456.798 460.147
559 0 149.195 12.1452 1812 96.4779 456.408 453.816
560 1 80.0814 10.1147 810 96.7086 456.635 486.304
561 0 86.0953 11.1853 963 91.9034 457.043 487.652
562 0 89.1695 12.0893 1078 91.9731 457.506 486.884
563 0 90.1304 12.4042 1118 94.1869 456.806 483.508
564 0 94.1284 12.2811 1156 96.346 457.697 487.443
565 0 98.0918 12.0194 1179 99.2943 458.238 484.508
566 0 102.162 12.3725 1264 97.4383 458.229 483.91
567 0 103.099 12.3473 1273 97.9827 458.275 482.189
568 0 108.126 12.5317 1355 97.8886 458.604 479.941
569 0 110.152 11.7747 1297 99.4456 458.866 478.848
570 0 112.157 11.4572 1285 98.8584 458.934 477.507
571 0 117.124 11.5945 1358 94.5096 457.936 476.373
572 1 68.0433 10.8607 739 86.6482 459.087 501.946
573 0 69.0524 11.0785 765 87.3804 457.855 497.907
574 0 71.1382 11.6393 828 88.1751 458.514 497.269
575 0 71.0902 11.197 796 85.1244 457.214 497.78
576 0 75.081 11.9071 894 82.5526 457.183 496.798
577 0 77.1021 11.9193 919 82.1371 456.766 495.66
578 0 78.0204 12.0738 942 84.3578 457.019 494.945
579 0 80.0972 11.7607 942 85.397 456.265 493.283
580 0 84.0175 11.819 993 84.6214 456.672 491.358
581 0 86.0929 11.627 1001 84.4945 456.696 491.154
582 0 89.0379 11.7029 1042 86.096 456.729 488.249
583 0 91.0928 11.7243 1068 82.7463 456.167 488.163
584 0 90.0706 11.2911 1017 87.292 456.718 487.683
585 0 94.0917 11.4994 1082 85.829 456.28 487.458
586 0 97.0586 10.3031 1000 86.694 456.61 482.769
587 0 100.051 11.2543 1126 84.8943 455.978 482.583
588 0 102.097 11.4793 1172 86.9923 455.785 481.636
589 0 106.08 11.6704 1238 86.5929 456.859 480.901
590 0 108.053 11.9756 1294 84.9127 456.798 479.376
591 0 111.067 11.9027 1322 86.264 455.737 477.165
592 0 114.046 12.1618 1387 88.744 455.818 476.527
593 0 119.094 11.8645 1413 90.1288 455.532 473.892
594 0 121.095 12.3539 1496 91.6805 456.288 471.51
595 0 126.094 12.2686 1547 96.9677 455.955 468.562
596 0 130.191 12.5892 1639 97.479 455.78 466.979
597 0 134.136 11.8685 1592 98.1734 456.208 465.311
598 1 71.031 9.96748 708 89.5226 456.177 499.658
599 0 73.0479 9.9113 724 89.0097 455.586 499.507
600 0 76.1046 11.2345 855 90.221 456.46 496.851
601 0 78.1213 11.5589 903 86.4252 456.42 495.92
602 0 81.0713 10.9657 889 85.7908 456.028 492.122
603 0 83.0788 11.3025 939 85.9766 456.476 493.938
604 0 83.125 10.3699 862 88.71 456.582 493.224
605 0 87.0691 11.2554 980 86.1949 455.473 491.395
606 0 91.0862 10.9896 1001 86.4685 456.069 491.724
607 0 95.1274 11.637 1107 85.7453 456.121 488.636
608 0 98.0609 11.5438 1132 86.7686 455.776 486.563
609 0 98.1199 11.649 1143 88.643 455.492 484.57
610 0 103.103 11.4061 1176 89.2662 455.724 483.755
611 0 107.09 11.8498 1269 88.8771 455.841 482.193
612 0 109.14 11.3524 1239 91.4988 455.893 477.348
613 0 111.136 11.3735 1264 89.5989 456.33 477.94
614 0 115.15 11.7325 1351 88.1636 456.012 475.876
615 1 63.2375 9.74106 616 83.2532 456.393 502.463
616 0 62.1583 9.95845 619 82.7076 456.666 500.842
617 0 65.1862 11.2294 732 82.8839 456.46 496.269
618 0 69.0422 11.6161 802 77.1147 456.223 500.895
619 0 70.0845 11.586 812 78.8005 455.97 498.682
620 0 72.0354 11.2722 812 92.0862 456.119 496.245
621 0 74.0497 11.4653 849 91.0895 456.446 496.888
622 0 77.0876 11.1042 856 88.5537 456.342 495.023
623 0 77.0767 11.7156 903 89.3477 456.722 492.762
624 0 81.0756 11.7791 955 88.6848 456.785 493.25
625 0 81.0429 10.624 861 91.0186 457.012 490.151
626 0 85.0376 11.0422 939 88.6219 456.743 490.263
627 0 85.0804 10.4842 892 90.2309 456.374 487.781
628 0 90.0589 11.4259 1029 82.0379 455.799 485.887
629 0 92.0638 10.786 993 83.9799 456.178 484.329
630 0 95.0492 11.5309 1096 86.7308 457.376 484.639
631 0 98.1394 11.1168 1091 87.0981 457.429 481.203
632 0 101.047 10.9454 1106 85.84 456.52 479.854
633 0 105.065 11.136 1170 85.6598 457.18 478.014
634 0 108.082 10.9917 1188 86.7584 456.833 477.584
635 0 110.122 10.9696 1208 87.5315 456.132 471.798
636 0 114.065 9.82772 1121 90.8849 457.402 472.493
637 0 120.144 11.5029 1382 87.6368 457.27 471.319
638 0 123.085 10.4156 1282 89.9704 457.23 468.76
639 0 125.108 10.9825 1374 88.9221 457.034 468.473
640 0 129.124 10.6254 1372 90.0372 456.691 464.772
641 0 132.111 11.3087 1494 88.5924 456.758 460.597
642 0 137.188 10.963 1504 90.0432 457.38 459.201
643 0 142.094 11.8161 1679 87.8654 457.182 456.827
644 0 148.137 11.8606 1757 87.5515 457.064 455.551
645 1 76.0986 10.2761 782 81.2059 456.848 491.861
646 0 81.2178 11.0198 895 86.1039 457.539 488.358
647 0 82.1381 11.785 968 92.7645 457.914 487.905
648 0 85.123 11.736 999 93.5566 458.332 489.012
649 0 90.2053 11.8507 1069 92.1871 458.009 487.268
650 0 92.1576 12.0771 1113 93.3549 457.832 485.818
651 0 93.2108 11.8763 1107 93.2267 457.668 482.739
652 0 95.1282 11.7421 1117 90.3402 458.047 483.126
653 0 98.1738 12.0399 1182 89.692 458.216 481.68
654 0 102.08 12.3236 1258 88.5405 457.428 480.539
655 0 102.206 10.8604 1110 82.355 457.082 482.855
656 0 104.274 10.8464 1131 84.0522 457.671 479.402
657 0 109.201 11.1171 1214 82.8295 457.707 478.176
658 0 112.096 11.276 1264 84.1234 457.176 476.538
659 0 116.139 10.8233 1257 85.6531 457.5 473.848
660 0 120.21 12.0622 1450 83.6262 457.043 471.833
661 0 124.202 11.6101 1442 84.5895 457.926 470.049
662 0 127.159 11.8749 1510 85.198 457.658 467.152
663 0 129.24 11.173 1444 87.3899 457.925 465.076
664 0 134.285 11.5798 1555 86.7749 458.063 462.303
665 0 137.203 10.9619 1504 88.3324 458.16 460.298
666 0 143.126 12.241 1752 86.3984 458.74 459.302
667 0 147.309 11.9612 1762 87.1896 457.843 454.885
668 0 149.245 11.6855 1744 87.6416 458.548 455.174
669 0 154.23 11.8005 1820 87.3385 458.59 449.444
670 0 158.219 11.8317 1872 88.3387 458.632 447.975
671 0 163.271 12.3108 2010 88.0602 458.998 446.728
672 0 169.206 11.5422 1953 89.9278 458.644 442.367
673 0 175.277 12.3918 2172 89.1883 458.103 440.794
674 0 182.221 12.6165 2299 88.9348 458.525 438.741
675 0 185.185 12.3066 2279 90.3866 458.401 435.485
676 0 190.289 11.8767 2260 91.7372 458.469 431.723
677 0 196.322 12.1127 2378 91.2574 458.291 427.608
678 0 204.221 13.5001 2757 87.288 457.577 420.706
679 0 209.301 12.3602 2587 91.5091 457.634 423.305
680 0 214.26 11.9808 2567 92.6455 458.273 417.228
681 0 220.201 12.6566 2787 91.3732 457.677 415.873
682 0 227.22 12.6485 2874 92.4064 458.333 411.827
683 0 233.281 12.4185 2897 93.1729 458.435 410.063
684 0 241.245 12.4852 3012 93.0501 458.445 406.995
685 0 247.283 12.4877 3088 94.2717 458.596 403.022
686 1 60.0365 10.4103 625 86.3136 460.16 500.634
687 0 59.1036 10.9807 649 87.8382 460.065 499.381
688 0 59.0811 9.56313 565 79.2549 458.77 502.315
689 0 60.0771 9.47116 569 81.0721 458.96 501.606
690 0 60.078 9.25463 556 83.2302 459.552 501.462
691 0 66.1421 11.188 740 78.3351 458.992 500.599
692 0 67.0678 10.8547 728 80.1497 458.934 500.375
693 0 69.1187 10.6049 733 81.0628 459.508 500.097
694 0 73.0921 11.1503 815 79.9509 458.85 496.703
695 0 77.1291 12.3429 952 77.0063 458.594 492.024
696 0 77.1289 11.3706 877 79.6853 459.234 494.546
697 0 80.1286 11.8435 949 79.1349 459.78 494.183
698 0 81.1529 11.5338 936 80.4434 459.638 494.033
699 0 86.2828 12.4938 1078 78.6475 459.338 490.035
700 0 91.2946 13.2757 1212 77.349 458.324 485.951
701 0 91.2588 12.0098 1096 81.0666 458.936 488.625
702 0 96.2903 13.532 1303 77.0146 458.284 482.86
703 0 96.3976 11.5771 1116 82.5314 458.532 482.822
704 1 48.0467 9.84459 473 83.0021 460.116 506.797
705 0 48.0423 9.80386 471 80.4522 459.711 503.299
706 0 51.0288 10.5627 539 79.3933 460.147 493.041
707 0 54.0723 11.5771 626 73.9505 459.153 507.746
708 0 54.0734 11.6878 632 74.7595 459.182 507.93
709 0 57.1973 12.8328 734 72.1662 458.04 507.504
710 0 57.1057 12.0828 690 73.7406 458.61 507.068
711 0 61.0869 11.7865 720 74.4722 459.017 505.85
712 0 62.1084 11.7053 727 75.5076 458.164 503.785
713 0 62.1307 12.6186 784 76.2143 458.316 505.105
714 0 65.1458 12.9249 842 74.918 458.904 503.603
715 0 66.1139 12.4936 826 76.822 458.746 503.602
716 0 67.0572 12.9591 869 76.8964 457.926 502.564
717 0 67.0924 12.6989 852 79.1549 457.73 501.722
718 0 68.0751 12.7506 868 80.1152 457.863 499.113
719 0 71.1034 12.9248 919 79.0403 458.066 500.046
720 0 72.1236 13.2689 957 78.5444 457.712 498.881
721 0 73.1119 13.24 968 78.1054 458.373 497.334
722 0 76.0798 13.7356 1045 75.8574 458.589 497.857
723 0 75.075 13.2934 998 78.6964 458.262 497.019
724 0 76.0856 13.2745 1010 79.5683 457.73 494.655
725 0 79.0838 13.0368 1031 80.0844 457.043 493.94
726 0 76.0983 12.0896 920 85.3587 457.286 493.95
727 0 78.1106 12.111 946 87.2368 457.123 490.218
728 0 78.1106 12.0726 943 147.132 457.107 490.176
729 0 82.118 11.5322 947 88.8638 456.706 488.313
730 0 86.0885 12.2664 1056 86.1724 456.801 484.932
731 0 88.0741 12.6711 1116 86.302 457.151 485.195
732 0 90.1096 12.9842 1170 86.2496 456.885 481.758
733 0 93.0636 11.9166 1109 88.2065 457.316 482.011
734 0 96.0814 12.3957 1191 86.6507 457.188 479.008
735 0 97.0473 12.5815 1221 88.1605 456.428 476.326
736 0 99.093 12.3319 1222 88.1612 457.01 474.563
737 0 105.146 12.8488 1351 86.6232 456.908 472.5
738 0 106.07 12.4257 1318 88.1571 456.39 471.295
739 0 110.137 12.3936 1365 88.5421 457.347 470.82
740 0 116.176 12.6877 1474 87.9532 457.554 467.807
741 0 117.255 12.4856 1464 89.722 456.678 466.014
742 1 66.1702 11.1833 740 87.0892 456.622 492.793
743 0 68.115 11.7889 803 87.7273 457.178 492.1
744 0 70.1534 11.9025 835 88.2862 456.697 490.34
745 0 72.2111 12.505 903 85.5083 457.027 489.555
746 0 73.1343 12.648 925 83.7362 457.211 493.039
747 0 76.1101 12.7972 974 82.848 457.627 492.071
748 0 78.1797 12.4073 970 84.3598 456.995 488.978
749 0 81.1664 12.3943 1006 82.9165 457.29 487.725
750 0 83.2246 12.4482 1036 82.8137 457.041 483.411
751 0 83.1663 12.8898 1072 82.2174 457.747 482.772
752 0 86.1351 12.7126 1095 82.453 457.598 478.281
753 0 91.2379 13.1963 1204 86.5623 457.738 477.895
754 0 91.0959 12.0971 1102 83.0926 457.758 473.074
755 0 94.1295 12.6103 1187 82.9671 457.54 472.981
756 0 95.1114 12.5116 1190 85.2454 457.182 473.012
757 0 96.2103 12.2544 1179 86.5081 456.88 472.175
758 0 102.155 12.9215 1320 83.6235 456.805 469.966
759 0 106.249 13.5154 1436 82.796 457.305 469.104
760 0 107.215 12.9179 1385 86.1812 457.533 467.892
761 0 110.096 12.7071 1399 88.0264 457.916 465.087
762 0 115.148 12.6099 1452 88.3416 458.231 464.016
763 0 119.221 12.9004 1538 91.4603 457.673 461.773
764 0 120.153 12.3259 1481 93.7495 457.171 459.82
765 0 124.116 12.8428 1594 92.2629 456.86 460.287
766 0 127.104 11.9115 1514 95.2708 457.592 460.039
767 0 135.198 12.5742 1700 94.2453 457.024 456.391
768 0 140.145 12.7796 1791 94.4126 457.238 455.065
769 0 143.229 13.2236 1894 95.4688 457.837 449.006
770 0 149.333 13.8215 2064 92.5315 457.734 445.381
771 0 151.331 13.0244 1971 96.8321 457.648 442.808
772 0 158.227 13.6449 2159 92.201 457.355 440.042
773 0 162.283 13.7291 2228 93.0512 457.894 438.94
774 0 165.265 13.0336 2154 96.4559 456.883 435.404
775 0 170.306 13.5697 2311 95.4907 457.54 434.976
776 0 176.246 13.7876 2430 95.4601 457.441 429.983
777 0 182.283 14.0057 2553 96.4653 457.627 426.775
778 0 187.333 13.5374 2536 97.802 457.489 423.368
779 0 194.478 13.1943 2566 99.0284 457.456 422.982
780 0 198.399 13.5888 2696 99.5664 457.397 418.25
781 0 202.332 13.127 2656 102.43 456.511 412.337
782 0 212.324 13.2204 2807 100.424 456.796 410.281
783 0 218.334 13.2916 2902 101.396 456.964 405.247
784 0 228.366 13.058 2982 103.625 457.051 404.034
785 0 237.218 13.9619 3312 102.484 456.873 402.04
786 0 243.349 13.1047 3189 105.379 457.137 397.457
787 0 252.371 13.8764 3502 100.551 457.437 394.132
788 1 349.392 7.16102 2502 106.825 457.442 404.601
789 1 273.36 20.2407 5533 82.3468 457.116 364.421
790 0 275.329 16.384 4511 94.035 457.848 376.696
791 0 283.248 15.7353 4457 95.6982 458.246 373.404
792 0 292.342 16.3336 4775 96.0073 457.776 368.647
793 0 302.268 16.2373 4908 96.1569 457.717 364.435
794 0 311.329 15.3182 4769 99.8853 457.824 358.859
795 0 319.342 15.5131 4954 99.7648 457.788 350.755
796 0 330.234 15.6828 5179 101.223 457.792 345.325
797 0 341.28 15.8726 5417 100.512 458.531 338.509
798 0 351.27 15.5351 5457 102.672 458.289 334.848
799 0 362.405 16.2829 5901 100.777 458.544 325.293
800 0 375.333 15.5169 5824 101.535 458.499 323.995
801 0 386.53 16.0531 6205 99.9971 458.443 312.965
802 0 401.699 15.8925 6384 101.175 458.767 303.627
803 1 338.32 8.21115 2778 105.903 458.295 386.294
804 0 339.4 18.5651 6301 87.758 457.898 334.496
805 0 358.293 22.5625 8084 76.8987 458.189 322.049
806 1 80.0779 10.0902 808 82.6349 459.061 492.557
807 0 85.13 10.7953 919 82.1077 459.045 491.58
808 0 83.1629 9.01845 750 78.7147 458.828 494.045
809 0 87.1726 10.3014 898 77.1982 458.666 490.806
810 0 90.1883 10.1344 914 79.0821 458.961 487.928
811 0 93.1267 10.1797 948 79.9736 458.436 486.181
812 0 99.1302 11.2983 1120 78.1973 458.118 485.154
813 0 103.122 10.8221 1116 86.0717 458.09 482.487
814 0 105.041 11.1194 1168 85.3022 457.97 479.069
815 0 108.087 10.1122 1093 85.7887 457.822 479.892
816 0 111.084 11.0907 1232 78.2265 457.407 478.789
817 0 114.075 10.5545 1204 78.6894 456.166 477.16
818 1 61.0271 9.61868 587 81.5537 456.475 504.414
819 0 63.1274 10.8511 685 81.9664 458.401 503.022
820 0 64.1318 10.7591 690 118.691 459.396 502.757
821 0 67.0312 11.0545 741 85.4332 458.233 499.791
822 0 70.1689 11.5293 809 83.115 457.299 500.312
823 0 72.1579 11.0591 798 82.9223 456.733 499.821
824 0 75.1734 11.9723 900 81.2144 456.552 497.682
825 0 77.1464 11.7309 905 80.3912 457.187 498.364
826 0 80.1744 11.8492 950 79.8968 456.717 496.698
827 0 80.192 11.3353 909 80.0099 456.86 494.605
828 0 83.187 11.6364 968 78.3771 457.513 492.728
829 0 87.2449 12.207 1065 76.8404 457.265 492.691
830 0 88.2386 11.2536 993 79.7543 456.226 491.698
831 0 90.1011 10.3328 931 80.7325 455.927 489.724
832 1 45.0451 9.54599 430 79.6721 456.928 509.884
833 0 47.0588 9.79625 461 79.1692 456.861 511.028
834 0 50.0257 9.87493 494 73.7571 457.128 511.368
835 0 51.035 10.8945 556 74.1133 457.212 510.638
836 0 53.013 10.4691 555 74.2613 457.052 508.643
837 1 0 0 0 -nan -nan -nan
838 1 52.0809 9.61965 501 79.7725 456.695 508.892
839 0 52.0418 9.55001 497 80.2274 455.314 507.847
840 0 53.1066 10.2812 546 78.2363 455.436 504.471
841 0 56.0707 9.80904 550 77.6509 455.271 504.724
842 0 56.1628 9.06294 509 79.1572 455.324 504.528
843 0 58.0839 9.96834 579 78.3903 455.1 501.839
844 1 118.281 10.1622 1202 83.53 455.127 473.797
845 0 115.239 8.66893 999 89.1522 455.269 475.767
846 1 65.1255 9.53544 621 78.9694 455.155 502.137
847 0 64.0873 9.90835 635 79.7701 454.854 499.438
848 0 67.0956 9.68768 650 80.3754 455.238 499.229
849 0 71.0655 10.6944 760 79.6171 455.718 496.011
850 0 74.1305 10.4006 771 80.3567 455.743 495.335
851 0 75.0788 10.7887 810 79.1753 455.688 494.214
852 0 76.0452 11.1644 849 79.3875 455.451 493.948
853 0 82.0623 11.8934 976 77.1301 455.76 493.535
854 0 82.1237 11.5801 951 78.5247 455.756 493.198
855 0 85.0879 10.6008 902 80.8115 455.994 491.375
856 0 89.0502 11.8922 1059 79.3371 456.001 489.865
857 0 92.086 11.7933 1086 80.4871 456.113 486.541
858 0 94.0936 11.8818 1118 83.4159 456.903 486.575
859 0 97.1147 12.9229 1255 81.3538 457.224 484.104
860 0 101.159 12.7027 1285 82.2848 457.215 480.918
861 1 57.0491 10.8678 620 86.4629 457.105 502.855
862 0 55.0713 10.3139 568 76.8768 456.898 497.166
863 0 58.0923 10.8448 630 77.819 457.864 497.833
864 0 58.0455 10.8363 629 76.7949 457.431 505.533
865 0 60.0766 10.8362 651 77.8618 457.475 505.069
866 0 64.056 11.8646 760 76.1092 457.009 503.155
867 0 64.1064 10.935 701 78.3723 457.498 502.244
868 0 67.0976 11.4311 767 76.7718 457.113 501.63
869 0 70.0392 10.6655 747 78.332 457.119 500.052
870 0 71.0699 11.4676 815 77.1104 456.853 498.571
871 0 72.0482 10.7706 776 80.6302 457.247 498.12
872 0 76.0559 11.3995 867 80.3449 456.762 497.559
873 0 78.0381 11.2637 879 81.1877 456.742 495.108
874 0 82.1054 11.266 925 81.0292 456.203 495.121
875 0 85.0995 11.9037 1013 79.8717 456.143 493.368
876 0 89.0758 11.7316 1045 80.9158 457.089 491.951
877 0 91.0519 11.9822 1091 81.6709 457.295 489.343
878 1 46.031 10.6233 489 85.3558 457.593 510.235
879 0 48.0502 11.592 557 82.447 457.217 511.194
880 0 49.0368 11.5016 564 82.6879 457.319 510.525
881 0 51.0883 12.175 622 81.7267 457.373 508.066
882 0 52.0513 11.7961 614 83.1629 457.417 508.052
883 0 51.0542 11.1842 571 87.2627 456.757 509.422
884 0 55.0613 11.914 656 86.596 457.174 506.602
885 0 55.0459 11.2633 620 86.6355 457.594 507.755
886 0 57.0372 12.2201 697 86.8895 457.677 506.857
887 0 59.0884 12.1851 720 86.6486 457.185 505.082
888 0 59.0595 11.4461 676 88.5414 457.587 503.354
889 0 64.1164 11.9938 769 85.684 457.303 502.108
890 0 64.0523 11.9278 764 85.9372 457.029 500.792
891 0 69.1455 12.1772 842 84.3777 457.032 499.879
892 0 68.0519 11.4912 782 86.4194 456.983 498.962
893 0 73.0517 11.8136 863 83.6362 457.205 497.742
894 0 74.0711 12.1235 898 82.1793 457.161 496.129
895 0 79.0561 12.0421 952 82.708 457.373 494.705
896 0 80.0954 11.7235 939 85.5996 456.273 491.571
897 0 83.1167 12.2117 1015 83.135 457.568 491.089
898 0 88.1325 11.9025 1049 82.9018 457.645 489.336
899 0 89.1118 11.2667 1004 84.4014 457.198 487.554
900 1 48.0483 10.76 517 86.5687 458.472 508.246
901 0 49.0633 12.1272 595 83.4168 458.104 506.862
902 0 51.0463 12.0871 617 81.0259 457.823 506.256
903 0 51.0383 11.8734 606 81.1535 458.162 506.484
904 0 52.0192 12.2262 636 81.588 456.701 505.072
905 0 56.0242 12.3161 690 80.6217 457.362 503.68
906 0 55.0612 12.0048 661 82.2088 457.785 502.534
907 0 58.1523 12.2953 715 79.8951 457.362 500.473
908 0 60.0542 12.1723 731 79.3584 457.466 499.87
909 0 61.0518 12.8252 783 78.3819 458.474 498.066
910 0 64.0222 12.7143 814 78.3759 457.726 498.795
911 0 65.1225 13.1137 854 77.7002 458.07 498.399
912 0 66.1226 11.9021 787 80.7738 457.704 497.689
913 0 70.1273 12.7625 895 78.7464 457.555 494.455
914 0 72.1045 13.2863 958 76.6555 457.204 494.998
915 0 73.0584 12.3873 905 81.3536 457.777 494.173
916 0 77.1054 12.8136 988 79.8492 457.275 493.198
917 0 78.0368 12.3019 960 80.5677 457.35 491.675
918 0 80.082 12.6121 1010 78.8317 457.359 491.262
919 0 84.1436 12.859 1082 78.0499 457.31 490.738
920 0 85.0546 12.0511 1025 79.8224 456.529 490.356
921 0 86.1522 12.4083 1069 79.5491 457.085 488.486
922 0 91.0907 12.0649 1099 78.7543 457.259 487.173
923 0 94.0766 12.4154 1168 78.0402 456.705 485.546
924 0 98.0896 12.3153 1208 78.0522 456.826 487.089
925 0 100.147 10.8241 1084 80.5341 456.846 482.112
926 0 105.068 11.2308 1180 80.4746 456.291 479.961
927 0 107.102 10.7748 1154 80.6196 456.429 478.784
928 0 112.121 10.9793 1231 83.2047 456.339 477.795
929 1 63.062 11.116 701 79.2354 456.123 506.178
930 0 64.1099 12.0262 771 77.6796 456.987 502.293
931 0 66.0791 11.8343 782 78.7136 456.56 502.552
932 0 68.0585 12.3864 843 76.6097 455.638 502.249
933 0 71.0521 12.1038 860 76.0046 455.412 500.058
934 0 73.1097 11.8315 865 77.3503 456.04 499.418
935 0 76.0816 12.9861 988 75.164 456.384 499.061
936 0 78.1115 12.943 1011 75.185 455.556 498.067
937 0 83.0338 12.7538 1059 74.6742 455.222 496.059
938 0 84.1076 12.5791 1058 74.4282 454.938 495.866
939 0 88.1222 12.5281 1104 73.3505 455.401 493.991
940 0 90.1239 12.8823 1161 75.8475 455.364 492.472
941 0 91.0671 12.8806 1173 77.3026 454.673 492.583
942 0 96.1239 12.796 1230 77.1984 454.906 490.987
943 0 99.0669 12.5673 1245 72.4562 454.81 486.623
944 0 102.054 11.9055 1215 74.0082 455.114 485.091
945 0 104.102 11.335 1180 74.6636 454.885 484.561
946 0 107.069 12.0203 1287 75.9464 454.489 482.691
947 0 111.082 11.6041 1289 77.9837 454.07 480.832
948 0 115.168 11.696 1347 78.784 454.71 479.993
949 1 62.0646 11.3108 702 80.1339 454.621 504.801
950 0 63.0345 11.7396 740 80.8419 455.608 505.026
951 0 66.0546 12.2626 810 86.3901 455.732 504.912
952 0 70.0327 12.4513 872 85.4862 455.825 501.872
953 0 70.135 12.5187 878 84.156 457.575 502.196
954 0 72.1568 12.2095 881 84.5675 455.605 502.066
955 0 74.1489 12.3535 916 83.619 456.833 501.432
956 0 78.0828 13.0246 1017 71.8751 456.088 499.505
957 0 79.0946 12.681 1003 74.6142 456.57 497.861
958 0 81.1386 12.1397 985 75.7503 456.707 496.075
959 0 84.0813 12.6306 1062 74.5847 456.583 494.747
960 0 89.0819 13.8075 1230 71.5333 456.637 494.217
961 0 90.1698 13.031 1175 73.7523 456.928 492.759
962 0 93.0726 12.9899 1209 74.0612 456.63 490.979
963 0 96.0738 12.8755 1237 73.9272 456.971 487.395
964 0 98.0997 12.63 1239 75.456 456.778 487.555
965 0 100.198 12.6849 1271 77.5098 457.069 485.746
966 0 106.221 13.1236 1394 77.0682 456.907 486.023
967 0 108.181 12.8858 1394 83.1915 457.064 482.243
968 0 112.269 12.4612 1399 85.9228 456.432 479.708
969 1 60.1399 11.4234 687 84.6783 457.342 507.258
970 0 64.1253 11.4619 735 82.219 457.981 505.588
971 0 64.1648 11.7822 756 83.0159 457.164 501.933
972 0 66.0945 12.9814 858 79.6935 457.023 499.53
973 0 70.1032 12.9381 907 80.3186 458.015 500.946
974 0 71.1568 12.353 879 83.5461 458.028 499.11
975 0 75.1946 12.8866 969 84.9959 457.843 497.475
976 0 77.1859 12.0618 931 87.3588 457.502 494.914
977 0 78.2848 12.3906 970 87.5701 457.225 494.758
978 0 82.2138 13.3676 1099 85.1156 457.666 492.964
979 0 82.2213 12.892 1060 95.483 457.534 493.278
980 0 87.2711 13.0398 1138 94.8067 458.397 492.982
981 0 90.2765 13.3479 1205 92.8871 457.481 491.799
982 0 92.4669 12.7721 1181 94.2083 457.532 491.618
983 0 94.4234 12.9735 1225 83.0212 457.931 489.721
984 0 98.3956 13.5982 1338 82.2138 457.225 488.221
985 0 100.526 13.1906 1326 86.2262 457.23 484.962
986 0 102.355 12.8669 1317 87.3432 456.885 483.01
987 0 106.457 12.7564 1358 89.2136 456.772 479.952
988 0 108.37 13.1678 1427 88.9138 457.059 479.486
989 0 111.337 12.9248 1439 88.7192 457.156 477.819
990 0 117.46 12.9662 1523 88.0801 457.068 475.104
991 1 64.3332 12.0311 774 86.1563 457.961 501.957
992 0 65.3259 12.0014 784 89.6518 457.853 499.922
993 0 69.429 12.4588 865 91.2879 458.12 498.595
994 0 71.3295 12.7156 907 88.8137 457.614 499.73
995 0 74.2732 13.0464 969 89.1207 457.338 498.26
996 0 75.2967 12.3777 932 90.2339 457.189 497.181
997 0 78.4417 12.7866 1003 90.4477 458.357 494.041
998 0 81.3251 13.0956 1065 89.9268 458.02 493.967
999 0 83.4385 13.2313 1104 90.1114 457.995 491.038
1000 0 86.3188 13.5544 1170 89.7026 457.768 489.47
1001 0 88.483 13.9575 1235 88.779 458.073 490.453
1002 0 91.3112 13.4157 1225 89.5992 458.021 488.499
1003 0 93.318 13.1486 1227 89.9389 458.099 487.054
1004 0 97.3392 13.3965 1304 90.1089 458.451 486.926
1005 0 99.3713 13.4445 1336 87.4379 458.79 485.415
1006 0 102.423 13.044 1336 89.2837 459.233 484.695
1007 0 104.195 12.8222 1336 89.6347 459.431 483.638
1008 1 56.2035 11.5829 651 86.3579 459.945 506.719
1009 0 58.1974 11.839 689 84.0406 460.451 507.98
1010 0 60.1229 12.4412 748 86.1885 460.047 505.995
1011 0 63.16 12.8087 809 83.0655 460.125 504.981
1012 0 66.1475 12.1698 805 83.8745 459.289 502.902
1013 0 68.2013 12.1699 830 84.2398 459.211 502.026
1014 0 71.1716 13.4604 958 82.0292 459.124 500.953
1015 0 72.1665 13.2056 953 84.0115 458.425 499.578
1016 0 73.1876 12.6934 929 86.1335 458.839 498.677
1017 0 78.1739 13.5979 1063 84.4036 458.772 497.652
1018 0 78.0942 13.3941 1046 86.4178 459.463 497.27
1019 0 80.203 13.3287 1069 88.928 459.295 496.168
1020 0 84.1742 13.5671 1142 88.8249 459.59 494.834
1021 0 86.1268 13.5614 1168 90.042 459.9 494.306
1022 0 89.1523 14.2677 1272 88.3404 459.883 492.726
1023 0 94.1414 13.9683 1315 89.3126 460.234 490.881
1024 0 95.1788 13.9212 1325 91.3396 460.071 488.502
1025 0 99.2495 14.1562 1405 91.3765 459.49 487.01
1026 0 101.266 14.3088 1449 91.8537 459.792 485.373
1027 0 103.24 13.9965 1445 94.135 459.018 485.431
1028 1 53.2167 11.9511 636 92.1336 459.362 509.206
1029 0 55.2847 12.3361 682 91.6085 459.063 508.701
1030 0 56.1952 13.1862 741 91.6086 459.035 507.802
1031 0 59.1169 12.9235 764 93.9699 458.641 507.724
1032 0 61.1198 13.0236 796 93.2827 458.853 505.986
1033 0 63.1862 13.1833 833 97.5366 459.056 504.902
1034 0 66.1637 13.6631 904 95.2467 459.277 504.406
1035 0 68.1558 13.5865 926 95.7387 458.459 501.931
1036 0 72.1736 13.4398 970 95.5144 458.123 501.658
1037 0 72.1577 14.0387 1013 95.4116 458.472 500.541
1038 0 75.2125 13.8674 1043 96.2263 458.37 499.233
1039 0 79.164 14.1352 1119 94.471 457.72 498.071
1040 0 80.2178 14.0493 1127 95.5075 458.191 497.2
1041 0 83.2385 13.9479 1161 95.6512 457.8 495.428
1042 0 85.2805 13.9891 1193 96.7393 457.623 492.714
1043 0 88.204 14.3304 1264 96.4866 457.58 491.847
1044 0 91.2261 14.7436 1345 95.713 457.845 491.436
1045 0 96.2598 14.4505 1391 95.55 457.428 489.143
1046 0 98.2105 14.4995 1424 96.29 457.272 486.929
1047 0 100.294 15.0657 1511 95.5983 457.668 486.47
1048 0 103.213 14.4653 1493 98.2652 457.606 483.841
1049 0 108.092 15.3203 1656 95.1854 458.255 485.494
1050 0 112.216 14.6771 1647 93.6484 458.221 484.047
1051 0 116.202 14.3285 1665 94.842 458.1 479.718
1052 0 120.174 14.8368 1783 93.1099 457.626 476.744
1053 0 123.2 14.3506 1768 93.573 456.764 474.597
1054 1 68.2151 12.8564 877 96.293 458.095 504.056
1055 0 70.187 13.4355 943 97.7158 458.543 502.936
1056 0 70.163 14.0245 984 98.8628 458.492 501.613
1057 0 74.1862 14.0457 1042 97.4491 459.145 501.946
1058 0 77.0943 14.7093 1134 97.3254 459.414 500.368
1059 0 79.1039 14.0448 1111 100.424 458.914 499.025
1060 0 81.2228 14.331 1164 100.857 458.122 499.083
1061 0 83.1476 14.2879 1188 101.814 458.673 497.455
1062 0 85.1317 14.8241 1262 101.96 458.49 497.682
1063 0 85.1296 14.2724 1215 105.071 458.288 496.826
1064 0 91.262 14.5953 1332 102.98 458.801 494.68
1065 0 93.201 14.8389 1383 102.422 458.336 494.155
1066 0 93.1926 14.5076 1352 105.388 458.227 493.131
1067 0 96.2549 14.2123 1368 106.548 458.61 491.448
1068 0 100.172 14.1457 1417 107.9 458.095 489.699
1069 0 103.209 14.4367 1490 107.377 457.869 489.364
1070 0 107.203 14.0947 1511 107.57 457.951 488.842
1071 1 60.1389 12.3381 742 112.842 458.503 508.34
1072 0 61.1227 13.5302 827 113.081 458.456 506.126
1073 0 65.102 14.3314 933 110.821 458.124 504.941
1074 0 67.1368 14.2247 955 112.297 458.186 503.988
1075 0 69.0776 13.7092 947 114.248 458.329 503.185
1076 0 72.0787 14.6784 1058 110.715 457.931 502.654
1077 0 74.1022 14.588 1081 113.022 458.49 501.752
1078 0 76.0781 14.7348 1121 112.913 458.507 499.489
1079 0 77.1006 14.28 1101 115.395 458.242 498.613
1080 0 81.0842 14.4294 1170 115.007 458.398 497.339
1081 0 84.095 14.3409 1206 114.641 458.27 496.247
1082 0 87.1017 14.374 1252 113.793 458.22 494.796
1083 0 89.0777 14.4032 1283 114.832 458.387 493.106
1084 0 91.0888 14.162 1290 116.167 458.074 492.095
1085 0 94.1196 14.7472 1388 114.787 457.793 489.528
1086 0 98.1128 14.2999 1403 115.076 458.383 488.133
1087 0 99.1396 14.5149 1439 114.628 458.234 486.887
1088 0 103.102 14.9366 1540 113.462 457.805 484.984
1089 0 105.158 14.0075 1473 130.853 457.952 483.708
1090 0 108.102 14.0515 1519 130.568 458.277 480.394
1091 0 114.102 14.5221 1657 127.167 457.625 477.817
1092 0 118.131 14.5855 1723 123.378 457.001 475.157
1093 0 121.116 14.2343 1724 125.401 457.839 472.033
1094 0 124.101 14.4237 1790 125.505 457.536 472.259
1095 0 130.093 14.6587 1907 124.4 457.788 468.736
1096 0 135.139 14.6071 1974 122.96 457.332 466.864
1097 0 141.16 14.5863 2059 121.91 457.658 464.305
1098 0 146.213 14.431 2110 124.252 457.98 459.998
1099 0 151.162 14.3224 2165 124.82 459.365 460.399
1100 1 83.0936 11.8902 988 122.493 459.296 494.943
1101 0 85.0998 12.362 1052 121.549 458.702 491.182
1102 0 87.0604 13.3471 1162 117.46 458.079 489.094
1103 0 90.0505 13.3814 1205 116.929 457.719 488.583
1104 0 92.0999 13.7459 1266 115.318 457.477 486.668
1105 0 94.1204 12.7496 1200 117.218 457.895 481.878
1106 0 100.12 13.8534 1387 111.583 458.365 482.671
1107 0 102.083 13.489 1377 112.259 458.332 481.473
1108 0 105.08 13.3993 1408 113.578 458.497 475.933
1109 0 109.131 13.1951 1440 113.649 458.284 474.998
1110 0 112.172 13.4615 1510 111.402 458.177 471.496
1111 0 115.136 13.2453 1525 111.86 457.683 468.402
1112 0 120.093 13.323 1600 110.965 458.038 466.422
1113 0 124.098 13.7874 1711 108.946 458.244 466.306
1114 0 128.084 13.3896 1715 109.687 457.324 463.341
1115 0 132.135 12.9564 1712 111.272 458.302 459.651
1116 1 78.0924 11.7169 915 107.974 459.609 498.493
1117 0 80.0642 11.9904 960 110.5 458.54 496.488
1118 0 85.0551 12.5918 1071 108.525 457.262 496.287
1119 0 86.125 12.1684 1048 111.499 458.129 493.968
1120 0 89.1653 12.3254 1099 111.811 457.36 492.915
1121 0 93.1872 11.6862 1089 107.419 458.298 492.472
1122 0 96.1801 11.9047 1145 106.179 458.01 490.653
1123 0 98.1749 12.4268 1220 102.514 457.827 489.82
1124 0 100.151 12.2216 1224 102.348 458.035 487.378
1125 0 105.133 11.6424 1224 104.109 457.765 484.93
1126 0 107.15 11.8618 1271 104.07 458.341 484.621
1127 0 111.137 11.5533 1284 105.703 457.822 482.069
1128 0 114.215 11.6185 1327 104.972 457.053 480.677
1129 0 117.118 11.1768 1309 104.191 457.212 478.492
1130 1 66.0351 10.2673 678 96.472 456.913 505.237
1131 0 65.0756 10.2342 666 92.53 457.38 504.456
1132 0 68.1206 10.9952 749 101.138 457.315 502.406
1133 0 71.0935 10.4651 744 99.4691 457.19 501.015
1134 0 72.0819 10.3216 744 99.4073 456.858 499.259
1135 0 76.1092 11.4441 871 97.38 457.083 498.598
1136 0 79.1449 11.7506 930 96.3247 456.685 499.084
1137 0 79.099 10.8724 860 98.4046 456.934 495.87
1138 0 82.0413 11.543 947 96.5491 458.856 493.084
1139 0 85.0617 12.2617 1043 95.7565 458.142 492.2
1140 0 88.0652 12.082 1064 96.1804 458.559 491.474
1141 0 89.0646 11.531 1027 98.2132 458.978 491.072
1142 0 92.0806 11.8266 1089 94.9688 458.66 489.123
1143 0 94.1354 11.8978 1120 97.2 458.367 489.374
1144 0 99.2067 11.8238 1173 95.6675 457.592 488.369
1145 0 97.1252 10.7181 1041 89.9635 457.974 489.404
1146 0 99.1804 10.1028 1002 90.1687 457.078 489.317
1147 0 100.244 9.69633 972 85.8518 457.12 482.001
1148 0 106.211 10.0931 1072 90.1819 457.188 484.929
1149 0 108.21 9.85123 1066 90.197 457.443 482.736
1150 0 112.188 9.52868 1069 79.8344 457.782 483.667
1151 0 116.195 10.0865 1172 78.1664 457.07 480.288
1152 0 121.17 11.488 1392 82.5366 456.775 473.228
1153 0 125.069 10.5702 1322 77.6641 456.431 476.226
1154 1 67.0888 9.49488 637 76.1366 457.055 504.166
1155 0 68.053 10.8739 740 72.3324 456.515 502.507
1156 0 72.0417 10.3968 749 72.5567 456.636 500.762
1157 0 75.1009 10.7589 808 71.0384 456.514 499.933
1158 0 76.1514 10.7549 819 72.4017 456.376 498.63
1159 0 80.1715 11.5752 928 69.709 456.116 499.966
1160 0 79.059 11.2321 888 71.4617 455.963 496.547
1161 0 85.0826 11.7533 1000 72.508 455.411 496.273
1162 0 89.1113 11.5922 1033 71.6699 456.102 493.499
1163 0 92.1582 12.1964 1124 69.1263 455.361 491.118
1164 0 93.1332 11.6822 1088 70.9761 455.559 490.111
1165 0 96.1226 11.7246 1127 72.2582 455.492 488.44
1166 0 98.1423 11.4018 1119 73.5523 456.08 487.921
1167 0 102.178 12.0183 1228 73.3567 456.279 487.348
1168 0 105.067 12.3445 1297 73.835 456.259 488.557
1169 0 107.156 12.3838 1327 81.8757 455.167 485.946
1170 0 111.174 11.9092 1324 80.284 455.373 482.606
1171 0 113.209 11.2447 1273 78.5868 455.783 482.542
1172 0 116.217 11.0139 1280 81.2641 455.994 483.578
1173 1 62.0501 11.4262 709 80.2891 456.676 508.075
1174 0 66.0597 11.641 769 78.2003 455.303 506.765
1175 0 66.0618 12.0645 797 79.6763 455.368 506.22
1176 0 69.0192 11.8952 821 78.972 455.486 505.045
1177 0 71.0302 12.2061 867 74.0138 456.242 503.715
1178 0 72.0247 11.9403 860 75.1919 455.041 502.984
1179 0 74.1536 12.137 900 74.9833 455.603 501.496
1180 0 76.104 11.5763 881 76.7832 455.675 500.183
1181 0 80.064 11.9779 959 75.633 456.396 500.251
1182 0 83.0719 12.8924 1071 72.6153 456.451 500.506
1183 0 82.1008 11.9853 984 76.8618 456.335 498.881
1184 0 88.036 13.006 1145 74.4349 456.342 496.769
1185 0 90.0573 13.2138 1190 73.4302 456.047 494.828
1186 0 94.0778 12.968 1220 74.6426 457.125 493.351
1187 0 96.1255 12.723 1223 75.8904 456.049 492.428
1188 0 98.0771 12.7349 1249 77.462 456.482 490.386
1189 0 101.087 12.7415 1288 79.9061 456.137 489.638
1190 0 104.103 13.1217 1366 80.8448 455.906 487.348
1191 0 109.253 12.7502 1393 80.2491 456.323 484.883
1192 0 111.146 12.2631 1363 82.9516 456.328 481.797
1193 0 114.248 12.7092 1452 80.9897 456.278 482.148
1194 1 62.0803 12.7094 789 76.6299 456.915 506.232
1195 0 66.1389 13.6229 901 73.6526 456.72 505.188
1196 0 68.0979 13.7302 935 83.293 457.01 505.034
1197 0 69.0376 13.2826 917 83.8713 457.622 504.13
1198 0 70.0935 13.8244 969 83.0557 456.91 502.586
1199 0 75.2189 13.9859 1052 81.9544 456.798 501.92
1200 0 76.1829 14.0977 1074 82.311 456.847 501.844
1201 0 77.2524 13.7342 1061 85.4147 456.441 499.693
1202 0 79.0821 14.0613 1112 85.7923 456.76 498.19
1203 0 82.1057 13.8236 1135 87.4925 456.587 496.941
1204 0 87.1376 14.7009 1281 85.8025 456.746 496.484
1205 0 87.1813 14.4412 1259 88.7284 456.573 497.214
1206 0 93.104 15.0477 1401 86.5903 456.859 495.928
1207 0 93.1107 14.6385 1363 90.6324 457.063 493.771
1208 0 96.1978 15.2498 1467 91.3715 456.933 492.219
1209 0 97.1854 15.2183 1479 92.2536 457.717 490.243
1210 0 100.171 14.8945 1492 93.8619 456.996 490.038
1211 0 103.14 15.2608 1574 92.7529 456.266 488.081
1212 0 106.246 15.5206 1649 91.1346 456.797 487.425
1213 0 108.27 15.3413 1661 92.1138 456.419 486.925
1214 0 112.242 15.2349 1710 94.0538 456.268 484.831
1215 0 114.266 15.1401 1730 93.7393 457.221 482.194
1216 0 120.126 15.3839 1848 92.2987 457.077 480.608
1217 0 121.173 14.9704 1814 93.4074 456.178 480.05
1218 1 62.0762 13.7412 853 97.4267 456.594 509.229
1219 0 66.1479 14.392 952 95.0378 456.794 507.049
1220 0 66.1152 14.2479 942 95.8747 456.6 505.376
1221 0 69.0624 14.2335 983 95.6918 456.671 503.907
1222 0 71.0636 14.1986 1009 96.3776 456.717 503.172
1223 0 75.1093 15.1912 1141 92.2787 457.171 502.806
1224 0 78.0985 14.9555 1168 92.5223 457.305 501.99
1225 0 82.0676 15.865 1302 90.7865 457.612 500.823
1226 0 83.1644 15.4874 1288 92.9433 456.582 500.034
1227 0 85.115 15.2735 1300 93.8654 456.784 499.072
1228 0 87.0302 15.4774 1347 93.6013 456.583 495.868
1229 0 91.2175 16.1373 1472 90.6209 456.511 495.156
1230 0 92.0742 15.6178 1438 92.6426 456.612 492.925
1231 0 94.1482 15.9217 1499 92.5704 456.35 493.081
1232 0 96.071 15.4677 1486 94.5982 456.704 489.616
1233 0 99.0509 15.5274 1538 93.8316 456.707 487.997
1234 0 101.051 14.6857 1484 97.5977 456.809 487.266
1235 0 105.133 14.943 1571 97.7588 457.952 484.781
1236 0 109.125 14.9828 1635 98.2477 456.834 483.461
1237 0 112.117 15.0468 1687 97.9591 456.608 483.379
1238 0 115.083 15.5453 1789 96.251 457.004 481.264
1239 0 119.083 14.8804 1772 98.5999 456.601 478.272
1240 0 124.08 14.4665 1795 98.7114 457.612 476.452
1241 0 126.155 14.3158 1806 97.835 457.11 475.442
1242 0 131.087 14.1967 1861 99.0892 456.881 471.283
1243 1 66.0369 13.9165 919 108.388 457.293 501.394
1244 0 69.0422 13.6293 941 109.764 457.799 498.253
1245 0 74.1228 15.0696 1117 103.743 458.685 498.292
1246 0 76.1077 15.6883 1194 102.605 457.579 497.549
1247 0 77.081 15.2697 1177 104.724 457.46 496.194
1248 0 81.1223 16.0622 1303 102.137 456.992 494.708
1249 0 82.1335 15.5844 1280 104.652 456.916 493.773
1250 0 86.1199 15.641 1347 104.624 457.558 493.2
1251 0 87.103 15.8433 1380 104.84 457.629 492.388
1252 0 89.1494 15.5694 1388 106.594 457.342 490.868
1253 0 93.0833 15.5774 1450 105.349 458.17 490.643
1254 0 98.1282 15.867 1557 102.909 457.442 489.188
1255 0 100.145 15.3178 1534 104.397 458.517 485.7
1256 0 107.193 15.6726 1680 99.9929 458.573 483.433
1257 0 108.16 15.172 1641 101.422 458.96 481.149
1258 0 114.171 15.8709 1812 98.6396 458.464 478.796
1259 0 117.215 15.1601 1777 100.29 457.707 475.671
1260 1 58.1717 12.0849 703 104.589 457.946 505.117
1261 0 60.0924 12.98 780 102.736 457.781 503.887
1262 0 64.1464 13.3133 854 100.705 457.975 502.419
1263 0 64.171 14.025 900 101.423 458.228 501.769
1264 0 65.0605 13.7872 897 102.153 458.408 501.086
1265 0 68.1544 13.9829 953 102.396 458.378 497.644
1266 0 70.1343 14.0017 982 102.896 458.087 496.714
1267 0 70.0759 13.3855 938 107.532 458.069 496.202
1268 0 75.1645 14.7676 1110 103.123 458.123 496.007
1269 0 74.0285 13.3192 986 110.4 457.366 494.452
1270 0 78.1914 14.0041 1095 109.068 457.305 494.636
1271 0 77.0824 13.9591 1076 107.782 457.118 492.604
1272 0 80.1446 13.9373 1117 108.979 456.745 489.961
1273 0 80.156 14.0601 1127 161.438 455.746 490.06
1274 0 83.2082 14.0972 1173 106.066 456.893 489.847
1275 0 86.0678 14.0935 1213 108.303 457.68 487.132
1276 0 89.1109 13.9714 1245 106.165 457.647 487.566
1277 0 91.2116 13.9675 1274 105.296 457.724 485.368
1278 0 94.2005 13.8216 1302 105.016 457.159 484.786
1279 0 99.1156 14.4478 1432 102.398 457.26 481.417
1280 0 101.151 14.3746 1454 102.028 457.019 480.521
1281 0 104.167 13.8624 1444 104.837 456.569 478.594
1282 0 108.155 14.2388 1540 101.351 456.768 475.875
1283 0 112.124 14.0291 1573 100.624 456.932 473.297
1284 0 115.158 13.4772 1552 102.724 457.324 470.733
1285 0 119.203 13.9845 1667 102.176 457.576 467.269
1286 0 125.274 13.9534 1748 102.23 457.348 467.527
1287 0 128.198 13.8068 1770 103.315 457.431 464.227
1288 0 133.169 13.8771 1848 101.636 457.55 462.494
1289 0 137.185 13.9592 1915 100.622 457.47 461.362
1290 0 140.163 13.6413 1912 101.34 457.744 459.168
1291 0 146.212 13.4463 1966 100.756 457.914 456.906
1292 1 79.2206 9.93429 787 95.9644 458.221 490.914
1293 0 83.1784 10.6398 885 94.887 457.805 489.871
1294 0 85.2745 11.2812 962 92.6798 457.482 488.078
1295 0 87.1594 11.3815 992 92.3105 457.838 483.314
1296 0 92.237 11.2645 1039 92.8768 457.883 482.409
1297 0 94.2668 11.7008 1103 91.68 457.529 482.024
1298 0 97.2742 11.0204 1072 93.292 457.876 478.07
1299 0 104.384 11.5823 1209 91.8784 457.653 475.51
1300 0 107.291 10.7838 1157 93.3258 458.044 474.52
1301 0 111.366 11.3589 1265 92.7644 458.006 472.326
1302 1 63.2973 9.11571 577 81.8042 458.886 500.08
1303 0 67.2341 9.63797 648 81.6682 458.313 498.157
1304 0 66.274 8.73645 579 84.6408 458.568 497.055
1305 0 70.2205 10.0968 709 81.8166 458.173 496.612
1306 0 71.277 9.27368 661 85.7958 458.531 495.643
1307 0 76.2446 9.4433 720 88.0139 458.426 496.443
1308 0 77.2722 9.34359 722 90.331 457.821 493.844
1309 0 80.2673 9.59294 770 89.0039 457.635 494.213
1310 0 81.2308 8.49432 690 91.4667 457.568 492.462
1311 0 84.2761 8.3535 704 92.6364 458.08 490.812
1312 0 87.175 6.49268 566 86.2738 458.334 496.657
1313 0 89.1933 9.29442 829 89.4958 457.971 490.704
1314 0 92.2505 8.8238 814 90.9853 457.859 488.752
1315 0 95.1922 8.99233 856 90.3516 457.783 485.738
1316 0 97.2147 7.97205 775 91.4206 457.631 485.813
1317 1 51.1545 7.87809 403 77.727 459.082 511.553
1318 0 55.0846 8.65941 477 74.8302 458.415 510.294
1319 0 54.1328 8.42374 456 75.7303 458.792 510.037
1320 0 57.2032 9.37011 536 75.7649 459.05 507.647
1321 0 59.194 9.35906 554 76.6047 458.85 508.309
1322 0 60.223 9.33199 562 90.1922 458.489 506.496
1323 0 69.2351 9.92271 687 87.7948 458.099 502.693
1324 0 68.3166 8.75336 598 90.5686 458.684 502.227
1325 0 71.288 8.92155 636 88.7296 458.577 501.965
1326 0 73.2861 9.0058 660 89.8227 459.824 498.812
1327 0 75.2931 8.85871 667 89.5112 459.406 499.393
1328 0 76.2167 8.29215 632 89.8592 458.758 500.6
1329 0 78.2654 8.15175 638 89.9248 458.392 497.743
1330 0 83.1957 7.38019 614 91.07 458.112 497.998
1331 0 83.204 7.83616 652 91.0399 458.034 494.75
1332 0 84.2246 6.66076 561 90.189 457.622 492.41
1333 0 87.1696 7.33054 639 88.4789 457.521 492.013
1334 1 41.0307 8.11588 333 81.0571 458.967 516.826
1335 0 42.0867 8.67257 365 77.7726 458.986 516.203
1336 0 44.0793 9.5056 419 77.6181 458.604 515.489
1337 0 45.1066 8.7127 393 80.285 458.784 515.031
1338 0 47.0467 10.0751 474 78.6076 458.686 514.876
1339 0 45.0282 4.97466 224 91.0982 458.638 520.835
1340 0 46.0681 5.23139 241 90.888 458.983 520.515
1341 0 45.0572 6.3031 284 88.5669 459.088 519.229
1342 0 45.1668 7.08486 320 87.6906 459.45 517.097
1343 0 48.0927 8.67075 417 84.5324 458.367 513.88
1344 0 48.142 8.72419 420 84.3048 458.038 513.936
1345 0 48.1665 7.91006 381 88.3911 458.197 515.627
1346 0 48.0697 8.46687 407 88.6364 457.558 514.292
1347 0 55.148 9.39291 518 83.1834 457.913 512.517
1348 0 56.0912 9.09233 510 84.6784 457.451 513.782
1349 0 57.0729 9.54918 545 83.7138 457.804 513.971
1350 0 60.1718 9.5892 577 84.6759 458.137 512.009
1351 0 62.1496 9.44495 587 81.8808 458.375 509.721
1352 0 63.1527 9.04158 571 81.8739 457.314 510.117
1353 0 66.1704 10.1556 672 80.433 457.64 508.924
1354 0 70.2075 10.6541 748 78.8075 456.889 506.83
1355 0 71.1595 10.7786 767 80.0196 457.211 505.15
1356 1 38.0306 10.5967 403 81.9603 458.506 522.104
1357 0 39.0552 10.3699 405 85.0667 457.259 521.262
1358 0 38.0149 10.5222 400 85.9475 457.14 520.915
1359 0 41.0329 10.455 429 88.6131 457.879 518.061
1360 0 42.0374 11.4184 480 85.7292 457.021 518.948
1361 0 43.1334 12.1716 525 89.5714 456.109 517.75
1362 0 45.0786 12.2896 554 92.1101 457.325 517.801
1363 0 46.0105 12.3667 569 92.4605 457.547 517.536
1364 0 47.0126 12.3158 579 92.3869 457.541 516.639
1365 0 47.0848 11.7448 553 96.2116 457.803 516.15
1366 0 49.0361 12.3378 605 96.086 457.822 515.375
1367 0 51.0563 12.0064 613 95.9902 457.38 514.791
1368 0 52.0268 12.6089 656 94.5061 457.671 513.276
1369 0 53.0136 11.8649 629 95.5708 457.38 513.531
1370 0 56.0658 13.0918 734 91.6008 456.417 512.568
1371 0 54.0511 12.4327 672 94.9658 457.188 512.792
1372 0 57.0152 13.1018 747 92.8153 457.214 511.427
1373 0 58.026 12.4599 723 96.0609 457.275 510.112
1374 0 62.0277 13.0587 810 92.6728 457.23 509.116
1375 0 62.0551 12.8273 796 94.3844 457.025 508.794
1376 0 65.038 12.9463 842 92.6449 456.479 508.276
1377 0 68.1402 13.3255 908 85.9493 456.655 505.688
1378 0 69.1353 13.394 926 86.3143 456.001 506.151
1379 0 68.0777 12.9705 883 86.3035 456.508 506.222
1380 0 69.085 12.6945 877 92.7959 456.888 506.534
1381 0 70.075 13.086 917 94.578 456.591 505.639
1382 0 72.0568 13.1563 948 94.5876 456.891 504.479
1383 1 36.0189 11.3274 408 97.8235 456.608 522.189
1384 0 37.0084 11.7 433 94.933 456.721 522.342
1385 0 40.0219 12.3432 494 89.4717 455.984 521.024
1386 0 42.0468 12.2245 514 86.1498 455.148 521.572
1387 0 39.0182 12.3276 481 82.7547 455.736 521.507
1388 0 41.0579 11.91 489 83.1268 456.526 520.928
1389 0 43.0667 12.8638 554 79.296 456.52 519.733
1390 0 44.0481 13.3718 589 78.8964 455.954 519.494
1391 0 45.0302 12.5916 567 80.8377 455.13 518.041
1392 0 46.0379 12.9024 594 81.2677 455.433 518.805
1393 0 46.0439 12.7487 587 83.2572 456.298 517.768
1394 0 47.0421 13.0734 615 82.2813 455.994 515.87
1395 0 48.0121 13.2258 635 83.7827 456.183 516.419
1396 0 50.0775 13.7187 687 82.8632 455.654 515.444
1397 0 51.1033 13.2085 675 82.3615 456.305 515.76
1398 0 51.0875 12.8603 657 85.3866 456.14 514.77
1399 0 53.0346 13.7269 728 82.9464 455.87 512.863
1400 0 56.0847 12.6238 708 84.7556 455.73 511.157
1401 0 57.0747 13.2984 759 84.4967 455.495 510.743
1402 0 59.1036 13.6032 804 84.1032 455.336 510.172
1403 0 60.0724 13.3672 803 84.1968 455.644 509.253
1404 0 62.2055 13.3429 830 86.0422 455.552 507.911
1405 0 64.0671 13.4234 860 85.4244 455.533 507.631
1406 0 66.1341 13.2761 878 87.2893 455.587 505.597
1407 0 66.1096 13.0087 860 89.2279 455.844 506.021
1408 0 69.091 12.8526 888 89.7635 455.231 503.996
1409 0 71.0496 13.3287 947 88.6378 454.506 501.89
1410 0 73.0658 13.1252 959 90.1773 455.009 500.725
1411 1 37.045 11.6075 430 97.4744 454.342 517.412
1412 0 39.0978 11.3817 445 97.9056 455.665 516.025
1413 0 37.0392 11.5553 428 95.9696 455.273 514.516
1414 0 38.1089 11.3622 433 95.2102 455.173 519.268
1415 0 39.0956 11.3568 444 95.7658 454.95 518.642
1416 0 42.0474 11.9865 504 95.379 455.337 518.629
1417 0 42.0512 11.2482 473 98.6406 455.886 518.837
1418 0 42.0469 11.4158 480 95.3854 454.733 518.396
1419 0 45.0973 11.9076 537 95.3855 456.529 515.803
1420 0 45.0387 11.6122 523 95.8145 456.134 515.595
1421 0 46.0464 11.4667 528 96.0038 456.25 515.188
1422 0 46.0427 11.7717 542 96.0498 456.266 514.268
1423 0 48.0328 11.7003 562 94.9786 456.413 513.738
1424 0 49.0296 11.6664 572 96.0804 456.451 512.222
1425 0 50.0732 11.4832 575 97.2644 456.784 511.09
1426 0 51.0509 11.753 600 95.965 456.615 510.137
1427 0 54.0654 11.893 643 96.5023 457.048 508.516
1428 0 55.0516 12.2249 673 97.6672 457.01 507.244
1429 0 59.0462 13.0914 773 94.229 456.546 506.727
1430 0 57.023 11.9426 681 99.7797 456.794 505.515
1431 0 60.0518 11.8231 710 98.7183 457.335 504.823
1432 0 64.0568 12.567 805 95.1863 457.162 503.712
1433 0 65.0808 12.738 829 95.3426 457.35 504.06
1434 0 68.0645 13.3844 911 92.3304 457.672 503.183
1435 0 69.054 12.5264 865 96.9144 457.215 502.02
1436 0 72.0928 13.0526 941 95.5781 457.338 500.555
1437 0 74.0665 12.2998 911 97.854 456.855 499.975
1438 0 75.0888 12.8514 965 96.801 456.968 498.692
1439 0 77.0767 13.2984 1025 96.52 457.244 498.734
1440 0 78.0995 12.5865 983 99.9013 457.212 497.644
1441 0 82.1165 13.1155 1077 97.741 456.844 496.489
1442 0 84.1369 13.1096 1103 97.505 456.329 494.479
1443 0 88.1283 12.9697 1143 97.0989 456.821 493.128
1444 0 88.1945 12.223 1078 101.638 456.578 491.173
1445 0 89.1723 12.7618 1138 101.201 456.243 489.077
1446 0 92.2078 12.6128 1163 102.874 456.727 486.672
1447 0 96.1601 12.4168 1194 102.522 456.51 485.875
1448 0 98.2273 12.4303 1221 104.657 456.382 482.602
1449 0 100.1 12.1179 1213 103.239 455.814 481.669
1450 0 104.263 12.4973 1303 103.002 455.846 479.673
1451 0 108.166 12.3699 1338 102.776 455.547 477.578
1452 0 110.141 12.1027 1333 102.946 455.437 477.099
1453 0 116.135 11.4005 1324 103.554 456.299 473.409
1454 0 119.19 12.048 1436 103.303 456.341 468.612
1455 0 124.176 12.3132 1529 104.092 456.078 465.956
1456 0 130.218 13.0627 1701 103.183 456.433 461.678
1457 0 133.226 12.7452 1698 104.423 456.902 458.06
1458 0 140.21 13.5155 1895 101.809 456.901 455.478
1459 0 141.245 13.1261 1854 104.904 455.991 452.731
1460 0 148.149 13.5404 2006 103.718 455.901 448.957
1461 0 152.242 13.472 2051 104.597 456.081 446.317
1462 0 159.227 14.2124 2263 101.995 456.194 444.26
1463 0 164.242 13.5592 2227 104.569 456.586 445.148
1464 0 169.287 14.248 2412 103.225 455.675 441.655
1465 0 170.218 12.5721 2140 107.341 456.05 445.95
1466 0 175.188 12.9232 2264 106.28 456.276 439.875
1467 0 180.258 12.9814 2340 105.233 455.722 436.791
1468 0 185.228 12.6277 2339 105.418 455.525 434.904
1469 0 192.201 12.0031 2307 106.205 455.987 430.316
1470 0 198.25 12.2724 2433 106.434 455.762 428.528
1471 0 207.199 12.0946 2506 106.037 455.246 425.299
1472 0 215.26 12.5383 2699 105.27 455.554 420.044
1473 0 220.315 12.0282 2650 107.489 455.449 415.012
1474 0 229.43 12.2129 2802 106.64 455.658 411.137
1475 1 176.324 11.6944 2062 103.639 455.718 435.146
1476 0 184.277 12.4812 2300 100.565 456.357 433.054
1477 0 189.304 12.1551 2301 100.59 455.278 431.955
1478 0 196.364 12.5175 2458 100.073 455.937 427.734
1479 0 202.367 11.8695 2402 101.522 455.478 425.277
1480 0 209.26 12.3196 2578 100.938 455.926 419.406
1481 0 215.255 12.0833 2601 101.532 455.563 417.22
1482 0 225.47 12.7689 2879 100.131 455.334 412.358
1483 0 231.388 12.1916 2821 103.112 455.622 408.049
1484 1 52.1165 9.4212 491 83.6334 457.466 498.179
1485 0 54.1156 9.77537 529 80.724 456.696 497.059
1486 0 57.1656 9.7961 560 75.3893 456.268 496.129
1487 0 59.1851 10.7797 638 75.2461 456.605 500.174
1488 0 60.3178 10.7099 646 76.1966 456.684 499.093
1489 0 64.1949 10.1566 652 75.6825 456.943 499.262
1490 0 65.1673 10.2045 665 74.0045 457.047 495.208
1491 0 66.2308 11.2636 746 73.3566 456.992 495.276
1492 0 68.1372 12.7537 869 85.2106 457.36 500.723
1493 0 72.127 12.8662 928 83.7597 457.588 498.004
1494 0 73.1191 11.8847 869 86.3832 457.921 497.468
1495 0 76.1356 11.8736 904 85.729 457.281 496.709
1496 0 78.2481 12.1792 953 84.4365 456.733 492.221
1497 0 80.2385 11.5655 928 85.7478 457.49 492.968
1498 1 39.0506 10.9345 427 91.8009 458.005 512.464
1499 0 40.1913 10.9228 439 93.8633 457.522 507.909
1500 0 42.1431 10.8677 458 91.7969 457.542 509.306
1501 0 45.0235 12.0604 543 90.8656 458.215 509.622
1502 0 48.0877 11.7286 564 94.1241 456.995 509.09
1503 0 48.1219 11.0553 532 96.8816 456.412 508.295
1504 0 50.1654 11.502 577 96.1369 456.178 507.693
1505 0 53.1656 11.5864 616 95.664 456.812 507.317
1506 0 54.1298 12.0821 654 93.6024 456.158 508.674
1507 0 56.1893 12.2087 686 94.4592 455.872 508.841
1508 0 56.106 12.2625 688 95.7936 456.116 507.887
1509 0 57.1297 12.7429 728 94.103 455.97 507.247
1510 0 59.1257 12.7694 755 94.0464 456.544 507.34
1511 0 60.1058 12.4447 748 96.0013 455.972 506.799
1512 0 62.1362 12.6335 785 94.7936 455.831 505.899
1513 0 63.172 12.7588 806 96.0993 455.837 504.618
1514 0 66.1537 12.7733 845 94.1503 456.618 503.872
1515 0 64.1063 12.2921 788 97.5761 456.787 502.718
1516 0 67.13 13.3025 893 93.794 457.189 500.988
1517 0 68.1329 12.5197 853 95.9777 456.689 499.419
1518 0 70.0745 11.816 828 95.9263 456.691 499.577
1519 0 72.1745 12.4698 900 93.2456 456.751 498.541
1520 0 72.0765 12.1399 875 83.5497 456.783 500.075
1521 0 74.0821 12.5941 933 83.5284 457.599 498.499
1522 0 76.0435 12.3745 941 84.4091 456.748 496.948
1523 0 77.0895 11.9082 918 86.4717 457.226 495.905
1524 0 81.0821 13.0608 1059 83.4514 457.629 494.763
1525 0 81.0821 13.0855 1061 140.678 457.621 494.691
1526 0 85.1025 12.3851 1054 88.9602 457.139 490.425
1527 0 87.0594 11.5324 1004 87.4273 457.592 489.547
1528 0 89.144 11.9357 1064 88.9615 456.873 489.073
1529 0 92.1726 12.162 1121 87.9179 457.12 489.031
1530 0 94.1403 12.099 1139 88.158 456.779 488.001
1531 0 95.0825 12.6206 1200 88.2975 457.061 485.17
1532 0 99.0913 12.5944 1248 88.2147 457.095 484.643
1533 0 102.055 13.1694 1344 86.7716 457.815 484.856
1534 0 105.097 13.0261 1369 86.9335 458.051 481.077
1535 0 108.169 12.7578 1380 86.837 456.58 481.596
1536 0 111.097 12.8446 1427 87.1864 457.267 477.204
1537 0 115.098 12.3112 1417 87.3853 457.057 477.775
1538 1 60.0537 11.6396 699 84.4893 457.332 504.021
1539 0 61.0501 10.9255 667 85.8291 457.516 504.472
1540 0 64.0093 12.0451 771 84.6628 456.822 501.505
1541 0 66.0488 13.0055 859 87.241 455.388 502.299
1542 0 68.049 12.9172 879 87.3584 455.491 501.222
1543 0 69.0683 12.6541 874 89.5835 456.483 500.169
1544 0 70.0436 12.9633 908 90.2709 456.186 498.9
1545 0 72.0463 12.5614 905 90.3702 455.997 496.566
1546 0 74.0288 12.8599 952 90.6796 455.605 496.479
1547 0 76.0383 12.9803 987 91.8774 455.878 494.357
1548 0 79.0561 13.1805 1042 92.5432 456.458 494.783
1549 0 80.0465 12.7801 1023 93.8338 455.964 494.353
1550 0 83.0543 12.8591 1068 96.2313 456.066 491.584
1551 0 87.0731 13.0465 1136 95.1611 456.199 490.089
1552 0 90.1048 13.0182 1173 95.4246 456.287 490.231
1553 0 92.0858 13.1399 1210 93.9512 455.984 488.202
1554 0 93.1252 13.5087 1258 93.1653 455.655 486.493
1555 0 96.1257 12.7957 1230 95.9667 455.711 486.372
1556 0 101.093 13.641 1379 92.2647 455.83 483.814
1557 0 103.075 12.7867 1318 93.4613 455.619 482.994
1558 0 105.09 12.4465 1308 92.7852 455.891 482.542
1559 1 53.08 10.7197 569 93.7065 457.429 508.234
1560 0 51.0675 11.5925 592 91.2905 456.377 508.253
1561 0 55.0371 11.5922 638 85.5016 456.183 508.415
1562 0 56.0796 11.6977 656 81.5488 457.238 507.011
1563 0 56.0742 11.6096 651 83.8894 458.16 505.986
1564 0 58.084 11.4145 663 83.3906 457.306 505.336
1565 0 59.0853 11.6611 689 81.9115 457.314 503.958
1566 0 60.071 11.5364 693 82.5599 457.273 502.482
1567 0 64.0458 12.0383 771 80.9767 456.929 501.512
1568 0 65.0397 11.4238 743 83.7443 457.63 501.456
1569 0 68.0755 11.6488 793 84.0933 457.11 499.624
1570 0 69.0587 11.8884 821 84.123 457.03 499.112
1571 0 73.0617 12.2362 894 82.349 456.884 498.872
1572 0 74.0638 12.0572 893 83.8343 457.452 498.554
1573 0 78.0935 12.4978 976 82.0102 456.646 497.751
1574 0 78.1109 12.5975 984 83.5904 456.833 497.653
1575 0 81.0859 12.1969 989 84.8615 457.081 494.883
1576 0 83.1291 12.3302 1025 83.5668 457.237 493.874
1577 0 86.1478 12.6875 1093 83.3925 456.705 491.855
1578 0 90.1788 12.3754 1116 83.9785 456.614 490.113
1579 0 92.1418 12.7955 1179 83.6845 456.659 488.304
1580 0 94.1273 12.7912 1204 85.5556 456.36 487.734
1581 0 97.0983 13.1104 1273 85.5522 456.818 486.767
1582 0 98.1267 12.5246 1229 97.24 456.82 483.149
1583 0 100.099 12.3278 1234 98.8841 456.188 482.581
1584 0 102.105 12.1737 1243 99.2196 456.616 481.665
1585 0 106.139 12.2292 1298 97.3313 456.618 481.525
1586 1 56.0508 10.8116 606 93.3713 457.881 507.779
1587 0 57.0339 10.9233 623 93.2247 457.769 507.645
1588 0 58.0479 11.5939 673 90.4993 457.296 506.259
1589 0 60.0809 11.601 697 90.4993 456.931 506.331
1590 0 61.0822 12.5077 764 89.9031 457.281 503.737
1591 0 62.1324 11.0409 686 92.6122 457.36 506.217
1592 0 63.0803 11.2872 712 93.5379 456.719 505.496
1593 0 65.1049 10.7212 698 94.8854 457.143 503.844
1594 0 67.0792 11.1361 747 92.174 456.625 504.782
1595 0 69.1933 11.7063 810 93.3333 456.815 501.462
1596 0 72.1382 11.6582 841 93.7646 456.769 498.043
1597 0 73.0937 11.5468 844 95.9502 456.436 497.456
1598 0 79.1604 12.0262 952 92.4832 456.012 496.185
1599 0 80.144 11.6915 937 95.3991 456.375 494.748
1600 0 82.0718 11.9529 981 95.8777 456.548 492.476
1601 0 84.0332 11.8168 993 96.15 456.689 492.52
1602 0 86.063 11.631 1001 97.3067 456.661 491.871
1603 0 89.1196 12.1522 1083 96.3934 457.016 489.08
1604 0 92.0417 12.0815 1112 97.5396 456.432 489.014
1605 0 95.0775 12.1901 1159 98.4003 456.682 487.509
1606 0 99.0651 12.5675 1245 97.7108 456.084 486.018
1607 0 99.1199 11.5819 1148 98.6873 456.18 483.898
1608 0 105.188 12.1117 1274 96.916 456.711 480.272
1609 1 55.0651 12.1674 670 98.703 457.345 501.213
1610 0 55.0269 11.9396 657 98.9102 456.746 496.508
1611 0 62.3008 13.4669 839 96.5757 456.179 499.824
1612 0 64.176 13.3383 856 98.2185 456.618 502.804
1613 0 66.1879 13.2653 878 98.9066 456.646 500.706
1614 0 65.0801 13.2145 860 99.3849 456.665 498.235
1615 0 68.1895 13.3012 907 100.192 455.811 498.906
1616 0 69.1847 13.5001 934 99.6467 456.698 497.308
1617 0 73.3467 13.184 967 100.25 455.887 495.58
1618 0 73.2151 13.6584 1000 99.767 456.097 493.959
1619 0 76.3648 13.37 1021 99.76 456.402 491.596
1620 0 78.2062 13.4516 1052 102.636 456.664 492.573
1621 0 81.1331 12.917 1048 98.083 455.849 491.962
1622 0 84.16 12.6901 1068 97.9026 455.676 490.784
1623 0 84.0998 12.8894 1084 99.2223 455.034 489.584
1624 0 89.0667 12.7208 1133 98.6514 454.594 487.641
1625 0 91.0313 12.0728 1099 91.1656 455.506 488.328
1626 0 91.0642 11.2558 1025 93.5717 455.691 487.028
1627 0 93.0901 11.9132 1109 92.3057 455.151 487.041
1628 0 97.0774 11.702 1136 92.7799 455.896 485.545
1629 0 99.1018 12.0482 1194 93.3585 455.986 483.59
1630 0 103.055 12.0712 1244 93.0402 456.412 481.527
1631 1 50.1025 10.718 537 91.7784 455.354 509.335
1632 0 52.1001 10.9789 572 90.8007 455.54 507.39
1633 0 52.0608 10.4109 542 90.7546 455.489 506.806
1634 0 53.1341 11.1416 592 89.3598 455.581 505.365
1635 0 58.0625 12.1076 703 84.5875 455.681 503.888
1636 0 57.0368 11.3085 645 78.6853 455.505 502.059
1637 0 63.0921 12.2836 775 94.9587 455.876 500.512
1638 0 66.0817 12.4392 822 94.2044 455.787 501.06
1639 0 67.0826 11.6871 784 97.2589 455.422 500.909
1640 0 69.0447 12.6295 872 98.4037 456.006 497.3
1641 0 70.0505 12.8907 903 98.2525 455.965 496.226
1642 0 72.0627 11.6288 838 96.9212 456.092 496.61
1643 0 75.0848 12.2928 923 93.4485 456.659 494.66
1644 0 77.0388 12.3964 955 96.7948 455.827 494.334
1645 0 79.0522 12.6372 999 92.968 455.789 493.266
1646 0 82.0819 12.6703 1040 91.4846 455.427 491.966
1647 0 84.0785 12.7738 1074 91.2542 455.605 490.531
1648 0 85.1058 12.7136 1082 91.805 456.061 490.976
1649 0 89.0703 12.7427 1135 90.9885 455.523 489.683
1650 0 92.0744 12.794 1178 89.708 456.076 487.536
1651 1 47.1195 11.63 548 88.8595 455.706 509.887
1652 0 48.1058 11.4123 549 94.1129 455.454 507.758
1653 0 47.0221 10.6333 500 88.404 455.588 503.318
1654 0 49.0905 11.8149 580 88.5862 456.303 501.781
1655 0 52.1128 12.8184 668 88.6901 455.521 507.135
1656 0 56.0902 13.2822 745 86.4027 455.278 506.691
1657 0 56.077 12.6433 709 89.1453 455.365 505.035
1658 0 58.0425 13.0766 759 89.2661 455.376 505.746
1659 0 60.044 12.9572 778 87.7686 455.222 504.207
1660 0 60.0287 13.3603 802 88.5412 455.908 503.958
1661 0 63.028 12.9149 814 90.3808 455.838 505.458
1662 0 66.0681 12.2601 810 91.7444 456.314 503.843
1663 0 66.1019 12.9346 855 91.9146 455.788 501.572
1664 0 68.126 12.1099 825 93.4048 455.476 501.016
1665 0 70.0913 13.1685 923 90.5504 456.845 499.95
1666 0 73.07 13.056 954 92.2736 456.122 498.981
1667 0 74.1171 13.1549 975 91.9405 455.673 497.734
1668 0 76.1064 13.0475 993 93.2417 455.65 496.877
1669 0 79.1161 12.6649 1002 94.6517 455.565 494.667
1670 1 43.0437 12.4525 536 96.9328 456.134 512.478
1671 0 43.0758 11.886 512 101.15 455.732 510.527
1672 0 42.1221 11.9177 502 97.0478 455.359 508.855
1673 0 45.0629 11.6726 526 92.2015 455.954 505.821
1674 0 45.0495 11.898 536 92.2239 455.84 505.774
1675 0 47.0099 11.7635 553 92.5118 455.828 505.995
1676 0 47.0181 11.4424 538 94.8141 456.18 504.755
1677 0 51.0279 12.0718 616 92.8766 456.312 504.166
1678 0 51.0229 11.485 586 95.8123 456.085 503.369
1679 0 52.0747 11.6371 606 94.472 455.596 505.477
1680 0 53.0527 12.2897 652 92.8574 455.051 504.273
1681 0 56.0345 12.1711 682 91.8754 455.569 503.456
1682 0 58.0849 12.3784 719 91.0542 454.573 501.794
1683 0 62.1237 13.3122 827 100.131 455.264 503.706
1684 0 64.0799 13.4051 859 98.5634 455.74 504.037
1685 0 62.0366 11.8962 738 92.0081 455.248 504.472
1686 0 64.1176 12.633 810 90.121 456.135 503.274
1687 0 67.0903 12.6248 847 88.8028 456.604 502.348
1688 0 70.0252 12.8525 900 87.4344 456.814 501.407
1689 0 71.0513 12.8921 916 86.9847 456.62 501.708
1690 0 74.0827 12.756 945 86.9429 456.25 499.848
1691 0 77.1034 13.0733 1008 85.2202 455.585 497.804
1692 0 78.1039 12.7138 993 86.0191 455.862 496.051
1693 0 79.053 12.6877 1003 86.7478 456.002 493.375
1694 0 82.1918 12.6412 1039 87.1511 455.391 491.052
1695 0 84.0841 12.7729 1074 87.5037 455.416 489.883
1696 0 86.1154 12.5645 1082 90.1017 455.77 489.655
1697 0 90.0835 13.1323 1183 89.6247 455.887 488.177
1698 0 91.2007 12.774 1165 92.2738 455.246 487.108
1699 0 94.0771 13.3082 1252 90.8131 455.472 485.486
1700 0 98.1047 12.823 1258 91.0851 455.019 483.267
1701 0 103.114 11.6182 1198 92.1494 455.966 482.495
1702 1 49.0215 11.5256 565 91.9062 455.821 507.467
1703 0 52.049 13.3144 693 89.3304 455.915 505.73
1704 0 55.0569 13.259 730 94.1479 456.266 504.012
1705 0 55.0219 12.7949 704 90.6804 456.276 507.038
1706 0 57.0143 12.9266 737 90.3121 456.214 506.389
1707 0 57.0888 13.3651 763 90.0446 456.131 505.117
1708 0 60.068 13.1684 791 90.5411 455.274 502.718
1709 0 63.0213 13.3447 841 90.4804 455.401 502.957
1710 0 64.0532 13.6293 873 90.6964 455.286 501.593
1711 0 68.0639 13.5755 924 90.2056 455.499 501.344
1712 0 69.0347 13.3846 924 91.8366 455.359 499.011
1713 0 71.0212 14.9533 1062 88.2674 455.212 498.323
1714 0 72.065 13.8347 997 91.8205 456.017 498.086
1715 0 74.0165 12.6593 937 96.1387 456.079 495.951
1716 0 75.0503 13.0046 976 95.9191 455.932 495.892
1717 0 79.0918 12.947 1024 93.0791 456.074 493.94
1718 0 82.0771 12.9391 1062 93.306 455.992 492.136
1719 0 82.089 12.5595 1031 96.1106 455.723 490.634
1720 0 86.0766 12.8374 1105 94.5928 455.158 489.291
1721 0 89.0407 12.9267 1151 94.1321 456.173 487.981
1722 0 92.0961 12.6281 1163 94.5847 455.72 485.689
1723 0 94.0936 12.5832 1184 94.9797 455.613 483.188
1724 0 99.1256 12.5598 1245 94.2337 456.501 481.209
1725 0 102.079 12.9017 1317 91.8588 456.443 481.208
1726 0 106.063 12.8226 1360 91.2603 456.161 478.143
1727 1 56.0318 10.9938 616 96.9821 456.109 504.489
1728 0 59.059 11.6663 689 97.5298 456.197 503.038
1729 0 60.0939 12.8299 771 95.0208 456.266 501.083
1730 0 63.1004 12.7099 802 94.7095 455.779 500.085
1731 0 64.0711 13.7504 881 93.4665 456.444 500.532
1732 0 66.0903 14.0414 928 93.2931 456.283 500.15
1733 0 71.0981 13.1368 934 94.1563 456.543 499.111
1734 0 70.0496 13.833 969 94.9133 456.341 497.662
1735 0 74.1199 13.8155 1024 95.0098 456.169 495.142
1736 0 76.1416 13.0678 995 96.802 456.522 495.448
1737 0 77.079 13.4667 1038 96.447 456.232 493.394
1738 0 80.1408 13.8132 1107 97.0154 455.925 494.047
1739 0 84.116 13.8024 1161 97.2377 456.298 493.104
1740 0 87.2172 13.1167 1144 98.0962 456.499 491.625
1741 0 90.1252 13.6699 1232 96.3352 456.961 489.101
1742 0 93.1676 13.4704 1255 96.9386 456.734 489.018
1743 1 48.1477 11.1116 535 96.8561 456.385 510.88
1744 0 49.0625 11.5771 568 97.5581 456.38 509.292
1745 0 53.0638 12.0798 641 96.9033 455.875 508.448
1746 0 54.1714 12.1466 658 94.6003 455.992 506.892
1747 0 57.1007 12.872 735 92.2844 456.158 505.484
1748 0 58.0637 12.7791 742 93.9744 456.993 505.101
1749 0 60.0589 13.2037 793 86.2245 456.354 504.781
1750 0 62.0347 13.5247 839 86.2396 456.074 504.299
1751 0 64.0314 13.712 878 85.4841 455.481 502.696
1752 0 65.0451 13.5444 881 86.3927 456.208 501.907
1753 0 68.0219 13.5103 919 85.4603 455.922 500.308
1754 0 71.1064 13.8525 985 84.2386 455.247 500.642
1755 0 69.0465 13.6285 941 87.6132 455.287 498.018
1756 0 73.0465 13.7857 1007 88.9811 455.798 498.25
1757 0 75.0438 13.7653 1033 92.1307 456.355 496.817
1758 0 77.0814 12.9863 1001 93.7433 455.363 495.508
1759 0 80.0961 13.0593 1046 94.9656 455.399 492.919
1760 0 82.0626 13.7456 1128 94.3564 455.629 491.617
1761 0 85.1541 14.2565 1214 93.8583 455.921 489.554
1762 0 89.1324 14.3158 1276 93.9005 455.708 488.763
1763 0 92.2208 13.9882 1290 95.2264 455.548 487.34
1764 0 94.1695 13.9111 1310 96.3023 455.61 486.153
1765 0 96.1357 14.1259 1358 97.0773 455.968 483.92
1766 0 100.102 14.685 1470 94.9231 456.122 483.843
1767 0 102.16 14.1934 1450 97.0062 455.684 481.037
1768 0 105.287 14.3607 1512 97.3366 455.356 480.466
1769 0 108.193 14.0213 1517 98.5458 455.486 478.79
1770 0 110.194 14.3474 1581 98.5098 455.056 477.806
1771 0 115.233 14.6052 1683 95.0974 454.638 475.932
1772 0 117.299 14.4332 1693 95.3101 455.066 474.415
1773 0 123.195 14.1808 1747 94.581 455.037 473.536
1774 0 126.154 14.1256 1782 97.0814 454.848 470.054
1775 1 49.0633 11.7195 575 97.1026 455.256 508.037
1776 0 52.0668 12.1575 633 93.8167 455.66 505.978
1777 0 51.1018 11.6239 594 91.2121 455.606 502.668
1778 0 56.1532 13.3207 748 94.1484 456.933 506.886
1779 0 54.0777 12.2232 661 94.4539 456.094 506.828
1780 0 56.1357 12.541 704 92.9332 456.126 506.891
1781 0 59.1367 12.1752 720 93.6417 456.031 505.003
1782 0 60.0516 11.8565 712 94.4817 455.744 504.204
1783 0 62.0926 12.0948 751 92.9041 455.84 504.38
1784 0 64.0243 11.8236 757 95.0925 455.305 502.012
1785 0 67.0617 11.9293 800 94.6025 455.625 500.64
1786 0 69.1348 11.5571 799 93.8886 456.011 502.956
1787 0 70.05 12.1199 849 93.119 455.984 501.934
1788 0 73.0707 12.4263 908 92.522 456.329 500.698
1789 0 77.1733 11.8435 914 93.8074 456.074 500.136
1790 0 79.0364 12.1843 963 92.2814 456.128 498.35
1791 0 79.0683 11.8379 936 97.2586 455.954 496.856
1792 0 82.0644 12.1124 994 95.5805 456.042 496.893
1793 0 85.0739 12.6713 1078 95.0427 455.468 495.887
1794 0 88.1097 12.1553 1071 96.3726 455.43 493.578
1795 0 87.077 12.3339 1074 98.2123 455.266 492.491
1796 0 94.1083 11.6674 1098 98.3288 454.932 489.441
1797 0 96.0486 12.1917 1171 96.1742 455.51 489.022
1798 0 100.065 11.6724 1168 96.9161 454.503 488.039
1799 0 103.1 11.6779 1204 96.2973 454.631 486.581
1800 1 51.0336 11.2671 575 100.089 454.221 509.826
1801 0 54.039 11.4732 620 98.9613 454.311 509.25
1802 0 55.0885 11.4725 632 85.2911 455.384 508.995
1803 0 55.0475 12.4256 684 97.2617 454.219 506.243
1804 0 59.0194 11.3183 668 99.9177 455.687 505.876
1805 0 62.0267 11.9142 739 97.8836 455.667 505.39
1806 0 63.0327 12.2 769 96.6411 456.338 504.737
1807 0 63.0251 12.027 758 98.1847 456.591 503.566
1808 0 64.0248 12.2453 784 97.2232 456.051 502.73
1809 0 67.0615 12.1679 816 96.174 456.469 500.085
1810 0 70.0261 12.0526 844 96.0794 456.024 499.532
1811 0 72.0529 12.241 882 95.6746 456.067 498.493
1812 0 72.0432 12.5897 907 95.7938 455.868 496.31
1813 0 72.0447 12.5478 904 135.248 455.875 496.299
1814 0 79.0614 12.7243 1006 93.4443 455.835 494.724
1815 0 81.1158 12.4267 1008 94.4395 456.004 492.711
1816 0 85.0959 12.5035 1064 94.4821 455.943 491.163
1817 0 86.0628 12.2236 1052 96.9487 455.298 490.248
1818 0 90.0412 12.2944 1107 96.5908 455.948 489.273
1819 0 93.1037 12.8566 1197 94.5238 454.906 487.261
1820 0 97.065 12.3525 1199 94.0359 455.982 487.196
1821 0 99.1286 12.7108 1260 88.7048 455.514 487.078
1822 0 104.143 12.5117 1303 92.8534 455.52 482.243
1823 0 107.215 12.7035 1362 92.6512 455.295 480.676
1824 1 54.0778 12.0567 652 86.7653 456.322 509.08
1825 0 55.0881 12.3802 682 87.0425 456.199 506.971
1826 0 56.0756 12.4653 699 87.7625 456.001 505.893
1827 0 60.0871 12.665 761 84.9777 456.311 505.656
1828 0 63.058 12.766 805 84.5006 455.981 503.86
1829 0 64.0533 12.5989 807 84.72 455.767 502.088
1830 0 65.1189 11.9781 780 86.5244 455.772 502.023
1831 0 68.1188 12.5369 854 84.7998 456.029 499.918
1832 0 68.1827 12.7158 867 86.143 455.713 499.423
1833 0 73.0874 12.834 938 84.8113 456.177 498.996
1834 0 76.1552 13.3149 1014 84.4428 455.977 498.463
1835 0 77.0869 13.0502 1006 86.1511 456.7 498.175
1836 0 81.145 13.1863 1070 84.6757 456.543 495.64
1837 0 82.1075 13.2022 1084 87.845 456.162 494.671
1838 0 86.045 13.8416 1191 85.9463 456.815 491.907
1839 0 86.142 12.5607 1082 90.122 456.375 491.615
1840 0 89.1829 12.7939 1141 90.0412 456.555 491.073
1841 0 92.1156 12.8968 1188 91.1793 456.44 489.168
1842 0 92.1362 12.1993 1124 90.6183 456.349 488.963
1843 0 94.1435 12.2154 1150 93.4191 456.56 487.634
1844 0 97.0748 12.7737 1240 92.5323 456.706 486.131
1845 0 100.044 12.6244 1263 92.3056 456.749 485.912
1846 0 102.136 12.4344 1270 93.022 456.832 483.891
1847 0 106.03 12.0249 1275 94.6173 456.789 482.921
1848 0 109.217 12.6721 1384 92.4689 456.651 480.942
1849 0 111.353 11.7734 1311 93.5614 456.73 480.722
1850 0 114.245 12.7796 1460 92.0123 456.797 477.361
1851 0 118.165 12.2964 1453 93.927 457.083 475.595
1852 0 126.14 14.5156 1831 87.4746 455.336 475.296
1853 0 128.339 12.6306 1621 90.0456 455.375 470.496
1854 0 132.258 12.6949 1679 89.9708 455.946 469.086
1855 0 134.211 12.2866 1649 91.6004 455.619 468.199
1856 0 140.427 12.6471 1776 90.4043 456.015 466.871
1857 0 144.228 12.7091 1833 92.725 455.806 462.294
1858 0 149.117 14.1299 2107 94.29 455.555 455.089
1859 0 152.219 13.6317 2075 94.76 455.768 453.107
1860 0 155.151 13.3225 2067 96.1959 455.532 450.925
1861 0 159.089 12.515 1991 96.333 455.713 444.13
1862 0 165.077 13.3937 2211 93.7363 455.552 443.687
1863 0 168.147 12.3226 2072 96.5246 455.603 443.875
1864 0 173.174 12.4845 2162 97.0546 455.412 442.486
1865 0 179.102 12.6967 2274 97.0629 455.608 437.925
1866 0 183.161 12.3334 2259 97.591 455.981 435.82
1867 0 188.135 11.6618 2194 97.9093 455.394 432.548
1868 0 195.118 12.3002 2400 96.1867 454.911 427.422
1869 0 202.175 12.1825 2463 94.3439 454.818 422.387
1870 1 155.145 11.0735 1718 94.5594 455.244 444.178
1871 0 160.168 11.7376 1880 93.4202 455.78 445.669
1872 0 168.247 13.076 2200 96.7505 455.408 446.1
1873 0 175.301 13.0632 2290 90.8751 454.282 444.162
1874 0 179.258 13.2937 2383 92.4469 454.724 437.415
1875 0 185.237 13.1723 2440 91.6234 455.104 435.938
1876 0 189.301 12.9476 2451 95.0539 454.845 431.42
1877 0 195.224 12.9134 2521 96.0385 454.621 428.742
1878 0 203.198 13.1252 2667 95.7687 454.977 424.511
1879 0 210.278 12.1649 2558 91.7619 455.419 422.372
1880 0 221.238 13.1668 2913 89.6928 455.713 419.475
1881 1 49.1406 11.579 569 87.6116 457.336 505.123
1882 0 52.0703 11.9838 624 88.1442 457.133 504.077
1883 0 52.1082 12.0518 628 87.2086 456.18 502.178
1884 0 55.0492 12.5706 692 88.1734 455.559 494.711
1885 0 57.067 12.5817 718 87.9471 456.026 497.407
1886 0 58.0832 12.4649 724 88.0235 456.653 499.979
1887 0 59.102 12.4869 738 88.2995 456.714 499.336
1888 0 62.1923 12.5257 779 86.9448 455.66 500.116
1889 0 59.0294 11.2486 664 86.0587 456.378 499.77
1890 0 62.0545 11.4254 709 85.0606 455.169 501.103
1891 0 65.0258 11.4416 744 84.6411 455.379 499.922
1892 0 67.044 11.2463 754 85.882 455.492 499.321
1893 0 68.0632 11.0192 750 86.1467 456.116 498.287
1894 0 71.0781 11.1427 792 85.6566 456.433 497.078
1895 0 74.1188 11.7379 870 83.069 456.472 497
1896 0 77.1498 11.0175 850 83.4247 456.62 496.272
1897 0 79.1912 11.226 889 83.1429 457.016 494.881
1898 0 81.0769 11.1376 903 83.3599 456.196 493.557
1899 1 44.0402 11.0354 486 84.0432 455.658 509.926
1900 0 47.0262 11.5893 545 83.3266 455.613 508.736
1901 0 47.079 11.5126 542 82.6494 455.138 507.535
1902 0 48.1173 11.8668 571 87.69 455.455 506.632
1903 0 50.0148 12.5963 630 87.373 454.919 505.521
1904 0 48.0315 10.7013 514 80.8482 455.979 508.932
1905 0 50.0168 10.8364 542 81.3137 455.578 505.838
1906 0 52.0598 10.4495 544 81.7518 455.928 506.678
1907 0 52.0741 10.2162 532 81.6278 455.092 507.786
1908 0 55.0958 10.146 559 80.8497 454.878 505.646
1909 0 55.0309 10.6122 584 81.1164 455.536 505.402
1910 0 58.0992 10.5854 615 80.6764 454.839 503.317
1911 0 61.1159 10.4065 636 79.7327 455.313 505.096
1912 0 64.155 12.0801 775 75.489 454.076 501.467
1913 0 66.2905 11.7815 781 76.16 454.52 500.942
1914 0 70.3256 12.2857 864 74.1296 454.977 499.065
1915 0 71.1684 12.6039 897 75.0936 454.961 498.957
1916 0 73.2116 12.4024 908 76.0275 454.631 498.943
1917 0 73.1509 11.5515 845 80.0757 453.722 499.614
1918 0 78.1069 11.7147 915 79.2699 453.917 497.331
1919 0 80.1351 11.5555 926 80.27 453.903 497.716
1920 0 85.1698 11.6591 993 80.4209 453.886 496.102
1921 0 86.0994 12.683 1092 79.1328 453.843 494.217
1922 0 89.119 11.8381 1055 81.8284 453.662 491.812
1923 0 93.0932 11.7839 1097 81.8505 453.548 492.245
1924 0 95.1095 12.228 1163 80.3637 454.119 489.918
1925 0 100.119 11.9758 1199 80.4996 454.403 486.376
1926 0 103.121 11.7629 1213 80.4872 453.706 486.302
1927 0 107.159 11.8049 1265 80.2198 454.451 485.19
1928 0 110.116 12.5504 1382 77.8278 454.37 480.996
1929 0 114.191 12.4178 1418 77.6728 453.935 481.286
1930 0 116.219 12.5109 1454 77.1018 453.589 479.017
1931 0 120.246 12.7239 1530 77.0379 454.005 476.29
1932 0 125.269 13.02 1631 75.7793 453.172 474.191
1933 0 129.291 13.2956 1719 76.185 453.613 470.702
1934 0 133.449 12.5741 1678 77.438 453.626 469.658
1935 0 137.352 12.7556 1752 77.0571 453.908 467.323
1936 0 142.439 13.2828 1892 75.5132 453.367 464.266
1937 0 145.482 13.2663 1930 75.9306 453.523 463.152
1938 0 150.325 13.0318 1959 77.7427 453.464 459.025
1939 0 153.295 12.5575 1925 80.3823 452.954 458.35
1940 0 157.357 12.2206 1923 79.4753 453.687 458.88
1941 0 164.318 12.4636 2048 82.5088 453.896 454.23
1942 0 170.264 12.8624 2190 83.1945 453.804 448.974
1943 0 175.36 13.0132 2282 82.9527 453.658 445.959
1944 1 87.3105 10.8005 943 80.4274 454.367 492.595
1945 0 91.3987 12.0024 1097 77.5725 453.108 490.354
1946 0 95.333 12.0944 1153 77.2489 453.672 486.494
1947 0 97.2326 12.1976 1186 79.4056 454.113 484.798
1948 0 101.198 12.0852 1223 80.3181 454.003 481
1949 0 104.3 12.0805 1260 79.8 453.567 479.752
1950 0 108.474 12.2241 1326 78.7904 453.366 476.855
1951 0 111.35 11.9713 1333 79.3811 452.915 476.887
1952 0 115.417 12.8144 1479 78.3692 453.64 473.339
1953 0 122.432 12.317 1508 79.9489 453.912 472.617
1954 0 126.451 13.001 1644 80.253 454.005 470.934
1955 1 70.1993 11.8662 833 81.988 454.933 499.28
1956 0 73.4692 12.3181 905 83.1304 454.978 498.471
1957 0 72.2588 13.5624 980 84.9939 454.413 497.242
1958 0 77.3433 13.8991 1075 83.8809 453.707 494.812
1959 0 79.3242 13.4133 1064 85.3421 454.712 492.165
1960 0 84.2632 13.1137 1105 85.1855 454.459 493.499
1961 0 86.3281 13.4255 1159 84.1355 454.669 492.098
1962 0 89.1793 13.8597 1236 83.5259 454.273 489.825
1963 0 90.1591 13.3542 1204 85.7691 454.125 487.718
1964 0 93.373 13.8156 1290 83.1473 454.548 486.919
1965 0 98.3314 13.4138 1319 83.8082 454.725 484.625
1966 0 98.1494 13.0821 1284 82.6059 454.292 484.36
1967 0 101.127 12.0542 1219 85.7744 453.903 484.536
1968 1 55.2071 11.7557 649 87.5162 453.755 505.847
1969 0 57.1456 12.2494 700 85.82 453.25 505.063
1970 0 61.0415 12.9748 792 83.4356 454.622 506.545
1971 0 61.1414 13.019 796 82.9083 453.363 507.094
1972 0 61.166 12.4742 763 87.0524 453.794 507.333
1973 0 63.1069 12.36 780 87.6397 453.318 505.517
1974 0 66.181 12.7529 844 86.2085 454.135 505.459
1975 0 68.1983 12.8302 875 86.5463 453.273 502.457
1976 0 69.1693 12.3321 853 87.2403 453.749 502.795
1977 0 71.1624 12.1693 866 87.8614 453.254 500.902
1978 0 74.1803 12.7392 945 86.2656 453.36 500.158
1979 0 77.2229 13.1697 1017 85.8299 453.009 498.586
1980 0 78.2301 12.4121 971 88.1401 452.958 497.009
1981 0 82.1024 12.5331 1029 88.6482 452.74 494.88
1982 0 86.0683 13.0478 1123 89.2618 454.451 494.793
1983 0 89.0801 12.9659 1155 88.8043 453.958 494.304
1984 0 90.0652 12.3244 1110 91.4694 454.197 492.19
1985 0 93.0667 12.0559 1122 92.4742 454.545 489.758
1986 0 98.1893 13.0971 1286 89.6096 453.944 489.586
1987 0 100.076 12.6904 1270 90.8441 454.18 488.909
1988 1 52.0285 11.5514 601 91.4692 454.235 510.606
1989 0 52.0916 11.5182 600 88.5133 454.295 505.62
1990 0 53.0855 11.3214 601 89.8469 454.143 505.344
1991 0 53.1542 11.984 637 88.9655 454.587 506.948
1992 0 54.2815 11.3482 616 80.9448 454.187 509.271
1993 0 56.1434 11.2569 632 79.8892 453.578 506.641
1994 0 57.1611 11.2314 642 80.3458 453.561 506.146
1995 0 58.0287 11.1497 647 81.9289 453.437 506.297
1996 0 62.0313 11.4297 709 80.7137 453.22 505.567
1997 0 62.1896 11.2398 699 83.0587 453.306 504.014
1998 0 65.0802 12.1542 791 81.4197 454.166 504.2
1999 0 66.2556 11.6669 773 83.3972 453.494 503.992
2000 0 67.1468 11.0653 743 86.8264 454.144 503.658
2001 0 71.096 11.0555 786 87.7634 454.146 502.658
2002 0 72.1448 11.6848 843 86.6512 454.013 502.173
2003 0 73.138 11.198 819 88.9182 454.308 499.692
2004 0 76.1373 11.9127 907 87.6406 453.04 496.998
2005 0 79.2098 11.842 938 88.5437 453.561 494.628
2006 0 81.1227 11.7476 953 87.8311 454.2 496.214
2007 0 83.1021 11.9973 997 89.4092 453.426 491.747
2008 0 85.0887 10.965 933 94.3666 453.475 491.939
2009 0 85.1418 11.7921 1004 95.6544 453.617 492.339
2010 0 88.2416 11.8652 1047 97.6542 453.311 489.616
2011 0 93.1298 12.3161 1147 96.9207 453.602 488.385
2012 0 97.2106 11.5317 1121 98.769 453.087 484.728
2013 0 99.201 12.1773 1208 96.7922 453.57 483.383
2014 1 48.0533 9.67676 465 98.529 454.189 511.402
2015 0 49.1101 9.48889 466 98.7511 453.285 510.837
2016 0 52.1054 9.74947 508 97.6004 453.535 508.935
2017 0 54.0643 10.3395 559 97.7138 453.34 508.313
2018 0 55.1216 10.5403 581 96.8744 453.491 507.194
2019 0 55.1376 10.8093 596 96.5889 453.909 504.743
2020 0 60.1631 11.7015 704 97.6335 453.764 503.078
2021 0 63.1687 12.4112 784 102.622 454.404 501.195
2022 0 66.1221 12.2803 812 102.884 454.543 501.166
2023 0 71.0748 14.3229 1018 96.0304 454.202 503.521
2024 0 72.0671 14.9167 1075 95.9665 453.865 503.295
2025 0 75.0763 14.5852 1095 96.7279 454.32 502.347
2026 0 78.1452 14.9337 1167 95.5201 454.045 500.867
2027 0 79.078 14.707 1163 97.0181 454.009 499.498
2028 0 80.0804 15.372 1231 96.9098 453.437 497.678
2029 0 83.0558 14.9658 1243 97.8061 454.372 498.19
2030 0 86.1074 15.2252 1311 97.4066 454.005 495.691
2031 0 89.1049 15.4313 1375 97.1767 453.697 494.222
2032 0 91.1108 15.6952 1430 96.9182 453.95 493.238
2033 0 95.081 15.2817 1453 96.9835 453.911 491.361
2034 0 98.1147 14.3506 1408 99.9439 453.991 490.817
2035 0 104.125 15.3758 1601 88.9663 454.61 488.315
2036 1 49.0859 13.2828 652 96.2347 453.825 512.505
2037 0 53.1067 14.0284 745 93.7262 453.315 511.093
2038 0 55.1791 15.0419 830 89.6145 453.784 509.935
2039 0 56.0972 14.2966 802 92.9551 453.493 508.61
2040 0 57.1833 14.777 845 92.1231 453.27 507.872
2041 0 60.1367 14.8329 892 90.6424 454.025 506.328
2042 0 60.1704 14.4091 867 92.5121 454.582 506.779
2043 0 62.1366 13.7922 857 94.9522 454.239 505.35
2044 0 64.1898 14.3792 923 93.1452 454.537 503.28
2045 0 65.1104 14.7135 958 93.3507 454.111 502.484
2046 0 66.0834 14.1488 935 94.6513 453.909 502.588
2047 0 70.1988 14.402 1011 93.4006 453.41 500.912
2048 0 72.1367 14.5973 1053 94.264 452.93 499.701
2049 0 75.1243 14.5093 1090 94.2358 453.828 499.246
2050 0 77.0989 14.5009 1118 96.8148 453.467 497.775
2051 0 81.16 14.8595 1206 94.694 453.205 496.57
2052 0 81.1255 15.1617 1230 95.8886 453.974 496.494
2053 0 84.1845 15.0384 1266 97.4005 453.597 495.72
2054 0 87.1175 14.842 1293 97.5383 453.312 494.527
2055 0 90.1352 14.6447 1320 99.2636 453.372 493.91
2056 0 91.2127 15.0746 1375 99.2342 454.138 492.036
2057 0 94.1704 14.7286 1387 100.696 454.108 488.776
2058 1 46.1813 13.6419 630 109.983 453.905 511.14
2059 0 47.0775 13.7008 645 109.347 453.426 511.149
2060 0 49.1156 15.1479 744 106.538 453.497 509.405
2061 0 51.1278 14.7278 753 105.044 453.453 509.235
2062 0 53.1399 14.7723 785 104.854 454.344 507.596
2063 0 54.075 15.349 830 102.872 453.361 507.202
2064 0 58.1435 15.3241 891 101.02 453.787 506.044
2065 0 60.0906 15.5266 933 100.731 453.828 504.911
2066 0 60.0815 15.5622 935 102.781 454.214 503.995
2067 0 64.1555 15.5404 997 101.233 453.811 501.513
2068 0 65.074 15.7667 1026 102.128 453.955 501.942
2069 0 67.0904 15.1438 1016 104.586 453.733 499.985
2070 0 68.1107 15.3133 1043 105.757 453.899 499.04
2071 0 71.1443 15.5459 1106 105.332 453.855 498.225
2072 0 74.1023 15.9779 1184 104.394 453.558 497.704
2073 0 76.0757 15.616 1188 106.992 453.23 495.534
2074 0 78.1621 15.8133 1236 107.311 453.377 493.549
2075 0 81.1466 15.5151 1259 108.754 453.3 492.383
2076 0 82.0906 15.8849 1304 109.094 453.446 492.124
2077 0 83.1131 15.521 1290 112.45 453.74 490.841
2078 0 87.2115 15.6745 1367 110.69 453.372 489.433
2079 0 90.0659 15.6663 1411 111.606 452.925 487.665
2080 0 92.0949 15.9075 1465 113.357 453.625 486.472
2081 0 95.2054 15.913 1515 113.689 453.673 486.382
2082 0 99.1763 16.143 1601 113.611 453.227 485.349
2083 0 101.214 15.9267 1612 117.233 453.762 482.273
2084 0 105.15 16.1483 1698 117.064 453.873 482.308
2085 0 106.144 15.5354 1649 120.969 454.371 481.82
2086 0 111.231 15.8409 1762 120.713 454.64 479.454
2087 0 116.204 16.0494 1865 120.19 453.927 479.033
2088 0 119.274 15.8626 1892 121.659 453.881 477.357
2089 0 121.216 15.9962 1939 122.915 453.657 475.245
2090 0 128.176 16.4773 2112 121.124 453.393 474.3
2091 0 130.325 16.1212 2101 124.239 453.19 470.534
2092 0 133.275 16.5597 2207 124.193 453.23 468.916
2093 0 137.216 16.0623 2204 126.407 453.351 467.239
2094 0 141.228 16.5831 2342 125.196 453.28 466.643
2095 0 144.246 15.7578 2273 129.488 453.639 463.506
2096 0 150.33 16.2908 2449 127.022 453.216 462.281
2097 0 155.275 16.3387 2537 127.089 453.496 458.15
2098 0 160.368 16.9173 2713 125.86 453.279 457.186
2099 0 164.182 15.7569 2587 130.561 452.785 454.281
2100 1 68.273 13.6071 929 135.868 453.456 500.97
2101 0 71.2061 13.8893 989 136.202 453.516 499.65
2102 0 73.2435 14.3494 1051 133.962 453.075 499.253
2103 0 77.4013 14.9868 1160 132.209 454.107 496.638
2104 0 80.2278 15.3438 1231 131.948 454.424 494.566
2105 0 82.319 15.8408 1304 130.076 453.358 492.818
2106 0 85.1928 15.7642 1343 129.966 453.429 490.439
2107 0 90.2722 16.0515 1449 127.177 453.28 489.831
2108 0 92.2131 15.7895 1456 128.646 453.187 488.146
2109 0 95.3533 15.5317 1481 129.251 453.502 486.232
2110 0 99.1582 15.7224 1559 127.106 453.6 483.849
2111 0 102.199 16.4483 1681 124.576 453.735 482.451
2112 0 105.242 16.1057 1695 125.919 454.225 480.251
2113 0 109.238 16.1848 1768 125.152 454.056 478.73
2114 0 111.243 16.5314 1839 124.207 453.051 477.558
2115 0 114.277 15.8912 1816 127.463 453.048 474.316
2116 0 118.272 16.1239 1907 125.885 452.824 474.174
2117 0 122.246 16.6385 2034 124.451 453.76 471.506
2118 0 126.274 16.282 2056 122.852 453.533 469.438
2119 0 133.221 16.7091 2226 122.721 453.372 467.813
2120 1 66.0636 13.9411 921 127.71 453.406 499.657
2121 0 69.0738 13.9271 962 126.282 453.259 498.055
2122 0 70.073 13.9569 978 125.942 453.615 496.873
2123 0 73.0309 14.1584 1034 121.691 454.474 495.814
2124 0 76.0472 14.1886 1079 121.366 454.256 494.003
2125 0 79.1272 14.0533 1112 122.243 452.986 492.415
2126 0 81.076 14.2582 1156 124.6 453.226 490.899
2127 0 83.0659 13.9769 1161 125.216 453.859 489.341
2128 0 87.0635 13.8405 1205 124.696 454.079 487.591
2129 0 87.1014 14.0296 1222 126.047 453.965 485.918
2130 0 93.1782 14.0269 1307 123.796 453.871 485.708
2131 0 94.062 13.3742 1258 126.688 453.488 483.161
2132 0 97.0947 14.0378 1363 125.89 453.62 481.58
2133 0 98.0711 13.8981 1363 127.871 453.434 480.369
2134 0 100.1 13.4965 1351 132.02 453.545 478.313
2135 0 105.055 14.3639 1509 129.506 453.445 477.417
2136 0 109.111 13.9949 1527 130.478 453.64 475.337
2137 0 110.088 13.4983 1486 133.318 453.955 474.58
2138 0 116.169 13.773 1600 133.107 454.123 472.439
2139 0 120.158 12.8414 1543 135.218 454.11 468.463
2140 0 123.128 13.6443 1680 132.004 454.445 468.186
2141 1 66.0364 10.5851 699 125.024 453.987 497.871
2142 0 70.0824 10.7873 756 123.065 453.804 496.462
2143 0 73.1114 11.8586 867 119.116 454.002 494.691
2144 0 74.0997 12.0918 896 117.097 454.124 494.041
2145 0 77.1339 11.9532 922 118.533 453.858 491.5
2146 0 80.096 12.5724 1007 116.015 454.031 489.346
2147 0 82.1148 12.1172 995 116.236 454.045 487.175
2148 0 84.2333 11.5156 970 117.134 454.202 486.327
2149 0 88.2244 11.4368 1009 114.427 454.029 486.528
2150 0 90.092 11.3107 1019 114.921 454.707 483.629
2151 0 94.2364 11.7895 1111 111.244 454.833 482.23
2152 0 96.2329 10.8695 1046 111.559 454.627 479.763
2153 0 100.255 11.2912 1132 108.727 455.297 479.204
2154 1 38.1584 8.4385 322 109.745 454.823 511.848
2155 0 39.2221 8.61759 338 109.719 454.737 509.515
2156 0 38.1523 9.40966 359 109.036 454.136 508.228
2157 0 42.2752 9.91126 419 102.458 454.253 507.126
2158 0 42.1049 9.78508 412 102.187 454.218 507.291
2159 0 41.0916 9.44231 388 104.518 453.964 506.052
2160 0 46.1466 10.0766 465 100.822 455.353 504.142
2161 0 47.0928 10.5324 496 98.9375 454.827 503.833
2162 0 41.1078 8.44122 347 105.061 454.329 506.372
2163 0 39.1058 9.02678 353 103.354 454.337 505.541
2164 0 40.0505 8.81386 353 101.025 454.371 507.085
2165 0 38.0437 8.88452 338 101.944 454.577 505.476
2166 0 45.0782 8.69601 392 98.5536 455.842 503.268
2167 1 26.0269 9.60544 250 103.496 454.808 507.412
2168 0 25.0342 10.6255 266 101.853 454.835 506.902
2169 0 25.0419 9.38426 235 106.549 454.821 507.349
2170 0 27.0545 9.832 266 102.414 455.147 507.045
2171 0 26.0568 9.90145 258 101.543 455.504 506.388
2172 0 28.0457 10.5542 296 100.544 454.797 505.73
2173 0 31.1551 10.5601 329 98.8024 455.772 505.827
2174 0 30.0984 10.7647 324 100.454 456.457 505.065
2175 0 28.1241 9.42254 265 109.774 455.702 504.057
2176 0 27.0264 9.06522 245 111.127 455.257 504.506
2177 0 29.0782 9.2509 269 110.052 455.394 504.61
2178 0 28.1576 10.3347 291 108.495 455.983 501.464
2179 0 31.2166 10.0587 314 106.525 455.924 501.736
2180 0 33.1188 9.5414 316 104.854 455.854 502.725
2181 0 33.2379 9.38688 312 106.077 455.615 502.16
2182 0 35.2109 9.88331 348 104.776 455.994 500.207
2183 0 34.2313 9.81558 336 106.571 455.696 500.17
2184 0 41.3818 9.81108 406 103.372 455.911 501.421
2185 0 38.2516 10.2479 392 105.222 456.413 499.962
2186 0 42.4012 10.2592 435 102.991 455.379 499.616
2187 0 44.3421 10.8926 483 99.9669 455.816 498.76
2188 0 45.337 10.3889 471 99.6178 456.017 499.597
2189 0 46.4714 10.2213 475 102.225 455.665 499.766
2190 0 51.3479 9.93224 510 101.582 456.071 498.694
2191 0 54.3872 10.6827 581 99.494 455.909 500.062
2192 0 55.3854 11.0318 611 99.311 456.007 499.509
2193 0 57.3587 11.5937 665 97.4977 456.123 499.418
2194 0 58.395 11.6277 679 100.642 456.136 498.623
2195 0 60.3884 11.7076 707 104.008 456.501 497.25
2196 0 60.3136 11.3242 683 104.865 455.881 497.006
2197 0 63.182 12.1079 765 105.435 455.876 497.996
2198 0 65.093 11.7371 764 109.051 455.866 497.471
2199 0 68.1374 11.785 803 106.578 455.786 496.914
2200 0 71.0718 12.2552 871 105.013 455.703 496.631
2201 0 75.1881 12.7414 958 102.876 456.184 495.167
2202 0 76.128 12.6235 961 104.609 456.716 494.376
2203 0 81.2689 13.0185 1058 101.56 456.007 492.232
2204 0 83.2078 12.7752 1063 102.622 455.74 491.693
2205 0 85.1396 12.7555 1086 102.383 456.426 491.087
2206 0 86.3627 12.5749 1086 102.599 456.303 489.634
2207 0 89.25 13.0308 1163 101.131 456.468 488.782
2208 1 28.0787 8.22687 231 86.381 456.273 517.766
2209 0 33.0811 7.40605 245 85.1714 455.339 517.6
2210 0 30.0907 7.4774 225 85.6133 455.24 517.782
2211 0 32.0963 6.5428 210 85.1905 455.757 518.976
2212 0 32.1235 7.62681 245 81.0571 455.159 517.673
2213 0 31.2674 7.13203 223 84.3677 454.852 515.314
2214 0 35.1263 6.69015 235 82.983 454.919 516.323
2215 0 34.2188 7.94886 272 81.7684 455.173 516.074
2216 0 33.2429 6.97893 232 80.6207 454.5 516.728
2217 0 37.2231 6.55506 244 82.0656 454.344 515.131
2218 0 35.1767 6.36785 224 83.192 454.223 514.076
2219 0 41.227 7.15551 295 80.2271 454.054 514.142
2220 1 130.326 12.8831 1679 99.8761 455.012 467.426
2221 0 135.295 13.3264 1803 99.6733 455.044 463.917
2222 0 140.226 13.1716 1847 99.2014 455.005 462.244
2223 0 144.216 13.563 1956 100.51 454.481 461.619
2224 0 146.225 13.11 1917 102.863 454.967 457.966
2225 0 152.286 13.3236 2029 102.179 455.261 455.332
2226 0 157.201 13.6704 2149 100.806 454.405 452.298
2227 0 161.153 13.8998 2240 100.418 453.683 450.094
2228 0 165.15 12.9216 2134 103.573 454.02 448.217
2229 0 172.267 13.6126 2345 101.766 454.621 443.609
2230 0 178.141 13.697 2440 101.414 454.431 442.63
2231 0 184.164 13.8029 2542 102.18 454.246 439.07
2232 0 187.188 13.6441 2554 101.294 454.726 437.806
2233 0 195.359 13.6518 2667 99.8976 454.08 433.456
2234 0 201.378 13.7701 2773 99.4443 453.727 430.34
2235 0 205.21 13.3473 2739 103.781 454.177 423.893
2236 0 214.224 13.8873 2975 102.559 453.737 421.9
2237 1 113.13 10.5189 1190 97.7353 454.34 473.304
2238 0 117.092 10.4277 1221 95.57 454.481 473.273
2239 0 123.225 10.8744 1340 95.4552 454.826 470.298
2240 0 126.068 10.6847 1347 98.9837 454.717 465.961
2241 0 131.195 10.816 1419 101.039 454.799 463.029
2242 0 135.15 11.3355 1532 101.031 455.097 460.128
2243 0 139.194 11.2792 1570 103.29 455.168 459.961
2244 0 145.168 12.0136 1744 104.295 454.788 456.354
2245 0 149.188 11.3414 1692 107.486 454.153 452.976
2246 0 155.222 11.5448 1792 106.755 453.998 451.321
2247 0 158.261 11.4874 1818 107.78 453.669 448.624
2248 1 91.1445 7.9544 725 94.7503 454.47 484.076
2249 0 87.2307 8.38008 731 96.8085 453.955 478.711
2250 0 87.2184 8.5991 750 97.736 453.773 476.093
2251 0 94.2037 9.27777 874 95.079 455.495 479.146
2252 0 101.21 10.3054 1043 92.3739 455.722 483.13
2253 0 102.148 9.99526 1021 92.7982 454.981 477.944
2254 0 104.278 10.261 1070 92.371 456.203 475.719
2255 0 102.223 8.9706 917 97.0022 456.532 469.953
2256 0 106.298 10.2166 1086 93.5829 456.279 470.061
2257 0 112.117 10.382 1164 93.7689 455.846 471.956
2258 0 120.249 11.4096 1372 91.7697 456.028 472.351
2259 0 119.232 11.0792 1321 93.863 456.048 465.674
2260 0 121.147 10.2685 1244 96.4759 455.584 461.957
2261 0 126.336 9.75176 1232 96.655 455.902 462.5
2262 0 132.218 10.3692 1371 92.5959 456.106 457.64
2263 0 133.28 9.89644 1319 91.6831 455.209 457.384
2264 0 142.208 8.05861 1146 90.4983 455.236 454.723
2265 1 62.0495 9.54077 592 99.5963 454.399 420.1
2266 1 82.2278 8.30619 683 78.5769 455.88 489.247
2267 0 88.2817 8.03111 709 85.8209 455.182 488.415
2268 0 88.2217 7.93455 700 86.3057 454.864 488.157
2269 1 166.391 9.82026 1634 91.6371 455.444 450.662
2270 0 172.267 9.76971 1683 92.4112 455.267 449.762
2271 0 176.255 9.265 1633 93.5566 455.226 447.762
2272 0 183.293 9.66212 1771 93.441 454.901 441.107
2273 0 188.303 9.17671 1728 95.4277 454.887 437.852
2274 0 193.342 9.85303 1905 93.3953 454.934 440.279
2275 1 109.237 8.66006 946 88.7072 454.611 481.693
2276 0 114.22 9.42038 1076 87.7416 454.919 478.872
2277 0 115.198 8.8804 1023 89.5367 454.234 474.057
2278 0 118.174 9.44368 1116 88.6389 453.978 472.758
2279 0 120.081 8.1528 979 91.1583 454.735 469.907
2280 1 62.1911 7.89503 491 78.7088 455.851 504.043
2281 0 65.1309 9.79566 638 75.5235 455.994 505.571
2282 0 65.2177 9.93595 648 75.4753 456.451 505.148
2283 0 70.2619 10.0908 709 73.9803 456.372 506.306
2284 0 71.3013 10.5187 750 74.252 456.127 502.735
2285 0 72.269 10.5024 759 75.0896 455.891 503.451
2286 0 74.3096 11.156 829 74.421 455.609 502.503
2287 0 78.2319 10.9163 854 75.3782 455.607 501.19
2288 0 78.2131 10.254 802 77.1534 455.354 500.036
2289 0 81.2268 11.117 903 75.691 455.462 499.711
2290 0 83.2902 11.3339 944 75.0477 455.126 496.816
2291 0 85.189 11.4099 972 75.3786 455.446 495.776
2292 0 87.1758 10.7255 935 76.8652 454.903 494.133
2293 0 89.325 10.6689 953 76.4774 455.087 493.741
2294 0 92.3265 11.2102 1035 75.5981 455.428 492.886
2295 0 95.2418 11.5391 1099 74.9791 455.381 491.86
2296 0 95.252 10.026 955 78.0691 455.768 492.438
2297 0 93.1532 7.97611 743 80.8654 456.032 495.167
2298 0 103.379 9.85694 1019 79.262 455.495 487.884
2299 1 209.487 11.5043 2410 87.3602 454.927 433.202
2300 1 108.211 9.0009 974 81.1982 455.441 483.585
2301 1 59.0902 9.74782 576 74.5434 455.726 509.266
2302 0 59.2096 9.84637 583 73.8525 455.633 508.863
2303 0 63.1324 9.70976 613 73.907 455.827 507.661
2304 0 65.149 10.6064 691 70.6787 456.236 505.378
2305 0 70.1801 11.7555 825 66.3552 455.832 504.389
2306 0 72.2728 11.6918 845 67.858 454.826 502.312
2307 0 71.1117 12.5577 893 67.6641 454.969 501.218
2308 0 76.2017 12.9131 984 62.1911 454.437 496.201
2309 0 77.2525 12.608 974 64.0575 455.166 497.976
2310 0 79.1686 12.9092 1022 64.1771 455.142 497.466
2311 0 80.2627 13.107 1052 64.6854 454.463 495.693
2312 0 83.1507 13.5898 1130 66.1699 454.439 496.65
2313 0 84.1592 13.0942 1102 68.0771 454.275 495.684
2314 0 87.2499 13.3524 1165 67.9665 454.17 495.571
2315 0 91.3271 14.0156 1280 65.8219 454.173 491.522
2316 0 91.3687 13.0132 1189 68.6594 454.849 491.753
2317 0 95.487 13.3945 1279 67.24 454.457 488.582
2318 0 98.6968 13.8201 1364 66.5117 454.107 485.087
2319 0 95.5374 12.9478 1237 70.5505 454.525 485.302
2320 0 102.691 13.3507 1371 68.8738 454.491 481.923
2321 0 104.681 13.5651 1420 69.6282 454.572 481.803
2322 0 107.753 13.9671 1505 69.5256 454.567 477.59
2323 0 111.648 13.9456 1557 73.7283 454.059 476.4
2324 0 112.501 14.3821 1618 74.026 454.43 477.255
2325 0 113.473 14.347 1628 75.7826 453.926 475.305
2326 0 115.448 13.9544 1611 77.1962 453.898 473.053
2327 0 118.544 14.7286 1746 76.1678 454.83 469.591
2328 0 122.473 14.4196 1766 78.2208 454.738 467.145
2329 0 124.599 14.6711 1828 78.151 454.519 464.577
2330 0 127.535 14.2 1811 80.8647 454.204 463.578
2331 0 133.648 14.5681 1947 79.1669 454.818 461.147
2332 0 138.476 14.0529 1946 80.0755 454.991 458.294
2333 1 76.2149 11.0083 839 77.8653 454.604 494.617
2334 0 78.1639 11.0153 861 76.5563 454.594 493.613
2335 0 78.1515 11.772 920 77.3706 455.4 494.113
2336 0 81.2523 12.0858 982 77.7587 455.984 492.009
2337 0 85.1019 12.2206 1040 78.5 455.755 493.459
2338 0 87.1228 11.4436 997 81.6118 455.789 490.592
2339 0 91.0566 12.0475 1097 83.0602 455.924 488.417
2340 0 94.042 11.8777 1117 84.624 456.446 488.805
2341 0 96.0761 11.8344 1137 85.7397 456.422 486.885
2342 0 100.07 11.6918 1170 85.7462 456.548 484.552
2343 0 103.143 12.2451 1263 86.2937 455.48 482.652
2344 0 106.108 12.2705 1302 87.1037 456.07 482.702
2345 0 108.257 12.1563 1316 88.3214 456.122 479.17
2346 0 113.229 12.9825 1470 87.6088 456.314 477.469
2347 0 116.284 12.6501 1471 88.6404 456.047 474.302
2348 0 120.235 13.0078 1564 88.8299 455.162 471.731
2349 0 123.22 12.9362 1594 89.527 454.992 472.154
2350 0 128.281 12.7143 1631 92.0558 454.616 468.334
2351 0 133.315 13.3293 1777 90.8036 453.994 468.214
2352 1 67.1904 10.3437 695 87.4432 455.112 500.763
2353 0 70.169 11.344 796 90.9912 454.252 504.389
2354 0 71.0381 11.6135 825 88.2473 454.423 502.2
2355 0 74.0353 12.0483 892 87.9002 454.176 503.522
2356 0 78.0783 12.654 988 87.0496 454.276 502.133
2357 0 81.0744 12.544 1017 88.5762 454.122 501.094
2358 0 83.141 12.4487 1035 89.5101 454.36 498.82
2359 0 85.2214 12.2152 1041 91.0855 454.494 495.062
2360 0 88.2495 12.374 1092 91.0998 454.43 494.95
2361 0 88.2415 11.6045 1024 94.7432 454.634 494.146
2362 0 93.2513 12.2894 1146 92.5969 453.743 492.21
2363 0 95.2351 12.2539 1167 93.2845 453.212 491.447
2364 0 97.1901 12.172 1183 94.3804 453.161 489.596
2365 0 101.183 12.1562 1230 92.8154 453.021 488.54
2366 0 104.203 12.562 1309 92.3629 452.806 485.244
2367 0 104.221 12.0609 1257 95.2482 452.112 484.977
2368 0 111.236 12.6758 1410 91.7922 452.344 483.61
2369 0 111.182 12.2502 1362 93.7078 454.09 484.847
2370 0 118.193 12.6065 1490 91.6926 453.022 483.108
2371 1 62.0661 10.8916 676 87.5888 453.601 510.467
2372 0 65.0757 11.5711 753 87.0173 452.732 509.721
2373 0 66.1031 12.0569 797 87.8419 452.233 507.844
2374 0 68.1308 12.2852 837 90.141 452.067 504.773
2375 0 72.0969 12.9964 937 88.9146 451.232 503.426
2376 0 74.0372 11.9264 883 84.6795 451.412 501.981
2377 0 76.0424 11.9539 909 84.3663 451.583 500.806
2378 0 79.0715 11.0027 870 83.308 452.597 497.771
2379 0 80.0467 11.4558 917 84.891 452.226 495.887
2380 0 83.0595 11.4135 948 85.9335 452.047 495.807
2381 0 87.1007 11.6302 1013 86.0484 452.388 494.937
2382 0 87.0433 11.7068 1019 87.3808 452.856 492.575
2383 0 89.0215 11.6376 1036 89.6583 453.314 489.882
2384 0 93.0556 12.2722 1142 88.4405 453.32 490.642
2385 0 95.0478 11.7835 1120 90.8768 452.909 489.891
2386 0 97.0738 12.166 1181 90.8713 452.881 487.728
2387 0 101.109 12.0267 1216 92.3734 453.136 487.479
2388 0 104.067 11.4541 1192 97.2785 453.317 485.71
2389 0 106.093 11.6031 1231 93.2047 452.963 482.599
2390 0 111.047 11.5086 1278 93.3263 452.876 482.984
2391 0 115.083 12.2433 1409 90.3754 453.896 481.779
2392 0 117.08 11.4537 1341 92.1551 453.081 477.511
2393 1 66.0731 10.9122 721 87.5645 452.567 502.564
2394 0 69.1138 10.8372 749 89.729 452.816 500.752
2395 0 71.1748 11.4085 812 87.2229 452.229 498.303
2396 0 74.0487 12.2352 906 96.2009 453.596 498.362
2397 0 76.1267 12.2822 935 97.2011 452.718 497.542
2398 0 79.1663 11.5453 914 98.9387 453.844 496.333
2399 0 82.1407 12.3447 1014 96.8708 452.89 493.897
2400 0 84.1628 12.1313 1021 97.7591 454.377 491.786
2401 0 87.1326 12.6818 1105 96.0543 454.182 491.545
2402 0 88.1235 11.6654 1028 99.5516 454.345 489.482
2403 0 91.2294 11.6958 1067 98.0272 454.413 490.675
2404 0 97.1456 12.3114 1196 93.6371 454.681 488.002
2405 0 96.1839 11.6132 1117 95.4109 455.022 487.054
2406 0 102.125 12.191 1245 92.6225 454.747 486.811
2407 1 52.0612 10.8526 565 86.8885 455.527 510.073
2408 0 56.0859 11.4289 641 87.7847 454.61 508.505
2409 0 58.173 11.7752 685 87.0117 453.926 504.653
2410 0 57.0666 11.6005 662 83.1224 453.739 507.594
2411 0 59.0154 12.1494 717 82.9372 455.112 507.128
2412 0 59.0292 11.5367 681 85.8018 454.197 505.396
2413 0 63.0705 11.6853 737 83.7313 454.014 504.338
2414 0 64.1212 11.5718 742 84.597 454.54 502.02
2415 0 66.0852 11.9089 787 84.0788 455.294 503.517
2416 0 69.071 11.5244 796 84.4824 454.921 503.99
2417 0 71.0866 11.7603 836 84.7811 455.061 502.758
2418 0 71.0533 12.0191 854 87.8642 454.403 500.036
2419 0 71.0377 11.3039 803 90.1482 456.244 502.016
2420 0 75.1273 11.3274 851 89.9283 456.115 501.122
2421 0 78.079 11.3091 883 89.2616 455.229 499.822
2422 0 78.0391 11.2892 881 91.7639 455.691 498.835
2423 0 82.104 10.7059 879 93.1502 456.195 496.077
2424 0 84.104 10.7843 907 95.2293 456.523 495.837
2425 0 85.0575 10.7809 917 95.8953 456.923 494.661
2426 0 89.1324 11.5446 1029 94.1545 457.389 494.099
2427 0 92.1233 11.9079 1097 94.1057 457.075 493.024
2428 0 95.1238 12.2157 1162 94.3623 455.729 491.602
2429 0 98.0952 11.6214 1140 96.1228 455.539 490.524
2430 0 100.169 11.7102 1173 97.2387 455.545 488.885
2431 0 103.131 11.3932 1175 98.9234 455.574 486.633
2432 0 106.144 12.059 1280 97.7641 456.12 484.753
2433 0 108.091 12.1009 1308 99.4434 455.411 481.417
2434 0 111.151 11.9028 1323 100.848 455.701 479.995
2435 0 113.17 10.851 1228 102.336 455.657 475.863
2436 1 54.0778 8.95006 484 94.624 455.326 497.225
2437 0 58.0934 9.74293 566 91.258 455.618 496.818
2438 0 60.1257 10.4282 627 89.9553 455.829 496.896
2439 0 63.055 10.5939 668 79.1332 455.846 500.174
2440 0 64.0915 10.0325 643 82.0156 455.608 498.638
2441 0 67.0697 11.2122 752 79.9269 455.738 498.895
2442 0 69.0452 10.8914 752 80.8231 455.558 497.004
2443 0 69.118 10.5472 729 83.3882 455.827 496.14
2444 0 74.1284 10.9405 811 80.9618 455.778 496.591
2445 0 77.0586 11.1993 863 81.2619 455.588 494.801
2446 0 76.0343 10.7583 818 84.9303 455.598 494.252
2447 0 81.129 12.3507 1002 97.1467 456.028 497.514
2448 0 84.1695 12.9976 1094 96.4068 456.15 495.319
2449 0 86.1427 12.4561 1073 98.3169 456.165 494.574
2450 0 89.1478 13.0794 1166 96.482 455.99 493.425
2451 0 92.1519 13.4886 1243 97.8906 456.232 492.023
2452 0 94.1809 12.6883 1195 100.368 455.64 489.633
2453 0 97.1467 13.2686 1289 100.23 455.927 488.348
2454 0 101.183 13.3422 1350 99.2059 455.338 485.416
2455 0 103.156 12.9707 1338 98.2302 454.796 482.604
2456 1 52.1085 10.3054 537 98.2402 455.538 509.54
2457 0 55.0438 10.1192 557 95.0592 455.041 507.04
2458 0 55.1137 10.56 582 95.3144 455.478 506.424
2459 0 57.0403 11.8513 676 95.3979 456.18 510.95
2460 0 60.0377 11.2096 673 97.2511 456.397 510.082
2461 0 60.0482 11.1744 671 97.1297 456.148 509.46
2462 0 63.049 11.2135 707 97.4455 455.52 506.741
2463 0 63.0748 11.3675 717 98.1576 456.127 506.957
2464 0 65.0647 11.7114 762 99.1706 456.562 505.463
2465 0 68.0858 11.4561 780 101.238 455.718 504.62
2466 0 71.0469 12.5269 890 98.3528 455.504 504.04
2467 0 72.052 11.8942 857 101.34 456.055 503.739
2468 0 76.0565 12.6222 960 99.2354 455.729 502.969
2469 0 76.1636 12.46 949 101.011 455.661 502.505
2470 0 80.1138 13.1438 1053 99.4805 455.31 500.411
2471 0 84.1047 12.96 1090 99.8 455.275 499.783
2472 0 85.1096 12.9715 1104 101.12 455.776 498.918
2473 0 86.1031 13.1122 1129 102.928 455.851 497.414
2474 0 89.1084 12.8271 1143 104.207 455.581 496.815
2475 0 92.1256 12.6675 1167 105.634 455.359 494.429
2476 0 95.1098 13.6789 1301 101.387 455.892 492.015
2477 0 100.126 13.9025 1392 99.5101 456.545 489.759
2478 1 50.0489 10.7295 537 103.873 455.503 510.931
2479 0 51.012 10.625 542 101.55 454.072 507.666
2480 0 52.0623 11.2365 585 100.47 453.938 506.906
2481 0 51.0612 11.3785 581 157.675 452.929 506.921
2482 0 58.1087 13.2682 771 106.153 454.825 512.232
2483 0 60.1598 12.899 776 107.095 454.727 509.961
2484 0 63.0651 13.1769 831 102.742 455.258 510.403
2485 0 63.0498 13.3069 839 106.837 455.317 508.465
2486 0 66.0809 12.9084 853 106.825 455.156 507.348
2487 0 66.0445 13.3698 883 108.798 456.101 506.339
2488 0 70.1293 13.1614 923 108.453 454.722 505.671
2489 0 72.0839 13.3317 961 109.417 455.008 503.566
2490 0 75.1048 13.2348 994 109.467 455.101 502.07
2491 0 78.1494 13.7301 1073 108.253 454.829 500.982
2492 0 79.0941 13.5155 1069 110.291 455.089 500.436
2493 0 83.0867 13.8891 1154 109.872 455.618 499.964
2494 0 85.116 13.4052 1141 111.603 455.256 500.333
2495 0 88.0314 13.4157 1181 111.873 455.141 497.388
2496 0 89.1072 13.6128 1213 113.12 454.989 496.618
2497 0 94.0764 13.5634 1276 113.595 454.939 496.119
2498 0 95.0662 13.1592 1251 114.203 455.296 494.876
2499 0 98.085 13.8961 1363 113.701 454.125 492.143
2500 1 54.048 11.3418 613 119.254 454.113 515.091
2501 0 54.0336 12.1591 657 116.005 454.405 515.219
2502 0 57.0425 12.7799 729 111.433 453.889 514.016
2503 0 57.0453 13.2877 758 105.81 454.826 513.454
2504 0 60.045 12.9569 778 105.995 455.042 512.77
2505 0 63.0817 13.4746 850 101.742 454.439 511.204
2506 0 64.0356 13.555 868 100.667 454.025 510.733
2507 0 66.0996 13.6158 900 99.5989 454.159 509.932
2508 0 69.176 13.7331 950 97.44 454.114 509.907
2509 0 70.0906 13.4255 941 99.4368 454.676 508.134
2510 0 72.0641 13.488 972 99.7263 454.81 506.627
2511 0 72.0384 13.7565 991 99.0494 453.376 504.913
2512 0 74.065 13.4476 996 100.144 454.132 504.259
2513 0 77.0585 13.3275 1027 99.5998 454.037 503.293
2514 0 81.071 13.704 1111 98.1953 454.031 501.707
2515 0 82.0358 13.7135 1125 98.7076 453.828 499.034
2516 0 86.1817 14.1793 1222 95.275 453.626 497.52
2517 0 89.0918 14.4907 1291 94.402 454.098 496.507
2518 0 89.1297 13.6655 1218 97.7972 453.495 494.823
2519 0 93.1476 13.7202 1278 96.2653 453.272 493.196
2520 0 95.1561 13.8089 1314 104.508 452.986 490.927
2521 0 98.1808 13.6585 1341 104.175 452.71 489.231
2522 0 101.281 13.5168 1369 103.407 453.349 487.748
2523 0 104.158 13.3548 1391 103.004 452.907 486.854
2524 0 107.244 13.0357 1398 101.723 452.541 483.539
2525 0 113.334 12.7764 1448 100.139 452.754 483.12
2526 1 62.2284 11.6667 726 98.0138 453.098 505.781
2527 0 64.2258 12.3159 791 96.9545 453.723 503.712
2528 0 67.1502 12.2412 822 96.8151 454.567 501.251
2529 0 68.1507 12.6631 863 96.3001 453.78 500.513
2530 0 69.1743 13.0395 902 96.857 453.588 498.194
2531 0 72.166 13.6768 987 92.1662 453.455 501.069
2532 0 73.1634 13.5587 992 93.2389 453.225 499.606
2533 0 78.1564 13.7417 1074 91.932 453.099 497.094
2534 0 81.1625 13.4791 1094 91.7742 453.697 494.753
2535 0 82.2201 14.0477 1155 91.658 453.164 493.136
2536 0 83.1478 12.9769 1079 94.722 453.668 492.179
2537 0 86.0985 12.9271 1113 94.4241 453.845 490.514
2538 0 90.1118 12.8618 1159 93.2373 454.043 488.402
2539 0 90.0748 12.6117 1136 92.8759 453.356 487.076
2540 0 91.0763 11.3641 1035 94.1072 453.269 486.475
2541 0 94.1541 11.2157 1056 93.9034 452.754 483.356
2542 0 99.1226 11.8036 1170 92.4897 453.166 481.887
2543 0 102.116 12.0549 1231 93.1397 453.478 482.305
2544 0 110.108 13.0962 1442 93.0999 452.903 480.573
2545 1 60.0569 13.021 782 94.7302 452.941 503.797
2546 0 59.0498 11.8375 699 84.9113 454.083 502.858
2547 0 63.0962 12.9009 814 89.3084 454.326 504.844
2548 0 61.0517 12.5467 766 98.0744 453.14 504.928
2549 0 64.0408 11.9299 764 99.4778 452.678 502.694
2550 0 67.0582 12.9142 866 97.2148 452.627 501.372
2551 0 68.138 12.6802 864 99.0984 453.074 500.156
2552 0 71.0671 12.8611 914 98.6937 453.781 499.473
2553 0 75.0554 13.4701 1011 97.1444 455.221 499.221
2554 0 78.0828 13.268 1036 98.3456 455.575 497.792
2555 0 81.0534 13.596 1102 98.3866 454.265 496.246
2556 0 81.0502 13.103 1062 101.145 455.583 494.471
2557 0 84.0552 12.8725 1082 102.171 455.125 493.475
2558 0 86.0502 13.2829 1143 102.848 454.278 490.243
2559 0 90.0359 13.3169 1199 102.56 454.234 488.622
2560 0 95.039 14.1836 1348 99.1417 453.717 486.031
2561 0 97.0193 13.4819 1308 102.283 452.811 483.408
2562 0 99.0212 13.6132 1348 102.917 453.418 480.579
2563 0 102.037 13.2403 1351 104.27 453.351 479.237
2564 1 56.0641 10.2383 574 98.8049 454.521 501.416
2565 0 56.1422 10.5446 592 99.2939 454.684 499.228
2566 0 59.0664 11.0892 655 98.6855 454.311 497.653
2567 0 60.086 11.3504 682 98.5792 454.585 494.251
2568 0 64.0435 11.8045 756 94.623 454.327 499.68
2569 0 67.0599 11.6165 779 92.3517 454.363 499.864
2570 0 67.0855 11.463 769 93.5137 454.295 498.406
2571 0 73.0834 11.48 839 92.6698 454.521 497.398
2572 0 76.0422 12.0986 920 87.4087 454.348 494.024
2573 0 77.0898 11.7396 905 89.8586 454.899 491.729
2574 0 78.0641 10.9782 857 91.9218 454.575 492.441
2575 0 81.0452 11.6355 943 91.1548 454.86 490.891
2576 0 84.0193 10.7713 905 92.7768 454.862 487.053
2577 0 87.0427 11.6609 1015 89.9458 454.654 486.847
2578 0 90.1133 11.3746 1025 91.4254 454.871 484.084
2579 0 91.1668 11.5173 1050 91.28 454.048 482.57
2580 0 95.1368 11.5728 1101 90.3524 454.23 480.826
2581 0 97.1144 11.7078 1137 91.307 454.741 479.781
2582 0 100.117 10.9472 1096 92.9115 453.704 479.314
2583 0 104.129 11.6778 1216 92.0609 454.317 476.522
2584 1 54.1063 10.886 589 86.1392 455.136 501.788
2585 0 58.0836 10.9497 636 86.2783 454.758 501.05
2586 0 59.0949 10.7285 634 89.6924 455.991 504.855
2587 0 61.0823 11.6564 712 87.8581 455.775 503.051
2588 0 62.0999 10.9662 681 88.7092 456.35 501.997
2589 0 64.0967 11.233 720 87.0722 456.083 500.899
2590 0 67.093 11.1636 749 86.211 455.422 501.267
2591 0 68.1115 11.3931 776 86.567 455.401 498.805
2592 0 68.0406 11.4197 777 87.7941 455.306 498.75
2593 0 73.0714 11.8377 865 85.8162 455.453 497.916
2594 0 75.0418 11.6202 872 86.3337 456.205 496.874
2595 0 77.0396 11.877 915 86.6317 455.305 494.848
2596 0 80.0977 12.1102 970 84.7938 456.286 492.344
2597 0 82.1001 11.9732 983 86.2258 455.878 491.669
2598 0 85.101 12.3383 1050 85.6076 455.955 489.954
2599 0 87.0433 12.1319 1056 85.9025 455.206 491.402
2600 0 90.0386 11.9504 1076 86.6013 455.303 488.319
2601 0 91.086 11.5825 1055 89.2853 454.667 487.466
2602 0 95.0465 11.931 1134 87.1094 454.64 485.318
2603 0 99.0503 11.5295 1142 87.4904 454.768 483.139
2604 0 102.057 10.8665 1109 92.4076 454.835 482.235
2605 0 105.067 11.012 1157 91.8954 454.419 480.685
2606 0 109.179 11.3209 1236 90.9442 455.152 476.841
2607 1 51.0732 9.02627 461 87.3623 456.866 505.423
2608 0 55.0675 9.5156 524 86.2519 455.435 504.844
2609 0 57.0956 10.7364 613 83.876 455.326 503.051
2610 0 60.1968 10.8976 656 81.503 455.787 502.13
2611 0 60.1144 10.5466 634 83.8896 455.161 500.492
2612 0 63.1382 11.0551 698 81.8911 455.185 500.758
2613 0 63.0589 10.4188 657 84.2344 455.017 501.648
2614 0 67.0648 11.3025 758 83.3826 454.641 499.074
2615 0 71.1174 12.3598 879 79.6382 455.388 497.308
2616 0 71.102 11.814 840 82.5369 455.78 496.785
2617 0 75.0602 11.7772 884 82.6855 455.458 496.219
2618 0 75.0979 11.8778 892 84.2668 455.963 493.854
2619 0 79.1168 12.2856 972 83.7778 456.532 491.935
2620 0 80.109 12.1584 974 84.8296 456.677 493.405
2621 0 83.1626 11.7 973 86.9168 456.608 491.328
2622 0 84.0721 12.0135 1010 87.2525 456.233 491.003
2623 0 87.113 11.9385 1040 88.8798 455.902 488.951
2624 0 89.1354 11.7462 1047 89.6542 455.692 487.388
2625 0 91.1318 12.3667 1127 89.0133 455.741 485.13
2626 0 96.1356 12.2431 1177 88.5157 455.771 484.422
2627 0 98.1416 12.1661 1194 90.2697 455.892 483.119
2628 0 99.1192 12.1066 1200 90.7758 456.081 482.981
2629 0 104.157 12.7883 1332 87.0811 455.624 479.673
2630 0 107.158 11.5904 1242 91.5853 455.69 479.57
2631 0 110.117 11.2154 1235 92.3798 455.761 478.208
2632 0 114.219 11.4867 1312 92.2088 455.393 478.5
2633 0 118.232 11.7819 1393 93.8808 455.111 473.508
2634 0 122.207 11.6033 1418 95.0529 454.606 470.439
2635 0 127.305 12.3169 1568 93.4828 454.774 469.202
2636 0 131.27 11.4573 1504 96.5 455.328 465.412
2637 1 68.085 11.1038 756 95.5225 455.064 496.79
2638 0 71.1467 11.3147 805 94.5838 455.716 493.95
2639 0 67.0518 10.2756 689 88.4412 455.438 488.888
2640 0 72.0935 10.8748 784 79.5561 455.236 490.899
2641 0 74.0539 10.992 814 79.6069 454.754 489.525
2642 0 78.0782 12.1545 949 83.4794 455.447 494.368
2643 0 79.0521 11.6252 919 84.8292 456.086 491.548
2644 0 83.0932 11.4691 953 84.2518 455.622 492.92
2645 0 84.0944 11.5228 969 85.1692 455.122 489.655
2646 0 87.0645 11.4053 993 85.7049 455.461 490.118
2647 0 86.0599 10.6321 915 129.714 455.532 491.779
2648 0 93.0719 11.0989 1033 86.0058 456.39 488.076
2649 0 97.1327 11.1703 1085 84.576 456.008 485.736
2650 1 51.0519 10.4599 534 86.5861 456.204 506.721
2651 0 52.0492 10.7014 557 85.7774 455.684 507.619
2652 0 52.0643 10.2758 535 87.0355 455.908 505.107
2653 0 54.0268 11.3647 614 84.8534 455.733 505.365
2654 0 58.1477 12.3135 716 85.3366 455.694 503.029
2655 0 58.1733 11.7408 683 90.9532 454.428 502.99
2656 0 61.2252 11.6619 714 91.2339 454.916 500.612
2657 0 62.3098 11.2663 702 92.1011 455.796 499.688
2658 0 64.1558 11.7215 752 90.7114 456.305 497.942
2659 0 65.2121 11.0409 720 91.7278 455.329 497.175
2660 0 69.2177 11.6011 803 91.0174 455.417 496.583
2661 0 71.1678 11.7609 837 90.4946 454.658 495.493
2662 0 75.2334 10.6336 800 92.7875 455.518 495.014
2663 0 74.2453 11.893 883 91.1098 455.085 492.795
2664 0 76.2035 12.0467 918 92.3105 454.718 491.265
2665 0 78.217 11.9284 933 92.8725 454.548 489.126
2666 0 80.2874 11.9944 963 93.4849 454.962 489.148
2667 0 85.3858 13.1169 1120 89.5196 454.249 484.936
2668 0 87.2551 13.0651 1140 90.3132 454.109 483.437
2669 0 89.2762 12.803 1143 90.8373 454.17 485.031
2670 0 93.3313 13.6289 1272 89.555 454.294 482.858
2671 0 95.3647 13.6948 1306 90.9969 454.804 480.1
2672 0 98.2538 13.7094 1347 91.0616 455.303 481.086
2673 0 102.321 14.0929 1442 90.1082 455.098 477.605
2674 0 105.337 14.24 1500 90.8387 455.808 477.7
2675 0 107.331 13.6494 1465 92.7761 455.39 474.914
2676 1 56.061 10.2745 576 90.1806 454.74 502.165
2677 0 58.0718 10.1598 590 90.5814 455.592 500.156
2678 0 58.1749 10.9326 636 87.1604 455.009 495.819
2679 0 64.0727 12.5014 801 90.8826 454.594 500.345
2680 0 65.1001 12.7342 829 91.3667 453.8 498.99
2681 0 67.0801 12.6863 851 91.9742 453.844 499.612
2682 0 66.065 11.3373 749 90.51 453.708 502.254
2683 0 67.0513 11.782 790 91.1709 453.408 502.111
2684 0 70.0189 12.3681 866 90.0497 453.408 500.331
2685 0 73.0279 11.7352 857 91.021 453.952 499.982
2686 0 72.0501 11.9917 864 92.5081 453.909 499.77
2687 0 75.0775 11.6014 871 94.2974 453.572 499.146
2688 0 77.0908 12.0767 931 93.1869 453.615 497.176
2689 0 80.0653 11.7154 938 94.7665 453.848 496.516
2690 0 83.0419 12.1505 1009 93.9534 453.643 494.34
2691 0 85.1528 12.1194 1032 93.8692 453.965 493.669
2692 0 87.0872 11.9306 1039 98.0683 453.826 493.014
2693 0 91.1655 11.7917 1075 98.027 453.869 491.908
2694 0 91.1202 12.3683 1127 97.1553 454.246 491.247
2695 0 95.1289 12.0468 1146 96.8674 453.102 488.02
2696 0 97.1431 12.672 1231 95.407 452.874 486.076
2697 0 99.253 12.3019 1221 97.0737 453.478 484.907
2698 0 101.174 11.6927 1183 96.9907 453.707 484.147
2699 0 104.204 11.9189 1242 95.8406 453.159 480.466
2700 0 109.242 12.2938 1343 95.0707 453.168 477.389
2701 0 112.195 11.8098 1325 94.6574 452.808 475.371
2702 0 113.181 11.1415 1261 96.414 453.212 472.929
2703 0 117.204 11.2368 1317 94.2984 453.557 469.74
2704 0 118.154 11.4342 1351 93.8142 453.624 464.03
2705 0 123.324 11.6036 1431 93.3795 453.366 463.386
2706 0 126.19 11.7205 1479 95.3584 453.686 461.239
2707 0 130.277 11.7903 1536 95.9727 454.312 460.294
2708 0 133.45 11.7647 1570 97.3363 454.541 459.815
2709 0 137.326 11.9205 1637 98.8082 454.369 457.772
2710 0 143.403 12.3568 1772 100.012 453.749 455.488
2711 1 81.3801 10.0393 817 99.3231 454.143 487.277
2712 0 84.2608 10.515 886 100.354 453.5 485.356
2713 0 86.219 12.1203 1045 99.6737 454.645 486.393
2714 0 90.2727 12.1299 1095 98.3918 454.71 485.195
2715 0 94.1228 12.4199 1169 99.846 453.627 486.367
2716 0 97.2064 12.7358 1238 98.5929 454.167 483.789
2717 0 100.144 12.9014 1292 98.0046 454.733 481.992
2718 0 101.115 11.4819 1161 102.924 454.098 481.745
2719 0 109.216 10.9233 1193 102.536 453.868 480.657
2720 0 107.307 10.689 1147 99.3322 454.132 476.294
2721 0 111.232 11.93 1327 98.1854 453.839 476.368
2722 1 58.3674 10.3654 605 98.3785 454.177 500.311
2723 0 60.3107 11.4905 693 95.5974 453.711 497.367
2724 0 62.1496 11.1827 695 94.5554 454.138 500.204
2725 0 64.0806 11.548 740 90.5108 454.574 501.02
2726 0 65.0882 10.8314 705 93.6142 455.113 499.726
2727 0 68.1043 11.1594 760 91.2579 455.146 499.159
2728 0 69.1345 11.1522 771 91.8003 455.567 499.019
2729 0 72.0911 11.3329 817 90.672 454.485 497.486
2730 0 73.0796 11.1112 812 90.7796 454.287 496.43
2731 0 76.0924 11.4729 873 88.8454 454.771 495.212
2732 0 79.119 11.7039 926 88.149 454.414 492.715
2733 0 80.1155 10.7719 863 88.7393 454.538 490.605
2734 0 83.0784 11.4831 954 87.4245 454.161 488.839
2735 0 86.1593 11.2466 969 90.4892 454.408 486.347
2736 0 90.1731 11.7884 1063 92.9953 454.263 484.319
2737 0 93.1601 11.3675 1059 94.6704 455.149 480.58
2738 0 97.1596 11.3936 1107 94.6531 455.229 478.846
2739 1 48.0201 10.2665 493 92.1724 455.286 505.74
2740 0 50.0257 11.2542 563 89.508 455.506 503.998
2741 0 51.0426 11.3435 579 91.8152 454.665 503.264
2742 0 55.0263 11.2855 621 91.5684 454.44 503.647
2743 0 56.0868 11.1434 625 92.8432 454.634 503.93
2744 0 58.0176 11.7206 680 92.9574 455.019 502.71
2745 0 59.0316 11.7903 696 92.408 455.106 502.79
2746 0 62.0233 11.931 740 93.2122 455.968 501.026
2747 0 63.061 12.3056 776 91.3776 456.271 499.729
2748 0 64.0091 12.3732 792 91.1742 455.417 500.341
2749 0 66.0733 12.6072 833 90.6759 455.18 500.14
2750 0 70.0822 12.8135 898 89.2884 455.469 498.157
2751 0 69.032 12.2262 844 91.1825 456.033 496.611
2752 0 72.0228 12.4544 897 92.3501 455.608 496.85
2753 0 75.0271 12.3689 928 92.7597 455.374 494.848
2754 0 78.0273 13.0595 1019 89.9627 455.223 493.943
2755 0 82.0312 12.7391 1045 90.5148 455.129 493.162
2756 1 44.0657 10.9155 481 86.3493 456.358 509.514
2757 0 44.0978 10.1139 446 87.6009 456.478 510.457
2758 0 46.0663 10.7671 496 87.375 456.319 507.419
2759 0 48.1501 11.4226 550 87.0509 456.533 507.475
2760 0 48.0205 11.4951 552 87.2029 454.868 508.076
2761 0 50.1065 12.0144 602 92.6262 454.593 508.588
2762 0 54.0306 11.9192 644 89.5807 454.469 506.717
2763 0 53.0392 11.7272 622 88.7251 453.886 507.061
2764 0 55.0587 11.6966 644 87.3261 454.491 505.247
2765 0 57.1069 11.6273 664 87.2861 454.383 505.068
2766 0 56.0423 11.7233 657 86.3562 454.049 505.808
2767 0 60.0351 11.4933 690 86.0188 455.426 506.343
2768 0 60.0265 11.1284 668 87.4581 455.364 504.633
2769 0 63.0386 12.1354 765 85.0131 455.796 504.197
2770 0 64.0586 11.6456 746 85.8016 456.401 503.571
2771 0 66.0507 11.7334 775 84.5548 454.952 502.284
2772 0 67.1038 10.9681 736 86.1101 455.496 501.274
2773 0 71.0762 11.4666 815 84.3718 455.243 498.767
2774 0 73.0379 11.6652 852 84.7887 454.797 498.798
2775 0 74.0793 11.5552 856 84.5771 455.491 496.668
2776 0 77.0607 11.3677 876 85.2443 454.748 495.905
2777 0 81.0969 12.0596 978 82.8241 454.583 495.231
2778 0 84.068 11.7167 985 83.4843 455.203 494.037
2779 0 84.0859 11.5953 975 84.4636 455.568 492.022
2780 1 45.0594 10.2975 464 85.7155 454.983 513.119
2781 0 48.0347 11.2211 539 82.4007 455.009 512.219
2782 0 50.0718 11.2838 565 80.9929 455.17 511.373
2783 0 50.0577 11.2071 561 82.2121 454.927 511.353
2784 0 53.0203 12.0709 640 79.0031 454.773 510.483
2785 0 55.0478 12.7707 703 77.6003 455.208 509.559
2786 0 56.0195 11.6031 650 79.3154 455.269 509.149
2787 0 57.1011 12.5392 716 76.7416 455.461 506.712
2788 0 59.0568 12.6996 750 76.468 455.569 506.135
2789 0 60.0424 12.6244 758 76.657 455.923 504.274
2790 0 63.0555 12.7665 805 76.7863 455.04 504.58
2791 0 62.0727 11.3899 707 81.9406 454.537 505.687
2792 0 63.0635 11.2109 707 81.8062 455.209 504.745
2793 0 67.0378 11.1131 745 81.3235 454.607 503.616
2794 0 69.0708 11.7416 811 80.307 454.728 502.646
2795 0 72.1064 11.2473 811 79.9186 454.375 500.525
2796 0 74.0875 11.2974 837 80.2067 454.374 499.134
2797 0 76.064 11.1354 847 81.0649 454.087 498.148
2798 0 78.0545 10.6848 834 81.5564 453.972 497.721
2799 0 80.0638 10.5166 842 80.6033 453.873 497.075
2800 0 83.0402 10.7418 892 79.1457 454.402 493.988
2801 0 86.0868 10.8263 932 79.2446 454.069 493.864
2802 1 44.0276 10.6524 469 82.226 455.087 513.141
2803 0 44.0208 10.6313 468 81.8761 455.079 512.25
2804 0 46.071 11.3086 521 82.1497 454.192 510.146
2805 0 46.0504 11.2485 518 81.7664 453.838 510.838
2806 0 48.0207 12.0781 580 84.3431 454.8 509.14
2807 0 47.0154 10.7199 504 81.5774 455.258 511.976
2808 0 50.016 11.3364 567 80.7531 455.21 509.155
2809 0 50.0466 10.77 539 83.1781 455.358 509.026
2810 0 52.0203 11.1879 582 82.9485 455.113 507.754
2811 0 54.0929 11.1105 601 84.1032 454.656 507.203
2812 0 57.0748 11.336 647 82.8207 454.977 505.263
2813 0 61.0728 12.0676 737 81.6214 455.772 505.431
2814 0 61.1529 11.7411 718 84.4318 454.492 504.206
2815 0 63.2391 11.6384 736 85.6413 455.071 503.511
2816 0 65.2454 12.4453 812 85.0222 454.849 502.393
2817 0 69.271 11.6066 804 87.1418 454.498 501.485
2818 0 70.187 11.9538 839 87.8188 454.808 500.597
2819 0 74.1674 12.5257 929 86.8547 453.989 499.968
2820 0 74.1274 11.6286 862 91.3364 454.565 499.1
2821 0 79.3082 12.9621 1028 87.7743 454.142 499.25
2822 0 82.33 12.8872 1061 88.7719 454.285 495.495
2823 0 85.1631 12.7403 1085 89.3419 453.772 492.76
2824 0 87.1685 13.5599 1182 86.901 453.854 491.757
2825 0 91.2386 13.3058 1214 86.3913 454.563 490.259
2826 0 94.1715 13.1038 1234 88.0721 454.676 488.745
2827 0 97.1194 13.2929 1291 87.1177 453.76 485.34
2828 1 49.0341 11.0739 543 97.6077 454.86 509.32
2829 0 50.1102 10.876 545 99.1743 454.275 505.883
2830 0 50.025 11.3743 569 98.8348 454.784 506.538
2831 0 54.0319 11.6228 628 96.9522 455.443 504.204
2832 0 56.091 12.0162 674 93.7967 453.961 501.958
2833 0 57.0987 11.4013 651 96.2688 453.733 502.298
2834 0 59.16 11.8154 699 95.7968 453.72 500.599
2835 0 61.0571 12.3491 754 94.187 453.52 499.334
2836 0 63.03 12.3116 776 93.6753 453.564 498.397
2837 0 64.0694 12.2679 786 95.444 454.118 500.028
2838 0 68.0823 13.3662 910 93.5066 454.141 503.312
2839 0 71.0924 13.0253 926 94.1199 453.952 501.916
2840 0 75.0342 13.0341 978 92.7546 454.44 499.819
2841 0 76.115 13.2825 1011 93.5974 454.27 496.911
2842 0 78.0876 13.1775 1029 92.4606 453.585 497.715
2843 0 81.0914 13.2813 1077 89.9656 453.862 495.827
2844 0 85.1872 13.394 1141 89.4619 453.94 493.989
2845 0 88.0984 13.0082 1146 89.9695 453.902 490.55
2846 0 90.1535 13.1442 1185 89.5435 454.338 490.161
2847 0 90.1098 12.1518 1095 90.7078 453.804 484.73
2848 0 94.0888 12.2969 1157 90.6439 453.451 481.925
2849 1 49.0691 10.5362 517 88.8433 454.25 504.201
2850 0 52.0227 11.4373 595 88.5546 455.163 502.047
2851 0 53.046 11.688 620 86.4339 454.055 500.747
2852 0 54.0363 11.6958 632 87.0981 453.951 509.748
2853 0 57.0246 12.2053 696 83.6293 454.213 510.264
2854 0 59.0331 12.5353 740 83.2838 454.331 507.901
2855 0 62.0331 12.7351 790 83.0494 454.668 507.614
2856 0 64.0407 13.5539 868 81.1475 454.507 506.202
2857 0 67.0617 12.5407 841 81.365 454.948 505.158
2858 0 68.019 12.5847 856 81.8236 454.911 504.249
2859 0 70.0317 12.9656 908 79.9328 455.525 500.674
2860 0 74.0419 12.3444 914 80.8818 455.762 499.568
2861 0 76.0457 13.5445 1030 80.8864 455.886 497.384
2862 0 78.0414 12.6856 990 83.3333 455.141 495.152
2863 0 79.06 12.6992 1004 85.0896 455.646 494.564
2864 0 82.0875 12.4989 1026 90.038 454.949 492.145
2865 0 85.0593 12.4619 1060 88.183 455.158 490.888
2866 0 88.0941 12.4866 1100 88.14 454.365 489.394
2867 0 93.0869 14.0836 1311 90.3509 454.761 491.29
2868 0 95.0684 14.1267 1343 89.9658 455.485 490.031
2869 0 99.0773 13.5551 1343 90.7588 455.101 488.279
2870 1 54.0359 11.5109 622 86.9727 455.333 512.071
2871 0 54.0408 11.3433 613 85.5057 454.87 510.612
2872 0 55.0104 11.307 622 82.2588 454.841 508.158
2873 0 58.0087 12.2913 713 81.324 455.32 509.663
2874 0 59.0543 11.4302 675 83.5526 456.135 507.215
2875 0 61.0837 11.4924 702 82.4886 455.597 505.43
2876 0 63.0456 11.7058 738 82.4363 454.671 504.263
2877 0 65.0335 11.6248 756 82.6852 455.27 503.303
2878 0 66.0966 11.816 781 83.7503 454.656 503.456
2879 0 71.0477 12.3016 874 84.3307 454.33 502.825
2880 0 73.0764 12.3022 899 85.2269 454.45 502.516
2881 0 73.0886 11.1919 818 87.6773 454.848 502.476
2882 0 75.0285 11.8222 887 86.8061 454.366 500.922
2883 0 79.0628 11.9778 947 86.9989 454.908 498.903
2884 0 80.0306 11.8455 948 88.1635 454.772 499.427
2885 1 44.0256 11.9249 525 86.2362 454.55 516.295
2886 0 44.0451 10.8525 478 90.8682 453.904 518.146
2887 0 46.0438 11.033 508 93.0217 455.144 516.707
2888 0 47.1079 11.5904 546 93.7637 455.491 513.027
2889 0 49.0688 12.3296 605 92.2248 454.772 512.818
2890 0 50.0548 12.5263 627 91.7097 454.579 513.062
2891 0 50.0334 12.3717 619 93.3086 455.036 512.973
2892 0 54.065 12.559 679 82.7202 454.415 511.507
2893 0 54.0167 12.6998 686 90.1385 454.099 511.061
2894 0 53.0102 12.6202 669 94.4858 453.976 509.704
2895 0 54.075 12.871 696 97.7529 454.624 510.718
2896 0 55.0483 12.044 663 93.4585 454.297 510.56
2897 0 55.0832 12.4539 686 95.4534 454.236 510.086
2898 0 55.0837 12.2722 676 97.7293 454.188 510.108
2899 0 55.1025 11.8869 655 98.8687 454.537 509.704
2900 0 57.1066 12.3103 703 96.0669 454.844 509.75
2901 0 60.1097 11.6121 698 108.383 455.132 508.842
2902 0 62.1554 11.9378 742 105.64 455.024 505.988
2903 0 64.1069 12.0112 770 102.327 454.492 505.874
2904 0 66.0916 11.7867 779 102.015 454.471 504.34
2905 0 68.1146 11.6275 792 100.241 454.814 503.61
2906 0 69.088 11.4492 791 99.0354 454.314 502.546
2907 0 72.1262 11.5353 832 96.0697 454.363 501.649
2908 0 73.1107 11.3116 827 97.4776 453.92 500.846
2909 0 77.1742 11.5583 892 91.7377 454.129 500.944
2910 0 77.1093 11.1011 856 97.0526 455.264 497.859
2911 1 41.0298 10.9676 450 92.6311 454.342 515.413
2912 0 42.025 10.6127 446 95.4036 454.655 514.805
2913 0 44.0845 10.9335 482 93 454.402 515.139
2914 0 45.014 11.5297 519 90.0713 455.094 515.424
2915 0 45.0252 11.1493 502 91.8944 454.518 514.088
2916 0 46.0526 11.1177 512 91.5723 455.35 512.695
2917 0 47.0739 10.7066 504 92.1508 454.942 513.452
2918 0 48.0741 11.4199 549 89.8488 454.718 512.035
2919 0 49.0659 11.6578 572 91.2552 454.689 511.836
2920 0 50.1051 11.875 595 90.9361 455.526 511.245
2921 0 51.0489 10.9503 559 87.5259 455.079 508.939
2922 0 52.0318 11.4353 595 88.5395 455.662 509.393
2923 0 54.0365 11.6403 629 92.4913 454.151 509.762
2924 0 57.0178 11.6455 664 93.6973 453.991 508.533
2925 0 57.0316 11.5024 656 97.8643 455.062 508.265
2926 0 59.0373 11.5351 681 98.2526 454.703 507.759
2927 0 60.0293 12.0608 724 97.3108 454.515 508.153
2928 0 63.0558 11.7673 742 98.3733 454.712 506.949
2929 0 63.0514 11.6413 734 103.747 455.026 504.815
2930 1 32.0077 10.4975 336 108.048 454.824 520.083
2931 0 32.0201 10.5246 337 109.552 454.027 520.374
2932 0 33.0599 10.2239 338 111.97 453.669 519.68
2933 0 36.0241 9.88227 356 113.371 453.761 519.489
2934 0 35.0949 11.3122 397 112.481 454.957 517.844
2935 0 37.1648 11.0319 410 113.241 454.002 517.91
2936 0 35.0466 10.4432 366 120.47 454.555 519.262
2937 0 38.0896 10.2653 391 120.55 454.642 518.68
2938 0 37.0808 9.95123 369 123.057 454.856 518.753
2939 0 39.1211 10.2246 400 121.585 454.645 517.83
2940 0 41.1293 10.7952 444 118.748 454.538 516.342
2941 0 43.0203 10.7159 461 119.002 454.612 515.616
2942 0 43.0723 10.9583 472 118.633 454.547 516.002
2943 0 44.03 10.7654 474 119.281 454.532 515.184
2944 0 45.0503 10.8989 491 119.377 454.377 514.947
2945 0 48.0576 11.1533 536 114.884 454.097 514.118
2946 0 50.1263 11.2715 565 111.589 455.414 512.466
2947 0 50.0974 11.6373 583 110.16 455.309 511.784
2948 0 52.08 10.7911 562 110.819 455.374 510.767
2949 0 53.0884 11.1512 592 108.59 455.218 511.216
2950 0 53.0762 10.7016 568 110.68 455.023 510.192
2951 0 53.0729 11.0414 586 109.082 455.263 509.428
2952 0 55.0839 11.0377 608 108.508 455.604 509.793
2953 0 57.0818 10.9842 627 108.424 455.544 508.322
2954 0 60.2048 11.0622 666 115.559 455.063 507.562
2955 0 61.0792 11.5588 706 112.737 455.278 506.144
2956 0 63.0714 10.7973 681 108.78 454.436 507.304
2957 0 65.1033 11.1822 728 108.179 454.848 504.853
2958 0 67.094 10.9846 737 108.718 455.144 504.419
2959 0 71.0937 10.7323 763 105.916 455.143 504.186
2960 0 72.1439 11.5325 832 104.715 453.344 501.403
2961 0 74.2316 11.4641 851 103.72 453.703 500.758
2962 0 76.222 11.3615 866 103.872 454.192 498.255
2963 0 79.1387 11.1324 881 103.656 454.858 496.372
2964 0 81.193 11.5158 935 101.665 454.024 496.029
2965 0 85.1539 12.3306 1050 98.8705 453.848 492.706
2966 0 87.1102 12.0767 1052 99.3878 454.184 491.789
2967 1 47.0569 10.6892 503 97.0298 454.205 511.563
2968 0 47.0554 10.477 493 96.8032 454.136 513.432
2969 0 47.0389 11.5649 544 95.2096 454.04 510.95
2970 0 48.0542 11.1957 538 95.2658 453.879 510.353
2971 0 51.0403 12.1277 619 92.7706 454.079 509.082
2972 0 52.0634 12.3311 642 93.4424 454.833 510.271
2973 0 54.0468 12.6927 686 91.9752 455.236 509.525
2974 0 55.0726 12.2202 673 93.9822 453.799 508.41
2975 0 57.1082 12.5726 718 90.9011 454.401 508.676
2976 0 58.1189 12.526 728 90.2143 454.669 506.934
2977 0 61.1399 12.2997 752 92.4681 454.657 505.961
2978 0 62.0467 11.7653 730 89.5753 455.125 504.495
2979 0 66.0219 11.7234 774 88.345 455.425 505.151
2980 0 67.0768 11.5539 775 89.1652 455.093 502.397
2981 0 69.1375 12.4101 858 87.6935 455.428 501.914
2982 0 71.0967 12.2509 871 86.9587 455.402 500.769
2983 0 74.0561 11.9909 888 83.3682 455.319 497.691
2984 0 74.0763 11.5557 856 86.0479 455.251 497.179
2985 0 78.1075 11.9323 932 84.3519 455.191 495.937
2986 0 81.0591 12.0776 979 82.5424 455.333 495.746
2987 0 82.1036 11.8509 973 83.2415 455.183 494.3
2988 0 85.0716 12.0604 1026 83.9347 455.657 493.029
2989 0 87.1292 12.097 1054 85.3975 455.713 491.5
2990 0 92.068 12.5016 1151 83.9722 455.679 491.334
2991 0 94.1259 12.207 1149 84.6266 455.586 487.948
2992 0 96.1301 11.5365 1109 86.9955 455.784 486.575
2993 0 98.1269 11.2915 1108 87.0532 454.937 486.774
2994 0 102.127 11.4563 1170 86.7692 455.457 484.674
2995 0 103.151 11.7982 1217 85.8817 455.186 483.721
2996 0 109.068 12.1667 1327 84.6104 455.534 480.931
2997 0 112.114 11.5329 1293 85.9389 456.144 480.248
2998 0 116.234 12.3286 1433 86.1905 455.398 476.098
2999 0 120.145 11.6193 1396 87.8202 454.916 474.885
3000 0 123.186 11.8763 1463 89.1203 455.414 471.93
3001 0 125.126 11.6842 1462 90.3365 454.952 469.027
3002 0 132.136 12.6007 1665 87.9898 455.075 467.184
3003 0 135.245 12.237 1655 88.5625 454.707 465.144
3004 0 143.172 12.5373 1795 88.7471 455.46 466.247
3005 0 147.207 13.1515 1936 88.6632 454.441 462.672
3006 0 149.27 12.5879 1879 90.5748 454.625 460.922
3007 0 156.313 13.5241 2114 91.3415 454.493 455.291
3008 0 158.343 12.7129 2013 92.7079 454.701 453.112
3009 0 165.328 13.1012 2166 91.4474 454.364 450.512
3010 0 169.4 13.2644 2247 92.1113 454.061 444.959
3011 0 175.414 13.5679 2380 91.9067 454.167 440.048
3012 0 183.36 13.6289 2499 91.8271 454.561 438.213
3013 0 190.415 13.6702 2603 90.1329 456.388 432.092
3014 1 201.416 17.6798 3561 78.624 456.131 419.211
3015 0 202.42 15.1418 3065 87.3579 456.322 424.634
3016 0 208.447 14.0132 2921 90.0698 455.743 423.788
3017 0 216.385 13.8087 2988 90.0281 455.915 421.639
3018 0 223.568 14.1165 3156 88.6797 454.728 417.408
3019 0 223.568 14.1612 3166 164.126 453.723 417.488
3020 1 238.706 14.1764 3384 88.8295 454.598 410.755
3021 0 247.508 13.7935 3414 90.0319 453.73 405.593
3022 0 255.512 14.3829 3675 89.815 454.366 403.866
3023 1 200.411 11.8606 2377 93.7236 455.109 436.909
3024 1 70.1859 11.0279 774 87.2041 455.344 496.335
3025 0 73.1852 11.6964 856 89.1227 454.724 495.314
3026 0 77.1948 12.2677 947 90.2175 454.852 492.3
3027 0 80.2271 12.5269 1005 90.3333 455.42 494.273
3028 0 81.0727 10.7928 875 93.1531 456.311 494.533
3029 0 85.1094 11.2444 957 92.28 456.748 491.315
3030 0 89.0559 12.1946 1086 90.7431 455.882 491.031
3031 0 91.1126 12.8961 1175 87.8545 456.41 490.013
3032 0 95.1416 12.865 1224 88.781 456.454 487.5
3033 0 97.1468 13.0421 1267 89.8627 456.826 485.505
3034 0 99.1103 12.7333 1262 91.8304 456.665 484.221
3035 0 104.214 14.3455 1495 85.9398 455.423 482.896
3036 0 106.124 14.5585 1545 86.7463 455.418 480.225
3037 0 108.141 13.6581 1477 89.0887 455.349 480.865
3038 0 110.211 14.2273 1568 88.2321 455.475 479.284
3039 0 113.207 13.5768 1537 91.1672 455.361 476.025
3040 0 116.152 13.6459 1585 90.2681 455.645 474.719
3041 0 118.135 12.5619 1484 89.0398 455.261 475.896
3042 0 120.162 13.1073 1575 91.8305 455.295 474.035
3043 0 124.123 13.1966 1638 91.4914 455.317 473.161
3044 0 128.173 13.1151 1681 91.1422 455.309 471.026
3045 0 129.231 12.8762 1664 90.9363 455.869 467.836
3046 0 131.153 11.7344 1539 93.3652 454.987 467.686
3047 0 133.128 11.3801 1515 92.8165 455.326 465.644
3048 0 138.217 11.4313 1580 91.6475 455.104 463.315
3049 0 142.206 12.0177 1709 87.9222 454.726 458.977
3050 0 144.206 11.4211 1647 89.3661 454.977 454.963
3051 0 153.262 12.1948 1869 88.9379 455.33 453.482
3052 0 156.3 11.7274 1833 91.0644 455.202 450.374
3053 0 163.313 12.5893 2056 89.1761 455.302 447.984
3054 0 166.246 12.1386 2018 92.3454 455.655 443.594
3055 0 172.243 12.732 2193 92.4738 454.788 443.348
3056 0 178.26 12.5883 2244 94.1658 454.903 437.924
3057 0 183.239 12.4646 2284 95.8034 455.545 438.109
3058 0 189.204 12.468 2359 95.5019 455.173 434.069
3059 0 192.281 12.0501 2317 99.2037 454.876 431.99
3060 0 198.297 11.629 2306 99.5525 454.808 429.398
3061 0 206.249 12.0583 2487 99.569 454.267 427.244
3062 0 213.238 12.0898 2578 99.4418 454.55 421.611
3063 0 220.209 12.2792 2704 102.383 454.412 416.667
3064 1 157.21 10.9535 1722 101.97 455.258 450.267
3065 0 163.173 12.1773 1987 106.725 455.118 451.939
3066 0 167.169 12.6339 2112 106.929 454.975 449.667
3067 0 173.207 13.2847 2301 106.801 455.494 445.292
3068 0 178.212 12.9116 2301 109.47 454.464 444.193
3069 0 183.299 12.8479 2355 110.825 454.817 442.166
3070 0 189.2 13.1078 2480 109.824 454.83 437.585
3071 0 193.296 12.9749 2508 109.538 454.493 436.671
3072 0 198.262 12.3927 2457 109.602 454.452 432.341
3073 0 205.281 13.216 2713 107.579 454.767 429.391
3074 0 210.249 11.9334 2509 108.948 454.22 426.461
3075 0 216.16 12.0559 2606 104.543 454.393 422.955
3076 0 224.192 12.3287 2764 103.656 454.747 419.414
3077 0 229.181 11.3404 2599 104.543 455.21 414.199
3078 0 237.205 11.6987 2775 105.65 454.613 412.24
3079 0 246.285 11.8927 2929 104.204 454.269 409.166
3080 1 196.126 10.6666 2092 102.862 454.33 438.196
3081 0 204.297 11.635 2377 101.776 454.019 432.634
3082 0 211.264 10.972 2318 104.013 454.017 425.201
3083 0 218.328 11.6613 2546 101.269 454.717 425.685
3084 0 225.309 12.1699 2742 101.938 454.203 420.15
3085 0 231.29 12.0022 2776 102.256 454.478 417.767
3086 0 239.296 12.2986 2943 102.268 455.057 414.699
3087 1 64.0929 10.2351 656 89.7546 454.344 504.358
3088 0 65.1205 10.5804 689 93.7678 456.579 500.37
3089 0 67.2685 10.7777 725 94.6097 455.222 497.796
3090 0 67.2501 11.8959 800 95.9962 454.584 499.899
3091 0 65.1002 9.12439 594 89.7677 454.412 504.374
3092 0 68.1003 10.1762 693 88.7229 454.935 503.198
3093 0 69.1226 9.17211 634 90.2129 454.237 502.319
3094 0 72.0737 9.32379 672 90.8006 454.812 501.159
3095 0 76.158 9.49342 723 91.1106 454.575 499.794
3096 0 77.1871 9.52232 735 93.1674 455.648 497.287
3097 0 79.1076 9.9232 785 92.2408 455.475 498.45
3098 0 81.2054 10.1348 823 92.5055 454.663 495.374
3099 0 82.0868 10.5742 868 91.5841 454.887 494.699
3100 0 86.1524 11.027 950 90.7916 455.364 492.992
3101 0 88.1305 11.2674 993 90.993 454.604 489.663
3102 0 93.1413 11.8208 1101 90.6004 454.767 489.035
3103 0 95.1283 11.1428 1060 95.3547 454.423 486.552
3104 0 98.1866 11.6513 1144 94.1241 454.132 485.809
3105 0 100.261 11.49 1152 95.4714 454.242 482.793
3106 1 55.097 9.27455 511 90.5382 454.28 508.875
3107 0 56.1342 9.53074 535 91.428 454.963 506.432
3108 0 58.0659 10.1781 591 90.797 455.305 505.662
3109 0 61.0717 10.2666 627 89.1499 454.858 506.301
3110 0 63.0866 11.2227 708 88.4407 454.986 504.674
3111 0 64.1221 11.0258 707 87.3168 456.714 504.395
3112 0 67.085 11.15 748 86.865 456.103 502.021
3113 0 68.1174 11.7591 801 86.2859 456.772 500.755
3114 0 70.1318 11.7208 822 86.2701 456.939 500.665
3115 0 72.1086 11.2885 814 87.1142 456.772 499.538
3116 0 72.147 11.3796 821 88.609 456.715 498.242
3117 0 75.142 11.272 847 88.8158 456.767 499.123
3118 0 77.1635 12.1042 934 86.2109 455.66 497.178
3119 0 78.1424 11.3895 890 87.6191 455.502 495.676
3120 0 80.0513 10.8306 867 98.8524 454.865 495.794
3121 0 82.0829 10.6721 876 97.8573 454.223 492.419
3122 0 86.0455 11.308 973 95.1624 454.581 492.194
3123 0 86.149 10.8417 934 94.8886 454.976 489.345
3124 0 89.1349 11.0619 986 84.6957 454.843 486.503
3125 0 90.2457 10.9257 986 84.7769 454.61 485.937
3126 0 92.1559 10.5148 969 87.6811 455.33 486.428
3127 0 96.2273 10.3297 994 88.7344 456.013 485.376
3128 0 99.1307 10.5921 1050 87.8876 455.751 481.505
3129 0 102.106 10.1659 1038 88.7871 455.895 481.115
3130 1 194.398 11.245 2186 98.4844 455.739 435.006
3131 0 202.416 11.9408 2417 95.6384 455.259 430.592
3132 0 209.481 11.7958 2471 94.3266 454.818 430.865
3133 0 213.427 12.3227 2630 94.5764 454.217 427.33
3134 0 219.312 11.4586 2513 97.7736 454.301 420.552
3135 0 224.359 11.8292 2654 96.9819 454.605 421.485
3136 0 228.417 12.0219 2746 96.9414 455.002 415.369
3137 0 234.349 12.1827 2855 96.4704 455.301 412.317
3138 0 241.341 12.1239 2926 97.8862 454.147 409.288
3139 0 249.419 12.064 3009 96.9904 454.33 405.478
3140 0 255.403 12.3413 3152 97.1764 454.353 401.813
3141 1 139.26 11.5898 1614 86.495 455.232 460.321
3142 0 141.236 10.2028 1441 90.186 455.071 460.509
3143 0 145.208 11.0393 1603 89.0786 455.137 459.487
3144 0 151.227 11.7704 1780 86.3882 454.542 458.176
3145 0 155.24 11.5305 1790 87.829 455.164 455.687
3146 0 158.158 11.4948 1818 88.78 455.572 454.12
3147 0 164.261 11.3113 1858 89.3332 455.126 451.114
3148 0 168.222 11.6572 1961 90.3131 455.187 445.598
3149 0 174.255 11.6209 2025 90.999 455.881 444.497
3150 0 177.322 12.2263 2168 91.7597 455.309 440.826
3151 0 181.329 10.8918 1975 94.2527 455.299 437.812
3152 0 187.294 11.5487 2163 94.4868 455.375 439.26
3153 0 193.186 11.74 2268 94.6742 455.174 434.383
3154 0 198.297 12.6477 2508 94.1081 454.261 433.176
3155 0 201.27 12.4112 2498 97.2098 455.207 430.112
3156 0 210.263 14.0348 2951 95.4012 455.054 424.331
3157 0 218.328 14.0431 3066 97.9191 454.103 420.389
3158 0 226.29 14.6184 3308 93.3201 455.112 418.204
3159 0 232.358 13.8579 3220 94.0748 455.4 415.806
3160 1 177.383 11.9966 2128 99.2589 454.89 441.148
3161 0 182.47 12.8569 2346 102.504 454.217 439.546
3162 0 188.416 13.0085 2451 103.05 454.261 435.71
3163 0 193.39 13.5633 2623 102.699 454.041 432.2
3164 0 200.159 13.3594 2674 93.5841 455.129 433.122
3165 0 203.138 12.2134 2481 95.9125 454.395 432.507
3166 0 211.225 12.7968 2703 98.0481 454.887 425.491
3167 0 217.166 13.3677 2903 98.5522 454.559 420.027
3168 0 222.286 12.8168 2849 100.009 454.268 416.587
3169 0 233.263 13.1526 3068 98.3644 454.241 410.959
3170 0 239.258 13.6965 3277 99.2701 454.605 406.576
3171 0 239.258 13.6923 3276 166.977 455.603 406.71
3172 1 65.0953 10.7381 699 86.0901 454.647 493.309
3173 0 67.0678 11.8835 797 92.6248 453.742 498.124
3174 0 68.174 11.6027 791 90.3477 456.617 499.77
3175 0 70.1355 11.6061 814 89.3108 456.36 499.095
3176 0 75.1547 12.5208 941 85.1041 456.103 497.95
3177 0 76.1278 12.3345 939 85.9372 456.68 497.535
3178 0 78.0658 12.3742 966 86.736 456.31 494.922
3179 0 78.1014 12.2661 958 88.3967 456.004 493.665
3180 0 81.083 12.0247 975 87.278 456.994 492.484
3181 0 82.0918 12.4738 1024 87.6455 456.282 490.74
3182 0 87.1053 12.1233 1056 87.3466 456.274 490.17
3183 0 86.0915 12.266 1056 87.5142 456.33 487.334
3184 0 91.0794 12.6593 1153 85.137 456.336 486.829
3185 0 90.1112 11.5191 1038 89.0318 455.871 485.172
3186 0 96.1583 11.8243 1137 87.3404 455.564 483.435
3187 0 95.1924 11.2614 1072 88.9356 456.16 479.939
3188 1 51.0805 9.74932 498 88.7651 455.42 497.819
3189 0 52.0977 9.63575 502 80.2948 454.944 498.313
3190 0 56.0509 10.7046 600 88.4317 455.125 499.863
3191 0 58.1574 10.4888 610 82.3607 456.118 505.931
3192 0 61.117 10.3572 633 81.2844 455.452 505.346
3193 0 62.1033 10.563 656 81.1235 455.73 505.261
3194 0 65.0874 10.9545 713 81.1276 455.596 503.337
3195 0 65.1014 10.6449 693 82.2799 455.517 503.646
3196 0 67.1689 10.5704 710 83.0761 455.008 502.172
3197 0 72.125 11.078 799 81.4681 455.745 499.292
3198 0 74.0968 10.8912 807 82.373 455.988 499.338
3199 0 75.1185 11.9678 899 81.7842 455.637 497.485
3200 0 78.0897 11.6405 909 81.0968 455.148 497.477
3201 0 78.0713 11.387 889 82.7233 455.237 496.732
3202 0 79.0443 11.2469 889 83.9978 455.25 494.561
3203 0 84.077 11.7511 988 83.0374 455.438 493.998
3204 0 85.0727 11.5548 983 83.1841 455.749 492.85
3205 0 89.087 11.7413 1046 82.7677 455.551 489.533
3206 0 90.0961 10.8551 978 84.8528 454.643 489.368
3207 0 93.1027 11.9545 1113 82.8374 455.203 487.223
3208 0 96.1517 11.9395 1148 82.4582 454.806 487.929
3209 0 99.0721 12.0417 1193 83.5306 455.693 484.497
3210 0 102.102 11.8705 1212 84.2054 455.176 483.365
3211 0 105.103 12.0643 1268 83.6096 455.122 484.19
3212 1 59.0947 11.2362 664 85.7801 455.107 505.563
3213 0 60.1357 11.0583 665 87.9353 456.289 505.421
3214 0 61.0723 10.7577 657 80.5114 455.79 503.158
3215 0 64.0646 11.5508 740 78.7595 454.865 500.628
3216 0 64.0685 11.9091 763 81.6343 455.758 500.788
3217 0 67.0976 12.0571 809 83.3486 454.921 501.794
3218 0 70.0622 11.133 780 83.359 455.9 498.541
3219 0 70.0681 11.446 802 82.9626 455.708 497.655
3220 0 73.126 11.4186 835 81.7246 455.825 496.904
3221 0 76.108 11.9041 906 80.6854 455.94 496.396
3222 0 78.087 11.6921 913 81.4852 455.795 494.886
3223 0 80.1157 12.5568 1006 80.1272 455.603 493.828
3224 0 82.0794 11.7204 962 82.0655 455.765 492.705
3225 0 84.1694 11.8927 1001 82.2518 455.178 490.063
3226 0 86.0468 11.61 999 83.3484 455.887 489.03
3227 0 90.2597 11.9544 1079 84.0195 455.601 483.76
3228 0 93.1748 12.0741 1125 85.1813 455.315 485.901
3229 0 95.1692 12.1363 1155 85.6779 455.775 484.44
3230 0 99.1873 11.3825 1129 90.7263 456.136 484.996
3231 0 103.123 11.6948 1206 88.7396 455.18 482.417
3232 0 106.113 12.0061 1274 87.7732 455.192 481.352
3233 1 54.1256 11.0669 599 90.9533 455.285 504.499
3234 0 57.1372 11.0786 633 87.7915 454.237 504.36
3235 0 56.1892 11.0875 623 90.4928 455.201 502.547
3236 0 60.2211 12.122 730 83.263 455.41 500.015
3237 0 61.1696 11.7379 718 83.4819 455.655 498.106
3238 0 64.1868 12.2299 785 81.7401 455.554 498.869
3239 0 65.0635 12.2957 800 80.4738 456.281 501.839
3240 0 68.1082 12.7004 865 80.0358 455.717 500.414
3241 0 69.0687 11.5392 797 83.478 455.728 499.154
3242 0 71.1433 12.2429 871 82.8117 455.842 497.923
3243 0 73.0646 12.3863 905 82.8188 456.31 496.001
3244 0 76.0744 12.4089 944 86.5583 455.786 496.572
3245 0 78.117 11.9948 937 86.8036 455.58 493.165
3246 0 81.1047 12.7983 1038 86.5405 455.647 492.94
3247 0 83.1623 12.7702 1062 86.2533 455.292 491.152
3248 0 83.0658 11.9544 993 88.566 455.89 491.435
3249 0 86.1758 12.8458 1107 86.542 455.432 486.204
3250 0 90.2267 12.4575 1124 86.4769 455.046 485.606
3251 0 91.2403 11.9245 1088 87.9596 455.121 483.109
3252 0 94.2148 12.0576 1136 87.0176 455.168 481.353
3253 0 98.2247 11.9929 1178 86.6154 454.969 482.053
3254 0 96.3398 12.2172 1177 86.842 454.616 481.465
3255 0 104.303 11.9556 1247 86.5718 454.976 477.78
3256 0 106.331 11.6429 1238 87.2423 455.319 477.272
3257 0 110.315 11.9294 1316 87.1109 454.824 474.711
3258 1 61.2176 11.1406 682 88.893 455.279 498.293
3259 0 62.1051 11.3839 707 88.9873 455.147 496.591
3260 0 67.0524 11.2897 757 84.1942 454.873 495.612
3261 0 69.0729 13.464 930 83.3204 455.011 495.401
3262 0 71.2524 12.7996 912 85.5417 454.513 495.612
3263 0 72.0608 12.7531 919 90.654 454.447 493.033
3264 0 76.0528 12.9121 982 88.7617 454.691 494.464
3265 0 78.0642 13.4377 1049 87.7617 455.232 493.867
3266 0 81.1196 13.0671 1060 89.1264 455.758 493.129
3267 0 82.1269 13.333 1095 90.8758 455.756 488.91
3268 0 84.1164 13.303 1119 90.7542 454.562 488.382
3269 0 88.1426 13.5916 1198 91.5275 455.471 488.611
3270 0 91.1298 13.7716 1255 90.2215 455.825 484.995
3271 0 94.1526 13.202 1243 93.7249 455.106 481.561
3272 0 97.172 13.5945 1321 92.9001 454.633 480.974
3273 0 100.142 13.8104 1383 92.128 454.808 476.751
3274 0 102.205 13.7371 1404 92.3248 455.099 476.178
3275 0 106.207 13.5772 1442 92.9792 454.917 473.816
3276 0 108.231 14.0255 1518 92.9216 454.557 472.805
3277 0 112.202 13.0123 1460 95.187 454.738 470.811
3278 0 117.274 13.3448 1565 94.2824 454.352 469.663
3279 0 120.206 13.61 1636 92.4413 454.708 467.039
3280 1 67.1436 11.4531 769 92.2068 455.142 496.009
3281 0 68.136 12.9887 885 90.4 455.493 494.861
3282 0 71.0968 13.0245 926 91.865 455.649 494.015
3283 0 74.0663 13.6499 1011 91.0326 455.62 493.882
3284 0 73.0471 12.225 893 94.4681 454.66 496.57
3285 0 77.0412 13.019 1003 93.5723 454.344 494.509
3286 0 78.1618 13.2673 1037 94.0569 454.277 492.992
3287 0 82.1478 12.6479 1039 96.05 454.846 491.564
3288 0 84.2102 13.1457 1107 96.0253 454.555 489.932
3289 0 86.1625 13.196 1137 96.4415 454.71 489.252
3290 0 90.0664 12.3909 1116 97.2769 454.732 488.956
3291 0 94.0874 13.4343 1264 94.5554 454.589 486.158
3292 0 96.0829 13.301 1278 95.7668 454.179 482.696
3293 0 98.0441 13.0145 1276 97.2492 454.175 481.253
3294 0 103.156 13.5136 1394 95.703 454.535 479.07
3295 1 160.219 12.0148 1925 99.9392 454.618 455.036
3296 1 109.071 13.1932 1439 96.5268 454.429 474.165
3297 1 58.0673 11.745 682 98.0396 454.565 501.611
3298 0 59.0425 12.2285 722 98.7438 454.697 500.277
3299 0 61.1184 12.8276 784 96.9541 454.996 497.86
3300 0 65.2089 12.4676 813 93.5732 455.193 494.461
3301 0 68.2642 13.8433 945 92.1439 456.038 495.616
3302 0 67.0684 12.5693 843 92.6904 455.42 497.738
3303 0 70.1493 12.3593 867 92.6263 455.55 496.317
3304 0 72.1269 12.173 878 93.443 455.175 493.468
3305 0 73.0464 12.4168 907 93.0739 455.528 494.691
3306 0 77.0231 12.9572 998 91.0711 455.703 491.594
3307 0 79.0589 12.7879 1011 92.2166 455.694 490.89
3308 0 80.0276 12.8831 1031 90.2105 455.521 489.718
3309 0 83.0716 12.1341 1008 92.9355 454.678 488.623
3310 0 86.1086 12.7978 1102 91.1561 454.74 488.438
3311 0 88.0835 12.9082 1137 91.2014 455.526 487.156
3312 0 91.0893 12.7457 1161 92.8096 455.591 484.04
3313 0 94.1357 13.045 1228 90.8477 455 480.259
3314 0 96.1586 13.3737 1286 90.3888 455.177 481.044
3315 0 99.0925 13.7447 1362 89.3781 454.68 479.64
3316 0 103.137 13.3221 1374 91.1157 454.361 473.21
3317 0 104.163 13.6613 1423 90.5088 454.846 471.564
3318 0 111.134 14.2171 1580 86.2449 455.016 474.903
3319 0 113.164 13.75 1556 88.0649 454.817 471.043
3320 0 116.192 13.5465 1574 88.6004 454.895 467.886
3321 1 64.1073 11.044 708 86.4138 455.559 496.972
3322 0 68.0756 11.8985 810 85.8482 455.01 496.116
3323 0 69.0904 11.6514 805 85.2783 454.477 492.832
3324 0 72.1208 13.2001 952 83.8508 454.347 490.502
3325 0 74.1464 12.853 953 86.233 455.085 490.834
3326 0 77.1745 12.8669 993 85.8902 455.839 489.721
3327 0 79.2065 13.7362 1088 84.6287 456.115 489.984
3328 0 81.1702 12.5292 1017 87.0541 455.914 488.98
3329 0 82.1555 12.9267 1062 87.0443 456.006 488.879
3330 0 87.1537 13.0918 1141 85.7765 455.451 488.478
3331 0 89.1665 13.2897 1185 86.0751 455.134 484.685
3332 0 90.1321 12.637 1139 88.18 455.126 484.988
3333 0 94.1706 12.5623 1183 88.6737 455.76 483
3334 0 95.1421 12.1082 1152 88.947 455.708 482.186
3335 0 99.1244 13.4276 1331 85.5883 455.119 478.294
3336 0 100.098 12.9174 1293 87.7765 455.52 477.494
3337 0 104.184 12.7659 1330 88.2511 455.708 475.742
3338 0 107.09 12.9331 1385 88.0838 455.556 475.256
3339 0 109.156 12.1845 1330 91.0233 455.017 471.382
3340 0 111.146 12.5421 1394 91.3221 455.448 470.296
3341 0 120.082 13.4325 1613 88.0887 454.849 468.97
3342 0 123.119 13.158 1620 88.9309 454.551 467.164
3343 0 127.154 13.8336 1759 87.5111 454.529 463.652
3344 0 129.256 13.7557 1778 88.8054 454.2 463.881
3345 0 134.252 13.5417 1818 88.7046 454.343 456.834
3346 0 137.258 13.5729 1863 89.8846 454.198 452.862
3347 1 74.0965 11.7549 871 92.4524 455.332 489.095
3348 0 78.0873 12.025 939 89.3408 455.616 487.029
3349 0 80.1158 12.1824 976 91.542 455.086 487.068
3350 0 82.1237 12.8952 1059 90.6969 454.927 486.457
3351 0 84.0964 12.5095 1052 94.4363 454.819 485.903
3352 0 89.1032 13.2094 1177 91.8352 455.393 483.8
3353 0 91.133 13.2663 1209 94.0256 454.78 481.653
3354 0 94.0763 13.606 1280 92.5805 454.809 483.038
3355 0 97.0854 13.9465 1354 93.0487 455.017 479.685
3356 0 99.1087 13.3187 1320 95.8705 454.379 477.315
3357 0 102.157 13.7239 1402 94.4001 454.757 476.103
3358 0 106.156 13.5555 1439 94.7505 455.012 476.592
3359 0 110.19 13.7309 1513 92.9788 455.18 475.169
3360 0 112.205 13.4486 1509 93.8323 455.265 472.732
3361 0 116.165 13.8251 1606 91.8437 454.534 469.617
3362 0 118.222 13.39 1583 93.9754 454.577 469.15
3363 0 126.213 13.7466 1735 91.3637 454.13 468.189
3364 0 128.236 12.5627 1611 94.5171 453.911 464.741
3365 0 134.25 12.946 1738 89.3435 454.874 464.152
3366 0 138.226 12.7328 1760 90.4074 455.069 463.141
3367 0 143.224 13.1193 1879 92.5833 454.975 458.334
3368 0 148.166 12.4455 1844 90.2017 454.701 460.49
3369 0 153.249 12.1437 1861 90.2676 455.05 459.638
3370 1 81.1212 12.8573 1043 87.4362 455.59 491.655
3371 0 84.1091 13.4349 1130 86.5221 455.55 489.834
3372 0 85.0728 13.3062 1132 85.8984 456.64 488.665
3373 0 86.0473 12.8069 1102 88.177 455.808 486.76
3374 0 89.1053 12.4684 1111 87.7372 455.4 486.338
3375 0 89.0688 12.5072 1114 90.0296 455.908 484.714
3376 0 93.0798 12.312 1146 90.048 455.066 484.999
3377 0 96.0621 12.19 1171 91.076 455.238 482.598
3378 0 98.0706 12.5624 1232 90.9602 455.641 480.205
3379 0 100.075 12.7204 1273 90.4949 455.747 477.383
3380 0 102.076 12.0596 1231 88.2396 454.284 472.032
3381 0 106.076 12.4345 1319 88.232 455.277 468.989
3382 0 111.049 12.6791 1408 91.9773 455.371 473.806
3383 0 112.048 12.4411 1394 92.4986 454.91 471.613
3384 0 117.079 12.7179 1489 92.2545 454.165 468.733
3385 0 122.144 12.4361 1519 93.3088 455.155 464.842
3386 0 125.092 12.8865 1612 91.2891 455.291 460.368
3387 0 128.062 12.1191 1552 94.1959 455.316 460.136
3388 0 132.075 12.8336 1695 92.5475 454.07 459.905
3389 0 137.102 12.9757 1779 93.3687 454.249 456.011
3390 0 142.106 12.8003 1819 93.5256 454.288 453.631
3391 0 145.094 13.343 1936 92.9706 454.724 450.401
3392 0 150.103 13.3042 1997 93.9494 454.145 448.471
3393 0 155.111 13.2937 2062 93.872 454.16 442.714
3394 0 160.129 13.3455 2137 95.1362 453.89 442.843
3395 0 164.172 13.6199 2236 94.2974 453.802 438.194
3396 0 170.108 12.9506 2203 95.7317 453.561 438.274
3397 0 172.075 13.25 2280 95.5649 453.889 436.099
3398 0 179.171 13.6183 2440 95.0086 453.573 432.769
3399 0 186.098 13.7938 2567 94.732 453.978 430.901
3400 0 192.228 14.1759 2725 92.2741 454.869 425.836
3401 0 198.095 13.7308 2720 92.6585 453.918 425.216
3402 0 205.161 14.1352 2900 93.6293 453.963 421.319
3403 1 159.152 12.1394 1932 96.6656 454.35 444.674
3404 0 162.101 12.3688 2005 97.1402 454.333 440.154
3405 0 172.199 13.7632 2370 93.2679 454.346 438.184
3406 0 176.195 13.014 2293 95.328 453.972 436.177
3407 0 181.166 13.2641 2403 94.9867 453.911 433.943
3408 0 187.169 13.0417 2441 96.1438 453.506 429.196
3409 0 193.138 13.0839 2527 96.0483 453.765 424.997
3410 0 201.176 13.5553 2727 95.4756 453.371 420.655
3411 0 208.33 13.8482 2885 94.5085 454.096 417.786
3412 0 213.285 13.2545 2827 97.1592 453.518 411.4
3413 1 51.1518 9.07104 464 70.5302 453.778 497.907
3414 0 56.155 9.20666 517 68.2611 454.965 500.46
3415 0 58.0849 10.8118 628 79.2197 453.694 507.025
3416 0 58.0633 10.833 629 78.9634 453.556 506.297
3417 0 60.0322 11.7937 708 75.5734 453.332 502.206
3418 0 64.1346 11.7409 753 75.2908 453.417 501.356
3419 0 66.1661 12.8011 847 73.621 453.633 500.903
3420 0 69.2882 12.1522 842 75.291 453.559 499.93
3421 0 70.2115 12.4196 872 75.3968 453.525 500.008
3422 0 73.1817 12.4758 913 75.0789 453.354 498.905
3423 0 75.1853 12.3428 928 75.8136 453.756 498.222
3424 0 76.1978 11.7326 894 77.6007 453.792 496.868
3425 0 78.1093 11.9192 931 76.493 453.396 495.24
3426 0 79.0801 11.9626 946 76.6596 453.19 493.7
3427 0 82.0831 11.732 963 77.9346 453.031 491.184
3428 0 87.0516 11.5219 1003 76.3749 452.737 489.927
3429 0 88.0744 11.3313 998 77.7715 452.641 486.945
3430 1 50.143 9.49284 476 80.1366 453.223 502.517
3431 0 51.2053 9.90132 507 79.4832 453.373 501.387
3432 0 55.0626 10.4063 573 77.2722 452.97 501.689
3433 0 59.0526 11.5998 685 76.7197 453.126 505.018
3434 0 61.0851 11.9178 728 76.4712 453.398 506.266
3435 0 62.0157 11.7067 726 77.1736 452.782 504.391
3436 0 65.0447 11.961 778 76.6787 452.728 500.51
3437 0 65.0527 11.729 763 78.0891 453.033 501.19
3438 0 68.0784 12.2212 832 74.9231 452.794 498.716
3439 0 68.0554 11.6963 796 77.0314 452.725 497.327
3440 0 70.1076 12.6662 888 76.8018 453.089 494.496
3441 0 72.0984 12.7187 917 75.5692 453.286 494.232
3442 0 72.091 12.3871 893 77.234 453.05 493.261
3443 0 75.0218 12.583 944 76.1631 452.898 491.819
3444 0 77.0235 13.6582 1052 73.1977 453.204 491.112
3445 0 77.0601 11.6013 894 78.6331 454.621 492.323
3446 0 79.0376 11.4123 902 79.5754 453.452 489.674
3447 0 80.1385 11.3304 908 79.5529 453.836 489.403
3448 0 83.0473 11.7162 973 77.3597 453.555 486.959
3449 0 89.1156 13.8921 1238 61.9927 453.241 400.128
3450 0 80.1118 10.5602 846 74.6525 454.563 471.45
3451 0 87.1673 11.4263 996 72.502 454.783 472.038
3452 0 88.1496 11.5259 1016 73.4675 453.742 472.237
3453 0 95.048 11.3732 1081 78.679 453.284 478.836
3454 0 92.0786 11.0015 1013 77.385 453.751 474.89
3455 0 100.094 11.7989 1181 74.7223 454.151 475.222
3456 0 105.065 12.516 1315 73.4525 453.957 473.469
3457 0 106.022 11.7051 1241 76.0145 453.328 471.849
3458 0 109.079 11.9638 1305 75.9609 453.804 470.922
3459 0 112.217 11.5757 1299 77.1863 454.132 468.782
3460 1 64.3398 9.93165 639 71.8498 454.549 495.524
3461 0 65.131 10.3023 671 69.6319 455.027 492.814
3462 0 69.1682 10.1925 705 63.7589 454.413 492.553
3463 0 70.1615 10.3618 727 64.392 454.121 490.823
3464 0 72.0544 9.97857 719 66.3547 454.147 492.264
3465 0 73.038 10.9121 797 67.9975 453.962 494.913
3466 0 77.1079 11.231 866 68.8741 453.748 493.96
3467 0 78.0412 11.2761 880 69.7114 453.873 490.949
3468 0 81.0867 11.6049 941 69.0871 453.851 493.646
3469 0 83.0486 12.1977 1013 68.9743 454.159 489.235
3470 0 85.0568 11.8274 1006 70.1879 453.889 488.066
3471 0 87.0638 11.9682 1042 69.8685 454.118 487.387
3472 0 90.0977 11.2323 1012 72.2124 454.219 485.654
3473 0 92.1347 12.2864 1132 71.288 454.421 482.555
3474 0 95.0364 12.3111 1170 72.9932 455.091 483.239
3475 0 97.0699 11.7956 1145 79.2742 454.424 482.31
3476 0 100.036 11.9857 1199 74.638 454.656 480.083
3477 0 103.073 12.1564 1253 75.6401 453.306 477.092
3478 0 105.044 11.5666 1215 78.5942 454.514 474.97
3479 0 109.112 11.3094 1234 78.56 455.246 474.076
3480 0 111.166 11.2444 1250 79.176 455.009 472.128
3481 0 112.216 11.5581 1297 78.7309 455.495 466.21
3482 0 116.237 11.64 1353 78.2372 455.256 464.889
3483 0 119.274 11.1172 1326 79.6916 455.229 461.89
3484 0 123.23 10.7847 1329 79.6742 455.594 459.832
3485 0 129.282 11.3782 1471 77.9293 455.646 459.825
3486 0 129.288 11.4396 1479 140.41 455.644 459.794
3487 1 53.0586 9.23507 490 66.1633 455.912 503.124
3488 0 56.0471 9.7418 546 66.8114 455.506 501.848
3489 0 57.0233 9.71533 554 67.287 455.31 500.966
3490 0 58.0492 10.6806 620 67.3839 455.366 499.539
3491 0 60.1161 10.7292 645 66.524 457.178 499.691
3492 0 60.0963 10.2669 617 68.6969 456.835 497.135
3493 0 62.0422 10.7991 670 68.2134 457.17 497.157
3494 0 63.0433 10.2945 649 69.6872 456.601 497.185
3495 0 64.0675 10.286 659 70.9681 457.385 496.083
3496 0 67.0731 10.66 715 70.2853 456.75 496.68
3497 0 64.0644 9.52166 610 75.9426 456.334 495.641
3498 0 66.0781 9.27691 613 76.4959 456.427 495
3499 0 69.0877 9.75571 674 75.7418 456.047 494.616
3500 0 69.1064 9.17426 634 76.8139 456.136 494.325
3501 0 71.1021 9.90125 704 75.3068 456.952 491.693
3502 0 72.1001 9.27877 669 76.5576 456.251 491.948
3503 0 76.0937 9.98768 760 75.25 455.317 490.043
3504 0 77.1258 9.59471 740 76.6797 455.684 490.33
3505 0 81.1273 9.57754 777 77.713 456.054 490.287
3506 0 82.0694 9.9428 816 78.8113 455.586 489.32
3507 0 85.1064 10.34 880 80.4807 455.833 487.238
3508 0 85.0726 9.66234 822 81.8492 455.639 486.507
3509 0 89.1216 10.0312 894 81.1667 455.86 485.067
3510 0 91.0716 9.78351 891 81.1964 455.15 484.247
3511 1 50.019 9.01657 451 83.3792 455.96 503.69
3512 0 54.0169 9.66364 522 82.5747 455.646 502.019
3513 0 51.028 9.26942 473 79.3467 455.11 497.767
3514 0 57.0193 10.6981 610 82.8705 456.136 501.608
3515 0 56.0263 9.76327 547 78.1627 454.093 503.433
3516 0 57.0273 10.2407 584 78.1353 453.813 503.31
3517 0 57.0356 8.57359 489 80.0409 454.266 504.237
3518 0 61.1541 9.04273 553 78.9982 454.309 501.447
3519 0 63.0387 10.0097 631 77.1727 454.468 502.152
3520 0 65.0414 10.2704 668 76.1617 454.196 502.877
3521 0 68.0712 10.254 698 75.6519 453.5 500.701
3522 0 69.1027 10.6074 733 75.3029 454.398 499.881
3523 0 71.041 9.79716 696 77.3376 454.448 498.807
3524 0 70.0467 9.8934 693 77.7662 454.248 497.628
3525 0 71.0534 9.58433 681 79.5653 453.85 496.047
3526 0 75.0522 9.80651 736 79.3016 453.539 497.656
3527 0 76.078 10.7521 818 80.324 453.308 492.724
3528 0 77.0551 9.85009 759 82.668 453.445 492.607
3529 0 79.0351 9.84372 778 84.59 453.264 490.563
3530 0 79.0539 9.95523 787 86.0648 453.341 492.231
3531 0 80.0316 10.7957 864 86.4433 453.505 488.737
3532 0 85.0945 10.835 922 86.8937 453.526 489.602
3533 0 85.0313 10.1257 861 90.777 453.696 488.203
3534 0 90.0426 11.0614 996 88.3132 453.606 486.653
3535 0 90.1054 10.6098 956 91.318 453.303 482.54
3536 0 94.0706 11.5445 1086 89.4807 453.556 482.6
3537 0 98.076 11.4401 1122 90.5909 453.909 481.572
3538 0 100.111 11.4273 1144 91.3269 454.179 481.3
3539 0 104.101 11.6713 1215 91.2667 454.546 479.329
3540 0 106.105 11.9975 1273 91.9246 454.284 477.357
3541 0 109.103 12.1536 1326 92.1863 453.63 475.891
3542 0 112.099 11.8735 1331 92.447 453.826 474.223
3543 0 116.068 12.2946 1427 91.7708 453.964 472.048
3544 0 118.088 11.6692 1378 93.8135 454.765 472.15
3545 0 123.018 12.1608 1496 93.5622 454.892 469.757
3546 0 127.096 12.5338 1593 90.2385 454.653 467.352
3547 0 130.099 12.0985 1574 91.7427 454.927 464.628
3548 0 134.085 11.6195 1558 91.8594 454.553 458.52
3549 0 137.08 11.4896 1575 92.179 454.815 455.966
3550 0 141.123 11.4297 1613 91.191 455.885 452.626
3551 0 146.124 11.3465 1658 91.035 456.17 449.463
3552 0 151.182 11.1521 1686 91.8173 455.818 447.374
3553 0 156.092 11.7239 1830 91.8656 456.25 441.136
3554 0 163.198 11.0847 1809 91.8297 455.599 445.787
3555 0 166.103 11.5531 1919 91.9229 455.653 439.057
3556 0 172.224 11.1831 1926 92.5633 455.923 438.058
3557 0 178.202 11.4252 2036 92.1984 456.013 434.989
3558 0 184.289 11.3518 2092 93.5167 456.263 431.962
3559 1 141.21 11.8193 1669 95.9059 456.051 450.73
3560 0 145.21 12.2856 1784 96.713 456.223 450.185
3561 0 150.131 12.8221 1925 95.3569 457.461 447.471
3562 0 155.156 12.9805 2014 95.6425 457.119 444.963
3563 0 160.163 13.2678 2125 94.2856 456.412 443.24
3564 0 161.196 12.6306 2036 96.6739 457.243 439.14
3565 0 167.21 12.6966 2123 96.2906 456.538 436.146
3566 0 172.164 12.3719 2130 96.5164 456.799 434.248
3567 0 176.153 12.6311 2225 97.9258 457.032 431.427
3568 0 183.127 12.9855 2378 97.2271 456.182 430.008
3569 0 187.153 12.2199 2287 100.582 456.649 423.526
3570 0 192.179 12.7017 2441 98.7939 456.714 419.296
3571 0 201.107 13.1274 2640 97.8625 457.372 417.318
3572 0 204.103 12.577 2567 100.048 457.104 414.235
3573 0 212.153 12.9293 2743 98.5997 456.92 414.837
3574 0 220.212 12.8331 2826 99.6511 457.72 411.67
3575 0 225.148 12.2942 2768 101.751 458.037 406.955
3576 0 235.157 13.2762 3122 99.5532 457.552 404.194
3577 1 171.123 9.97528 1707 97.6016 457.573 445.6
3578 0 175.173 11.3602 1990 96.5608 457.372 440.353
3579 0 182.186 12.2183 2226 94.9789 458.165 434.278
3580 0 187.176 11.9727 2241 97.3931 458.053 431.418
3581 0 193.175 11.9218 2303 97.4529 458.784 430.361
3582 0 200.23 12.4407 2491 97.9446 459.373 425.69
3583 0 208.223 12.4674 2596 99.074 458.429 422.989
3584 0 213.206 12.2886 2620 100.505 458.624 418.461
3585 0 217.245 12.1522 2640 102.07 458.015 413.871
3586 0 224.284 12.444 2791 101.924 458.778 410.727
3587 0 231.255 12.6657 2929 100.961 458.265 408.036
3588 0 238.204 13.1022 3121 98.621 458.348 408.347
3589 0 244.19 12.8834 3146 100.672 457.701 401.158
3590 0 252.327 13.0981 3305 100.492 458.751 399.641
3591 0 259.243 12.7448 3304 102.706 458.788 391.844
3592 0 265.236 12.8754 3415 104.542 458.17 387.75
3593 0 274.237 12.5074 3430 104.846 458.322 385.851
3594 0 285.23 14.1956 4049 97.7587 458.875 377.075
3595 1 303.339 17.6041 5340 87.0607 458.463 359.041
3596 0 298.221 12.1554 3625 108.173 459.393 375.389
3597 0 308.245 12.4771 3846 108.739 458.5 370.088
3598 0 318.255 13.7594 4379 106.536 458.549 361.266
3599 0 325.36 12.6106 4103 112.276 458.544 364.975
3600 1 167.179 7.55477 1263 105.608 459.875 459.444
3601 0 168.205 6.94389 1168 98.6456 460.706 466.894
3602 0 165.076 7.5662 1249 101.344 459.448 456.828
3603 0 164.187 10.3297 1696 98.7818 457.894 447.019
3604 0 169.18 10.474 1772 99.1004 459.075 446.126
3605 0 173.194 11.1898 1938 98.7451 459.088 443.186
3606 0 176.124 11.3386 1997 99.7516 458.908 437.025
3607 0 181.203 11.2857 2045 100.21 458.561 437.891
3608 0 187.227 11.462 2146 98.747 458.626 437.139
3609 0 194.27 11.1134 2159 100.095 457.361 430.266
3610 0 199.213 11.2593 2243 102.332 456.948 393.85
3611 0 206.339 11.1321 2297 102.186 457.13 394.227
3612 0 212.255 11.1941 2376 101.586 457.325 400.04
3613 0 217.364 11.5889 2519 100.162 457.49 406.264
3614 0 228.377 14.4366 3297 90.8926 457.395 403.699
3615 0 232.38 11.2015 2603 103.211 457.256 409.207
3616 0 240.267 11.816 2839 102.535 457.389 405.372
3617 0 246.35 14.451 3560 93.5601 457.003 397.79
3618 0 254.402 15.5423 3954 90.4176 457.648 395.915
3619 0 261.397 15.0193 3926 92.9743 457.074 392.525
3620 1 201.307 10.8044 2175 95.4423 456.908 431.62
3621 0 209.35 10.5708 2213 96.7967 457.09 427.036
3622 0 217.522 10.707 2329 98.8961 456.282 423.913
3623 0 225.421 11.6271 2621 96.2572 455.777 419.66
3624 0 232.235 11.497 2670 96.6933 456.211 416.861
3625 0 238.341 11.257 2683 97.5337 455.87 410.323
3626 0 245.378 11.2194 2753 98.0149 456.405 406.838
3627 0 253.425 11.5261 2921 98.8213 456.004 399.743
3628 0 261.32 11.1932 2925 100.46 455.247 396.95
3629 0 267.273 11.1347 2976 101.027 454.818 388.695
3630 0 272.313 10.9433 2980 102.034 455.369 387.01
3631 0 270.403 7.47773 2022 107.086 455.084 397.942
3632 1 205.317 10.0771 2069 91.8521 454.589 426.077
3633 0 208.303 9.81743 2045 95.9399 454.582 416.283
3634 0 213.14 9.68376 2064 97.2083 453.934 413.153
3635 0 220.15 10.0386 2210 97.8661 454.638 412.102
3636 0 225.171 10.4765 2359 98.1958 453.71 405.46
3637 0 231.204 10.2939 2380 99.1349 454.079 403.141
3638 0 235.218 10.2501 2411 99.6898 453.402 393.881
3639 1 245.192 11.1953 2745 96.937 453.768 397.782
3640 0 255.247 11.7181 2991 96.3918 452.62 394.066
3641 0 261.2 11.4242 2984 99.0114 453.173 385.898
3642 0 268.294 11.439 3069 99.4816 454.036 382.747
3643 0 277.306 11.673 3237 99.84 454.209 381.867
3644 0 287.209 12.3394 3544 99.5389 453.181 380.958
3645 1 51.0414 9.4825 484 90.4897 452.791 506.845
3646 0 53.098 10.942 581 89.9415 453.575 508.876
3647 0 53.1864 10.5102 559 93.9374 454.592 509.068
3648 0 55.1555 11.9118 657 90.1096 454.42 507.756
3649 0 53.146 11.4966 611 95.8805 453.879 507.478
3650 0 57.0585 12.1279 692 93.078 453.993 506.808
3651 0 58.2099 13.0047 757 91.0779 454.62 506.802
3652 0 56.0315 11.904 667 98.045 453.816 505.901
3653 0 58.0434 12.5423 728 97.125 454.129 505.326
3654 0 59.2492 13.0128 771 103.726 454.744 504.951
3655 0 61.1244 12.4827 763 100.868 455.081 505.392
3656 0 63.0792 11.9532 754 101.789 457.439 503.186
3657 0 63.0644 12.289 775 101.431 458.026 502.484
3658 0 64.0909 11.9362 765 103.627 457.013 502.937
3659 0 62.0943 11.8207 734 106.398 457.56 502.501
3660 0 66.1322 12.7623 844 101.948 457.655 502.423
3661 0 65.1198 12.6997 827 102.638 457.544 503.019
3662 0 66.1022 13.1161 867 100.397 458.249 503.023
3663 0 66.113 12.2518 810 105.558 458.446 501.623
3664 0 68.2502 12.674 865 102.99 457.681 501.198
