time division length width area intensity CMx CMy
0 0 38.0123 11.5226 438 128.37 93.8973 503.4
1 0 39.0488 11.4728 448 127.634 94.3638 502.525
2 0 41.0331 11.8928 488 124.689 94.0082 503.084
3 0 42.0184 11.8996 500 124.104 93.828 502.374
4 0 44.0137 12.7687 562 117.055 94.4573 502.822
5 0 46.038 12.5766 579 115.544 94.4335 502.356
6 0 47.0403 12.0322 566 118.334 93.9753 502.002
7 0 47.0297 12.524 589 117.727 94.4618 501.542
8 0 51.0343 13.246 676 114.251 94.3047 500.803
9 0 50.02 12.9548 648 117.884 94.2377 501.022
10 0 51.0293 12.3459 630 118.943 93.1714 500.586
11 0 55.0333 12.8831 709 115.674 94 499.482
12 0 55.0331 12.9195 711 118.006 93.7117 498.437
13 0 56.0282 12.7971 717 119.728 92.675 498.177
14 0 59.0856 12.7442 753 119.975 93.1421 496.138
15 0 61.0485 12.9733 792 119.761 92.6477 496.532
16 0 64.0341 13.3835 857 118.98 93.3326 495.993
17 0 64.0546 13.8007 884 118.879 92.4966 492.517
18 0 68.0383 13.1691 896 118.713 92.9431 493.261
19 0 68.0226 13.3044 905 119.482 92.2641 490.492
20 0 69.0156 13.3738 923 121.142 92.1116 489.378
21 0 72.0281 13.1893 950 120.741 91.3084 488.235
22 0 72.0375 13.1598 948 177.708 90.307 488.257
23 0 76.0264 12.7324 968 120.564 91.8078 487.934
24 0 81.0608 13.7798 1117 115.919 91.8156 485.928
25 0 84.0432 13.3503 1122 115.531 92.1417 484.351
26 0 89.037 13.8145 1230 113.076 91.7537 482.468
27 0 91.0598 13.6833 1246 112.073 91.6067 482.093
28 1 48.0135 11.6217 558 119.41 91.9534 503.256
29 0 50.027 12.1934 610 117.875 91.4131 502.81
30 0 51.0217 12.6809 647 117.34 91.9304 502.637
31 0 52.0578 13.1008 682 115.562 91.824 501.617
32 0 54.0607 13.3369 721 112.614 91.0458 501.9
33 0 53.0156 12.4869 662 113.805 91.2795 502.06
34 0 55.0292 12.775 703 111.62 91.3186 501.903
35 0 57.0366 12.641 721 112.026 91.7184 500.057
36 0 58.0598 12.7627 741 111.852 90.5951 498.418
37 0 61.0409 12.9421 790 112.094 91.0772 495.366
38 0 64.0634 13.2213 847 111.599 90.791 493.738
39 0 65.0421 13.4221 873 113.108 91.2658 493.714
40 0 67.0338 13.3216 893 114.049 91.3371 492.882
41 0 67.032 13.3667 896 115.441 90.9833 491.373
42 0 69.0254 13.2995 918 114.786 90.9346 490.488
43 0 72.2033 13.2542 957 113.36 90.5444 488.333
44 0 76.1252 13.4515 1024 110.104 90.501 486.444
45 0 76.0855 12.9591 986 104.662 90.4838 480.904
46 0 80.132 13.2282 1060 102.508 90.2038 479.758
47 0 80.0788 13.162 1054 104.102 90.4753 478.979
48 0 84.1178 13.2671 1116 105.116 90.8011 478.823
49 0 87.172 13.525 1179 105.61 91.1154 478.45
50 0 89.2303 12.8768 1149 109.407 90.5091 476.245
51 0 90.186 13.073 1179 111.256 91.0305 476.255
52 0 93.133 12.9814 1209 113.384 90.7254 475.145
53 0 96.1578 13.1763 1267 113.256 90.3339 473.98
54 0 98.2959 12.7371 1252 112.02 90.2412 471.15
55 0 102.185 13.0646 1335 109.019 90.7371 469.181
56 0 105.114 12.9383 1360 109.029 90.7037 466.977
57 0 110.155 13.3992 1476 106.207 90.4743 465.457
58 0 115.157 13.5207 1557 105.012 90.8035 463.676
59 0 118.192 13.6388 1612 103.727 90.871 461.543
60 0 125.169 14.2687 1786 100.895 90.22 459.367
61 0 129.162 14.2301 1838 101.668 90.3738 456.237
62 0 132.238 13.9823 1849 102.766 91.1184 454.717
63 0 137.184 14.5207 1992 101.412 90.5447 453.145
64 0 142.159 14.4627 2056 101.992 90.8541 449.799
65 0 145.228 13.7577 1998 101.93 90.5906 448.175
66 0 149.176 14.2517 2126 100.778 90.5358 446.024
67 0 156.197 13.8927 2170 101.201 90.1147 443.072
68 0 162.116 14.1256 2290 99.6764 89.493 440.948
69 0 166.13 14.4526 2401 98.0583 89.6068 437.141
70 1 86.1263 11.3554 978 97.9591 90.6196 480.466
71 0 88.078 12.5684 1107 97.1165 90.7841 479.009
72 0 93.1189 12.6612 1179 94.4478 90.5403 477.487
73 0 95.112 12.5536 1194 95.2663 90.9338 476.594
74 0 97.1488 13.0213 1265 93.9122 90.7368 476.378
75 0 101.144 13.1694 1332 93.4016 90.8438 474.806
76 0 105.22 12.6402 1330 92.7233 90.7489 472.975
77 0 108.177 13.1543 1423 92.7611 90.2755 470.621
78 0 109.244 12.852 1404 92.8127 90.76 467.39
79 0 111.204 12.2658 1364 92.1914 89.8182 462.58
80 0 117.203 12.875 1509 89.2684 90.949 462.364
81 0 123.27 12.8904 1589 91.7816 91.1567 463.179
82 1 68.153 12.1345 827 93.6832 91.0834 492.074
83 0 69.1074 12.1984 843 89.7924 91.4187 491.164
84 0 72.1376 12.088 872 89.3979 91.5287 491.198
85 0 74.1341 11.6141 861 89.8049 91.41 489.733
86 0 75.2225 12.0974 910 89.0044 90.8154 488.874
87 0 77.1779 11.182 863 89.6721 91.5156 486.947
88 0 80.1622 12.088 969 87.2776 91.6182 484.825
89 0 84.2705 12.6023 1062 87.9755 91.2458 482.842
90 0 87.3165 12.9758 1133 87.3319 91.3672 481.412
91 0 89.0751 12.394 1104 87.7382 90.7337 479.408
92 0 91.1502 12.3532 1126 88.7451 90.9032 477.678
93 0 96.0757 12.7712 1227 88.3276 90.4173 476.04
94 0 97.1502 12.0741 1173 90.7536 91.1321 474.05
95 1 53.0651 10.7981 573 87.9791 90.1344 496.689
96 0 51.029 10.6998 546 82.7674 91.7216 494.423
97 0 49.0816 9.75926 479 78.9708 90.2025 491.987
98 0 55.1176 10.9584 604 83.8063 91.3361 499.886
99 0 57.1014 11.8911 679 82.0309 90.676 499.112
100 0 57.111 11.6265 664 83.9699 91.0994 498.486
101 0 60.0962 10.5165 632 88.6835 91.3972 498.552
102 0 63.1363 11.5148 727 86.5296 90.5323 496.377
103 0 64.0589 11.4114 731 88.3352 90.7743 495.906
104 0 66.0837 11.6065 767 87.7966 90.9987 495.136
105 0 68.1069 11.6141 791 88.823 91.4627 492.852
106 0 72.0802 12.1809 878 88.8645 91.2904 490.342
107 0 76.1006 12.3784 942 89.2771 90.8248 489.302
108 0 78.1019 12.4069 969 90.6976 91.1703 489.381
109 0 80.0865 12.0744 967 92.969 91.0269 486.915
110 1 44.0263 11.4477 504 94.8532 91.9107 503.758
111 0 46.0203 11.0386 508 95.1693 90.7028 503.915
112 0 48.0553 11.2162 539 96.167 90.0427 502.622
113 0 48.0538 11.7785 566 98.2526 90.0442 500.811
114 0 50.0332 12.032 602 90.3555 90.9402 502.116
115 0 48.0328 10.9925 528 93.2216 90.9716 504.18
116 0 47.0163 11.06 520 94.6019 91.3462 504.042
117 0 49.0219 11.6887 573 91.5672 91.1763 502.632
118 0 51.0753 11.6299 594 94.7323 91.1919 501.961
119 0 53.0724 11.6633 619 94.9031 92.0549 501.05
120 0 55.0444 12.3718 681 92.257 90.9736 502.087
121 0 55.1046 11.9954 661 95.3101 90.3646 500.026
122 0 57.0482 12.2002 696 94.5963 90.7328 499.325
123 0 59.0269 12.6044 744 95.1089 90.8038 498.626
124 0 61.0325 13.1078 800 95.9875 91.2062 497.575
125 0 62.0388 13.0563 810 99.2333 90.7667 496.173
126 0 64.0276 13.2599 849 101.792 90.3133 494.68
127 0 67.0153 13.3701 896 102.294 89.952 495.471
128 0 68.0231 13.3925 911 104.278 90.2108 494.48
129 0 70.03 13.2086 925 105.476 89.4476 493.491
130 0 72.0943 13.4546 970 106.615 89.2485 491.479
131 0 74.0747 13.4189 994 107.987 88.8964 490.346
132 0 76.0729 13.5265 1029 110.728 89.1361 488.235
133 0 77.0119 13.6992 1055 110.497 89.2389 489.087
134 0 80.0386 13.5685 1086 111.089 89.5506 487.236
135 0 84.0307 13.983 1175 108.583 89.777 483.7
136 0 85.0732 13.7646 1171 109.831 89.8284 483.845
137 0 89.1226 13.4983 1203 109.608 89.5786 483.137
138 0 90.0314 13.2954 1197 109.098 88.9415 482.896
139 1 47.047 10.8615 511 107.235 89.1879 504.301
140 0 48.0441 10.5736 508 106.041 88.9764 504.138
141 0 48.0498 11.3008 543 105.715 88.5506 504.144
142 0 49.0794 12.1028 594 104.549 89.0488 502.618
143 0 51.0963 12.0361 615 103.462 88.7756 502.272
144 0 52.0379 11.5108 599 95.5559 90.025 504.306
145 0 52.0512 12.3532 643 93.1151 90.4852 503.826
146 0 52.0614 12.2356 637 92.9199 90.8776 502.433
147 0 57.0862 12.4198 709 89.6728 89.8223 501.64
148 0 56.0793 12.2505 687 92.8035 89.3639 501.255
149 0 60.0837 12.1497 730 91.011 89.9671 498.948
150 0 62.0495 12.9252 802 89.6808 89.717 497.991
151 0 62.0454 12.5714 780 91.5692 89.6077 497.083
152 0 65.1053 12.3339 803 92.1992 89.1345 496.264
153 0 66.1152 12.7202 841 93.8514 89.0999 495.326
154 0 67.0741 12.7322 854 95.9426 88.7845 494.56
155 0 72.1196 13.4638 971 97.379 89.2914 492.573
156 0 74.0693 13.6089 1008 100.789 89.0139 491.908
157 0 76.0764 13.4602 1024 100.984 89.4863 490.548
158 0 78.0837 13.6008 1062 102.253 89.5584 489.691
159 0 82.1028 13.8972 1141 101.135 88.8957 486.987
160 0 83.1299 14.0022 1164 103.546 89.2818 487.234
161 0 86.1258 13.1319 1131 106.118 89.3431 484.051
162 0 88.0853 13.4869 1188 107.011 89.3114 484.647
163 0 90.0667 13.4789 1214 107.79 89.2726 482.314
164 0 93.0948 14.4262 1343 105.752 89.8466 482.079
165 0 94.1214 13.8969 1308 107.459 89.6583 481.139
166 0 98.0489 14.6152 1433 104.035 89.2463 478.336
167 0 100.056 13.5923 1360 106.553 88.8154 476.332
168 0 105.082 14.227 1495 103.898 89.4997 474.112
169 0 107.077 13.5137 1447 105.845 89.8542 472.456
170 0 113.045 13.8529 1566 102.519 89.6967 471.616
171 1 58.0732 11.8127 686 100.122 90.4009 498.104
172 0 60.0649 12.2867 738 96.0434 90.2385 496.879
173 0 62.0938 12.3201 765 97.7451 90.8196 494.407
174 0 62.0923 11.8533 736 93.5149 90.8125 495.096
175 0 63.093 11.808 745 94.7503 89.6336 494.318
176 0 67.1161 12.0835 811 93.8002 90.529 494.866
177 0 69.0866 12.1152 837 93.9152 89.9295 492.681
178 0 72.1001 11.7337 846 92.974 90.2589 491.639
179 0 73.0877 11.8898 869 93.1749 90.504 490.452
180 0 77.0775 12.8183 988 89.9696 91.0466 490.158
181 0 77.1121 12.2419 944 92.4417 90.9131 489.211
182 0 79.0513 11.8278 935 96.0481 91.154 488.496
183 0 82.0639 12.1734 999 95.6416 90.7037 485.59
184 0 86.0615 12.1425 1045 94.7167 90.8077 483.982
185 0 87.0882 12.3208 1073 95.698 90.7279 483.665
186 1 46.0422 11.1854 515 95.7767 91.3184 503.957
187 0 47.011 10.9549 515 96.4971 90.8116 502.74
188 0 48.015 11.7672 565 91.3363 91.3788 503.214
189 0 51.0254 11.6805 596 91.6309 91.5503 501.116
190 0 50.0348 11.6519 583 91.2847 91.3997 501.029
191 0 52.0314 12.5309 652 89.3405 90.4202 501.207
192 0 54.0622 12.9295 699 88.0215 90.2546 501.283
193 0 55.0422 12.5722 692 89.6358 88.9812 499.546
194 0 58.0501 12.9199 750 87.1053 89.144 498.831
195 0 58.0567 12.6773 736 89.5082 89.375 498.704
196 0 59.0642 12.6473 747 90.4311 89.0321 498.016
197 0 63.0513 12.6722 799 88.796 88.8048 496.884
198 0 62.0974 12.9957 807 89.2875 88.9802 495.554
199 0 65.0334 12.6089 820 91.15 88.6232 494.933
200 0 68.0743 13.7644 937 88.8303 88.7012 493.948
201 0 71.0392 13.4855 958 89.453 89.0282 492.756
202 0 71.0343 13.0923 930 116.502 88.843 492.178
203 0 74.039 13.3443 988 115.665 88.3208 490.235
204 0 77.07 13.7148 1057 113.952 88.4078 488.886
205 0 80.0421 13.0681 1046 124.139 88.9589 487.166
206 0 83.0582 13.3039 1105 122.75 89.5186 486.263
207 0 83.0625 12.9661 1077 125.9 88.8858 484.03
208 0 87.0736 13.5632 1181 116.361 89.6173 485.968
209 0 88.0605 12.6845 1117 116.236 88.0278 484.527
210 1 45.0128 10.9747 494 118.038 89.3077 504.735
211 0 46.0667 11.809 544 116.278 88.9173 503.513
212 0 49.0285 11.8503 581 113.208 88.6041 503.986
213 0 50.0269 12.2334 612 114.149 88.464 502.735
214 0 49.0742 11.7781 578 106.974 89.2578 505.244
215 0 49.077 11.6144 570 105.626 89.379 504.151
216 0 49.0932 12.242 601 104.166 89.4992 504.231
217 0 51.04 11.442 584 104.122 89.4932 503.009
218 0 52.0406 12.1828 634 101.293 89.4826 501.921
219 0 54.1128 11.7163 634 101.019 89.1577 502.311
220 0 57.0598 12.1802 695 98.9036 88.2978 500.485
221 0 58.0233 11.8918 690 99.7522 88.0681 498.161
222 0 60.0716 12.1688 731 99.7469 88.1477 497.978
223 0 62.0951 11.9172 740 98.7851 88.4743 496.965
224 0 65.1081 12.1337 790 97.8038 88.5013 495.524
225 0 64.0759 11.6737 748 102.234 88.4131 494.066
226 0 68.0732 12.0459 820 100.455 87.9402 492.26
227 0 71.0281 12.671 900 98.8244 88.0278 491.463
228 0 73.0551 12.0731 882 101.111 87.8651 491.363
229 0 76.0425 12.0722 918 104.428 87.6601 489.837
230 0 78.0695 11.8868 928 107.792 88.5345 488.467
231 0 82.0681 12.9161 1060 107.091 87.4594 487.186
232 0 84.0899 12.3915 1042 110.632 87.5979 487.274
233 0 86.0366 12.2157 1051 113.39 87.6556 485.975
234 0 90.0537 12.4703 1123 112.275 87.5663 483.451
235 0 92.0719 12.5554 1156 111.538 87.7967 483.056
236 0 94.0429 12.4837 1174 112.608 87.8245 479.86
237 0 99.0851 12.7466 1263 110.804 87.6619 480.329
238 1 47.0356 11.3744 535 110.17 87.2019 505.011
239 0 51.0064 11.5672 590 104.846 87.6576 503.558
240 0 52.027 11.2826 587 104.826 87.4957 502.848
241 0 51.0247 11.4062 582 104.548 87.8849 502.732
242 0 54.0132 10.7566 581 105.48 87.222 500.881
243 0 57.0373 11.5188 657 101.91 87.3683 500.636
244 0 56.1302 11.3842 639 102.911 87.8122 500.588
245 0 60.1124 12.1273 729 100.58 88.5364 498.999
246 0 61.0652 12.0527 736 101.205 88.5435 498.215
247 0 63.1148 11.6138 733 102.06 88.5512 497.232
248 0 66.0709 12.5774 831 97.852 88.3923 496.188
249 0 68.1281 11.8894 810 100.168 88.1642 495.585
250 0 69.1112 11.6913 808 99.2698 88.3861 494.165
251 0 70.0449 11.3499 795 101.067 88.7459 492.577
252 0 73.045 12.417 907 97.1499 88.4344 491.863
253 0 76.0673 12.581 957 95.07 87.534 489.284
254 0 77.0412 11.5523 890 98.1876 88.0629 487.989
255 0 82.0362 12.0922 992 97.0534 88.375 488.33
256 0 82.0409 12.1525 997 99.1815 87.7733 484.932
257 0 84.0669 11.812 993 98.5579 88.148 485.059
258 0 87.0884 11.9534 1041 98.0951 88.755 484.37
259 0 90.1213 12.0948 1090 99.3523 88.6193 484.222
260 0 93.0723 11.8403 1102 102.709 88.1452 481.315
261 0 97.0951 11.9677 1162 102.046 88.4071 480.507
262 1 52.0406 11.1644 581 105.193 88.0396 499.583
263 0 55.0792 11.2928 622 105.125 88.6142 501.014
264 0 56.1188 11.4578 643 106.513 88.0871 499.515
265 0 58.1724 12.4286 723 102.678 88.7068 498.755
266 0 58.1438 11.7639 684 97.8348 88.3933 500.734
267 0 60.1024 11.73 705 98.0369 88.0468 499.237
268 0 64.1779 11.9979 770 96.5364 88.5273 497.155
269 0 65.0828 11.7543 765 99.0758 87.617 496.816
270 0 67.1103 11.9356 801 99.1174 87.6991 496.644
271 0 69.0874 12.0427 832 99.4531 87.4399 495.625
272 0 71.0599 12.0743 858 99.6806 87.6865 493.181
273 0 71.091 12.0268 855 101.538 87.6398 493.393
274 0 75.1164 11.9681 899 100.912 87.7197 491.658
275 0 78.0767 12.6414 987 99.848 87.5957 491.136
276 0 81.0899 12.7636 1035 101.493 87.401 489.506
277 0 83.0708 12.7 1055 103.946 87.8104 487.48
278 0 86.0926 12.9628 1116 103.211 88.043 486.133
279 0 87.0839 12.8037 1115 101.493 87.8134 485.631
280 0 88.0772 12.2279 1077 106.227 88.5088 484.39
281 0 92.0452 12.8958 1187 106.287 88.2544 481.356
282 1 49.0193 10.6285 521 103.614 88.1843 505.261
283 0 50.0986 10.5392 528 103.561 89.4508 503.178
284 0 52.0413 11.2603 586 99.2918 88.9096 503.333
285 0 54.1174 11.6414 630 98.3079 88.3429 502.317
286 0 54.0422 11.38 615 100.203 88.2862 501.794
287 0 57.0128 11.9798 683 98.9985 87.855 500.748
288 0 58.0174 11.9964 696 99.3621 87.0675 499.711
289 0 59.0301 11.8753 701 100.66 87.0257 498.237
290 0 62.016 12.3355 765 99.9438 87.4562 497.808
291 0 65.0223 12.2266 795 111.142 87.4767 496.629
292 0 66.0529 12.1569 803 110.841 87.3138 495.111
293 0 68.0279 12.1568 827 110.869 87.7763 495.422
294 0 71.0381 12.4722 886 110.054 87.2776 493.26
295 0 73.0389 12.4454 909 110.73 86.4389 492.59
296 0 74.0233 12.6582 937 112.107 86.4674 490.727
297 0 76.0673 12.5021 951 113.81 86.4311 490.02
298 0 78.0483 12.7357 994 113.418 87.3763 489.443
299 0 80.0544 12.4915 1000 115.556 86.906 488.238
300 0 81.0379 12.5003 1013 115.296 86.2902 487.453
301 0 85.0604 12.5088 1064 113.017 86.9492 486.077
302 0 88.045 13.0388 1148 112.742 86.953 483.728
303 0 91.0525 13.2012 1202 109.245 87.3062 484.138
304 0 92.0582 13.0352 1200 110.338 87.685 482.752
305 0 95.0356 13.0477 1240 108.567 87.6064 480.865
306 0 97.0562 12.8997 1252 108.133 87.5056 480.245
307 1 50.0388 10.8516 543 103.092 87.0663 505.262
308 0 52.0179 11.496 598 107.237 87.1288 503.943
309 0 53.045 10.312 547 99.4095 88.2121 499.461
310 0 53.0456 10.2365 543 94.9742 87.8692 497.39
311 0 54.0495 9.71332 525 96.0629 88.779 499.842
312 0 57.1078 12.0474 688 101.586 88.2427 503.081
313 0 60.0351 11.7931 708 102.631 87.2274 501.938
314 0 62.0271 12.0593 748 101.864 87.5201 500.909
315 0 64.0503 11.975 767 103.553 87.3012 499.731
316 0 65.0577 12.3121 801 103.513 87.5768 500.26
317 0 68.0684 12.0908 823 103.964 87.6355 498.429
318 0 69.0657 12.2637 847 103.982 87.4002 499.098
319 0 73.0623 12.2772 897 104.725 87.0635 498.163
320 0 75.0993 12.5967 946 104.557 87.389 496.928
321 0 75.1617 12.9188 971 104.157 87.8558 495.698
322 0 79.0719 13.0514 1032 104.309 87.186 493.555
323 0 80.0521 12.267 982 108.097 87.1049 492.904
324 0 83.0366 12.922 1073 104.532 86.6664 491.981
325 0 84.0773 12.9762 1091 105.666 86.3621 491.599
326 0 88.0485 12.4136 1093 106.992 86.3934 490.463
327 0 89.0705 12.3385 1099 108.231 86.4632 489.224
328 0 92.0607 12.4809 1149 106.638 86.1419 487.709
329 0 94.0436 12.5686 1182 106.347 86.3985 485.526
330 0 100.052 12.6335 1264 104.665 86.5404 485.725
331 0 102.076 12.2947 1255 106.457 86.5721 484.308
332 0 106.088 12.7819 1356 103.928 85.9484 481.312
333 0 108.08 12.0096 1298 106.41 86.124 479.926
334 1 62.0723 11.7444 729 105.123 86.048 503.221
335 0 61.1034 12.3888 757 110.318 85.7081 502.283
336 0 65.0445 12.4838 812 110.255 86.9421 500.563
337 0 62.05 11.0234 684 104.516 86.5395 501.616
338 0 64.0868 10.6574 683 103.77 86.4758 501.06
339 0 68.0971 12.0563 821 99.3423 86.2302 500.574
340 0 70.0936 11.8698 832 99.7488 85.7873 499.352
341 0 73.0601 11.9901 876 101.491 85.9646 496.797
342 0 76.0516 11.9919 912 101.529 86.0351 496.883
343 0 77.1374 11.3304 874 105.912 85.4794 494.882
344 0 80.076 12.0136 962 104.663 85.0613 494.169
345 0 82.0695 12.2945 1009 103.154 84.7324 493.399
346 0 83.1208 11.8141 982 105.022 84.3758 491.502
347 0 88.1249 11.9149 1050 103.149 84.7286 490.95
348 0 91.1169 12.9175 1177 99.7995 84.0408 488.97
349 0 91.1583 12.1986 1112 102.628 84.4712 486.027
350 0 96.1542 12.1056 1164 100.23 85.1091 484.308
351 1 50.1347 10.9704 550 101.527 84.5273 507.702
352 0 51.1524 11.1432 570 100.339 84.8158 505.94
353 0 51.109 10.8787 556 102.412 84.0198 506.858
354 0 52.0916 11.8445 617 100.94 83.9822 505.094
355 0 53.1241 11.8967 632 100.872 83.7611 504.527
356 0 56.0715 12.8407 720 95.4208 84.1444 505.662
357 0 55.1478 12.2942 678 97.8968 84.6814 505.736
358 0 58.0534 12.7469 740 97.9622 85.6595 503.369
359 0 60.1394 12.1385 730 99.2082 85.3945 503.122
360 0 61.0862 12.0813 738 99.435 85.1369 501.224
361 0 61.1116 12.6817 775 98.0064 84.9045 501.383
362 0 64.0833 12.749 817 96.8849 84.7552 499.045
363 0 66.0819 12.6812 838 95.1933 85.7518 498.048
364 0 68.0561 12.3868 843 96.9359 85.1661 497.815
365 0 70.1397 11.862 832 94.8137 84.5108 497.144
366 0 71.0481 11.9215 847 96.2456 84.0437 495.606
367 0 71.0559 11.8357 841 98.8086 84.9726 495.617
368 0 74.046 11.1282 824 100.529 84.801 492.908
369 0 79.043 12.2338 967 97.6825 85.2213 492.112
370 0 80.0366 11.9196 954 99.3532 85.2704 491.158
371 0 81.0436 11.9072 965 101.143 85.4104 490.252
372 0 86.0643 12.3861 1066 100.513 85.0038 487.699
373 0 90.0725 13.1561 1185 97.8667 84.346 485.319
374 0 90.0468 12.1159 1091 103.518 84.7663 484.245
375 0 93.0531 12.4015 1154 104.672 85.0815 482.791
376 0 94.0708 12.2674 1154 104.712 85.2574 482.319
377 0 99.0902 12.3019 1219 104.879 85.5062 480.441
378 0 103.124 12.8293 1323 102.997 85.2955 479.27
379 0 106.083 13.3952 1421 102.46 85.5327 476.99
380 0 111.066 13.4245 1491 101.109 85.4849 476.277
381 0 114.086 13.1129 1496 101.095 85.1203 472.971
382 0 116.088 12.8696 1494 100.906 85.5388 472.436
383 1 65.0221 10.7963 702 108.283 85.9644 496.87
384 0 70.0481 11.178 783 106.531 85.3065 495.796
385 0 72.0732 12.3763 892 102.98 85.324 493.599
386 0 74.071 12.5555 930 102.695 85.9484 491.143
387 0 75.0984 12.0775 907 104.748 86.4862 488.534
388 0 78.0662 12.4894 975 98.9415 86.4687 489.484
389 0 80.1353 12.4664 999 100.751 86.1011 488.285
390 0 81.1156 11.046 896 106.599 85.8125 488.298
391 0 86.0628 12.2353 1053 102.506 85.8604 486.686
392 0 88.0929 12.2711 1081 104.338 86.0768 484.956
393 0 92.0795 12.5544 1156 103.863 86.9723 484.041
394 0 95.0409 11.8265 1124 106.107 86.7046 483.367
395 0 99.079 12.2327 1212 106.537 86.7426 480.656
396 0 100.031 12.5261 1253 106.472 86.3679 479.766
397 0 104.117 11.5927 1207 105.315 86.9843 478.766
398 1 57.0308 10.7837 615 106.725 86.9772 501.011
399 0 57.0491 10.5348 601 103.022 87.6706 498.236
400 0 57.0124 9.47162 540 85.887 87.913 494.041
401 0 57.075 9.75909 557 86.6535 87.8312 495.646
402 0 60.0658 10.1555 610 86.7803 87.0918 494.184
403 0 63.0304 11.5182 726 95.6212 86.4642 498.663
404 0 65.0773 11.0791 721 100.323 86.2455 497.241
405 0 67.0533 12.0501 808 98.9641 86.2376 498.269
406 0 69.0688 11.5392 797 101.191 85.739 496.726
407 0 71.0646 11.5106 818 102.322 86.4169 495.714
408 0 74.0771 11.9065 882 99.7086 86.6247 495.365
409 0 76.0818 11.3036 860 101.607 86.6512 495.126
410 0 79.113 11.9702 947 100.037 86.1721 491.976
411 0 80.1564 11.1532 894 99.1107 86.2461 490.751
412 0 84.1492 12.1807 1025 98.6078 87.7278 488.72
413 0 86.1897 11.8924 1025 98.7678 87.08 487.239
414 0 87.1467 11.7044 1020 99.6382 86.9706 486.951
415 0 94.1751 12.3387 1162 99.0172 86.8726 483.831
416 0 96.2872 12.8262 1235 100.472 87.3344 482.928
417 0 99.2608 12.3815 1229 101.952 87.2465 481.47
418 0 102.139 12.5516 1282 100.85 87.3721 478.942
419 0 105.24 12.6662 1333 102.529 86.988 477.438
420 0 109.193 13.0595 1426 102.877 86.5778 474.944
421 0 115.203 13.1507 1515 104.013 86.6449 473.469
422 1 62.2273 10.8795 677 109.965 87.1078 500.437
423 0 63.0417 11.31 713 104.202 86.7938 499.056
424 0 62.2491 12.0162 748 104.854 86.7219 497.663
425 0 62.2531 11.2284 699 109.602 87.568 499.02
426 0 65.0993 10.7067 697 101.43 87.2252 498.824
427 0 67.0919 10.4782 703 101.336 87.4694 498.498
428 0 68.0764 11.017 750 100.797 87.0307 496.156
429 0 72.0619 11.5179 830 98.8626 87.0157 495.524
430 0 73.135 10.5558 772 101.754 86.9262 493.868
431 0 76.095 10.96 834 99.7386 86.2098 493.353
432 0 78.0863 10.1938 796 100.686 86.1709 493.083
433 0 80.1317 10.4578 838 100.205 86.7422 491.484
434 0 82.1742 9.99097 821 103.414 87.0548 489.784
435 1 46.0715 10.7659 496 97.2802 87.6048 507.869
436 0 46.0867 9.6557 445 98.8472 87.0854 508.227
437 0 48.0523 10.6134 510 97.9608 86.9098 507.067
438 0 51.0967 11.3119 578 95.699 86.808 505.218
439 0 52.1872 11.4396 597 95.9715 86.7672 503.975
440 0 54.1174 11.8077 639 94.1643 86.0689 504.975
441 0 54.1667 10.8 585 96.6359 86.6034 503.921
442 0 55.044 11.3182 623 97.0305 86.1027 503.075
443 0 57.0243 11.8546 676 96.7041 85.7382 500.284
444 0 60.0636 11.7209 704 96.9233 85.8381 500.999
445 0 61.0357 11.0427 674 99.7537 86.23 499.604
446 0 61.085 11.6886 714 109.882 86.5336 499.549
447 0 62.0424 11.0731 687 101.6 86.2795 498.312
448 0 65.0518 11.3448 738 109.385 85.8482 496.74
449 0 68.0481 11.58 788 106.716 86.665 496.659
450 0 70.0433 11.2787 790 105.494 86.3329 495.97
451 0 72.0258 11.357 818 105.248 85.621 494.852
452 0 72.0472 11.0067 793 107.14 86.063 493.293
453 0 75.0463 11.3263 850 105.195 85.6188 493.368
454 0 76.0743 11.2259 854 106.23 86.7237 491.808
455 0 77.0998 11.2322 866 106.587 86.2009 491.259
456 0 80.0568 11.3669 910 105.284 86.4626 489.789
457 0 81.0605 11.3742 922 105.115 86.1605 488.938
458 0 84.1523 11.1821 941 106.111 86.0478 486.193
459 0 87.1159 11.9955 1045 103.556 85.7072 484.955
460 0 89.2136 11.6462 1039 104.951 85.9471 481.437
461 0 91.2202 11.993 1094 103.824 86.3967 480.098
462 0 95.2055 11.4909 1094 104.16 85.9899 479.26
463 0 99.0879 11.3838 1128 103.874 86.0452 479.319
464 0 101.106 11.75 1188 103.575 86.9689 477.076
465 0 103.103 11.8328 1220 104.733 86.6533 476.125
466 0 109.044 12.1144 1321 103.698 86.4868 476.414
467 0 111.077 12.1177 1346 102.814 86.0052 474.288
468 1 61.1075 10.457 639 100.044 84.6792 497.634
469 0 61.1396 10.7786 659 101.264 85.132 495.401
470 0 64.1121 11.0744 710 100.707 85.9563 495.668
471 0 68.1517 11.8852 810 98.1654 85.2914 495.394
472 0 68.0924 12.3068 838 98.0107 85.6026 493.757
473 0 72.0977 12.5247 903 97.1506 86.041 493.961
474 0 73.0495 12.5805 919 96.8672 85.9325 493.556
475 0 74.0306 12.9271 957 98.3469 85.6886 491.837
476 0 78.0667 12.7455 995 98.0864 85.5417 490.187
477 0 79.0887 12.6567 1001 99.2388 85.001 488.55
478 0 82.0508 12.4313 1020 97.8402 85.7922 489.528
479 0 85.0251 12.7021 1080 97.1167 85.8713 487.736
480 0 86.0501 12.5857 1083 98.2641 85.0517 484.976
481 0 89.0485 12.3416 1099 99.2721 85.5287 483.398
482 0 92.1079 13.0716 1204 96.6628 85.6487 482.72
483 0 94.0723 12.4372 1170 97.841 84.8838 481.332
484 0 98.1206 12.7802 1254 96.256 84.6874 480.366
485 0 100.066 12.6016 1261 96.4798 85.3513 478.27
486 0 104.107 12.6984 1322 95.8858 85.2042 476.635
487 0 107.097 12.7454 1365 94.1956 85.8637 474.73
488 1 53.0707 10.8911 578 99.7353 85.3858 501.161
489 0 58.073 11.0378 641 98.5008 85.5133 500.08
490 0 57.0881 11.4209 652 98.6304 85.2209 500.528
491 0 57.1287 11.0978 634 93.0174 86.4227 499.404
492 0 61.0734 11.7072 715 92.0154 87.042 498.386
493 0 58.0706 10.6422 618 97.801 87.8786 499.629
494 0 60.053 10.4408 627 95.9936 86.2855 499.807
495 0 63.0845 11.2706 711 94.6217 86.2616 497.876
496 0 65.061 11.6352 757 91.9789 85.5178 497.162
497 0 69.0814 11.7253 810 91.642 86.2938 496.474
498 0 70.0951 12.0836 847 92.0083 85.817 495.05
499 0 73.0547 11.156 815 94.2798 85.7902 494.13
500 0 72.1084 11.3579 819 94.4957 84.9719 493.479
501 0 76.0535 11.2026 852 94.4613 84.8627 491.303
502 0 80.0626 11.6909 936 92.7628 85.1741 490.191
503 0 82.1426 11.7357 964 92.3828 86.2282 488.315
504 0 84.0646 12.0978 1017 90.4317 86.3353 488.518
505 0 87.1011 11.6072 1011 90.1217 85.728 488.562
506 0 89.0964 12.2564 1092 90.1813 85.7546 486.471
507 0 92.0513 12.5474 1155 90.1247 85.4277 484.197
508 0 94.0723 11.8526 1115 93.5175 84.5946 482.762
509 0 95.0397 11.7109 1113 93.7475 84.6397 480.644
510 0 100.066 12.5018 1251 93.3765 84.4356 478.775
511 0 103.065 12.4096 1279 93.0837 85.1673 477.94
512 0 106.044 12.7965 1357 92.1606 84.4628 478.125
513 0 108.069 12.927 1397 92.0294 84.9105 474.033
514 0 111.095 12.3858 1376 93.5581 84.5545 474.652
515 0 113.086 12.5922 1424 92.6819 85.2051 472.856
516 0 119.047 13.2888 1582 87.9994 84.7832 470.844
517 0 120.073 13.9665 1677 85.7925 84.0793 470.045
518 0 122.06 12.7151 1552 87.6727 84.2307 468.579
519 0 127.073 13.4804 1713 86.8482 84.624 466.996
520 0 132.073 13.2427 1749 91.5489 84.5523 463.825
521 0 135.112 13.4777 1821 89.6584 84.2856 461.993
522 0 141.137 12.4489 1757 93.7792 84.1087 460.611
523 0 146.104 12.8333 1875 92.2144 84.5611 456.874
524 0 149.061 12.7062 1894 93.0243 84.453 457.167
525 0 155.091 12.483 1936 94.1204 84.3388 453.608
526 0 158.118 12.7753 2020 95.8752 84.0366 454.04
527 0 161.131 11.953 1926 99.2061 83.7985 449.458
528 0 167.166 12.0599 2016 98.9053 83.7064 448.517
529 0 172.214 11.8922 2048 100.173 84.3008 445.126
530 0 178.116 12.4189 2212 98.7622 83.1144 442.618
531 0 181.084 12.1436 2199 99.4238 83.2306 440.141
532 0 189.158 11.6622 2206 101.306 83.7978 436.907
533 0 191.166 12.2616 2344 101.774 83.2662 433.715
534 0 198.18 12.5492 2487 100.874 82.544 433.328
535 0 204.231 12.2116 2494 101.241 83.0216 430.318
536 0 210.201 12.117 2547 102.131 83.1928 425.493
537 0 217.253 11.8664 2578 102.432 83.0299 424.713
538 0 221.237 11.5894 2564 104.937 83.4528 419.475
539 0 228.19 11.2143 2559 105.181 83.4978 415.17
540 1 169.099 12.1349 2052 101.946 83.9605 446.192
541 0 176.135 12.5472 2210 101.302 84.1579 439.354
542 0 179.242 12.4469 2231 100.2 83.3039 433.346
543 0 181.127 12.0965 2191 100.946 83.2118 430.467
544 0 187.127 12.382 2317 101.102 82.7777 427.573
545 0 189.155 12.1858 2305 104.376 83.1913 420.541
546 0 198.203 12.5376 2485 103.194 82.9525 421.096
547 0 205.201 11.8079 2423 108.093 83.5551 416.678
548 0 214.184 13.0916 2804 106.205 83.3937 414.733
549 0 223.25 13.4558 3004 105.389 83.6115 411.867
550 0 228.315 12.9908 2966 106.799 83.8105 408.381
551 0 234.218 13.3679 3131 105.357 83.7662 401.291
552 0 243.288 13.2312 3219 105.978 83.6055 398.955
553 0 251.3 13.7286 3450 104.508 83.2165 394.95
554 0 258.344 13.3582 3451 107.267 83.1869 391.787
555 0 265.245 13.037 3458 107.491 83.1365 387.401
556 0 393.386 16.0047 6296 101.985 82.7414 322.384
557 0 404.375 15.1641 6132 104.886 82.8185 319.917
558 1 320.343 9.5304 3053 115.443 82.8241 387.364
559 0 315.279 9.65176 3043 115.169 83.2037 381.274
560 1 69.099 10.1593 702 97.3333 85.1752 486.885
561 0 75.1081 10.6913 803 95.7945 84.3026 489.401
562 0 78.1005 11.2035 875 99.896 85.1703 492.543
563 0 80.0671 11.6153 930 99.8086 84.9387 490.514
564 0 83.0433 11.5121 956 100.487 84.1203 491.844
565 0 84.0429 10.6612 896 93.8638 84.1451 493.166
566 0 85.0646 10.4274 887 95.531 84.035 490.365
567 0 88.1533 10.3343 911 94.6696 84.0242 489.402
568 0 92.2007 10.6615 983 88.9105 84.7233 486.991
569 0 95.1305 10.5119 1000 90.216 85.259 486.884
570 1 51.078 10.298 526 88.9829 85.9886 506.24
571 0 52.0255 9.99511 520 94.6538 85.4654 507.079
572 0 55.0737 10.6766 588 87.148 86.2279 506.158
573 0 57.1646 11.1782 639 85.5102 86.8952 500.394
574 0 54.1092 9.6102 520 91.4519 84.5019 506.694
575 0 54.0258 8.99571 486 94.7675 84.3169 506.344
576 0 61.0527 11.4983 702 85.1268 83.6695 500.779
577 0 62.0541 11.3449 704 85.7472 83.3736 501.138
578 0 65.0797 12.139 790 87.1304 83.4873 501.808
579 0 65.0586 12.0968 787 87.4816 82.8577 501.79
580 0 68.0533 12.2845 836 86.75 83.2883 500.682
581 0 70.0613 11.7897 826 87.0702 83.5448 499.809
582 0 71.0269 12.0236 854 88.4731 83.8724 499.198
583 0 74.0595 12.2199 905 84.7657 82.8387 496.084
584 0 74.0502 11.8568 878 88.0604 83.7426 496.039
585 1 39.0218 9.71252 379 90.0185 83.3826 513.681
586 0 40.0574 10.3102 413 89.6005 83.2881 513.448
587 0 41.0093 10.461 429 88.4079 82.7273 514.184
588 0 42.0128 11.2585 473 86.3679 82.9281 513.321
589 0 43.0955 11.4397 493 88.0446 85.5477 510.349
590 0 45.0714 11.1157 501 87.7285 83.6228 511.96
591 0 44.0711 11.368 501 91.7086 82.6786 511.888
592 0 45.0968 11.4421 516 94.6957 82.6744 512.252
593 0 46.0637 11.6578 537 95.0428 82.5382 512.521
594 0 47.0356 10.9066 513 98.1033 83.2164 512.136
595 0 47.0424 10.735 505 100.576 83.0337 510.002
596 0 50.0273 11.054 553 99.6203 83.1212 509.935
597 0 50.0279 11.0538 553 98.7179 83.5009 510.669
598 0 53.0341 11.5963 615 99.9886 83.6163 508.496
599 0 54.0126 11.5714 625 99.224 82.8288 509.301
600 0 53.0263 11.1077 589 102.379 83.4244 508.121
601 0 55.0275 11.358 625 101.477 83.4608 508.15
602 0 58.0199 11.8752 689 100.28 83.2221 506.769
603 0 59.0045 12.2194 721 99.2746 83.2302 506.641
604 0 59.0199 11.7249 692 102.345 83.1835 505.535
605 0 60.0338 11.5435 693 103.641 82.7316 504.924
606 0 63.0244 12.1064 763 102.009 82.7051 503.759
607 0 65.0299 11.7638 765 103.746 82.8863 503.359
608 0 69.0608 12.4238 858 101.369 82.5326 501.978
609 0 68.0632 11.7685 801 105.893 82.3171 500.164
610 0 70.1491 12.2739 861 104.563 82.4657 499.938
611 0 72.0328 11.9807 863 105.867 82.8725 499.483
612 0 74.0299 12.3464 914 105.945 83.2571 498.94
613 0 77.0485 12.5635 968 104.78 83.2634 496.212
614 0 79.0173 12.1366 959 105.543 83.2398 494.428
615 0 81.0846 12.2958 997 106.084 82.2728 493.738
616 0 85.1412 12.4029 1056 104.735 82.482 493.108
617 0 87.0805 12.5516 1093 104.769 82.645 490.427
618 0 90.0611 12.3472 1112 105.826 83.1205 490.252
619 0 94.0971 12.4127 1168 106.8 82.8596 487.364
620 1 49.1708 11.1652 549 107.909 83.1312 509.67
621 0 50.035 11.2921 565 103.651 83.6779 508.906
622 0 53.0583 12.0057 637 99.4568 83.8179 509.218
623 0 55.0516 11.9161 656 98.0259 84.2515 508.259
624 0 54.0721 11.4847 621 102.256 85.3044 505.464
625 0 58.2314 12.3645 720 95.7389 85.0569 506.912
626 0 58.0951 11.9115 692 96.4162 84.8223 506.218
627 0 58.0868 12.292 714 96.2955 84.4944 504.539
628 0 61.0934 12.3745 756 95.5794 83.5304 504.433
629 0 62.0967 12.0618 749 95.5127 83.8692 501.649
630 0 64.08 12.6248 809 94.8826 85.1273 501.756
631 0 65.078 11.4478 745 98.302 85.2456 501.431
632 0 68.0727 11.5906 789 96.5729 84.6324 501.292
633 0 69.1344 11.456 792 98.197 85.0909 499.71
634 0 70.1277 12.0067 842 97.4062 84.5808 499.751
635 0 73.1083 11.5992 848 97.158 84.4174 497.432
636 0 73.0975 11.0674 809 100.026 85.2151 496.638
637 0 77.1374 10.747 829 100.527 85.047 494.338
638 0 79.164 11.2299 889 99.2283 85.0562 494.298
639 0 80.1674 11.6756 936 98.8376 84.9423 492.801
640 0 83.1585 11.7126 974 98.3306 84.5175 492.821
641 0 85.1848 11.5631 985 100.347 84.2802 488.422
642 0 88.1681 11.6595 1028 99.3979 84.8444 489.049
643 0 91.184 12.1403 1107 96.8618 84.8762 487.986
644 0 93.1869 12.2228 1139 96.5066 84.9535 485.232
645 0 96.1531 12.0329 1157 95.9991 84.9032 483.557
646 0 99.2835 11.8852 1180 94.0958 85.2076 481.501
647 0 102.155 12.5495 1282 93.8058 85.3354 479.891
648 0 105.134 11.823 1243 96.741 85.111 479.83
649 0 107.145 11.6291 1246 99.325 84.8652 476.386
650 0 109.175 11.7426 1282 101.147 84.7496 473.952
651 0 114.241 12.0972 1382 98.6686 84.5579 470.928
652 0 117.333 11.591 1360 100.034 84.6507 468.297
653 0 121.262 12.1884 1478 102.725 84.9269 464.792
654 0 127.321 12.0719 1537 100.466 84.0169 460.841
655 0 131.283 11.7228 1539 100.531 83.9233 459.108
656 0 135.3 10.946 1481 102.223 84.449 458.049
657 0 140.428 11.3867 1599 103.099 84.7517 455.808
658 1 71.1526 10.9905 782 104.639 84.4706 487.729
659 0 73.1552 11.8652 868 101.439 85.3134 492.213
660 0 76.0821 11.9345 908 100.903 84.6476 489.896
661 0 77.1222 10.7362 828 105.89 85.6473 489.202
662 0 78.1383 10.2767 803 106.936 85.2528 485.191
663 0 79.1265 11.1341 881 105.639 85.2985 482.236
664 0 82.1272 11.2265 922 105.342 85.1692 482.93
665 0 84.1416 11.243 946 104.013 85.1734 481.979
666 0 87.1712 11.0472 963 104.828 85.7362 477.454
667 0 88.1479 12.0252 1060 101.549 84.5972 476.667
668 0 90.1176 11.6958 1054 103.039 85.3397 476.602
669 0 93.1114 11.9534 1113 100.238 85.2686 473.909
670 0 97.111 12.3673 1201 96.3514 85.4005 479.529
671 0 98.1895 11.8444 1163 94.8779 85.7343 474.579
672 0 102.158 11.9618 1222 97.8977 85.473 475.736
673 0 103.137 11.5477 1191 100.991 84.937 473.727
674 0 105.206 11.1305 1171 99.298 85.2605 467.613
675 0 107.19 11.447 1227 99.2535 85.1956 467.405
676 0 110.13 12.0221 1324 99.0544 85.2689 465.725
677 1 59.1363 9.31746 551 98.8766 85.4664 491.056
678 0 61.157 10.1378 620 95.7161 84.9839 489.744
679 0 64.1962 10.0317 644 95.8261 85.1366 489.109
680 0 65.1522 11.005 717 94.5272 85.7169 488.102
681 0 69.0268 10.4307 720 91.7083 85.7458 489.289
682 0 70.0432 10.5078 736 93.0639 86.3261 488.982
683 0 72.1298 9.52449 687 94.5983 85.7977 487.083
684 0 75.0437 10.6338 798 93.3559 85.9975 488.157
685 0 77.0755 10.5222 811 94.7485 86.0616 486.199
686 0 80.1233 10.8333 868 95.091 85.8606 485.356
687 0 81.1605 10.6333 863 97.0939 86.2097 484.065
688 0 85.1024 10.5167 895 96.5307 86.4447 483.451
689 0 88.1355 11.0171 971 95.2492 86.1277 483.177
690 0 90.1067 11.0314 994 98.841 86.5141 481.463
691 0 92.1061 10.857 1000 101.511 85.999 481.773
692 0 95.0962 12.093 1150 104.423 85.973 484.204
693 0 98.1426 11.6769 1146 105.584 86.5628 484.191
694 0 100.223 11.8037 1183 104.29 85.967 480.258
695 0 104.271 12.6113 1315 102.592 85.6472 477.132
696 0 108.195 12.3111 1332 103.053 86 477.297
697 0 108.138 12.2528 1325 105.54 85.7306 476.714
698 0 112.252 12.9886 1458 105.562 85.4636 475.442
699 0 117.178 13.2533 1553 104.665 85.105 473.572
700 0 119.185 12.6442 1507 106.883 84.497 473.723
701 0 123.173 13.3633 1646 104.828 85.0766 472.757
702 1 68.0786 11.1636 760 102.354 84.5908 501.201
703 0 71.0928 10.8731 773 101.951 84.8978 499.524
704 0 74.0548 11.6535 863 99.8575 85.321 498.588
705 0 76.0892 11.8808 904 99.2234 85.8164 498.608
706 0 79.0335 12.7161 1005 97.9264 85.4647 496.149
707 0 80.0198 12.5219 1002 100.009 84.5449 495.831
708 0 84.084 12.987 1092 98.5623 84.7097 495.12
709 0 87.0435 12.6489 1101 100.505 84.1063 493.515
710 0 88.0521 12.7765 1125 112.566 84.4124 491.552
711 0 93.1254 13.3369 1242 111.437 84.6151 490.51
712 0 93.0852 12.9236 1203 113.761 83.6966 487.92
713 0 96.1125 12.9328 1243 115.224 84.1175 489.374
714 0 99.0948 12.927 1281 115.736 84.5504 486.089
715 0 103.067 12.7102 1310 113.571 84.3954 487.039
716 0 104.074 12.6161 1313 113.185 83.7593 484.96
717 0 106.036 12.0903 1282 108.437 83.9524 482.885
718 0 109.058 11.4159 1245 112.048 83.9478 481.778
719 0 114.112 12.5052 1427 107.614 84.7673 480.984
720 0 115.125 12.0217 1384 108.949 84.5195 478.605
721 0 119.089 12.4864 1487 105.869 85.2468 477.523
722 0 123.062 12.2865 1512 106.018 85.1012 474.752
723 0 126.076 12.6511 1595 107.223 84.7103 473.994
724 0 127.095 11.1019 1411 114.101 84.2679 474.85
725 0 131.106 11.5631 1516 114.144 83.4261 472.813
726 0 134.2 11.4903 1542 115.604 83.786 472.944
727 0 139.154 12.1592 1692 116.301 83.7352 470.437
728 0 139.155 12.1878 1696 161.684 83.7311 470.417
729 0 145.179 11.5168 1672 122.682 83.2889 465.501
730 0 150.18 12.6648 1902 119.016 83.3996 463.527
731 0 152.14 11.6078 1766 125.871 83.2571 462.258
732 0 157.137 12.346 1940 124.562 83.2732 458.582
733 0 162.192 12.0289 1951 126.029 83.6571 456.967
734 0 166.166 12.0482 2002 126.539 83.6968 453.333
735 0 170.152 11.8071 2009 129.769 83.1229 450.213
736 0 176.234 12.0919 2131 128.414 83.7442 448.801
737 0 180.208 12.247 2207 128.668 83.6271 446.75
738 0 187.205 12.4997 2340 127.745 83.2009 446.042
739 0 190.234 12.574 2392 129.431 84.283 442.085
740 0 196.171 12.6217 2476 129.672 84.4879 437.307
741 0 201.23 13.3678 2690 128.847 83.7282 434.319
742 0 207.229 12.9133 2676 129.947 83.5605 434.337
743 0 212.306 12.5809 2671 131.355 84.0449 430.109
744 0 218.258 12.554 2740 133.255 83.646 428.198
745 0 225.224 13.2135 2976 130.878 83.9546 424.512
746 0 232.185 13.6314 3165 130.307 84.2701 422.279
747 1 181.173 11.7015 2120 135.686 84.9071 447.097
748 0 184.165 13.0264 2399 134.231 84.1346 444.343
749 0 192.141 12.8344 2466 133.179 84.2964 440.937
750 0 194.306 13.0156 2529 133.898 84.0597 437.331
751 0 201.145 13.5972 2735 131.75 84.7594 434.042
752 0 209.166 13.9937 2927 131.874 84.6601 430.536
753 0 214.135 13.8884 2974 137.757 84.7515 426.673
754 1 151.2 11.8254 1788 134.915 85.4681 460.097
755 0 157.192 12.049 1894 133.699 85.1874 457.208
756 0 164.138 13.1535 2159 133.256 84.7216 449.676
757 0 167.232 12.5694 2102 136.495 84.3045 446.75
758 0 173.457 13.1099 2274 134.095 83.9459 440.627
759 0 175.207 13.0588 2288 136.155 84.3326 437.49
760 0 181.294 13.1499 2384 136.605 84.6183 435.456
761 0 188.3 13.829 2604 136.36 84.7005 432.813
762 0 196.217 13.7806 2704 137.574 85.0869 429.083
763 0 203.207 14.1432 2874 138.359 84.4777 428.284
764 0 209.184 13.8586 2899 137.762 83.9541 423.486
765 0 214.176 14.0819 3016 137.007 83.5686 421.284
766 0 217.157 14.1419 3071 137.558 84.1934 419.231
767 0 224.119 14.3585 3218 136.75 83.6004 416.226
768 0 232.266 14.1906 3296 136.761 83.8067 414.029
769 0 239.25 13.9853 3346 134.885 84.4328 413.221
770 0 248.221 13.6572 3390 133.706 84.3779 406.992
771 0 252.191 13.4184 3384 137.199 84.5452 396.03
772 0 263.381 13.4824 3551 132.11 84.0628 392.919
773 1 188.33 12.7383 2399 136.17 84.5798 428.885
774 0 195.37 12.7297 2487 137.731 83.6345 426.102
775 0 201.199 13.1611 2648 133.413 84.1125 424.533
776 0 209.22 13.5169 2828 132.243 84.9653 419.888
777 0 212.139 13.0763 2774 135.062 85.1175 415.05
778 0 221.219 13.4799 2982 133.487 85.0929 412.255
779 0 226.142 13.6242 3081 134.058 84.6894 405.965
780 0 234.169 13.6098 3187 134.764 84.6464 401.586
781 0 240.301 12.8963 3099 134.673 83.8474 401.377
782 0 248.241 13.2976 3301 131.989 84.0542 396.681
783 0 256.351 13.6063 3488 129.54 84.1402 392.917
784 0 264.188 13.6986 3619 127.617 84.2299 391.165
785 1 287.176 20.5588 5904 98.323 83.2658 360.504
786 0 297.26 18.5831 5524 104.964 83.8302 358.857
787 0 286.344 15.6106 4470 118.559 84.1756 372.634
788 0 292.389 14.9629 4375 121.048 84.1296 368.07
789 0 302.474 15.5881 4715 117.207 84.0613 363.374
790 0 309.614 14.6925 4549 119.411 84.8395 354.776
791 0 321.63 15.322 4928 114.43 85.295 354.164
792 0 334.659 15.4785 5180 116.626 84.8266 349.818
793 0 342.717 15.2575 5229 115.858 84.7049 336.332
794 0 358.703 15.9519 5722 116.653 84.8908 339.397
795 1 56.3736 9.79181 552 103.822 85.7228 500.957
796 0 58.1239 10.8045 628 96.992 85.543 503.556
797 0 57.1885 10.1244 579 94.8186 86.5751 504.313
798 0 60.1279 10.3779 624 92.7885 86.3349 503.418
799 0 61.1662 10.0219 613 94.013 86.5856 501.551
800 0 63.0884 9.92258 626 93.0383 86.2029 500.019
801 0 65.1875 10.186 664 93.4488 86.5045 500.658
802 0 69.2365 10.3125 714 91.4818 86.7017 499.882
803 0 69.1002 9.75396 674 92.0682 85.8264 500.947
804 0 75.0914 8.30988 624 94.6859 85.5994 500.87
805 0 75.0612 9.83197 738 89.107 85.5718 497.6
806 0 77.0796 10.3789 800 89.5412 85.2875 495.846
807 0 80.0284 10.4713 838 89.5823 85.1217 496.456
808 0 81.0817 11.0259 894 89.3613 85.0615 496.046
809 0 85.0176 11.4564 974 88.0791 84.8131 494.206
810 0 88.0975 11.0559 974 91.1396 85.2515 492.342
811 0 90.2566 11.2236 1013 90.1777 85.2784 491.811
812 1 48.0119 10.9556 526 90.5913 84.27 511.624
813 0 50.009 11.258 563 87.7638 84.7602 511.052
814 0 52.0228 11.4757 597 87.2345 83.3518 511.6
815 0 52.0732 12.252 638 86.0063 83.7524 510.64
816 0 54.065 11.5232 623 91.1846 84.2022 509.713
817 0 52.0453 10.8751 566 91.3569 84.5919 512.134
818 0 51.0855 10.9816 561 93.4688 85.5437 512.082
819 0 55.0531 11.2255 618 93.267 85.4029 511.613
820 0 55.0488 10.7178 590 94.7339 85.9814 511.683
821 0 57.1108 11.1538 637 94.3061 85.1633 509.413
822 0 58.0582 11.1612 648 95.412 85.179 508.397
823 0 59.0973 11.4895 679 95.3549 84.4521 507.499
824 0 62.1209 11.542 717 94.3305 84.3403 506.414
825 0 64.0538 11.6152 744 93.7473 84.793 505.872
826 0 64.0811 11.4854 736 93.1141 84.7133 505.255
827 0 64.1065 11.8397 759 92.444 84.751 505.022
828 0 66.0309 12.0247 794 91.3426 85.4257 503.316
829 0 70.0931 11.8414 830 90.9747 85.1048 502.834
830 0 72.1048 11.9409 861 90.8188 83.9652 501.296
831 0 73.1031 12.5576 918 88.6688 84.5534 499.051
832 0 77.0548 11.9655 922 89.8265 84.9176 499.819
833 0 82.125 13.6378 1120 84.4205 84.8804 497.712
834 0 85.092 13.8438 1178 83.8031 85.0815 496.098
835 0 87.1184 13.3382 1162 86.3219 85.0981 494.176
836 0 88.1142 12.9151 1138 86.7698 85.1116 493.518
837 0 90.0792 13.0552 1176 88.7517 84.6964 491.18
838 0 94.0879 12.9666 1220 89.5762 84.7836 487.016
839 1 47.0166 10.7409 505 94.9525 83.8673 509.329
840 0 50.009 11.218 561 92.1301 83.8253 506.651
841 0 51.0632 11.6718 596 90.1493 83.7701 504.673
842 0 52.0314 12.012 625 91.1392 83.8624 506.789
843 0 54.0356 12.5473 678 85.3864 82.7788 505.671
844 0 53.0374 12.4441 660 85.2212 83.6136 505.558
845 0 56.059 12.7723 716 86.1732 83.4427 505.528
846 0 58.0219 12.6159 732 84.9057 83.5396 505.372
847 0 60.0863 12.5985 757 85.0476 83.0013 504.437
848 0 60.0302 12.6436 759 86.8854 83.4624 504.221
849 0 62.0366 12.7989 794 87.2783 83.6436 502.514
850 0 63.0493 13.1484 829 87.1508 83.6152 500.656
851 0 67.0791 13.1934 885 85.1751 83.5797 499.795
852 0 68.0975 13.6128 927 86.1424 83.4056 499.249
853 0 70.0859 13.8259 969 85.9463 83.8885 498.992
854 0 70.1307 13.5034 947 88.1584 83.9715 498.963
855 0 72.0466 13.6856 986 88.5467 83.9726 496.428
856 0 74.082 13.755 1019 89.6977 84.0245 495.197
857 0 78.0143 15.0613 1175 86.6349 83.9574 493.564
858 0 79.0387 14.1576 1119 91.109 83.4147 493.376
859 0 83.0486 13.9196 1156 91.6228 84.0017 492.412
860 0 83.0369 14.2948 1187 92.6756 83.9343 490.131
861 0 86.0374 14.3077 1231 94.1137 83.4427 490.263
862 0 89.0465 14.6777 1307 92.8585 83.3718 487.97
863 0 92.1408 14.022 1292 94.113 84.2663 486.435
864 0 95.1085 14.5518 1384 93.0527 83.7666 484.896
865 0 97.0408 13.6231 1322 97.1422 83.6687 485.886
866 1 52.0658 12.1385 632 99.0918 83.8703 506.883
867 0 52.0643 12.0812 629 101.924 84.1781 505.323
868 0 53.0435 11.7074 621 96.1192 83.7375 501.94
869 0 55.0406 12.0456 663 94.3741 83.7813 501.529
870 0 57.0602 11.8121 674 94.9466 83.6558 498.899
871 0 58.0423 12.1463 705 95.1418 84.0298 498.504
872 0 59.0646 12.3593 730 98.4137 83.7027 499.226
873 0 60.0628 12.387 744 100.452 83.3562 502.539
874 0 62.0406 12.2984 763 100.898 83.1796 501.778
875 0 67.0447 12.8422 861 98.0592 82.9605 500.919
876 0 69.0608 13.2637 916 98.369 83.6474 500.254
877 0 68.0448 13.256 902 101.6 83.7982 498.204
878 0 72.0708 13.3896 965 100.964 83.5482 497.371
879 0 75.0284 13.5682 1018 100.317 83.4754 496.911
880 0 77.043 13.2004 1017 100.816 83.4258 496.749
881 0 80.0768 13.5245 1083 101.143 83.2715 494.368
882 0 83.081 14.3956 1196 101.802 83.6597 493.269
883 0 84.0866 13.2007 1110 107.098 83.1541 491.377
884 0 85.0887 13.5271 1151 109.125 83.4388 489.412
885 0 89.0757 13.9656 1244 105.442 83.8248 489.908
886 0 91.0782 14.0429 1279 108.754 83.9242 487.461
887 0 95.0688 13.6953 1302 109.041 83.3533 484.696
888 0 97.0785 14.3595 1394 107.737 83.7862 484.255
889 1 49.0175 11.5061 564 108.965 83.3901 506.766
890 0 51.0294 11.6404 594 106.854 83.1987 499.527
891 0 53.0296 11.5973 615 106.683 83.4049 502.496
892 0 54.0205 13.3098 719 103.741 83.3046 503.932
893 0 54.0776 11.7979 638 101.439 83.7978 506.409
894 0 55.032 11.775 648 100.863 83.7469 505.821
895 0 57.1032 12.0659 689 102.276 83.8592 504.836
896 0 59.0687 12.5616 742 102.933 82.9057 502.86
897 0 60.0404 11.7421 705 105.2 83.9589 501.556
898 0 64.1003 12.5428 804 102.011 84.2463 500.449
899 0 65.0301 13.0862 851 101.657 83.6733 499.731
900 0 67.0616 12.9135 866 102.842 84.3129 497.669
901 0 70.0283 12.9662 908 101.439 83.9681 497.725
902 0 70.1404 12.3324 865 103.986 84.126 497.397
903 0 72.0412 13.2285 953 101.847 84.4879 495.426
904 0 74.0736 12.7711 946 105.835 84.2167 495.385
905 0 77.0672 13.5466 1044 106.113 84.8621 492.181
906 0 79.0402 13.8284 1093 105.296 85.0467 491.007
907 0 81.1226 13.7323 1114 106.075 84.6023 488.82
908 0 84.0439 13.5643 1140 106.283 84.7939 489.942
909 0 86.0319 13.8786 1194 106.213 85.8702 487.392
910 0 87.0795 13.4934 1175 108.271 85.1413 486.708
911 0 91.0537 13.827 1259 107.616 85.583 486.019
912 0 94.0577 14.4698 1361 107.655 85.2336 483.96
913 0 95.0687 14.2003 1350 109.048 84.9993 479.413
914 0 98.0646 13.7562 1349 109.547 84.573 477.034
915 0 102.074 13.9996 1429 108.02 85.0854 474.096
916 0 105.024 13.4159 1409 105.166 84.44 475.916
917 0 109.216 12.6996 1387 106.065 84.69 473.701
918 0 112.077 13.0982 1468 103.644 84.5892 467.973
919 1 57.0384 10.6946 610 102.184 85.0508 493.872
920 0 58.0442 11.2156 651 100.407 84.2627 493.942
921 0 59.0365 10.9424 646 101.485 84.7074 492.918
922 0 62.0616 10.6829 663 101.573 84.9201 490.811
923 0 65.0186 12.0119 781 96.6684 83.84 495.25
924 0 72.0415 12.5344 903 103.578 84.4319 498.61
925 0 74.0585 12.2606 908 105.372 84.9956 498.746
926 0 74.0603 12.6114 934 105.431 84.6627 496.444
927 0 76.0993 12.6282 961 106.032 84.7659 495.796
928 0 77.0834 12.9989 1002 104.987 84.3962 495.565
929 0 82.0613 12.9781 1065 103.9 83.5333 495.398
930 0 82.0572 12.7472 1046 104.696 84.1281 493.377
931 0 83.1117 12.8863 1071 99.7983 83.4164 492.795
932 0 87.0484 12.6137 1098 104.432 83.3069 492.114
933 0 88.0454 12.4481 1096 99.0319 83.1679 491.916
934 0 91.093 12.2293 1114 99.1804 83.6302 489.794
935 0 93.0547 12.0144 1118 98.3453 83.8148 488.005
936 0 98.1285 12.4633 1223 98.0123 82.6353 485.171
937 1 53.067 11.6457 618 96.2816 83.3123 509.696
938 0 55.162 12.1823 672 97.1146 82.5193 508.978
939 0 57.1008 12.224 698 89.2851 82.7779 509.126
940 0 56.0993 12.3709 694 92.9222 82.6585 508.246
941 0 58.063 12.0559 700 93.7929 82.2014 508.676
942 0 62.1158 12.686 788 91.7107 82.4137 507.496
943 0 62.1482 12.7437 792 93.2008 82.4975 506.326
944 0 66.0967 13.1777 871 91.6498 82.7646 505.913
945 0 67.0738 12.7024 852 93.3462 82.5106 505.717
946 0 69.0749 12.7687 882 94.432 82.0816 504.169
947 0 70.0944 13.1537 922 94.9892 81.679 501.077
948 0 74.115 13.3981 993 94.6334 82.3092 501.82
949 0 75.167 13.0642 982 97.1324 82.2638 499.803
950 0 77.0749 13.7788 1062 97.3908 82.8333 497.352
951 0 78.0962 12.92 1009 109.401 82.6541 497.268
952 0 81.0723 13.1734 1068 110.523 83.4878 496.071
953 0 86.1051 13.6577 1176 109.576 84.5816 495.489
954 0 87.1246 13.3487 1163 111.413 82.6303 494.534
955 0 89.1137 13.365 1191 112.946 83.8153 493.166
956 0 93.0871 13.8365 1288 107.274 83.184 489.593
957 0 95.1114 13.91 1323 110.382 83.6689 489.949
958 0 98.1037 13.7508 1349 112.586 83.8503 488.181
959 0 102.085 14.3801 1468 110.686 83.5647 486.552
960 0 104.12 13.9263 1450 112.259 83.7524 484.799
961 0 107.09 13.3346 1428 114.648 83.888 482.868
962 0 109.128 13.9103 1518 112.272 83.7339 481.626
963 0 113.064 13.8948 1571 111.455 84.1413 478.756
964 0 116.068 13.7592 1597 112.553 83.8391 477.379
965 0 120.076 13.7329 1649 112.212 84.1965 475.066
966 0 122.109 13.3651 1632 114.796 83.9504 475.093
967 0 126.09 14.101 1778 111.18 83.8965 472.634
968 0 129.109 13.9263 1798 113.017 83.1663 469.821
969 0 134.065 14.5004 1944 108.786 83.7279 469.891
970 0 138.112 14.6982 2030 108.27 84.199 466.661
971 0 139.096 13.3577 1858 112.546 83.6265 463.593
972 0 144.074 13.2987 1916 113.787 83.786 462.08
973 0 149.121 13.6131 2030 110.563 84.2182 459.822
974 0 155.042 13.4157 2080 112.398 84.1827 457.053
975 0 159.123 12.858 2046 114.72 84.738 455.054
976 0 165.13 13.1472 2171 114.283 84.3984 451.614
977 0 171.184 13.2606 2270 113.802 84.1225 451.051
978 0 176.217 14.3232 2524 112.283 84.4497 446.31
979 0 182.129 13.8858 2529 121.673 84.153 442.646
980 1 97.0811 11.8973 1155 113.979 85.4087 491.14
981 0 102.091 12.4301 1269 112.701 84.4334 487.803
982 0 105.108 12.549 1319 112.839 84.5224 486.158
983 0 108.1 12.6735 1370 103.267 84.9022 484.764
984 0 111.156 12.6039 1401 104.559 84.0571 482.007
985 0 114.113 12.733 1453 106.459 83.9759 479.16
986 0 120.124 12.329 1481 106.036 83.6887 478.09
987 0 123.096 12.6811 1561 106.8 83.688 474.189
988 0 127.102 12.3366 1568 106.694 83.9885 474.005
989 0 131.18 12.2885 1612 107.389 83.9876 471.968
990 0 135.194 12.1085 1637 107.162 83.9389 468.925
991 1 71.0487 12.0199 854 101.774 85.0714 500.283
992 0 72.1008 11.7474 847 105.897 84.9209 495.077
993 0 76.0495 12.7286 968 101.884 85.4783 498.277
994 0 76.097 12.8652 979 103.773 84.9387 497.262
995 0 80.1852 12.3215 988 104.749 84.6447 494.864
996 0 84.096 12.9019 1085 101.022 84.5936 493.5
997 0 84.0853 11.8927 1000 105.487 85.574 492.529
998 0 86.0924 12.5911 1084 104.118 85.2989 490.455
999 0 88.1068 12.553 1106 104.989 85.3291 488.524
1000 0 92.0769 13.0869 1205 102.744 85.1378 486.968
1001 0 95.1142 12.4797 1187 105.167 85.5147 486.479
1002 0 97.0789 12.9173 1254 103.824 85.3333 484.606
1003 0 99.1802 11.706 1161 109.792 85.2851 481.112
1004 0 103.107 12.6956 1309 109.55 85.5898 480.525
1005 0 107.186 12.0818 1295 108.313 85.7954 479.322
1006 0 109.082 12.2844 1340 110.359 86.1858 476.303
1007 0 114.095 12.6211 1440 109.138 85.6847 474.767
1008 0 118.205 13.0197 1539 109.396 85.9253 472.003
1009 1 65.1959 11.1663 728 100.809 86.8778 501.941
1010 0 67.06 10.7814 723 103.781 86.3444 499.694
1011 0 67.0776 11.9563 802 101.571 86.591 502.693
1012 0 70.0374 11.7366 822 99.0827 85.5341 500.384
1013 0 76.0297 12.8897 980 94.9388 85.3143 498.084
1014 0 79.0513 12.6627 1001 96.1788 85.5624 498.422
1015 0 79.0655 12.5086 989 99.3367 84.8028 496.433
1016 0 82.088 12.4866 1025 100.555 85.3073 494.974
1017 0 85.0625 12.6965 1080 101.276 85.2852 493.623
1018 0 86.0725 13.2447 1140 101.489 86.0658 492.419
1019 0 90.0654 12.7241 1146 104.231 85.8499 490.978
1020 0 93.0623 13.2814 1236 102.961 86.1796 490.798
1021 0 96.0617 13.4913 1296 104.253 86.6003 488.713
1022 0 100.077 13.6195 1363 102.861 86.5693 487.483
1023 0 103.148 13.4176 1384 103.667 86.9422 486.704
1024 0 103.172 13.0559 1347 106.773 86.781 485.007
1025 0 108.147 13.4261 1452 105.096 86.2266 482.623
1026 0 110.133 13.1114 1444 105.016 86.5533 479.922
1027 0 116.272 13.3222 1549 103.733 85.6985 478.895
1028 0 119.158 13.5953 1620 100.973 85.7154 477.639
1029 1 58.057 11.5576 671 98.1833 86.1788 508
1030 0 59.0714 12.5272 740 96.8676 85.7 505.445
1031 0 59.0715 12.4764 737 97.4342 85.5278 504.875
1032 0 63.0338 12.3743 780 96.1782 85.9103 503.494
1033 0 64.0776 12.6097 808 97.7129 86.172 503.668
1034 0 67.075 12.732 854 96.7213 86.1932 502.537
1035 0 69.0202 12.7064 877 97.5291 85.382 498.87
1036 0 70.1023 13.3091 933 99.075 84.97 499.27
1037 0 72.0339 12.6329 910 105.962 85.2769 497.327
1038 0 74.0712 13.298 985 105.527 85.1036 495.206
1039 0 75.0708 13.374 1004 106.025 84.6145 494.509
1040 0 80.0714 12.7261 1019 106.016 84.8842 493.157
1041 0 82.0847 12.9988 1067 105.771 84.6401 491.171
1042 0 83.17 13.1538 1094 106.738 84.3857 490.06
1043 0 86.1295 13.2707 1143 106.682 84.371 490.205
1044 0 87.1254 12.8091 1116 109.078 84.5959 490.097
1045 0 92.0991 12.8774 1186 107.888 84.1855 487.128
1046 0 95.2352 12.7054 1210 108.788 84.0174 485.522
1047 0 96.1369 12.6902 1220 109.78 84.2934 485.642
1048 0 101.201 13.1915 1335 108.196 84.436 485.093
1049 0 102.15 13.6759 1397 108.614 84.8482 484.593
1050 0 106.134 15.7536 1672 99.0496 84.8176 481.045
1051 0 108.151 15.0531 1628 103.263 84.8053 479.737
1052 0 111.09 13.7186 1524 107.108 84.2316 481.037
1053 0 113.124 13.083 1480 108.541 83.3858 479.102
1054 0 116.101 12.7303 1478 114.21 84.479 476.263
1055 0 118.193 13.4865 1594 114.529 84.8018 474.358
1056 0 122.163 13.3511 1631 115.451 84.8118 472.674
1057 0 128.13 14.0872 1805 112.759 85.426 472.553
1058 0 131.119 13.4 1757 116.762 85.5458 469.174
1059 0 134.123 13.3459 1790 118.261 85.0721 467.139
1060 0 138.143 13.1675 1819 118.965 84.2523 468.527
1061 0 144.146 13.854 1997 115.946 84.7031 466.732
1062 0 148.125 13.4818 1997 119.5 84.4532 465.116
1063 0 153.167 14.4483 2213 115.554 84.2377 463.047
1064 0 158.256 14.0911 2230 117.611 84.7888 459.13
1065 0 163.175 13.4702 2198 118.425 84.4322 457.698
1066 0 167.25 13.5665 2269 119.275 84.2468 454.713
1067 0 175.247 13.4952 2365 118.918 84.6803 451.495
1068 0 179.194 13.3263 2388 121.142 84.1981 448.856
1069 0 187.291 14.9446 2799 117.131 83.9403 444.735
1070 0 192.214 15.181 2918 117.143 83.8811 441.303
1071 0 195.199 14.0779 2748 120.85 84.2402 441.23
1072 0 202.207 14.3418 2900 118.417 84.2559 438.429
1073 1 150.113 13.3233 2000 121.532 84.3925 466.846
1074 0 156.103 13.9139 2172 120.238 84.3725 461.486
1075 0 160.123 13.933 2231 120.954 84.567 458.917
1076 0 166.097 13.7148 2278 121.334 84.1826 456.678
1077 0 173.158 14.1894 2457 120.503 84.6292 453.709
1078 0 179.126 13.8059 2473 121.708 84.6632 447.842
1079 0 185.166 14.4789 2681 118.887 84.3726 445.709
1080 0 192.172 14.7993 2844 117.865 84.6762 442.281
1081 0 200.175 14.0477 2812 120.021 84.5167 438.382
1082 0 207.218 14.0142 2904 118.901 84.4456 437.408
1083 0 213.266 13.6871 2919 119.97 84.6201 433.11
1084 0 219.196 13.8324 3032 120.506 84.2622 428.908
1085 0 227.231 14.3951 3271 119.306 84.0746 425.255
1086 0 236.314 13.7656 3253 121.539 84.581 419.128
1087 1 53.035 13.0668 693 118.626 85.4863 507.228
1088 0 55.0238 13.267 730 119.551 85.1877 506.866
1089 0 58.0237 13.9253 808 131.436 85.302 505.215
1090 0 57.0776 13.613 777 135.463 85.4813 505.12
1091 0 60.051 13.705 823 134.577 84.9125 504.406
1092 0 62.1248 13.7787 856 131.451 84.3914 503.508
1093 0 63.1035 14.1355 892 131.115 85.38 502.697
1094 0 65.0911 13.5963 885 136.181 85.0418 502.505
1095 0 65.1382 13.2948 866 141.017 85.2587 501.083
1096 0 68.0721 13.4416 915 138.654 84.777 499.943
1097 0 72.0811 13.3877 965 136.85 85.1606 497.994
1098 0 73.0894 13.5587 991 139.604 85.4006 496.028
1099 0 76.0855 13.6951 1042 139.258 86.8138 500.199
1100 0 79.2306 13.6185 1079 139.902 86.089 497.677
1101 1 92.0994 17.6331 1624 113.855 85.5677 488.169
1102 0 85.0723 13.1888 1122 138.899 84.8859 493.226
1103 0 86.1036 12.9844 1118 141.156 84.8918 491.835
1104 0 90.1245 12.8489 1158 138.718 84.6624 490.275
1105 0 95.1691 13.0715 1244 135.087 84.9132 488.67
1106 1 52.083 13.1137 683 137.613 85.6193 508.832
1107 0 56.1396 13.6267 765 142.922 85.5817 508.782
1108 0 56.0522 14.1832 795 140.151 85.8629 507.592
1109 0 59.0874 14.1316 835 137.765 85.6659 507.504
1110 0 61.1537 14.4063 881 135.699 85.6379 505.582
1111 0 63.1636 13.9162 879 135.823 85.1775 504.163
1112 0 62.0955 14.4616 898 135.81 85.2751 501.415
1113 0 66.1642 14.2524 943 133.986 85.4634 501.457
1114 0 67.2103 13.7925 927 134.398 84.7217 501.495
1115 0 70.1669 14.2945 1003 129.796 85.7956 500.259
1116 0 71.1187 14.2157 1011 131.946 86.6479 498.444
1117 0 74.1437 14.7012 1090 132.79 85.7339 498.044
1118 0 75.185 14.471 1088 135.394 85.1342 497.528
1119 0 78.1474 14.2039 1110 136.568 85.9802 496.34
1120 0 81.1393 14.8387 1204 133.385 85.1927 497.362
1121 0 84.1883 14.2656 1201 132.894 85.8226 495.525
1122 0 85.0894 14.2203 1210 134.273 85.7289 495.26
1123 1 45.0412 12.0556 543 129.897 85.8913 515.409
1124 0 46.0239 12.2328 563 128.043 85.9396 515.4
1125 0 48.0434 12.5303 602 129.309 85.5498 514.148
1126 0 49.0324 12.5019 613 126.093 86.1207 513.899
1127 0 52.0825 13.1906 687 121.978 86.1863 511.975
1128 0 53.0571 13.5326 718 135.511 85.6031 511.139
1129 0 54.0344 13.1768 712 137.93 85.5407 511.895
1130 0 56.0278 12.9936 728 138.617 85.1868 511.063
1131 0 58.0306 13.0448 757 136.306 85.3686 510.719
1132 0 59.0451 13.0917 773 136.558 85.7063 510.045
1133 0 60.0652 13.2523 796 133.639 85.5992 509.133
1134 0 64.0809 13.4674 863 129.788 85.3673 507.94
1135 0 63.1272 13.1164 828 135.37 85.5797 506.763
1136 0 68.1827 13.2292 902 132.333 84.98 507.666
1137 0 69.0951 14.1255 976 130.686 85.1609 503.423
1138 0 70.1271 13.0192 913 133.318 85.5772 502.685
1139 0 73.0829 13.3547 976 133.466 84.9098 501.749
1140 0 75.0973 13.1962 991 134.195 85.2704 501.336
1141 0 78.1203 13.812 1079 132.206 85.5283 501.781
1142 0 81.1662 13.651 1108 131.584 85.2545 499.732
1143 0 84.0949 14.0674 1183 133.259 85.4091 498.774
1144 0 85.0612 14.0722 1197 133.94 85.1454 497.794
1145 0 87.0883 14.0777 1226 134.725 85.3597 496.159
1146 0 91.1783 14.1042 1286 132.536 84.3468 494.928
1147 0 93.1062 13.8981 1294 132.944 84.5595 493.255
1148 0 94.0806 13.786 1297 130.575 84.8057 494.544
1149 1 46.0114 12.736 586 138.483 85.7082 514.875
1150 0 47.056 13.0908 616 124.242 85.8409 514.115
1151 0 50.0312 13.6515 683 121.898 85.3192 512.896
1152 0 50.028 13.6524 683 123.584 85.1479 512.865
1153 0 53.0908 14.1079 749 120.698 84.4927 510.856
1154 0 55.0749 14.0718 775 119.001 84.6955 509.582
1155 0 57.147 14.0865 805 118.257 84.3056 508.745
1156 0 59.0401 13.9905 826 119.81 84.4613 507.404
1157 0 59.0179 14.0296 828 120.149 84.7174 506.949
1158 0 62.0454 13.8608 860 121.176 84.3593 505.99
1159 0 64.0507 14.0045 897 120.615 84.0858 505.057
1160 0 64.0708 13.9221 892 122.987 84.065 504.57
1161 0 67.0902 14.5178 974 124.624 83.5421 503.553
1162 0 69.0752 14.3467 991 126.001 84.111 502.652
1163 0 72.0647 14.7506 1063 123.06 83.3932 500.431
1164 0 74.0713 14.5535 1078 125.058 83.4861 500.095
1165 0 75.0729 14.6791 1102 126.865 83.3122 499.376
1166 0 78.0442 15.0556 1175 125.763 83.8911 498.256
1167 0 78.1184 14.2988 1117 130.235 84.0358 497.622
1168 0 81.0638 14.6305 1186 128.314 83.8836 498.476
1169 0 83.0862 14.5632 1210 130.284 83.2636 496.243
1170 0 84.079 14.1533 1190 133.202 83.3151 495.647
1171 0 89.1263 14.8104 1320 130.289 83.0371 494.469
1172 0 90.106 14.8936 1342 130.904 83.2146 492.953
1173 0 92.0831 14.4869 1334 132.562 83.1657 492.041
1174 0 95.1254 14.2128 1352 132.411 82.5155 489.738
1175 0 100.078 14.5187 1453 131.796 82.5389 486.991
1176 0 104.057 14.5017 1509 130.709 82.7376 485.848
1177 0 108.05 14.5304 1570 130.104 83.1669 483.643
1178 0 112.113 14.6638 1644 128.656 81.9927 482.092
1179 0 115.079 14.4597 1664 129.683 82.5649 478.161
1180 1 57.0188 12.5923 718 138.865 82.8231 505.189
1181 0 59.044 13.2105 780 136.877 83.141 504.895
1182 0 64.025 13.7134 878 132.719 83.1549 504.417
1183 0 62.0465 13.7478 853 137.58 83.0809 503.018
1184 0 67.0297 13.7999 925 136.158 83.0616 501.248
1185 0 69.0378 13.9489 963 134.649 82.6542 500.217
1186 0 70.0322 13.6366 955 137.587 83.666 497.974
1187 0 73.0871 14.3801 1051 136.066 82.5243 497.196
1188 0 74.0635 13.8125 1023 140.574 82.7869 495.702
1189 0 77.0797 14.1672 1092 139.635 82.4863 495.277
1190 0 78.0558 13.9259 1087 142.292 82.3579 493.798
1191 0 81.0812 14.2326 1154 140.769 82.6794 492.63
1192 0 85.1266 14.1201 1202 141.389 82.6855 491.164
1193 0 85.1098 14.2639 1214 141.438 82.5881 489.831
1194 0 90.1098 14.449 1302 137.724 82.9293 488.542
1195 0 92.0576 13.9804 1287 140.206 82.5828 487.329
1196 0 94.0601 14.2143 1337 145.15 82.7203 485.414
1197 0 96.0552 13.7733 1323 141.785 83.2842 482.114
1198 0 101.072 14.1582 1431 137.599 82.9112 481.178
1199 0 104.142 13.7601 1433 140.731 82.7704 480.433
1200 0 108.118 13.7535 1487 140.814 83.0269 478.778
1201 0 112.282 13.8758 1558 142.49 82.6611 476.062
1202 1 62.0534 10.2492 636 133.035 82.9764 503.247
1203 0 64.0338 11.6345 745 131.577 82.757 501.749
1204 0 65.1394 11.176 728 120.611 84.1772 504.821
1205 0 65.1907 10.2929 671 126.423 83.6572 505.605
1206 0 70.1219 10.439 732 125.322 83.9727 505.417
1207 0 71.0945 10.6337 756 126.806 84.0463 504.303
1208 0 74.16 10.356 768 131.417 83.6979 501.301
1209 0 76.1672 10.4113 793 132.137 84.3707 500.822
1210 0 79.1726 10.9886 870 131.676 83.5954 499.732
1212 0 81.1462 10.9432 888 133.8 82.7793 497.735
1213 0 82.1621 10.6497 875 135.728 83.272 495.815
1214 0 85.1785 11.3996 971 135.708 82.8692 496.231
1215 0 87.0896 11.3446 988 141.832 82.5415 493.798
1216 0 88.0505 11.3458 999 142.364 83.4615 492.387
1217 0 93.0658 11.7444 1093 139.429 83.2662 491.422
1218 0 98.0437 11.6989 1147 137.199 82.0811 489.484
1219 0 102.066 11.7767 1202 135.182 82.4035 486.898
1220 0 105.036 11.6436 1223 133.866 82.2764 484.724
1221 1 57.044 10.5357 601 133.128 82.371 507.313
1222 0 58.0208 10.8237 628 132.349 82.5 505.903
1223 0 60.0746 11.3026 679 130.999 83.4227 505.829
1224 0 58.0843 9.21075 535 121.707 84.514 508.095
1225 0 61.0415 9.81299 599 120.778 84.8614 507.506
1226 0 64.082 9.47224 607 123.053 83.9374 505.232
1227 0 64.0426 9.33754 598 123.913 84.1254 503.714
1228 0 67.048 9.15762 614 123.772 84.0603 501.116
1229 0 71.0908 9.6215 684 121 84.2208 502.085
1230 0 70.1121 9.28514 651 121.73 84.447 500.418
1231 0 73.1052 9.68468 708 121.941 84.1469 498.249
1232 0 76.1359 9.62752 733 121.593 84.4611 496.842
1233 0 79.1272 9.88282 782 120.168 84.4527 494.28
1234 0 81.1333 8.82498 716 123.89 84.6662 493.958
1235 0 84.1655 9.35062 787 123.727 85.8691 492.544
1236 0 86.2113 9.30272 802 123.914 84.813 491.914
1237 0 87.0812 9.09496 792 125.47 84.4962 490.434
1238 0 89.1114 8.78676 783 123.543 85.0766 491.287
1239 0 94.1125 10.1687 957 121.625 84.5204 487.352
1240 0 94.0939 8.74658 823 124.013 85.6574 488.491
1241 0 97.1512 9.39772 913 120.987 84.8916 483.83
1242 1 161.384 9.23266 1490 131.533 84.2336 454.643
1243 1 212.415 9.65562 2051 133.099 83.6602 432.258
1244 0 219.548 10.2301 2246 131.66 84.2311 425.124
1245 0 226.471 10.3898 2353 131.494 84.9422 419.682
1246 0 230.566 9.50268 2191 134.571 83.7659 416.133
1247 0 241.73 9.87053 2386 131.743 83.5989 412.283
1248 0 245.653 9.69253 2381 133.512 83.05 410.03
1249 0 256.743 9.97494 2561 132.378 82.968 406.15
1250 0 264.618 9.91619 2624 132.376 83.5312 403.024
1251 1 223.465 10.7981 2413 119.501 83.8139 428.753
1252 0 227.37 10.0805 2292 122.236 83.5458 429.315
1253 0 232.34 10.433 2424 122.65 84.679 424.882
1254 0 238.284 9.50128 2264 125.23 84.0755 422.197
1255 0 246.401 10.073 2482 123.793 85.1035 416.916
1256 1 91.0844 9.38689 855 105.564 85.2655 489.966
1257 0 94.0712 9.91801 933 104.669 85.7117 487.72
1258 0 98.1125 10.8039 1060 105.208 85.5924 486.263
1259 0 102.09 11.1666 1140 104.454 84.6351 484.86
1260 0 104.279 10.6253 1108 106.919 85.2238 479.646
1261 0 109.221 11.9116 1301 103.228 85.2521 477.362
1262 0 113.317 11.8959 1348 102.529 85.4763 475.883
1263 0 115.4 11.3432 1309 105.49 85.6295 474.131
1264 0 119.361 11.6202 1387 105.728 85.7815 472.531
1265 1 64.1744 9.6456 619 97.0291 86.7011 499.378
1266 0 67.0803 9.45136 634 96.0694 85.664 499.156
1267 0 66.0529 9.85574 651 100.252 84.8664 502.323
1268 0 69.1906 9.97245 690 99.8044 85.9014 500.3
1269 0 70.1332 9.25382 649 102.179 85.2512 500.934
1270 0 73.1407 10.2269 748 100.139 85.0548 499.552
1271 0 76.1786 10.4754 798 97.8822 84.8872 498.089
1272 0 77.1191 10.594 817 98.787 84.306 495.245
1273 0 78.1522 9.71181 759 102.415 84.4901 496.443
1274 0 82.2046 10.0968 830 101.8 84.5301 493.474
1275 0 85.1668 10.7906 919 99.2699 85.2601 493.178
1276 0 87.1279 10.3985 906 100.511 85.298 492.784
1277 0 89.1053 10.8636 968 99.8048 85.4205 491.383
1278 0 94.138 10.782 1015 99.4177 85.0591 491.865
1279 0 96.1217 10.9028 1048 99.3616 85.0878 489.889
1280 1 53.0636 10.968 582 94.9605 85.4296 510.911
1281 0 53.1336 11.3676 604 97.3493 84.9603 509.909
1282 0 57.0898 11.4031 651 100.134 85.2857 508.696
1283 0 57.0349 11.5193 657 111.422 83.7717 507.094
1284 0 58.1726 11.6893 680 109.828 84.5132 506.907
1285 0 61.0754 11.7887 720 109.185 84.5111 505.757
1286 0 60.1782 11.0505 665 101.564 85.418 509.238
1287 0 60.1048 11.43 687 102.489 85.5007 507.875
1288 0 63.0789 11.3509 716 102.155 85.648 505.859
1289 0 63.0847 11.2706 711 153.72 86.6428 505.872
1290 0 67.1747 11.8348 795 98.6113 85.7975 506.628
1291 0 67.1074 11.5338 774 100.461 85.9716 505.509
1292 0 67.195 11.5931 779 101.335 85.7856 504.045
1293 0 71.1064 11.8977 846 99.4846 85.3262 503.403
1294 0 73.0582 12.5106 914 97.837 84.8589 500.091
1295 0 73.1507 11.5788 847 100.587 85.4569 497.235
1296 0 77.1658 12.1168 935 99.3316 85.5818 496.741
1297 0 77.1627 11.7544 907 100.639 85.2822 496.357
1298 0 79.1108 12.1602 962 100.042 85.4023 494.997
1299 0 84.1204 12.7555 1073 97.9944 85.205 493.663
1300 0 84.2509 11.9168 1004 101.408 85.511 492.701
1301 0 88.1549 12.3759 1091 100.443 85.4354 491.716
1302 0 89.169 12.2016 1088 102.307 85.4219 491.421
1303 0 91.1007 12.6563 1153 102.197 84.6696 488.794
1304 0 95.1338 12.5823 1197 101.221 84.8329 487.689
1305 0 96.1882 12.5275 1205 101.337 84.5037 486.48
1306 0 100.196 12.4357 1246 102.579 84.8194 484.498
1307 0 103.166 12.7076 1311 99.299 84.7887 486.017
1308 0 105.212 12.5271 1318 99.6115 84.544 482.951
1309 0 109.235 11.2601 1230 108.94 84.2968 481.744
1310 1 58.2983 10.635 620 103.755 84.55 505.587
1311 0 59.4005 11.1278 661 105.088 84.6354 499.359
1312 0 59.2187 11.7531 696 103.155 84.5948 498.793
1313 0 63.2195 11.3889 720 103.667 84.3236 499.178
1314 0 65.1082 11.4886 748 102.912 85.004 504.167
1315 0 66.0782 11.4713 758 104.342 84.971 502.851
1316 0 70.0646 12.1745 853 103.932 84.7245 501.331
1317 0 72.1048 11.3307 817 117.098 84.5386 500.356
1318 0 73.0995 11.286 825 117.378 84.9273 500.016
1319 0 75.1495 11.3108 850 118.86 85.0718 499.262
1320 0 78.1433 11.4149 892 116.489 85.3195 497.48
1321 0 83.0938 11.3486 943 118.683 85.0477 496.394
1322 0 82.1215 11.7265 963 116.997 85.2461 495.871
1323 0 84.0976 11.6531 980 118.227 84.9408 493.64
1324 0 87.0886 11.9189 1038 118.486 85.6031 493.348
1325 0 88.1205 12.1425 1070 118.248 85.2729 492.265
1326 0 92.1393 12.047 1110 118.05 86.6468 491.343
1327 0 90.2612 12.209 1102 120.122 86.353 490.182
1328 0 96.1955 11.8405 1139 123.663 85.5926 488.91
1329 0 98.1446 12.3797 1215 122.122 85.1317 488.869
1330 0 97.1042 11.8738 1153 126.278 84.8378 489.251
1331 0 104.123 12.5429 1306 123.367 84.5482 485.227
1332 0 107.166 12.4666 1336 122.104 84.018 481.022
1333 0 110.251 12.5804 1387 122.559 83.6921 477.593
1334 0 113.218 12.5951 1426 123.42 83.4208 475.916
1335 0 115.247 12.2172 1408 125.833 83.6669 474.569
1336 1 58.2018 10.7385 625 117.814 83.4464 504.206
1337 0 60.2057 11.0953 668 114.04 83.5 505.308
1338 0 62.1555 11.2943 702 119.283 83.5541 505.613
1339 0 62.1288 11.0577 687 120.648 84.7031 503.584
1340 0 64.1665 10.8312 695 120.255 85.0964 504.564
1341 0 66.1135 11.4803 759 118.47 85.336 502.248
1342 0 66.1678 11.0477 731 118.951 85.498 502.969
1343 0 70.2601 11.5428 811 117.065 84.7139 500.233
1344 0 71.2644 11.3381 808 116.291 84.2413 500.667
1345 0 73.173 11.4933 841 119.128 84.302 500.057
1346 0 74.1875 10.9722 814 121.117 83.774 500.129
1347 0 77.1406 11.4726 885 120.907 84.1435 497.793
1348 0 77.1485 11.4584 884 123.993 83.81 497.812
1349 0 79.0691 11.7745 931 122.177 83.4361 500.291
1350 0 81.0335 11.415 925 125.483 83.3254 498.132
1351 0 83.0246 11.8519 984 120.636 83.9004 497.711
1352 0 84.0382 11.3758 956 122.047 83.0105 497.947
1353 0 87.1644 12.4363 1084 119.881 84.2989 494.12
1354 0 89.2179 11.7241 1046 121.43 83.5038 493.252
1355 0 91.225 11.9046 1086 120.626 84.2845 492.189
1356 0 94.1922 11.6889 1101 121.844 84.3742 492.327
1357 0 95.211 11.8894 1132 121.442 83.7765 489.218
1358 0 98.1684 11.7248 1151 120.56 83.5708 485.951
1359 0 99.1609 11.5973 1150 122.137 83.8574 484.327
1360 0 102.11 11.7226 1197 120.044 83.8964 479.617
1361 0 105.115 11.7491 1235 117.797 83.2121 481.561
1362 0 110.133 11.9855 1320 115.804 83.2212 481.818
1363 0 112.178 11.4372 1283 117.793 83.6773 481.238
1364 0 114.152 11.8088 1348 116.583 83.7656 481.735
1365 0 118.135 11.8594 1401 118.118 83.7202 480.47
1366 0 120.098 12.1235 1456 119.694 83.4931 480.512
1367 0 123.154 11.8875 1464 122.589 83.0587 476.234
1368 0 126.105 11.7046 1476 123.28 83.3469 476.085
1369 0 130.074 12.3852 1611 118.522 83.1602 474.926
1370 0 134.06 12.3975 1662 120.042 81.9838 473.205
1371 0 137.16 12.1755 1670 121.278 82.8988 471.947
1372 0 139.101 12.5952 1752 121.918 82.6535 469.423
1373 0 143.066 12.5257 1792 125.81 82.6272 467.652
1374 0 148.179 12.026 1782 126.847 82.8833 464.306
1375 1 55.064 10.8238 596 125.013 83.5386 509.941
1376 0 57.0763 11.0379 630 127.911 82.8222 508.022
1377 0 58.0591 11.7811 684 114.424 82.7909 508.58
1378 0 59.0401 12.0935 714 115.52 83.1933 510.305
1379 0 58.0427 11.3193 657 105.28 83.4216 510.953
1380 0 56.0124 11.1761 626 115.198 83.5895 511.7
1381 0 57.0217 11.294 644 118.036 83.2904 510.859
1382 0 58.0051 10.8266 628 117.796 83.4379 510.712
1383 0 61.0156 10.948 668 114.603 83.4775 509.867
1384 0 63.0321 10.804 681 111.091 82.4772 509.693
1385 0 65.0326 10.9483 712 107.074 82.4129 507.489
1386 0 67.023 11.966 802 101.562 81.7544 507.094
1387 0 70.0725 11.4596 803 100.12 82.0262 505.748
1388 0 71.0576 11.3148 804 99.8358 82.3321 505.148
1389 0 72.0145 10.8034 778 100.456 82.2622 504.905
1390 0 75.0404 10.4344 783 102.308 81.7842 503.682
1391 0 77.0936 10.818 834 99.9496 81.1259 501.083
1392 0 79.0353 11.1469 881 99.8592 81.4676 501.438
1393 0 82.0324 10.5202 863 103.382 82.4345 499.7
1394 1 44.0205 10.1317 446 103.783 81.9103 517.108
1395 0 45.0163 9.66316 435 105.414 82.0874 517.618
1396 0 46.0146 10.4749 482 105.193 81.9295 516.332
1397 0 46.026 10.4941 483 103.135 82.735 516.667
1398 0 47.0765 10.0687 474 109.831 81.8418 516.743
1399 0 46.0133 8.97567 413 113.959 82.1404 515.932
1400 0 47.0111 9.55094 449 112.572 81.7906 515.559
1401 0 48.0121 9.28933 446 115.392 81.722 514.709
1402 0 50.0186 9.43649 472 116.186 81.4915 513.875
1403 0 53.0719 9.83571 522 113.341 81.5268 513.31
1404 0 51.0287 9.38688 479 118.48 81.5783 513.48
1405 0 53.0495 9.99067 530 117.113 81.634 512.332
1406 0 55.0194 9.96012 548 117.029 81.7099 512.356
1407 0 56.0452 9.77783 548 118.797 82.0383 512.246
1408 0 58.0181 10.5657 613 118.217 81.5791 509.923
1409 0 59.0296 10.4863 619 119.065 81.1761 508.443
1410 0 61.0158 10.276 627 120.624 81.7831 506.78
1411 0 63.0601 10.7992 681 117.893 81.0103 507.192
1412 0 65.0353 10.3175 671 120.705 82.3025 506.602
1413 0 68.018 10.8207 736 118.914 82.1603 504.845
1414 0 69.0302 10.8503 749 120.047 82.5073 506.132
1415 0 70.0436 10.108 708 122.451 82 503.568
1416 0 72.0393 10.4943 756 120.376 81.9127 503.755
1417 0 76.1974 10.8009 823 119.058 82.452 502.909
1418 0 79.071 11.0154 871 115.573 81.5316 500.216
1419 0 81.1112 10.3438 839 116.415 82.404 500.188
1420 1 45.0259 10.3496 466 116.315 82.1395 515.094
1421 0 46.0452 11.2933 520 114.667 82.1077 514.992
1422 0 49.0246 11.484 563 112.915 82.4263 514.492
1423 0 50.0322 11.6125 581 110.719 82.4509 511.625
1424 0 50.0207 11.1954 560 105.412 82.4696 511.571
1425 0 53.0635 12.0799 641 102.966 82.8924 511.502
1426 0 55.052 11.5164 634 102.098 82.836 510.803
1427 0 56.0482 11.8291 663 102.204 83.1659 510.026
1428 0 57.1009 10.9455 625 104.877 83.264 508.618
1429 0 59.0921 11.6428 688 101.629 83.0073 507.113
1430 0 60.1084 10.5975 637 102.267 83.8006 506.168
1431 0 61.1064 12.0282 735 97.5048 84.3292 506.275
1432 0 64.0752 12.0015 769 95.5475 83.8817 506.554
1433 0 65.0563 11.9742 779 96.3582 83.4056 504.629
1434 0 68.0985 12.7903 871 93.0241 83.8301 504.165
1435 0 68.0837 12.0293 819 96.8107 83.3968 503.722
1436 0 72.066 12.78 921 93.3594 83.6026 502.619
1437 0 72.0625 11.7121 844 95.186 83.0581 500.697
1438 0 75.0342 12.0345 903 94.3267 83.175 499.932
1439 0 78.0461 11.7238 915 94.353 83.6262 499.428
1440 0 79.0861 11.2662 891 96.6364 83.7912 497.517
1441 0 83.0857 11.9515 993 94.7704 83.5921 497.565
1442 0 84.1 11.4269 961 97.4131 82.9927 495.707
1443 1 45.0686 10.5839 477 100.155 83.9266 514.08
1444 0 46.0689 10.4843 483 101.586 84.0311 513.304
1445 0 48.0438 11.0108 529 99.2552 83.7032 512.813
1446 0 50.0736 11.5031 576 102.552 84.1024 511.342
1447 0 52.0494 12.0847 629 105.391 83.0715 510.727
1448 0 54.0941 12.4228 672 104.647 83.1756 508.027
1449 0 54.0854 11.5373 624 108.498 84.1314 508.49
1450 0 55.0349 12.3558 680 106.746 84.0794 507.959
1451 0 59.0232 12.0122 709 105.53 83.6502 507.056
1452 0 59.0506 12.0236 710 106.138 83.2535 505.693
1453 0 59.0638 11.6653 689 107.209 84.3904 505.237
1454 0 61.1333 12.1538 743 106.956 83.7672 503.896
1455 0 65.0962 12.0437 784 106.453 83.0115 503.99
1456 0 66.0908 12.1197 801 106.036 83.3433 503.34
1457 0 67.1185 12.2619 823 105.94 84.1738 500.94
1458 0 68.0467 12.2857 836 105.922 84.9055 502.299
1459 0 71.0498 12.639 898 105.032 84.0145 500.627
1460 0 74.0855 12.3371 914 104.756 83.9333 499.917
1461 0 75.0626 12.4696 936 103.931 84.0342 498.864
1462 0 76.0523 12.4651 948 103.803 84.2447 497.751
1463 0 77.0366 12.3448 951 104.24 84.674 496.79
1464 0 82.1384 12.5276 1029 102.841 83.3139 496.004
1465 0 83.0485 13.0526 1084 99.9548 83.8118 493.818
1466 0 86.0271 12.6472 1088 98.8805 83.7803 490.814
1467 0 88.0343 12.7791 1125 97.6338 83.2053 488.86
1468 0 93.0297 13.2753 1235 93.9271 82.9563 487.453
1469 1 48.0287 9.80664 471 94.5138 84.1146 512.011
1470 0 48.09 10.7091 515 90.9379 83.5689 512.212
1471 0 50.0093 10.958 548 91.3613 83.177 510.73
1472 0 50.0185 10.816 541 90.0573 83.0166 508.104
1473 0 52.0132 11.0164 573 90.0593 83.4468 509.651
1474 0 55.0306 11.6662 642 101.383 82.7118 506.494
1475 0 57.0536 12.1465 693 100.25 82.6176 505.206
1476 0 58.0393 11.9402 693 100.368 83.0909 504.837
1477 0 59.0305 11.2654 665 103.048 82.1158 503.841
1478 0 61.0556 12.4313 759 98.8682 82.8248 504.153
1479 0 65.0854 12.2147 795 99.2201 82.3522 502.728
1480 0 66.0644 12.3516 816 100.042 82.8456 501.325
1481 0 67.0312 12.5016 838 99.4749 82.4606 501.032
1482 0 69.0938 12.2732 848 100.209 82.3467 500.143
1483 0 73.0468 12.5673 918 98.5229 82.5708 498.705
1484 0 75.0394 11.6605 875 101.245 83.4491 496.814
1485 0 76.0528 12.2809 934 99.5439 82.9229 495.748
1486 0 79.0436 12.1831 963 98.8276 82.5441 495.439
1487 0 80.0407 12.0189 962 100.78 82.3649 493.178
1488 0 85.0629 12.5907 1071 99.0028 82.5313 492.283
1489 0 85.0927 11.8694 1010 100.85 82.7584 491.973
1490 0 90.0655 11.7581 1059 100.624 83.2937 490.209
1491 0 91.1208 12.5987 1148 98.1115 83.2491 488.99
1492 0 94.115 11.7728 1108 99.639 82.9368 487.575
1493 1 51.0917 11.1368 569 94.1002 83.6977 509.318
1494 0 51.2098 11.2088 574 93.7021 84.3693 507.552
1495 0 52.2345 12.0801 631 93.458 83.8494 501.978
1496 0 53.2445 12.283 654 91.0764 83.9694 504.26
1497 0 54.1119 11.9567 647 90.6739 83.9691 506.819
1498 0 56.0141 11.7828 660 87.2848 84.0394 506.35
1499 0 58.0708 11.7615 683 87.0512 83.9912 503.682
1500 0 59.0683 11.6645 689 87.7184 83.5588 503.134
1501 0 62.0743 11.8245 734 86.5382 83.7643 501.037
1502 0 65.0726 11.9405 777 85.8224 83.7825 500.514
1503 0 68.0385 11.4053 776 86.5863 83.0876 499.428
1504 0 71.0951 12.2231 869 85.206 83.5351 498.412
1505 0 72.0672 12.0998 872 86.9232 84.0883 497.165
1506 0 75.0852 12.1728 914 87.4967 83.5842 497.266
1507 0 78.3059 12.2468 959 87.4359 83.6309 493.998
1508 0 80.1973 11.8084 947 88.6198 83.8078 493.219
1509 0 83.2913 12.1862 1015 87.1842 83.6985 489.605
1510 1 43.1769 10.3759 448 89.5201 84.9308 512.212
1511 0 46.1024 11.1057 512 88.4668 84.1211 511.109
1512 0 47.1061 11.1663 526 90.9411 83.5551 510.76
1513 0 48.0945 11.5606 556 91.6727 83.3076 508.773
1514 0 49.1137 11.4021 560 89.4179 82.8125 507.604
1515 0 50.056 12.2463 613 87.4013 85.0294 508.961
1516 0 50.0371 12.0511 603 88.3549 85.2156 509.33
1517 0 53.1375 12.3453 656 87.0732 84.6646 508.758
1518 0 56.0537 12.8627 721 84.8544 84.534 507.809
1519 0 55.1052 12.2674 676 88.6805 84.4571 507.419
1520 0 57.1332 13.0222 744 86.672 84.504 506.294
1521 0 61.1154 12.8446 785 87.0828 85.2713 504.577
1522 0 63.1292 12.7199 803 87.9141 84.4147 502.664
1523 0 64.1363 11.9901 769 92.2679 84.8895 501.939
1524 0 65.1001 12.2888 800 92.5088 85.03 501.839
1525 0 67.0902 12.6099 846 94.3499 84.1974 499.173
1526 0 71.0568 13.0318 926 92.987 84.4341 499.079
1527 0 73.0846 13.3681 977 93.5261 85.0317 496.443
1528 0 74.073 13.2977 985 95.1168 84.4863 495.123
1529 0 77.0942 13.8143 1065 94.2216 84.8413 495.639
1530 0 78.1209 13.1079 1024 97.3027 84.5293 494.564
1531 0 81.0786 13.3081 1079 98.1353 84.7414 493.595
1532 0 85.0881 13.1041 1115 99.1964 84.7453 492.039
1533 0 85.116 13.1233 1117 101.289 85.171 490.123
1534 0 89.0686 12.9675 1155 101.46 85.3117 488.534
1535 0 90.0679 12.9125 1163 102.967 83.4514 488.34
1536 0 92.101 12.6926 1169 105.395 84.4294 485.985
1537 0 96.1199 12.7445 1225 104.758 84.1853 484.536
1538 1 50.0823 10.8022 541 110.551 84.6987 506.619
1539 0 52.0647 10.6598 555 111.391 84.8468 505.524
1540 0 54.0528 10.6192 574 111.373 85.0592 504.35
1541 0 55.0703 10.5502 581 111.499 84.3528 504.546
1542 0 56.0534 10.4008 583 110.425 84.3122 502.967
1543 0 58.101 10.9809 638 110.618 84.9765 500.939
1544 0 60.0238 11.0623 664 111.045 84.2545 502.337
1545 0 62.006 11.1925 694 110.729 82.9697 499.225
1546 0 63.0403 10.0888 636 111.893 82.6651 499.039
1547 0 63.0229 10.2185 644 105.402 83.6087 495.831
1548 0 65.017 10.3358 672 109.923 83.6458 495.912
1549 0 70.048 11.1067 778 112.521 82.9846 498.29
1550 0 73.021 12.1198 885 111.8 83.1661 496.003
1551 0 75.1056 11.9166 895 116.077 83.1777 496.416
1552 0 76.0558 11.8729 903 117.993 84.1484 496.632
1553 0 79.0822 11.9875 948 119.813 83.423 495.373
1554 0 79.0753 12.0771 955 119.379 83.5497 496.287
1555 0 80.0779 12.6876 1016 119.972 83.7697 495.589
1556 0 82.1089 13.6526 1121 117.783 84.1409 493.368
1557 0 84.1782 12.9725 1092 121.12 83.8471 493.038
1558 0 87.1628 13.5379 1180 120.212 83.9907 492.275
1559 0 90.1344 13.4466 1212 121.787 84.7005 490.823
1560 0 91.146 13.6594 1245 122.257 83.91 489.839
1561 0 94.2001 13.8004 1300 121.207 83.7592 489.688
1562 0 96.1226 13.6388 1311 122.712 83.7346 488.3
1563 0 101.171 14.3421 1451 118.269 84.0283 486.169
1564 0 103.157 13.8914 1433 117.858 83.3936 485.691
1565 0 106.116 13.3344 1415 118.616 83.3541 482.432
1566 0 109.157 13.8424 1511 115.822 83.3455 480.408
1567 0 113.121 13.4281 1519 117.014 83.002 477.991
1568 0 117.151 13.1368 1539 116.578 83.7485 476.861
1569 0 120.1 13.3555 1604 114.383 83.2506 475.031
1570 0 122.092 12.5152 1528 108.652 83.4791 473.863
1571 0 125.077 13.4797 1686 105.775 83.1702 472.166
1572 0 130.118 13.1649 1713 112.574 83.8103 472.1
1573 0 134.086 12.753 1710 113.849 83.3357 469.498
1574 0 137.174 13.2241 1814 114.74 83.1896 466.834
1575 0 144.192 12.6359 1822 115.456 83.3101 464.886
1576 1 75.0696 11.1497 837 111.701 83.7109 497.564
1577 0 75.1164 11.7151 880 108.999 82.8455 494.107
1578 0 78.1072 12.0219 939 105.754 82.7007 492.489
1579 0 80.0401 11.994 960 105.352 83.15 494.464
1580 0 83.062 12.1837 1012 105.666 82.8597 492.462
1581 0 85.0608 12.4969 1063 105.496 83.0903 491.811
1582 0 88.0802 12.3864 1091 106.297 83.4684 487.662
1583 0 90.032 12.4289 1119 105.998 82.8132 487.164
1584 0 94.0671 12.8844 1212 105.99 83.3696 486.079
1585 0 96.0676 13.0845 1257 106.361 83.4853 486.595
1586 0 99.0563 12.8513 1273 107.24 83.6104 484.439
1587 0 101.059 13.2101 1335 106.652 83.5221 484
1588 0 102.086 12.1173 1237 109.724 83.1609 482.926
1589 0 106.09 12.7062 1348 107.213 82.9718 482.774
1590 0 110.252 12.9159 1424 106.514 83.5492 478.776
1591 0 113.099 12.9621 1466 107.113 83.4161 479.987
1592 0 116.065 12.1828 1414 114.982 82.7044 479.357
1593 0 118.109 12.48 1474 113.712 83.0801 476.353
1594 0 123.16 12.5609 1547 111.798 82.8242 474.259
1595 0 126.232 12.5879 1589 112.011 83.2889 469.296
1596 0 131.211 13.1086 1720 109.399 83.2849 466.298
1597 0 134.286 12.5032 1679 113.828 82.8505 463.241
1598 1 71.133 11.4574 815 106.352 83.1374 496.637
1599 0 72.1028 11.7055 844 107.634 83.4159 497.022
1600 0 76.0831 11.6583 887 108.372 83.044 496.388
1601 0 79.1263 12.6759 1003 105.241 83.8285 494.291
1602 0 80.0703 11.9395 956 110.069 83.6632 493.491
1603 0 83.1143 12.2001 1014 108.846 84.0779 492.584
1604 0 83.1049 12.2375 1017 111.303 83.5231 492.723
1605 0 88.0881 12.3399 1087 110.855 83.7958 491.182
1606 0 89.1089 12.9841 1157 110.28 83.293 488.989
1607 0 92.1097 12.5068 1152 110.577 83.3828 487.608
1608 0 95.2046 12.7725 1216 110.201 83.6316 486.524
1609 0 98.1026 12.7316 1249 110.027 83.478 485.252
1610 0 100.143 12.3124 1233 111.434 83.0251 484.654
1611 0 104.119 11.8807 1237 112.242 83.0622 481.365
1612 0 108.11 12.256 1325 109.888 83.2951 481.386
1613 1 55.1165 10.886 600 108.03 84.23 506.098
1614 0 55.116 10.9224 602 107.035 84.5615 505.306
1615 0 57.1851 11.1742 639 106.961 83.5978 503.174
1616 0 60.126 12.5071 752 101.141 84.1848 503.109
1617 0 63.1514 12.6205 797 100.676 83.4153 501.503
1618 0 65.1425 12.465 812 101.169 83.6244 500.366
1619 0 65.1394 12.2046 795 102.223 83.7572 499.038
1620 0 66.1833 12.692 840 104.344 84.0869 499.455
1621 0 70.1222 13.1913 925 100.543 83.4443 499.003
1622 0 71.0699 12.8887 916 102.716 83.4105 497.456
1623 0 74.0979 12.8884 955 102.64 82.8639 496.843
1624 0 75.1892 12.4752 938 105.778 82.3977 494.998
1625 0 76.1156 12.5598 956 106.049 83.1444 494.326
1626 0 79.1771 12.39 981 106.977 83.4495 493.583
1627 0 83.1068 12.5381 1042 106.68 82.8618 493.215
1628 0 85.114 12.6889 1080 107.189 83.6639 491.389
1629 0 89.1017 13.6361 1215 105.478 83.6304 490.591
1630 0 89.1678 12.998 1159 111.413 84.0276 489.124
1631 0 91.1345 13.2661 1209 108.34 82.5376 488.48
1632 0 95.1064 13.5953 1293 107.64 81.8608 485.302
1633 0 97.1269 13.0242 1265 109.569 82.1036 484.555
1634 0 100.102 13.0068 1302 110.478 82.2174 483.335
1635 0 104.148 13.0488 1359 109.984 82.245 482.511
1636 0 105.14 12.2408 1287 113.702 81.9852 481.644
1637 0 109.214 12.9654 1416 113.496 82.142 478.472
1638 1 59.0967 12.1157 716 118.825 82.2849 504.411
1639 0 59.0956 12.6913 750 119.204 82.1133 503.589
1640 0 62.0296 12.5424 778 123.769 82.7686 502.19
1641 0 65.0585 12.6348 822 121.898 82.7774 501.335
1642 0 67.0536 12.6764 850 121.774 83.02 499.118
1643 0 69.0742 12.7254 879 120.141 83.5199 500.487
1644 0 71.0808 12.9149 918 122.83 82.8769 498.111
1645 0 72.0931 12.9139 931 123.806 82.7744 497.066
1646 0 76.1082 13.4151 1021 120.98 82.3526 496.4
1647 0 78.0506 12.9403 1010 122.645 82.701 495.075
1648 0 80.0518 13.1915 1056 122.914 83.0284 495.508
1649 0 83.077 13.1324 1091 123.234 82.6627 493.436
1650 0 84.1234 13.4327 1130 122.871 82.9796 491.832
1651 0 89.1442 13.7979 1230 120.595 82.3837 491.255
1652 0 92.0946 13.6381 1256 121.021 82.2381 487.695
1653 0 94.0893 14.4756 1362 118.562 82.4031 488.589
1654 0 96.0953 13.1744 1266 123.393 82.3104 487.671
1655 0 99.1048 14.0054 1388 121.786 82.3523 486.06
1656 0 101.13 13.6755 1383 122.837 82.1063 485.115
1657 0 101.177 11.7616 1190 115.246 82.9319 486.765
1658 0 105.095 11.7798 1238 116.322 82.975 485.492
1659 0 106.119 11.3834 1208 111.366 82.6581 484.695
1660 0 110.104 11.7071 1289 112.226 83.3251 483.34
1661 1 61.1286 11.9748 732 107.489 83.7828 505.342
1662 0 62.0562 11.5541 717 111.22 84.2245 504.866
1663 0 64.1269 11.9451 766 110.315 83.5574 502.022
1664 0 68.0859 12.0877 823 107.485 83.0146 500.433
1665 0 68.0252 12.0691 821 106.637 83.5055 500.048
1666 0 72.093 11.7071 844 107.604 83.0213 498.41
1667 0 73.0478 12.1975 891 105.554 82.4063 498.244
1668 0 76.0183 12.1681 925 105.491 82.3892 498.454
1669 0 78.1201 12.2632 958 104.323 82.3852 495.163
1670 0 83.119 12.9934 1080 100.984 82.9102 494.906
1671 0 84.069 12.4422 1046 102.774 82.4283 493.705
1672 0 87.0457 12.4303 1082 100.159 82.7616 491.982
1673 0 90.099 12.7082 1145 99.9869 82.8148 489.971
1674 0 92.0519 12.2648 1129 102.295 82.3791 489.557
1675 0 94.133 12.323 1160 103.008 82.2655 488.64
1676 0 95.0899 11.8309 1125 106.042 82.624 485.798
1677 0 98.1481 11.3604 1115 108.208 83.0323 484.424
1678 1 55.0433 9.73779 536 105.446 83.4067 510.771
1679 0 57.015 11.2953 644 102.413 82.6786 508.151
1680 0 60.0679 11.5869 696 99.9957 81.319 501.012
1681 0 60.027 12.1612 730 99.2411 81.6836 501.768
1682 0 62.0511 12.2963 763 98.789 81.4705 501.742
1683 0 64.0636 12.1286 777 97.547 82.0348 504.057
1684 0 66.017 12.1029 799 96.8461 82.3517 502.945
1685 0 69.0695 12.3499 853 94.136 81.925 500.932
1686 0 73.0589 13.2496 968 91.8295 82.2366 500.616
1687 0 73.0498 12.731 930 92.7774 82.6957 500.732
1688 0 75.0347 12.301 923 94.2167 83.0368 498.909
1689 0 77.0556 12.3547 952 93.3141 83.1208 498.366
1690 0 81.0293 12.6744 1027 92.4615 82.63 496.88
1691 0 82.0939 12.2299 1004 94.4233 82.251 494.888
1692 0 86.043 13.1678 1133 90.8994 82.8491 493.054
1693 0 88.0435 12.4825 1099 93.5105 83.1128 490.884
1694 0 89.07 13.147 1171 92.6217 82.55 490.731
1695 0 94.0627 13.1083 1233 92.3925 82.9619 489.743
1696 0 95.1739 13.386 1274 104.838 82.9961 488.65
1697 0 99.3381 13.4692 1338 105.623 83.0882 486.972
1698 0 102.215 13.5401 1384 105.047 82.4841 485.667
1699 0 104.315 13.1237 1369 107.118 82.8517 484.343
1700 0 106.175 13.0445 1385 108.536 82.4433 484.888
1701 0 108.198 13.124 1420 110.179 83.4521 482.679
1702 0 112.216 13.4473 1509 110.423 83.3333 481.772
1703 0 115.181 13.3789 1541 112.923 83.3082 478.566
1704 0 117.21 13.2327 1551 113.346 83.4178 477.675
1705 0 121.162 13.7336 1664 111.575 83.3666 476.817
1706 0 124.285 13.4047 1666 112.678 83.2041 474.547
1707 0 125.229 13.5912 1702 112.245 83.0858 473.43
1708 0 132.327 13.8748 1836 109.879 82.3916 470.695
1709 0 135.208 13.8157 1868 111.855 82.348 468.105
1710 0 139.245 14.083 1961 110.553 82.154 467.052
1711 0 145.245 13.9833 2031 110.134 82.3407 464.68
1712 0 150.141 13.6006 2042 110.643 82.3026 461.043
1713 0 151.251 16.6412 2517 99.0354 82.1931 462.78
1714 0 160.148 14.4054 2307 111.418 83.0095 456.654
1715 1 86.0645 11.6773 1005 114.384 83.9244 491.831
1716 0 87.0227 11.7441 1022 113.114 84.0303 491.358
1717 0 90.0376 11.3397 1021 102.161 83.8707 487.087
1718 0 94.0892 12.5094 1177 92.6143 83.7579 485.219
1719 0 97.0419 13.3963 1300 97.2708 82.9185 488.258
1720 0 100.09 13.2081 1322 97.6225 83.1241 486.647
1721 0 103.119 13.2953 1371 96.7907 83.8811 484.365
1722 0 107.075 12.4493 1333 94.6384 83.2423 480.734
1723 0 111.091 13.6824 1520 94.4671 83.2086 481.137
1724 0 113.092 13.2282 1496 95.8636 84.0254 477.852
1725 0 117.097 13.3052 1558 94.303 83.9024 476.969
1726 0 121.201 13.457 1631 96.8167 83 475.776
1727 0 126.143 13.12 1655 100.693 82.9619 472.108
1728 0 128.112 12.7857 1638 103.782 82.6306 467.523
1729 1 67.1608 11.7479 789 102.658 83.033 500.132
1730 0 70.2251 12.1894 856 108.613 83.0035 497.479
1731 0 71.0633 12.6085 896 103.379 82.6138 500.161
1732 0 74.1052 13.0085 964 105.713 82.5581 498.326
1733 0 77.1137 13.0716 1008 105.528 82.8849 496.858
1734 0 79.1508 12.6467 1001 107.442 82.5085 494.619
1735 0 82.108 13.3117 1093 105.455 82.3458 494.988
1736 0 84.107 13.2807 1117 105.939 82.7717 493.265
1737 0 86.1397 12.8628 1108 107.968 82.6805 493.122
1738 0 89.1229 12.7913 1140 109.459 82.0974 491.582
1739 0 91.0502 12.5755 1145 110.782 82.5581 491.189
1740 0 95.0657 12.991 1235 109.145 82.7684 489.636
1741 0 95.0432 12.8468 1221 109.967 83.7723 486.919
1742 0 100.106 13.246 1326 107.409 83.2481 485.233
1743 0 104.085 13.2008 1374 106.852 83.3253 485.204
1744 0 105.074 12.8005 1345 110.77 82.9881 484.243
1745 0 109.074 13.7155 1496 108.711 82.4459 482.362
1746 0 113.072 13.1244 1484 109.845 82.4576 481.28
1747 0 115.123 13.0122 1498 111.039 82.482 479.195
1748 0 118.122 13.4946 1594 110.673 83.2284 478.083
1749 1 63.0244 10.8371 683 110.281 83.3543 505.429
1750 0 66.0847 11.5761 765 104.803 82.6523 504.106
1751 0 67.0806 12.8055 859 96.9977 81.9034 501.407
1752 0 68.0474 12.7411 867 98.1038 82.4602 502.216
1753 0 70.0788 13.2993 932 93.485 82.1266 500.497
1754 0 73.0753 12.4803 912 95.0844 81.4353 501.083
1755 0 73.0638 12.7286 930 96.0892 81.829 499.603
1756 0 77.0183 13.1657 1014 93.5217 82.4477 499.368
1757 0 78.0456 12.4414 971 96.8857 82.6653 498.026
1758 0 81.0901 12.7882 1037 95.515 81.7821 496.8
1759 0 83.1155 13.2226 1099 95.7143 81.8608 496.529
1760 0 84.0358 13.2682 1115 97.8332 82.1085 494.344
1761 0 86.0528 12.9688 1116 99.9391 82.7312 493.782
1762 0 89.0842 13.0887 1166 99.5386 82.4537 492.179
1763 0 91.0517 13.399 1220 99.5492 82.3139 490.37
1764 0 93.0388 13.0806 1217 101.036 82.3048 489.089
1765 0 96.1229 12.484 1200 102.344 82.67 487.699
1766 0 99.0793 13.4741 1335 98.9214 82.7296 486.958
1767 0 101.072 13.3766 1352 98.6154 82.5422 483.845
1768 0 103.061 13.4483 1386 98.7027 82.3499 483.439
1769 1 55.0236 11.6859 643 104.18 82.5739 506.683
1770 0 56.0547 12.8446 720 101.478 82.3694 504.957
1771 0 58.1389 12.6937 738 99.5257 82.0366 499.821
1772 0 61.1145 13.4829 824 96.4551 83.1226 504.82
1773 0 63.1171 13.6096 859 95.8719 83.0058 504.069
1774 0 62.0433 12.9909 806 100.768 82.8722 501.932
1775 0 65.0641 13.2792 864 98.3414 83.081 500.938
1776 0 68.095 13.3049 906 97.7528 83.1987 500.617
1777 0 68.0653 13.634 928 97.8222 83.2446 498.145
1778 0 72.0724 13.8333 997 97.007 83.8054 498.596
1779 0 74.0767 13.2025 978 99.4826 83.4162 497.037
1780 0 72.0331 12.6609 912 102.834 83.511 497.112
1781 0 76.0518 12.7808 972 101.215 82.8333 496.036
1782 0 78.0237 12.5347 978 102.365 82.5164 493.58
1783 0 82.0399 13.0546 1071 101.779 82.7255 492.643
1784 0 82.0144 13.3879 1098 101.977 82.7495 492.453
1785 0 83.0842 13.4322 1116 101.873 83.5278 491.187
1786 0 86.1849 12.8677 1109 102.804 83.5068 490.707
1787 0 88.1094 12.4618 1098 104.752 83.4863 489.562
1788 0 92.0539 13.1771 1213 101.036 83.7939 488.903
1789 1 50.0408 11.8503 593 102.27 84.1046 508.079
1790 0 53.0541 12.6852 673 99.7415 84.425 507.024
1791 0 52.2057 12.6615 661 102.266 83.7201 504.204
1792 0 56.0337 13.2242 741 100.397 83.7773 503.66
1793 0 56.0391 13.2764 744 102.103 83.164 504.52
1794 0 57.0285 13.1162 748 99.7019 82.7326 505.988
1795 0 61.0451 12.9576 791 98.574 82.4994 505.478
1796 0 61.0137 13.079 798 99.0025 81.9787 504.692
1797 0 63.0513 12.6405 797 100.833 82.9059 503.297
1798 0 64.0308 13.1812 844 99.4905 82.1848 503.188
1799 0 66.06 12.6249 834 99.1894 82.3273 502.7
1800 0 67.0897 12.9528 869 99.5236 82.0886 502.175
1801 0 69.0545 12.4105 857 98.692 81.9452 497.751
1802 0 71.0954 12.9685 922 96.6616 81.8623 498.497
1803 0 72.0383 12.5072 901 98.7802 81.99 495.32
1804 0 76.0569 12.6879 965 97.0259 81.6166 495.636
1805 0 77.1032 11.7375 905 98.8188 81.6033 493.484
1806 0 81.0853 12.086 980 96.4367 82.3112 492.823
1807 0 83.0434 11.777 978 96.3415 82.4765 490.86
1808 1 46.0218 12.016 553 95.1392 82.2441 508.976
1809 0 48.0149 12.3295 592 94.3868 82.9561 507.422
1810 0 48.1101 12.8247 617 99.9303 82.3015 507.58
1811 0 49.0482 12.763 626 97.4856 82.6502 509.997
1812 0 50.0515 12.627 632 99.8671 82.1155 509.715
1813 0 50.0675 12.8626 644 99.9658 82.4689 508.907
1814 0 51.0259 12.3271 629 102.033 82.0397 507.218
1815 0 55.0651 13.257 730 98.2192 82.3753 506.422
1816 0 57.0836 12.8583 734 98.9741 82.2738 505.546
1817 0 58.0311 13.1481 763 100.493 81.5505 504.712
1818 0 60.0321 12.8098 769 102.502 82.0858 503.675
1819 0 63.0134 13.8225 871 99.7233 81.0563 502.888
1820 0 65.0517 14.0965 917 100.93 82.2388 502.21
1821 0 64.0971 13.3391 855 107.746 82.2444 496.725
1822 0 67.1532 13.1788 885 108.692 82.2622 496.718
1823 0 69.0633 13.8424 956 109.14 81.9602 497.256
1824 0 73.0482 13.6211 995 107.523 82.3116 496.907
1825 0 75.0551 13.6167 1022 107.323 82.41 495.022
1826 0 76.0467 13.2419 1007 111.053 82.2085 493.187
1827 0 80.0253 12.7835 1023 111.95 82.6256 492.54
1828 0 83.0373 13.6686 1135 110.276 82.2291 490.427
1829 0 84.0536 12.9441 1088 110.979 82.0285 488.454
1830 0 87.0578 12.7616 1111 112.366 82.1125 487.708
1831 1 45.0181 11.7508 529 113.295 82.6975 507.488
1832 0 48.0239 12.0357 578 111.913 82.6263 507.294
1833 0 49.0196 12.8928 632 112.682 82.8449 506.234
1834 0 51.153 13.0198 666 111.371 82.994 499.42
1835 0 50.0139 12.8164 641 106.569 83.3182 503.172
1836 0 52.0288 12.8198 667 105.496 83.1169 501.385
1837 0 53.0276 12.8801 683 107.102 82.8111 500.575
1838 0 57.0482 13.0416 744 105.113 83.2728 499.367
1839 0 59.0735 13.0854 773 111.556 83.4166 501.542
1840 0 60.1019 13.0445 784 107.51 83.227 498.953
1841 0 63.0678 13.319 840 108.425 82.994 497.019
1842 0 64.1123 13.18 845 104.413 83.1586 496.669
1843 0 67.0557 13.8691 930 106.202 83.3538 494.444
1844 0 68.0644 13.1787 897 109.445 83.427 493.749
1845 0 73.0526 13.1412 960 108.846 83.7188 491.973
1846 0 73.1707 12.628 924 113.027 83.9535 491.218
1847 0 75.0393 12.8866 967 113.754 83.8056 491.062
1848 0 78.092 12.9847 1014 114.635 83.4172 488.089
1849 0 79.0982 12.908 1021 114.571 83.427 486.919
1850 0 81.0919 13.1333 1065 114.641 83.5606 483.76
1851 0 87.1028 12.9961 1132 113.724 83.8896 483.706
1852 0 91.074 15.2513 1389 109.249 82.4075 482.844
1853 0 91.1655 13.0422 1189 114.564 82.8511 481.12
1854 1 50.1365 11.2892 566 120.523 83.7014 499.712
1855 0 53.0627 11.7785 625 118.53 83.4224 500.165
1856 0 54.0998 13.0315 705 117.406 83.2979 489.244
1857 0 57.0412 12.9556 739 114.498 82.7618 489.59
1858 0 60.088 13.0142 782 114.587 82.7097 488.306
1859 0 59.0318 13.1624 777 117.64 82.9485 489.955
1860 0 62.0387 13.0564 810 118.096 82.8321 490.32
1861 0 65.0645 13.1562 856 117.537 83.0187 492.581
1862 0 66.0535 13.2014 872 118.696 82.9014 491.862
1863 0 69.0732 13.797 953 117.333 83.0325 492.595
1864 0 72.0911 13.5384 976 118.643 82.9754 492.143
1865 0 73.0529 13.3876 978 119.505 83.0419 491.097
1866 0 74.0556 13.5304 1002 120.753 83.5539 489.561
1867 0 78.0518 13.6704 1067 119.87 83.0347 487.975
1868 0 82.071 13.7564 1129 121.842 82.5775 481.934
1869 0 82.0423 13.2249 1085 124.688 82.5069 480.622
1870 0 85.0284 13.078 1112 123.537 82.5396 479.754
1871 0 89.0708 13.2254 1178 120.954 83.0671 480.263
1872 0 92.0587 13.0352 1200 121.354 82.7825 479.493
1873 0 93.0832 13.0099 1211 118.985 82.0008 477.559
1874 1 52.0544 10.2585 534 107.906 83.3596 502.275
1875 0 56.0267 12.1192 679 111.594 83.7216 503.3
1876 0 58.0384 12.6468 734 111.158 82.4292 495.218
1877 0 58.0105 12.6357 733 109.486 82.3261 499.458
1878 0 62.151 14.3843 894 102.462 83.736 499.699
1879 0 63.1215 14.0364 886 104.281 83.7991 499.779
1880 0 65.1107 12.9165 841 109.064 84.0214 498.375
1881 0 66.034 12.1604 803 106.371 83.2229 499.184
1882 0 70.0703 12.4304 871 105.281 83.5626 497.099
1883 0 71.0848 12.464 886 105.746 83.1806 496.236
1884 0 74.0592 12.8546 952 104.376 83.3361 495.832
1885 0 76.057 13.0297 991 105.6 83.7316 492.927
1886 0 79.0631 12.8758 1018 112.95 83.503 491.899
1887 0 81.1064 12.687 1029 113.737 82.6842 491.47
1888 0 84.1765 13.4479 1132 112.52 82.3472 489.951
1889 0 84.0765 12.5362 1054 113.077 82.3909 488.978
1890 0 87.1075 12.6625 1103 113.177 82.5068 489.15
1891 0 90.1718 12.9641 1169 112.601 82.6698 487.327
1892 0 94.1196 12.686 1194 113.751 82.7688 486.06
1893 0 95.1522 12.6219 1201 112.895 83.2456 485.628
1894 0 96.0754 11.824 1136 109.427 83.787 482.229
1895 0 100.204 12.3449 1237 105.475 83.5449 479.919
1896 0 103.177 12.0569 1244 106.815 83.6953 478.01
1897 1 55.1154 9.88834 545 100.083 84.3743 504.701
1898 0 59.0431 11.6694 689 110.181 83.1379 504.258
1899 0 57.1855 10.5097 601 110.206 82.7155 499.443
1900 0 58.0702 10.6767 620 109.768 83.0564 496.873
1901 0 62.1597 11.8726 738 94.7737 82.9932 498.594
1902 0 63.1001 11.3788 718 96.9415 83.1184 496.954
1903 0 66.0318 10.4344 689 111.814 82.8084 495.103
1904 0 69.0957 12.0413 832 118.102 84.0288 498.983
1905 0 70.1433 12.3604 867 119.54 82.7809 497.092
1906 0 75.1261 12.3259 926 120.025 83.3143 496.879
1907 0 77.1373 12.8602 992 118.307 82.5686 495.502
1908 0 79.0636 12.6733 1002 121.098 82.9172 493.994
1909 0 80.0748 12.813 1026 123.37 83.6306 493.284
1910 0 83.0555 13.0034 1080 123.628 82.9713 492.483
1911 0 87.0904 13.5147 1177 121.322 83.1716 490.475
1912 0 90.0911 13.4198 1209 123.629 81.8379 489.426
1913 0 92.0413 13.809 1271 124.561 81.3548 487.894
1914 0 94.0464 13.8974 1307 124.779 81.5593 487.237
1915 0 97.0882 14.0388 1363 125.971 81.8863 486.223
1916 0 101.107 13.7478 1390 126.096 81.9612 484.586
1917 0 102.167 13.5268 1382 129.232 81.0738 483.399
1918 0 106.199 13.8043 1466 126.844 80.807 482.319
1919 0 108.109 13.6437 1475 129.466 80.5851 479.2
1920 0 113.216 13.461 1524 129.11 80.8425 475.026
1921 0 117.325 13.7992 1619 127.662 80.8048 474.012
1922 0 120.172 14.0382 1687 127.305 80.6846 472.298
1923 0 124.151 14.4663 1796 125.197 80.0267 472.45
1924 0 126.301 14.3783 1816 124.726 80.6641 468.979
1925 0 132.175 14.4808 1914 121.373 81.011 469.772
1926 0 135.297 14.4496 1955 121.936 80.4297 465.559
1927 0 140.22 14.2989 2005 121.657 81.0125 463.46
1928 0 144.255 14.516 2094 119.913 81.053 461.457
1929 0 147.183 14.2 2090 119.901 80.6842 461.332
1930 0 151.318 14.2415 2155 117.987 80.2678 460.89
1931 0 156.288 14.2109 2221 118.135 80.9572 459.477
1932 0 162.346 14.7894 2401 117.226 80.0054 452.965
1933 0 167.228 14.7643 2469 117.914 80.4925 448.795
1934 0 172.376 14.9499 2577 116.634 80.5774 446.834
1935 0 176.211 14.5678 2567 119.108 80.9217 442.882
1936 0 180.351 14.5827 2630 120.238 80.2407 439.373
1937 0 186.34 14.774 2753 120.659 80.206 437.566
1938 0 190.28 14.3262 2726 123.746 80.3001 434.968
1939 0 197.48 15.0193 2966 123.396 79.8759 432.413
1940 0 201.332 15.169 3054 123.527 80.4041 432.346
1941 0 207.409 15.2211 3157 123.922 80.6332 428.891
1942 0 211.443 15.1388 3201 126.558 80.3714 424.819
1943 0 217.33 15.0463 3270 125.44 80.1309 422.966
1944 0 223.387 14.7726 3300 127.02 80.4491 420.716
1945 0 230.449 14.8883 3431 125.294 79.1708 418.553
1946 0 238.345 14.8818 3547 124.511 79.9301 417.641
1947 0 246.409 14.7275 3629 122.151 80.288 412.816
1948 0 256.346 15.4557 3962 119.819 80.2885 404.078
1949 1 71.1286 11.2753 802 117.946 80.3529 498.576
1950 0 74.1278 11.5071 853 115.894 80.2356 497.53
1951 0 76.1264 12.2559 933 114.857 79.7213 497.678
1952 0 77.1685 11.909 919 116.467 80.5375 495.452
1953 0 80.1695 11.5879 929 117.155 80.8848 492.266
1954 0 84.1434 11.8726 999 116.258 81.021 492.07
1955 0 87.0943 12.2281 1065 115.309 81.6009 491.477
1956 0 87.2751 12.2143 1066 117.607 82.4203 488.478
1957 0 92.3475 12.6695 1170 117.112 81.8564 486.401
1958 0 95.2996 12.6338 1204 117.211 81.0698 483.895
1959 0 99.2961 13.1324 1304 115.889 82.0836 483.332
1960 0 101.302 12.6355 1280 118.863 81.6492 481.301
1961 0 105.305 14.4058 1517 112.378 81.9117 478.216
1962 0 108.283 13.5017 1462 117.109 81.5486 478.963
1963 1 58.1514 10.1115 588 119.16 82.1174 502.374
1964 0 62.2549 10.714 667 117.526 82.3448 502.117
1965 0 64.1682 11.1114 713 112.804 82.4362 499.767
1966 0 68.1227 12.3307 840 112.911 82.5607 491.436
1967 0 69.1213 12.2972 850 115.152 82.3024 490.364
1968 0 73.1956 12.6784 928 114.915 82.0916 487.443
1969 0 72.1637 12.3331 890 117.065 81.5798 489.502
1970 0 75.1811 12.5962 947 114.027 81.5216 497.111
1971 0 77.1348 12.4069 957 116.238 81.3093 494.521
1972 0 80.1777 13.8692 1112 113.018 81.6745 492.493
1973 0 82.056 11.9431 980 123.32 80.6531 494.877
1974 0 84.0727 11.942 1004 123.659 81.5189 492.823
1975 0 90.1734 12.5203 1129 118.107 80.5509 490.408
1976 0 92.1107 12.3113 1134 118.082 81.0538 489.526
1977 0 94.0741 11.9587 1125 117.849 79.8116 484.939
1978 1 49.0227 9.4854 465 113.015 79.5419 509.77
1979 0 51.1218 10.6021 542 111.526 81.6642 510.408
1980 0 52.0898 10.7123 558 113.256 81.3817 509.953
1981 0 53.1281 11.1805 594 112.534 81.7239 507.87
1982 0 56.1722 11.4647 644 112.068 82.5155 508.259
1983 0 56.0329 11.6003 650 110.246 79.7185 506.749
1984 0 56.0404 11.7951 661 111.784 79.9924 506.912
1985 0 58.0524 11.4379 664 112.976 80.3705 505.117
1986 0 60.0294 12.3273 740 109.049 79.9068 504.524
1987 0 59.0566 12.2594 724 110.927 80.2459 504.323
1988 0 63.0544 12.3703 780 108.527 79.9513 502.944
1989 0 65.086 12.1378 790 108.703 80.676 503.649
1990 0 67.0704 12.4198 833 108.248 80.6759 502.956
1991 0 67.0481 11.7229 786 111.94 80.7812 502.307
1992 0 69.0779 12.551 867 109.388 80.5917 501.541
1993 0 70.0862 12.1565 852 111.435 80.331 500.166
1994 0 74.1086 12.4007 919 108.813 80.2775 498.662
1995 0 76.0472 12.2687 933 107.779 79.9775 497.52
1996 0 76.133 12.0841 920 111.613 79.6978 496.025
1997 0 78.0326 11.5849 904 114.399 79.3971 493.053
1998 0 81.0368 11.8712 962 112.558 80.3254 493.336
1999 0 85.0888 11.9757 1019 110.859 79.9637 491.944
2000 0 87.1295 11.787 1027 111.518 80.631 491.596
2001 0 90.1469 11.8473 1068 111.835 80.6105 489.831
2002 0 92.1321 11.8851 1095 111.692 80.2292 487.911
2003 0 94.2101 11.7079 1103 112.306 80.8332 485.989
2004 1 50.1045 10.7376 538 111.097 79.7175 507.612
2005 0 49.0151 9.77251 479 112.211 79.9165 503.91
2006 0 50.0638 10.3868 520 106.329 80.85 501.485
2007 0 57.0528 11.6559 665 106.977 80.6992 506.188
2008 0 58.0492 11.318 657 109.25 80.6393 506.271
2009 0 60.1777 11.6654 702 107.708 80.886 504.934
2010 0 61.2083 11.9755 733 106.461 80.7817 503.337
2011 0 63.104 11.0136 695 107.419 80.9827 505.127
2012 0 62.0954 11.5628 718 106.682 80.7033 504.189
2013 0 67.2409 11.5852 779 103.991 80.9281 503.285
2014 0 68.1963 11.4962 784 104.908 81.6352 501.682
2015 0 69.1532 11.959 827 103.947 80.7098 500.996
2016 0 71.2064 11.8669 845 102.898 80.9692 500.469
2017 0 73.1367 11.6631 853 102.746 80.728 500.193
2018 0 75.1116 11.6493 875 103.086 80.8457 498.725
2019 0 76.1871 11.7343 894 101.451 81.0772 497.73
2020 0 79.1207 11.5773 916 100.822 80.7948 497.086
2021 0 79.1382 11.2841 893 103.424 81.2105 495.689
2022 0 84.1026 11.8427 996 99.3394 81.3685 494.691
2023 0 85.1627 11.5896 987 99.5015 81.1196 493.953
2024 0 86.1315 11.1109 957 100.997 80.6217 492.621
2025 0 88.1693 11.3305 999 98.962 81.1492 492.201
2026 0 92.1529 11.2639 1038 97.6888 80.8256 490.933
2027 0 93.1128 11.8244 1101 95.4342 80.7257 488.347
2028 0 97.1659 12.0927 1175 92.68 80.0408 485.763
2029 0 101.145 11.0831 1121 97.3791 81.0018 485.197
2030 0 103.122 10.4924 1082 98.3299 80.7329 483.961
2031 0 105.146 10.7089 1126 96.9352 80.3988 481.845
2032 0 110.157 11.0842 1221 94.9984 80.6208 481.335
2033 0 113.211 11.059 1252 94.4505 80.6653 477.812
2034 0 116.151 10.5897 1230 95.5732 80.8512 476.71
2035 1 67.1088 10.0434 674 86.9318 81.6944 502.31
2036 0 67.0958 11.2824 757 85.0343 80.7583 500.807
2037 0 70.1761 11.5709 812 87.4446 80.25 497.621
2038 0 73.1252 12.2256 894 85.189 81.5582 498.444
2039 0 74.1887 12.5895 934 88.1681 81.3737 495.985
2040 0 75.2033 12.0207 904 89.5232 81.188 494.21
2041 0 77.2111 12.3039 950 87.8695 81.6074 494.066
2042 0 79.1839 12.0858 957 89.4692 82.0428 492.929
2043 0 84.1754 12.1057 1019 88.7233 81.5407 491.688
2044 0 85.2399 12.6232 1076 89.2612 81.5688 488.719
2045 0 85.2847 12.4524 1062 90.0235 81.1403 485.957
2046 0 87.131 12.5328 1092 88.3837 81.0357 486.339
2047 0 90.1442 12.6797 1143 87.2126 80.7122 484.038
2048 0 92.1756 12.7474 1175 87.9302 80.3583 482.583
2049 0 95.1246 12.1315 1154 89.344 81.286 480.52
2050 0 98.1608 12.4999 1227 90.37 80.784 479.635
2051 0 101.154 12.6638 1281 89.5051 80.6659 478.068
2052 0 104.209 12.7628 1330 89.7038 81.2812 476.82
2053 0 106.138 12.7758 1356 90.8916 80.9322 475.672
2054 0 107.101 13.1839 1412 90.7762 80.5609 475.091
2055 0 111.12 12.9319 1437 92.4788 80.636 473.42
2056 0 116.146 12.9837 1508 91.8813 81.2089 472.361
2057 0 119.15 13.5712 1617 91.329 81.1336 469.983
2058 0 123.157 13.2595 1633 92.2039 80.9767 467.83
2059 0 126.154 13.4677 1699 92.5174 80.5686 465.138
2060 0 130.138 13.7853 1794 92.2218 80.2854 460.584
2061 0 130.149 12.3858 1612 97.3927 80.4107 462.223
2062 0 135.142 12.7865 1728 97.647 81.1597 460.111
2063 0 141.135 13.1789 1860 96.5704 80.0016 458.151
2064 1 73.0605 11.4973 840 99.5571 81.15 488.819
2065 0 73.0327 11.2278 820 102.611 81.311 490.016
2066 0 75.0237 11.5697 868 104.023 81.6429 487.942
2067 0 78.0691 11.7844 920 104.068 80.4706 485.792
2068 0 82.3526 12.6043 1038 102.273 80.5983 484.644
2069 0 87.1445 13.8965 1211 98.7861 80.526 490.677
2070 0 88.1645 13.7243 1210 101.131 80.6529 489.931
2071 0 91.0822 13.6141 1240 102.265 80.6258 488.409
2072 0 94.0925 13.5505 1275 102.744 80.2729 486.068
2073 0 97.1873 14.0245 1363 101.461 79.9706 483.519
2074 0 97.0464 13.4678 1307 103.308 80.306 479.965
2075 0 96.0349 12.6725 1217 107.964 80.2021 479.442
2076 0 101.048 12.6376 1277 106.845 80.9859 477.612
2077 0 102.113 12.5841 1285 108.535 81.0023 474.458
2078 0 105.103 12.9206 1358 106.792 80.8093 473.642
2079 0 109.101 12.768 1393 107.279 80.051 475.09
2080 0 111.183 12.1691 1353 108.207 80.6245 470.804
2081 0 113.108 12.2892 1390 108.371 80.6468 468.845
2082 0 117.11 12.1851 1427 108.386 80.0603 465.819
2083 0 120.239 12.4086 1492 109.371 80.5979 463.844
2084 0 125.124 12.7314 1593 107.407 80.6736 462.952
2085 0 128.141 12.8374 1645 107.256 81.248 460.689
2086 0 130.163 12.7686 1662 107.66 81.4398 458.659
2087 0 133.131 12.5215 1667 108.402 80.7612 458.458
2088 0 137.187 12.8802 1767 107.691 80.6338 455.354
2089 0 141.224 12.8449 1814 107.838 80.4449 454.304
2090 0 145.143 12.0226 1745 110.747 80.1834 453.101
2091 0 150.166 12.6594 1901 109.282 80.0153 448.14
2092 0 153.185 12.5535 1923 110.647 80.0816 447.264
2093 0 157.218 12.5177 1968 111.538 80.2205 443.964
2094 0 164.233 12.6893 2084 110.504 80.1795 442.84
2095 0 168.27 12.3254 2074 112.416 80.5535 440.502
2096 0 176.281 12.6616 2232 110.156 80.1492 437.46
2097 0 181.311 12.3214 2234 110.574 80.4655 436.201
2098 0 188.292 12.7621 2403 110.769 80.2443 432.546
2099 1 81.1356 10.5379 855 110.613 80.2866 483.308
2100 0 85.1799 10.5659 900 110.326 80.3756 480.003
2101 0 86.1873 11.5562 996 109.872 80.509 479.95
2102 0 90.2994 12.1817 1100 112.283 80.1836 479.975
2103 0 94.2162 12.4076 1169 109.381 80.947 476.951
2104 0 96.2279 12.2418 1178 110.632 81.3311 475.334
2105 0 97.1263 12.4889 1213 111.114 80.3759 476.968
2106 0 100.14 12.083 1210 110.636 80.7248 478.78
2107 0 101.148 11.8243 1196 110.893 80.4465 477.082
2108 0 106.092 11.867 1259 111.16 80.1454 474.978
2109 0 109.082 11.9085 1299 110.513 80.5581 470.382
2110 0 110.117 12.2506 1349 109.971 80.2758 467.305
2111 0 114.151 12.1418 1386 110.061 80.3442 465.958
2112 0 118.164 11.958 1413 110.168 80.7792 463.6
2113 0 121.208 12.4249 1506 108.813 80.6587 462.44
2114 0 127.182 12.4231 1580 107.937 79.6791 458.028
2115 1 51.0985 10.059 514 106.453 80.3852 494.064
2116 0 55.1417 10.6997 590 103.454 80.5305 493.608
2117 0 57.0639 11.7587 671 101.393 81.7362 493.547
2118 0 61.1344 12.5788 769 105.137 81.6762 498.308
2119 0 62.1382 12.6814 788 107.367 81.5432 496.331
2120 0 62.1404 12.52 778 110.698 81.6735 496.239
2121 0 67.1746 12.9364 869 107.722 81.4891 493.678
2122 0 67.1005 12.7272 854 109.198 81.7916 494.485
2123 0 69.1814 13.1105 907 105.828 82.6384 492.991
2124 0 72.1249 13.2687 957 104.101 82.3292 491.724
2125 0 73.0578 13.3319 974 100.691 81.2926 492.837
2126 0 78.0439 13.1593 1027 101.227 81.4284 491.151
2127 0 78.0532 13.0424 1018 102.172 81.7868 489.029
2128 0 81.0664 13.0634 1059 101.886 81.2682 487.266
2129 0 83.0549 13.6295 1132 100.978 81.1546 485.323
2130 0 85.0422 13.1935 1122 102.76 81.0802 483.685
2131 0 87.0514 13.0153 1133 102.374 80.6946 483.018
2132 0 91.0356 13.5991 1238 100.861 80.7868 481.417
2133 0 96.0458 13.7538 1321 99.4262 80.6851 479.336
2134 0 97.0518 13.2713 1288 103.15 80.6592 478.057
2135 1 50.0493 10.3098 516 107.085 80.4961 500.669
2136 0 53.0072 11.5645 613 106.636 80.8907 501.891
2137 0 54.0262 12.2903 664 105.447 80.9819 502.488
2138 0 57.0738 12.1247 692 106.871 81.4046 500.821
2139 0 56.1054 12.3696 694 96.7723 81.9856 502.027
2140 0 57.0823 11.8075 674 101.211 82.8546 501.681
2141 0 57.0539 11.1999 639 104.545 81.0657 499.82
2142 0 60.0859 11.3837 684 100.857 81.5599 501.867
2143 0 63.0184 11.5046 725 99.5545 81.2097 500.436
2144 0 64.0228 11.8083 756 98.9841 81.1376 498.357
2145 0 65.0604 11.6046 755 102.416 80.9298 496.004
2146 0 66.0521 11.5515 763 102.43 81.1009 495.796
2147 0 69.0514 12.2228 844 100.494 81.0675 494.046
2148 0 71.0579 12.6376 898 99.5234 81.3419 492.343
2149 0 74.0718 11.9614 886 98.3025 81.2472 492.427
2150 0 75.0569 11.5379 866 99.5751 82.097 491.134
2151 0 78.027 12.0984 944 97.7595 82.2044 489.234
2152 0 82.0886 12.2063 1002 96.9102 81.9651 488.573
2153 0 82.0586 11.7599 965 98.5503 82.5575 488.066
2154 1 43.0937 10.3031 444 102.401 82.3806 508.577
2155 0 43.0671 11.1454 480 100.81 82.3562 506.86
2156 0 46.1209 11.2097 517 98.8665 81.7331 506.449
2157 0 47.144 11.0937 523 98.4264 82.0019 505.533
2158 0 48.0621 11.7556 565 97.5044 82.0655 503.715
2159 0 47.0278 12.163 572 97.479 81.2465 503.816
2160 0 50.022 11.9548 598 95.8646 82.4465 502.821
2161 0 52.0688 11.6961 609 91.7159 82.6716 502.949
2162 0 54.1061 12.1983 660 88.5091 82.5227 501.706
2163 0 55.1032 11.4512 631 89.2979 82.4976 500.843
2164 0 60.0892 12.7477 766 84.7715 82.547 501.542
2165 0 60.1062 12.2616 737 96.1615 82.4043 500.246
2166 0 62.1302 11.9105 740 96.3649 83.5054 499.246
2167 0 63.128 12.5301 791 95.9317 82.6068 498.005
2168 0 64.097 12.1847 781 97.1229 82.6658 497.394
2169 0 67.1292 12.2897 825 96.9576 82.6994 498.173
2170 0 69.1382 12.8583 889 95.7064 83.0158 496.867
2171 0 70.1245 12.378 868 97.0657 83.4309 495.373
2172 0 72.1442 12.8354 926 98.7214 82.4104 493.927
2173 0 74.1242 12.6814 940 98.9053 83.3872 492.299
2174 0 76.0987 12.0239 915 101.299 83.9967 491.722
2175 0 79.1676 12.9093 1022 99.9501 83.6468 490.202
2176 0 82.1624 13.0352 1071 100.104 83.2036 489.11
2177 0 83.1258 12.9803 1079 101.348 83.2076 488.81
2178 0 86.1284 13.0735 1126 99.6963 83.5888 486.436
2179 0 90.1614 13.6644 1232 99.7614 83.4756 484.816
2180 0 91.1396 12.7497 1162 103.886 83.2874 484.087
2181 0 95.1898 13.2997 1266 102.419 83.1319 481.707
2182 0 99.1676 13.2604 1315 103.243 83.3726 480.554
2183 0 100.159 12.8496 1287 105.71 83.0443 479.769
2184 1 51.132 10.6587 545 105.831 83.4716 504.213
2185 0 55.0611 11.7324 646 96.9149 84.0031 503.598
2186 0 57.1088 12.4149 709 94.7842 82.6897 502.361
2187 0 59.0967 12.4711 737 91.2483 83.2483 501.548
2188 0 61.0418 12.1884 744 101.657 83.3427 500.063
2189 0 62.0283 12.188 756 102.639 83.1812 500.169
2190 0 65.0278 12.2102 794 101.416 83.529 498.327
2191 0 68.1252 12.1981 831 100.836 83.3598 498.365
2192 0 68.0578 11.9017 810 102.127 83.342 497.179
2193 0 71.0421 11.9647 850 101.515 83.3306 494.908
2194 0 73.0529 12.1419 887 101.522 83.3472 494.33
2195 0 77.0598 12.6136 972 100.879 83.8014 492.627
2196 0 81.0486 12.9058 1046 98.5449 83.6319 492.622
2197 0 80.0445 12.4931 1000 102.774 83.448 492.315
2198 0 83.1267 11.9817 996 105.508 83.3604 491.458
2199 0 87.0977 12.6295 1100 103.672 83.2518 490.977
2200 0 90.122 12.6828 1143 103.871 83.1032 489.705
2201 1 47.0352 11.1406 524 101.336 84.0592 509.758
2202 0 47.0282 11.4612 539 100.078 84.5659 509.861
2203 0 49.0387 11.7662 577 96.1889 83.7539 509.177
2204 0 51.0243 12.2491 625 94.856 83.2128 509.874
2205 0 53.014 12.3929 657 94.7047 83.7093 508.782
2206 0 53.0085 11.9603 634 97.0757 83.53 506.961
2207 0 54.0241 12.7351 688 95.1817 83.7384 506.988
2208 0 59.0126 12.6583 747 92.925 83.8233 505.806
2209 0 59.0569 12.8351 758 93.6174 82.7678 503.577
2210 0 62.0637 12.6805 787 93.183 82.8297 504.048
2211 0 63.0969 12.4412 785 94.3592 83.6038 502.586
2212 0 65.0776 12.6311 822 92.8662 83.0584 501.836
2213 0 67.0591 12.5561 842 104.702 82.4382 501.62
2214 0 69.1109 12.328 852 105.978 82.5669 500.474
2215 0 71.0633 12.2567 871 107.65 82.8955 499.273
2216 0 74.0475 12.7081 941 105.764 82.3539 497.61
2217 0 74.0508 12.0593 893 108.505 82.206 497.892
2218 0 78.0669 11.8616 926 109.149 82.2052 495.1
2219 0 80.0589 12.1411 972 109.37 81.9496 493.506
2220 0 81.0809 12.4567 1010 107.836 82.6188 493.104
2221 0 82.1111 12.3613 1015 109.097 82.6877 491.746
2222 0 85.0742 11.9895 1020 108.663 82.6196 490.01
2223 0 89.0748 11.8889 1059 110.587 82.1058 489.556
2224 0 92.0566 11.5364 1062 112.282 82.5697 488.132
2225 0 94.0588 11.8011 1110 111.65 83.0126 486.776
2226 0 97.1311 11.747 1141 112.351 82.0964 484.026
2227 0 102.203 12.1425 1241 110.515 81.4956 483.225
2228 0 104.097 11.8543 1234 112.244 81.8225 480.557
2229 1 54.113 10.4226 564 105.81 82.9468 506.98
2230 0 55.1791 10.7831 595 105.247 82.7277 505.21
2231 0 56.0635 10.8092 606 108.091 82.2624 503.967
2232 0 59.0663 11.1062 656 105.325 82.7759 503.002
2233 0 61.1176 11.1097 679 104.801 82.0324 502.809
2234 0 63.0815 11.3345 715 104.954 81.7944 502.457
2235 0 66.1447 11.233 743 106.412 82.1332 501.281
2236 0 69.0963 11.3031 781 106.005 81.6914 499.621
2237 0 69.1037 11.6492 805 107.748 81.8248 498.83
2238 0 74.127 12.0199 891 105.301 81.9652 498.504
2239 0 74.1106 12.0226 891 108.031 82.2043 498.29
2240 0 77.1377 11.7582 907 111.633 82.1411 495.534
2241 0 79.09 12.0369 952 111.788 82.2857 495.079
2242 0 82.1679 12.3771 1017 111.21 82.5261 493.409
2243 0 84.1062 11.7708 990 112.879 82.5101 493.746
2244 0 88.1227 11.3705 1002 115.049 82.2665 490.292
2245 0 92.0981 11.7049 1078 114.433 81.6252 483.14
2246 0 93.1087 11.1805 1041 116.427 81.5773 482.446
2247 0 97.11 11.6981 1136 114.774 81.4666 480.4
2248 1 50.099 9.86047 494 112.071 82.6093 508.719
2249 0 51.129 10.229 523 111.369 82.4054 507.895
2250 0 52.1174 10.342 539 111.135 82.4026 507.796
2251 0 54.1366 10.7136 580 110.026 82.0103 505.94
2252 0 56.0989 11.141 625 108.803 82.4368 507.128
2253 0 57.0896 10.5448 602 110.47 81.7193 506.14
2254 0 58.1219 11.6135 675 106.464 82.997 504.748
2255 0 62.105 11.5611 718 105.309 83.3914 504.965
2256 0 64.1445 11.7235 752 103.447 83.137 503.447
2257 0 67.1593 11.8078 793 103.702 82.7503 502.956
2258 0 68.1416 12.1218 826 103.7 82.8002 501.329
2259 0 70.16 12.3575 867 103.759 82.7405 499.788
2260 0 71.145 12.4253 884 105.157 82.362 499.221
2261 0 74.1129 12.454 923 105.735 82.5786 497.559
2262 0 77.1555 13.3756 1032 101.208 82.9273 496.652
2263 0 80.18 12.7338 1021 101.845 82.2919 496.069
2264 0 80.0817 12.6496 1013 104.085 82.6811 496.286
2265 0 84.117 13.077 1100 102.427 82.3464 494.102
2266 0 83.1017 11.4679 953 110.274 82.7891 493.411
2267 0 87.1351 11.5338 1005 108.949 82.6468 492.268
2268 0 89.035 11.1754 995 111.309 82.208 491.1
2269 0 90.0711 10.7915 972 111.67 82.9115 490.949
2270 0 94.0751 10.5554 993 113.172 82.6908 489.209
2271 0 96.1428 11.4829 1104 111.382 82.7609 488.26
2272 1 51.0701 10.9457 559 105.499 83.0769 512.125
2273 0 54.1418 11.1559 604 111.914 82.7318 509.331
2274 0 55.1005 12.0326 663 108.484 82.5671 507.011
2275 0 57.0964 12.2074 697 102.195 82.4792 508.651
2276 0 58.1204 11.9407 694 105.122 82.7608 507.467
2277 0 60.0311 11.1109 667 106.992 82.1904 506.871
2278 0 60.0847 11.567 695 107.095 81.9971 506.386
2279 0 62.0707 11.9058 739 105.083 82.6617 505.472
2280 0 64.0797 12.344 791 104.506 82.6258 504.177
2281 0 65.0999 12.5807 819 104.516 82.674 504.057
2282 0 68.1301 12.0064 818 105.973 83.1137 504.077
2283 0 70.0842 12.8702 902 103.899 83.0499 502.884
2284 0 70.1428 12.2179 857 106.601 83.0922 501.9
2285 0 71.0208 12.7005 902 107.491 82.7616 500.116
2286 0 75.044 12.7792 959 107.716 82.561 499.015
2287 0 77.1462 13.4031 1034 110.57 82.5232 497.03
2288 0 79.1615 12.7714 1011 113.838 82.179 496.437
2289 0 81.0595 12.9164 1047 113.816 82.0678 495.305
2290 0 83.1822 12.8513 1069 113.82 81.6688 493.079
2291 0 86.1443 13.1524 1133 112.033 82.03 494.477
2292 0 90.1026 12.8853 1161 112.509 81.5116 491.351
2293 0 90.0905 12.4874 1125 114.898 81.8907 490.259
2294 1 51.1077 10.9377 559 113.778 82.4902 509.902
2295 0 51.1225 11.404 583 116.744 82.2899 509.52
2296 0 56.0712 12.0918 678 113.472 83.0221 505.35
2297 0 56.0975 12.6744 711 109.367 82.9747 503.269
2298 0 57.056 13.0223 743 113.149 82.8277 507.128
2299 0 60.0217 12.9786 779 113.394 82.9166 507.262
2300 0 61.0697 12.805 782 113.551 82.6841 506.757
2301 0 62.0915 13.1258 815 112.768 82.3264 502.103
2302 0 65.1612 12.799 834 111.963 82.217 502.658
2303 0 66.1855 13.2355 876 111.584 82.4954 500.293
2304 0 68.1682 13.5107 921 109.935 83.1944 500.898
2305 0 72.0976 13.3846 965 109.484 82.742 498.21
2306 0 74.0754 13.5808 1006 111.023 81.9076 497.872
2307 0 74.0664 13.3799 991 113.252 81.9546 496.455
2308 0 76.0986 13.4037 1020 113.563 81.6363 495.807
2309 0 81.1103 13.6481 1107 112.661 82.3586 495.363
2310 0 82.0868 13.4248 1102 114.607 82.3112 495.526
2311 0 85.0957 13.8902 1182 113.296 81.6447 493.83
2312 0 88.1268 13.56 1195 114.503 81.4444 492.17
2313 0 91.0852 14.0747 1282 113.112 81.2449 491.722
2314 0 93.135 13.765 1282 114.898 81.142 489.789
2315 0 98.1901 14.8895 1462 113.992 80.844 480.796
2316 0 101.199 14.5456 1472 114.941 81.4171 481.39
2317 0 103.24 14.1418 1460 115.713 81.2377 481.203
2318 1 53.2144 11.3879 606 114.65 81.5627 508.708
2319 0 55.227 12.005 663 111.246 81.8356 507.445
2320 0 55.1489 11.9313 658 110.512 81.8024 505.498
2321 0 60.2166 12.8204 772 109.944 81.6749 504.025
2322 0 60.1575 12.1348 730 110.597 81.9836 504.995
2323 0 62.272 12.0439 750 109.633 81.5333 504.975
2324 0 63.1859 12.3445 780 110.615 81.8115 503.42
2325 0 67.1389 12.4369 835 109.249 81.5689 502.335
2326 0 69.0728 12.9429 894 106.959 81.368 499.615
2327 0 73.0198 12.2022 891 100.429 82.0707 498.57
2328 0 73.0759 11.8233 864 104.512 81.8461 494.978
2329 0 77.0428 11.9414 920 107.113 81.725 493.139
2330 0 78.0405 11.9553 933 108.666 81.418 492.056
2331 0 82.1517 12.4769 1025 104.307 82.0263 492.955
2332 0 86.0493 12.5974 1084 103.731 82.2417 491.211
2333 0 87.0888 11.9878 1044 102.186 82.0077 487.352
2334 0 88.0721 12.1378 1069 104.42 81.797 488.497
2335 0 91.0927 12.0207 1095 105.133 82.3452 487.218
2336 0 94.1287 11.8986 1120 104.476 82.4411 485.036
2337 0 95.0485 11.6888 1111 104.559 82.5626 484.491
2338 0 100.084 11.7701 1178 102.996 82.4414 482.27
2339 0 102.17 11.8528 1211 101.215 82.6862 478.428
2340 0 107.185 12.4271 1332 99.9099 83.0871 474.339
2341 0 109.238 11.5619 1263 102.892 83.4291 472.69
2342 0 113.243 11.8506 1342 100.814 83.4449 471.045
2343 0 115.116 11.9358 1374 101.248 82.2649 470.235
2344 0 120.194 12.0888 1453 99.6394 82.9064 471.323
2345 0 122.212 11.4064 1394 101.023 82.83 466.726
2346 0 130.189 12.0594 1570 99.3051 82.9541 465.36
2347 1 71.1326 10.8389 771 92.3359 83.5901 495.237
2348 0 74.155 11.2737 836 92.0622 82.7034 495.211
2349 0 75.1572 11.1367 837 93.6535 82.5591 496.519
2350 0 76.1875 11.4848 875 94.9337 81.4434 498.92
2351 0 80.0901 11.8117 946 93.8922 80.8192 496.093
2352 0 83.2508 11.3152 942 102.847 81.3599 494.617
2353 0 88.1971 11.2362 991 98.1534 81.1857 495.017
2354 0 89.259 11.349 1013 97.8786 80.5972 492.255
2355 0 90.1579 11.3689 1025 99.442 81.1259 491.517
2356 0 93.1384 11.0266 1027 102.827 81.7225 491.517
2357 0 96.0622 11.9714 1150 101.384 80.4417 491.125
2358 0 100.143 11.7732 1179 102.44 80.5649 489.094
2359 0 102.254 11.9506 1222 102.631 80.6743 488.519
2360 0 106.173 12.037 1278 102.798 80.4601 486.532
2361 0 108.148 12.1593 1315 104.029 80.7764 486.912
2362 0 110.187 11.9524 1317 105.108 79.9985 485.595
2363 0 116.142 13.0702 1518 101.645 79.2299 477.848
2364 0 119.153 12.4378 1482 103.955 79.2787 479.503
2365 0 124.27 12.7465 1584 102.737 79.1086 478.965
2366 0 126.282 12.48 1576 104.421 78.9429 477.529
2367 0 130.274 12.3663 1611 106.891 78.1788 474.268
2368 0 136.192 12.7467 1736 104.96 78.4228 473.105
2369 0 140.213 12.9873 1821 105.768 80.1856 473.887
2370 0 143.211 12.9948 1861 106.993 79.1032 469.277
2371 0 148.185 12.5721 1863 108.549 79.16 466.942
2372 0 155.147 13.1553 2041 107.314 78.8613 463.712
2373 0 160.282 13.1082 2101 106.841 78.4384 461.656
2374 0 164.197 12.9418 2125 109.29 78.2094 457.5
2375 0 171.235 13.3209 2281 109.468 77.7501 452.205
2376 0 177.295 12.9333 2293 112.321 77.9738 446.649
2377 0 182.296 13.4945 2460 110.736 78.0902 444.158
2378 0 188.216 13.527 2546 112.526 78.8079 438.709
2379 0 195.298 13.5537 2647 113.526 78.6207 437.78
2380 0 202.245 13.6468 2760 113.982 78.5953 435.432
2381 0 209.261 13.3135 2786 114.649 78.7559 430.176
2382 0 215.343 13.973 3009 112.666 79.2306 426.187
2383 1 44.0151 9.40586 414 104.623 79.314 512.167
2384 0 46.0578 9.85717 454 103.736 80.4868 513.176
2385 0 48.1178 10.7029 515 106.21 79.534 512.194
2386 0 47.0653 10.3261 486 103.681 79.1173 512.191
2387 0 50.0722 9.58617 480 97.7854 79.2604 512.781
2388 0 50.0896 10.1818 510 96.6118 79.3196 510.455
2389 0 53.0522 10.9138 579 92.6995 79.5561 508.946
2390 0 55.154 11.0781 611 91.2062 81.1015 509.142
2391 0 56.0698 10.915 612 90.1895 82.0752 508.655
2392 0 57.1848 10.9819 628 90.4666 81.2739 505.747
2393 0 62.1211 12.7332 791 83.5107 80.4829 504.381
2394 0 61.1586 11.5111 704 88.1477 81.125 505.132
2395 0 62.1503 10.3781 645 90.5829 80.3473 503.797
2396 0 65.3044 11.5612 755 87.2596 80.6146 503.191
2397 0 65.1415 10.3621 675 84.0741 80.5007 499.065
2398 0 68.1477 11.1376 759 86.722 80.9921 499.485
2399 0 71.1312 11.7248 834 84.5791 80.0504 497.402
2400 0 72.0977 11.4844 828 84.6413 81.8261 496.283
2401 0 72.0793 11.0434 796 83.706 81.6168 493.758
2402 0 72.077 8.50479 613 88.7129 82.0261 499.661
2403 0 73.1065 8.64493 632 82.7927 81.8671 498.337
2404 0 75.0856 9.22946 693 84.3102 82.2237 496.752
2405 0 78.1443 9.39288 734 78.861 82.47 494.322
2406 0 79.1137 8.70899 689 79.6967 82.0232 492.52
2407 0 82.0874 9.3437 767 78.5293 81.1056 491.793
2408 0 84.1368 9.4489 795 85.4969 82.0189 490.493
2409 0 85.1113 9.59919 817 84.4529 82.3917 490.993
2410 0 90.2356 10.0071 903 79.5748 81.1141 482.53
2411 0 95.2645 10.854 1034 77.3501 82.3694 482.483
2412 0 96.147 10.5359 1013 79.2438 81.7591 478.108
2413 0 100.066 10.8129 1082 79.0582 81.7227 480.821
2414 1 49.014 9.38508 460 77.6978 82.7456 506.25
2415 0 49.0866 9.49344 466 81.4313 82.47 506.112
2416 0 52.0288 9.47553 493 80.355 82.6917 505.46
2417 0 54.0301 10.235 553 79.0289 83.1519 506.893
2418 0 51.0772 9.47586 484 82.7686 82.5599 504.24
2419 0 53.0683 10.2133 542 86.2122 82.4354 501.661
2420 0 54.0389 9.82625 531 87.113 82.2166 501.537
2421 0 56.0103 9.4804 531 87.8098 82.3202 499.887
2422 0 57.0788 10.1439 579 87.2971 81.6615 499.94
2423 0 57.0316 9.80158 559 89.4633 82.1091 498.633
2424 0 60.0375 10.3602 622 88.2685 82.6238 499.362
2425 0 64.0443 10.399 666 87.5991 83.4339 497.502
2426 0 64.024 10.3867 665 87.8662 83.4782 497.392
2427 0 64.0842 10.5954 679 88.1458 83.458 496.953
2428 0 69.0535 11.2666 778 86.581 81.9717 495.134
2429 0 70.0666 10.804 757 87.4861 82.1493 494.556
2430 0 70.0901 10.7148 751 87.6818 81.767 494.312
2431 0 70.1121 10.4975 736 89.0435 81.9484 493.572
2432 0 77.1288 11.1502 860 86.3546 82.9628 491.202
2433 0 79.0541 10.9545 866 86.9607 82.254 491.669
2434 0 81.0979 11.443 928 87.4612 82.4774 490.109
2435 0 81.1154 11.1076 901 88.6482 82.6138 486.285
2436 0 87.0561 11.8429 1031 85.7934 82.2153 486.645
2437 0 89.0868 12.0444 1073 85.6664 82.4306 485.062
2438 0 90.1262 11.7502 1059 86.695 82.7715 483.564
2439 0 92.0702 11.5673 1065 88.0638 82.7136 483.009
2440 0 96.0769 12.1361 1166 89.0712 82.6484 483.774
2441 0 97.1163 12.0371 1169 89.4234 82.8032 483.778
2442 0 101.243 12.2379 1239 88.619 82.6158 481.231
2443 0 105.177 12.8356 1350 87.6689 82.7718 480.07
2444 0 109.09 12.3384 1346 88.0253 82.6902 478.274
2445 0 112.115 12.844 1440 87.7757 82.5458 475.325
2446 0 114.135 12.4063 1416 89.3489 82.5403 475.196
2447 0 116.096 11.8609 1377 90.7836 82.39 471.402
2448 0 118.155 11.9335 1410 91.6255 82.8064 472.945
2449 1 67.1099 11.0267 740 86.7649 82.5973 497.349
2450 0 69.144 11.7581 813 85.4305 82.5018 495.761
2451 0 70.0893 11.3141 793 84.9975 83.203 499.083
2452 0 71.1033 11.6872 831 84.0939 82.438 495.845
2453 0 74.0691 11.8673 879 85.6246 82.8521 495.8
2454 0 79.047 12.3977 980 82.7918 82.2153 493.154
2455 0 81.0662 12.1136 982 83.5682 82.3238 493.161
2456 0 82.0487 12.7485 1046 83.2925 82.1233 492.576
2457 0 88.0551 12.5263 1103 84.0644 81.9075 492.49
2458 0 89.0713 12.6865 1130 85.7894 82.2956 491.006
2459 0 92.0728 12.892 1187 87.5518 81.9705 489.086
2460 0 94.0372 13.0268 1225 87.9731 82.1241 488.693
2461 0 95.1045 12.6387 1202 91.3003 82.0482 486.508
2462 0 96.0778 12.3858 1190 93.2672 81.6034 485.477
2463 0 103.099 12.9972 1340 92.4888 82.0813 483.523
2464 0 104.089 13.2963 1384 94.073 82.4184 483.765
2465 0 107.107 12.6882 1359 97.9058 81.7292 480.865
2466 0 111.074 13.0364 1448 97.0539 80.7859 477.706
2467 0 113.065 12.4707 1410 99.7929 81.3553 476.943
2468 0 119.134 13.2959 1584 100.805 81.267 476.123
2469 0 124.131 13.7113 1702 104.654 81.2503 472.053
2470 0 128.108 13.996 1793 105.301 80.9693 469.494
2471 0 131.192 13.9262 1827 106.805 80.9403 469.366
2472 0 134.22 13.5226 1815 109.607 81.3895 466.115
2473 1 74.0756 11.3533 841 110.098 81.8989 496.543
2474 0 77.0512 11.2393 866 105.197 81.3118 493.502
2475 0 79.0722 12.1408 960 107.986 81.1667 492.611
2476 0 80.1307 12.3174 987 110.489 81.7194 492.124
2477 0 82.0197 13.0944 1074 107.79 82.6564 495.418
2478 0 84.0804 12.6902 1067 111.015 81.493 493.02
2479 0 88.0638 13.6265 1200 109.902 81.5367 491.546
2480 0 91.0516 13.5528 1234 110.088 81.4619 490.563
2481 0 94.054 12.9713 1220 111.715 81.782 490.407
2482 0 96.1102 13.0787 1257 110.546 81.2323 488.292
2483 0 100.073 13.2803 1329 109.92 81.3687 485.824
2484 0 102.09 13.4 1368 107.74 81.7507 484.66
2485 0 106.07 13.2365 1404 110.511 81.3889 484.074
2486 0 108.146 13.8517 1498 110.395 81.5921 482.083
2487 0 112.146 13.7143 1538 112.698 82.171 477.576
2488 0 114.249 14.3546 1640 110.905 80.8451 475.384
2489 1 59.1548 11.4445 677 115.578 81.4815 502.344
2490 0 61.127 11.9096 728 113.808 81.4341 501.85
2491 0 64.165 12.3899 795 112.415 81.7296 499.853
2492 0 66.1268 13.1112 867 108.539 82.1107 503.776
2493 0 68.1875 13.0669 891 109.919 82.5354 502.08
2494 0 70.1748 12.8679 903 110.762 81.9026 501.213
2495 0 73.1057 13.0496 954 109.515 81.8354 500.155
2496 0 74.151 13.2702 984 110.357 81.8364 499.32
2497 0 77.1071 13.397 1033 111.012 81.7386 499.163
2498 0 78.1394 13.8214 1080 110.774 82.2963 497.781
2499 0 82.2345 13.2791 1092 111.743 81.2912 497.573
2500 0 84.1096 13.7321 1155 112.163 81.3178 496.132
2501 0 84.106 12.9004 1085 116.385 81.6691 497.141
2502 0 86.1688 13.1486 1133 116.803 81.579 495.381
2503 0 88.1676 12.7825 1127 118.067 81.8225 492.969
2504 0 90.1123 12.6509 1140 118.737 82.0246 493.175
2505 0 94.1817 14.0792 1326 112.514 81.2021 490.087
2506 0 96.1689 13.6323 1311 114.334 81.0183 489.092
2507 0 97.2229 13.8445 1346 115.759 81.0609 485.211
2508 0 101.147 13.7622 1392 113.317 81.1034 486.996
2509 0 102.198 13.1509 1344 117.392 81.6213 486.665
2510 0 105.279 14.0389 1478 116.011 81.9675 485.061
2511 0 107.178 13.6875 1467 118.434 80.3892 480.687
2512 0 110.097 13.5063 1487 116.683 81.0693 480.13
2513 0 114.064 13.2207 1508 118.111 80.8203 477.231
2514 0 120.16 13.4321 1614 118.374 80.8866 471.11
2515 1 65.1745 11.0779 722 122.096 80.8366 496.769
2516 0 66.0988 11.6038 767 119.995 81.0743 496.052
2517 0 69.1526 12.1615 841 118.784 81.3103 493.901
2518 0 72.2314 12.1415 877 120.023 80.5473 492.042
2519 0 72.0947 13.0245 939 115.666 80.6582 491.429
2520 0 75.1296 12.9643 974 108.573 80.3563 489.84
2521 0 76.1276 12.6104 960 111.89 80.0781 488.702
2522 0 76.21 12.0457 918 117.168 80.7516 488.222
2523 0 79.1291 12.1321 960 118.262 80.3969 486.76
2524 0 81.184 12.1945 990 118.356 80.0818 485.21
2525 0 80.0931 12.4355 996 120.642 80.1546 483.531
2526 0 86.1566 12.9415 1115 117.494 79.9821 483.052
2527 0 84.1204 12.5534 1056 121.547 80.3816 480.829
2528 0 90.1415 12.5248 1129 119.235 81.1692 481.382
2529 0 92.2813 13.0254 1202 118.084 80.5765 480.406
2530 0 96.2699 12.5273 1206 119.138 80.3988 478.473
2531 0 98.2082 12.504 1228 119.792 80.4397 476.908
2532 0 100.235 12.9595 1299 117.778 80.1732 477.211
2533 0 102.295 12.6496 1294 120.685 79.7581 473.368
2534 0 104.181 11.9791 1248 121.977 80.367 472.043
2535 0 111.224 12.7581 1419 119.568 79.8189 470.564
2536 0 112.119 12.4689 1398 121.551 80.6345 469.197
2537 0 119.218 12.9091 1539 118.631 81.1488 468.079
2538 0 122.243 12.6797 1550 118.928 81.3742 464.184
2539 0 125.236 12.2569 1535 120.071 80.5883 464.194
2540 1 66.3302 11.6387 772 116.026 80.9611 495.856
2541 0 68.2375 12.2953 839 113.461 80.4338 493.008
2542 0 71.1697 12.3367 878 114.863 80.9886 493.055
2543 0 73.2373 12.0977 886 115.915 81.1129 493.161
2544 0 73.3082 12.4815 915 116.437 80.8306 491.305
2545 0 75.3519 12.7668 962 115.952 80.762 490.93
2546 0 78.342 12.2923 963 118.212 81.0436 491.707
2547 0 81.2725 12.7349 1035 115.9 81.5546 491.051
2548 0 83.1979 12.5364 1043 117.257 80.9693 489.218
2549 0 85.3299 12.7388 1087 116.062 80.4407 487.775
2550 0 85.3138 12.7881 1091 118.635 80.1604 484.919
2551 0 86.2814 13.3864 1155 117.681 80.6615 484.345
2552 0 90.2524 13.429 1212 117.162 81.3655 481.552
2553 0 92.2575 13.4732 1243 117.167 82.856 480.655
2554 0 95.2753 13.7391 1309 116.538 83.3262 481.364
2555 0 98.2349 13.712 1347 117.376 82.0416 478.988
2556 0 101.217 13.9601 1413 115.838 83.3093 477.848
2557 0 104.268 14.4627 1508 114.527 82.8521 477.542
2558 0 106.246 14.1653 1505 116.498 82.0372 475.8
2559 0 111.243 14.6436 1629 113.147 82.0761 473.092
2560 0 112.201 14.0641 1578 115.838 81.6217 469.464
2561 0 114.163 13.3669 1526 118.296 80.9364 469.94
2562 0 118.253 13.8432 1637 117.688 81.5932 467.206
2563 0 122.13 13.6248 1664 119.21 81.4363 465.314
2564 0 127.148 13.5039 1717 118.142 81.7443 463.087
2565 0 131.177 12.9749 1702 118.609 81.8196 461.288
2566 0 137.127 13.6589 1873 115.849 81.3326 458.175
2567 0 141.225 13.9564 1971 114.113 81.6991 455.803
2568 1 82.0385 11.5312 946 116.107 81.3235 485.293
2569 0 86.0676 11.3051 973 115.736 82.0123 483.312
2570 0 87.0446 11.5918 1009 116.483 81.8513 481.944
2571 0 92.0744 12.0772 1112 115.308 81.4658 479.307
2572 0 95.0638 11.5501 1098 116.66 81.3698 478.257
2573 0 96.1277 11.4327 1099 118.135 82.0182 475.4
2574 0 101.084 12.0296 1216 115.681 81.8306 473.309
2575 0 103.074 11.6906 1205 117.845 82.0299 474.035
2576 0 105.103 12.6067 1325 116.445 82.2287 473.338
2577 0 110.06 13.0383 1435 115.35 81.8153 471.054
2578 0 112.056 12.7526 1429 118.095 81.8754 469.082
2579 0 116.098 12.6962 1474 119.119 81.0468 468.32
2580 0 120.073 13.4252 1612 117.733 81.3077 465.731
2581 0 123.146 13.0089 1602 121.092 81.7266 463.622
2582 0 127.171 13.2892 1690 121.208 80.5876 462.089
2583 0 132.141 12.971 1714 123.093 81.2602 460.582
2584 1 70.1336 10.1806 714 118.507 81.8613 489.959
2585 0 70.1099 10.2411 718 113.205 81.2674 485.617
2586 0 72.0196 11.1775 805 116.806 83.0162 487.452
2587 0 75.0787 11.1083 834 113.192 82.6103 492.697
2588 0 78.1283 11.0459 863 112.837 83.1831 490.279
2589 0 79.088 10.3808 821 114.417 82.9696 490.708
2590 0 83.0738 10.3763 862 112.145 82.4142 490.353
2591 0 83.0941 10.2655 853 114.461 82.5651 489.628
2592 0 85.1125 9.46982 806 117.978 82.263 488.577
2593 0 88.0723 10.2302 901 116.378 82.6193 488.04
2594 0 94.1118 9.46747 891 118.301 83.5814 487.733
2595 0 93.1662 9.93922 926 120.531 82.6102 485.42
2596 0 97.1686 9.63274 936 120.501 83.1827 484.476
2597 0 98.1068 9.74449 956 123.098 82.7762 481.654
2598 0 98.087 8.70656 854 126.569 82.9414 483.26
2599 0 101.124 9.05816 916 125.931 82.3308 480.207
2600 1 57.047 8.79976 502 119.612 83.2012 500.486
2601 0 57.0602 9.28844 530 116.191 82.7434 499.206
2602 0 59.0331 9.48621 560 116.743 82.6304 498.398
2603 0 61.0979 10.3932 635 117.38 82.8394 497.23
2604 0 64.0758 10.6592 683 118.625 82.9107 495.917
2605 0 65.0626 10.0365 653 130.074 81.6034 494.982
2606 0 68.1111 10.2333 697 128.802 81.6872 492.882
2607 0 67.0982 10.045 674 131.448 82.3353 492.26
2608 0 71.0774 10.4393 742 129.877 80.9407 492.567
2609 0 74.1074 10.2689 761 130.7 81.3009 489.65
2610 0 74.0889 9.74505 722 131.909 81.6371 487.762
2611 0 81.1168 10.3061 836 128.782 81.3409 487.16
2612 0 78.1567 9.73685 761 132.17 81.4126 484.955
2613 0 82.0918 9.79392 804 130.616 81.1679 484.565
2614 0 81.0589 10.2271 829 131.855 80.883 483.93
2615 0 84.0921 10.429 877 128.827 81.6363 484.08
2616 0 88.0986 10.125 892 128.964 81.667 480.207
2617 0 92.1102 10.7046 986 125.454 81.4412 478.906
2618 0 94.1633 10.1738 958 126.403 81.999 476.692
2619 0 93.1847 10.2699 957 127.173 82.5653 475.992
2620 0 99.2146 9.87758 980 126.392 82.849 473.666
2621 0 101.246 10.3708 1050 124.184 82.84 472.245
2622 0 105.188 10.3624 1090 122.935 82.3963 470.287
2623 0 109.175 10.6343 1161 120.919 82.1714 469.783
2624 0 108.191 9.64035 1043 123.148 81.8907 465.396
2625 0 113.164 9.7292 1101 119.492 81.9146 464.996
2626 0 114.271 9.11871 1042 118.65 81.9808 461.1
2627 0 115.186 8.69028 1001 119.079 82.1109 458.737
2628 0 119.23 9.72908 1160 115.604 82.2612 456.913
2629 0 117.183 9.2761 1087 116.187 81.8454 455.375
2630 0 124.202 9.83884 1222 112.682 81.9182 454.717
2631 0 127.174 8.84613 1125 114.085 81.9289 451.51
2632 1 142.136 11.3202 1609 105.757 81.8738 458.805
2633 0 143.114 11.1449 1595 106.656 82.7191 458.255
2634 0 147.123 11.2967 1662 106.499 82.0602 452.604
2635 0 148.221 11.3884 1688 107.682 81.8999 452.472
2636 0 153.162 11.2104 1717 106.713 82.5376 448.748
2637 0 157.148 10.9388 1719 108.768 81.7458 446.506
2638 0 160.092 11.2748 1805 109.741 82.0515 444.822
2639 0 166.163 11.7355 1950 109.525 81.758 441.027
2640 0 171.142 11.4583 1961 110.607 81.8608 440.829
2641 0 177.208 11.9182 2112 110.407 81.3854 434.524
2642 0 181.236 11.7195 2124 110.288 80.9887 433.922
2643 0 186.216 11.782 2194 110.505 81.7092 431.337
2644 0 192.282 11.4571 2203 111.759 81.1466 425.558
2645 0 199.19 11.5568 2302 111.32 80.6851 424.619
2646 0 205.287 12.0368 2471 110.406 80.9672 419.679
2647 1 150.095 10.7998 1621 107.172 81.7199 451.038
2648 0 152.195 10.5589 1607 108.554 82.295 446.796
2649 0 157.125 11.1058 1745 107.005 81.8734 445.818
2650 0 163.167 11.718 1912 105.164 81.3959 442.609
2651 0 166.124 11.7864 1958 105.667 81.1226 441.154
2652 0 171.2 11.4778 1965 105.274 81.1837 437.485
2653 0 177.221 11.6126 2058 104.851 81.0588 433.893
2654 0 182.374 11.3997 2079 104.791 81.0827 432.431
2655 0 188.24 11.666 2196 106.444 80.1617 426.469
2656 0 196.204 11.9213 2339 105.287 80.4267 424.613
2657 0 202.263 12.4887 2526 103.866 81.2454 421.886
2658 0 211.288 13.1669 2782 100.636 81.8742 418.961
2659 1 50.1374 9.83298 493 92.6795 80.9473 501.424
2660 0 53.0767 10.4 552 95.4656 81.2409 499.775
2661 0 51.0283 10.112 516 85.5543 80.3992 503.114
2662 0 54.0148 9.96023 538 85.632 81.5297 502.186
2663 0 55.0219 10.4322 574 84.9129 81.3275 503.105
2664 0 54.0264 9.08814 491 90.9308 82.1344 501.896
2665 0 58.0539 9.62898 559 88.4741 82.0626 502.696
2666 0 59.0085 10.0325 592 90.147 82.5557 498.505
2667 0 62.04 9.70342 602 89.2226 81.9435 498.203
2668 0 63.0577 10.2129 644 88.1491 81.5544 497.205
2669 0 66.0481 9.76561 645 87.3783 81.5364 498.555
2670 0 67.0484 9.97787 669 88.4679 80.8998 494.495
2671 0 70.0575 10.6056 743 87.2853 82.0013 495.965
2672 0 72.0217 10.0803 726 88.2479 82.332 494.904
2673 0 72.0359 9.8562 710 88.7169 82.431 492.758
2674 0 74.0296 9.96898 738 89.5325 83.1355 491.995
2675 0 79.1118 10.1755 805 86.9143 82.8907 492.902
2676 1 46.0301 10.2107 470 86.4766 83.4511 506.119
2677 0 48.0124 10.5806 508 85.8976 83.1693 505.703
2678 0 49.012 10.5484 517 85.2031 82.8085 504.015
2679 0 49.0409 10.3587 508 85.7933 81.7047 502.157
2680 0 51.0719 11.5328 589 83.2801 80.9457 501.11
2681 0 53.073 11.1545 592 84.2753 81.0659 502.007
2682 0 54.0254 11.1614 603 84.1741 81.1078 502.438
2683 0 57.0614 11.3737 649 83.2219 80.4915 502.837
2684 0 60.0435 11.475 689 82.299 80.5196 502.2
2685 0 60.089 11.3498 682 83.9106 81.0103 501.679
2686 0 60.0544 11.6228 698 84.7736 81.1805 501.511
2687 0 63.0436 11.8807 749 84.1562 81.1122 501.163
2688 0 65.1034 11.6123 756 84.8611 81.3982 500.971
2689 0 67.0214 12.1155 812 85.3818 81.6872 499.712
2690 0 68.0531 11.8731 808 86.6807 81.2673 499.407
2691 0 69.017 11.6493 804 87.7102 81.4216 498.721
2692 0 71.0353 12.6557 899 89.9822 81.2748 498.059
2693 0 70.0445 12.4207 870 91.4253 81.4437 496.438
2694 0 73.0595 12.6335 923 90.4648 81.5146 496.802
2695 0 76.0584 12.8585 978 89.4325 80.5061 494.534
2696 0 78.0915 12.3061 961 90.5754 80.4329 493.734
2697 0 79.0372 13.0192 1029 90.3226 81.2838 492.586
2698 0 81.0206 13.1695 1067 90.4752 81.656 491.564
2699 0 83.113 12.1882 1013 88.4324 80.9951 487.926
2700 0 84.0708 11.9185 1002 90.6297 80.999 484.446
2701 0 86.0297 10.88 936 96.6902 80.4551 481.364
2702 0 87.0382 11.202 975 97.7015 80.8492 478.647
2703 1 46.038 8.57986 395 90.8684 81.0911 501.919
2704 0 48.029 9.49427 456 87.943 81.046 498.579
2705 0 49.0091 9.61046 471 85.2335 80.6985 499.667
2706 0 51.0572 10.498 536 86.8769 81.0634 500.746
2707 0 54.0348 10.4192 563 83.8899 81.9218 500.352
2708 0 52.0117 10.8437 564 84.367 82.4823 498.215
2709 0 55.08 11.5831 638 82.3417 82.5282 496.083
2710 0 56.0326 10.9044 611 85.5876 81.8494 495.45
2711 0 57.0718 11.0738 632 86.5253 82.0696 495.562
2712 0 59.086 11.2717 666 86.3649 81.488 495.797
2713 0 61.0467 11.2864 689 85.8984 81.9652 493.025
2714 0 63.0304 11.7086 738 84.9675 81.897 492.142
2715 0 63.0528 11.6093 732 88.1544 80.7268 490.704
2716 0 64.0426 12.1482 778 85.8869 81.0386 489.316
2717 0 67.1131 12.1586 816 85.8395 81.56 489.196
2718 0 70.1053 11.7965 827 88.7412 81.0181 487.606
2719 0 70.069 11.7027 820 91.4902 80.8134 485.402
2720 0 73.0725 12.0291 879 92.2355 81.0899 485.164
2721 0 78.0777 12.5772 982 92.4756 80.8656 483.593
2722 0 76.0396 12.2436 931 101.203 81.1794 480.492
2723 0 76.0551 11.8861 904 102.385 80.9027 478.929
2724 0 82.0344 12.4582 1022 100.688 81.092 481.272
2725 0 82.0448 12.6272 1036 102.872 81.3813 479.368
2726 0 87.0907 12.0679 1051 99.3511 81.8925 477.367
2727 0 93.0954 13.4164 1249 101.397 82.1585 479.106
2728 0 92.156 13.4337 1238 102.547 82.6018 477.679
2729 0 96.1118 13.9005 1336 100.41 81.5786 476.445
2730 0 99.076 13.7672 1364 99.7559 81.4003 474.933
2731 0 101.044 13.1824 1332 100.676 82.0068 472.926
2732 0 106.098 13.365 1418 100.73 81.7482 472.336
2733 0 109.162 13.0173 1421 100.147 81.8487 472.231
2734 1 59.0517 10.9904 649 91.7273 81.7904 498.19
2735 0 61.0458 11.5651 706 89.4278 81.0779 493.006
2736 0 61.0595 11.497 702 91.3191 82.433 495.905
2737 0 63.0152 11.3623 716 91.5964 82.0726 495.858
2738 0 65.0471 11.8222 769 90.9376 81.775 495.248
2739 0 65.0601 10.8976 709 92.1382 82.1946 495.619
2740 0 66.0263 10.6927 706 94.983 82.4079 493.874
2741 0 67.0529 10.8422 727 95.5887 82.1719 493.814
2742 0 72.0432 11.6458 839 93.2598 81.8296 493.71
2743 0 73.0392 11.3364 828 95.465 81.7838 491.851
2744 0 77.0586 11.5886 893 94.5084 81.9854 491.503
2745 0 78.0442 11.5704 903 94.4496 81.887 490.898
2746 0 81.0792 11.9636 970 95.1134 82.8845 490.41
2747 0 84.0321 12.5071 1051 93.7774 82.8287 488.449
2748 0 88.0491 12.2091 1075 93.8344 82.5749 487.902
2749 0 90.0591 12.1587 1095 95.2183 82.653 485.944
2750 0 91.0329 12.1934 1110 95.936 82.6982 485.244
2751 0 94.0485 12.6849 1193 95.0277 82.7955 484.352
2752 0 97.0489 12.2722 1191 96.3375 82.8396 485.055
2753 1 57.0134 11.5587 659 97.7329 83.1624 503.605
2754 0 56.0581 11.5594 648 102.415 82.463 501.823
2755 0 57.0525 10.3764 592 96.75 82.8682 498.287
2756 0 57.0568 10.989 627 95.6986 82.0335 497.037
2757 0 59.0145 9.87893 583 88.2744 82.0703 497.907
2758 0 60.0629 9.98952 600 90.0933 81.99 497.067
2759 0 64.042 11.1646 715 100.51 82.5776 501.158
2760 0 64.0287 11.5886 742 101.016 81.7588 499.597
2761 0 66.0345 11.1003 733 102.985 81.3806 499.917
2762 0 69.0254 10.996 759 102.055 81.1318 499.306
2763 0 72.0277 12.0093 865 99.4162 81.2139 498.229
2764 0 73.0584 11.3881 832 99.8702 81.5481 496.924
2765 0 73.0625 11.2096 819 101.756 81.6117 497.073
2766 0 77.027 11.7751 907 98.0562 80.9768 496.815
2767 0 78.0779 11.3476 886 101.663 81.7968 494.387
2768 0 80.075 11.202 897 101.735 81.6656 494.986
2769 0 82.0546 11.2364 922 102.722 82.0596 494.703
2770 0 83.066 10.7264 891 105.529 82.5455 492.646
2771 0 87.0634 11.2906 983 102.609 81.1414 493.289
2772 0 91.0719 11.8697 1081 100.915 81.6503 491.009
2773 0 91.0766 10.5845 964 106.927 81.2033 487.387
2774 0 94.1488 11.057 1041 107.834 81.0375 487.611
2775 0 95.0487 10.5209 1000 106.42 82.117 488.708
2776 1 55.0231 10.4138 573 102.031 81.1291 505.354
2777 0 57.0204 11.2065 639 98.3333 81.0767 505.106
2778 0 58.0361 11.1138 645 98.3101 81.7705 504.265
2779 0 60.0658 11.2377 675 100.329 82.2118 502.347
2780 0 61.0464 11.3356 692 99.3931 81.026 501.905
2781 0 64.0441 11.3984 730 98.1356 81.0301 502.421
2782 0 64.0442 11.4452 733 99.075 81.6603 501.99
2783 0 66.0542 11.7479 776 99.4549 81.1714 500.311
2784 0 71.0803 11.4378 813 111.758 81.1747 498.868
2785 0 73.0578 11.4704 838 110.553 81.8508 498.091
2786 0 73.1072 11.148 815 112.004 82.0883 498.092
2787 0 76.1013 11.6949 890 112.989 81.9034 495.781
2788 0 78.0683 11.6436 909 113.959 82.2354 494.325
2789 0 80.0988 11.4733 919 115.188 82.7018 495.076
2790 0 83.0966 11.5528 960 114.558 82.0365 493.461
2791 0 84.0766 11.1327 936 114.929 81.5748 492.799
2792 0 86.1107 10.2891 886 115.402 82.2257 492.035
2793 0 90.1288 10.9621 988 113.162 81.5881 490.995
2794 0 92.1334 11.364 1047 113.768 81.6437 488.74
2795 0 94.1025 11.1687 1051 113.284 81.2931 486.64
2796 0 98.1551 11.2781 1107 111.27 81.2231 486.537
2797 0 100.113 11.9864 1200 109.529 80.9875 486.647
2798 0 101.06 10.8253 1094 112.995 81.0594 486.991
2799 0 106.089 10.8588 1152 112.232 81.0078 484.248
2800 0 109.071 10.6995 1167 110.823 81.5707 484.264
2801 0 113.134 11.1196 1258 110.3 80.969 482.131
2802 0 117.12 11.3473 1329 112.751 81.447 481.127
2803 0 120.16 10.9188 1312 110.399 81.1159 480.091
2804 0 120.219 12.0862 1453 117.086 80.5554 478.354
2805 0 122.155 12.1322 1482 115.796 80.2422 479.725
2806 0 124.154 12.3798 1537 116.608 81.0429 477.586
2807 1 72.0579 12.6426 911 115.712 81.7212 501.393
2808 0 76.058 13.0821 995 114.181 81.6492 498.825
2809 0 77.0752 12.4554 960 115.942 81.8094 498.702
2810 0 77.0714 12.9101 995 115.633 81.592 498.591
2811 0 84.048 12.5048 1051 116.209 81.0342 496.337
2812 0 82.0675 12.6481 1038 116.774 81.4499 495.465
2813 0 84.0351 12.7685 1073 115.343 82.2423 495.379
2814 0 88.0637 12.7067 1119 116.147 81.1743 494.173
2815 0 90.0875 12.5101 1127 117.548 81.5519 493.406
2816 0 92.0515 12.5799 1158 115.775 81.4672 493.104
2817 0 94.0384 12.58 1183 115.462 81.3474 491.077
2818 0 95.072 12.1382 1154 114.614 81.7496 490.517
2819 0 97.0527 12.6426 1227 115.148 81.0008 487.922
2820 0 101.066 12.9124 1305 114.992 81.6782 486.316
2821 0 105.062 13.0874 1375 113.095 81.1244 486.645
2822 1 56.0392 11.2778 632 109.984 81.8797 508.785
2823 0 57.0624 11.9168 680 109.168 81.3897 507.128
2824 0 59.0731 12.0359 711 107.983 81.4051 506.312
2825 0 60.0413 12.5747 755 104.583 82.2066 504.841
2826 0 62.0683 12.1157 752 115.097 81.1769 504.868
2827 0 64.0548 12.2083 782 115.017 80.344 502.835
2828 0 67.0627 12.8686 863 112.213 80.8679 501.864
2829 0 67.0597 12.213 819 116.031 81.0342 499.7
2830 0 69.041 12.7605 881 113.974 81.025 499.514
2831 0 73.0346 13.0212 951 111.757 81.7161 499.811
2832 0 75.0173 12.957 972 111.988 80.8714 498.453
2833 0 77.0425 12.7203 980 112.7 80.7276 498.29
2834 0 77.1074 12.4761 962 115.561 80.6767 495.322
2835 0 81.0575 12.8057 1038 113.186 80.6012 495.501
2836 0 84.0297 13.0787 1099 112.594 80.6906 494.473
2837 0 85.0386 12.7471 1084 114.58 80.9677 493.239
2838 0 86.0368 13.192 1135 112.433 80.7471 492.841
2839 0 88.0308 13.0409 1148 112.668 80.5967 491.171
2840 0 92.0572 13.3938 1233 111.535 81.0276 489.006
2841 0 94.0767 12.7874 1203 113.809 80.7963 486.753
2842 0 98.0626 13.1039 1285 111.089 80.0918 486.213
2843 1 51.0333 11.13 568 108.303 80.8239 510.847
2844 0 54.0179 11.5888 626 106.39 80.4473 508.901
2845 0 55.0381 11.7373 646 103.557 80.6966 507.952
2846 0 56.0248 11.9054 667 105.057 80.7316 505.351
2847 0 59.0207 12.6227 745 102.561 80.5879 506.601
2848 0 61.0432 12.958 791 102.365 80.182 505.302
2849 0 62.0204 12.6088 782 102.939 80.468 505.357
2850 0 64.0112 12.8884 825 104.013 81.3055 503.044
2851 0 66.0152 13.1636 869 104.119 80.3682 502.468
2852 0 69.0274 12.5457 866 105.626 80.5092 501.187
2853 0 72.0175 13.1079 944 103.26 80.9142 500.622
2854 0 73.0263 13.9676 1020 103.246 81.0569 500.042
2855 0 75.0365 13.2869 997 106.98 80.8736 499.31
2856 0 77.0429 13.2264 1019 107.474 80.892 498.849
2857 0 79.074 13.4937 1067 105.5 81.2099 496.839
2858 0 82.0346 13.7137 1125 105.996 81.3573 495.996
2859 0 85.0347 13.6885 1164 106.68 82.116 494.68
2860 0 85.0217 13.7024 1165 107.4 82.3442 493.446
2861 0 88.0466 14.0607 1238 107.763 82.5905 492.725
2862 0 90.0496 14.2366 1282 107.207 81.7972 491.054
2863 0 93.0396 14.1768 1319 107.188 82.3017 489.82
2864 0 94.0456 14.2697 1342 108.478 81.6118 488.078
2865 0 99.0562 14.3252 1419 111.524 82.1543 485.391
2866 0 101.08 13.9493 1410 112.396 81.3163 484.424
2867 0 103.035 13.9176 1434 112.706 81.5481 482.004
2868 0 108.076 13.509 1460 110.992 82.4767 480.624
2869 0 110.079 13.4812 1484 110.294 82.1974 478.553
2870 0 113.087 12.9811 1468 110.32 82.0225 477.294
2871 0 117.078 12.906 1511 107.689 81.6916 474.635
2872 0 121.074 13.4133 1624 107.134 81.1379 472.758
2873 1 65.0819 11.3088 736 103.171 82.0408 501.424
2874 0 68.0179 12.188 829 100.789 82.2364 499.468
2875 0 68.0221 12.0255 818 101 82.0526 498.406
2876 0 70.0339 11.0089 771 105.768 81.7704 498.659
2877 0 71.0526 11.7096 832 104.784 82.0168 498.323
2878 0 73.0353 11.871 867 104.881 81.474 498.295
2879 0 76.0261 11.5487 878 106.428 81.0137 497.593
2880 0 78.0375 11.3407 885 107.033 81.1141 496.111
2881 0 78.0963 12.1004 945 104.982 81.7534 495.899
2882 0 83.0667 11.5811 962 104.98 81.3035 494.432
2883 0 83.0769 12.1213 1007 106.341 81.7835 494.603
2884 0 86.0767 11.7453 1011 107.655 81.6904 493.731
2885 0 87.0693 11.9904 1044 108.952 81.2012 491.107
2886 0 91.0564 12.5417 1142 108.462 80.6979 492.515
2887 0 93.0722 12.2486 1140 112.255 82.0684 490.789
2888 0 94.0441 11.9731 1126 115.294 81.7327 489.445
2889 0 97.0525 12.6942 1232 115.979 81.1023 484.528
2890 0 100.061 12.8321 1284 116.586 81.2259 483.837
2891 0 103.048 12.5087 1289 114.661 81.1365 483.056
2892 0 110.064 14.3825 1583 104.627 80.6778 478.459
2893 0 110.077 13.4905 1485 116.928 80.5609 479.892
2894 0 110.052 13.3665 1471 124.141 80.1754 477.048
2895 0 110.05 13.7211 1510 132.096 80.8709 476.744
2896 1 60.0308 11.2776 677 121.264 80.8671 503.422
2897 0 59.0445 11.7369 693 122.899 80.6883 504.241
2898 0 61.0229 11.9627 730 122.271 80.7233 503.933
2899 0 62.0254 12.6884 787 119.102 80.8361 504.079
2900 0 62.0399 12.3146 764 120.247 81.1558 502.762
2901 0 66.0321 13.3723 883 115.64 81.7101 503.545
2902 0 67.0336 13.3813 897 114.756 81.398 502.127
2903 0 69.0239 12.8941 890 115.862 80.7944 499.936
2904 0 69.0347 12.979 896 115.81 80.8025 499.759
2905 0 72.0465 13.4219 967 112.828 81.1562 498.16
2906 0 73.0195 13.1472 960 113.259 80.7115 497.434
2907 0 74.0338 12.7914 947 113.504 80.812 496.566
2908 0 77.0257 13.1644 1014 113.745 80.5168 497.167
2909 0 77.111 12.8646 992 115.594 80.9133 495.858
2910 0 78.0384 13.2114 1031 122.616 82.0359 492.345
2911 0 79.0788 13.2273 1046 126.476 80.8308 491.707
2912 0 83.0882 13.5037 1122 126.988 81.3333 491.229
2913 0 84.0554 13.5506 1139 129.769 81.5988 491.399
2914 0 84.0373 13.4821 1133 131.439 81.7599 490.024
2915 0 86.0518 14.0729 1211 130.732 81.1825 489.566
2916 0 91.098 14.0837 1283 129.193 81.6173 488.399
2917 0 91.064 13.7266 1250 131.568 81.1112 486.875
2918 0 93.0716 14.0537 1308 131.473 80.9167 485.15
2919 0 97.0517 14.0028 1359 132.508 81.0883 484.593
2920 1 53.0766 10.7957 573 136.236 81.9284 505.983
2921 0 55.0488 11.2809 621 136.114 81.496 504.515
2922 0 56.1129 11.9402 670 137.109 82.1373 503.89
2923 0 57.0379 12.0972 690 138.399 81.4841 503.761
2924 0 58.0429 12.6286 733 131.707 81.2387 506.18
2925 0 60.0711 12.8182 770 135.37 82.1883 506.291
2926 0 61.0307 13.1409 802 138.65 81.7145 505.754
2927 0 62.0434 12.4913 775 143.826 81.3161 505.061
2928 0 62.0308 12.9774 805 144.683 81.4708 504.458
2929 0 64.0399 13.1949 845 149.817 81.4734 504.289
2930 0 64.0287 12.9785 831 156.493 81.71 502.567
2931 0 66.0329 13.781 910 156.96 81.4088 502.042
2932 0 67.0229 13.6371 914 158.457 81.6565 501.988
2933 0 69.0516 13.5696 937 162.069 81.7289 501.289
2934 0 71.0237 13.7841 979 160.583 82.5291 501.235
2935 0 73.0342 13.7059 1001 162.502 81.7942 500.32
2936 0 73.0268 13.8168 1009 172.545 82.11 498.975
2937 0 76.0454 14.3598 1092 170.725 81.9881 498.443
2938 0 76.0627 14.0016 1065 172.543 82.2094 498.157
2939 0 79.0362 13.8924 1098 174.367 81.918 496.25
2940 0 81.0406 14.1904 1150 173.178 81.7591 494.963
2941 0 84.0461 14.0399 1180 171.766 81.9407 495.17
2942 0 85.1147 14.6978 1251 168.281 81.5971 493.544
2943 0 86.0773 14.0688 1211 171.857 81.341 491.566
2944 0 88.0575 14.0249 1235 172.692 81.3466 491.543
2945 0 93.0938 14.3833 1339 165.772 80.9925 490.294
2946 0 95.07 13.6426 1297 166.935 81.6476 488.284
2947 0 96.0586 13.1066 1259 168.129 81.633 486.968
2948 1 53.0145 11.7515 623 163.56 82.2135 509.34
2949 0 53.0114 11.9785 635 166.808 81.6803 508.665
2950 0 54.0271 12.2901 664 168.002 81.7244 508.13
2951 0 58.095 13.0992 761 160.968 82.1209 505.03
2952 0 58.0364 12.7162 738 157.86 82.6802 506.168
2953 0 61.0102 12.8503 784 158.925 82.6352 505.051
2954 0 62.0628 13.6313 846 163.882 82.0331 503.866
2955 0 63.0364 13.627 859 162.579 82.3108 503.785
2956 0 65.0931 13.7035 892 161.198 81.4327 502.779
2957 0 67.019 13.5932 911 162.283 81.6147 501.362
2958 0 70.0236 13.5097 946 162.185 81.834 498.909
2959 0 73.1117 14.1564 1035 156.049 81.7246 497.117
2960 0 74.168 14.2649 1058 157.891 80.7684 496.274
2961 0 75.1221 13.5246 1016 160.341 81.2057 496.779
2962 0 77.0705 14.1169 1088 158.078 81.7528 495.406
2963 0 79.0567 13.8002 1091 157.51 82.3905 493
2964 0 83.1116 13.9331 1158 154.378 81.5302 492.595
2965 0 85.1351 13.9191 1185 153.594 81.2608 488.78
2966 0 89.1333 14.3942 1283 149.352 81.6009 488.438
2967 0 89.0863 13.6385 1215 151.764 81.4477 487.121
2968 0 92.0907 13.6604 1258 151.555 81.3982 485.449
2969 0 96.0806 13.7593 1322 148.788 81.354 485.656
2970 0 98.0962 13.395 1314 149.393 80.946 484.047
2971 0 100.078 13.8891 1390 146.494 81.1719 483.171
2972 1 54.0269 11.0315 596 144.945 81.8658 506.938
2973 0 57.13 10.8524 620 138.419 82.671 504.598
2974 0 60.0617 11.3716 683 136.278 81.2987 502.974
2975 0 63.0838 12.0158 758 132.533 81.8575 502.792
2976 0 63.0725 12.1447 766 134.262 82.0131 502.341
2977 0 65.0546 12.2974 800 133.858 82.085 501.749
2978 0 68.0535 12.549 854 135.548 82.2318 500.278
2979 0 71.0571 12.7503 906 134.354 82.3388 500.258
2980 0 71.0888 12.9978 924 133.116 81.6374 498.88
2981 0 73.0859 12.4648 911 134.54 82.0527 496.169
2982 0 78.1043 13.0211 1017 127.919 82.0895 494.825
2983 0 80.1224 13.1174 1051 126.353 82.3568 493.685
2984 0 82.045 13.1026 1075 126.988 82.2158 493.375
2985 0 84.0519 13.337 1121 125.494 82.2293 491.327
2986 0 86.0899 13.4394 1157 122.199 82.4598 489.196
2987 0 90.1262 13.5699 1223 119.507 82.4268 488.964
2988 0 94.1187 13.5361 1274 119.96 82.8187 485.559
2989 0 97.1036 12.9449 1257 122.29 82.8632 484.636
2990 0 98.0901 13.1716 1292 120.827 82.856 483.837
2991 0 103.101 12.9387 1334 121.369 82.3418 480.672
2992 0 107.153 13.5787 1455 118.704 82.5409 480.393
2993 0 111.169 13.5289 1504 115.973 81.8331 473.609
2994 1 61.1244 11.5993 709 113.124 82.5599 499.97
2995 0 63.1589 12.3656 781 110.581 82.3163 497.128
2996 0 67.1514 11.7198 787 112.618 82.6887 495.174
2997 0 67.1048 11.5789 777 113.366 82.7786 496.4
2998 0 70.0265 11.2957 791 113.051 81.9924 495.999
2999 0 73.0705 11.8105 863 111.681 81.4971 495.068
3000 0 74.0589 12.0715 894 111.562 82.1286 492.348
3001 0 78.0772 12.3083 961 109.954 81.8689 491.741
3002 0 78.1465 12.323 963 111.916 82.0104 490.304
3003 0 80.0916 12.211 978 111.324 82.0143 488.421
3004 0 87.0735 13.035 1135 109.671 82.7656 487.167
3005 0 88.1388 12.7072 1120 110.915 81.9321 485.148
3006 0 90.0898 12.321 1110 112.995 82.0315 485.561
3007 0 94.137 13.1723 1240 110.278 82.2282 485.875
3008 0 95.083 13.2306 1258 109.249 82.0612 485.443
3009 0 97.0613 12.6312 1226 112.303 81.5881 483.035
3010 0 99.0566 12.6291 1251 111.68 81.5364 481.644
3011 0 104.089 12.8256 1335 111.74 81.6172 480.646
3012 0 107.1 13.0812 1401 110.976 81.98 480.673
3013 0 110.149 12.9552 1427 110.377 84.007 474.266
3014 0 113.161 13.1936 1493 109.18 83.9444 466.565
3015 0 118.19 13.2668 1568 109.24 84.1512 467.621
3016 0 119.155 13.0754 1558 109.664 83.656 467.359
3017 0 124.29 13.5329 1682 108.335 83.6914 467.875
3018 0 127.207 13.3641 1700 106.773 82.4712 465.875
3019 0 131.091 13.38 1754 106.8 82.1368 463.611
3020 0 137.175 13.5666 1861 106.29 82.3643 462.455
3021 0 140.187 13.6746 1917 107.201 81.6354 458.594
3022 0 146.212 13.5694 1984 107.802 82.3755 455.606
3023 0 150.192 13.4095 2014 109.138 82.7354 453.565
3024 0 156.288 14.3517 2243 106.67 82.4454 451.322
3025 0 160.215 14.1185 2262 107.513 81.7184 450.796
3026 1 85.2171 10.3852 885 107.447 81.7774 486.04
3027 0 87.2457 11.439 998 105.923 81.7756 482.748
3028 0 92.0512 12.3084 1133 100.719 82.5269 485.085
3029 0 93.0774 11.8933 1107 102.572 83.0181 486.813
3030 0 96.041 11.7658 1130 102.259 82.4221 486.755
3031 0 100.093 12.4783 1249 101.999 82.8247 483.207
3032 0 101.09 12.5432 1268 102.096 82.9235 480.951
3033 0 106.232 11.8797 1262 100.738 83.0333 477.965
3034 0 109.165 12.2383 1336 100.918 83.0546 475.433
3035 0 112.234 13.2135 1483 105.541 81.8402 473.084
3036 0 116.212 13.4495 1563 109.701 81.865 471.3
3037 0 119.285 13.3462 1592 110.201 81.8901 468.898
3038 0 124.241 13.3611 1660 109.339 81.9849 467.299
3039 0 128.194 13.425 1721 109.814 81.903 465.987
3040 0 132.184 13.5115 1786 107.722 82.1478 465.308
3041 0 136.12 13.4881 1836 107.672 81.9156 463.992
3042 0 141.182 13.0328 1840 107.463 81.981 460.624
3043 0 145.172 13.2739 1927 106.852 81.9984 459.206
3044 0 151.189 13.8635 2096 105.286 81.6093 453.01
3045 0 156.17 13.3188 2080 104.482 82.0471 451.616
3046 0 158.181 13.1305 2077 107.443 81.2157 449.206
3047 0 162.263 13.1022 2126 107.931 81.5607 448.448
3048 0 168.222 13.7021 2305 105.242 81.6009 444.806
3049 0 172.175 13.5792 2338 106.088 81.3028 442.213
3050 0 178.298 14.1898 2530 102.978 81.6771 441.744
3051 0 183.187 13.8656 2540 105.684 81.848 440.028
3052 1 86.0842 10.7569 926 100.049 81.8877 488.479
3053 0 87.0387 11.0755 964 98.3164 82.0021 488.407
3054 0 90.0422 11.4502 1031 98.9001 82.8477 486.214
3055 0 92.0388 12.1145 1115 100.117 82.3408 487.329
3056 0 94.0937 12.6682 1192 99.2836 82.3582 484.263
3057 0 99.2035 12.9935 1289 109.132 83.1575 481.684
3058 0 99.141 12.7495 1264 111.46 82.8655 480.87
3059 0 105.181 12.8351 1350 110.807 82.7896 480.501
3060 0 104.159 12.5961 1312 114.031 82.7721 478.685
3061 0 109.136 12.599 1375 111.7 82.4727 477.858
3062 0 113.123 12.7206 1439 108.02 82.7422 476.467
3063 0 119.24 11.7578 1402 107.255 82.6505 474.093
3064 1 56.0546 10.4541 586 99.0188 83.442 503.642
3065 0 58.0531 10.5593 613 97.5677 83.4649 503.077
3066 0 59.0469 10.9405 646 99.3065 83.2322 502.446
3067 0 61.0972 11.8827 726 103.026 83.0028 496.752
3068 0 62.0845 11.0978 689 104.116 81.9187 496.906
3069 0 65.0462 11.4534 745 103.446 83.3154 497.711
3070 0 67.0384 11.113 745 109.454 83.6658 494.995
3071 0 68.03 11.5684 787 109.429 82.9301 494.043
3072 0 70.0609 11.0618 775 112.126 81.2839 493.368
3073 0 71.0441 11.514 818 112.037 81.3668 492.375
3074 0 71.0275 11.2914 802 113.738 80.9439 491.474
3075 0 74.0527 12.1265 898 112.987 81.5223 491.168
3076 0 76.013 12.09 919 113.835 81.9173 490.634
3077 0 77.0636 12.1977 940 113.034 82.2308 490.005
3078 0 81.0658 12.2863 996 116.35 81.5984 488.342
3079 0 82.0402 12.2257 1003 117.759 81.3809 486.841
3080 0 84.0402 12.8986 1084 116.986 81.095 486.351
3081 0 84.0289 12.3053 1034 121.259 81.1422 485.366
3082 0 89.0532 13.1494 1171 116.849 81.1529 485.361
3083 0 89.1106 12.8941 1149 116.8 82.1828 483.95
3084 0 89.0638 12.7886 1139 118.558 81.7831 483.723
3085 0 93.187 12.2013 1137 111.12 82.3826 481.432
3086 0 96.1902 12.5688 1209 110.912 83.1795 482.866
3087 0 99.2354 13.4428 1334 109.367 82.0907 478.511
3088 0 100.086 13.6183 1363 117.073 82.7381 478.138
3089 0 104.096 12.9496 1348 118.386 82.7745 475.866
3090 0 106.253 12.9126 1372 118.053 82.4905 474.265
3091 0 109.127 13.8096 1507 115.349 82.0843 473.127
3092 0 113.125 13.3834 1514 114.766 82.5476 471.528
3093 0 115.095 13.5192 1556 112.122 81.5533 467.594
3094 0 118.149 13.3645 1579 113.327 81.9056 467.393
3095 0 121.089 13.1969 1598 115.94 81.7509 464.998
3096 1 68.1068 10.9681 747 118.696 83.2597 490.739
3097 0 72.2252 11.6718 843 115.02 82.9537 491.852
3098 0 71.0986 11.7583 836 115.807 82.0813 488.609
3099 0 74.0354 12.3725 916 110.217 81.7926 491.938
3100 0 74.0385 12.5475 929 109.959 82.1163 489.955
3101 0 78.0455 12.7362 994 107.353 81.3722 488.55
3102 0 80.0485 12.6174 1010 107.317 81.6931 488.772
3103 0 82.0361 12.5311 1028 108.94 81.9475 487.335
3104 0 83.0782 12.422 1032 109.667 81.5349 484.057
3105 0 84.0722 12.6677 1065 109.132 81.7484 483.172
3106 0 87.0545 12.5668 1094 109.967 81.7285 481.467
3107 0 91.1308 12.8716 1173 108.605 82.4459 480.393
3108 0 92.0986 13.2684 1222 108.254 82.6268 479.746
3109 0 94.1295 12.674 1193 110.055 82.2422 473.806
3110 0 99.0931 12.8667 1275 112.289 82.1812 473.311
3111 0 103.117 13.2762 1369 109.232 82.2462 474.391
3112 0 104.168 13.3534 1391 110.803 81.6643 471.297
3113 0 106.137 12.9173 1371 113.592 82.2604 470.705
3114 0 110.16 13.4441 1481 111.683 82.7353 469.229
3115 0 113.223 13.6191 1542 112.053 82.3223 468.143
3116 0 116.196 13.0556 1517 115.637 82.2762 465.798
3117 0 120.219 13.6501 1641 114.329 82.6264 463.098
3118 0 122.215 13.5826 1660 115.638 81.6416 460.718
3119 0 126.192 13.3051 1679 116.594 81.9166 460.208
3120 0 130.165 13.4829 1755 115.489 81.955 459.36
3121 0 137.18 13.8723 1903 113.131 81.5381 455.772
3122 0 138.118 13.0975 1809 115.046 81.7076 456.475
3123 0 142.1 13.1738 1872 114.8 81.8771 454.603
3124 0 149.114 13.1242 1957 114.965 81.7358 450.296
3125 0 156.161 13.9087 2172 116.194 81.5843 445.804
3126 0 161.132 12.6915 2045 118.725 82.424 449.13
3127 0 166.083 12.6563 2102 120.342 81.9734 446.162
3128 0 174.225 13.3677 2329 117.437 81.5504 444.186
3129 1 89.0916 12.4703 1111 118.151 81.8101 486.908
3130 0 93.1197 12.9403 1205 118.388 82.249 486.167
3131 0 94.0774 12.7129 1196 118.887 81.857 485.609
3132 0 96.0862 12.3951 1191 120 81.4408 484.681
3133 0 101.038 13.0644 1320 117.726 80.9871 482.293
3134 0 101.066 12.3583 1249 120.728 81.1569 481.295
3135 0 104.074 12.4911 1300 120.349 81.2723 479.252
3136 0 108.138 12.4101 1342 119.01 81.7914 478.026
3137 0 109.11 12.7302 1389 118.943 82.1757 474.752
3138 0 113.115 12.6067 1426 119.585 81.1907 474.485
3139 0 114.103 12.2784 1401 121.257 81.4711 474.675
3140 0 117.13 12.3879 1451 121.18 81.4431 471.338
3141 0 120.077 12.4336 1493 119.732 81.58 471.889
3142 0 122.081 12.7292 1554 121.308 81.4028 468.332
3143 0 127.103 12.5174 1591 120.307 81.4161 465.568
3144 0 131.134 12.8342 1683 118.126 80.6756 464.725
3145 0 133.129 12.8221 1707 119.607 81.2953 463.286
3146 0 138.12 12.8584 1776 119.898 81.7545 461.031
3147 0 142.133 12.3054 1749 122.061 81.3676 458.136
3148 0 145.128 12.6165 1831 122.353 81.5292 456.564
3149 0 149.133 12.3514 1842 123.333 82.266 454.563
3150 0 156.091 12.6465 1974 122.881 81.7097 453.197
3151 0 161.11 13.0408 2101 121.953 81.7982 449.263
3152 0 163.115 12.531 2044 127.218 81.8332 446.349
3153 0 171.13 13.2297 2264 124.295 81.6612 443.537
3154 0 175.081 13.2167 2314 125.547 80.7442 442.35
3155 0 181.13 12.9851 2352 127.77 81.9005 438.734
3156 0 186.074 12.7852 2379 127.077 81.8302 436.247
3157 0 192.189 12.7322 2447 127.382 80.9546 433.315
3158 0 199.115 13.098 2608 125.51 82.2005 430.313
3159 1 212.112 11.4562 2430 128.097 82.7148 433.188
3160 1 153.157 11.6025 1777 130.278 82.3528 449.336
3161 0 157.136 12.3078 1934 130.981 81.8423 447.543
3162 0 163.096 13.1947 2152 127.61 81.7128 447.208
3163 0 167.136 12.8997 2156 123.822 81.6558 446.869
3164 0 171.072 12.4743 2134 124.643 82.0562 446.21
3165 0 175.194 11.6728 2045 125.451 81.2914 444.813
3166 0 180.111 12.3591 2226 125.46 81.8603 441.93
3167 0 185.163 12.8967 2388 125.296 81.755 439.921
3168 0 190.157 12.7947 2433 125.734 81.598 436.328
3169 0 196.221 13.2402 2598 124.234 81.5177 433.839
3170 0 200.216 13.006 2604 126.95 81.8406 434.834
3171 0 206.186 13.2307 2728 126.838 81.3842 428.987
3172 0 212.257 12.5367 2661 128.077 81.0364 427.286
3173 0 218.282 12.7267 2778 128.269 81.1901 423.446
3174 0 227.234 12.8018 2909 128.629 81.7552 419.095
3175 0 232.357 12.4851 2901 125.405 81.6367 415.822
3176 0 241.382 12.2586 2959 124.429 81.4823 415.132
3177 0 247.339 12.2827 3038 125.325 81.8265 407.294
3178 0 253.315 11.9574 3029 126.422 81.4566 404.483
3179 0 261.336 12.1453 3174 124.059 81.1903 399.489
3180 0 269.329 11.666 3142 123.378 82.0242 400.192
3181 1 74.0917 10.2711 761 111.332 82.887 494.52
3182 0 80.1331 10.1207 811 110.891 82.8335 491.676
3183 0 79.0526 9.79095 774 111.293 83.2145 491.655
3184 0 83.1224 10.0093 832 111.268 83.22 489.465
3185 0 83.1183 9.90154 823 112.492 82.6209 487.473
3186 0 86.0959 10.3373 890 109.122 82.6944 488.478
3187 0 87.0951 10.1383 883 108.419 83.3952 488.22
3188 0 89.1137 10.0995 900 107.594 82.4789 486.853
3189 0 89.0248 9.86242 878 108.051 82.0706 486.388
3190 0 93.1925 10.0652 938 106.19 81.9083 484.742
3191 0 91.0873 9.58421 873 106.814 82.2486 480.184
3192 0 94.0782 8.79056 827 107.492 81.5816 478.823
3193 0 99.1579 8.52176 845 106.199 81.8166 479.101
3194 0 101.141 7.81087 790 100.409 82.1203 479.252
3195 0 102.159 9.08388 928 104.419 82.2166 477.912
3196 0 100.191 9.2723 929 105.591 81.8149 477.023
3197 0 109.211 9.56863 1045 103.035 82.7675 478.588
3198 0 110.174 9.31255 1026 105.08 82.9347 472.627
3199 0 108.288 8.62517 934 106.603 82.6178 471.92
3200 0 112.232 8.49132 953 105.874 82.0902 468.575
3201 0 116.091 8.20904 953 105.376 82.1805 471.445
3202 0 119.149 8.75371 1043 104.291 81.9597 467.261
3203 0 120.314 8.4446 1016 104.875 82.0217 465.771
3204 0 124.234 8.58061 1066 103.196 82.4231 469.581
3205 0 126.236 8.64254 1091 102.526 82.2722 468.06
3206 0 131.162 8.85929 1162 101.495 81.3571 465.732
3207 0 133.222 9.01503 1201 100.415 81.95 466.559
3208 0 134.198 8.39807 1127 101.3 81.4889 465.744
3209 0 137.156 9.01165 1236 100.03 82.3811 460.298
3210 0 141.213 9.54588 1348 98.7263 81.8583 459.513
3211 0 146.301 9.54199 1396 96.5036 81.7249 459.882
3212 0 151.431 9.60171 1454 95.89 81.2875 456.086
3213 0 155.351 9.49462 1475 95.0888 82.6597 455.693
3214 0 164.255 10.2158 1678 93.1353 81.9958 454.483
3215 1 125.229 10.7004 1340 89.5291 81.7127 469.131
3216 0 127.15 10.4051 1323 91.3326 81.873 467.206
3217 0 130.143 11.0186 1434 91.0112 81.5021 464.151
3218 0 136.133 11.452 1559 88.3143 81.925 463.022
3219 0 139.123 9.62454 1339 94.9485 81.4929 461.161
3220 0 143.109 9.66399 1383 94.1504 81.8597 460.911
3221 0 145.227 9.44727 1372 95.4242 81.8688 457.848
3222 0 151.177 9.9949 1511 94.3084 81.7399 457.066
3223 0 153.166 9.4081 1441 96.4198 81.5344 456.29
3224 0 158.219 9.42996 1492 96.6904 81.7466 452.727
3225 1 59.0482 10.0426 593 84.4401 81.7268 498.931
3226 0 60.0788 9.87036 593 85.6863 82.4317 497.669
3227 0 63.062 9.91088 625 85.0848 82.5328 496.195
3228 0 62.0265 9.0284 560 87.7232 82.1161 497.625
3229 0 65.0302 10.1645 661 86.9985 82.5522 494.762
3230 0 69.0227 10.0981 697 86.9082 82.7145 495.753
3231 0 69.0427 9.48688 655 89.4076 81.8992 494.034
3232 0 71.1244 10.0106 712 90.5449 82.0829 492.14
3233 0 75.0321 11.0753 831 88.6426 82.219 492.061
3234 0 78.0574 11.1328 869 89.4948 81.2313 491.194
3235 0 79.0781 10.6351 841 92.7765 82.1796 491.592
3236 0 83.0215 11.8764 986 90.2809 82.4655 490.964
3237 0 86.0309 11.8446 1019 92.3366 82.5829 488.336
3238 0 89.0702 11.9119 1061 93.6484 82.524 489.112
3239 0 90.0699 11.5133 1037 96.7994 82.4166 487.577
3240 0 91.048 11.5763 1054 97.4677 82.0361 487.694
3241 0 93.056 11.348 1056 99.374 82.1354 486.116
3242 0 97.0697 12.2695 1191 98.3543 82.3392 484.438
3243 0 103.06 10.0718 1038 102.365 82.7996 485.801
3244 0 104.086 11.7595 1224 101.398 82.2794 483.148
3245 0 102.072 11.7857 1203 102.107 82.2485 482.649
3246 0 107.066 11.8338 1267 104.249 82.1807 479.704
3247 0 111.068 11.8666 1318 104.225 81.7709 476.703
3248 0 112.137 11.1114 1246 107.14 82.5474 475.067
3249 0 115.049 11.5864 1333 107.533 82.4051 474.066
3250 0 120.079 11.4091 1370 108.086 81.992 473.212
3251 0 124.084 12.2901 1525 108.281 82.0557 470.999
3252 1 69.0323 11.1397 769 111.234 82.4226 495.434
3253 0 74.0303 12.7921 947 107.025 82.3865 495.171
3254 0 75.0346 12.2344 918 108.293 81.9346 494.219
3255 0 77.072 12.2872 947 108.463 82.3369 492.34
3256 0 79.0898 11.8094 934 110.895 82.6916 489.032
3257 0 79.0758 11.3941 901 111.714 82.2131 488.56
3258 0 85.155 12.0839 1029 109.386 82.7162 487.477
3259 0 87.0754 12.5409 1092 108.362 82.3095 486.658
3260 0 90.1238 12.738 1148 108.091 82.5009 484.373
3261 0 91.0884 11.7688 1072 111.73 82.6399 483.509
3262 0 91.1383 11.6526 1062 112.112 82.1243 480.752
3263 0 94.1699 12.1058 1140 111.247 81.9509 480.546
3264 0 100.11 12.0367 1205 109.857 82.19 483.432
3265 0 103.187 12.7923 1320 109.742 82.6871 480.35
3266 0 106.115 12.5996 1337 110.543 82.3613 479.976
3267 0 109.153 13.2383 1445 109.14 82.3682 477.743
3268 0 113.196 12.5358 1419 109.018 81.3319 477.158
3269 0 118.162 12.9314 1528 107.994 82.1217 475.029
3270 0 122.11 12.8655 1571 106.66 82.8962 473.43
3271 0 125.135 12.4346 1556 106.832 82.1761 472.045
3272 0 128.144 11.7993 1512 106.376 81.8505 471.069
3273 1 68.0845 11.427 778 99.2146 82.3766 495.423
3274 0 71.0544 11.4842 816 97.8064 82.5882 495.585
3275 0 73.0531 12.0323 879 97.0353 82.4608 495.137
3276 0 76.0763 11.8697 903 106.168 82.2758 491.976
3277 0 78.1132 11.9954 937 105.321 82.3212 490.669
3278 0 82.1066 12.2524 1006 104.598 81.9712 489.252
3279 0 84.0887 12.249 1030 104.173 82.2631 488.849
3280 0 86.1086 12.1242 1044 102.478 82.7232 487.104
3281 0 89.1342 12.5541 1119 100.886 82.9884 486.061
3282 0 92.2229 11.9276 1100 101.666 83.17 484.672
3283 0 93.1691 11.5489 1076 102.094 82.9814 482.979
3284 0 95.2053 12.0792 1150 101.257 82.4035 483.111
3285 0 99.1457 12.88 1277 99.3211 81.8128 481.032
3286 0 100.234 12.3411 1237 101.389 81.861 479.361
3287 0 103.144 12.0608 1244 101.842 82.4244 479.76
3288 0 105.126 12.5944 1324 102.11 82.0272 476.86
3289 0 107.156 12.1505 1302 103.945 82.1075 475.462
3290 0 113.131 12.4635 1410 101.319 82.1035 475.41
3291 0 115.132 12.2815 1414 101.897 81.9264 471.093
3292 0 118.163 12.5082 1478 102.601 81.6556 469.518
3293 0 122.093 12.0646 1473 103.846 81.5078 466.732
3294 0 128.235 12.6564 1623 102.044 81.7517 466.513
3295 0 132.133 12.7372 1683 103.02 82.1895 464.053
3296 1 76.1163 11.6401 886 95.377 82.0858 494.682
3297 0 79.0883 11.8728 939 95.6965 82.2215 494.187
3298 0 81.0687 12.9273 1048 97.9361 82.6202 492.1
3299 0 83.0796 12.4218 1032 105.014 82.5669 490.782
3300 0 85.0879 11.6585 992 107.661 82.3579 488.258
3301 0 88.1584 12.0465 1062 105.967 82.9774 489.434
3302 0 90.093 12.1985 1099 105.573 82.636 486.765
3303 0 93.1289 11.9297 1111 107.856 82.7165 484.626
3304 0 96.2161 11.8587 1141 109.042 82.3278 482.463
3305 0 99.1069 11.7348 1163 111.817 82.8598 482.332
3306 0 103.149 12.2056 1259 111.029 82.5218 481.222
3307 0 107.153 12.9161 1384 109.454 82.5108 480.83
3308 0 109.122 12.179 1329 112.691 82.3258 475.885
3309 0 112.112 12.6392 1417 113.692 81.837 476.86
3310 1 204.255 12.5333 2560 117.413 81.4512 434.157
3311 0 208.337 12.7149 2649 118.504 82.1797 429.636
3312 0 208.249 10.5787 2203 122.73 82.2506 438.474
3313 1 63.047 11.3566 716 113.191 82.5182 500.158
3314 0 65.0264 11.7952 767 113.33 82.7236 499.308
3315 0 67.101 11.9074 799 113.537 82.1652 499.252
3316 0 69.0419 11.9203 823 116.013 81.9198 495.927
3317 0 72.0349 12.7716 920 116.313 82.2696 496.697
3318 0 76.0775 12.277 934 116.306 82.5889 496.658
3319 0 77.0341 12.3322 950 116.921 82.399 495.217
3320 0 79.1095 12.3373 976 115.324 82.5604 494.724
3321 0 82.0557 12.589 1033 114.632 83.0871 493.102
3322 0 85.0637 12.7904 1088 113.36 82.5202 492.431
3323 0 88.0842 12.6924 1118 114.602 82.2048 489.832
3324 0 87.0273 13.3062 1158 113.838 82.1373 488.17
3325 0 92.0969 13.16 1212 115.31 81.9752 484.686
3326 0 95.0703 13.064 1242 115.06 82.7101 486.08
3327 0 97.0674 12.8776 1250 117.274 83.0384 483.894
3328 0 99.0898 13.2102 1309 115.631 82.838 483.672
3329 0 102.064 13.5993 1388 115.28 82.9467 483.662
3330 0 104.112 12.8611 1339 118.078 82.3846 482.567
3331 0 108.09 13.1465 1421 117.975 82.1027 479.938
3332 0 111.091 13.5205 1502 117.943 82.1079 479.69
3333 1 219.196 13.1617 2885 119.09 81.9938 429.757
3334 1 115.146 13.1919 1519 118.599 82.5273 476.841
3335 1 63.0335 11.8508 747 118.762 82.2972 499
3336 0 65.0431 12.1458 790 117.83 82.6949 499.463
3337 0 68.0566 12.7982 871 117.685 82.9633 497.173
3338 0 70.0549 12.8899 903 119.147 82.6412 495.895
3339 0 70.0406 12.5784 881 124.15 82.2406 495.787
3340 0 75.0749 12.7739 959 122.353 82.8811 495.34
3341 0 77.0967 13.3209 1027 122.033 82.7887 494.22
3342 0 79.106 12.9194 1022 124.286 82.498 492.069
3343 0 81.05 12.955 1050 125.916 82.3838 488.838
3344 0 82.0971 12.4608 1023 128.526 82.1476 490.371
3345 0 85.0406 12.9468 1101 126.613 82.3751 489.924
3346 0 87.1159 12.3973 1080 129.244 82.3268 487.655
3347 0 90.0773 12.3561 1113 130.445 82.832 485.499
3348 0 92.0922 12.8241 1181 129.142 82.5673 484.832
3349 0 95.1054 12.9751 1234 130.141 81.9733 483.259
3350 0 99.11 13.0057 1289 129.431 81.9728 481.971
3351 1 52.0269 11.6478 606 128.55 82.0792 505.815
3352 0 52.0498 12.3536 643 126.902 82.7667 504.462
3353 0 55.0255 12.4488 685 126.67 82.0964 505.099
3354 0 57.0691 12.5812 718 130.948 81.9443 503.205
3355 0 57.0435 13.0076 742 132.259 82.4178 501.764
3356 0 59.0654 12.5624 742 134.055 81.7763 501.125
3357 0 60.059 12.4877 750 134.893 82.104 500.179
3358 0 61.1295 12.6126 771 136.438 82.2348 499.371
3359 0 62.1312 12.6667 787 135.93 82.479 499.49
3360 0 65.1686 12.9203 842 136.55 82.5059 497.733
3361 0 67.1296 13.3473 896 133.331 82.1998 496.759
3362 0 68.1491 13.2944 906 134.476 82.3333 497.481
3363 0 72.1965 13.491 974 132.953 81.7834 494.977
3364 0 75.1627 13.2113 993 133.601 81.4985 494.749
3365 0 74.2624 13.4254 997 134.905 82.2859 493.379
3366 0 76.1251 13.11 998 136.34 82.3888 491.846
3367 0 78.0923 13.1767 1029 132.902 82.4315 492.55
3368 0 80.2736 13.4042 1076 131.589 82.0223 491.417
3369 0 85.2506 13.0439 1112 129.717 82.3642 489.443
3370 0 86.1004 13.2868 1144 129.155 82.5166 487.124
3371 0 88.0799 13.4083 1181 129.922 82.6122 486.18
3372 0 91.0576 13.5519 1234 127.22 82.9935 484.305
3373 0 94.0949 13.2419 1246 127.667 82.2624 484.668
3374 0 97.1887 13.7259 1334 124.928 81.8238 482.076
3375 0 99.0816 13.8674 1374 123.878 82.3042 480.697
3376 0 102.063 13.4819 1376 124.275 81.4346 479.541
3377 0 106.118 13.9467 1480 122.555 81.727 477.188
3378 0 106.125 12.9847 1378 126.837 82.0806 472.278
3379 0 109.062 13.066 1425 126.859 82.2996 471.043
3380 0 112.076 12.6789 1421 126.67 81.7368 466.746
3381 0 117.047 13.5757 1589 123.193 82.4733 465.672
3382 0 119.086 13.1166 1562 124.861 82.2791 464.808
3383 0 124.151 13.1694 1635 123.523 81.852 460.667
3384 0 126.091 13.1889 1663 125.461 81.0812 455.007
3385 0 131.07 12.6421 1657 127.138 82.0869 453.339
3386 0 137.095 13.6037 1865 123.325 82.3013 453.314
3387 0 140.118 13.7099 1921 124.298 82.1353 450.145
3388 0 143.101 13.2494 1896 126.046 81.0116 446.667
3389 0 147.108 13.0992 1927 127.632 81.2532 445.434
3390 0 153.116 14.2898 2188 124.195 81.3487 447.449
3391 0 161.081 14.7379 2374 121.638 81.8951 446.638
3392 0 166.132 14.6691 2437 123.236 81.3845 442.924
3393 0 171.234 15.1839 2600 122.175 81.4219 441.372
3394 0 176.163 15.4459 2721 124.269 81.2242 440.006
3395 0 180.131 14.9169 2687 128.146 81.0201 435.938
3396 0 186.143 15.3538 2858 127.635 80.8125 432.437
3397 0 192.18 15.3242 2945 128.806 81.1647 430.872
3398 1 132.084 12.6132 1666 141.373 81.1128 460.03
3399 0 136.076 13.6835 1862 140.292 81.6144 456.544
3400 0 141.115 13.7618 1942 139.866 82.0958 455.407
3401 0 145.129 13.7326 1993 139.623 81.2855 455.169
3402 0 150.103 13.2776 1993 143.42 81.29 450.785
3403 0 156.169 13.4341 2098 142.556 81.5844 448.679
3404 0 160.232 13.624 2183 143.246 81.7696 448.125
3405 0 164.236 13.1579 2161 145.857 81.8218 444.813
3406 0 170.215 13.2539 2256 146.351 81.4827 440.692
3407 0 174.175 13.6816 2383 144.94 81.6311 440.123
3408 0 179.27 13.0976 2348 149.199 81.129 436.377
3409 0 183.293 13.6885 2509 147.12 81.5066 433.454
3410 0 187.297 13.3264 2496 149.972 81.0136 432.623
3411 0 190.403 12.9987 2475 152.632 81.6582 428.108
3412 0 195.327 13.4032 2618 153.434 80.9438 427.291
3413 0 201.343 13.3206 2682 154.306 80.3591 423.202
3414 0 206.345 13.2158 2727 154.356 80.5009 420.636
3415 0 211.301 13.5494 2863 154.972 80.7545 418.588
3416 0 217.313 13.1285 2853 156.373 80.8156 415.903
3417 0 223.3 13.502 3015 154.77 80.7615 413.577
3418 0 229.233 13.8898 3184 155.377 80.3332 407.142
3419 0 236.258 13.244 3129 157.818 80.3206 402.514
3420 0 242.322 12.9786 3145 161.54 80.1199 396.117
3421 0 250.326 13.2188 3309 160.657 80.0284 395.178
3422 0 257.295 13.2805 3417 160.756 79.6921 389.843
3423 0 264.359 13.9886 3698 162.628 80.2309 390.904
3424 0 270.319 14.3941 3891 163.713 80.0581 387.564
3425 0 279.355 14.0681 3930 165.368 79.9392 382.78
3426 0 287.332 14.1787 4074 167.165 79.7587 379.253
3427 0 292.444 14.3173 4187 170.53 79.5983 373.931
3428 0 303.524 14.2164 4315 169.369 79.375 368.304
3429 0 312.652 14.5465 4548 170.069 79.1308 363.662
3430 0 320.605 14.7346 4724 169.268 79.0485 357.594
3431 0 330.952 14.6305 4842 170.007 79.3067 355.548
3432 0 337.951 14.5731 4925 172.122 79.4071 347.708
3433 0 346.953 14.2699 4951 175.296 79.5581 341.987
3434 0 354.072 14.7936 5238 174.606 79.7278 343.519
3435 0 362.36 14.4663 5242 177.655 79.186 337.482
3436 1 139.283 9.38377 1307 140.312 80.365 464.101
3437 0 141.338 10.0964 1427 140.463 80.787 462.706
3438 0 142.183 9.93786 1413 145.938 80.5541 459.418
3439 0 146.287 10.4999 1536 145.126 80.377 454.77
3440 0 151.283 10.3713 1569 147.453 80.4691 454.528
3441 0 155.457 9.99632 1554 148.629 80.8282 452.862
3442 0 156.344 10.7391 1679 147.677 80.511 451.663
3443 0 162.443 10.5822 1719 148.671 80.6201 446.905
3444 0 162.441 9.06174 1472 149.659 80.8376 451.751
3445 0 165.353 9.68834 1602 151.848 81.7416 448.937
3446 0 168.316 9.59507 1615 152.479 80.8638 448.565
3447 0 173.388 10.1103 1753 151.38 81.2362 448.905
3448 1 133.252 9.83848 1311 149.491 81.2166 464.632
3449 0 137.249 10.2004 1400 152.329 81.0736 464.04
3450 0 140.387 10.0152 1406 152.834 81.6053 463.958
3451 0 144.254 10.9945 1586 150.275 82.1589 461.566
3452 0 147.235 10.6361 1566 150.906 81.0447 460.05
3453 0 151.34 10.5326 1594 152.656 81.0402 458.767
3454 0 157.288 10.6111 1669 151.282 81.3493 456.466
3455 0 160.285 10.5188 1686 151.883 81.6097 454.179
3456 0 167.241 10.4819 1753 150.123 81.3531 450.171
3457 0 175.355 10.6926 1875 147.947 80.7264 448.045
3458 0 176.333 10.9112 1924 148.63 81.2817 447.236
3459 0 180.403 10.7038 1931 151.735 81.146 445.139
3460 0 187.372 10.9568 2053 149.01 80.1797 441.094
3461 0 191.43 11.0589 2117 148.606 81.0057 439.451
3462 0 195.374 10.8868 2127 149.128 81.1439 435.085
3463 0 202.426 10.4927 2124 149.492 80.9821 435.805
3464 0 209.512 9.88488 2071 151.829 81.4051 434.371
3465 0 215.372 10.8603 2339 148.539 81.2133 431.635
3466 1 284.71 11.6856 3327 151.128 80.5756 396.056
3467 0 293.788 10.7016 3144 156.93 80.6628 395.401
3468 0 299.679 11.0084 3299 155.929 80.5656 395.001
3469 0 305.831 11.5848 3543 155.577 80.8321 388.747
3470 0 417.865 14.9355 6241 147.122 80.0157 314.588
3471 0 426.98 14.5183 6199 149.623 80.407 313.14
3472 0 435.845 15.4803 6747 146.791 80.2371 304.938
3473 0 434.071 15.6265 6783 147.036 80.5268 303.103
3474 0 436.192 15.2868 6668 149.076 81.4195 304.651
3475 0 259.682 11.0289 2864 166.044 81.4162 407.575
3476 0 266.56 11.1945 2984 163.866 81.7034 405.952
3477 0 272.636 10.9853 2995 165.358 80.377 404.173
3478 0 280.561 11.3594 3187 161.873 81.1271 396.874
3479 0 286.637 11.5896 3322 159.232 81.717 395.526
3480 0 290.732 11.1408 3239 162.472 81.3396 393.49
3481 0 297.647 11.601 3453 159.703 81.8022 387.47
3482 0 304.662 11.347 3457 159.557 81.4863 389.192
3483 0 309.722 11.3909 3528 161.209 81.4433 385.814
3484 0 317.67 11.1468 3541 161.422 81.6213 382.13
3485 0 325.782 11.8637 3865 159.01 81.7361 378.072
3486 0 328.863 11.6736 3839 163.631 81.7877 371.42
3487 1 147.167 10.2061 1502 168.069 82.506 456.035
3488 0 150.228 10.2444 1539 169.17 82.399 457.667
3489 0 151.218 10.4088 1574 169.738 82.3107 454.482
3490 0 151.192 10.3246 1561 170.818 82.0833 453.053
3491 0 153.225 10.031 1537 173.405 82.2245 451.514
3492 0 156.211 10.2553 1602 171.644 81.9994 452.155
3493 0 156.184 10.8333 1692 168.845 82.5195 451.461
3494 0 156.227 10.7536 1680 171.09 82.3066 448.967
3495 0 158.188 11.0565 1749 172.295 82.8725 448.706
3496 0 164.163 11.0561 1815 168.301 82.3868 448.218
3497 0 160.335 11.0456 1771 173.561 82.419 448.372
3498 0 159.426 11.2528 1794 171.645 82.2146 449.973
3499 1 216.335 11.8566 2565 178.03 81.6885 421.744
3500 1 353.777 13.4068 4743 161.376 81.1921 359.9
3501 0 356.772 12.8654 4590 164.664 82.2976 356.716
3502 0 363.837 12.8767 4685 164.562 81.4886 356.276
3503 0 404.619 14.0132 5670 153.262 80.8617 333.541
3504 0 403.35 13.735 5540 154.911 81.0693 334.479
