time division length width area intensity CMx CMy
0 0 48.0298 13.6582 656 127.509 242.276 498.61
1 0 50.0113 13.9169 696 125.095 242.988 497.853
2 0 50.0225 13.434 672 127.141 242.595 498.9
3 0 53.0401 13.3861 710 125.521 242.39 498.268
4 0 53.0203 13.7683 730 122.888 243.056 498.622
5 0 55.063 13.8569 763 121.788 242.914 497.406
6 0 57.0328 13.0451 744 124.026 242.657 497.728
7 0 59.0296 13.6881 808 121.91 243.057 496.327
8 0 59.0316 13.8739 819 121.498 243.208 496.568
9 0 62.0781 14.1435 878 121.801 243.068 495.432
10 0 64.0493 14.1454 906 121.055 241.981 493.78
11 0 66.0468 13.7176 906 122.368 242.737 492.578
12 0 66.0658 14.3039 945 121.26 242.502 492.8
13 0 68.1194 14.6214 996 119.829 241.492 491.698
14 0 72.028 14.5638 1049 118.782 242.146 489.036
15 0 74.0766 14.4175 1068 119.581 241.712 489.181
16 0 77.0593 14.9755 1154 117.362 242.61 489.589
17 0 80.0494 14.0913 1128 120.72 241.906 485.455
18 0 81.0602 14.4461 1171 120.812 242.465 486.26
19 0 85.0932 14.772 1257 118.733 241.706 483.838
20 0 87.0776 14.9981 1306 119.566 241.562 482.664
21 0 90.0758 14.4434 1301 120.198 240.594 481.419
22 0 93.1013 15.0374 1400 117.561 241.495 480.733
23 0 96.1021 15.265 1467 116.132 241.138 479.433
24 0 97.0985 14.7685 1434 117.809 241.121 480.672
25 0 102.204 15.2636 1560 113.712 241.373 478.911
26 0 105.073 14.6184 1536 114.605 241.033 476.994
27 0 110.023 14.7878 1627 109.339 240.786 476.302
28 1 59.0496 12.498 738 114.425 241.287 500.159
29 0 59.0187 13.0975 773 116.395 240.647 498.867
30 0 64.0201 13.527 866 113.637 241.14 498.208
31 0 65.0739 13.7382 894 107.011 241.214 498.597
32 0 68.0294 12.8915 877 108.423 240.579 497.921
33 0 70.071 13.6861 959 106.617 240.616 495.639
34 0 72.0456 13.9773 1007 105.178 240.526 494.521
35 0 74.0414 13.8301 1024 105.195 240.983 493.332
36 0 78.1063 13.52 1056 105.155 239.794 491.414
37 0 81.0501 14.3862 1166 102.983 240.276 488.937
38 0 84.0712 13.8335 1163 104.455 239.941 486.408
39 0 86.0726 13.6164 1172 104.601 240.206 485.777
40 0 88.0704 13.8866 1223 104.904 240.171 484.101
41 0 91.1091 14.1259 1287 103.256 239.796 481.734
42 0 95.1087 14.1312 1344 102.897 239.853 479.891
43 0 100.083 14.8377 1485 101.79 239.405 478.348
44 0 103.051 14.585 1503 101.201 239.411 476.288
45 0 106.087 14.6106 1550 99.8697 239.531 474.865
46 0 110.198 14.4921 1597 98.8165 239.297 473.446
47 1 54.0235 12.3465 667 92.982 239.715 500.337
48 0 58.0606 12.3836 719 92.8957 240.063 499.63
49 0 60.056 12.8214 770 89.5662 240.677 498.438
50 0 60.0681 13.0852 786 91.4847 239.91 496.12
51 0 61.0142 12.5217 764 93.1911 240.562 498.582
52 0 64.073 12.4701 799 95.8686 240.239 495.615
53 0 66.0525 12.6566 836 95.9641 239.84 495.47
54 0 69.0678 13.0741 903 95.3344 239.744 492.85
55 0 71.0279 12.3895 880 96.4455 240.349 492.26
56 0 74.0604 13.1784 976 96.1557 240.254 489.591
57 0 76.0757 13.6312 1037 96.5911 239.999 486.881
58 0 79.0668 13.6088 1076 101.009 240.402 487.241
59 0 79.0987 12.3896 980 104.059 240.317 486.702
60 0 83.0389 13.4636 1118 101.209 239.718 483.723
61 0 85.0717 12.7304 1083 102.776 239.981 483.636
62 0 89.0399 13.6343 1214 99.7949 240.69 481.865
63 0 91.0851 13.2953 1211 100.935 240.142 480.48
64 0 94.134 13.109 1234 100.758 240.493 480.425
65 0 96.0529 12.6493 1215 100.854 240.236 479.28
66 0 99.0401 12.8029 1268 99.3494 240.236 477.685
67 0 102.073 12.6381 1290 101.002 239.955 477.143
68 1 60.0944 11.848 712 93.0801 239.492 498.577
69 0 60.1371 11.7897 709 93.1552 239.614 497.965
70 0 64.1735 12.4974 802 90.9289 240.208 496.443
71 0 65.1056 11.9037 775 92.3677 240.31 495.956
72 0 66.1082 12.5098 827 89.8912 239.959 493.271
73 0 68.1072 12.5978 858 89.0874 240.197 491.344
74 0 71.0671 12.5374 891 89.7969 240.061 491.814
75 0 71.1277 12.8361 913 88.8018 240.368 490.472
76 0 76.119 12.9403 985 87.4508 240.19 488.802
77 0 77.2341 12.5981 973 89.1901 239.776 487.257
78 0 79.1476 12.5715 995 90.1588 240.191 485.717
79 0 81.1428 12.3116 999 92.3724 239.33 486.203
80 0 83.1151 12.7414 1059 92.6468 240.263 484.384
81 0 86.1325 13.0264 1122 94.1025 240.619 483.202
82 0 89.0692 13.5513 1207 92.1864 240.402 482.521
83 0 91.1271 13.4208 1223 92.027 240.202 480.925
84 0 94.0768 13.2977 1251 91.8473 240.421 478.981
85 0 97.1227 13.0556 1268 91.2263 240.23 478.68
86 0 100.104 13.3062 1332 90.7117 239.752 475.821
87 0 103.109 12.8214 1322 90.1974 240.476 473.486
88 0 105.073 12.9434 1360 90.4537 240.42 471.884
89 0 110.137 13.0292 1435 88.7547 240.053 469.627
90 0 113.13 12.773 1445 88.465 240.233 468.54
91 0 114.117 12.6975 1449 89.1063 240.037 466.908
92 0 119.127 13.2296 1576 88.2367 240.236 464.306
93 0 124.115 14.2287 1766 85.3245 239.713 463.955
94 0 128.088 13.803 1768 86.31 240.41 462.048
95 0 131.154 13.2211 1734 87.7462 239.302 460.403
96 0 135.095 13.6349 1842 87.4615 239.74 458.011
97 0 140.084 14.1772 1986 87.0952 238.642 457.294
98 0 144.125 14.3417 2067 86.9144 239.494 455.347
99 0 147.1 13.7933 2029 89.2193 238.747 453.011
100 0 153.144 13.7257 2102 88.2721 239.216 451.375
101 0 158.181 13.6426 2158 90.779 239.352 446.955
102 0 164.084 13.6515 2240 90.8152 238.524 444.275
103 0 169.146 13.7751 2330 90.2481 238.726 443.92
104 0 175.118 14.3389 2511 88.812 239.198 440.392
105 0 181.176 13.8539 2510 89.3211 239.294 434.14
106 0 186.28 13.4368 2503 92.1282 239.034 430.811
107 0 193.161 13.8123 2668 92.3523 238.49 429.421
108 0 198.268 13.7945 2735 94.0369 238.794 426.491
109 0 206.251 14.0557 2899 94.8144 238.58 423.095
110 0 213.351 14.2582 3042 96.3044 238.75 419.688
111 1 145.198 12.0938 1756 97.7568 239.707 455.574
112 0 152.213 13.3629 2034 98.3776 239.002 452.69
113 0 157.089 12.4261 1952 88.2992 239.242 451.21
114 0 161.082 12.3353 1987 89.1605 239.194 448.248
115 0 165.159 12.3578 2041 89.2298 239.205 446.432
116 0 172.12 12.6133 2171 89.4362 239.316 442.349
117 0 178.082 13.067 2327 88.6648 238.947 438.899
118 0 184.155 14.0806 2593 96.2206 238.918 433.351
119 0 190.264 13.681 2603 96.6104 239.778 429.567
120 0 194.184 13.1988 2563 95.888 238.867 428.988
121 0 200.296 13.2654 2657 94.6236 238.525 425.037
122 1 158.137 12.5967 1992 94.131 239.263 447.46
123 0 166.181 13.4251 2231 93.6347 239.287 443.019
124 0 171.16 13.5254 2315 95.0626 239.691 440.807
125 0 176.107 13.1454 2315 95.8695 238.837 439.922
126 0 182.15 13.4175 2444 96.2344 238.233 434.449
127 0 189.174 13.8232 2615 95.7514 238.018 432.234
128 0 195.101 13.3725 2609 96.4642 238.381 429.663
129 0 203.091 13.2502 2691 95.9182 237.823 426.469
130 0 210.101 13.3126 2797 96.3607 237.388 420.526
131 0 219.171 13.3777 2932 94.8861 237.287 418.072
132 0 225.205 13.0015 2928 95.9836 237.442 414.519
133 1 165.152 11.7347 1938 91.0614 237.796 447.616
134 0 170.166 12.4584 2120 92.3123 238.105 443.373
135 0 176.068 12.7678 2248 89.8505 238.114 438.94
136 0 182.112 13.8266 2518 88.0095 238.197 436.651
137 0 190.274 13.0075 2475 89.2154 237.92 432.617
138 0 195.181 13.0546 2548 88.9298 237.346 431.482
139 0 200.131 13.1664 2635 90.2937 237.586 427.735
140 0 202.126 12.5219 2531 93.0288 237.384 423.88
141 0 211.176 13.6 2872 90.616 236.818 422.137
142 0 217.171 12.8747 2796 93.0948 237.459 418.098
143 0 224.142 13.5004 3026 91.2918 237.371 417.058
144 0 230.175 13.4419 3094 91.2612 237.79 412.316
145 0 236.196 13.1628 3109 92.2142 237.748 409.586
146 0 246.28 13.7364 3383 89.9252 238.21 404.983
147 0 254.265 13.3168 3386 90.1527 237.639 399.628
148 0 265.327 15.5129 4116 86.0428 237.05 390.978
149 0 273.372 14.1273 3862 89.775 237.899 389.911
150 1 216.184 12.1008 2616 89.7129 237.977 420.913
151 0 221.238 12.9679 2869 87.0512 237.692 414.278
152 0 226.229 12.8808 2914 86.8301 236.897 409.183
153 1 67.092 10.2099 685 74.127 237.241 494.197
154 0 71.0459 10.0358 713 74.777 236.822 492.652
155 0 74.0931 10.0009 741 74.579 237.417 492.935
156 0 76.0842 10.0678 766 76.9778 237.119 491.845
157 0 80.0911 10.6753 855 75.2152 237.596 488.863
158 0 79.0421 10.0453 794 77.437 237.758 489.228
159 0 81.0338 9.92178 804 77.352 237.233 486.152
160 0 85.0694 9.87429 840 77.8131 237.736 486.994
161 0 87.064 10.2338 891 78.3154 237.612 482.92
162 0 91.0895 9.82551 895 78.3017 238.739 484.847
163 0 91.0381 10.1935 928 79.9935 238.502 480.548
164 0 97.047 11.0668 1074 78.1248 238.258 478.872
165 0 98.1436 10.2197 1003 78.5683 238.635 477.476
166 0 100.213 10.2083 1023 80.0411 238.33 475.432
167 0 106.061 11.5877 1229 77.4784 238.041 473.149
168 1 59.0347 9.18104 542 77.3155 239.352 496.696
169 0 63.0183 10.3462 652 74.7975 239.799 495.584
170 0 63.0338 10.8513 684 74.4196 240.051 495.56
171 0 66.0363 10.4942 693 73.8802 239.745 495.302
172 0 66.1323 10.9326 723 72.816 240.444 493.759
173 0 64.1329 10.0728 646 77.7074 240.882 493.584
174 0 65.0504 9.70017 631 80.5975 240.089 492.87
175 0 65.0503 9.62333 626 82.7013 239.573 492.335
176 0 68.1007 9.54469 650 82.9646 240.215 491.846
177 0 72.1057 10.651 768 80.2318 239.546 491.411
178 0 73.1034 10.6151 776 79.8067 239.838 489.215
179 0 73.1026 9.73973 712 81.3497 240.243 489.587
180 0 75.0886 10.1747 764 81.5183 240.704 487.369
181 0 78.1397 11.0187 861 79.4321 240.455 488.584
182 0 82.1241 11.3 928 79.5657 240.749 484.903
183 0 84.1161 11.5673 973 79.3864 240.185 480.298
184 0 84.122 10.6869 899 82.4638 240.007 481.345
185 0 87.1586 10.7964 941 83.0648 240.001 480.651
186 0 90.1156 10.9082 983 82.6012 240.097 481.005
187 0 95.084 11.8527 1127 79.4889 239.765 479.292
188 1 51.0363 10.424 532 79.7481 241.167 500.517
189 0 51.0751 10.2594 524 78.4752 241.24 498.576
190 0 53.0409 10.6144 563 77.7247 241.069 496.865
191 0 54.0193 10.3296 558 75.0108 240.376 495.959
192 0 51.0314 9.87627 504 73.2024 240.022 490.659
193 0 53.0867 9.4939 504 71.2262 237.212 492.526
194 0 54.1647 9.30496 504 67.0754 238.514 494.823
195 0 56.1328 8.88964 499 67.6914 238.725 494.677
196 0 57.0525 10.6919 610 74.6754 239.469 500.111
197 0 58.0758 10.624 617 74.5867 239.201 499.075
198 0 60.0941 10.4336 627 74.11 239.455 498.659
199 0 62.098 10.6606 662 74.8792 238.733 496.828
200 0 62.1301 11.3793 707 74.2843 238.884 497.603
201 0 67.0853 11.2991 758 72.3892 238.97 496.334
202 0 68.06 11.1813 761 92.5138 238.774 493.69
203 0 72.1572 11.2948 815 93.1472 238.279 492.087
204 0 74.138 11.7214 869 91.153 238.186 492.052
205 0 76.1016 12.0497 917 91.2192 238.413 490.9
206 0 79.0386 12.0574 953 90.0178 238.927 489.384
207 0 83.0422 13.0777 1086 87.8932 238.175 487.377
208 0 84.0353 11.8046 992 90.1109 238.711 489.004
209 0 86.0417 12.2731 1056 90.3428 237.436 485.237
210 0 90.1121 12.9949 1171 88.0598 238.288 484.547
211 0 91.0358 12.6763 1154 89.4237 237.474 482.73
212 0 95.1027 12.681 1206 88.903 237.561 482.137
213 0 98.119 12.6275 1239 96.8935 237.773 480.069
214 0 102.116 12.4564 1272 104.55 237.111 478.667
215 0 106.091 12.7815 1356 102.212 237.302 476.28
216 0 107.098 13.0908 1402 102.899 237.696 475.215
217 0 111.151 12.6945 1411 102.481 237.97 473.173
218 0 114.142 12.8086 1462 101.3 238.055 471.639
219 0 118.146 13.2717 1568 98.0938 237.575 470.423
220 0 121.333 12.3627 1500 100.807 236.955 467.275
221 0 124.253 12.3538 1535 100.504 236.958 465.716
222 0 129.199 12.4691 1611 98.7865 236.965 463.326
223 0 131.237 12.2907 1613 96.8184 237.295 460.263
224 0 136.228 12.4497 1696 97.6309 237.506 461.08
225 1 75.1081 11.8363 889 102.175 238.252 489.276
226 0 75.1548 12.0285 904 101.313 238.1 488.702
227 0 78.1287 12.1722 951 101.185 237.872 485.488
228 0 80.1957 12.8685 1032 99.0291 237.8 484.043
229 0 84.0852 12.3327 1037 102.192 237.652 485.038
230 0 87.1158 12.6039 1098 101.455 238.493 484.73
231 0 90.1094 13.1618 1186 99.328 237.345 483.091
232 0 92.08 13.2276 1218 100.906 237.488 482.392
233 0 94.1895 12.4218 1170 104.635 237.368 480.978
234 0 97.1272 12.5917 1223 105.255 237.201 477.919
235 0 100.158 12.2906 1231 106.361 237.361 479.232
236 0 102.17 12.8511 1313 106.699 237.195 474.447
237 0 105.157 12.1723 1280 109.341 236.953 475.248
238 0 109.188 12.483 1363 108.03 236.094 473.271
239 0 112.225 12.7423 1430 107.891 236.398 471.904
240 0 118.343 12.9623 1534 107.344 236.308 468.74
241 0 121.322 12.6111 1530 106.992 236.562 468.171
242 0 124.27 13.028 1619 107.245 235.931 465.002
243 0 127.303 12.8356 1634 106.113 235.83 463.61
244 1 57.1279 10.7478 614 101.024 236.331 499.191
245 0 58.134 11.6283 676 105.117 236.457 496.398
246 0 60.1562 11.5034 692 106.312 236.376 495.587
247 0 60.1874 11.4974 692 106.997 237.517 497.262
248 0 64.237 11.6133 746 105.979 237.408 496.343
249 0 66.3097 11.6122 770 108.183 236.645 495.022
250 0 66.1822 12.2994 814 106.903 237.23 493.939
251 0 68.0758 12.1923 830 108.887 237.377 492.853
252 0 68.1492 10.4477 712 94.6152 237.226 495.353
253 0 69.125 10.7631 744 91.8414 237.44 493.46
254 0 73.0632 11.8254 864 89.3148 237.209 493.505
255 0 74.144 11.7069 868 91.4424 238.236 492.424
256 0 77.1209 11.4236 881 94.1646 236.935 493.026
257 0 80.0941 12.1732 975 91.4554 237.743 490.102
258 0 81.1584 12.26 995 92.3437 238.195 490.686
259 0 84.1636 12.0836 1017 95.884 237.772 488.087
260 0 88.2186 12.2763 1083 98.819 237.397 486.848
261 0 88.1945 12.325 1087 99.6495 237.764 485.575
262 0 91.21 12.3122 1123 99.9341 237.653 483.842
263 0 97.1847 12.3785 1203 99.6392 237.339 482.268
264 0 100.142 12.2725 1229 101.402 237.013 480.226
265 1 50.1689 10.7836 541 99.6174 238.068 504.566
266 0 51.1461 10.9295 559 102.669 237.705 503.691
267 0 55.1468 11.2609 621 99.0193 237.485 502.989
268 0 55.0922 11.7076 645 98.0543 237.361 501.707
269 0 57.0404 11.4831 655 99.8168 236.901 501.026
270 0 59.0201 11.7418 693 99.2035 236.965 501.851
271 0 62.0348 11.9127 739 98.2057 236.398 500.786
272 0 62.0554 11.812 733 97.4707 236.424 498.719
273 0 64.0178 12.106 775 98.1639 236.714 498.825
274 0 64.0543 12.0991 775 98.2864 236.855 497.37
275 0 67.1015 12.6376 848 96.8243 236.483 496.618
276 0 68.0608 12.386 843 98.6489 236.187 496.401
277 0 69.057 11.9756 827 100.739 236.66 494.653
278 0 74.0695 12.6773 939 97.2172 236.984 493.89
279 0 75.0679 12.6419 949 94.0875 236.991 491.829
280 0 77.0605 12.4448 959 95.755 237.706 492.469
281 0 80.105 11.9593 958 96.6524 237.877 489.516
282 0 82.1152 12.2267 1004 97.3108 237.494 488.568
283 0 86.1362 12.3641 1065 97.7822 237.706 487.453
284 0 87.0761 11.4383 996 99.744 237.738 487.506
285 0 89.0623 11.9242 1062 100.259 237.763 486.383
286 0 91.0767 11.7044 1066 101.005 237.767 484.522
287 0 95.0953 12.0406 1145 102.305 237.525 482.289
288 0 99.1111 12.0471 1194 102.072 236.58 481.263
289 0 101.164 11.5654 1170 103.992 236.647 480.091
290 1 53.0784 10.9272 580 101.026 237.936 502.767
291 0 54.0712 10.8191 585 103.762 237.766 503.838
292 0 54.1145 11.143 603 102.421 237.405 501.575
293 0 58.1934 11.3071 658 98.1474 237.679 498.132
294 0 56.0278 11.6549 653 96.3507 236.314 500.041
295 0 57.1134 10.5755 604 99.548 235.824 501.422
296 0 61.056 10.7934 659 98.0121 235.871 500.375
297 0 63.0739 11.5262 727 95.3962 235.634 499.586
298 0 65.0738 12.0017 781 93.4674 236.613 497.848
299 0 65.0826 11.9079 775 93.7032 236.417 498.31
300 0 68.0489 11.8591 807 93.4709 235.943 497.276
301 0 71.0414 11.9226 847 91.9788 236.667 495.107
302 0 71.0878 11.7179 833 92.8019 236.672 494.589
303 0 74.0298 11.4684 849 92.3333 236.934 493.731
304 0 76.081 12.0267 915 90.7344 237.529 491.754
305 0 80.127 12.2181 979 88.7283 237.521 490.524
306 0 81.0988 12.2936 997 92.1575 237.25 489.247
307 0 85.0704 13.3066 1132 90.7844 236.945 488.053
308 0 88.0748 13.1139 1155 92.1766 237.003 486.629
309 0 91.0812 12.7139 1158 101.905 236.765 487.366
310 0 95.1791 12.5027 1190 101.528 236.845 485.121
311 0 95.0871 12.1678 1157 104.211 237.486 484.695
312 0 99.0372 12.874 1275 102.638 237.082 483.039
313 0 102.036 12.4662 1272 103.809 237.013 481.068
314 0 105.055 12.917 1357 101.67 237.284 481.007
315 0 109.142 13.9268 1520 98.4434 236.884 479.238
316 0 111.086 13.17 1463 101.087 237.001 476.623
317 1 58.0398 11.7678 683 90.9283 237.493 503.543
318 0 60.0271 11.778 707 89.2433 237.31 504.956
319 0 59.0363 12.0096 709 89.6192 236.731 503.735
320 0 63.0448 12.3563 779 86.76 236.924 504.232
321 0 65.0973 12.4275 809 85.6539 237.582 501.878
322 0 65.1361 12.5737 819 86.0208 237.112 500.724
323 0 66.1384 12.5192 828 87.7415 236.964 500.513
324 0 69.0619 12.4526 860 86.9488 236.555 500.102
325 0 72.0512 12.3523 890 88.9034 236.14 499.092
326 0 74.0244 12.8066 948 88.1772 235.984 499.181
327 0 75.0534 12.5644 943 90.7147 235.823 496.529
328 0 78.0851 12.9602 1012 90.5968 235.647 496.517
329 0 80.0422 13.4429 1076 90.0307 235.817 494.7
330 0 84.1385 12.8598 1082 92.2514 235.853 494.352
331 0 84.0416 11.9584 1005 100.592 235.719 489.001
332 0 88.0632 12.1277 1068 99.044 235.151 487.042
333 0 89.0331 11.5463 1028 101.845 235.409 485.413
334 0 91.0279 12.0183 1094 101.622 235.053 484.558
335 0 95.067 12.0652 1147 103.215 234.953 483.445
336 0 97.0592 11.8897 1154 103.973 235.464 480.547
337 0 103.11 12.4721 1286 100.488 235.139 479.812
338 0 107.065 12.6932 1359 98.4518 234.954 479.706
339 0 109.09 12.3935 1352 100.252 234.855 476.93
340 0 113.06 12.2059 1380 100.877 234.559 476.314
341 0 117.08 12.4531 1458 101.497 234.586 473.322
342 1 63.0486 10.9122 688 91.8983 235.247 502.641
343 0 65.0426 10.7622 700 93.3443 234.677 500.826
344 0 64.0806 10.8457 695 95.1626 234.498 499.942
345 0 67.0945 11.998 805 92.6584 234.107 501.544
346 0 70.0822 12.0145 842 92.8729 233.669 498.538
347 0 71.0934 12.1249 862 94.094 233.71 497.635
348 0 75.0829 12.1998 916 94.988 232.921 495.981
349 0 77.1147 12.6565 976 95.5533 233.303 495.766
350 0 79.1021 12.2753 971 97.0391 233.954 494.7
351 0 82.0999 12.6309 1037 98.2912 233.261 493.755
352 0 84.1031 11.9377 1004 102.668 232.683 491.823
353 0 86.1237 12.2034 1051 103.335 233.083 490.264
354 0 90.125 12.2829 1107 103.547 232.815 488.916
355 0 92.139 12.3726 1140 103.221 233.261 487.982
356 0 95.2315 12.6009 1200 104.268 233.166 486.649
357 0 96.1592 12.5001 1202 105.526 233.666 483.737
358 0 101.256 13.0461 1321 104.634 234.618 483.155
359 0 103.327 12.5233 1294 106.242 234.319 481.963
360 0 104.238 12.5961 1313 106.05 234.077 479.468
361 0 108.243 11.6867 1265 107.057 233.785 479.828
362 0 111.169 12.3416 1372 104.62 233.698 476.622
363 0 115.198 12.4742 1437 100.969 234.443 475
364 0 120.23 13.574 1632 98.9332 234.439 473.123
365 0 124.242 12.9827 1613 99.7229 234.426 471.557
366 0 127.253 12.6912 1615 101.25 233.578 469.431
367 0 132.2 13.2829 1756 99.0279 234.593 468.057
368 0 136.387 12.5232 1708 99.3167 234.338 464.88
369 0 139.34 12.4874 1740 99.8908 235.02 464.901
370 0 145.289 13.4904 1960 98.0694 234.758 459.288
371 0 148.238 12.6418 1874 99.1254 234.987 458.256
372 0 152.213 12.7322 1938 100.57 234.545 455.863
373 0 158.363 12.9071 2044 101.084 234.047 453.554
374 0 163.325 13.2252 2160 100.834 234.446 451.112
375 0 164.307 12.5497 2062 105.249 234.691 448.538
376 0 172.307 13.0813 2254 102.253 234.736 445.812
377 0 178.303 13.3985 2389 102.397 234.931 443.148
378 0 182.508 12.9145 2357 104.675 234.602 438.974
379 0 189.376 14.062 2663 100.696 234.933 438.156
380 0 193.339 13.2823 2568 104.193 234.858 432.559
381 0 199.376 13.9385 2779 102.151 234.538 431.424
382 0 205.515 14.2958 2938 100.938 234.571 426.589
383 1 155.281 12.3454 1917 103.309 235.103 454.091
384 0 159.176 13.2181 2104 101.581 235.104 451.726
385 0 165.297 13.4182 2218 99.9053 235.082 448.073
386 1 60.1427 10.7578 647 88.898 236.181 500.584
387 0 62.2148 11.2031 697 87.3429 236.479 499.33
388 0 65.1242 11.7314 764 87.0877 236.69 498.565
389 0 68.0916 12.116 825 88.0667 236.4 497.878
390 0 71.2395 11.6508 830 91.1157 235.799 495.146
391 0 73.1324 11.9373 873 89.6208 235.97 494.51
392 0 73.195 11.0117 806 93.1476 236.231 492.032
393 0 78.3374 11.91 933 91.149 236.86 490.597
394 0 80.2836 11.7708 945 89.8095 236.733 488.595
395 0 82.3296 11.0288 908 91.4174 236.86 487.178
396 0 85.2464 11.1207 948 90.2046 236.86 485.558
397 0 88.2721 11.7251 1035 87.5662 236.85 484.386
398 0 90.3218 11.4258 1032 87.5814 236.96 483.798
399 0 95.2346 11.3614 1082 86.281 237.3 482.841
400 0 96.2172 11.6091 1117 86.316 237.175 480.6
401 0 101.198 11.5121 1165 86.7253 237.018 477.407
402 0 106.215 11.7969 1253 85.6512 236.069 477.304
403 0 107.262 11.9707 1284 87.6495 236.146 474.446
404 0 112.304 12.012 1349 87.513 236.317 473.761
405 1 60.2211 10.4615 630 84.8587 236.741 498.287
406 0 61.1895 10.0017 612 85.2745 236.306 498.608
407 0 64.2139 10.7609 691 85.453 236.79 496.919
408 0 67.1592 11.8673 797 81.5031 236.994 496.277
409 0 69.0927 12.2878 849 81.967 236.677 498.016
410 0 73.2001 11.9262 873 83.2062 236.184 494.875
411 0 75.1161 11.9149 895 84.9128 235.741 493.713
412 0 76.1142 12.3761 942 86.5212 236.566 493.59
413 0 79.032 12.6025 996 86.4046 236.021 490.545
414 0 81.1522 12.6183 1024 86.4141 236.333 488.477
415 0 84.2137 12.0527 1015 88.2798 236.222 485.676
416 0 87.2896 12.132 1059 88.6081 236.813 485.418
417 0 90.3185 12.3895 1119 87.9178 236.72 483.691
418 0 91.2135 12.6845 1157 88.3431 236.449 482.113
419 0 97.2227 12.9394 1258 87.4316 235.985 480.982
420 0 99.3331 12.6947 1261 88.6606 236.172 480.529
421 0 101.315 13.4531 1363 88.2465 236.216 479.578
422 0 103.283 13.3808 1382 90.0564 236.011 478.579
423 0 105.328 13.738 1447 90.1458 236.273 475.709
424 0 108.295 13.1493 1424 92.7956 235.046 474.034
425 0 114.237 13.6033 1554 91.4356 235.868 474.01
426 0 116.197 13.4771 1566 92.0473 236.025 472.255
427 0 118.212 14.271 1687 91.2175 236.203 469.795
428 0 122.206 13.7718 1683 93.3321 235.856 467.706
429 0 126.191 14.0423 1772 92.7207 235.88 467.086
430 0 129.159 13.9053 1796 92.3914 235.68 464.934
431 0 135.253 14.3361 1939 91.4018 234.407 458.706
432 0 138.33 14.2268 1968 91.5076 234.114 456.222
433 0 143.244 14.5626 2086 90.0197 234.674 454.308
434 0 147.386 14.2483 2100 92.6519 235.009 452.339
435 0 151.195 13.8959 2101 93.6578 235.071 448.458
436 0 156.287 14.5374 2272 91.6166 234.518 447.04
437 0 160.266 14.3199 2295 92.1115 234.669 445.959
438 0 167.37 14.3455 2401 90.5056 234.684 443.041
439 0 172.316 14.3921 2480 90.8605 234.675 439.833
440 0 179.353 14.7641 2648 90.5 233.741 437.135
441 0 184.528 14.3284 2644 91.6029 234.345 434.654
442 0 189.414 14.1436 2679 92.4957 234.531 431.862
443 0 196.491 14.3111 2812 92.5814 234.175 426.807
444 0 205.468 14.8782 3057 90.9202 234.332 426.044
445 0 211.522 14.7692 3124 91.388 234.602 420.259
446 0 217.467 14.8621 3232 92.4338 235.077 418.123
447 0 224.428 14.4233 3237 93.5579 234.729 411.478
448 0 233.612 15.0677 3520 92.9173 234.324 407.532
449 1 61.3702 10.8848 668 84.4236 235.951 496.807
450 0 61.2643 11.1321 682 83.4238 235.674 497.299
451 0 62.0963 10.1133 628 80.1131 236.162 501.225
452 0 63.1747 10.5264 665 79.9248 236.435 498.973
453 0 66.2057 10.6335 704 81.196 235.855 497.189
454 0 69.1498 11.3956 788 79.8693 236.693 495.89
455 0 71.0917 11.4359 813 80.3875 236.025 496.547
456 0 73.0863 11.6711 853 82.2052 236.421 494.288
457 0 77.0901 11.7265 904 81.8418 236.393 493.712
458 0 78.1058 11.7021 914 86.7954 236.334 491.569
459 0 82.0758 11.7209 962 89.6549 236.451 489.952
460 0 84.1184 11.8523 997 88.8857 236.325 489.183
461 0 85.4335 12.2551 1047 90.7135 236.938 484.478
462 1 45.276 9.78442 443 83.614 237.034 506.749
463 0 48.2156 10.1834 491 83.7638 236.835 506.047
464 0 50.0894 10.7208 537 82.5084 237.026 506.933
465 0 49.0804 10.2281 502 87.5757 236.93 506.745
466 0 52.1749 10.7523 561 87.1586 236.563 506.41
467 0 54.1718 10.9097 591 87.89 236.212 505.108
468 0 54.1169 10.8099 585 88.6701 235.485 504.537
469 0 57.0621 10.9179 623 89.2745 235.873 502.547
470 0 57.0546 11.305 645 89.6744 236.453 502.569
471 0 58.126 11.0794 644 92.2671 235.696 501.731
472 0 59.1403 10.7203 634 92.6388 235.804 501.524
473 0 63.066 11.6227 733 91.251 235.827 500.786
474 0 65.1446 11.9273 777 90.9202 235.849 499.445
475 0 65.1391 11.7594 766 95.5627 235.18 497.717
476 0 68.1098 11.9073 811 95.2367 235.09 497.965
477 0 70.122 12.464 874 95.2048 234.684 496.542
478 0 72.0718 12.1962 879 96.8316 235.281 495.033
479 0 74.1264 12.2898 911 96 235.125 494.968
480 0 75.2562 12.3711 931 97.9205 234.276 487.68
481 1 39.129 11.1682 437 96.286 234.984 506.096
482 0 40.1074 11.4692 460 95.3196 235.089 506.357
483 0 41.0986 11.0466 454 95.8502 234.379 506.194
484 0 43.1034 10.9504 472 95.8347 234.07 505.267
485 0 44.0869 10.2752 453 97.8676 234.636 503.799
486 0 47.2836 11.2724 533 94.0188 234.495 503.925
487 0 46.2206 10.8177 500 95.518 234.976 502.698
488 0 48.2103 11.3046 545 93.5321 234.297 502.372
489 0 50.1243 10.7333 538 92.223 234.556 501.368
490 0 50.1945 11.4554 575 91.8644 234.155 501.762
491 0 52.221 10.9152 570 92.4193 234.796 500.437
492 0 54.286 11.7341 637 90.8713 234.724 499.634
493 0 55.2302 11.787 651 91.725 235.329 501.544
494 0 58.0994 12.1516 706 94.4533 234.935 501.521
495 0 58.0995 12.3409 717 96.378 235.015 502.558
496 0 58.1299 13.2118 768 93.72 234.173 497.618
497 0 61.3566 12.8267 787 95.5184 234.196 497.067
498 0 62.1466 12.7762 794 97.2809 234.194 495.885
499 0 66.26 13.2056 875 95.5474 234.195 495.219
500 0 65.1578 13.0453 850 97.3294 234.101 495.456
501 0 67.231 12.3604 831 100.344 234.159 493.615
502 0 71.1926 12.8103 912 98.3026 233.993 492.746
503 0 73.3139 12.6033 924 98.5411 234.287 492.453
504 0 74.2536 13.1576 977 96.8813 234.566 490.709
505 0 76.3142 13.1168 1001 96.6454 234.258 489.867
506 0 80.3034 13.5735 1090 96.3954 234.277 488.872
507 0 80.2868 13.5888 1091 98.1714 233.962 488.907
508 0 83.2545 14.1854 1181 98.4589 234.011 488.359
509 0 86.2185 14.3357 1236 98.682 234.082 485.341
510 0 88.2521 13.9374 1230 101.809 233.982 484.106
511 0 90.3402 14.3347 1295 101.409 234.606 484.485
512 0 95.2637 14.1292 1346 102.424 234.04 482.425
513 0 98.2263 14.5379 1428 101.795 234.34 480.638
514 0 100.214 13.2017 1323 106.219 233.916 481.92
515 0 103.229 13.1262 1355 107.669 234.616 478.994
516 0 106.254 13.5524 1440 106.164 233.933 476.606
517 0 105.145 14.6749 1543 103.238 233.325 477.463
518 0 113.168 13.6169 1541 103.99 233.526 475.371
519 0 116.247 13.4713 1566 105.587 233.881 472.678
520 1 60.236 12.8495 774 105.267 233.669 499.439
521 0 64.1941 13.3346 856 102.329 233.415 497.582
522 0 66.1288 12.8386 849 104.185 233.245 496.899
523 0 68.2264 13.6457 931 102.699 233.635 495.03
524 0 72.2122 13.3911 967 101.818 233.438 493.731
525 0 73.1367 13.5089 988 101.755 233.538 492.523
526 0 75.2213 13.4935 1015 103.98 233.098 491.248
527 0 78.0977 13.5343 1057 103.35 232.946 491.132
528 0 83.1126 13.596 1130 102.119 232.928 487.92
529 0 86.1891 14.0505 1211 100.816 233.595 488.038
530 0 86.1178 13.7834 1187 101.005 232.516 487.742
531 0 89.1365 13.4962 1203 101.669 232.672 485.101
532 0 94.302 13.478 1271 100.256 233.209 484.334
533 0 97.1309 14.0635 1366 99.1347 232.673 483.201
534 0 99.1614 13.473 1336 100.456 232.002 482.43
535 0 101.187 13.8852 1405 99.4747 232.54 480.582
536 0 103.207 13.6715 1411 100.819 232.736 479.186
537 0 109.198 13.5351 1478 100.046 232.64 477.679
538 0 111.229 13.6924 1523 100.657 233.236 475.523
539 0 114.193 13.5034 1542 100.028 233.296 474.196
540 0 119.451 14.3322 1712 99.1431 233.538 472.414
541 0 124.329 14.0434 1746 99.4914 233.717 469.719
542 0 128.284 14.273 1831 97.9814 232.797 467.196
543 1 66.1242 12.1438 803 96.0672 232.831 498.902
544 0 70.3161 12.2874 864 95.3565 232.478 497.243
545 0 74.2342 13.0802 971 94.1349 232.849 495.197
546 0 76.1405 13.6064 1036 92.7297 232.437 493.677
547 0 77.182 12.9046 996 96.7269 233.173 492.991
548 0 79.1908 13.1202 1039 96.4755 232.966 492.121
549 0 83.1726 13.5141 1124 95.516 233.194 490.142
550 0 84.1578 12.9043 1086 96.7265 233.393 489.068
551 0 88.2135 13.1953 1164 94.5198 233.399 487.438
552 0 89.1078 13.2424 1180 95.0458 233.208 486.523
553 0 93.1185 13.3701 1245 94.449 232.913 483.68
554 0 95.1783 13.8162 1315 93.8555 232.795 483.598
555 0 99.2473 13.4815 1338 94.5045 232.759 482.823
556 0 101.179 13.481 1364 95.1378 232.776 480.595
557 0 105.337 14.0881 1484 93.8733 232.898 479.451
558 0 109.359 14.0088 1532 94.6691 232.699 477.7
559 0 112.181 14.1825 1591 95.3966 233.065 476.599
560 0 115.252 13.631 1571 98.1139 233.071 472.797
561 0 120.194 13.9441 1676 97.0907 233.362 472.26
562 0 122.277 13.7557 1682 101.521 233.401 469.926
563 0 127.292 13.2452 1686 103.413 233.079 468.526
564 0 131.324 13.6609 1794 102.868 232.329 466.922
565 0 135.302 14.124 1911 103.449 233 464.854
566 0 140.178 13.7112 1922 106.57 232.935 462.013
567 0 145.225 13.7373 1995 108.123 233.002 460.575
568 0 150.208 14.3201 2151 107.692 233.504 456.622
569 0 153.278 13.531 2074 111.18 233.762 453.922
570 0 161.315 14.1524 2283 108.479 233.854 452.569
571 0 167.347 14.5148 2429 108.462 232.836 450.725
572 0 172.231 14.6664 2526 107.993 233.635 447.367
573 1 93.1505 12.41 1156 104.972 234.096 486.788
574 0 96.3746 12.9598 1249 104.616 233.524 485.078
575 0 100.212 13.3417 1337 105.015 233.413 483.388
576 0 101.241 13.374 1354 106.178 233.284 481.89
577 0 104.329 13.3616 1394 106.272 232.788 481.471
578 0 108.259 13.5786 1470 109.692 232.857 478.686
579 0 112.245 14.0318 1575 108.361 232.133 476.674
580 0 115.322 13.7094 1581 108.915 232.601 475.376
581 0 120.216 13.8001 1659 108.397 232.581 473.244
582 0 123.188 13.6296 1679 111.159 232.649 471.795
583 0 127.322 13.674 1741 108.019 231.998 471.77
584 0 130.325 13.0443 1700 111.629 232.551 468.745
585 1 77.0728 12.3779 954 107.458 232.041 496.224
586 0 80.336 13.1697 1058 107.263 232.78 493.54
587 0 82.169 13.7156 1127 106.051 232.019 493.385
588 0 87.1877 13.7863 1202 104.715 231.801 491.804
589 0 88.322 13.4847 1191 106.845 232.917 490.302
590 0 92.2955 14.1719 1308 104.397 232.766 488.704
591 0 96.3362 13.6086 1311 106.677 231.699 487.244
592 0 97.3953 13.82 1346 109.731 231.863 485.643
593 0 101.281 13.734 1391 110.335 231.586 486.185
594 0 104.218 14.4313 1504 108.751 232.268 484.021
595 0 108.267 14.2241 1540 109.597 232.012 480.027
596 0 111.384 14.275 1590 109.329 231.903 479.272
597 0 113.353 13.2594 1503 109.834 232.302 480.406
598 0 117.173 13.4844 1580 110.379 232.29 477.715
599 1 62.2247 13.3227 829 109.241 231.932 503.817
600 0 63.2044 13.1478 831 110.007 232.267 503.077
601 0 65.1648 13.0745 852 111.803 232.424 501.788
602 0 68.195 13.3294 909 109.85 232.276 500.888
603 0 71.1694 13.3906 953 109.611 232.248 498.891
604 0 72.2278 13.8036 997 109.537 232.409 497.559
605 0 74.1936 13.2896 986 111.126 231.958 496.958
606 0 76.2072 13.2927 1013 110.944 232.019 496.192
607 0 77.2445 12.9589 1001 113.103 232.378 495.546
608 0 83.1663 14.1884 1180 107.744 231.849 493.509
609 0 85.2775 13.931 1188 110.481 231.637 491.21
610 0 86.1879 13.7722 1187 111.249 231.818 491.3
611 0 88.231 13.8273 1220 111.973 232.101 490.32
612 0 89.2847 13.7202 1225 113.872 232.434 489.438
613 0 94.2283 14.2951 1347 110.274 232.575 488.663
614 0 96.1625 14.3195 1377 110.501 232.495 486.086
615 0 98.2647 14.0233 1378 112.535 231.471 484.945
616 0 103.326 14.0913 1456 111.931 231.745 482.402
617 0 106.271 14.4348 1534 111.569 231.753 482.58
618 0 112.255 14.0572 1578 112.628 232.122 479.975
619 0 114.279 14.167 1619 116.056 231.829 476.201
620 0 120.216 14.1661 1703 116.122 231.978 474.419
621 1 55.1309 12.4431 686 113.542 232.407 505.602
622 0 58.1719 12.5146 728 112.863 232.404 504.621
623 0 59.1705 12.6245 747 115.981 232.771 502.324
624 0 62.1548 13.1929 820 115.878 232.874 501.37
625 0 64.127 13.4577 863 116.615 233.016 499.658
626 0 67.1023 13.2186 887 116.519 232.809 498.865
627 0 69.1679 13.3733 925 116.739 232.471 497.349
628 0 72.1822 13.1611 950 117.811 231.614 496.586
629 0 75.1235 13.338 1002 116.07 232.013 493.979
630 0 78.1184 14.0172 1095 116.074 233.233 493.702
631 0 77.1686 13.477 1040 120.715 233.079 492.067
632 0 81.1197 14.2012 1152 118.401 232.37 491.1
633 0 85.1168 14.4037 1226 118.104 232.918 491.357
634 0 87.0616 13.7259 1195 122.347 232.668 488.691
635 0 89.0902 13.6715 1218 122.663 232.421 486.784
636 0 92.0838 13.9112 1281 123.66 233.238 485.418
637 0 95.0755 14.357 1365 123.74 233.208 483.155
638 0 97.1149 13.9526 1355 127.358 233.261 482.803
639 1 50.0391 12.1905 610 124.146 233.085 507.564
640 0 52.0617 12.5044 651 122.459 232.75 507.647
641 0 54.039 12.1764 658 123.43 232.682 507.492
642 0 54.0496 12.3775 669 126.798 233.396 506.14
643 0 58.029 12.9763 753 122.474 233.544 505.745
644 0 59.0761 12.9833 767 122.228 233.804 503.567
645 0 59.1102 13.2295 782 122.48 233.835 501.706
646 0 61.1265 13.3984 819 119.306 234.154 500.779
647 0 65.1467 13.3391 869 119.875 234.36 499.807
648 0 67.0749 13.4178 900 120.414 234.188 498.893
649 0 67.178 13.7545 924 119.662 233.991 497.256
650 0 70.1415 13.6438 957 120.021 233.985 495.711
651 0 73.1998 13.5383 991 117.765 234.02 494.306
652 0 75.1164 13.8718 1042 116.013 234.229 494.859
653 0 76.2137 13.9083 1060 116.722 234.485 492.782
654 0 77.1457 13.4551 1038 119.36 233.691 491.628
655 0 81.1585 14.33 1163 116.4 233.74 490.487
656 0 82.181 14.5897 1199 117.342 234.185 488.126
657 0 86.1325 14.5241 1251 117.521 234.705 487.39
658 0 87.2342 14.0885 1229 120.546 234.067 486.235
659 0 90.1964 13.9695 1260 119.926 234.492 485.875
660 0 93.1612 14.3729 1339 118.993 233.98 485.076
661 0 94.2281 14.3694 1354 119.616 234.892 483.437
662 0 96.2165 14.4778 1393 120.247 234.501 481.489
663 0 102.187 15.0801 1541 118.035 234.781 478.504
664 0 106.154 15.0347 1596 117.291 234.558 477.481
665 0 110.242 14.8764 1640 118.492 234.681 475.029
666 0 114.212 15.0159 1715 118.934 235.52 473.731
667 0 118.155 15.4627 1827 117.146 234.247 470.787
668 0 122.193 15.0582 1840 119.322 234.81 468.253
669 0 126.191 14.795 1867 119.623 234.848 465.575
670 1 70.1568 11.9874 841 115.754 235.606 496.05
671 0 71.1048 11.5182 819 117.705 235.96 495.289
672 0 74.1154 12.2647 909 117.796 235.605 493.691
673 0 77.1499 12.4433 960 118.576 235.09 491.893
674 0 78.138 11.9148 931 119.093 235.285 490.143
675 0 80.1523 11.7152 939 118.215 235.342 490.499
676 0 85.1752 11.083 944 120.35 235.244 489.161
677 0 85.1769 12.5151 1066 115.784 235.454 488.603
678 0 87.121 11.8686 1034 116.932 234.927 485.578
679 0 89.2141 11.8031 1053 117.619 234.925 485.803
680 0 88.1173 11.6549 1027 114.783 235.635 486.459
681 0 93.1163 12.1031 1127 114.981 234.996 482.829
682 1 194.306 15.2749 2968 114.759 234.614 433.806
683 0 199.269 15.065 3002 114.805 234.639 430.414
684 1 154.188 13.3214 2054 118.588 235.034 453.402
685 0 161.248 13.811 2227 117.185 235.06 449.536
686 0 167.256 14.6721 2454 115.244 234.689 447.443
687 0 171.168 14.1732 2426 119.603 234.65 441.672
688 0 176.123 13.7859 2428 120.343 234.621 438.749
689 0 182.185 14.1999 2587 118.406 234.386 438.498
690 0 189.179 13.807 2612 120.353 234.757 432.511
691 0 196.147 14.0864 2763 117.587 233.996 428.023
692 0 202.133 14.3618 2903 116.346 233.774 424.358
693 0 210.217 14.0379 2951 117.172 234.322 419.593
694 1 76.0734 10.7265 816 100.733 234.44 490.648
695 0 77.0536 10.8626 837 100.808 234.048 487.429
696 0 82.0265 11.6792 958 101.606 236.83 491.38
697 0 83.0813 11.7355 975 102.293 236.513 489.362
698 0 86.0802 11.8494 1020 101.173 236.368 487.932
699 0 88.0682 11.7636 1036 100.674 235.986 487.538
700 0 93.0952 11.3969 1061 100.834 235.295 485.463
701 0 93.066 10.96 1020 92.0422 235.554 487.913
702 0 94.0724 10.5876 996 92.0452 235.149 488.221
703 0 96.1037 10.5927 1018 92.6081 235.368 483.843
704 0 100.077 10.3421 1035 92.3981 235.188 483.358
705 0 103.102 10.6205 1095 91.1735 235.184 481.732
706 0 107.125 11.0805 1187 90.0253 235.289 479.647
707 0 110.095 11.3085 1245 89.4731 234.28 479.07
708 0 113.186 10.8317 1226 90.9747 234.439 477.796
709 0 117.188 11.298 1324 91.4298 233.408 475.163
710 0 121.189 11.1974 1357 91.8674 233.931 471.824
711 0 124.233 11.3819 1414 91.0721 234.048 471.071
712 0 128.279 11.6309 1492 90.6441 233.042 466.592
713 0 133.216 11.2974 1505 92.5322 233.258 466.81
714 0 138.294 11.9745 1656 90.9783 233.278 460.464
715 0 145.43 12.3015 1789 91.0101 232.969 459.084
716 1 78.2246 10.5082 822 98.7275 233.033 493.573
717 0 82.2042 10.3279 849 98.6855 233.226 492.919
718 0 84.2002 10.8907 917 95.2268 233.004 490.746
719 0 86.19 11.5675 997 90.3119 233.681 490.888
720 0 89.1677 11.4616 1022 90.7818 233.413 488.645
721 0 89.1582 11.373 1014 91.3698 234.014 487.733
722 1 107.333 9.01868 968 103.21 233.814 487.055
723 0 107.314 9.56073 1026 104.32 233.275 485.384
724 0 107.351 10.1722 1092 105.268 232.877 482.06
725 0 107.379 10.0764 1082 106.864 232.227 482.488
726 0 107.274 12.7897 1372 96.9198 232.391 479.813
727 0 109.289 12.7918 1398 96.6781 232.541 477.582
728 0 109.289 12.8375 1403 160.788 232.542 477.539
729 0 113.241 13.096 1483 95.0216 232.575 477.829
730 0 115.168 13.1461 1514 95.6546 232.704 476.626
731 0 118.295 12.9 1526 98.099 232.842 473.288
732 0 119.279 12.2653 1463 100.308 232.746 474.673
733 0 126.204 12.979 1638 97.9719 233.127 470.23
734 0 130.219 12.84 1672 97.4575 233.144 467.49
735 0 135.234 12.7778 1728 97.82 232.437 462.775
736 0 138.219 13.5076 1867 95.8886 233.087 459.705
737 1 69.1716 10.8715 752 110.902 233.432 491.551
738 0 72.1348 11.1874 807 110.566 232.976 490.751
739 0 76.1603 12.2767 935 108.286 233.813 490.785
740 0 78.1706 12.639 988 106.662 234.208 490.933
741 0 79.088 12.8717 1018 109.186 232.924 488.895
742 0 82.0756 13.1708 1081 107.438 232.745 488.2
743 0 86.1146 13.7143 1181 105.523 233.309 487.123
744 0 87.2037 13.2105 1152 108.514 232.711 486.297
745 0 90.2315 13.4099 1210 107.179 232.854 484.885
746 0 91.2161 13.6379 1244 107.539 233.106 482.309
747 0 95.1421 13.6322 1297 104.646 233.96 482.853
748 0 97.1192 13.9107 1351 105.48 233.301 480.357
749 0 100.205 14.1509 1418 104.136 233.317 477.318
750 0 102.221 13.9208 1423 105.592 233.093 474.985
751 0 105.309 13.9494 1469 105.065 233.746 475.359
752 0 108.185 13.5509 1466 106.319 233.607 471.857
753 0 111.173 14.1671 1575 109.592 233.81 472.709
754 0 113.228 13.5921 1539 104.755 233.844 467.863
755 0 116.193 13.8735 1612 104.881 233.618 467.105
756 1 65.1117 10.3361 673 112.328 233.26 493.636
757 0 68.1282 11.493 783 108.577 232.914 493.455
758 0 68.0382 12.1255 825 107.659 233.576 490.958
759 0 72.1346 12.546 905 105.37 233.965 488.79
760 0 78.1264 13.8237 1080 104.247 233.584 494.724
761 0 80.1138 13.9552 1118 104.238 233.862 492.116
762 0 81.0798 12.8762 1044 106.962 234.189 491.113
763 0 84.0742 13.2502 1114 107.885 233.56 489.345
764 0 85.0468 13.0046 1106 108.235 233.223 487.701
765 0 86.097 12.7066 1094 108.618 232.76 487.34
766 0 89.1164 13.1513 1172 106.97 233.497 486.974
767 0 92.0781 13.3691 1231 106.03 233.047 485.288
768 0 93.035 13.1456 1223 107.268 233.222 483.701
769 0 95.0628 12.6443 1202 101.851 233.899 478.958
770 0 98.0469 12.2492 1201 102.658 233.724 477.701
771 0 100.092 13.1779 1319 103.277 233.933 473.964
772 0 100.069 12.4814 1249 102.805 233.624 471.381
773 0 106.064 13.0487 1384 100.999 234.168 469.111
774 0 109.088 12.8062 1397 102.719 233.25 469.101
775 1 59.0986 10.2879 608 93.7533 234.018 495.995
776 0 62.0894 10.8714 675 100.643 233.876 495.338
777 0 63.0992 11.3472 716 100.556 234.204 492.771
778 0 63.0159 10.9972 693 97.5758 234.405 491.651
779 0 65.029 11.072 720 99.3278 234.261 492.782
780 0 68.0592 11.0198 750 99.6053 234.451 490.467
781 0 71.0522 11.1327 791 98.6764 233.823 489.59
782 0 73.0925 11.9438 873 96.6942 233.861 486.698
783 0 74.0286 11.5226 853 97.4994 234.229 484.916
784 0 82.0732 13.3174 1093 104.012 234.008 491.328
785 0 84.0386 13.4343 1129 105.028 234.259 490.099
786 0 85.0623 13.9427 1186 103.539 234.771 490.634
787 0 89.1323 13.1041 1168 104.359 234.875 489.434
788 0 89.0854 12.6283 1125 105.296 235.17 486.41
789 0 92.113 12.9081 1189 102.071 234.953 486.369
790 0 96.118 13.7539 1322 97.1989 235.725 484.278
791 0 97.1025 13.1819 1280 97.3406 236.147 484.747
792 0 99.0602 12.4672 1235 98.7393 235.611 483.413
793 0 105.119 13.7368 1444 93.8151 235.413 481.081
794 0 108.099 13.2101 1428 94.6569 235.574 479.508
795 0 109.112 12.6292 1378 87.2199 235.573 477.065
796 0 112.118 12.3353 1383 89.243 235.529 478.569
797 0 114.178 13.0849 1494 88.2316 236.264 475.973
798 0 117.15 12.1895 1428 89.6324 235.966 475.092
799 0 119.162 12.1515 1448 90.2507 236.171 473.217
800 0 124.167 12.902 1602 88.4001 235.96 471.205
801 0 128.131 12.9087 1654 88.2267 235.997 469.686
802 0 131.18 12.5019 1640 89.0091 236.018 468.753
803 1 72.0556 10.9082 786 90.6667 235.608 496.784
804 0 72.0594 11.0187 794 145.796 234.601 496.683
805 0 76.0972 11.7876 897 89.5608 234.918 494.284
806 0 78.0506 12.0563 941 90.6854 234.747 493.334
807 0 83.0466 12.9566 1076 90.4638 234.615 493.617
808 0 85.1142 13.4995 1149 88.7737 234.5 492.128
809 0 87.0934 12.5038 1089 86.8659 235.066 490.556
810 0 91.1128 13.0388 1188 87.112 235.424 489.877
811 0 92.0896 13.476 1241 88.2434 234.865 489.09
812 0 97.0881 13.7195 1332 87.9287 234.577 487.459
813 0 97.0512 12.7665 1239 91.8354 234.032 484.988
814 0 100.09 12.6985 1271 91.5484 233.445 482.699
815 0 100.078 11.6109 1162 94.8726 233.816 483.801
816 0 104.095 12.2965 1280 94.3375 234.277 482.602
817 0 107.074 11.7396 1257 96.3731 233.072 481.88
818 0 111.111 12.312 1368 98.0366 233.895 480.725
819 1 63.0379 10.5016 662 98.7659 234.375 507.192
820 0 64.0803 11.7977 756 96.1468 233.78 504.734
821 0 65.0384 11.8853 773 97.1837 233.12 503.834
822 0 69.0427 12.065 833 96.5522 233.022 502.688
823 0 69.0439 12.3689 854 99.7166 232.53 501.406
824 0 70.0216 12.8246 898 99.0802 232.352 500.957
825 0 73.056 13.8935 1015 94.6246 232.522 500.605
826 0 75.0439 13.2323 993 97.1037 232.198 501.194
827 0 78.0502 13.3247 1040 95.8635 232.573 498.633
828 0 78.1155 12.8784 1006 98.3171 233.012 498.334
829 0 79.0586 12.8386 1015 101.052 232.645 498.766
830 0 80.0507 12.5421 1004 102.285 231.737 497.706
831 0 83.0593 13.0268 1082 99.9251 232.232 496.901
832 0 86.0516 12.5041 1076 101.79 232.772 494.482
833 0 87.0882 12.6079 1098 102.601 232.741 495.131
834 0 90.0432 12.7605 1149 102.487 232.8 491.869
835 0 92.0773 12.4895 1150 102.458 233 492.715
836 0 96.1829 12.9857 1249 98.5805 233.305 488.829
837 0 95.089 12.2517 1165 103.319 232.91 486.639
838 0 99.1133 12.6824 1257 102.216 233.062 485.076
839 0 101.086 12.2174 1235 102.062 231.617 483.93
840 0 105.193 12.7004 1336 99.6063 231.65 481.469
841 0 109.13 13.0303 1422 97.294 231.658 478.004
842 0 112.132 12.5121 1403 98.5716 231.778 477.492
843 0 114.168 12.4816 1425 99.2175 231.492 475.279
844 0 115.154 12.7655 1470 97.3163 231.556 474.683
845 0 119.135 12.8426 1530 99.4353 231.689 471.2
846 0 122.124 12.8067 1564 98.4636 231.626 469.229
847 0 125.192 12.4449 1558 102.347 231.184 464.933
848 0 131.136 12.9103 1693 100.288 231.666 461.774
849 0 134.181 12.662 1699 100.985 231.989 459.16
850 0 137.187 12.5959 1728 101.24 232.047 453.753
851 0 141.103 12.9905 1833 99.5805 232.071 452.944
852 0 147.094 13.08 1924 99.0806 231.356 452.71
853 1 88.0507 11.9704 1054 93.796 232.238 487.119
854 0 90.092 12.6315 1138 93.4552 232.261 484.692
855 0 91.0439 12.5104 1139 92.5856 232.452 481.413
856 0 94.0607 11.8541 1115 94.3265 231.817 485.128
857 0 98.1857 12.6801 1245 93.0072 233.038 482.326
858 0 100.143 12.6119 1263 93.7728 232.534 480.506
859 0 102.065 12.2177 1247 94.3761 233 479.778
860 0 104.08 12.6057 1312 93.6341 233.006 477.045
861 0 108.104 12.4695 1348 94.8257 232.593 475.277
862 0 111.136 12.2732 1364 94.1782 232.538 475.303
863 0 114.106 12.1378 1385 95.1827 233.373 470.82
864 0 117.116 12.0479 1411 95.4387 232.648 471.191
865 0 120.079 11.8172 1419 96.2777 232.735 468.714
866 0 124.172 12.0317 1494 96.7483 232.127 465.884
867 0 127.117 12.0597 1533 95.7586 233.025 465.22
868 0 131.102 12.5399 1644 94.5955 232.43 459.542
869 0 131.077 12.3058 1613 96.708 232.21 454.67
870 1 60.0905 9.91838 596 90.2886 232.064 491.852
871 0 66.102 10.7712 712 89.4677 232.722 492.139
872 0 70.0878 11.9136 835 96.3569 231.825 496.972
873 0 73.1085 12.3652 904 97.417 231.729 495.994
874 0 76.0746 12.2906 935 99.1658 231.4 494.619
875 0 77.0542 11.8228 911 101.954 231.796 492.977
876 0 80.0932 11.7114 938 102.89 232.761 491.322
877 0 83.1503 11.5694 962 102.746 232.989 490.633
878 0 83.0983 11.7812 979 102.218 232.311 489.172
879 0 88.0675 11.5025 1013 101.477 232.576 490.422
880 0 92.1328 12.6231 1163 97.5649 232.522 489.996
881 0 94.1142 13.0374 1227 99.0432 232.57 486.521
882 0 98.1705 12.6922 1246 99.9591 232.925 486.153
883 0 98.1329 12.4016 1217 99.8085 232.417 485.323
884 1 52.0256 11.4559 596 99.9815 232.869 506.513
885 0 55.0214 12.068 664 98.7952 233.458 505.723
886 0 57.037 12.0273 686 100.389 233.276 504.277
887 0 57.0393 11.9917 684 90.8626 233.298 504.64
888 0 58.0816 12.2242 710 90.662 233.601 503.535
889 0 60.0562 12.6215 758 89.4697 233.452 502.439
890 0 62.0395 12.6532 785 88.9172 233.276 501.738
891 0 64.0778 12.8282 822 88.6095 233.163 499.03
892 0 65.0778 12.1393 790 91.0646 233.184 500.589
893 0 67.0573 11.7362 787 91.3456 233.372 500.231
894 0 69.1098 12.3427 853 89.8664 233.212 499.328
895 0 68.0451 11.1397 758 93.8351 233.317 498.223
896 0 71.067 11.848 842 93.9335 232.327 496.717
897 0 73.0281 11.119 812 95.8916 233.619 495.712
898 0 77.0827 12.2985 948 93.6772 233.677 493.659
899 0 79.0576 12.4593 985 95.4193 233.306 493.826
900 0 79.0756 12.1656 962 99.0915 234.02 491.499
901 0 85.1053 12.8664 1095 96.2913 233.691 489.09
902 0 87.0754 12.7591 1111 96.514 233.654 489.567
903 0 88.1336 12.969 1143 96.2992 233.971 486.332
904 0 91.1338 12.7944 1166 98.084 233.476 486.491
905 0 93.127 12.6064 1174 100.421 233.951 483.455
906 0 96.1513 12.5427 1206 100.057 234.112 483.209
907 0 99.0785 12.5961 1248 100.708 233.837 480.692
908 0 102.088 12.5872 1285 100.328 233.665 480.397
909 0 107.082 13.4196 1437 99.0592 234.192 476.896
910 0 110.088 13.3439 1469 99.4956 233.843 476.54
911 0 112.13 13.5022 1514 99.284 234.245 474.969
912 0 116.201 13.6488 1586 98.7818 233.894 471.691
913 0 120.162 13.0824 1572 99.1482 234.043 471.317
914 1 67.0575 11.8406 794 99.5856 234.374 495.686
915 0 66.0956 10.5151 695 94.4014 234.701 489.685
916 0 69.1032 11.9966 829 94.9493 234.514 496.726
917 0 72.1076 11.677 842 95.3694 234.519 496.49
918 0 73.135 11.2258 821 97.5615 234.136 495.798
919 0 78.095 11.9726 935 94.5872 234.299 494.608
920 0 79.1383 12.2444 969 93.612 233.641 492.706
921 0 83.1542 12.4949 1039 92.8701 234.335 491.66
922 0 86.1172 13.2029 1137 90.8311 234.316 489.521
923 0 86.0989 11.8701 1022 95.3317 233.809 488.817
924 0 88.1154 11.9162 1050 96.7943 233.738 489.879
925 0 91.1485 11.7501 1071 97.2437 233.773 489.101
926 0 94.1213 11.7827 1109 98.1803 233.383 488.1
927 0 97.15 11.6727 1134 98.1076 233.434 486.723
928 0 101.151 11.6459 1178 95.9423 233.216 487.866
929 0 105.11 12.7961 1345 94.3546 232.288 483.912
930 0 107.145 11.8437 1269 96.1994 232.929 483.416
931 0 109.179 11.6506 1272 97.5739 232.274 481.168
932 0 113.122 11.492 1300 97.2731 232.032 476.833
933 1 69.0976 11.2016 774 97.4922 232.863 500.633
934 0 70.1196 11.4519 803 94.741 232.813 498.144
935 0 74.0959 12.4028 919 93.1937 233.1 498.563
936 0 74.164 12.7555 946 92.871 232.111 497.816
937 0 77.1025 12.01 926 92.6382 231.6 496.716
938 0 81.1181 12.3277 1000 89.861 231.455 496.5
939 0 82.1225 11.6168 954 90.8826 232.104 495.216
940 0 85.1389 12.2506 1043 90.2819 231.564 493.24
941 0 87.1559 12.0015 1046 91.0402 231.236 493
942 0 89.1907 12.5013 1115 89.643 231.295 490.404
943 0 94.1768 11.5315 1086 89.4098 231.509 490.206
944 0 93.1422 11.4019 1062 89.5895 231.825 487.121
945 0 96.1282 11.7967 1134 78.6596 231.255 488.691
946 0 102.124 11.6525 1190 79.7588 230.718 484.517
947 0 105.141 10.9948 1156 83.0657 230.172 482.848
948 0 108.125 11.4589 1239 82.8095 230.952 481.607
949 1 57.0905 10.2994 588 78.0901 231.84 507.221
950 0 58.0696 10.5046 610 78.1787 232.152 504.716
951 0 59.1114 11.0977 656 85.4817 231.855 505.344
952 0 63.0844 10.589 668 87.0704 232.735 505.37
953 0 65.0798 11.1555 726 86.5138 233.719 504.059
954 0 66.0521 10.8097 714 86.8768 231.843 505.8
955 0 71.0619 13.3264 947 80.6938 233.033 503.479
956 0 73.1042 12.2291 894 71.8658 232.31 502.442
957 0 74.1114 12.0899 896 74.6864 232.691 500.253
958 0 77.1101 11.6587 899 76.069 232.849 498.26
959 0 79.1458 12.3443 977 74.2068 232.658 496.848
960 0 82.1524 12.489 1026 74.4415 232.696 496.325
961 0 85.1582 12.2361 1042 77.0144 233.007 495.178
962 0 86.1151 10.4163 897 83.5953 232.588 493.098
963 0 88.0809 10.5244 927 84.8274 233.184 491.27
964 0 91.2587 11.3085 1032 83.7723 233.085 491.444
965 0 95.3234 11.4872 1095 83.8475 233.366 487.939
966 1 47.115 10.9095 514 78.6128 234.076 514.002
967 0 51.0796 10.5326 538 77.0558 234.143 513.851
968 0 50.1863 10.6204 533 80.1801 233.612 512.235
969 0 53.0812 10.8701 577 79.0139 234.029 510.229
970 0 55.0457 11.99 660 76.3621 234.603 507.738
971 0 57.0358 10.6775 609 78.2627 233.974 508.872
972 0 56.0498 10.1338 568 81.8592 233.815 508.597
973 0 59.0705 10.7837 637 80.2339 234.13 507.964
974 0 61.0444 11.2869 689 81.6197 234.11 505.922
975 0 64.0777 11.4704 735 81.0476 234.649 505.464
976 0 64.0691 11.9871 768 80.9805 234.363 502.234
977 0 65.1488 10.9135 711 82.8017 234.055 503.111
978 0 67.0752 11.0324 740 81.4716 234.615 502.2
979 0 70.136 10.9644 769 88.801 234.315 501.118
980 0 73.1206 10.7494 786 88.8053 235.211 501.378
981 0 74.1077 11.4698 850 86.4118 234.369 501.671
982 0 77.1348 10.2937 794 87.8892 234.398 499.566
983 0 79.0944 10.9742 868 75.3353 234.629 498.395
984 0 81.1253 10.8844 883 75.3692 233.916 496.122
985 0 86.0808 10.3624 892 76.2085 233.885 494.682
986 0 87.1582 10.1081 881 76.8082 233.522 493.195
987 0 91.1134 9.8339 896 77.9732 233.371 490.634
988 0 94.2403 10.4096 981 76.579 233.66 489.687
989 1 52.0853 11.3084 589 75.9304 234.28 507.832
990 0 55.1179 11.1035 612 78.6716 233.894 506.523
991 0 55.0483 10.4817 577 79.4991 233.882 500.646
992 0 53.0975 9.6238 511 80.9119 233.673 496.045
993 0 58.0161 10.7039 621 76.4058 234.596 506.694
994 0 58.1803 9.76276 568 78.0317 234.053 504.947
995 0 60.0452 10.0258 602 78.2874 233.588 500.553
996 0 64.0723 10.7847 691 74.2026 233.832 502.069
997 0 67.1183 10.6081 712 75.0857 234.824 500.603
998 0 66.0939 10.1068 668 76.4252 234.4 497.963
999 0 70.1439 10.2361 718 76.4387 234.405 497.355
1000 0 74.1025 10.7689 798 75.2368 234.135 495.138
1001 0 75.1869 10.7465 808 76.4134 234.395 492.58
1002 0 76.1124 10.7604 819 76.6581 234.35 492.004
1003 0 80.1395 11.0308 884 75.7873 234.543 491.095
1004 0 85.1412 11.3928 970 76.9361 234.764 490.463
1005 0 87.1532 11.497 1002 75.8303 235.056 489.434
1006 0 89.1848 12.2106 1089 77.6547 235.461 487.5
1007 0 90.1694 11.4673 1034 80.235 235.137 486.317
1008 0 94.147 11.6732 1099 80.3276 235.241 484.674
1009 0 97.2326 11.9919 1166 79.307 235.715 484.625
1010 0 101.125 12.0346 1217 81.4478 235.345 482.702
1011 0 103.114 12.0644 1244 82.1358 235.446 481.754
1012 0 105.205 12.2428 1288 82.7601 234.602 480.357
1013 0 109.195 12.1801 1330 83.8594 234.544 477.202
1014 0 113.122 12.8181 1450 83.1772 234.461 475.789
1015 0 115.079 12.8086 1474 84.827 233.881 475.662
1016 1 68.0552 11.6523 793 82.6494 234.69 501.241
1017 0 68.0517 10.7859 734 81.733 234.634 499.804
1018 0 71.1265 10.9804 781 81.5109 235.353 497.544
1019 0 72.0824 11.2371 810 84.3778 235.028 495.035
1020 0 77.0777 12.5069 964 83.1618 235.596 498.031
1021 0 76.129 11.5331 878 87.2916 235.864 496.73
1022 0 79.1159 12.3869 980 84.8622 235.763 494.893
1023 0 81.1466 12.7547 1035 84.5469 236.204 494.866
1024 0 86.1775 12.8224 1105 84.0235 235.98 492.961
1025 0 88.0962 13.2355 1166 84.2959 235.388 490.8
1026 0 91.1876 13.3351 1216 83.4942 235.747 489.739
1027 0 95.0943 13.3867 1273 84.1799 235.06 489.012
1028 0 95.1512 12.7586 1214 86.0058 235.082 484.311
1029 0 97.2126 12.0766 1174 91.1312 234.818 482.57
1030 0 101.174 12.4538 1260 90.8492 234.861 480.254
1031 0 104.153 12.8561 1339 90.7715 234.322 481.198
1032 0 107.143 13.0386 1397 91.844 234.613 478.461
1033 0 109.2 12.9487 1414 92.8013 234.868 477.895
1034 0 110.236 12.6093 1390 94.5151 235.006 475.919
1035 0 115.143 13.0533 1503 92.5828 234.228 475.232
1036 0 119.132 13.3969 1596 92.562 233.901 475.102
1037 0 121.151 12.9012 1563 95.112 234.152 470.871
1038 0 126.136 13.2239 1668 95.9718 234.078 468.549
1039 0 131.103 13.2491 1737 95.6534 233.55 468.43
1040 1 68.1324 10.8172 737 92.574 234.18 500.167
1041 0 72.0774 12.334 889 87.6344 233.484 494.957
1042 0 73.0364 11.638 850 91.9435 233.458 490.452
1043 0 76.1351 11.4271 870 90.054 233.794 495.284
1044 0 77.1825 11.7773 909 95.8592 234.251 497.726
1045 0 79.0684 11.3699 899 95.772 233.961 497.507
1046 0 83.0838 12.3008 1022 93.6673 233.707 494.375
1047 0 84.0412 11.7561 988 95.0243 233.988 492.756
1048 0 86.149 11.3176 975 92.7795 233.762 487.883
1049 0 89.1278 11.736 1046 91.9503 234.036 486.998
1050 0 92.0357 12.1801 1121 93.0669 234.384 489.727
1051 0 96.105 12.7881 1229 91.5378 233.758 490.226
1052 0 99.099 12.1495 1204 92.0341 233.19 488.049
1053 0 102.104 12.1445 1240 92.0032 232.346 485.031
1054 0 103.068 12.0697 1244 94.9783 233.491 484.737
1055 0 108.127 12.0044 1298 90.8783 234.134 477.508
1056 0 110.108 11.8066 1300 92.9377 234.171 476.536
1057 1 63.0753 10.7332 677 89.0192 234.437 500.854
1058 0 63.0645 11.3693 717 92.3808 234.803 501.162
1059 0 67.21 12.6618 851 97.9506 234.619 501.22
1060 0 71.1289 12.9624 922 96.4219 233.883 500.369
1061 0 72.0639 12.9746 935 95.323 234.373 499.605
1062 0 73.0953 12.7778 934 97.0321 234.194 500.305
1063 0 74.1103 12.3869 918 88.5664 233.859 495.035
1064 0 77.2015 11.9428 922 89.9892 234.431 492.278
1065 0 79.108 12.4008 981 90.2059 233.908 490.708
1066 0 81.0834 13.1223 1064 97.6682 234.041 494.222
1067 0 85.0923 12.8331 1092 98.0476 234.427 492.135
1068 0 86.1772 12.161 1048 95.6994 234.034 487.293
1069 0 88.0931 12.8614 1133 95.2939 233.831 486.915
1070 0 89.069 12.3051 1096 98.4909 233.794 484.901
1071 0 91.0637 12.6285 1150 99.4513 234.098 482.823
1072 0 95.0776 12.8737 1224 99.5212 234.101 480.431
1073 0 97.171 12.9257 1256 101.319 233.909 481.218
1074 0 100.109 13.3355 1335 102.59 233.88 480.918
1075 0 103.115 13.034 1344 104.516 234.045 477.766
1076 0 105.11 13.3669 1405 105.202 233.628 477.824
1077 0 108.089 13.5814 1468 108.797 234.25 475.904
1078 0 115.16 13.9979 1612 109.034 234.313 474.731
1079 0 117.19 14.0029 1641 111.037 234.069 473.924
1080 0 121.147 14.437 1749 109.733 234.336 473.132
1081 0 124.181 14.1809 1761 110.16 234.112 471.04
1082 0 126.263 14.0104 1769 112.35 233.901 467.099
1083 0 133.217 14.4426 1924 110.665 234.09 464.321
1084 0 135.133 14.0676 1901 112.437 233.705 462.745
1085 0 142.26 14.4314 2053 109.415 233.524 461.82
1086 0 145.311 14.4243 2096 110.753 234.085 458.905
1087 0 150.175 14.6163 2195 109.904 233.974 457.344
1088 0 156.26 14.7511 2305 109.656 233.578 454.912
1089 0 158.073 14.1707 2240 124.614 233.572 452.155
1090 0 162.096 13.5167 2191 129.984 233.853 451.134
1091 0 167.149 13.2756 2219 130.67 233.303 448.695
1092 0 172.201 13.6991 2359 125.752 232.83 445.396
1093 1 96.1324 12.5972 1211 131.359 234.028 479.984
1094 0 100.169 12.8383 1286 130.608 233.888 479.246
1095 0 104.125 13.138 1368 130.428 233.968 477.072
1096 0 107.149 13.4205 1438 128.024 233.547 476.046
1097 0 111.171 13.3129 1480 127.731 233.77 472.55
1098 0 115.148 12.8704 1482 129.821 234.204 469.926
1099 0 122.248 13.6771 1672 125.011 235.726 474.434
1100 0 126.201 13.3597 1686 125.768 235.043 472.387
1101 0 131.151 14.1974 1862 124.368 234.183 470.075
1102 1 70.0584 11.105 778 121.757 233.591 502.136
1103 0 72.0195 11.844 853 116.899 233.577 500.958
1104 0 74.0421 11.9256 883 115.712 233.984 500.394
1105 0 76.1074 11.2998 860 118.28 234.35 498.554
1106 0 78.0666 12.5021 976 115.117 234.478 496.064
1107 0 80.1603 12.1881 977 113.703 234.061 494.691
1108 0 82.1762 11.7674 967 115.993 234.272 492.973
1109 0 83.1675 12.565 1045 111.989 234.158 490.891
1110 0 86.1985 11.8331 1020 110.129 234.158 488.406
1111 0 86.2619 11.1521 962 109.631 233.808 483.304
1112 0 88.3047 11.3357 1001 108.617 234.089 483.023
1113 0 88.1515 11.537 1017 108.302 234.255 481.255
1114 0 91.1642 11.6712 1064 108.767 233.492 480.984
1115 0 92.2071 12.0598 1112 112.937 234.742 482.285
1116 0 94.1429 12.1199 1141 114.951 235.727 479.5
1117 0 97.1042 12.0695 1172 116.61 234.781 478.235
1118 0 100.14 12.2628 1228 117.851 234.08 476.41
1119 0 103.233 12.341 1274 118.974 234.526 474.855
1120 0 105.138 11.9653 1258 119.747 233.658 473.816
1121 0 109.221 12.2229 1335 117.39 234.33 474.091
1122 0 114.21 12.6521 1445 115.219 234.138 474.608
1123 0 113.269 11.7066 1326 117.612 233.819 469.835
1124 0 118.326 12.1529 1438 118.622 233.944 469.744
1125 0 123.291 12.5475 1547 117.288 233.811 471.621
1126 0 126.294 12.6926 1603 116.149 234.382 469.741
1127 0 129.348 12.3079 1592 120.57 233.821 466.208
1128 0 132.247 11.9549 1581 120.962 233.112 465.65
1129 0 136.087 12.4112 1689 112.623 232.686 462.139
1130 0 140.199 12.575 1763 115.367 232.533 461.201
1131 0 143.129 12.2757 1757 115.89 232.757 458.384
1132 0 148.139 12.1845 1805 116.534 232.986 457.203
1133 0 152.143 12.1794 1853 113.723 233.057 453.877
1134 0 156.179 12.9019 2015 110.345 232.928 453.928
1135 0 160.183 12.7417 2041 113.407 233.142 450.457
1136 0 164.166 12.5178 2055 117.413 232.617 449.795
1137 0 169.177 12.3657 2092 116.274 232.946 445.768
1138 0 171.222 12.621 2161 116.847 233.39 442.645
1139 0 175.232 12.1096 2122 118.402 232.498 439.951
1140 0 180.307 12.1626 2193 118.303 233.113 439.798
1141 0 183.381 12.7385 2336 118.468 233.507 438.42
1142 0 190.249 13.4403 2557 115.202 233.122 437.736
1143 0 194.301 13.2423 2573 119.6 233.172 431.556
1144 0 198.315 13.2819 2634 120.595 232.817 429.938
1145 0 204.312 13.2102 2699 121.943 233.15 428.929
1146 0 210.338 13.6875 2879 119.721 232.129 426.491
1147 0 216.337 13.4374 2907 119.768 232.335 421.272
1148 0 220.279 13.0289 2870 119.899 232.45 416.965
1149 0 227.362 13.0805 2974 119.838 232.616 409.281
1150 0 233.399 13.3163 3108 105.95 232.812 405.476
1151 0 242.439 14.0407 3404 103.238 232.195 405.314
1152 1 185.331 11.5037 2132 105.458 232.233 437.695
1153 0 191.272 12.0143 2298 104.573 231.678 435.593
1154 0 195.409 11.9902 2343 104.348 231.784 428.842
1155 0 198.329 12.3532 2450 104.027 231.387 426.352
1156 0 203.3 11.2691 2291 106.124 231.612 427.088
1157 0 211.378 11.865 2508 103.509 231.899 427.721
1158 0 214.353 11.0892 2377 107.118 231.655 422.384
1159 0 220.269 11.5132 2536 105.576 231.444 421.172
1160 0 228.414 12.0658 2756 104.755 231.378 417.261
1161 0 232.386 11.7348 2727 108.71 230.921 414.56
1162 1 54.073 9.30224 503 83.6064 232.531 509.865
1163 0 56.1923 9.50308 534 81.3483 232.644 508.223
1164 0 57.2383 10.1156 579 82.0898 233.309 506.727
1165 0 60.0976 10.5162 632 88.0886 233.46 505.619
1166 0 60.1825 10.4017 626 88.6182 234.003 505.893
1167 0 62.1832 11.643 724 86.6837 233.989 504.214
1168 0 62.1719 11.2913 702 88.6453 233.883 505.882
1169 0 66.2046 11.4191 756 88.4458 233.081 504.069
1170 0 66.1216 11.5091 761 89.5388 233.267 504.558
1171 0 68.1699 10.9726 748 91.6404 232.892 502.184
1172 0 71.1204 12.4156 883 88.4892 232.991 501.085
1173 0 71.1617 11.0593 787 93.7916 233.123 500.269
1174 0 73.2053 12.2395 896 91.0848 232.51 499.276
1175 0 75.1766 12.1048 910 93.822 232.564 498.411
1176 0 78.1015 12.9575 1012 91.7876 232.481 497.523
1177 0 77.1261 12.2267 943 96.7455 233.223 497.865
1178 0 79.0777 11.9376 944 99.1737 232.24 496.942
1179 0 81.0617 11.8798 963 100.319 233.221 492.78
1180 0 81.0558 11.2022 908 104.23 232.707 495.366
1181 0 88.0973 13.3716 1178 96.1783 233.493 490.542
1182 0 87.1417 11.7395 1023 102.687 233.522 492.635
1183 0 88.1218 11.121 980 106.778 232.902 495.195
1184 0 91.1008 11.6684 1063 107.911 231.83 491.851
1185 0 95.0946 11.62 1105 104.71 231.511 490.392
1186 0 95.0433 12.0261 1143 104.172 232.546 487.416
1187 1 50.0801 10.8426 543 105.926 231.322 508.61
1188 0 50.0219 9.85568 493 110.243 231.31 507.103
1189 0 53.0241 11.3722 603 107.534 231.282 507.479
1190 0 54.1268 12.4892 676 109.052 231.575 508.797
1191 0 59.058 12.1575 718 109.362 231.058 508.532
1192 0 59.044 12.2959 726 109.715 231.127 507.764
1193 0 62.0519 12.1833 756 108.899 231.198 506.836
1194 0 63.0798 12.5555 792 106.607 231.482 505.006
1195 0 63.0405 12.0082 757 107.602 231.197 505.358
1196 0 67.0329 11.4421 767 109.984 232.329 507.11
1197 0 67.0884 12.327 827 106.358 233.069 503.944
1198 0 70.1403 12.8029 898 102.849 233.308 503.31
1199 0 72.103 12.9953 937 103.208 232.988 501.758
1200 0 73.1333 12.5661 919 103.641 233.09 502.234
1201 0 77.0933 13.2696 1023 101.358 232.726 501.118
1202 0 75.1386 12.9228 971 103.435 232.013 499.216
1203 0 79.1648 12.935 1024 103.15 231.871 497.158
1204 0 86.1241 11.9014 1025 104.189 232.051 497.215
1205 1 42.0314 10.9204 459 103.597 231.723 515.869
1206 0 45.0635 12.0497 543 98.3462 232.331 516.853
1207 0 46.0123 11.9533 550 99.2909 232.238 515.891
1208 0 46.1241 11.4691 529 103.393 232.166 513.282
1209 0 48.0794 12.729 612 99.7255 232.941 512.843
1210 0 47.0806 11.852 558 104.088 232.36 513.16
1211 0 50.1415 12.365 620 101.087 231.632 512.244
1212 0 50.1106 12.0733 605 101.673 232.228 510.732
1213 0 50.1126 12.9109 647 99.6507 232.073 510.777
1214 0 53.1928 13.4229 714 97.7353 231.878 511.472
1215 0 53.0902 12.507 664 99.6898 232.648 510.709
1216 0 56.116 12.884 723 97.6183 232.557 510.16
1217 0 54.117 12.5654 680 99.8412 231.757 510.222
1218 0 54.0993 12.6249 683 99.3616 231.786 510.526
1219 0 57.0526 13.4437 767 95.5006 232.128 507.785
1220 0 58.1358 12.746 741 96.4966 232.03 507.537
1221 0 60.0416 12.9077 775 95.1703 231.823 507.8
1222 0 57.0182 12.2943 701 90.5506 232.17 509.138
1223 0 60.0176 11.6799 701 91.5421 232.74 509.029
1224 0 61.0476 11.5647 706 91.7918 233.354 508.622
1225 0 63.0334 11.8509 747 92.7095 233.329 506.697
1226 0 66.0208 11.6933 772 93.4741 232.404 506.732
1227 0 69.0803 12.3914 856 93.2325 232.591 504.873
1228 0 72.0423 12.9785 935 91.4802 232.453 502.38
1229 0 73.0271 12.5981 920 93.0076 232.442 503.275
1230 0 75.0302 12.7415 956 93.068 232.479 500.57
1231 0 79.0542 13.282 1050 92.2229 232.166 499.771
1232 0 81.0536 13.5096 1095 92.5991 232.647 497.19
1233 0 83.1136 12.7657 1061 93.0396 233.033 497.121
1234 0 86.1009 13.31 1146 92.0602 233.144 495.6
1235 0 88.1005 12.4176 1094 95.5987 234.253 493.045
1236 1 47.0155 12.1875 573 98.4049 233.396 512.218
1237 0 48.0671 11.6712 561 99.9537 232.961 512.068
1238 0 50.054 12.2068 611 98.126 233.404 512.989
1239 0 51.0485 12.8309 655 97.1374 232.759 511.418
1240 0 52.0151 11.0929 577 86.7608 234.14 508.433
1241 0 53.0238 11.1648 592 83.5118 233.336 510.193
1242 0 54.0119 11.553 624 93.859 232.963 511.014
1243 0 56.0282 11.869 665 91.6977 232.898 509.325
1244 0 57.064 12.0566 688 91.9026 233.394 507.237
1245 0 59.0203 12.1314 716 91.479 234.299 505.538
1246 0 61.084 11.4924 702 92.4501 233.219 505.811
1247 0 63.0636 11.5756 730 93.5836 234.044 504.062
1248 0 65.0725 12.0788 786 93.4606 233.415 502.793
1249 0 69.1156 12.6455 874 93.3238 233.474 500.779
1250 0 70.0488 12.5912 882 92.3322 233.074 502.202
1251 0 71.02 11.9685 850 93.9329 233.486 501.651
1252 0 74.0544 12.6124 934 93.6981 233.628 501.173
1253 0 77.0321 12.2806 946 94.3795 234.436 501.133
1254 0 77.1187 12.0982 933 96.4662 233.566 499.506
1255 0 79.0434 12.6007 996 96.1888 234.838 497.521
1256 0 82.0523 12.2239 1003 95.8375 234.431 494.915
1257 0 83.0517 12.0166 998 96.8828 234.986 495.383
1258 0 88.0428 12.5734 1107 96.1635 235.169 493.34
1259 0 90.0704 12.7012 1144 94.3505 234.372 491.922
1260 0 94.0611 12.0879 1137 94.9877 233.972 489.519
1261 0 95.13 11.7523 1118 95.314 233.95 489.112
1262 1 51.0484 11.9298 609 95.1002 234.737 508.808
1263 0 52.0674 11.5235 600 94.4117 234.413 508.307
1264 0 53.1763 12.0166 639 94.6698 234.405 508.493
1265 0 55.0909 12.8152 706 97.4844 234.535 505.297
1266 0 54.0215 11.2918 610 104.479 234.28 507.543
1267 0 56.0383 12.2595 687 103.61 234.223 507.067
1268 0 59.0594 12.0895 714 104.766 234.171 505.084
1269 0 61.0342 12.5995 769 104.874 233.638 504.441
1270 0 61.0574 11.956 730 107.934 233.395 504.892
1271 0 64.0905 12.3263 790 105.891 233.306 502.96
1272 0 66.0809 12.5755 831 106.43 232.882 503.025
1273 0 69.0578 12.4099 857 107.985 233.057 501.601
1274 0 71.0674 12.5093 889 108.665 233.044 500.01
1275 0 72.0654 11.9752 863 111.108 233.802 500.12
1276 0 75.0323 12.1148 909 113.323 233.999 498.987
1277 0 77.057 12.8606 991 110.768 233.87 496.296
1278 0 79.0914 12.6942 1004 114.491 233.666 496.887
1279 0 83.0947 13.4184 1115 111.674 233.636 495.241
1280 0 87.1093 13.4888 1175 112.106 233.301 495.469
1281 0 89.077 13.3255 1187 114.241 232.87 492.399
1282 0 91.0601 14.0896 1283 111.179 233.054 491.931
1283 0 97.0472 13.9829 1357 110.243 232.999 489.128
1284 0 99.1105 13.7322 1361 114.034 233.55 484.907
1285 0 103.096 13.9772 1441 119.375 233.704 481.595
1286 0 104.163 13.8437 1442 120.678 233.721 481.988
1287 0 110.159 13.4986 1487 119.656 233.619 479.317
1288 0 113.269 13.6666 1548 118.021 233.755 477.527
1289 1 56.1268 10.4763 588 116.784 234.338 507.631
1290 0 56.0611 10.0426 563 101.892 234.595 507.318
1291 0 59.0415 11.5681 683 101.805 234.958 506.889
1292 0 59.1286 11.9908 709 102.766 234.7 506.179
1293 0 63.1411 12.5117 790 100.057 234.571 505.708
1294 0 66.1446 12.4878 826 100.263 234.137 502.352
1295 0 70.0878 13.0551 915 98.6197 234.522 499.762
1296 0 71.1185 12.9361 920 100.605 234.593 498.674
1297 0 72.1083 13.1192 946 101.937 234.281 498.761
1298 0 75.2314 12.9334 973 116.963 234.358 495.677
1299 0 78.0983 12.9964 1015 117.155 234.107 494.982
1300 0 80.1417 12.4779 1000 119.106 234.469 495.524
1301 0 82.1338 12.7719 1049 120.371 234.471 492.368
1302 0 85.11 13.1359 1118 118.437 234.456 493.283
1303 0 89.1278 13.4077 1195 117.787 233.838 491.645
1304 0 89.1267 12.3756 1103 116.392 234.023 489.706
1305 0 92.089 13.0417 1201 115.21 233.734 488.884
1306 0 93.116 12.2857 1144 121.439 234.031 487.913
1307 0 96.0752 12.6255 1213 119.847 234.224 486.862
1308 0 98.0845 13.1111 1286 121.148 233.442 488.104
1309 0 99.1058 13.2888 1317 121.898 233.727 487.374
1310 0 103.133 13.1674 1358 122.51 233.689 486.275
1311 0 105.1 12.8544 1351 127.426 234.189 484.654
1312 0 106.121 14.7473 1565 121.125 233.844 483.663
1313 0 112.186 13.0231 1461 126.723 234.101 481.537
1314 0 115.232 12.6788 1461 128.617 234.02 481.362
1315 0 118.19 12.8184 1515 129.626 233.898 479.206
1316 0 122.222 13.0746 1598 129.871 233.496 478.516
1317 0 125.236 13.2469 1659 129.291 233.567 475.564
1318 0 129.225 13.0083 1681 130.43 232.955 471.695
1319 0 134.347 13.1227 1763 129.483 233.128 470.299
1320 0 138.342 13.1558 1820 130.931 233.172 467.02
1321 0 143.362 13.3439 1913 131.657 232.991 465.423
1322 0 147.427 13.349 1968 131.856 233.151 463.589
1323 0 152.249 13.294 2024 133.821 232.986 459.553
1324 1 85.2936 12.287 1048 130.899 233.634 493.404
1325 0 89.1775 12.1219 1081 138.02 233.682 491.631
1326 0 92.2626 12.5511 1158 136.7 234.927 488.548
1327 0 93.1956 12.8761 1200 136.009 234.583 487.607
1328 0 97.2057 12.777 1242 139.442 233.802 486.343
1329 0 99.313 12.7878 1270 139.356 233.591 484.633
1330 0 101.297 12.952 1312 139.164 233.332 485.642
1331 0 104.311 12.8271 1338 140.836 233.332 482.465
1332 0 108.321 12.666 1372 137.751 233.115 479.686
1333 0 112.399 13.0962 1472 137.008 232.744 480.222
1334 0 113.324 13.2805 1505 138.047 232.62 478.465
1335 0 116.255 13.4876 1568 136.445 232.809 476.295
1336 0 121.168 13.0233 1578 137.677 232.52 475.602
1337 0 125.216 13.7443 1721 130.834 232.549 474.916
1338 0 129.195 13.6383 1762 131.134 232.418 473.38
1339 0 132.224 13.6436 1804 133.04 232.417 471.064
1340 0 136.156 13.624 1855 132.225 232.88 470.95
1341 0 138.179 13.6562 1887 133.085 233.057 466.689
1342 0 143.157 13.5306 1937 132.343 233.208 464.979
1343 0 145.144 13.3592 1939 133.665 232.461 460.992
1344 0 149.191 13.0638 1949 134.127 232.078 456.275
1345 0 154.123 13.5216 2084 134.05 232.231 457.166
1346 0 159.1 12.8724 2048 136.792 231.748 455.562
1347 0 162.123 13.3726 2168 135.318 232.277 451.353
1348 0 166.101 13.847 2300 134.676 231.713 447.033
1349 0 170.123 13.3962 2279 136.529 232.221 443.697
1350 0 177.097 13.7326 2432 135.831 232.63 443.389
1351 0 183.156 14.3539 2629 129.899 232.938 438.746
1352 0 189.191 13.4838 2551 132.009 231.838 435.853
1353 0 193.136 12.9702 2505 136.238 231.908 431.858
1354 0 200.135 13.431 2688 133.456 231.054 429.013
1355 1 42.0577 8.48834 357 103.877 232.07 512.081
1356 0 47.0936 10.9144 514 113.319 232.634 516.677
1357 0 50.0159 11.2964 565 110.796 231.903 515.973
1358 0 51.1019 10.7628 550 121.473 231.355 514.204
1359 0 53.0657 11.5517 613 118.452 231.392 513.369
1360 0 51.0285 10.6019 541 108.617 232.061 515.157
1361 0 53.0574 11.0446 586 106.655 231.377 514.923
1362 0 53.0285 10.5981 562 109.738 231.171 513.443
1363 0 54.0545 10.7484 581 107.401 231.305 510.83
1364 0 57.0899 10.5973 605 108.904 231.878 511.716
1365 0 57.0579 10.6383 607 111.397 232.008 511.924
1366 0 60.0807 11.1184 668 111.19 232.159 511.132
1367 0 62.1164 11.4946 714 110.72 231.636 509.825
1368 0 64.082 12.0939 775 109.423 231.986 507.156
1369 0 64.0927 11.8422 759 107.572 232.618 507.303
1370 0 68.0565 11.8137 804 109.713 230.621 506.055
1371 0 69.0733 12.132 838 110.723 231.085 504.348
1372 0 70.0399 12.1931 854 112.684 231.751 503.97
1373 0 74.0473 12.492 925 113.116 231.678 503.665
1374 0 75.0664 12.3624 928 115.045 232.067 502.156
1375 0 77.0852 12.4148 957 115.794 231.787 501.501
1376 0 79.0791 12.203 965 116.022 230.965 500.805
1377 0 81.0414 12.1296 983 107.316 232.144 499.958
1378 1 43.0251 10.6449 458 113.533 231.845 518.245
1379 0 43.0384 10.1305 436 112.514 231.837 517.484
1380 0 45.0071 10.1317 456 119.189 232.32 518.346
1381 0 45.0144 11.1298 501 115.808 231.972 518.22
1382 0 44.0435 11.0118 485 111.701 233.089 518.546
1383 0 42.0581 11.3177 476 107.185 233.481 519.16
1384 0 45.0569 10.52 474 105.852 232.473 518.376
1385 0 45.0502 11.2541 507 100.602 232.602 518.288
1386 0 48.0577 11.3197 544 97.0717 231.851 518.537
1387 0 48.0608 11.2566 541 94.2311 232.196 517.837
1388 0 48.057 11.1534 536 94.278 232.688 516.345
1389 0 49.0318 11.0133 540 93.6593 233.446 515.819
1390 0 52.0493 11.3546 591 90.5618 232.699 515.242
1391 0 51.0295 11.072 565 92.8336 231.881 514.334
1392 0 51.046 11.6366 594 92.5 232.152 514.902
1393 0 54.0425 10.8433 586 94.4488 232.933 513.411
1394 0 54.0554 11.4142 617 93.4441 232.332 513.374
1395 0 52.0453 8.87688 462 102.361 232.379 516.035
1396 0 52.1115 10.42 543 100.95 232.23 513.976
1397 0 57.0426 11.7807 672 91.3095 232.771 512.409
1398 0 57.0787 11.3002 645 94.586 232.634 511.949
1399 0 58.0775 11.2092 651 95.0722 232.3 509.416
1400 0 59.0504 11.7357 693 93.7994 232.079 508.651
1401 0 61.0856 12.065 737 93.6255 231.936 508.061
1402 0 63.0917 11.729 740 94.4297 231.645 507.746
1403 0 62.0296 11.3655 705 95.2355 231.935 508.235
1404 0 65.061 11.7889 767 96.2529 231.75 506.126
1405 0 66.0689 11.6091 767 97.5906 231.847 508.19
1406 0 69.0859 11.5074 795 98.1484 231.93 507.023
1407 0 71.0902 12.1536 864 96.6053 232.376 507.22
1408 0 71.0607 11.5394 820 100.137 231.811 505.671
1409 0 73.0356 12.0078 877 98.8324 231.326 503.501
1410 0 75.0391 11.8205 887 99.336 231.875 502.49
1411 0 78.108 11.6249 908 101.743 231.14 501.561
1412 0 81.1093 12.1688 987 102.314 232.277 498.059
1413 1 45.0233 11.9938 540 101.759 232.472 516.233
1414 0 46.0539 11.8122 544 102.04 232.439 515.691
1415 0 45.0667 12.0488 543 100.133 232.009 515.14
1416 0 48.0387 12.3234 592 94.375 232.056 515.25
1417 0 46.0576 10.9863 506 100.67 232.717 517.061
1418 0 47.0351 11.9698 563 95.6732 231.725 516.694
1419 0 49.0718 11.799 579 96.6442 232.394 514.708
1420 0 49.0462 11.8256 580 97.5879 232.016 514.041
1421 0 50.0756 11.3029 566 99.2067 232.122 514.012
1422 0 53.0918 10.5101 558 93.3728 232.434 511.004
1423 0 53.0292 10.5225 558 94.9606 232.082 508.749
1424 0 56.0244 10.4062 583 96.06 232.185 508.184
1425 0 57.0336 11.5721 660 95.4682 232.556 508.215
1426 0 59.1035 11.5729 684 95.2632 232.341 507.142
1427 0 60.0733 11.9687 719 97.5883 232.69 506.865
1428 0 62.0605 12.4878 775 103.145 232.695 507.719
1429 0 61.0584 12.2506 748 104.922 232.509 507.731
1430 0 65.0724 12.2325 796 104.975 232.477 506.652
1431 0 66.0556 11.8991 786 106.148 232.959 506.519
1432 0 67.0374 12.232 820 104.206 232.874 506.101
1433 0 71.1369 13.1577 936 100.378 233.012 506.002
1434 0 71.0187 12.2503 870 103.323 233.433 504.108
1435 0 73.0862 12.1774 890 104.931 233.054 502.717
1436 0 75.0465 12.2324 918 104.983 233.151 503.242
1437 0 78.0518 12.5429 979 101.004 232.704 502.823
1438 0 80.0535 12.5416 1004 101.662 232.818 502.064
1439 0 81.067 12.8906 1045 101.908 233.293 500.973
1440 0 86.0489 12.5742 1082 101.155 233.323 500.115
1441 0 88.0664 12.8085 1128 101.152 233.089 496.722
1442 0 89.0547 12.2172 1088 102.998 232.46 496.319
1443 1 51.0236 12.1709 621 104.651 233.51 513.692
1444 0 53.0157 12.6755 672 105.263 233.695 513.193
1445 0 53.0478 13.403 711 110.772 233.12 511.097
1446 0 52.0443 12.7007 661 105.044 233.635 511.474
1447 0 54.056 12.598 681 105.338 233.301 510.477
1448 0 55.0459 12.7893 704 105.331 233.274 509.05
1449 0 58.0148 12.9105 749 105.649 232.497 507.801
1450 0 59.0283 12.4347 734 108.229 232.647 507.726
1451 0 61.0322 13.0259 795 106.597 231.901 505.945
1452 0 62.0245 12.8336 796 108.028 231.416 504.928
1453 0 64.0832 12.7647 818 108.166 232.191 504.165
1454 0 67.0592 12.6455 848 108.632 232.291 502.854
1455 0 69.0265 12.5314 865 108.627 231.964 503.96
1456 0 69.0142 12.9249 892 109.343 232.529 502.053
1457 0 73.0284 12.6937 927 107.683 232.967 501.798
1458 0 74.0115 12.6737 938 108.821 232.867 500.364
1459 0 76.0141 12.6292 960 109.795 231.998 499.105
1460 0 78.0186 12.4201 969 110.968 231.917 498.277
1461 0 81.0374 12.92 1047 110.312 232.117 496.03
1462 0 84.0483 13.0758 1099 110.109 232.172 495.263
1463 0 86.0269 13.3912 1152 109.93 232.62 493.388
1464 0 89.0731 13.0006 1158 110.688 231.733 493.677
1465 0 94.0795 13.0953 1232 107.338 232.432 491.764
1466 1 49.0326 12.1756 597 99.3333 232.844 512.933
1467 0 51.0351 11.9722 611 95.5728 232.095 510.628
1468 0 52.0419 12.2786 639 94.8858 232.102 510.565
1469 0 51.0493 11.8905 607 98.0132 232.661 510.308
1470 0 53.019 11.4865 609 99.7455 232.299 510.637
1471 0 56.0135 12.1221 679 95.8719 231.91 509.42
1472 0 56.0352 11.2608 631 98.7845 232.429 506.634
1473 0 60.0339 12.0932 726 95.3485 232.42 506.707
1474 0 61.0528 11.875 725 96.6717 232.55 505.276
1475 0 65.0225 12.934 841 92.6671 232.426 503.708
1476 0 66.0318 11.9336 788 94.9873 233.028 502.033
1477 0 68.0526 12.314 838 94.6921 232.19 501.808
1478 0 71.0944 12.5608 893 93.4815 232.968 500.92
1479 0 75.0522 12.2581 920 93.6478 232.503 499.793
1480 0 75.0432 12.5928 945 94.1122 232.905 497.024
1481 0 78.053 12.2609 957 93.6008 232.331 495.435
1482 0 82.0959 12.4976 1026 91.8382 232.206 494.817
1483 0 86.1144 12.3324 1062 91.7354 232.593 493.992
1484 1 44.0104 10.8611 478 94.1004 233.379 512.295
1485 0 47.0199 11.6547 548 95.365 232.427 511.558
1486 0 46.0258 11.3632 523 97.5774 232.501 510.335
1487 0 48.0195 11.9535 574 89 231.89 511.064
1488 0 50.0237 11.6345 582 90.1289 231.959 509.699
1489 0 52.0717 12.4444 648 87.159 232.85 510.394
1490 0 54.0334 11.715 633 88.5276 232.812 508.97
1491 0 55.0394 12.1549 669 87.2182 232.795 508.111
1492 0 57.1017 12.1713 695 87.1683 233.105 505.935
1493 0 60.0552 12.6051 757 85.6645 232.79 506.865
1494 0 59.0475 12.0412 711 89.2053 233.046 504.774
1495 0 62.0571 12.3274 765 88.4549 232.569 504.425
1496 0 65.0336 12.2706 798 87.7318 232.508 504.217
1497 0 67.0443 12.4992 838 87.8854 232.834 503.335
1498 0 70.0541 13.1898 924 86.3658 233.356 500.873
1499 0 72.1053 12.2321 882 89.1326 233.27 499.092
1500 0 74.0484 12.8024 948 87.7321 232.788 497.301
1501 0 77.0332 12.8776 992 86.9839 232.975 495.8
1502 0 79.0855 13.0365 1031 87.0194 232.99 493.94
1503 0 82.0328 12.1537 997 88.5888 232.415 492.408
1504 0 84.2817 12.9684 1093 87.8984 233.127 490.42
1505 0 87.1171 12.4201 1082 89.403 233.584 488.66
1506 0 91.1096 12.4356 1133 97.8923 232.945 489.497
1507 0 93.1079 12.115 1128 99.7376 232.592 488.393
1508 1 49.0299 11.238 551 95.343 233.519 510.995
1509 0 50.0267 10.5744 529 93.1115 233.113 510.017
1510 0 52.0458 11.7781 613 86.8728 233.14 509.1
1511 0 54.14 11.8027 639 86.0657 232.88 507.319
1512 0 55.0617 11.9321 657 85.586 232.306 507.099
1513 0 55.0718 11.4215 629 88.7313 232.227 507.267
1514 0 59.0951 12.2345 723 85.4813 232.881 504.661
1515 0 59.0643 12.0039 709 85.9845 233.094 505.293
1516 0 62.0543 11.7961 732 84.7254 233.292 504.676
1517 0 65.0657 11.7573 765 84.1085 232.992 503.288
1518 0 66.0585 12.5949 832 81.976 232.799 502.718
1519 0 68.0724 12.3839 843 81.6892 232.827 500.828
1520 0 71.1144 11.9807 852 81.9225 232.839 498.91
1521 0 74.0656 12.2324 906 82.1258 233.667 498.517
1522 0 77.106 12.8524 991 80.2311 232.782 497.49
1523 0 77.106 12.8265 989 133.011 231.768 497.452
1524 0 81.1077 12.8841 1045 82.1368 233.314 494.337
1525 0 81.1077 12.2923 997 135.017 234.351 493.614
1526 0 85.1113 11.4321 973 89.5879 232.701 489.408
1527 0 87.1317 11.4195 995 90.2965 233.325 489.242
1528 0 91.1346 11.708 1067 91.2212 232.633 488.776
1529 0 94.1261 11.8246 1113 91.2956 233.135 487.91
1530 0 96.1296 11.7446 1129 92.7732 232.67 487.02
1531 1 44.0429 11.012 485 88.4247 233.728 512.447
1532 0 48.0351 11.1585 536 87.1716 233.817 510.802
1533 0 46.0554 10.5091 484 90.7376 234.147 510.089
1534 0 50.0826 10.3829 520 87.7904 234.137 508.088
1535 0 51.0442 11.2843 576 86.1319 232.543 505.729
1536 0 55.1336 12.2611 676 89.8062 233.698 507.518
1537 0 55.0961 11.9246 657 91.6119 233.461 506.423
1538 0 57.0982 12.3997 708 89.935 232.886 506.353
1539 0 58.0783 12.0699 701 91.485 233.252 506.438
1540 0 61.0847 12.2944 751 90.1984 233.406 505.033
1541 0 63.1271 12.7679 806 89.1228 232.882 503.69
1542 0 64.0867 12.4831 800 90.8488 233.201 503.041
1543 0 66.0895 12.9824 858 90.1026 233.932 502.016
1544 0 67.0895 12.148 815 93.3767 233.414 501.139
1545 0 68.1333 12.1526 828 92.494 233.292 499.272
1546 0 70.0891 11.9419 837 89.1804 232.437 496.674
1547 0 73.0996 11.5049 841 89.8228 232.767 495.109
1548 0 78.1384 12.4011 969 88.3942 233.203 493.657
1549 0 79.0813 11.9244 943 89.8749 232.487 493.565
1550 0 80.0919 11.1497 893 92.1937 232.6 492.84
1551 0 81.0562 10.8073 876 94.0925 232.558 492.217
1552 0 86.0617 11.2942 972 92.3158 232.636 490.997
1553 0 88.1266 11.4381 1008 92.8423 232.26 488.852
1554 0 88.0518 11.039 972 94.1008 231.961 487.042
1555 0 92.0528 11.4717 1056 92.7907 231.953 484.896
1556 0 98.0607 12.737 1249 88.0552 232.215 482.733
1557 0 101.121 12.4999 1264 88.0055 232.058 481.812
1558 0 105.087 12.8465 1350 87.8985 232.254 481.224
1559 0 110.101 12.7156 1400 88.6664 232.839 478.797
1560 1 57.0666 10.4615 597 92.4305 232.407 507.095
1561 0 59.0332 11.3495 670 95.2149 232.764 506.964
1562 0 62.1067 11.7218 728 94.4959 233.482 504.749
1563 0 64.1242 11.7428 753 93.8287 233.819 503.884
1564 0 65.1353 11.9137 776 92.6082 232.988 504.326
1565 0 68.0981 12.4379 847 89.6824 233.027 501.329
1566 0 69.0613 12.3803 855 90.4281 232.916 500.836
1567 0 71.1336 11.7385 835 92.2096 232.679 500.577
1568 0 74.1357 12.2748 910 90.5484 233.358 498.987
1569 0 76.0828 12.2761 934 90.3608 232.868 497.657
1570 0 77.0901 11.986 924 91.3106 232.934 496.495
1571 0 80.0606 12.9152 1034 89.5774 232.649 494.749
1572 0 81.0775 12.0502 977 92.4166 233.143 494.346
1573 0 83.0637 12.8576 1068 91.4101 232.695 493.936
1574 0 87.0937 13.0893 1140 91.1009 232.529 493.484
1575 0 89.0628 12.0364 1072 94.3582 232.965 492.178
1576 0 92.0704 12.7077 1170 90.9308 233.15 490.398
1577 0 94.1514 12.6286 1189 91.9411 232.521 488.33
1578 0 98.0883 12.5907 1235 92.5895 232.452 487.006
1579 0 100.067 13.0813 1309 92.4354 232.465 482.874
1580 0 103.125 12.577 1297 94.1604 232.244 482.21
1581 0 108.089 13.0819 1414 92.7864 232.733 481.894
1582 0 111.127 12.6611 1407 100.835 233.012 478.307
1583 0 112.117 12.3442 1384 104.587 232.297 479.083
1584 1 59.0341 11.0106 650 102.662 233.672 506.394
1585 0 61.0704 12.1008 739 101.524 233.488 505.084
1586 0 61.062 12.5774 768 96.4453 233.423 504.368
1587 0 63.0458 12.2609 773 94.6313 233.493 504.507
1588 0 66.0323 13.0239 860 94.3407 233.343 502.815
1589 0 68.0998 12.3936 844 95.1694 232.852 502.71
1590 0 69.0543 13.2649 916 94.595 233.255 501.012
1591 0 70.1106 13.2362 928 95.0151 233.284 500.736
1592 0 74.1054 13.1434 974 94.7146 232.813 501.373
1593 0 78.0864 12.9472 1011 94.8595 233.128 499.148
1594 0 78.0926 13.5736 1060 93.7651 232.754 498.518
1595 0 80.0916 13.3472 1069 95.4256 232.906 496.003
1596 0 82.048 13.419 1101 94.9183 233.035 494.384
1597 0 84.0668 13.4655 1132 97.4894 232.618 492.731
1598 0 86.0679 13.6055 1171 95.4509 232.178 491.367
1599 0 91.0411 13.5214 1231 94.9813 232.41 490.487
1600 0 91.0277 13.7431 1251 95.1431 232.634 487.342
1601 0 95.0725 13.4213 1276 94.518 232.78 486.777
1602 0 98.044 13.5653 1330 93.7556 232.778 485.415
1603 0 101.072 13.4657 1361 93.5195 233.095 483.856
1604 0 100.131 11.9544 1197 100.574 232.429 485.461
1605 0 104.205 12.3219 1284 99.3427 232.382 483.72
1606 1 55.1146 11.4851 633 99.5893 231.839 504.76
1607 0 55.1062 11.5595 637 97.2072 232.13 502.21
1608 0 59.1452 11.8522 701 95.3195 232.369 501.254
1609 0 59.0815 11.171 660 82.5364 232.692 500.514
1610 0 60.0867 11.9328 717 81.3849 232.392 499.353
1611 0 61.0722 10.9706 670 94.0209 232.278 497.397
1612 0 64.1064 11.4029 731 92.3406 232.575 498.015
1613 0 65.1047 11.5199 750 92.8187 232.643 496.283
1614 0 67.0794 11.7473 788 91.6358 232.923 493.341
1615 0 70.0875 12.0421 844 91.5912 232.031 494.438
1616 0 72.1421 12.1843 879 89.2446 232.584 494.156
1617 0 72.0771 11.4877 828 92.4022 231.828 492.548
1618 0 75.1262 11.6737 877 91.5177 232.058 489.693
1619 0 76.0664 11.6477 886 90.3273 232.491 487.113
1620 0 79.0893 11.1899 885 93.4373 232.938 489.316
1621 0 83.0928 12.5522 1043 98.1227 232.454 493.206
1622 0 87.0885 12.872 1121 95.0999 232.345 491.887
1623 0 89.1045 12.9062 1150 94.3322 231.754 490.895
1624 0 91.1384 12.6401 1152 95.5538 231.428 488.881
1625 0 93.1546 12.5598 1170 95.4444 232.208 487.314
1626 0 98.2055 12.8812 1265 92.5684 232.296 486.851
1627 0 100.125 13.0636 1308 87.5902 231.661 485.402
1628 1 54.0568 11.7654 636 93.2421 232.538 508.354
1629 0 56.0253 11.6733 654 93.13 232.055 507.011
1630 0 57.0855 13.0681 746 93.9732 232.361 506.244
1631 0 58.0507 12.6614 735 90.0735 231.427 505.955
1632 0 61.1148 13.1392 803 82.9464 231.999 505.304
1633 0 63.0839 12.8559 811 82.9519 232.086 503.964
1634 0 64.0768 13.0781 838 83.3162 232.251 503.278
1635 0 66.1031 12.4805 825 84.5709 232.29 502.092
1636 0 69.0797 13.1298 907 83.5568 232 501.287
1637 0 69.1076 12.8929 891 86.9832 232.164 499.58
1638 0 73.1241 13.3472 976 86.5789 232.07 499.374
1639 0 74.0789 13.1886 977 88.9171 231.803 499.071
1640 0 78.0847 13.5494 1058 88.0094 232.447 496.857
1641 0 78.0686 12.963 1012 89.8419 232.499 495.421
1642 0 81.0896 13.2199 1072 88.625 232.63 494.302
1643 0 84.0299 13.1144 1102 90.1633 232.8 493.46
1644 0 86.1155 13.8303 1191 90.8212 231.973 493.563
1645 1 48.0343 11.6167 558 101.005 231.468 510.158
1646 0 45.0751 11.4698 517 97.9168 232.159 506.928
1647 0 47.0134 12.0604 567 96.6473 231.91 504.651
1648 0 49.0602 11.6999 574 100.068 231.767 507.76
1649 0 48.0526 11.529 554 96.9639 232.296 511.845
1650 0 51.0161 12.0746 616 95.0227 232.669 510.151
1651 0 51.0249 11.4454 584 98.3956 232.151 509.332
1652 0 51.0703 11.9639 611 98.1768 232.043 506.975
1653 0 55.036 12.3737 681 95.8091 231.994 508.696
1654 0 56.0575 12.1126 679 96.2077 232.312 508.377
1655 0 59.0556 11.8194 698 97.2994 232.428 505.133
1656 0 60.0925 11.6986 703 97.6614 232.161 505.636
1657 0 62.0433 11.7821 731 98.4227 232.045 503.287
1658 0 64.0484 11.6474 746 98.634 232.131 504.361
1659 0 66.0991 11.5735 765 95.7843 231.997 503.942
1660 0 68.0779 12.6326 860 94.5174 232.581 502.326
1661 0 71.0647 12.3831 880 95.55 232.576 501.503
1662 0 75.0958 12.3576 928 95.2543 233.086 500.041
1663 0 76.0516 12.0708 918 98.1874 232.439 497.01
1664 0 79.0889 12.2141 966 98.3416 232.114 495.925
1665 1 42.0225 11.5414 485 100.062 233.678 513.01
1666 0 44.0485 11.6236 512 99.5117 233.051 513.668
1667 0 42.0263 11.9211 501 99.2555 232.329 512.601
1668 0 44.0533 12.7119 560 98.0554 231.95 511.195
1669 0 46.0156 12.474 574 101.371 232.444 511.002
1670 0 47.1153 12.7347 600 98.4867 232.84 511.013
1671 0 48.0398 12.9892 624 98.9936 232.356 510.498
1672 0 51.073 12.9227 660 98.3379 232.171 511.086
1673 0 50.0731 12.4218 622 102.804 232.617 511.707
1674 0 50.0941 12.736 638 103.53 232.041 511.022
1675 0 52.0377 12.9329 673 103.137 231.883 510.484
1676 0 52.0332 11.8002 614 106.163 232.285 510.666
1677 0 54.0666 12.6696 685 104.831 232.495 509.571
1678 0 56.0893 12.8902 723 105.149 232.451 507.794
1679 0 57.0304 12.5547 716 107.126 231.574 507.772
1680 0 58.1803 12.3409 718 107.375 231.253 507.156
1681 0 60.031 12.6768 761 106.728 231.641 506.486
1682 0 64.0422 12.7572 817 104.767 231.108 505.468
1683 0 65.112 12.7626 831 105.767 231.475 504.844
1684 0 67.087 13.3409 895 106.042 231.812 502.493
1685 0 70.0914 12.8261 899 105.597 231.283 501.902
1686 0 72.0456 13.1583 948 104.795 231.756 501.362
1687 0 74.1571 13.6197 1010 102.322 232.234 500.804
1688 0 76.0773 13.2891 1011 102.947 232.436 499.292
1689 0 80.1022 13.4578 1078 100.418 232.413 499.287
1690 0 81.0772 12.9753 1052 101.206 232.016 498.544
1691 0 83.0826 12.7945 1063 100.079 231.314 496.792
1692 0 88.0812 12.8518 1132 92.6281 231.773 492.466
1693 0 87.0248 12.1575 1058 97.2864 232.036 489.786
1694 0 91.087 13.0864 1192 96.3196 231.456 488.485
1695 1 49.0306 10.7688 528 102.555 232.07 511.098
1696 0 51.0505 11.7531 600 103.773 232.253 509.65
1697 0 51.033 12.0902 617 104.417 232.374 509.605
1698 0 54.1083 12.1978 660 98.803 231.25 507.803
1699 0 55.0324 12.8106 705 97.983 231.495 507.328
1700 0 54.0196 11.5884 626 102.16 231.522 509.077
1701 0 56.0952 11.5874 650 103.445 232.491 506.562
1702 0 58.052 12.1787 707 100.324 232.4 507.952
1703 0 61.0708 12.5756 768 98.9714 232.453 505.945
1704 0 62.044 12.3622 767 100.588 232.598 505.194
1705 0 66.0625 12.7001 839 100.315 232.595 504.056
1706 0 66.0772 12.5157 827 100.764 232.295 504.157
1707 0 69.015 12.6494 873 101.108 232.142 502.754
1708 0 71.0233 12.7423 905 100.872 231.53 500.906
1709 0 73.0557 12.8806 941 101.755 231.832 499.307
1710 0 76.0855 13.0248 991 101.565 231.887 496.667
1711 0 77.0583 13.2627 1022 102.351 232.137 497.178
1712 0 79.1236 13.6495 1080 103.221 232.075 495.426
1713 0 80.0631 16.3246 1307 98.0321 231.65 494.06
1714 0 85.1557 14.3384 1221 103.854 232.692 492.461
1715 0 86.187 14.016 1208 108.277 232.736 489.916
1716 0 89.1076 14.937 1331 105.98 232.476 490.033
1717 0 93.1085 13.8548 1290 106.312 232.647 488.837
1718 0 96.1762 14.3903 1384 105.014 232.642 487.819
1719 0 98.1205 14.6453 1437 105.342 232.373 486.065
1720 0 99.1242 14.1842 1406 107.173 231.746 484.359
1721 0 103.151 13.7565 1419 107.654 232.656 483.397
1722 0 106.12 13.8429 1469 108.025 232.31 482.276
1723 0 108.18 13.385 1448 110.419 232.258 479.383
1724 0 111.155 13.6926 1522 110.254 233.035 478.067
1725 0 115.195 13.7332 1582 109.179 232.965 475.8
1726 0 118.154 13.7279 1622 109.21 232.2 473.734
1727 0 122.146 13.795 1685 108.621 232.158 472.02
1728 0 126.129 14.0808 1776 110.329 232.052 470.391
1729 0 130.104 13.9811 1819 109.674 232.361 468.881
1730 0 134.184 14.4726 1942 108.295 231.494 465.857
1731 0 139.131 14.2887 1988 108.121 231.385 464.904
1732 0 145.156 13.8678 2013 109.374 231.058 461.919
1733 0 150.124 14.3148 2149 107.78 231.583 460.995
1734 0 154.219 14.2265 2194 110.001 231.304 458.938
1735 0 159.208 15.0495 2396 109.428 231.066 455.503
1736 0 166.172 14.7799 2456 106.967 231.463 454.385
1737 0 169.145 14.5319 2458 111.047 231.221 450.509
1738 1 89.0403 14.1397 1259 108.804 231.18 491.488
1739 0 90.0376 13.4722 1213 111.374 231.556 490.629
1740 0 93.0776 13.3115 1239 112.828 232.224 487.615
1741 0 96.0634 13.4807 1295 110.074 232.65 487.785
1742 0 99.0584 13.4769 1335 109.765 232.328 485.137
1743 0 103.105 13.433 1385 107.482 231.776 483.651
1744 0 104.084 13.4315 1398 108.374 231.512 483.281
1745 0 107.088 13.2788 1422 109.594 230.855 482.693
1746 0 111.072 13.2797 1475 109.214 230.945 479.093
1747 0 115.069 13.3311 1534 109.089 231.278 476.875
1748 0 118.059 13.3747 1579 109.676 231.902 476.818
1749 0 121.086 13.0321 1578 109.916 231.627 474.454
1750 0 125.152 13.7273 1718 107.885 231.733 470.831
1751 0 127.145 13.2605 1686 110.381 231.305 469.472
1752 0 133.133 13.0697 1740 110.271 231.759 467.398
1753 0 139.133 13.1745 1833 108.083 231.684 464.799
1754 1 76.0286 11.4431 870 102.645 231.585 498.23
1755 0 77.0771 12.0529 929 103.217 231.495 497.435
1756 0 79.1385 12.2065 966 103.637 231.793 497.205
1757 0 81.04 12.3643 1002 102.847 231.776 494.85
1758 0 84.0894 12.0467 1013 103.133 230.799 493.79
1759 0 89.0919 12.2458 1091 102.771 230.794 492.297
1760 0 88.0434 11.5057 1013 106.205 231.1 491.068
1761 0 92.0321 11.6046 1068 107.948 231.656 489.057
1762 0 95.0929 12.2407 1164 106.255 231.577 488.4
1763 0 95.0919 12.3354 1173 107.1 231.367 486.989
1764 0 99.0869 12.2014 1209 108.333 231.26 483.735
1765 0 100.068 12.2516 1226 108.31 231.797 483.118
1766 0 105.151 12.3726 1301 107.065 231.815 482.245
1767 0 109.083 12.6142 1376 106.346 231.451 478.509
1768 0 112.143 12.5732 1410 106.33 231.122 477.496
1769 0 115.112 12.0317 1385 107.831 231.193 476.318
1770 0 119.11 12.266 1461 107.59 230.913 475.008
1771 0 124.102 11.7484 1458 107.311 230.422 472.136
1772 1 69.039 11.0372 762 98.3018 231.026 501.045
1773 0 71.0181 10.8564 771 100.482 231.471 498.492
1774 0 72.0591 11.8375 853 101.71 231.379 497.345
1775 0 75.078 11.8943 893 101.362 231.376 495.834
1776 0 80.0642 12.1278 971 100.822 231.314 495.412
1777 0 81.1109 12.3535 1002 101.633 231.527 492.535
1778 0 85.0483 12.5929 1071 111.01 232.676 492.644
1779 0 84.0786 11.7866 991 115.504 232.266 490.867
1780 0 87.1222 12.0176 1047 114.72 232.299 489.031
1781 0 90.1308 12.504 1127 114.388 232.211 486.39
1782 0 92.1274 11.9074 1097 114.861 231.85 485.16
1783 0 96.1624 12.5725 1209 112.201 232.067 485.004
1784 0 96.1031 11.7686 1131 115.515 231.912 482.798
1785 0 99.1531 12.6471 1254 112.207 232.21 480.983
1786 0 101.141 12.3392 1248 112.287 232.248 482.488
1787 0 105.153 12.3249 1296 112.514 232.135 480.341
1788 0 107.099 12.017 1287 111.556 232.443 478.348
1789 0 110.223 12.3205 1358 108.735 232.32 477.922
1790 0 114.223 11.8102 1349 109.298 232.878 473.947
1791 0 119.239 12.1353 1447 109.824 232.598 471.513
1792 1 65.1512 10.161 662 102.728 232.598 501.807
1793 0 66.1276 10.389 687 101.061 232.454 501.114
1794 0 69.0831 11.3631 785 97.228 232.999 501.438
1795 0 70.1866 11.7401 824 97.3714 232.427 498.945
1796 0 72.0772 11.7929 850 95.42 232.064 498.515
1797 0 71.0606 10.4559 743 101.345 232.713 499.202
1798 0 75.1386 10.1279 761 101.071 231.874 496.929
1799 0 77.19 10.8175 835 97.3365 231.859 496.417
1800 0 80.1508 10.6799 856 97.7418 231.689 496.812
1801 0 81.1482 10.8197 878 95.1902 231.548 494.498
1802 0 85.1195 11.1138 946 92.371 231.243 495.008
1803 0 87.0996 10.7463 936 92.2735 231.309 490.2
1804 0 89.1055 10.8299 965 91.83 230.826 488.918
1805 0 91.131 10.3916 947 92.9271 230.809 487.642
1806 0 95.2083 11.228 1069 91.0608 231.508 485.504
1807 0 97.1643 10.9505 1064 92.0564 231.681 484.401
1808 0 99.1796 10.6373 1055 93.0104 231.128 481.406
1809 0 103.14 10.8009 1114 92.4497 231.576 478.695
1810 0 105.147 11.1178 1169 95.5629 231.341 482.501
1811 0 109.151 10.8016 1179 94.1018 231.228 479.032
1812 0 112.182 10.9376 1227 92.9967 231.099 478.125
1813 0 112.182 11.0178 1236 135.409 231.106 478.175
1814 0 120.264 10.5102 1264 92.1282 230.899 474.941
1815 0 122.178 10.7712 1316 91.962 231.214 471.429
1816 0 125.179 9.92979 1243 89.1416 230.854 462.917
1817 1 68.1915 8.78408 599 83.2471 230.666 494.554
1818 0 71.1366 10.3603 737 89.9891 230.752 496.446
1819 0 72.0845 10.89 785 92.6293 229.638 493.925
1820 0 74.1378 11.573 858 92.6632 230.669 494.104
1821 0 77.0962 11.3754 877 88.8449 230.547 492.842
1822 0 80.1202 11.2331 900 89.6544 230.509 490.252
1823 0 82.1748 11.3052 929 87.9031 230.584 489.49
1824 0 85.1105 11.2207 955 86.6513 230.992 487.46
1825 0 88.1867 11.1695 985 87.0589 230.989 487.302
1826 0 91.2078 11.271 1028 87.9912 230.792 483.964
1827 0 93.1464 11.3907 1061 86.115 231.165 482.582
1828 0 95.1681 10.7914 1027 87.89 231.501 481.161
1829 0 98.1571 11.451 1124 86.5107 231.203 478.844
1830 0 101.206 11.6001 1174 86.6278 231.063 477.282
1831 0 103.188 10.8734 1122 88.5873 231.543 476.868
1832 1 54.0305 9.17999 496 93.4052 232.218 501.252
1833 0 57.025 9.75012 556 91.9065 232.748 499.737
1834 0 58.042 10.3718 602 90.9485 232.502 497.934
1835 0 60.0501 10.7077 643 90.4743 233.152 496.194
1836 0 60.0478 10.7414 645 91.9752 232.842 493.533
1837 0 62.1412 11.1842 695 94.4432 232.154 492.37
1838 0 64.1645 11.1432 715 94.6196 232.722 491.487
1839 0 65.2066 10.5204 686 97.1108 232.577 488.558
1840 0 67.2152 10.7119 720 98.0639 232.532 489.422
1841 0 72.1921 11.6495 841 96.4875 232.446 488.889
1842 0 73.1994 11.7487 860 92.55 232.441 488.8
1843 0 76.1611 12.421 946 93.9503 232.717 487.704
1844 0 76.1259 12.1246 923 96.1744 232.707 486.911
1845 0 79.123 12.4869 988 96.416 232.995 484.365
1846 0 83.1007 12.9963 1080 94.6824 233.098 485.611
1847 0 86.1462 12.8967 1111 95.577 232.951 484.15
1848 0 87.1804 13.5466 1181 94.5368 232.682 483.655
1849 0 91.1569 12.2865 1120 94.4562 232.089 486.036
1850 0 92.1472 12.0893 1114 95.4093 232.219 484.505
1851 0 92.0491 11.9719 1102 97.3203 232.447 483.06
1852 0 101.157 14.2452 1441 88.2831 230.981 481.857
1853 0 100.182 12.7767 1280 94.4828 231.396 480.009
1854 0 104.258 13.1597 1372 93.1305 231.925 475.858
1855 0 107.336 12.6425 1357 95.434 231.637 475.015
1856 0 108.148 12.3442 1335 96.2802 231.869 473.196
1857 0 114.301 13.5607 1550 91.7632 231.386 469.952
1858 0 116.326 13.0152 1514 94.9775 231.235 468.421
1859 1 66.2877 11.5557 766 94.7428 231.675 495.251
1860 0 65.1416 12.0967 788 95.1586 231.584 493.008
1861 0 67.092 12.6244 847 94.0307 232.455 493.825
1862 0 70.1298 12.1204 850 94.3812 232.606 499.413
1863 0 71.1276 12.2878 874 95.1201 232.562 496.55
1864 0 74.1193 12.5338 929 93.8676 232.46 495.143
1865 0 75.1256 12.2462 920 95.6554 232.623 493.695
1866 0 78.0858 12.6143 985 94.6223 233.142 493.02
1867 0 79.1007 12.2629 970 96.3237 232.765 492.508
1868 0 80.0801 12.7872 1024 96.7695 232.375 491.312
1869 0 83.08 12.3857 1029 97.4509 231.996 490.426
1870 0 85.0691 12.3076 1047 98.4699 231.977 486.987
1871 0 88.1454 12.2184 1077 98.2228 232.733 486.659
1872 0 90.1066 12.6073 1136 98.5009 232.158 484.651
1873 0 91.0712 12.5067 1139 97.0825 231.365 482.597
1874 0 92.0905 11.9991 1105 98.143 231.881 480.55
1875 0 95.0634 12.8756 1224 95.7361 232.247 479.438
1876 0 101.096 12.3942 1253 98.395 232.093 477.695
1877 0 103.093 12.3383 1272 99.6171 231.792 475.222
1878 0 106.099 12.8748 1366 98.5432 232.143 472.569
1879 0 108.172 12.591 1362 99.9376 231.875 470.179
1880 0 112.182 12.6401 1418 99.6418 232.307 468.282
1881 0 114.132 12.3366 1408 100.402 232.095 465.673
1882 1 65.0554 11.4364 744 94.6169 232.778 490.958
1883 0 67.0934 11.7299 787 92.6976 232.64 490.757
1884 0 69.1408 12.4962 864 94.4387 232.801 490.854
1885 0 70.0586 10.7767 755 98.9629 233.585 496.107
1886 0 72.0343 11.6472 839 96.7533 233.47 495.117
1887 0 75.0343 11.3282 850 97.1306 232.562 492.514
1888 0 79.0509 11.5242 911 95.7146 230.679 492.667
1889 0 79.0812 11.4313 904 98.2301 230.652 489.838
1890 0 84.0686 11.669 981 97.2161 230.647 488.861
1891 0 86.0559 10.958 943 99.6384 230.731 487.369
1892 0 88.0442 11.8804 1046 98.218 231.068 486.044
1893 0 89.027 11.401 1015 99.7419 231.351 485.18
1894 0 93.1042 11.5569 1076 98.8606 231.875 483.804
1895 0 95.0708 12.2856 1168 96.6695 231.787 482.041
1896 0 99.0835 11.7275 1162 96.4492 232.052 480.958
1897 0 102.1 12.0666 1232 94.2054 232.473 481.011
1898 1 53.1435 10.8386 576 94.9115 232.024 504.193
1899 0 52.0748 10.6385 554 96.509 231.056 502.857
1900 0 52.0725 10.3126 537 92.095 231.767 497.125
1901 0 55.0787 10.2399 564 86.0621 232.638 505.395
1902 0 56.0762 10.8067 606 84.302 232.469 505.127
1903 0 60.0611 10.8889 654 83.945 231.748 502.203
1904 0 60.0472 10.7915 648 85.2052 232.519 503.677
1905 0 62.0697 10.021 622 87.4646 232.354 501.161
1906 0 62.0844 10.534 654 87.8471 232.994 501.953
1907 0 68.1318 11.7713 802 83.0349 231.97 501.191
1908 0 69.0853 11.5509 798 84.7293 231.716 500.58
1909 0 73.0965 12.0389 880 84.158 232.438 497.757
1910 0 72.0669 11.5587 833 86.5534 231.573 497.292
1911 0 76.1088 11.6281 885 85.8339 232.122 497.09
1912 0 78.0653 12.5792 982 85.4114 230.59 494.428
1913 0 80.0601 12.4282 995 86.8372 230.779 492.659
1914 0 82.09 12.2427 1005 88.6547 231.074 493.731
1915 0 85.0467 12.5813 1070 89.3935 231.031 491.772
1916 0 86.0471 12.714 1094 91.659 231.035 491.46
1917 0 90.0936 12.9865 1170 98.4735 229.984 489.172
1918 0 93.0653 12.8942 1200 97.8283 230.253 487.943
1919 0 93.1184 11.9525 1113 99.0413 230.122 487.235
1920 0 96.1104 12.5064 1202 101.572 229.891 486.354
1921 0 98.0799 11.8985 1167 102.966 229.791 484.833
1922 0 103.107 12.6373 1303 99.9785 229.365 483.84
1923 0 104.11 12.3812 1289 101.83 229.188 481.252
1924 0 107.136 12.2741 1315 101.883 229.703 480.368
1925 1 60.0807 11.0851 666 98.6381 230.339 503.456
1926 0 61.0398 11.1403 680 98.9632 229.7 504.424
1927 0 65.132 12.1753 793 97.9571 231.12 501.184
1928 0 64.0508 10.8351 694 89.1297 230.925 498.246
1929 0 66.0548 11.4299 755 88.849 230.328 495.346
1930 0 67.0369 11.7995 791 88.9406 229.527 496.554
1931 0 71.0665 12.2702 872 91.1124 230.204 495.607
1932 0 73.1022 11.737 858 93.4802 229.434 492.649
1933 0 73.1022 11.7233 857 94.3302 229.917 491.984
1934 0 77.0813 11.689 901 93.0932 229.961 491.142
1935 0 80.0896 11.8243 947 93.189 230.262 490.9
1936 0 83.1422 11.9795 996 94.1868 229.689 489.776
1937 0 84.0939 12.1055 1018 93.834 229.912 485.928
1938 0 86.1111 12.9252 1113 93.4151 230.1 484.597
1939 0 91.1023 12.6451 1152 94.4036 229.671 484.877
1940 0 90.1158 13.1054 1181 97.3692 230.428 485.401
1941 0 95.1876 13.0689 1244 97.1318 230.511 482.184
1942 0 100.113 13.6746 1369 98.8912 230.413 483.911
1943 0 102.147 13.8429 1414 104.006 230.269 484.412
1944 0 105.154 13.913 1463 105.2 230.606 483.08
1945 0 109.103 14.7475 1609 102.344 229.328 481.65
1946 0 112.112 14.6193 1639 103.583 229.893 478.586
1947 0 116.357 14.0773 1638 102.95 230.361 474.354
1948 0 120.217 14.3241 1722 102.297 230.332 474.508
1949 0 125.285 14.4311 1808 101.611 229.886 471.635
1950 0 131.284 14.7467 1936 99.5139 229.619 468.24
1951 0 134.214 14.2683 1915 101.434 229.295 466.763
1952 0 137.23 14.3846 1974 101.758 230.06 465.374
1953 0 142.236 14.4689 2058 101.597 230.351 462.987
1954 0 146.257 14.7822 2162 101.995 230.397 460.931
1955 0 152.275 14.9729 2280 102.872 230.952 458.121
1956 0 156.245 14.8932 2327 103.872 230.867 457.162
1957 0 163.252 15.424 2518 104.801 230.274 454.233
1958 0 168.196 14.9409 2513 106.65 229.432 448.596
1959 0 174.238 14.8417 2586 107.285 230.386 448.209
1960 0 177.217 14.1917 2515 110.395 229.95 446.258
1961 0 184.215 14.7762 2722 109.031 230.256 442.482
1962 0 188.262 14.448 2720 111.111 229.933 440.76
1963 0 194.223 14.54 2824 110.551 229.749 436.865
1964 0 200.258 14.6011 2924 109.203 230.25 434.298
1965 0 207.222 15.1046 3130 107.877 230.253 430.964
1966 0 214.277 14.9199 3197 106.591 230.297 429.574
1967 0 220.232 14.403 3172 107.828 229.664 423.673
1968 0 220.234 14.4256 3177 170.219 228.667 423.727
1969 1 236.197 14.1111 3333 105.97 228.94 421.745
1970 0 242.194 13.5387 3279 107.432 229.087 418.684
1971 1 187.241 12.4065 2323 108.16 228.84 446.952
1972 0 193.216 13.1614 2543 107.729 229.179 441.46
1973 0 201.184 13.1273 2641 108.01 228.883 437.687
1974 0 205.162 12.4926 2563 109.296 229.593 432.103
1975 0 214.309 12.9906 2784 107.064 228.756 427.392
1976 0 221.228 13.1629 2912 108.291 229.298 421.052
1977 0 227.317 12.8279 2916 110.579 229.015 416.735
1978 0 235.32 14.3592 3379 108.949 229.048 413.865
1979 0 245.296 14.3297 3515 111.002 228.732 409.877
1980 0 250.409 14.049 3518 113.623 228.525 408.246
1981 0 258.459 14.2421 3681 113.87 228.274 402.001
1982 0 264.32 13.915 3678 114.834 229.231 399.233
1983 0 271.33 13.7066 3719 116.791 228.69 391.183
1984 0 280.312 14.2734 4001 115.179 228.944 387.428
1985 1 231.147 9.48316 2192 121.523 229.705 429.806
1986 0 231.277 11.2117 2593 119.448 229.006 422.281
1987 0 233.271 13.3064 3104 116.496 229.118 415.514
1988 0 240.148 14.1122 3389 115.121 228.499 411.465
1989 0 248.159 13.8943 3448 116.765 229.138 407.171
1990 0 257.197 13.9038 3576 116.562 229.082 403.332
1991 0 265.367 13.7169 3640 117.498 228.984 396.47
1992 0 274.442 14.0686 3861 117.133 228.653 391.155
1993 1 361.584 11.823 4275 121.049 228.284 365.687
1994 0 364.504 10.6199 3871 123.043 228.18 377.793
1995 0 365.543 10.8277 3958 123.032 228.113 379.13
1996 0 364.579 10.3023 3756 125.337 227.941 377.818
1997 1 331.389 16.1412 5349 110.398 227.821 363.055
1998 0 340.453 14.0989 4800 117.678 228.673 366.458
1999 1 60.0252 10.5123 631 98.1125 229.087 507.384
2000 0 60.0191 10.8299 650 100.497 230.62 505.817
2001 0 62.0311 11.1234 690 101.571 231.048 505.368
2002 0 62.0442 11.0727 687 103.758 231.285 503.884
2003 0 65.0989 11.5363 751 103.197 231.585 503.952
2004 0 63.0353 10.7559 678 102.145 230.338 504.465
2005 1 358.478 14.0901 5051 117.92 228.45 351.148
2006 1 76.1692 12.1178 923 77.0563 230.572 491.532
2007 0 77.1169 11.8521 914 80.0777 229.933 492.208
2008 0 76.0849 10.7643 819 88.6032 230.027 495.01
2009 0 75.0816 9.80267 736 94.269 230.037 494.221
2010 0 81.0848 11.6545 945 88.1143 229.821 491.825
2011 0 79.1426 10.121 801 96.0499 230.775 496.98
2012 0 82.1337 9.98372 820 93.85 229.854 491.73
2013 0 91.0447 13.433 1223 80.538 229.66 469.286
2014 0 89.1311 12.2292 1090 86.0606 230.298 470.294
2015 0 85.1057 10.9981 936 94.3729 229.349 475.554
2016 0 92.1262 11.6254 1071 106.375 229.528 486.827
2017 1 106.279 15.8451 1684 88.9733 228.984 477.758
2018 0 101.189 14.9028 1508 94.5411 229.127 474.99
2019 0 102.157 14.282 1459 96.8855 229.624 476.877
2020 0 105.188 14.2411 1498 96.6348 229.381 481.357
2021 0 108.104 13.82 1494 95.5134 230.85 478.401
2022 1 60.0325 11.3938 684 86.6389 230.917 506.743
2023 0 63.1082 12.027 759 86.6087 230.893 507.095
2024 0 63.0713 10.94 690 85.3652 229.854 502.804
2025 0 62.2077 9.78978 609 88.3432 230.484 501.821
2026 0 62.1807 10.1157 629 89.31 230.261 500.707
2027 0 65.1016 10.5066 684 88.6345 230.576 503.712
2028 0 68.0705 11.3559 773 87.8486 229.926 501.376
2029 0 69.1279 11.052 764 92.2513 230.984 502.16
2030 0 70.0611 10.9761 769 89.4889 230.542 500.792
2031 0 72.0816 11.0847 799 90.2741 230.279 499.926
2032 0 73.081 10.851 793 90.0807 230.262 497.132
2033 0 76.132 11.6771 889 87.5973 230.445 497.091
2034 0 79.1158 11.5274 912 88.4309 230.276 497.015
2035 0 80.0816 11.9628 958 87.7787 230.689 494.722
2036 0 81.0939 11.6778 947 92.1542 229.874 496.795
2037 0 86.157 11.5951 999 89.7317 229.427 492.866
2038 0 88.126 11.9715 1055 88.2569 229.977 491.23
2039 0 91.1115 11.667 1063 88.8721 229.737 489.773
2040 0 92.0956 12.4327 1145 88.7284 229.599 487.75
2041 0 96.114 12.6829 1219 89.8318 230.217 488.716
2042 0 98.1866 12.2522 1203 91.148 230.908 487.499
2043 0 101.13 12.924 1307 89.6679 230.487 486.132
2044 0 104.175 12.8438 1338 89.1555 230.745 483.124
2045 0 107.172 12.8859 1381 88.4634 230.274 481.438
2046 0 109.141 12.9466 1413 88.356 230.039 480.943
2047 0 114.188 13.4603 1537 91.9174 229.47 479.052
2048 0 118.167 12.8124 1514 94.2378 228.588 475.126
2049 0 121.275 12.9623 1572 94.7328 229.004 469.493
2050 1 72.1701 11.4175 824 92.0073 228.661 495.365
2051 0 73.1363 12.0734 883 90.1472 229.596 495.574
2052 0 75.1239 12.7256 956 87.9236 230.791 498.124
2053 0 76.1283 12.6891 966 91.6356 230.463 498.225
2054 0 80.0786 13.0247 1043 91.3605 229.93 496.481
2055 0 80.1023 12.9459 1037 94.2642 230.079 495.643
2056 0 83.1259 12.3307 1025 95.6059 230.827 494.505
2057 0 84.1516 12.8696 1083 95.5328 230.739 492.68
2058 0 87.1345 12.693 1106 96.8183 230.383 492.286
2059 0 90.163 13.0985 1181 95.6173 229.941 490.434
2060 0 92.2532 12.8993 1190 96.3008 229.784 488.773
2061 0 94.1259 13.6201 1282 93.5679 229.85 488.534
2062 0 95.2736 12.4589 1187 96.4844 230.695 486.485
2063 0 99.1335 12.8514 1274 94.409 229.677 485.957
2064 0 102.118 12.9948 1327 93.639 230.068 483.515
2065 0 104.233 13.1532 1371 93.3807 229.939 482.007
2066 0 107.175 12.9787 1391 92.9907 230.215 479.286
2067 0 108.341 11.9992 1300 95.9808 229.863 476.431
2068 0 115.21 13.2454 1526 92.5852 229.847 472.541
2069 0 118.281 13.4341 1589 92.1586 229.58 473.412
2070 0 120.405 12.7736 1538 95.459 229.838 468.264
2071 1 69.2475 11.1484 772 95.1166 229.968 496.681
2072 0 69.0487 11.4991 794 98.5605 228.87 494.889
2073 0 71.1912 11.8273 842 94.1449 230.132 494.695
2074 0 75.1194 12.7663 959 95.9322 230.397 495.543
2075 0 75.1127 12.2216 918 99.7081 230.255 494.599
2076 0 79.139 13.1541 1041 94.7743 230.333 494.966
2077 0 80.1039 13.2453 1061 96.2592 230.469 491.51
2078 0 85.1221 12.5114 1065 96.4291 230.308 491.622
2079 0 86.2012 13.3177 1148 93.7683 229.815 490.042
2080 0 87.0824 12.6202 1099 91.8053 229.255 490.164
2081 0 89.1217 12.7129 1133 92.3592 229.284 488.703
2082 0 92.1133 12.1264 1117 93.5166 228.927 487.681
2083 0 94.0529 12.9502 1218 93.055 230.098 485.608
2084 0 98.0828 12.9584 1271 92.1259 229.503 486.463
2085 0 98.0953 12.7325 1249 93.0681 230.014 485.186
2086 0 101.11 12.8573 1300 93.2031 230.284 482.973
2087 0 104.066 12.9148 1344 92.9531 229.565 480.785
2088 0 108.094 13.2385 1431 91.0874 229.464 481.627
2089 0 111.093 13.3221 1480 91.5939 229.279 477.784
2090 0 114.089 13.2002 1506 91.9482 229.111 475.754
2091 0 119.165 13.2253 1576 91.2925 228.85 474.018
2092 0 123.093 13.1851 1623 92.1719 228.879 470.048
2093 0 126.072 12.7784 1611 93.3575 228.998 468.045
2094 0 130.109 13.7039 1783 91.8682 228.988 466.753
2095 0 135.066 13.2824 1794 92.8618 229.266 463.613
2096 1 73.1272 11.3774 832 94.0637 229.489 490.121
2097 0 75.0586 11.2579 845 94.5408 230.839 484.809
2098 0 81.1268 12.6592 1027 93.7975 230.333 491.149
2099 0 83.1628 12.3853 1030 94.8544 229.802 489.003
2100 0 85.1312 12.6393 1076 95.948 229.88 485.63
2101 0 87.1025 12.9388 1127 94.4383 230.2 488.628
2102 0 90.0907 12.8537 1158 96.5898 229.6 486.191
2103 0 91.0971 12.8874 1174 97.3697 230.532 484.572
2104 0 94.0869 13.4344 1264 95.4581 230.935 482.271
2105 0 94.1284 12.5361 1180 99.3847 229.891 480.72
2106 0 98.1404 12.7063 1247 99.6889 230.117 480.154
2107 0 102.114 12.7897 1306 99.6991 229.596 480.281
2108 0 104.106 12.6122 1313 100.275 229.392 477.477
2109 0 106.143 12.8035 1359 100.01 229.601 475.636
2110 0 108.116 12.3201 1332 102.165 229.73 473.062
2111 0 112.106 13.1393 1473 99.4318 229.975 470.006
2112 0 116.123 13.4771 1565 98.8645 230.375 467.419
2113 0 118.109 12.9965 1535 100.964 230.291 465.385
2114 1 66.0289 10.556 697 101.603 230.126 493.185
2115 0 69.0618 11.7431 811 99.4908 230.049 495.27
2116 0 71.1518 11.7214 834 103.724 230.141 493.699
2117 0 72.1278 12.2144 881 102.413 231.191 492.48
2118 0 76.1649 11.7508 895 101.92 230.812 493.565
2119 0 79.1319 12.3465 977 101.734 230.607 491.559
2120 0 81.1639 12.1975 990 101.816 230.488 489.523
2121 0 82.1356 11.8219 971 102.878 230.343 487.853
2122 0 84.2305 12.4539 1049 101.037 230.65 487.433
2123 0 88.208 12.3231 1087 98.9669 231.296 485.505
2124 0 89.196 12.3884 1105 99.3937 231.039 483.863
2125 0 91.2101 12.6631 1155 98.5784 229.681 483.053
2126 0 94.1833 12.5925 1186 99.339 229.763 481.097
2127 0 96.1612 13.6542 1313 94.5423 230.326 481.877
2128 0 97.2627 13.4687 1310 94.6527 230.494 480.301
2129 0 100.288 13.2219 1326 95.282 230.459 478.35
2130 0 105.124 13.1369 1381 94.37 230.372 477.747
2131 0 106.126 13.5688 1440 93.4097 229.745 474.869
2132 0 110.254 12.9519 1428 94.3655 229.924 473.576
2133 0 111.161 13.557 1507 94.1619 229.662 471.621
2134 0 114.227 12.7466 1456 97.4238 229.845 469.854
2135 0 119.246 13.577 1619 95.1427 229.822 468.562
2136 0 119.241 12.4706 1487 99.2865 230.065 469.748
2137 0 123.243 13.0149 1604 99.1552 230.117 467.963
2138 0 125.341 12.9726 1626 100.534 230.026 463.795
2139 0 128.245 12.2422 1570 100.006 230.448 462.14
2140 0 133.292 12.3113 1641 98.9988 230.558 459.509
2141 0 137.235 12.3729 1698 99.106 230.458 456.997
2142 0 140.134 12.067 1691 98.6215 230.028 452.087
2143 0 146.254 12.2458 1791 99.5701 229.911 449.16
2144 0 150.32 12.8393 1930 99.5021 229.721 448.102
2145 0 156.251 12.2111 1908 101.631 229.486 444.515
2146 0 161.225 12.4174 2002 100.028 229.68 444.872
2147 0 168.184 12.4923 2101 98.7082 229.809 440.603
2148 1 84.1232 11.0552 930 94.5312 230.392 486.777
2149 0 86.1633 11.4318 985 94.9919 230.326 486.5
2150 0 88.1147 11.973 1055 86.9488 231.734 485.636
2151 0 90.0605 12.103 1090 86.6321 231.803 485.095
2152 0 95.1342 11.8149 1124 86.6415 231.461 482.552
2153 0 97.0485 11.3242 1099 87.8963 232.022 483.916
2154 0 101.114 11.848 1198 89.3865 231.746 481.974
2155 0 103.062 12.2741 1265 90.7668 231.708 479.716
2156 0 108.056 12.7342 1376 91.327 231.01 477.757
2157 0 112.074 12.6703 1420 89.0901 230.877 476.11
2158 1 50.0562 10.7479 538 85.7026 230.431 508.569
2159 0 48.0539 10.8628 522 87.6897 229.764 506.354
2160 0 51.0289 11.3073 577 85.3796 232.043 507.981
2161 0 54.0553 11.7657 636 84.9544 231.709 505.917
2162 0 54.0803 11.5199 623 85.2536 231.886 505.249
2163 0 54.0523 10.4713 566 92.0265 231.943 506.026
2164 0 56.0495 10.794 605 90.4364 232.145 505.155
2165 0 57.0867 10.3527 591 92.9712 232.36 503.985
2166 0 60.1026 11.2807 678 90.8599 233.382 503.102
2167 0 62.0948 11.257 699 93.505 232.485 502.452
2168 0 62.1146 11.1246 691 95.0839 232.531 501.624
2169 0 65.1341 10.6549 694 96.755 232.399 502.586
2170 0 66.1333 10.7813 713 96.582 232.352 500.23
2171 0 67.0946 11.0441 741 94.6478 232.633 498.91
2172 0 68.1252 10.4367 711 97.6737 231.803 500.305
2173 0 72.0908 11.541 832 95.2596 232.505 498.584
2174 0 74.0733 11.6371 862 95.3411 233.108 496.945
2175 0 75.0913 10.9733 824 96.915 232.699 495.46
2176 0 79.104 11.0488 874 95.5641 232.281 494.857
2177 0 81.0644 11.0036 892 94.7825 232.253 493.164
2178 0 81.1129 10.5285 854 96.9251 232.692 490.912
2179 0 86.067 11.3632 978 93.8609 232.627 491.528
2180 0 88.0698 11.1389 981 92.9052 232.115 488.417
2181 0 91.0957 11.0214 1004 93.488 231.654 486.792
2182 0 92.0387 11.2235 1033 94.4618 231.779 484.925
2183 0 96.2432 11.5852 1115 94.0386 231.535 485.041
2184 0 100.071 12.6011 1261 92.793 231.785 484.267
2185 0 102.063 12.2669 1252 95.52 232.261 482.129
2186 0 106.034 12.5809 1334 96.8358 230.883 478.807
2187 0 110.101 12.7883 1408 95.7351 231.795 475.18
2188 0 112.167 13.043 1463 94.4375 231.848 473.427
2189 0 116.221 13.0356 1515 94.6964 231.685 474.23
2190 1 67.1179 10.8764 730 91.6863 232.614 498.184
2191 0 68.1426 11.0797 755 92.0622 232.244 497.056
2192 0 69.1058 12.1842 842 90.9846 232.194 499.021
2193 0 73.1036 12.2155 893 90.3214 231.898 497.046
2194 0 72.0955 11.5403 832 94.1695 231.793 492.84
2195 0 74.0305 11.09 821 95.7162 232.113 496.291
2196 0 79.0459 11.3984 901 91.5927 231.734 494.979
2197 0 80.03 11.7706 942 93.6338 231.799 495.453
2198 0 83.0309 12.2725 1019 93.8793 231.746 494.087
2199 0 85.035 12.4419 1058 92.811 231.668 492.522
2200 0 87.0441 12.4879 1087 93.4223 231.476 490.503
2201 0 89.0607 12.2838 1094 93.681 231.974 489.648
2202 0 93.1125 12.5977 1173 93.1108 232.588 487.917
2203 0 96.0514 12.2955 1181 92.2786 231.787 488.306
2204 0 97.0461 12.324 1196 93.1614 231.276 487.041
2205 0 99.0306 11.9862 1187 94.4575 232.313 485.957
2206 0 102.071 12.119 1237 93.6508 232.32 483.771
2207 0 106.066 13.0013 1379 91.7882 232.497 482.039
2208 0 111.099 13.4385 1493 90.436 232.488 480.948
2209 0 113.097 13.5636 1534 91.9876 231.459 478.718
2210 0 115.064 13.0797 1505 93.0731 231.182 477.313
2211 0 118.037 13.3179 1572 94.1578 232.046 476.323
2212 0 124.108 13.3513 1657 90.4315 231.479 475.138
2213 0 127.184 12.7532 1622 92.4032 231.25 471.138
2214 0 131.132 12.6361 1657 93.4792 231.455 470.891
2215 1 73.082 11.4939 840 85.8357 232.479 500.293
2216 0 74.0456 10.9392 810 86.3272 230.88 499.884
2217 0 76.1028 11.6553 887 92.5558 230.87 493.929
2218 0 81.0635 12.2867 996 86.2821 231.798 495.885
2219 0 82.1051 12.7885 1050 86.0905 231.368 494.477
2220 0 83.0765 12.4102 1031 86.9505 231.735 492.29
2221 0 88.1083 12.1782 1073 87.205 231.83 491.131
2222 0 90.1496 12.5458 1131 96.137 231.945 488.375
2223 0 94.1139 13.0905 1232 95.2005 231.189 489.021
2224 0 96.156 12.4485 1197 98.4144 231.443 486.216
2225 0 99.0751 13.3636 1324 96.0755 231.735 484.755
2226 0 100.154 12.5807 1260 98.3992 230.971 483.289
2227 0 103.183 12.9189 1333 97.4876 230.374 482.778
2228 0 106.157 12.962 1376 96.6177 230.671 480.398
2229 0 109.134 12.3151 1344 97.1711 231.251 478.404
2230 0 112.067 12.5996 1412 93.0128 231.157 477.887
2231 0 113.138 11.95 1352 95.4615 230.835 474.829
2232 0 117.117 12.2698 1437 94.5317 231.358 475.244
2233 0 120.14 12.7518 1532 93.0033 230.681 473.399
2234 0 124.114 12.7061 1577 93.215 230.328 472.185
2235 0 128.185 12.5912 1614 93.842 230.69 471.442
2236 0 131.129 12.9491 1698 93.4523 230.24 468.574
2237 0 134.179 12.4163 1666 96.5 230.36 467.682
2238 0 138.145 12.4796 1724 96.2268 230.479 465.795
2239 0 142.152 12.5218 1780 96.8871 230.642 463.583
2240 0 147.122 12.7105 1870 97.7898 230.479 459.705
2241 0 151.126 13.3134 2012 97.4632 230.593 457.868
2242 0 157.085 13.203 2074 98.2184 230.947 456.817
2243 0 161.104 12.8364 2068 99.7118 231.058 455.177
2244 1 96.0807 11.3134 1087 98.8924 231.398 487.293
2245 0 98.1394 11.8403 1162 100.048 230.857 485.88
2246 0 101.076 12.4065 1254 100.269 230.833 483.328
2247 0 104.087 12.8739 1340 101.068 230.702 480.705
2248 0 107.123 13.2185 1416 101.314 231.042 480.494
2249 0 111.111 13.005 1445 101.563 230.884 480.075
2250 0 111.124 11.8246 1314 98.6697 231.124 481.86
2251 0 115.09 11.9645 1377 99.3282 230.789 479.454
2252 0 117.094 12.0758 1414 99.4986 231.139 479.56
2253 0 121.108 12.3856 1500 98.644 230.427 475.813
2254 0 125.065 12.1297 1517 98.5676 231.628 475.953
2255 0 126.126 11.6788 1473 100.432 231.94 474.405
2256 0 131.144 12.4291 1630 98.2478 231.694 471.139
2257 0 135.123 12.5441 1695 98.918 231.271 470.103
2258 0 141.154 13.085 1847 98.5972 231.304 465.991
2259 0 149.183 14.7738 2204 93.6207 231.204 459.505
2260 0 150.074 13.7533 2064 99.2573 230.831 462.387
2261 0 151.125 12.8106 1936 100.821 230.447 461.853
2262 0 155.147 12.6847 1968 101.798 230.73 456.233
2263 0 163.083 15.2008 2479 98.8584 230.491 447.489
2264 0 167.124 12.6972 2122 101.972 230.425 450.593
2265 0 170.115 12.7091 2162 103.022 230.201 447.064
2266 0 174.215 13.2365 2306 107.108 230.474 439.421
2267 0 179.227 13.508 2421 106.134 230.378 439.691
2268 0 185.249 13.4306 2488 107.711 230.024 434.189
2269 0 193.35 14.4557 2795 104.286 230.77 433.562
2270 0 198.312 14.5226 2880 104.878 230.607 429.627
2271 0 205.196 14.4545 2966 105.827 230.481 425.986
2272 0 211.275 14.635 3092 106.23 230.265 424.705
2273 0 216.297 14.4339 3122 107.234 230.176 418.769
2274 0 219.28 13.9228 3053 109.219 230.156 414.363
2275 0 226.162 13.4196 3035 111.242 229.579 412.28
2276 0 236.303 15.0189 3549 107.367 229.901 410.595
2277 0 241.276 14.5849 3519 109.776 229.237 405.468
2278 0 248.238 15.046 3735 109.638 229.129 403.854
2279 1 61.0706 10.5452 644 95.3556 231.384 498.829
2280 0 63.0875 10.8104 682 94.1158 231.707 494.692
2281 0 64.0349 10.4006 666 90.4474 231.263 499.497
2282 0 65.098 11.813 769 96.8674 231.42 503.934
2283 0 68.214 12.3435 842 94.8005 231.429 503.827
2284 0 71.1174 12.2052 868 95.8721 231.508 501.084
2285 0 72.0271 11.5373 831 94.9001 231.19 501.427
2286 0 76.1035 11.8523 902 94.0399 230.98 500.324
2287 0 77.1513 12.806 988 95.9656 231.03 497.575
2288 0 78.0678 11.8743 927 95.8813 230.696 496.995
2289 0 81.1076 12.3046 998 93.1152 230.828 498.423
2290 0 86.0688 12.0369 1036 92.8764 230.597 495.917
2291 0 87.063 12.3704 1077 93.0334 230.858 494.825
2292 0 89.1284 12.2857 1095 91.968 230.285 493.632
2293 0 92.0848 12.5319 1154 91.5321 230.612 491.508
2294 0 95.0682 12.6015 1198 91.0242 230.881 490.639
2295 0 97.1023 12.4302 1207 90.8989 230.75 488.582
2296 0 101.124 12.4995 1264 97.1005 231.447 487.342
2297 0 105.133 12.2226 1285 96.1837 231.588 486.005
2298 0 108.11 11.7196 1267 95.1713 231.241 483.879
2299 0 110.088 11.2183 1235 94.1336 231.179 483.092
2300 1 61.0707 10.6434 650 85.2338 231.231 507.646
2301 0 65.1477 11.4816 748 83.1618 230.746 504.56
2302 0 66.0822 11.5462 763 81.8401 230.803 503.36
2303 0 68.0442 11.6983 796 79.8078 231.313 502.288
2304 0 69.053 11.6143 802 79.9239 232.105 502.69
2305 0 72.0604 11.4487 825 79.1321 231.656 499.698
2306 0 72.0778 11.7651 848 81.0672 230.768 500.232
2307 0 74.0553 11.1133 823 83.3937 230.927 498.747
2308 0 76.031 10.8114 822 83.8625 230.573 497.617
2309 0 77.0746 11.158 860 84.0686 231.159 497.287
2310 0 79.0595 11.017 871 85.1722 231.13 496.992
2311 0 83.048 11.0418 917 85.0262 230.438 494.356
2312 0 85.0434 10.771 916 85.7205 230.307 494.323
2313 0 90.0977 11.4431 1031 83.5315 230.053 492.863
2314 0 92.0768 11.7402 1081 84.4607 229.887 491.737
2315 0 95.1647 11.8531 1128 84.758 230.114 488.916
2316 0 99.2279 12.3151 1222 84.7938 230.415 488.125
2317 0 99.2576 12.8151 1272 85.0472 230.136 485.383
2318 0 103.358 12.3744 1279 89.0008 229.893 481.946
2319 0 109.186 12.8863 1407 94.0277 230.138 480.451
2320 0 112.133 13.1362 1473 96.4358 230.28 480.563
2321 1 61.1089 11.635 711 94.3516 231.138 505.173
2322 0 62.0485 11.4427 710 89.2394 230.475 502.375
2323 0 62.0386 12.4116 770 84.8247 230.578 504.322
2324 0 66.0749 12.4556 823 84.5808 230.854 502.945
2325 0 67.0614 12.7346 854 84.7248 230.623 503.166
2326 0 70.0469 12.4202 870 85.369 230.595 501.206
2327 0 72.0578 12.6704 913 85.6221 231.487 499.481
2328 0 72.0697 13.1678 949 87.4088 231.248 497.518
2329 0 75.0655 13.0419 979 88.141 231.107 495.676
2330 0 78.0601 12.6569 988 90.0405 230.761 495.464
2331 0 80.0608 12.9652 1038 89.9701 231.793 495.931
2332 0 82.081 12.5851 1033 91.3485 231.651 493.109
2333 0 86.0645 12.7927 1101 90.0318 231.071 491.26
2334 0 88.141 13.1721 1161 89.8984 231.226 490.164
2335 0 91.0886 12.9764 1182 90.2014 231.75 490.924
2336 0 92.1584 12.6413 1165 93.1365 231.69 489.011
2337 0 96.1526 12.709 1222 93.5491 231.221 486.587
2338 0 98.0984 13.1501 1290 92.7434 231.041 484.137
2339 0 102.127 12.8272 1310 93.2023 231.011 481.792
2340 1 58.1191 11.0119 640 95.7406 231.391 503.628
2341 0 59.1575 11.4947 680 94.2029 231.885 503.603
2342 0 60.0793 11.7012 703 93.4751 231.903 501.802
2343 0 63.0733 12.7471 804 91.0386 230.631 501.756
2344 0 64.1375 13.2216 848 90.9611 231.27 502.88
2345 0 64.1626 12.4995 802 94.187 231.238 503.246
2346 0 67.0665 11.9881 804 95.2724 231.501 502.165
2347 0 68.1563 11.9578 815 95.8515 231.401 500.748
2348 0 70.0993 12.7533 894 93.6409 230.48 501.09
2349 0 72.0814 12.3472 890 95.527 230.31 500.081
2350 0 76.0932 12.695 966 94.9576 230.053 498.553
2351 0 76.0864 13.327 1014 99.6933 229.414 497.105
2352 0 79.0332 13.0451 1031 100.546 229.688 495.771
2353 0 82.1158 13.1765 1082 99.7652 229.575 494.943
2354 0 85.0832 13.2929 1131 100.712 228.952 493.484
2355 0 85.0731 12.4364 1058 104.591 229.56 491.57
2356 0 90.0422 13.316 1199 101.46 229.982 491.976
2357 0 92.0472 13.6886 1260 101.105 228.809 491.177
2358 0 94.067 13.501 1270 102.302 228.939 489.666
2359 0 96.1032 12.8924 1239 104.265 229.147 490.465
2360 0 99.0692 13.1322 1301 103.901 229.035 490.215
2361 0 101.083 12.8508 1299 105.466 229.343 489.34
2362 0 104.131 12.878 1341 105.554 228.541 487.406
2363 0 109.096 13.401 1462 103.433 228.021 486.581
2364 0 110.088 13.6437 1502 104.109 227.949 485.613
2365 0 113.066 13.2666 1500 105.409 227.853 482.795
2366 0 116.097 12.6704 1471 107.644 227.673 479.216
2367 0 119.104 12.7536 1519 108.331 226.949 479.318
2368 0 120.072 12.9172 1551 108.167 227.194 478.116
2369 0 125.128 12.9308 1618 108.844 228.913 478.731
2370 0 127.071 12.3946 1575 111.119 227.851 476.235
2371 0 132.135 13.2592 1752 109.118 227.877 473.549
2372 0 136.063 13.2071 1797 109.601 227.722 471.089
2373 0 141.114 13.2163 1865 109.205 227.234 467.179
2374 0 142.242 12.8724 1831 111.63 227.152 464.63
2375 0 150.281 13.1155 1971 110.294 226.766 462.699
2376 0 155.293 13.7224 2131 108.469 227.109 460.265
2377 0 158.307 13.537 2143 109.002 227.209 456.995
2378 0 164.274 13.1913 2167 110.796 227.863 454.241
2379 0 167.358 13.3427 2233 111.546 227.616 450.307
2380 0 174.42 13.4216 2341 112.161 227.541 448.896
2381 0 179.475 14.4087 2586 108.981 227.763 447.515
2382 0 184.363 14.1026 2600 110.82 228.219 443.532
2383 0 189.568 13.7048 2598 113.112 228.537 438.689
2384 0 195.433 13.9587 2728 112.754 228.526 437.659
2385 0 202.476 14.6388 2964 111.216 227.961 435.581
2386 0 208.489 13.9719 2913 114.375 227.81 430.069
2387 0 214.405 13.6797 2933 115.888 228.006 427.578
2388 0 221.451 14.1386 3131 114.347 227.886 421.361
2389 0 229.49 13.9788 3208 114.163 227.819 418.739
2390 1 53.2465 8.95833 477 96.1468 228.474 507.486
2391 0 56.2032 10.0706 566 94.5035 229.571 507.571
2392 0 58.2896 10.8424 632 93.2025 228.948 506.559
2393 0 56.1976 10.2317 575 89.3252 228.115 507.939
2394 0 56.159 10.0429 564 91.2535 228.406 508.202
2395 0 58.2102 10.4964 611 91.8232 228.187 505.733
2396 0 60.2435 10.275 619 93.9645 228.51 505.473
2397 0 60.2996 10.2986 621 94.4541 228.599 505.29
2398 0 63.1721 9.94109 628 96.3678 228.825 502.78
2399 0 63.1564 9.9119 626 97.6566 227.887 500.538
2400 0 65.1657 10.1894 664 97.5783 229.428 501.489
2401 0 67.1838 10.5978 712 97.5646 229.201 499.508
2402 0 67.2918 9.5554 643 99.7278 229.308 499.543
2403 0 71.3738 10.41 743 98.568 229.377 499.279
2404 0 72.436 10.6853 774 97.832 229.827 496.835
2405 0 73.3714 10.6717 783 98.198 230.303 497.695
2406 0 75.5311 10.2607 775 100.697 230.079 494.96
2407 0 76.4088 10.47 800 101.056 229.786 492.524
2408 0 80.3609 10.0795 810 103.138 229.899 493.425
2409 0 80.4858 10.3496 833 103.544 230.444 493.121
2410 0 83.332 10.0562 838 103.488 230.002 491.889
2411 0 87.4763 11.3745 995 99.6201 231.471 491.601
2412 0 89.4999 10.7486 962 102.016 230.609 489.423
2413 0 92.3473 11.0669 1022 102.208 230.294 487.878
2414 0 92.431 10.9703 1014 103.497 231.056 487.561
2415 0 94.4004 11.2182 1059 102.976 231.969 488.811
2416 0 97.5762 11.058 1079 103.464 231.389 488.828
2417 0 99.5262 10.5299 1048 106.097 231.43 485.677
2418 0 101.561 10.2402 1040 106.599 231.236 486.159
2419 0 107.264 10.0872 1082 96.708 231.229 485.747
2420 0 108.238 9.58073 1037 95.161 231.148 483.662
2421 0 111.263 9.58094 1066 93.5563 231.172 484.168
2422 0 114.226 8.61451 984 97.7581 231.029 481.512
2423 0 117.238 8.74291 1025 99.9424 231.177 479.707
2424 0 120.307 8.65284 1041 104.368 231.272 479.494
2425 0 125.275 9.59492 1202 104.928 232.003 476.218
2426 0 124.249 9.78683 1216 104.125 232.8 479.712
2427 0 126.365 10.0977 1276 104.253 232.487 476.715
2428 0 130.374 9.8716 1287 104.305 231.144 477.092
2429 0 132.346 9.20314 1218 105.816 231.039 474.296
2430 0 137.252 9.42063 1293 104.929 231.167 472.974
2431 0 141.442 10.2728 1453 103.928 231.158 468.398
2432 0 144.37 9.5449 1378 105.884 231.752 464.75
2433 0 150.385 10.0874 1517 104.98 231.066 464.397
2434 0 156.486 10.2054 1597 105.084 231.321 462.544
2435 0 160.453 10.2086 1638 105.697 231.421 458.286
2436 0 163.48 9.84216 1609 107.262 231.013 457.686
2437 0 168.426 9.79067 1649 107.971 231.236 455.434
2438 0 174.409 10.2403 1786 106.99 231.517 452.061
2439 0 176.451 10.5865 1868 108.281 231.491 450.17
2440 1 100.179 11.3896 1141 104.352 231.947 485.212
2441 0 104.211 12.0141 1252 102.756 232.189 484.919
2442 0 105.194 11.5976 1220 104.561 231.996 482.91
2443 0 109.245 11.0302 1205 106.214 232.153 481.774
2444 0 112.503 11.7241 1319 103.333 231.71 481.418
2445 1 207.572 10.1121 2099 111.668 231.125 437.94
2446 0 209.525 10.7147 2245 109.992 230.882 436.6
2447 0 212.652 10.1528 2159 110.809 230.887 439.017
2448 0 217.561 10.8429 2359 111.54 231.171 432.522
2449 0 224.609 10.3958 2335 112.682 231.246 432.055
2450 0 229.58 10.8067 2481 113.32 231.102 430.051
2451 0 236.467 11.2489 2660 113.011 231.169 422.902
2452 0 243.477 11.4795 2795 112.334 230.457 420.308
2453 0 252.399 11.3669 2869 113.172 230.897 418.781
2454 0 257.449 10.9226 2812 113.384 230.267 414.633
2455 0 268.403 11.1213 2985 113.15 230.259 410.987
2456 0 274.51 11.1726 3067 113.847 230.263 405.212
2457 0 283.459 11.1057 3148 113.976 229.859 402.376
2458 1 305.409 7.89762 2412 117.111 230.446 417.263
2459 0 306.846 10.8784 3338 115.162 229.824 392.16
2460 0 315.767 11.9994 3789 112.256 229.907 388.102
2461 0 323.716 12.2144 3954 111.145 229.801 385.346
2462 1 135.256 11.1049 1502 107.165 230.201 471.684
2463 0 140.269 11.7132 1643 106.333 230.808 468.023
2464 0 142.211 11.8908 1691 108.541 231.031 465.54
2465 0 148.407 11.9266 1770 108.466 230.379 463.822
2466 0 155.397 12.3168 1914 107.533 230.173 462.014
2467 0 159.329 11.8937 1895 111.865 230.496 461.443
2468 1 128.153 9.47308 1214 113.843 230.428 481.823
2469 1 68.1844 10.3396 705 105.062 230.577 502.799
2470 0 71.1657 10.9322 778 104.591 230.292 500.302
2471 0 73.0879 11.2878 825 104.389 230.298 499.676
2472 0 77.1136 10.4391 805 106.928 230.769 499.697
2473 0 75.1058 10.0791 757 110.597 231.213 496.299
2474 0 80.1208 10.4592 838 110.158 230.973 495.144
2475 0 82.1579 10.7719 885 109.183 230.868 495.001
2476 0 84.11 10.6765 898 110.009 231.411 491.835
2477 0 89.1384 11.1288 992 108.48 232.169 492.233
2478 0 89.1098 10.5825 943 110.706 231.186 489.08
2479 0 91.0963 10.5712 963 113.08 230.622 488.29
2480 0 91.0851 10.4847 955 129.877 229.598 488.213
2481 0 91.0753 10.4639 953 129.445 228.599 488.207
2482 1 102.188 11.5669 1182 109.281 230.416 485.898
2483 0 109.257 12.228 1336 106.632 230.807 483.529
2484 0 110.206 12.023 1325 105.645 230.866 482.318
2485 0 114.255 12.0083 1372 107.19 230.585 481.86
2486 0 117.222 11.892 1394 108.316 230.841 478.495
2487 0 121.222 12.6957 1539 107.327 231.386 476.624
2488 0 124.212 12.3499 1534 109.621 230.168 473.649
2489 0 126.32 12.2625 1549 111.332 230.369 471.769
2490 0 130.298 11.8881 1549 111.627 230.317 469.413
2491 0 136.258 11.5223 1570 112.043 230.571 467.088
2492 0 141.215 12.697 1793 109.413 230.816 466.629
2493 0 144.275 11.9494 1724 112.331 231.137 464.474
2494 0 149.309 12.3435 1843 111.588 230.467 462.145
2495 0 153.304 12.0675 1850 112.334 230.303 457.984
2496 0 157.359 12.5382 1973 112.115 230.078 455.289
2497 0 160.271 12.0795 1936 115.235 230.083 454.977
2498 0 168.282 12.3543 2079 113.319 230.513 452.872
2499 0 170.404 12.0948 2061 115.063 229.547 449.789
2500 0 178.354 12.8509 2292 113.01 229.679 447.186
2501 0 184.317 12.7281 2346 112.657 229.965 444.039
2502 0 190.322 13.0043 2475 111.811 229.826 441.557
2503 0 194.298 13.1345 2552 112.25 230.359 439.116
2504 0 201.335 13.3459 2687 111.055 230.624 436.247
2505 0 204.327 13.0526 2667 112.277 229.866 431.347
2506 0 213.304 13.6003 2901 109.296 229.611 428.499
2507 0 219.251 13.7286 3010 108.719 229.766 425.09
2508 0 224.28 13.5679 3043 108.974 229.587 419.902
2509 0 233.5 13.8116 3225 108.208 230.15 417.167
2510 1 180.366 12.4857 2252 110.712 230.884 444.63
2511 0 183.186 12.4628 2283 111.462 229.493 440.786
2512 0 188.242 13.4933 2540 108.972 230.249 436.481
2513 0 196.277 13.4962 2649 108.303 230.11 436.115
2514 0 200.378 12.8806 2581 110.175 230.072 432.326
2515 0 207.308 13.381 2774 108.371 229.904 430.14
2516 0 214.26 13.0636 2799 109.72 229.717 426.215
2517 0 225.309 13.4748 3036 108.468 230.152 422.667
2518 0 230.22 13.2916 3060 111.453 229.437 414.255
2519 0 239.283 13.273 3176 110.072 229.145 411.928
2520 1 177.194 12.0263 2131 107.908 229.346 445.473
2521 0 182.285 12.7493 2324 108.572 229.018 438.591
2522 0 187.277 13.5255 2533 105.726 229.575 436.841
2523 0 194.309 13.4425 2612 105.559 229.186 431.587
2524 0 200.414 13.7915 2764 104.169 228.767 428.876
2525 0 206.385 13.6105 2809 104.111 228.8 426.104
2526 0 210.186 13.7498 2890 104.228 228.4 419.514
2527 0 217.329 13.8822 3017 103.662 228.772 419.057
2528 0 223.302 13.5601 3028 103.887 229.074 416.138
2529 0 229.254 13.714 3144 103.879 228.226 413.6
2530 0 237.277 14.2534 3382 101.644 228.099 411.423
2531 1 178.196 11.4031 2032 106.618 228.367 439.442
2532 0 185.249 12.2753 2274 104.223 228.267 436.163
2533 0 190.215 12.8802 2450 103.796 228.118 433.297
2534 0 198.23 13.3027 2637 101.973 228.728 426.973
2535 0 205.2 13.382 2746 102.402 228.242 422.937
2536 0 209.176 12.8169 2681 104.891 228.966 419.665
2537 0 217.193 12.7306 2765 105.553 229.396 415.637
2538 0 224.43 13.1266 2946 104.261 229.563 411.131
2539 0 230.305 13.0175 2998 105.056 228.584 409.845
2540 0 235.359 13.7917 3246 103.751 228.655 403.53
2541 0 244.399 13.6253 3330 103.623 227.918 398.026
2542 0 249.369 13.6184 3396 104.268 228.308 394.173
2543 0 254.342 13.6981 3484 106.276 228.482 391.117
2544 0 263.347 13.8601 3650 107.276 228.049 389.227
2545 0 269.406 13.9678 3763 107.973 227.965 385.01
2546 0 275.4 14.7385 4059 108.138 228.214 378.033
2547 0 284.372 13.6581 3884 111.874 228.635 375.659
2548 1 299.467 19.9554 5976 92.0146 228.043 358.116
2549 0 295.502 15.0422 4445 108.194 227.581 362.981
2550 0 305.412 15.3661 4693 107.842 227.285 357.428
2551 0 314.618 15.3297 4823 108.543 227.641 351.418
2552 0 323.487 15.4195 4988 108.176 228.314 348.692
2553 0 335.552 15.8753 5327 106.433 229.704 344.226
2554 0 347.363 15.4248 5358 108.44 230.147 338.581
2555 0 360.581 16.2155 5847 106.84 228.887 335.418
2556 0 372.649 15.9024 5926 106.933 230.085 324.927
2557 0 384.569 15.5603 5984 108.691 229.66 321.657
2558 0 398.783 16.0012 6381 109.297 228.943 314.199
2559 1 302.434 13.1632 3981 115.009 229.357 367.153
2560 0 312.47 14.027 4383 111.945 228.993 361.485
2561 0 322.303 13.7635 4436 112.209 228.396 354.792
2562 0 329.263 13.1506 4330 114.807 229.061 348.372
2563 0 340.317 13.4433 4575 114.496 228.963 343.056
2564 0 348.323 15.1727 5285 107.915 229.19 335.133
2565 0 357.386 14.4633 5169 109.798 229.249 326.578
2566 0 367.516 15.8197 5814 105.48 228.785 320.352
2567 0 376.521 14.8146 5578 108.203 229.222 316.911
2568 0 387.359 15.474 5994 106.799 228.307 305.553
2569 0 398.604 14.7916 5896 108.253 229.012 304.364
2570 0 410.691 15.0308 6173 108.876 228.844 298.058
2571 0 423.731 15.144 6417 109.56 229.096 287.564
2573 0 429.14 15.1769 6513 111.782 230.332 277.099
2574 0 431.969 15.809 6829 108.457 230.276 278.752
2575 0 411.678 14.7202 6060 109.206 230.227 273.244
2576 0 419.41 13.8886 5825 109.203 230.458 276.524
2577 0 414.09 14.2288 5892 108.444 230.08 281.159
2578 0 425.012 13.9172 5915 111.42 230.136 280.595
2579 0 417.627 3.68032 1537 116.072 229.115 364.439
2580 0 419.489 5.10145 2140 116.205 229.478 338.931
2581 0 421.647 4.22628 1782 118.717 229.966 338.088
2582 0 97.1203 11.738 1140 69.807 230.655 474.415
2583 0 97.189 13.4583 1308 66.7699 231.487 482.258
2584 0 99.1884 13.5399 1343 66.6113 231.758 479.824
2585 0 99.1977 12.8632 1276 69.4702 231.299 478.468
2586 0 101.148 13.6236 1378 68.9579 231.927 477.824
2587 0 104.155 14.2671 1486 67.4468 231.707 476.528
2588 0 106.144 13.6513 1449 69.1829 232.313 476.277
2589 0 108.154 13.7397 1486 69.0915 231.958 472.992
2590 0 110.214 13.2469 1460 71.2336 231.359 472.045
2591 0 112.176 13.8532 1554 71.4093 231.428 471.279
2592 0 113.258 13.615 1542 73.5305 231.114 470.222
2593 0 117.185 13.7561 1612 73.3555 231.414 468.388
2594 0 121.177 14.7552 1788 71.4972 232.485 467.684
2595 0 121.224 13.4627 1632 76.9516 231.444 467.588
2596 0 126.272 15.0785 1904 72.7862 231.95 465.839
2597 0 126.34 13.7565 1738 77.668 231.59 464.472
2598 0 130.266 14.3552 1870 76.8385 231.583 462.11
2599 0 133.389 14.2365 1899 79.3286 230.991 459.242
2600 0 134.285 13.3447 1792 82.3705 230.946 456.607
2601 0 136.29 13.8822 1892 81.9218 230.707 456.578
2602 0 140.187 14.7232 2064 80.858 230.51 455.377
2603 0 143.236 14.4028 2063 82.3883 230.475 452.864
2604 0 145.152 14.3987 2090 85.4742 230.367 449.458
2605 0 149.255 14.8806 2221 84.4836 230.101 451.161
2606 0 151.268 14.9536 2262 85.4726 230.243 446.352
2607 0 154.214 15.3942 2374 84.9528 230.925 445.202
2608 0 158.203 14.8227 2345 86.8934 229.819 443.624
2609 0 162.133 14.8828 2413 86.4314 229.866 440.692
2610 0 166.148 14.8482 2467 85.2469 230.301 439.119
2611 0 169.117 15.0251 2541 84.6576 229.963 434.366
2612 0 174.147 14.907 2596 83.7296 230.013 431.572
2613 0 175.156 14.1588 2480 86.2214 229.698 426.865
2614 0 180.215 14.0998 2541 85.9709 229.192 422.832
2615 0 186.218 14.5045 2701 84.5646 229.918 422.396
2616 0 187.167 14.0516 2630 88.6202 229.76 409.159
2617 0 191.205 14.2674 2728 87.6041 229.45 406.441
2618 1 125.221 8.1296 1018 91.5255 231.349 448.212
2619 0 131.186 8.98724 1179 91.0958 231.958 448.381
2620 0 136.155 10.3852 1414 88.0672 231.95 448.517
2621 0 137.156 10.1345 1390 89.5237 231.955 443.194
2622 0 142.176 12.0414 1712 82.3283 231.683 451.172
2623 0 146.216 11.2231 1641 85.9043 231.45 451.303
2624 0 154.279 14.37 2217 82.0884 230.946 439.822
2625 0 155.317 13.4499 2089 85.6549 231.228 443.484
2626 0 155.28 11.8818 1845 89.2938 231.331 442.479
2627 0 160.339 11.8686 1903 90.0436 231.407 439.946
2628 0 165.319 11.6199 1921 91.2077 231.034 435.852
2629 0 169.286 11.6962 1980 90.8106 230.668 431.784
2630 0 167.243 12.0304 2012 90.745 230.78 426.536
2631 0 168.215 11.1108 1869 93.9513 230.697 418.055
2632 0 173.112 11.0045 1905 95.8714 230.432 415.033
2633 0 183.252 11.3177 2074 95.2425 231.418 414.769
2634 1 118.064 10.1894 1203 87.3674 231.853 456.298
2635 0 122.151 10.3233 1261 90.2054 231.54 455.39
2636 0 125.224 11.7549 1472 87.5211 231.402 456.138
2637 0 130.243 11.4479 1491 85.167 231.175 459.461
2638 0 133.35 11.886 1585 86.3224 231.381 454.134
2639 0 136.241 12.3238 1679 85.0786 230.944 455.6
2640 0 136.286 11.6079 1582 87.3211 231.04 449.811
2641 0 141.328 11.8943 1681 86.6633 230.581 448.39
2642 0 144.316 12.0916 1745 85.8309 229.964 448.473
2643 0 145.307 11.5755 1682 87.3246 230.58 444.461
2644 0 151.213 11.8575 1793 86.2465 230.052 441.963
2645 0 155.266 12.6106 1958 84.3519 229.713 442.528
2646 0 159.225 12.3662 1969 84.7491 229.934 438.627
2647 0 163.257 12.7039 2074 83.7864 230.414 436.008
2648 0 165.223 11.5481 1908 88.3485 230.883 435.936
2649 0 171.254 11.4625 1963 88.3347 230.525 433.031
2650 0 174.217 11.9047 2074 90.2657 229.831 427.518
2651 0 180.218 11.93 2150 93.1721 229.271 420.126
2652 0 187.135 12.0394 2253 91.3648 229.585 417.009
2653 0 192.165 12.2083 2346 90.6709 230.427 416.088
2654 0 200.254 12.6589 2535 86.9444 230.465 415.61
2655 1 169.192 9.66951 1636 103.257 229.068 404.723
2656 0 166.148 7.11414 1182 110.102 229.625 408.978
2657 1 176.193 7.46339 1315 110.398 230.219 407.948
2658 0 176.114 7.37591 1299 107.833 230.886 411.278
2659 1 122.106 11.5228 1407 85.2857 230.679 457.652
2660 0 124.099 11.66 1447 87.5902 230.823 455.381
2661 0 126.125 11.8374 1493 90.3423 230.32 455.383
2662 0 129.201 11.4085 1474 91.747 231.022 456.225
2663 0 131.148 11.4298 1499 92.571 230.548 451.704
2664 0 136.134 11.8119 1608 91.9776 229.999 450.23
2665 0 139.144 11.3121 1574 93.6817 230.025 447.232
2666 0 141.146 11.5271 1627 94.5058 230.545 445.564
2667 0 142.208 11.8207 1681 94.4688 230.021 437.323
2668 0 143.155 11.2605 1612 96.6204 229.744 436.076
2669 0 144.195 11.3388 1635 97.3425 229.651 432.258
2670 0 151.18 11.2515 1701 97.8971 229.911 432.712
2671 0 150.183 11.0332 1657 100.946 230.303 428.793
2672 0 159.15 12.4348 1979 96.3396 230.823 428.887
2673 0 159.204 11.6894 1861 98.6953 230.677 425.827
2674 0 166.192 11.8417 1968 98.0859 231.216 424.592
2675 0 166.122 10.7391 1784 101.135 230.691 416.095
2676 0 167.165 11.2284 1877 101.566 230.71 411.595
2677 0 172.13 11.1486 1919 102.919 230.306 410.117
2678 0 178.117 11.2791 2009 100.741 230.215 407.732
2679 0 180.133 11.2695 2030 101.113 230.313 402.38
2680 0 188.191 11.6371 2190 100.578 229.584 404.567
2681 0 194.211 11.2506 2185 101.203 229.66 402.687
2682 0 193.162 11.2807 2179 102.211 229.275 393.472
2683 0 187.201 12.4625 2333 98.6018 229.027 394.288
2684 1 202.14 9.79024 1979 100.898 229.178 390.359
2685 0 205.28 8.67108 1780 104.267 229.706 388.496
2686 1 214.506 6.6525 1427 106.764 229.625 389.294
2687 0 208.138 4.54506 946 113.452 229.191 377.765
2688 0 202.219 12.6793 2564 97.7886 229.366 371.746
2689 1 38.29 6.26796 240 61.0583 230.033 507.121
2690 0 39.2616 6.92789 272 61.9302 229.599 510.371
2691 0 40.204 6.98935 281 63.2527 229.843 511.16
2692 0 40.1316 7.27605 292 63.9623 229.551 510.007
2693 0 41.2178 8.1033 334 64.4701 229.503 509.222
2694 0 42.2423 7.62269 322 66.736 229.811 510.009
2695 0 40.2765 7.24989 292 66.911 228.658 508.301
2696 0 42.2251 7.17583 303 65.9802 228.71 510.558
2697 0 41.1696 6.80113 280 68.2679 229.182 509.368
2698 0 42.1963 7.48881 316 67.7785 229.263 507.244
2699 0 41.1412 6.39262 263 69.1103 228.414 507.882
2700 0 41.0998 6.54504 269 70.4312 228.617 509.245
2701 0 41.0982 7.05627 290 69.8 228.021 509.248
2702 0 44.1259 8.13581 359 68.4262 228.376 507.98
2703 0 43.1147 6.95818 300 70.59 228.397 509.737
2704 0 46.2352 6.89951 319 69.9624 228.404 506.831
2705 0 45.1471 6.68925 302 70.5927 228.083 507.368
2706 0 43.144 7.41703 320 69.525 228.409 505.734
2707 0 45.1758 7.39334 334 68.3772 229.228 506.383
2708 0 46.0813 7.46506 344 69.0349 229.703 508.628
2709 0 47.1117 7.79 367 68.4196 229.54 506.932
2710 0 43.0938 6.7063 289 71.8997 228.872 507.086
2711 0 46.1537 7.17168 331 69.7009 229.408 505.021
2712 1 0 0 3 59.6667 228 480
2713 1 45.1806 5.51122 249 72.6024 229.197 505.482
2714 0 45.1773 6.6405 300 71.8133 229.303 507.193
2715 0 45.142 7.33242 331 71.855 228.115 506.048
2716 0 46.1533 6.99842 323 71.3777 228.437 506.43
2717 0 48.1414 7.29102 351 72.5356 229.054 504.678
2718 0 48.2076 6.88689 332 72.0753 228.651 505.94
2719 0 45.1007 6.71831 303 71.6436 228.479 503.396
2720 0 44.1053 6.03102 266 72.1203 229.079 502.553
2721 0 48.1243 6.35853 306 72.4216 229.003 502.565
2722 0 53.1738 7.37206 392 72.2066 230.031 501.49
2723 0 44.1887 6.26858 277 78.4729 230.123 504.029
2724 0 44.0953 7.41576 327 78.6208 229.979 506.575
2725 0 43.1278 7.00244 302 81.2384 230.709 508.47
2726 0 46.1946 8.33431 385 77.7117 231.127 506.33
2727 0 47.1901 7.98896 377 78.878 231.162 506.3
2728 0 45.0844 7.60795 343 81.1283 231.872 508.738
2729 0 45.2232 8.88925 402 78.5224 230.654 507.428
2730 0 45.1677 8.08099 365 80.7123 230.671 508.156
2731 0 46.1126 7.9371 366 79.4153 231.167 507.437
2732 0 47.1765 8.22444 388 79.4485 230.956 508.848
2733 0 52.2175 7.58367 396 79.149 231.263 507.442
2734 0 48.3078 8.59074 415 76.5132 230.99 506.998
2735 0 45.1567 8.70302 393 77.8372 231.356 507.855
2736 0 43.1748 8.70879 376 78.6862 231.231 508.364
2737 0 49.2179 8.04586 396 78.5783 231.056 506.018
2738 0 51.0913 8.88605 454 74.9229 230.203 504.645
2739 0 53.0556 8.1424 432 76.8727 230.014 503.058
2740 0 48.1554 7.99494 385 78.587 230.083 504.252
2741 0 59.1834 7.5359 446 76.065 229.879 503.141
2742 0 58.2426 7.38291 430 76.6767 229.542 503.416
2743 0 53.2117 8.53196 454 76.0969 229.7 504.066
