time division length width area intensity CMx CMy
0 0 72.0562 14.6691 1057 123.234 477.857 505.646
1 0 74.054 14.584 1080 119.053 476.971 503.196
2 0 75.0759 14.3588 1078 118.186 477.302 503.138
3 0 78.099 15.0322 1174 117.913 477.029 503.871
4 0 81.0863 14.3058 1160 120.447 476.947 503.613
5 0 82.0824 14.6926 1206 118.337 477.011 502.718
6 0 85.0679 14.988 1275 114.2 477.375 501.305
7 1 46.0287 12.7312 586 114.217 477.63 519.526
8 0 47.0481 12.4978 588 108.879 477.032 517.719
9 0 47.0781 13.2333 623 110.021 477.607 516.266
10 0 51.0637 13.6496 697 103.056 477.389 516.613
11 0 54.0216 14.1795 766 108.493 477.038 517.568
12 0 52.0273 13.8773 722 103.237 477.738 518.187
13 0 56.0373 14.1156 791 101.748 476.838 516.324
14 0 57.0335 13.606 776 101.847 476.282 516.211
15 0 57.033 13.8516 790 102.178 476.276 515.525
16 0 61.0151 14.6357 893 98.579 476.654 515.127
17 0 62.0302 14.1222 876 100.303 476.331 510.598
18 0 63.0381 13.9122 877 100.109 475.937 512.693
19 0 67.0754 14.0886 945 98.3947 475.967 509.903
20 0 68.0291 14.2145 967 99.6225 475.746 508.769
21 0 72.0357 14.7149 1060 96.9019 475.84 508.775
22 0 73.0836 14.4082 1053 97.3523 475.797 508.482
23 0 75.0377 13.8197 1037 97.7329 476.296 507.973
24 0 75.0377 13.8197 1037 168.366 476.296 507.973
25 0 81.0498 14.9291 1210 94.2397 475.552 506.665
26 0 83.0674 14.5183 1206 95.2595 475.407 505.149
27 0 87.0603 14.5072 1263 93.7047 475.305 503.626
28 0 88.0878 14.2131 1252 94.8395 475.33 503.492
29 0 93.045 14.7348 1371 91.4333 474.839 501.36
30 0 96.1214 14.6586 1409 92.281 474.774 498.867
31 1 48.0645 12.5665 604 90.1275 475.298 521.204
32 0 50.0214 12.6946 635 88.4551 475.361 520.22
33 0 52.0436 13.6232 709 88.4908 474.962 518.501
34 0 56.1014 13.6717 767 90.1147 474.651 518.988
35 0 57.0298 14.3434 818 87.176 474.78 519.31
36 0 59.0179 13.1655 777 89.0193 475.387 516.124
37 0 61.0356 14.0737 859 87.0955 474.271 514.076
38 0 62.0593 14.0027 869 86.3901 474.122 511.642
39 0 62.0262 14.2198 882 86.9399 473.443 510.943
40 0 64.0442 14.3963 922 86.8178 474.584 510.356
41 0 67.0518 14.4962 972 85.2953 474.552 509.142
42 0 70.0691 14.4143 1010 85.3842 474.77 508.315
43 0 73.1058 14.3491 1049 85.2917 474.111 507.291
44 0 76.0368 14.2957 1087 85.6982 474.052 506.032
45 0 75.1 14.3542 1078 87.4035 473.659 504.686
46 0 80.0733 14.4368 1156 86.4291 474.211 504.47
47 0 83.0321 14.6931 1220 86.4344 474.962 503.062
48 0 85.0498 14.2975 1216 87.7171 474.34 501.021
49 0 86.0367 14.4357 1242 86.318 474.42 500.379
50 0 90.0699 14.3222 1290 87.7372 474.31 497.502
51 0 93.0731 13.7741 1282 87.9243 474.825 497.699
52 0 96.0732 14.0101 1346 87.2132 474.819 493.812
53 0 101.039 14.2024 1435 86.8104 474.682 491.775
54 0 104.052 14.291 1487 87.6732 474.43 490.808
55 1 54.054 11.1555 603 88.7347 474.849 515.97
56 0 57.0422 11.9736 683 89.3324 474.652 514.678
57 0 60.0292 13.0437 783 85.3653 474.866 513.018
58 0 61.0485 12.9078 788 86.3096 474.707 514.14
59 0 63.0218 13.0907 825 82.12 475.474 512.189
60 0 65.0566 12.6198 821 83.0524 474.593 510.951
61 0 67.0398 13.0519 875 83.024 474.961 510.025
62 0 69.0671 13.1032 905 83.084 474.641 507.708
63 0 73.0646 13.2349 967 82.88 475.209 507.271
64 0 74.0611 12.6922 940 86.3106 474.436 505.507
65 0 79.0475 13.3591 1056 88.1544 474.737 505.236
66 0 81.0735 13.7036 1111 87.3861 473.968 503.71
67 0 85.0707 12.9774 1104 88.5697 473.664 503.598
68 0 85.1139 13.0413 1110 88.9216 473.449 500.506
69 0 88.0902 12.4191 1094 89.0201 473.329 499.697
70 0 92.0608 12.5026 1151 88.3475 473.192 498.307
71 0 93.0629 12.6581 1178 88.2385 473.798 497.54
72 0 97.0692 12.4035 1204 86.8522 473.397 495.948
73 0 101.047 11.8361 1196 85.4164 473.758 494.058
74 1 52.0446 9.97221 519 81.711 473.823 519.281
75 0 56.0221 11.3348 635 71.2882 473.743 517.975
76 0 57.0196 11.2067 639 79.3944 474.194 515.776
77 0 58.0553 11.7991 685 78.4102 474.187 515.677
78 0 58.0453 11.6116 674 79.2582 474.365 516.037
79 0 62.0191 12.0447 747 77.9063 473.917 514.639
80 0 62.0272 11.7851 731 79.2202 474.01 513.517
81 0 65.0873 12.0915 787 79.7052 474.508 511.7
82 0 68.0546 12.3577 841 78.6968 474.957 511.263
83 0 68.0298 11.348 772 80.8096 474.253 509.712
84 0 71.023 11.5033 817 80.5581 474.35 508.57
85 0 75.05 11.9254 895 79.7508 474.254 507.914
86 0 76.0995 11.5244 877 81.3409 475.187 507.58
87 0 79.0383 12.0448 952 80.0431 474.514 504.151
88 0 82.0833 12.0853 992 79.3337 475.334 502.83
89 0 85.0556 12.0039 1021 78.2938 474.404 501.064
90 0 86.0645 11.9561 1029 79.2468 475.169 498.586
91 0 89.0544 11.1617 994 80.6076 475.082 498.065
92 0 94.0749 11.4696 1079 78.9435 474.5 495.741
93 0 96.0987 11.9669 1150 78.8461 474.666 492.798
94 0 100.096 11.429 1144 79.5734 474.2 491.282
95 0 103.096 11.8046 1217 79.4067 474.682 491.159
96 0 109.113 11.9784 1307 78.1515 474.343 489.067
97 1 59.039 10.7387 634 76.8107 474.489 514.424
98 0 61.0608 11.4148 697 78.3099 474.613 514.805
99 0 64.1032 12.5891 807 77.5737 474.931 512.14
100 0 67.0977 12.1167 813 82.3284 475.087 511.408
101 0 68.2085 11.846 808 82.5941 475.061 511.535
102 0 70.1146 11.3386 795 83.678 474.307 509.457
103 0 74.1782 12.2812 911 81.1526 474.091 509.515
104 0 76.165 11.9215 908 80.8337 474.226 507.356
105 0 77.1534 12.365 954 78.8899 474.86 505.516
106 0 80.1361 11.8049 946 79.2082 474.806 504.332
107 0 83.2936 12.618 1051 78.8887 474.486 502.657
108 0 83.1385 11.6913 972 78.1718 474.982 501.912
109 0 87.1497 12.0712 1052 78.0941 474.338 498.882
110 0 90.0967 12.2313 1102 77.1751 475.209 497.4
111 0 93.089 11.967 1114 75.2693 474.051 495.377
112 0 96.1759 11.9157 1146 75.7635 474.872 495.88
113 1 48.0362 9.05567 435 73.6988 474.363 519.632
114 0 51.0403 10.5015 536 70.8172 473.778 519.069
115 0 52.0597 10.5072 547 71.5137 474.254 518.669
116 0 53.0316 10.5975 562 70.8612 474.399 519.012
117 0 55.0494 10.3543 570 70.893 474.454 517.544
118 0 57.0904 11.1227 635 70.9417 474.797 516.507
119 0 59.079 11.3408 670 69.8358 475.206 514.927
120 0 61.1181 11.4696 701 70.6391 475.093 513.559
121 0 61.1208 10.4874 641 71.5819 475.066 514.315
122 0 62.1707 11.2272 698 70.0573 474.593 512.1
123 0 65.1462 12.2033 795 68.844 474.391 513.791
124 0 63.1004 11.4104 720 74.7486 474.733 511.732
125 0 65.1078 10.9204 711 73.685 475.076 511.475
126 0 69.0572 11.7728 813 72.797 474.603 511.213
127 0 70.1439 10.8776 763 75.2661 473.837 509.334
128 0 73.0968 11.5326 843 72.5872 473.399 506.797
129 0 78.0641 12.6691 989 68.638 474.164 507.436
130 0 78.0636 11.939 932 70.6631 473.677 504.986
131 0 80.0692 11.6025 929 71.9785 473.295 505.074
132 0 83.0482 11.6318 966 72.7899 472.553 503.277
133 0 88.0489 12.3227 1085 71.518 472.825 501.478
134 0 90.1278 11.3062 1019 73.5859 473.207 501.894
135 0 90.1278 11.3395 1022 131.076 473.202 501.86
136 0 94.0757 11.5226 1084 74.238 472.666 497.13
137 1 50.0865 11.56 579 73.5199 473.112 520.425
138 0 51.0351 12.0113 613 72.5889 473.126 519.744
139 0 50.0528 11.4479 573 73.1291 472.888 520.159
140 0 52.099 11.6509 607 73.4547 473.522 518.677
141 0 54.1025 12.4209 672 73.4033 472.391 519.301
142 0 55.0282 12.3573 680 76.3588 472.169 519.012
143 0 57.0813 12.8063 731 75.4938 472.772 517.092
144 0 59.0972 12.5725 743 75.4092 472.367 516.157
145 0 61.0534 12.1041 739 76.1597 473.092 516.062
146 0 64.0435 12.4759 799 75.2841 472.899 514.786
147 0 64.1721 12.4353 798 76.2694 473.033 514.266
148 0 66.0384 12.1293 801 77.3096 473.13 513.044
149 0 69.0876 13.0559 902 76.3858 473.851 511.465
150 0 72.0701 12.9457 933 77.5788 473.696 510.715
151 0 72.057 13.1562 948 79.3829 473.964 510.086
152 0 75.1028 13.6879 1028 79.5195 473.731 508.106
153 0 78.1043 13.4564 1051 81.392 473.651 507.407
154 0 80.0875 13.5976 1089 82.1892 473.399 506.066
155 0 81.1658 12.9734 1053 84.9943 473.887 503.449
156 0 86.0997 13.0779 1126 84.9254 473.928 502.872
157 0 88.1297 13.1057 1155 84.91 474.487 502.483
158 0 92.0988 12.9318 1191 85.5575 474.024 499.769
159 1 51.0748 10.6706 545 86.356 473.928 519.91
160 0 52.0201 10.7266 558 86.6864 473.43 520.133
161 0 54.0813 11.5752 626 85.0607 474.251 518.038
162 0 54.0593 11.6909 632 78.4288 472.421 518.429
163 0 55.0546 11.9699 659 74.5706 472.27 517.92
164 0 57.085 12.0697 689 73.2569 472.241 518.367
165 0 60.034 12.1764 731 72.4706 472.785 516.291
166 0 62.0762 11.6953 726 74.9036 472.578 515.074
167 0 65.0313 12.7631 830 72.7265 473.264 513.651
168 0 67.07 12.4944 838 72.1993 472.698 511.804
169 0 68.0798 12.7791 870 72.3563 473.126 510.232
170 0 70.0685 12.0025 841 74.0761 472.322 510.545
171 0 73.0984 12.49 913 73.1643 472.529 508.336
172 0 74.0814 12.1758 902 73.8459 472.947 507.187
173 0 78.0707 12.2453 956 73.5418 473.029 506.152
174 0 78.0839 12.192 952 74.4769 472.776 504.589
175 0 80.1504 11.7529 942 75.4406 472.797 505.734
176 0 82.0926 11.4383 939 76.9702 471.986 503.658
177 0 85.2061 11.2668 960 76.7719 472.129 503.129
178 0 90.1589 11.4021 1028 75.6965 472.006 499.864
179 0 91.2422 11.4092 1041 75.6465 471.614 497.375
180 0 95.1442 11.9293 1135 73.948 472.132 497.515
181 1 50.1246 10.4939 526 71.1179 472.144 520.705
182 0 52.0891 11.0004 573 68.9581 472.853 520.37
183 0 51.0864 10.4725 535 70 472.449 519.277
184 0 52.0698 10.0634 524 70.5878 471.578 519.176
185 0 51.0877 10.0416 513 71.2924 472.374 518.446
186 0 53.1456 9.65273 513 71.7368 472.177 518.519
187 0 55.1314 9.57711 528 71.7992 471.545 517.14
188 0 56.1002 9.50085 533 72.5554 471.681 515.844
189 0 59.0615 10.2266 604 70.7417 471.954 514.023
190 0 59.0235 9.87741 583 71.9211 472.242 513.662
191 0 62.1068 10.643 661 72.416 471.946 513.513
192 0 63.0568 9.95928 628 73.086 472.135 512.9
193 0 65.0689 10.2814 669 72.9058 471.626 511.073
194 0 68.0897 10.6184 723 72.6625 471.492 509.925
195 0 69.0409 10.5879 731 74.2216 471.373 509.967
196 0 70.1329 10.252 719 74.9054 471.517 507.772
197 0 74.0958 10.1355 751 74.771 470.605 507.64
198 0 76.0888 10.1592 773 74.5446 470.94 505.252
199 0 79.1254 10.199 807 74.2032 471.119 502.719
200 0 82.1025 10.7183 880 73.9352 471.611 502.034
201 1 42.0942 8.83732 372 74.9758 470.917 520.72
202 0 47.0664 10.0071 471 92.586 471.174 521.461
203 0 48.0896 10.8131 520 90.2288 471.202 520.673
204 0 47.1089 10.6349 501 84.1756 471.433 520.826
205 0 44.0655 8.53275 376 90.6383 473.957 522.391
206 0 45.0281 8.41697 379 89.9947 473.456 522.987
207 0 48.0265 8.72435 419 88.8138 473.542 520.859
208 0 49.0684 8.88556 436 86.9266 473.209 520.952
209 0 50.0586 9.56879 479 85.0355 473.43 519.597
210 0 53.0387 9.59677 509 83.3084 472.86 519.328
211 0 53.0921 9.7378 517 82.4855 472.843 518.393
212 0 55.0701 9.24277 509 84.1611 472.945 517.715
213 0 56.1146 9.51623 534 83.9925 472.867 516.727
214 0 58.1074 10.2052 593 82.0607 472.874 514.921
215 0 59.0677 8.97275 530 82.8 472.27 515.755
216 0 62.1551 9.0258 561 82.4011 472.816 513
217 0 65.139 9.82514 640 80.1859 472.128 510.748
218 0 67.1114 9.25327 621 80.8696 472.499 511.878
219 0 66.0941 7.68601 508 83.3051 473.128 507.016
220 0 70.0863 9.26001 649 79.9985 472.744 506.931
221 0 80.1618 11.352 910 74.844 472.118 508.181
222 1 41.0168 10.7517 441 74.5601 472.898 525.633
223 0 43.0405 10.5947 456 72.318 472.857 524.338
224 0 44.0216 11.3126 498 75.4438 473.743 524.191
225 0 41.062 9.03512 371 74.407 471.251 525.464
226 0 43.0256 10.4124 448 72.7366 472.295 524.529
227 0 44.0471 10.9655 483 73.0248 471.944 524.296
228 0 45.0617 10.763 485 74.8639 472.014 524.73
229 0 45.0431 10.5677 476 77.3193 471.931 523.452
230 0 47.0151 9.97553 469 77.4328 471.047 522.343
231 0 47.0269 10.292 484 76.8595 471.306 521.531
232 0 50.0252 11.2343 562 76.6886 471.682 520.966
233 0 53.035 10.4459 554 77.6011 472.547 521.056
234 0 53.0732 11.4747 609 77.3153 472.148 519.337
235 0 53.0378 10.106 536 80.6381 472.054 519.185
236 0 56.084 11.037 619 79.8998 472.055 517.661
237 0 57.0436 10.939 624 79.4615 471.883 519.317
238 0 59.0202 10.9623 647 80.5193 472.083 518.385
239 0 61.1023 11.5544 706 79.4915 471.807 515.657
240 0 64.0604 11.8794 761 79.5861 471.899 513.009
241 0 66.1011 11.4824 759 80.0198 471.685 513.092
242 0 67.0871 11.6118 779 80.1656 472.338 512.689
243 0 71.0899 11.9286 848 79.6627 472.294 510.791
244 0 74.0942 12.1332 899 78.7019 471.937 507.977
245 0 77.1832 12.5545 969 78.3375 471.137 508.192
246 0 80.0545 12.8787 1031 79.676 471.255 507.216
247 0 81.1061 12.6871 1029 80.7998 470.896 505.654
248 0 82.1928 12.0083 987 82.771 471.248 504.224
249 0 86.0656 12.0257 1035 83.1884 471.141 504.141
250 0 89.0678 11.7775 1049 90.0734 471.853 502.526
251 0 91.1412 11.2134 1022 92.1781 472.728 499.425
252 0 94.1165 11.7195 1103 85.4769 472.478 498.16
253 0 97.1839 11.0512 1074 88.0279 472.397 497.581
254 1 50.0699 9.82626 492 85.1179 472.329 520.785
255 0 50.0929 9.2029 461 86.5922 472.636 522.369
256 0 53.1015 10.6212 564 85.1082 472.424 519.261
257 0 56.1908 11.4787 645 84.3783 472.462 517.129
258 0 58.0743 11.5542 671 85.0462 472.012 516.735
259 0 59.1918 12.0625 714 84.6919 471.98 514.486
260 0 61.0405 11.5006 702 77.1638 472.52 515.979
261 0 63.0363 12.3738 780 76.8026 472.108 514.138
262 0 63.0363 12.3897 781 122.133 471.101 514.175
263 0 68.0587 12.019 818 78.0929 471.978 514.671
264 0 70.1225 12.4211 871 77.9127 472.045 513.006
265 0 72.1607 11.8347 854 80.4028 473.108 510.717
266 0 75.0861 12.1727 914 81.279 472.152 509.812
267 0 76.0832 12.0263 915 84.0153 472.19 508.798
268 0 80.1349 12.2044 978 85.8579 471.711 507.092
269 0 83.1183 12.2476 1018 88.2416 471.803 505.261
270 0 86.1246 12.598 1085 89.9982 471.765 504.301
271 0 88.1295 11.971 1055 95.1772 471.554 501.132
272 0 93.1175 12.9299 1204 97.9211 471.184 500.857
273 0 93.3539 12.2437 1143 100.395 471.485 498.505
274 0 98.1417 12.8386 1260 98.677 471.379 496.213
275 0 100.147 12.6813 1270 98.8433 472.356 496.323
276 1 53.0758 11.2857 599 99.6795 472.349 519.199
277 0 54.0862 12.4431 673 98.523 471.893 517.603
278 0 57.0812 12.1581 694 97.4251 470.63 515.562
279 0 56.127 12.1867 684 100.95 471.712 517.683
280 0 59.1398 12.0054 710 101.318 472.446 517.68
281 0 59.0447 12.1434 717 97.6165 472.738 515.911
282 0 63.0434 12.0869 762 95.9436 473.009 514.307
283 0 63.0802 11.5409 728 98.8297 472.725 512.398
284 0 64.0372 11.5402 739 98.0433 471.909 512.52
285 0 68.1105 11.6575 794 98.0126 471.375 509.882
286 0 71.0786 13.1685 936 93.6774 471.152 511.135
287 0 71.0742 12.7754 908 97.0595 471.217 509.881
288 0 75.1585 13.1323 987 96.1722 470.113 507.627
289 0 77.1261 12.5898 971 97.0608 470.461 506.107
290 0 79.1597 12.8727 1019 97.4828 470.048 505.102
291 0 83.1095 12.7302 1058 94.2486 470.602 505.342
292 0 84.1159 12.1975 1026 96.923 469.557 503.453
293 0 87.1876 12.7197 1109 96.7998 470.066 502.833
294 0 90.1986 12.9603 1169 95.9974 469.753 501.522
295 1 47.0544 10.4772 493 95.9939 469.349 522.819
296 0 49.0616 11.2104 550 91.7691 469.744 522.047
297 0 51.0676 11.5141 588 88.8912 469.362 521.537
298 0 51.0599 11.6726 596 87.6409 469.852 521.569
299 0 55.0398 12.0277 662 95.0257 469.736 520.156
300 0 54.0667 12.0777 653 95.9556 469.371 518.282
301 0 57.0613 11.7418 670 96.694 469.742 519.379
302 0 59.0536 11.9214 704 96.0256 468.906 517.548
303 0 61.0654 11.3812 695 96.8374 469.658 517.862
304 0 62.078 11.8399 735 96.6218 470.664 516.852
305 0 62.0769 11.824 734 97.1676 470.042 514.591
306 0 67.0885 11.7755 790 95.7304 470.571 515.387
307 0 67.1038 11.8324 794 98.2947 470.266 513.895
308 0 68.1424 12.694 865 98.1665 470.207 514.776
309 0 69.1153 12.3128 851 100.455 470.27 513.67
310 0 73.081 13.0814 956 98.1883 469.686 514.969
311 0 74.1259 13.4906 1000 98.96 470.206 512.909
312 0 76.1584 13.1437 1001 101.653 470.643 512.292
313 0 79.1925 12.88 1020 102.701 470.871 510.568
314 0 82.1933 13.5534 1114 100.871 470.299 511.083
315 0 83.1438 13.7954 1147 101.923 470.909 508.765
316 0 87.2228 13.3451 1164 102.536 470.619 506.753
317 0 88.2576 13.234 1168 103.026 470.795 506.374
318 1 46.0511 11.0312 508 103.415 471.986 528.445
319 0 48.0927 11.3739 547 103.826 471.314 528.53
320 0 47.0468 11.2016 527 106.727 471.391 527.324
321 0 52.0632 12.1583 633 98.8404 471.842 526.96
322 0 48.0872 11.7079 563 98.0284 471.124 528.563
323 0 48.0923 11.8314 569 99.2724 470.942 528.772
324 0 50.1059 11.6753 585 99.2872 470.944 527.803
325 0 51.0342 10.9926 561 100.43 471.451 527.349
326 0 54.0627 11.2462 608 99.454 470.724 526.273
327 0 53.085 11.8301 628 98.6831 470.954 525.537
328 0 56.1119 11.8513 665 97.4391 470.523 526.196
329 0 57.0884 11.2983 645 98.8124 470.972 525.234
330 0 58.1399 11.9883 697 96.7274 469.986 524.704
331 0 60.1187 11.5937 697 99.3845 470.857 522.164
332 0 64.1565 12.828 823 94.4605 470.542 521.346
333 0 66.0883 12.1807 805 95.4596 470.342 521.206
334 0 65.1939 11.7956 769 98.1547 469.804 519.983
335 0 68.1545 12.0315 820 97.9378 469.845 518.623
336 0 71.1161 12.0648 858 95.9697 470.207 517.429
337 0 72.1104 12.148 876 96.2009 469.938 517.143
338 0 76.1725 12.7605 972 94.5844 469.384 515.137
339 0 76.0871 12.4068 944 97.1684 469.481 513.794
340 0 78.122 11.354 887 99.8219 469.008 513.644
341 0 81.0811 12.1607 986 98.5943 468.542 512.629
342 0 83.1216 11.5132 957 101.514 469.214 511.769
343 0 86.0581 12.1313 1044 101.326 468.929 508.85
344 0 90.0773 12.345 1112 102.893 468.191 507.083
345 0 93.1274 12.2842 1144 102.389 467.822 506.448
346 0 94.0793 12.0111 1130 104.907 467.739 504.913
347 0 98.1078 12.1703 1194 105.053 466.817 503.459
348 0 100.241 12.43 1246 103.95 466.774 502.306
349 0 104.161 12.3655 1288 103.696 466.423 499.602
350 0 107.225 12.3945 1329 102.393 467.392 498.966
351 0 113.191 12.987 1470 96.4708 467.394 496.44
352 0 114.181 11.7183 1338 96.9036 467.051 493.651
353 0 120.299 12.3858 1490 96.9799 467.711 491.426
354 1 66.1176 10.9199 722 98.1676 466.747 517.13
355 0 67.1158 11.577 777 97.0489 467.687 516.475
356 0 67.0211 10.9667 735 88.1769 467.799 518.956
357 0 69.0483 10.8475 749 87.5501 468.67 517.722
358 0 72.042 10.48 755 87.6106 467.653 515.081
359 0 73.043 10.4322 762 88.895 468.403 514.346
360 0 73.043 10.4733 765 133.442 468.392 514.217
361 0 79.0744 10.7241 848 88.6238 468.445 511.979
362 0 80.0908 10.7878 864 87.2951 468.532 509.639
363 0 83.1337 11.1146 924 86.7587 467.897 507.684
364 0 87.0391 11.7648 1024 85.9844 469.064 505.901
365 0 91.0579 11.4213 1040 85.4827 469.344 505.123
366 0 92.1021 10.6512 981 88.5046 469.331 504.695
367 0 95.0852 11.4003 1084 88.1199 468.486 503.074
368 0 97.1083 11.3173 1099 88.4995 468.197 499.153
369 0 101.129 11.1838 1131 88.2767 468.594 500.169
370 0 106.124 11.8634 1259 88.5536 468.545 497.549
371 1 57.0835 10.546 602 91.1777 469.402 519.859
372 0 58.0536 10.5937 615 92.8927 469.127 519.218
373 0 62.0784 11.9526 742 91.2453 469.671 518.609
374 0 63.048 11.8323 746 92.4718 468.976 516.962
375 0 63.0589 11.6875 737 92.9294 469.753 514.493
376 0 64.0702 11.8464 759 88.6733 469.35 516.265
377 0 66.101 11.0437 730 90.2781 469.085 515.537
378 0 66.1251 10.9641 725 90.4593 470.197 515.262
379 0 68.037 10.8176 736 91.8682 469.359 514.895
380 0 72.0492 11.4505 825 91.3418 467.783 511.71
381 0 73.0337 11.1729 816 93.1985 467.429 511.145
382 0 76.1015 11.4321 870 92.708 467.961 508.953
383 0 78.1193 11.8793 928 92.2888 468.504 508.292
384 0 82.0792 11.7326 963 94.6802 468.832 508.026
385 0 85.0746 12.1658 1035 93.4058 468.019 507.759
386 0 88.0621 12.6388 1113 93.0198 468.232 505.382
387 0 89.0535 12.0265 1071 95.0532 467.661 504.838
388 0 93.1506 12.5496 1169 94.0565 468.561 503.087
389 0 97.106 12.5224 1216 92.3306 469.359 501.715
390 0 100.069 12.951 1296 91.4136 469.072 498.094
391 1 53.03 11.0881 588 91.534 468.76 522.058
392 0 52.0456 11.1633 581 92.0688 468.599 520.728
393 0 56.0472 11.6509 653 86.6845 468.237 520.063
394 0 55.0211 11.232 618 80.8107 469.223 521.353
395 0 55.0117 11.1249 612 82.7255 469.451 521.871
396 0 57.061 10.6728 609 84.2365 470.057 521.823
397 0 57.0335 10.4851 598 83.5 468.876 521.008
398 0 59.0093 10.4899 619 84.3231 469.389 521.197
399 0 61.0414 11.3693 694 82.8559 469.285 519.026
400 0 61.0526 10.6629 651 84.4654 469.327 518.426
401 0 64.0463 11.2106 718 83.727 469.554 515.682
402 0 66.0572 10.4001 687 85.9447 469.297 515.272
403 0 69.0318 10.9805 758 84.0884 469.617 514.704
404 0 70.112 10.9967 771 85.0091 469.405 514.224
405 0 73.0747 11.2488 822 84.9465 469.676 514.509
406 0 74.0814 11.5549 856 84.0327 468.678 514.485
407 0 78.0477 12.2745 958 82.4635 468.915 512.117
408 0 80.0941 11.7362 940 83.7766 468.574 511.794
409 0 80.0744 11.5767 927 85.2643 469.472 508.422
410 0 84.0954 11.1659 939 85.3898 469.296 507.965
411 0 87.0334 11.0762 964 85.1846 469.284 505.905
412 0 90.0949 11.6544 1050 82.2771 469.01 504.63
413 0 91.1026 11.3279 1032 83.7151 469.3 501.934
414 0 95.0814 11.6952 1112 81.9406 468.688 501.646
415 0 97.1109 10.9977 1068 83.5599 468.582 498.929
416 0 101.144 12.2696 1241 81.0072 468.841 498.494
417 1 53.0159 10.2045 541 83.3604 468.59 523.917
418 0 53.0178 10.4305 553 85.0452 469.662 523.432
419 0 54.0561 10.8961 589 84.6469 471.042 523.02
420 0 57.0616 12.2324 698 81.7751 470.726 520.96
421 0 57.0149 11.7689 671 84.4829 469.659 520.647
422 0 59.0276 12.1299 716 84.9888 470.268 517.138
423 0 64.0486 12.4437 797 90.5772 470.927 518.609
424 0 62.0321 10.8976 676 85.1938 470.886 519.121
425 0 63.0312 10.7248 676 86.0636 470.425 518.263
426 0 65.0422 10.6854 695 86.2014 469.994 519.232
427 0 66.1015 10.6957 707 87.843 470.214 516.563
428 0 68.0523 11.4324 778 84.7596 470.343 515.467
429 0 70.0422 11.4788 804 83.2052 470.388 515.109
430 0 73.0608 11.073 809 83.9617 469.918 514.098
431 0 75.1047 11.5173 865 81.6162 469.965 513.296
432 0 76.0692 10.6613 811 83.4217 469.554 513.053
433 0 78.0532 11.5819 904 83.1692 469.788 511.917
434 0 81.1256 11.7842 956 82.7406 469.589 510.582
435 0 82.0892 11.7799 967 83.0331 469.603 510.604
436 0 87.1467 12.4962 1089 80.7493 470.298 508.298
437 0 89.1165 11.7262 1045 80.644 469.854 507.878
438 0 91.1428 11.9593 1090 79.744 470.002 505.55
439 0 96.1387 11.9099 1145 78.9773 469.579 504.192
440 0 98.095 12.2025 1197 79.5656 470.145 502.468
441 0 101.106 11.9677 1210 81.3264 469.652 498.755
442 0 106.137 12.9926 1379 79.0776 469.927 496.235
443 0 110.095 12.2803 1352 76.3935 468.522 491.194
444 0 109.152 11.4977 1255 79.5187 469.304 493.383
445 0 112.135 11.6645 1308 80.4029 468.826 488.349
446 0 116.145 11.9936 1393 84.061 469.744 491.397
447 0 120.124 12.0209 1444 80.5783 470.274 486.467
448 0 124.077 11.791 1463 80.838 469.744 484.202
449 0 128.215 12.0345 1543 81.604 469.295 483.437
450 0 131.227 11.8954 1561 83.2031 468.841 480.999
451 0 136.098 12.0575 1641 83.8312 469.218 478.929
452 0 141.152 12.1784 1719 85.765 468.932 473.122
453 0 146.245 12.6911 1856 85.0366 469.044 474.197
454 0 151.17 13.0317 1970 84.6812 469.131 470.655
455 0 155.11 12.8489 1993 85.6979 468.695 467.203
456 0 163.07 13.1723 2148 86.3855 469.38 465.391
457 0 169.156 13.1713 2228 88.3833 469.664 465.132
458 0 174.29 13.0931 2282 89.1626 468.992 462.54
459 0 179.22 12.2252 2191 92.3355 468.408 460.182
460 0 177.22 11.4321 2026 94.8253 468.847 459.929
461 1 274.251 9.20689 2525 95.0669 468.394 441.136
462 0 271.714 9.43639 2564 95.2114 469.208 431.861
463 0 271.714 9.50999 2584 185.735 470.194 431.404
464 1 203.33 13.692 2784 90.9458 469.448 443.923
465 0 212.342 14.0858 2991 89.6657 469.067 439.081
466 1 156.334 12.5757 1966 90.4842 469.509 469.097
467 0 162.466 12.3841 2012 91.6173 469.157 463.332
468 0 168.298 13.1672 2216 88.8849 468.506 461.395
469 0 173.339 12.9919 2252 90.369 468.504 456.44
470 0 178.439 12.3516 2204 91.6987 468.808 452.809
471 0 185.38 13.1891 2445 90.2945 468.894 450.605
472 0 190.381 12.8427 2445 90.9804 468.213 448.411
473 0 197.395 12.6042 2488 93.1487 468.713 445.455
474 0 205.409 12.9693 2664 90.2729 468.604 442.416
475 0 213.484 13.0736 2791 91.9097 468.828 438.188
476 0 219.479 12.7803 2805 91.225 468.152 433.152
477 1 51.2307 10.3649 531 81.0471 468.874 520.371
478 0 51.2096 10.623 544 82.7849 468.221 518.221
479 0 55.099 11.8877 655 79.6855 467.243 519.872
480 0 52.0385 10.1271 527 78.907 466.657 520.968
481 0 52.0224 10.1687 529 79.1588 466.457 520.652
482 0 53.0411 9.7283 516 78.4302 468 521.795
483 0 56.0698 10.4156 584 79.0634 467.017 519.276
484 0 59.132 10.7894 638 77.7367 467.843 520.174
485 0 60.0679 10.7878 648 77.7469 467.816 519.54
486 0 60.1267 10.1452 610 80.8361 467.123 518.684
487 0 64.1518 10.709 687 79.7656 466.408 516.592
488 0 68.1214 12.2429 834 76.7722 467.373 513.636
489 0 71.0962 12.3495 878 77.9476 467.314 511.687
490 0 75.1148 12.0615 906 79.5342 467.262 512.507
491 0 72.2327 11.6983 845 82.9822 466.604 513.399
492 0 77.0462 11.5385 889 84.0844 466.822 512.507
493 0 79.197 11.6545 923 84.3077 467.523 510.506
494 1 43.1137 10.971 473 87.8245 468.281 527.729
495 0 44.1806 11.702 517 84.1528 467.344 526.977
496 0 46.0586 11.963 551 82.0926 467.245 523.55
497 0 44.037 11.7174 516 82.7306 466.75 527.642
498 0 46.0265 11.4717 528 81.2481 468.331 527.886
499 0 46.075 11.7634 542 84.0867 468.207 528.098
500 0 50.0531 12.1271 607 82.8731 468.01 525.666
501 0 49.0272 11.5854 568 80.2887 467.431 525.57
502 0 51.0182 11.7213 598 78.699 467.478 524.736
503 0 54.0411 11.3802 615 78.6276 466.875 524.706
504 0 54.1469 11.4319 619 77.7318 468.506 524.52
505 0 54.0113 10.8126 584 79.5462 468.396 523.87
506 0 58.0712 11.7442 682 76.5938 468.424 524.076
507 0 60.0548 11.323 680 76.4191 467.643 523.543
508 0 61.1048 12.4213 759 74.9144 468.02 521.028
509 0 62.0669 11.5359 716 76.3855 467.559 521.127
510 0 65.0702 12.4174 808 75.2265 467.865 518.45
511 0 68.1178 12.5224 853 74.1254 467.689 518.724
512 0 67.0683 11.5107 772 77.0803 468.04 518.295
513 0 70.0846 11.7001 820 77.4939 467.649 516.479
514 0 71.1027 11.828 841 77.3103 467.331 517.244
515 0 76.0534 12.912 982 75.224 467.619 514.784
516 0 77.0543 12.3679 953 77.0241 467.615 512.869
517 0 81.0932 12.8741 1044 76.7126 467.226 514.828
518 0 84.088 13.0102 1094 76.0274 467.464 512.903
519 0 85.0861 12.7753 1087 78.104 467.364 512.286
520 0 89.1676 13.0204 1161 78.4651 467.338 509.677
521 0 90.1396 12.3142 1110 79.8324 466.909 507.562
522 0 96.108 13.5785 1305 77.1762 466.949 505.476
523 0 98.1467 13.1436 1290 78.8016 467.67 502.838
524 1 51.0308 11.4441 584 85.613 467.478 527.829
525 0 52.0958 12.4194 647 84.5456 467.77 527.221
526 0 52.0676 12.599 656 89.0808 467.64 525.884
527 0 54.0873 12.4983 676 89.5606 467.216 525.164
528 0 55.0568 12.6778 698 90.9742 467.59 524.517
529 0 58.1 13.1497 764 90.5 467.615 524.105
530 0 61.0981 13.7156 838 88.901 467.815 522.709
531 0 65.1303 12.974 845 95.6237 467.295 521.711
532 0 65.2473 12.6442 825 103.605 467.543 521.025
533 0 67.1797 13.5755 912 101.302 467.575 519.805
534 0 71.1528 13.1267 934 100.759 467.153 519.108
535 0 72.1571 13.138 948 101.768 466.977 518.579
536 0 74.1637 13.2545 983 102.565 466.789 516.696
537 0 75.1099 13.3671 1004 104.478 467.082 515.977
538 0 78.1626 13.9069 1087 103.888 466.753 514.978
539 0 79.2329 13.5424 1073 105.92 467.425 513.202
540 0 82.1926 13.9064 1143 105.168 467.36 512.669
541 0 86.2318 13.6145 1174 103.248 467.188 512.777
542 0 87.1108 14.2807 1244 102.634 467.665 511.436
543 0 91.1599 13.4379 1225 105.83 467.077 510.232
544 0 91.1354 14.0341 1279 105.475 466.348 508.895
545 0 96.1166 14.0871 1354 104.801 465.875 507.654
546 0 97.3436 13.7862 1342 106.234 466.11 506.264
547 0 101.264 13.7462 1392 104.832 465.524 504.754
548 0 103.164 13.6287 1406 105.084 466.414 503.45
549 0 105.124 13.4698 1416 108.349 465.484 501.466
550 0 110.17 13.9875 1541 109.62 466.302 499.443
551 0 112.225 13.4729 1512 113.328 466.396 498.148
552 0 117.227 13.8791 1627 112.785 467.022 497.747
553 0 122.347 13.1348 1607 115.002 466.544 494.767
554 1 58.089 12.6358 734 116.016 467.375 523.578
555 0 59.1639 12.6767 750 112.667 466.611 521.824
556 0 62.0334 13.2187 820 117.434 467.023 521.235
557 0 62.0201 12.7217 789 113.196 466.863 524.039
558 0 64.0537 12.7549 817 112.288 466.744 524.036
559 0 66.0679 13.3953 885 109.249 466.998 521.962
560 0 68.1025 13.142 895 107.296 466.866 520.022
561 0 74.0706 15.3502 1137 100.434 467.544 513.945
562 0 76.178 14.558 1109 100.542 468.298 514.705
563 0 76.117 13.4136 1021 106.908 468.258 515.907
564 0 78.1065 13.9937 1093 105.014 467.43 515.972
565 0 80.0953 13.2093 1058 107.056 467.34 515.195
566 0 83.0394 12.9457 1075 107.8 467.353 512.868
567 0 84.089 13.5333 1138 105.78 468.056 511.298
568 0 88.1041 13.5976 1198 103.856 467.479 509.669
569 0 89.0667 13.4731 1200 104.96 467.791 508.395
570 0 91.1173 13.093 1193 104.197 468.168 507.355
571 0 95.1981 13.5087 1286 102.465 467.812 506.328
572 0 96.1616 13.6333 1311 102.376 467.767 505.349
573 0 102.215 13.7749 1408 100.539 467.45 501.923
574 0 104.228 13.2115 1377 103.378 467.105 496.857
575 0 111.128 13.9658 1552 99.1456 466.442 495.381
576 0 112.133 12.9578 1453 102.028 466.182 492.043
577 1 58.0287 11.6322 675 99.1096 466.996 516.904
578 0 61.0723 11.8057 721 100.86 467.478 515.77
579 0 62.0218 11.7862 731 101.011 467.614 515.301
580 0 67.0254 12.0253 806 97.4752 467.093 515.723
581 0 70.0857 12.0139 842 96.2732 466.36 514.631
582 0 73.0687 12.4403 909 95.2134 466.803 513.046
583 0 75.034 12.7542 957 93.7461 467.129 511.275
584 0 77.0781 12.8311 989 93.9242 467.454 510.125
585 0 77.0906 11.7135 903 92.8915 466.55 508.324
586 0 84.1231 13.2782 1117 99.3026 466.921 511.267
587 0 85.1084 13.0657 1112 99.0369 466.974 510.801
588 0 89.2006 12.9035 1151 98.2745 466.184 509.626
589 0 91.0973 12.7885 1165 97.5391 466.228 508.184
590 1 47.0885 11.489 541 93.9871 466.564 530.767
591 0 49.0742 12.0022 589 90.691 466.672 529.846
592 0 50.0694 13.002 651 86 466.645 529.309
593 0 52.0877 12.8437 669 83.9761 466.576 529.38
594 0 54.1051 12.679 686 84.5481 466.21 527.337
595 0 53.021 13.108 695 86.9223 466.846 526.616
596 0 57.1086 13.1504 751 85.0799 466.828 525.261
597 0 57.0519 12.8129 731 86.4241 466.769 525.174
598 0 61.0476 12.7278 777 84.9485 467.106 525.634
599 0 60.0702 12.4687 749 86.1736 466.955 522.957
600 0 63.0714 12.5889 794 86.262 466.695 522.078
601 0 65.1727 13.0423 850 83.7941 466.854 521.301
602 0 67.1404 13.1962 886 84.7867 466.809 520.306
603 0 70.1731 13.1674 924 85.0065 466.206 519.824
604 0 72.0764 12.7504 919 86.9184 466.715 518.405
605 0 76.1221 13.0711 995 87.7688 466.75 516.73
606 0 78.1039 13.2004 1031 87.7944 466.081 515.068
607 0 80.1051 13.1577 1054 87.9412 466.544 513.639
608 0 84.12 13.136 1105 87.7937 466 511.281
609 1 40.1439 11.2844 453 94.2892 467.47 530.656
610 0 40.1428 11.3096 454 145.434 467.46 530.617
611 0 44.1331 11.5786 511 92.7612 466.843 531.99
612 0 47.0783 12.3199 580 90.6983 466.54 530.431
613 0 46.1381 12.6793 585 90.9162 466.726 530.923
614 0 49.0304 12.482 612 89.3954 467.423 530.426
615 0 50.0232 12.894 645 88.2419 467.085 529.07
616 0 53.073 13.4532 714 85.0378 467.24 528.548
617 0 55.0693 12.4026 683 88.4334 466.419 526.89
618 0 57.0485 12.7435 727 87.4127 467.363 525.484
619 0 57.1445 12.2321 699 89.4292 467.943 524.864
620 0 59.0548 13.4451 794 87.3741 467.321 523.489
621 0 61.0257 12.9618 791 89.6334 466.799 522.34
622 0 63.1008 12.7257 803 88.9577 467.545 522.808
623 0 63.1039 12.725 803 153.995 468.553 522.722
624 0 66.0979 13.4498 889 90.0034 467.546 520.133
625 0 68.0516 12.9314 880 92.4568 467.716 519.14
626 0 70.0905 13.6966 960 94.926 467.522 516.808
627 0 74.2051 13.3818 993 103.544 467.619 517.306
628 0 76.2969 13.4737 1028 103.848 467.143 515.932
629 0 76.2087 13.135 1001 107.092 466.929 512.173
630 0 81.1542 12.7781 1037 110.605 467.623 511.363
631 0 82.2053 13.3325 1096 109.547 467.354 510.61
632 0 85.3223 13.4549 1148 110.314 466.612 505.503
633 0 88.2085 13.2187 1166 112.234 465.777 504.516
634 1 47.176 11.0014 519 110.773 466.553 522.852
635 0 48.1394 11.3628 547 112.644 467.23 524.333
636 0 51.0606 11.5941 592 109.193 467.416 524.512
637 0 52.0751 12.3284 642 107.614 467.734 523.109
638 0 53.0947 12.2046 648 111.247 466.571 524.326
639 0 56.101 12.7627 716 109.514 466.344 523.24
640 0 57.0979 13.1528 751 109.413 465.691 522.862
641 0 58.1354 13.0557 759 111.498 466.427 522.513
642 0 59.1131 13.3135 787 112.502 465.821 522.424
643 0 59.1028 12.5544 742 115.573 466.879 521.049
644 0 63.0617 12.7336 803 113.966 466.65 518.788
645 0 65.0822 13.0604 850 112.369 466.808 519.065
646 0 64.1162 13.2572 850 113.282 466.896 518.391
647 0 66.0892 13.043 862 114.76 467.178 516.792
648 0 70.1399 13.5158 948 112.093 467.246 515.71
649 0 70.0532 13.1329 920 114.587 467.086 514.843
650 0 74.0433 13.4651 997 107.97 466.752 514.647
651 0 75.1264 13.4307 1009 110.536 466.153 513.493
652 0 77.0594 13.8335 1066 109.767 466.995 514.25
653 0 79.0708 13.7472 1087 111.304 466.831 511.615
654 0 82.0689 13.5009 1108 113.455 467.443 510.975
655 0 82.0704 13.5372 1111 118.099 466.636 508.516
656 0 86.0469 13.8064 1188 115.615 466.484 507.383
657 0 88.0507 13.8556 1220 115.473 467.103 507.36
658 0 92.0601 13.6759 1259 117.495 467.385 505.598
659 0 93.0881 13.7182 1277 118.688 466.816 503.539
660 0 96.0616 13.585 1305 118.786 467.148 502.532
661 0 98.0337 13.1077 1285 122.61 466.581 497.887
662 0 102.079 14.5476 1485 117.207 467.167 498.12
663 0 102.085 13.1948 1347 118.511 467.314 496.427
664 0 108.05 13.1513 1421 115.592 467.304 493.36
665 0 110.07 12.9736 1428 113.225 467.402 488.441
666 0 113.09 12.9542 1465 113.038 468.065 485.701
667 0 119.082 12.9491 1542 110.792 468.215 483.709
668 1 62.0682 9.74735 605 99.8876 467.433 517.479
669 0 66.0525 11.6423 769 108.844 467.359 516.014
670 0 67.0644 11.9587 802 107.426 467.521 517.106
671 0 69.1034 12.0978 836 106.478 467.598 514.577
672 0 70.0687 11.2747 790 108.508 468.192 515.115
673 0 74.0565 11.8828 880 107.314 467.243 512.475
674 0 76.1131 11.8639 903 106.726 468.285 511.207
675 0 76.1196 11.3111 861 109.402 467.473 509.376
676 0 81.1095 12.0208 975 105.104 467.868 509.55
677 0 82.1725 11.5002 945 104.222 468.207 507.689
678 0 86.1695 12.1157 1044 102.87 468.408 505.915
679 0 88.1738 11.8403 1044 103.992 468.169 505.307
680 0 91.1674 12.0767 1101 102.074 468.259 503.863
681 0 93.1532 11.261 1049 103.681 468.13 502.441
682 0 96.1115 11.6635 1121 102.601 467.794 501.222
683 0 99.1159 11.6228 1152 102.174 468.541 500.35
684 0 103.16 11.8747 1225 99.8514 468.587 499.874
685 0 106.07 11.1342 1181 100.925 468.926 497.73
686 0 111.184 11.3686 1264 97.5807 468.903 496.864
687 1 62.0719 10.359 643 106.241 467.734 518.714
688 0 66.0631 11.9734 791 101.263 468.009 518.469
689 0 67.0523 12.2889 824 100.795 468.279 516.397
690 0 67.0554 11.9603 802 90.4738 468.935 519.646
691 0 69.07 11.4666 792 92.3081 468.122 518.279
692 0 69.0312 11.1689 771 94.4708 469 518.416
693 0 73.068 10.894 796 94.2827 468.66 517.327
694 0 74.0489 11.4654 849 92.7055 469.133 517.247
695 0 79.1187 11.5775 916 92.9596 467.862 514.168
696 0 82.0916 10.7563 883 95.6331 468.04 513.41
697 0 83.0714 11.0628 919 96.2709 467.335 511.662
698 0 86.0469 11.7959 1015 95.7803 467.577 511.755
699 0 90.119 11.9398 1076 93.8727 467.811 510.379
700 0 92.0988 11.9003 1096 94.4936 467.456 509.711
701 0 94.0498 11.4726 1079 98.8128 468.133 508.851
702 0 99.1482 12.093 1199 97.2869 467.605 506.4
703 0 102.081 11.7553 1200 100.255 466.645 504.278
704 0 105.162 11.6582 1226 100.532 466.796 501.25
705 1 53.1198 11.5588 614 103.158 468.288 527.977
706 0 55.2279 12.4213 686 101.214 468.022 527.818
707 0 57.1037 11.9257 681 103.844 467.289 527.162
708 0 53.0874 10.9065 579 99.0587 468.76 529.359
709 0 54.033 10.9378 591 97.8071 468.247 528.323
710 0 57.0292 11.3626 648 98.2423 467.816 527
711 0 59.0185 11.3524 670 97.8791 468.406 526.561
712 0 61.0704 10.6598 651 98.2657 468.493 525.19
713 0 63.046 10.9127 688 93.7442 468.042 524.788
714 0 66.0535 11.8237 781 91.6863 468.065 524.548
715 0 66.0561 11.0815 732 93.4112 468.418 525.113
716 0 68.0726 11.5612 787 91.9365 468.953 522.849
717 0 71.0585 10.9909 781 92.1114 468.568 521.548
718 0 73.0483 11.335 828 95.2971 468.306 520.446
719 0 76.0472 11.8085 898 95.2038 467.462 522.002
720 0 78.0543 11.2486 878 96.9294 468.672 519.548
721 0 80.044 11.4187 914 95.4628 468.267 519.184
722 0 83.0346 11.5012 955 92.2419 468.382 518.124
723 0 84.0862 11.6904 983 91.3784 468.472 517.672
724 0 86.1382 10.7966 930 93.2258 468.553 516.288
725 0 88.0426 11.0515 973 92.8397 468.722 513.861
726 0 92.1173 12.0607 1111 92.0252 467.815 511.769
727 0 96.1552 12.251 1178 91.2767 467.702 509.035
728 0 98.1216 12.6068 1237 94.1698 467.728 507.987
729 0 100.127 11.1758 1119 97.1054 467.268 508.292
730 0 105.102 12.036 1265 97.4806 467.906 505.961
731 0 107.101 12.2688 1314 97.0738 467.286 506.123
732 0 112.142 12.4307 1394 96.9814 467.956 501.514
733 0 115.134 12.5506 1445 97.9668 467.442 501.116
734 0 117.187 12.6379 1481 100.855 468.124 498.982
735 0 121.175 13.4681 1632 98.6618 467.97 495.523
736 0 126.226 12.5489 1584 101.449 467.783 491.513
737 0 130.185 13.7804 1794 98.8896 467.671 487.506
738 0 130.176 13.7813 1794 144.813 468.68 487.418
739 0 138.413 13.084 1811 99.984 467.495 483.056
740 0 145.237 13.6466 1982 97.7114 467.368 482.27
741 0 147.306 12.6336 1861 102.624 466.937 477.641
742 0 152.368 12.9292 1970 102.735 467.052 474.246
743 0 156.388 12.4946 1954 102.468 466.003 474.274
744 0 161.464 12.2752 1982 101.084 465.709 471.989
745 0 167.293 11.7279 1962 100.192 466.188 467.905
746 0 174.459 12.1805 2125 99.9176 466.387 466.272
747 0 180.563 12.4776 2253 103.91 466.287 464.054
748 1 71.0882 13.3074 946 107.24 466.423 516.849
749 0 72.1122 12.9243 932 107.014 466.321 515.47
750 0 76.1145 14.4125 1097 102.596 466.586 514.553
751 0 77.0964 14.7348 1136 102.858 467.215 514.316
752 0 78.1355 14.5772 1139 103.586 466.95 512.749
753 0 82.2114 14.5357 1195 103.151 467.181 512.356
754 0 86.1456 14.5451 1253 102.482 467.188 511.827
755 0 88.1896 14.4575 1275 105.256 467.26 510.503
756 0 90.1703 14.9384 1347 105.587 467.059 508.819
757 0 93.1856 14.5516 1356 107.417 467.044 507.759
758 0 96.1104 14.9828 1440 106.869 467.342 506.783
759 0 98.2371 15.2794 1501 107.678 467.306 505.734
760 0 103.199 14.9323 1541 108.69 467.216 504.273
761 0 106.232 15.3156 1627 106.667 466.436 502.313
762 0 109.175 15.2416 1664 106.962 467.263 498.838
763 0 112.199 15.4993 1739 106.721 467.284 498.464
764 0 116.184 15.0623 1750 109.182 467.348 496.754
765 0 118.163 14.7339 1741 110.192 467.093 495.324
766 0 122.175 14.5202 1774 110.965 467.031 494.525
767 0 128.137 15.6395 2004 105.452 467.452 493.232
768 0 130.156 14.8437 1932 108.102 467.058 491.562
769 0 133.248 14.3417 1911 110.93 466.131 490.64
770 0 140.175 14.4962 2032 110.874 466.616 487.012
771 1 72.1584 14.3019 1032 119.604 466.421 517.691
772 0 76.1286 14.3836 1095 116.291 466.951 514.998
773 0 78.1046 14.7751 1154 117.912 467.011 512.971
774 0 78.0705 15.1914 1186 119.031 466.908 511.938
775 0 83.0782 15.2748 1269 117.305 466.877 511.136
776 0 86.1523 15.0896 1300 117.348 466.29 509.157
777 0 87.0974 14.9832 1305 118.15 466.591 508.649
778 0 92.1114 15.6984 1446 114.305 466.214 506.887
779 0 93.1545 15.1791 1414 116.441 466.549 506.576
780 0 97.0879 15.5529 1510 115.134 466.664 505.74
781 0 101.152 16.0551 1624 112.656 467.027 503.161
782 0 104.177 15.8289 1649 113.735 466.99 500.894
783 0 108.193 15.2043 1645 117.667 467.164 497.992
784 0 112.114 15.6626 1756 113.961 467.141 496.699
785 0 112.22 15.425 1731 115.878 466.779 495.949
786 1 51.0458 13.8503 707 124.972 467.658 524.85
787 0 52.0886 13.8802 723 126.768 467.585 524.65
788 0 53.1019 13.992 743 128.52 467.902 522.684
789 0 57.1037 14.2548 814 128.222 467.329 521.952
790 0 59.06 14.1212 834 129.57 468.526 521.869
791 0 62.0512 14.5042 900 127.054 468.919 521.53
792 0 62.0625 14.2437 884 130.258 468.826 519.484
793 0 66.04 14.4155 952 128.484 468.434 518.564
794 0 67.0606 14.897 999 128.927 469.237 517.585
795 0 68.0282 14.494 986 132.006 468.445 515.796
796 0 71.053 14.6088 1038 131.372 468.62 515.649
797 0 73.0504 14.8938 1088 130.995 468.775 514.95
798 0 73.0339 15.0341 1098 131.792 469.155 513.723
799 0 77.102 14.9023 1149 132.05 468.907 512.702
800 0 78.0619 15.6542 1222 130.32 468.752 512.768
801 0 79.047 15.0923 1193 134.501 469.236 510.205
802 0 80.0334 15.2811 1223 133.18 469.016 509.549
803 0 86.0588 15.7334 1354 131.742 468.657 508.979
804 0 88.0699 15.6921 1382 131.606 468.484 507.944
805 0 89.0666 16.0329 1428 132.652 467.947 507.312
806 0 93.0512 16.0234 1491 133.148 468.075 505.532
807 0 95.0898 15.9428 1516 133.66 467.9 504.055
808 0 98.1038 15.769 1547 135.071 468.021 502.513
809 0 101.026 15.59 1575 137.194 467.474 501.934
810 0 104.069 16.1815 1684 133.158 467.106 499.916
811 0 106.026 15.7509 1670 134.441 466.98 498.676
812 0 109.127 15.9997 1746 133.23 466.674 498.789
813 0 111.086 15.3934 1710 135.636 467.298 497.861
814 0 114.079 15.7434 1796 135.317 467.123 496.187
815 1 61.0639 12.7735 780 133.695 467.68 521.36
816 0 62.0687 12.8728 799 133.095 467.168 520.616
817 0 62.0611 12.1332 753 133.251 467.505 517.701
818 0 64.0339 12.5871 806 133.114 466.521 516.447
819 0 64.1092 12.3071 789 133.968 466.755 515.242
820 0 69.121 12.5866 870 129.605 466.809 514.116
821 0 71.0878 12.7448 906 128.061 466.421 511.922
822 0 73.0987 12.4489 910 128.371 466.371 509.552
823 0 76.1627 12.2238 931 127.93 465.862 507.979
824 0 79.1157 12.6271 999 124.867 467.05 508.192
825 0 79.1675 12.1514 962 128.648 466.605 505.732
826 0 82.1191 12.4819 1025 126.534 466.959 504.872
827 0 87.1554 12.1392 1058 130.118 466.162 503.148
828 0 88.0581 12.1965 1074 129.506 466.52 502.959
829 0 93.1447 12.3893 1154 124.65 466.645 502.377
830 0 96.1062 12.1116 1164 126.179 466.197 500.009
831 0 102.09 12.6065 1287 123.117 465.098 500.706
832 1 56.0762 10.1112 567 112.557 465.564 528.778
833 0 59.0429 11.1444 658 108.202 465.962 526.73
834 0 62.0351 11.8643 736 103.023 466.227 526.348
835 0 63.1096 12.1059 764 102.741 468.046 525.793
836 0 65.0546 11.8208 769 103.789 467.243 523.834
837 0 66.0814 11.274 745 103.251 467.172 520.67
838 0 71.0481 11.2318 798 100.362 467.396 519.979
839 0 72.0664 11.2396 810 99.8383 467.559 517.517
840 0 75.0561 11.4181 857 98.2882 466.342 516.461
841 0 77.0498 11.1616 860 98.7209 466.884 514.212
842 0 81.0651 11.1022 900 97.2556 465.74 513.721
843 0 83.1112 12.1524 1010 96.2139 465.721 509.233
844 0 88.1321 10.8927 960 107.199 465.299 507.643
845 0 88.088 10.6371 937 108.231 465.16 507.567
846 0 92.1261 10.5508 972 108.526 465.623 505.467
847 0 96.1043 10.884 1046 105.985 465.321 505.755
848 0 99.1652 10.901 1081 104.288 466.17 505.041
849 0 103.122 9.93968 1025 103.681 466.163 503.711
850 0 105.137 8.55076 899 100.91 466.842 501.098
851 0 110.19 8.39462 925 101.394 466.635 498.81
852 0 114.176 9.70432 1108 99.3394 466.485 496.048
853 0 115.388 10.209 1178 101.525 465.417 494.655
854 0 118.283 10.1621 1202 103.73 466.084 494.285
855 0 122.473 10.1492 1243 104.562 465.776 491.554
856 0 127.227 10.2966 1310 102.828 465.901 490.16
857 0 129.306 10.3012 1332 103.371 466.063 489.194
858 0 136.408 10.6812 1457 102.655 465.992 485.554
859 0 138.343 10.38 1436 103.556 466.303 483.22
860 0 146.233 10.8867 1592 103.253 466.114 479.342
861 0 149.234 10.3998 1552 101.8 465.412 481.03
862 0 155.391 11.2554 1749 101.308 465.318 475.016
863 0 158.435 10.7426 1702 103.301 464.934 472.25
864 0 163.485 10.7227 1753 104.236 466.072 471.027
865 0 169.593 11.4568 1943 104.41 466.014 468.17
866 1 44.0355 9.51504 419 91.2315 467.506 529.9
867 0 45.0238 9.43946 425 88.7412 467.118 529.544
868 0 46.0462 10.1854 469 90.0874 466.422 528.806
869 0 48.0148 10.8925 523 88.9962 466.063 527.155
870 0 48.1554 9.30321 448 103.241 465.147 527.295
871 0 49.076 9.94377 488 101.883 464.992 527.383
872 0 48.1064 9.58293 461 101.831 464.562 528.145
873 0 54.1342 10.0491 544 100.026 465.033 524.969
874 0 57.0855 11.2813 644 94.9581 465.022 524.252
875 0 57.1735 11.264 644 95.7857 464.587 525.477
876 0 57.1116 11.1361 636 97.4292 464.676 525.618
877 0 61.0942 11.2613 688 95.6235 465.064 524.509
878 0 63.1995 11.8197 747 94.6439 465.274 521.316
879 0 64.2097 11.0575 710 96.8479 465.194 522.044
880 0 69.1926 10.319 714 98.1218 465.258 522.443
881 0 69.2328 11.0786 767 97.8253 465.561 519.7
882 0 70.2355 11.4757 806 98.2258 465.457 518.903
883 0 73.1462 11.7573 860 97.657 465.769 517.68
884 0 76.2695 12.5083 954 95.9057 465.17 516.999
885 1 37.1641 10.6554 396 97.5581 465.543 536.121
886 0 38.153 10.7724 411 100.696 465.567 533.535
887 0 39.0641 11.5451 451 99.2506 465.63 533.235
888 0 40.1143 11.6916 469 95.6951 466.066 532.994
889 0 42.0789 12.0488 507 86.4773 466.093 532.929
890 0 42.072 12.1458 511 89.2544 466.063 530.573
891 0 44.0903 11.93 526 91.1787 466.342 530.732
892 0 45.0194 11.8393 533 92.2139 466.827 530.071
893 0 47.0345 12.14 571 91.9702 466.774 530.163
894 0 47.0544 12.4962 588 94.2024 466.832 528.279
895 0 48.0607 11.8392 569 96.58 466.459 528.123
896 0 49.1573 12.0837 594 95.8737 466.618 527.763
897 0 51.1081 12.3464 631 95.3138 466.531 526.935
898 0 54.0718 12.5204 677 93.9439 466.975 524.436
899 0 54.0996 11.9964 649 96.2342 467.277 524.888
900 0 55.0488 12.3708 681 93.765 467.307 524.348
901 0 57.0481 12.7612 728 92.8929 467.242 522.962
902 0 59.1135 12.772 755 93.0742 467.226 523.503
903 0 60.1536 12.6842 763 95.2267 467.565 522.476
904 0 63.1725 12.6321 798 95.6378 467.459 521.37
905 0 63.225 12.3843 783 97.4457 467.08 519.796
906 1 32.1541 11.5382 371 103.879 467.553 534.749
907 0 32.0475 11.483 368 104.611 468.315 534.247
908 0 33.0363 12.4711 412 100.922 468.102 533.621
909 0 34.0073 12.5855 428 101.621 468.556 532.766
910 0 36.0229 11.9368 430 95.7256 467.744 531.981
911 0 37.0227 12.3438 457 93.1904 467.702 532.58
912 0 37.0505 11.7947 437 96.1442 468.011 532.787
913 0 39.0262 12.0688 471 95.9363 467.701 532.085
914 0 40.0207 12.5435 502 94.6056 467.691 531.994
915 0 42.0262 12.6588 532 91.0019 467.382 531.427
916 0 43.0245 12.5045 538 93.3792 467.273 530.967
917 0 43.0357 12.5477 540 94.6556 467.302 530.844
918 0 44.0231 13.1067 577 93.8492 467.593 531.659
919 0 45.0115 12.3524 556 96.5917 466.892 530.246
920 0 48.0207 12.6612 608 94.7615 466.138 529.801
921 0 48.0203 12.1824 585 97.0581 466.405 528.855
922 0 47.0134 12.9112 607 96.776 466.506 528.252
923 0 49.0229 12.7899 627 97.756 466.306 527.461
924 0 51.1043 12.6408 646 97.2709 466.217 530.212
925 0 52.0559 13.2166 688 95.3256 466.715 530.308
926 0 54.0392 12.8981 697 94.7834 466.103 529.406
927 0 53.0319 13.1807 699 94.8913 466.25 529.15
928 0 56.0606 13.0751 733 93.7367 466.798 529.154
929 0 58.1242 13.0238 757 92.4888 466.092 528.845
930 0 58.0746 12.3462 717 87.7308 466.13 525.88
931 0 62.1016 12.2058 758 87.5343 465.528 524.757
932 0 64.131 12.1158 777 87.0154 465.394 524.47
933 0 65.2014 12.7298 830 86.6542 465.504 522.728
934 0 67.0562 12.0496 808 88.2339 465.05 521.141
935 0 69.1236 12.1088 837 88.5759 465.435 520.78
936 0 72.1976 12.7567 921 86.3822 465.729 520.001
937 0 75.1728 12.5577 944 87.6366 464.952 519.255
938 0 77.1246 11.6694 900 92.5089 464.336 517.753
939 1 38.0285 11.2547 428 93.3972 464.304 538.15
940 0 39.0925 10.9228 427 91.1077 464.602 538.047
941 0 41.0959 11.8017 485 89.7196 464.285 536.243
942 0 43.0247 11.6677 502 91.7649 463.88 537.406
943 0 42.0247 11.6598 490 93.2143 464.233 536.994
944 0 43.0276 11.8761 511 92.7652 464.763 536.018
945 0 46.017 11.7348 540 92.4185 465.15 536.387
946 0 46.0266 12.1669 560 92.4732 464.83 534.62
947 0 48.0535 11.8826 571 102.898 464.816 532.758
948 0 50.0738 11.7626 589 102.547 464.669 531.46
949 0 52.0436 12.1629 633 100.741 465.036 531.417
950 0 52.1407 11.7758 614 101.777 465.321 529.907
951 0 55.0586 11.7511 647 108.368 465.099 531.193
952 0 56.0721 12.4661 699 107.382 465.888 529.591
953 0 56.0775 12.4649 699 132.77 466.888 529.658
954 0 59.1271 12.5154 740 108.677 466.626 525.492
955 0 62.1797 12.882 801 103.866 466.331 525.958
956 0 64.1824 13.0565 838 94.4081 466.896 523.092
957 0 67.2727 13.3338 897 93.8172 466.224 521.307
958 0 68.4136 12.936 885 95.5604 467.046 519.363
959 0 70.1362 12.7466 894 95.7629 466.885 519.103
960 0 73.207 13.1955 966 94.3375 466.615 517.621
961 0 75.1622 13.3844 1006 95.8777 466.977 515.451
962 0 75.3024 13.9305 1049 95.8541 466.286 514.374
963 0 80.3522 13.6275 1095 96.4749 467.063 513.248
964 0 83.2925 13.9749 1164 95.5455 467.131 513.024
965 0 85.1528 13.4347 1144 98.4117 467.871 510.118
966 1 42.2044 11.3258 478 100.479 468.408 534.059
967 0 42.2256 11.7228 495 101.147 468.295 533.186
968 0 46.1894 12.2322 565 102.419 467.409 530.26
969 0 47.1989 12.1613 574 102.944 468.347 529.888
970 0 47.182 13.2254 624 102.566 467.97 529.716
971 0 50.1022 12.9136 647 102.091 468.073 528.934
972 0 51.2167 13.687 701 100.769 467.515 527.722
973 0 52.1591 13.1712 687 99.837 467.523 526.811
974 0 53.3292 13.6511 728 100.88 467.948 526
975 0 57.2687 13.7248 786 99.2646 468.444 525.443
976 0 58.1478 13.8268 804 99.3731 468.05 522.779
977 0 61.1916 13.8091 845 98.374 467.796 522.637
978 0 61.2404 14.239 872 100.067 467.849 521.633
979 0 64.2389 14.0569 903 108.792 468.723 521.262
980 0 66.153 13.6653 904 113.446 468.476 520.649
981 0 67.3467 14.2991 963 112.456 468.619 519.925
982 0 70.2298 13.5982 955 113.716 468.571 519.247
983 0 72.2938 14.1644 1024 102.268 468.305 518.781
984 0 74.2274 14.0784 1045 103.233 467.3 517.853
985 0 77.1981 14.0418 1084 103.672 467.768 515.184
986 0 79.1975 14.2808 1131 102.798 467.583 515.356
987 0 81.1693 14.2295 1155 105.079 467.565 512.331
988 0 83.168 14.3685 1195 104.159 468.14 511.955
989 0 88.2596 14.2647 1259 104.812 467.342 510.867
990 0 91.2361 14.0843 1285 105.486 468.007 509.295
991 0 92.221 14.2267 1312 106.901 467.327 506.818
992 0 96.2435 13.7256 1321 108.671 467.329 505.535
993 0 100.23 14.1574 1419 105.266 467.927 503.187
994 0 105.273 14.2962 1505 106.625 467.829 501.664
995 0 105.258 13.7947 1452 111.123 467.326 499.397
996 0 109.182 13.7568 1502 110.295 467.037 498.403
997 1 54.0329 11.7706 636 107.275 467.486 525.752
998 0 56.0185 12.478 699 104.748 467.893 523.863
999 0 59.0163 12.2 720 103.961 467.671 523.297
1000 0 60.0331 12.2099 733 102.928 466.452 522.173
1001 0 63.0655 12.1937 769 102.823 467.012 520.775
1002 0 65.0368 12.024 782 102.404 467.019 518.157
1003 0 69.0452 12.7887 883 100.213 467.338 517.148
1004 0 72.0744 12.6813 914 100.861 467.665 515.31
1005 0 74.0375 12.8989 955 100.548 468.597 514.727
1006 0 77.0847 12.5317 966 100.963 468.318 513.508
1007 0 79.0484 11.9926 948 104.281 468.393 511.441
1008 0 81.0635 12.4594 1010 103.206 468.706 509.257
1009 0 85.0372 12.1711 1035 101.217 467.931 511.382
1010 0 89.0574 13.0253 1160 100.022 468.241 510.769
1011 0 90.1165 12.8278 1156 101.958 468.461 507.929
1012 0 93.1491 13.1188 1222 100.694 469.112 507.851
1013 0 95.1502 13.0215 1239 100.844 468.338 505.488
1014 0 99.1239 12.8829 1277 101.576 468.595 504.244
1015 0 101.098 12.1763 1231 103.275 468.072 502.077
1016 0 105.097 12.8453 1350 102.583 467.452 500.41
1017 0 108.216 12.6691 1371 104.63 467.156 494.951
1018 0 113.283 12.5703 1424 104.886 468.238 491.706
1019 1 58.2406 11.3666 662 98.4713 467.711 520.914
1020 0 58.2712 10.6227 619 101.225 467.061 520.548
1021 0 62.2579 12.0949 753 101.185 468.655 518.993
1022 0 63.1548 12.1923 770 96.9208 468.582 520.477
1023 0 64.151 11.5509 741 102.053 469.945 520.565
1024 0 68.0854 11.8821 809 99.5822 469.497 519.6
1025 0 71.126 11.7116 833 100.096 469.998 518.3
1026 0 71.1442 11.8773 845 99.7704 469.321 516.728
1027 0 74.1047 11.7941 874 99.7471 469.828 516.071
1028 0 75.0785 11.9075 894 100.048 469.304 514.765
1029 0 78.1569 12.0271 940 99.5202 469.167 512.86
1030 0 81.0833 12.3577 1002 96.9681 468.292 510.977
1031 0 83.097 11.8777 987 98.462 468.201 509.962
1032 0 87.1404 12.1184 1056 107.957 468.256 508.315
1033 0 89.1484 12.2717 1094 108.641 468.153 505.567
1034 0 91.2394 11.9247 1088 110.419 467.776 505.738
1035 0 93.1613 12.4193 1157 110.507 467.412 503.935
1036 0 96.1415 12.3464 1187 109.581 467.372 503.318
1037 0 99.1183 12.7524 1264 107.628 467.56 501.963
1038 0 103.131 12.7701 1317 104.522 467.504 499.581
1039 0 105.128 11.9378 1255 105.709 467.576 499.476
1040 0 108.162 11.6584 1261 106.237 467.389 496.078
1041 0 112.158 12.1436 1362 105.332 467.499 494.927
1042 0 115.088 12.1906 1403 99.206 468.073 492.991
1043 0 118.101 11.9643 1413 104.447 467.463 491.31
1044 0 123.112 12.9394 1593 100.399 467.706 491.382
1045 0 124.097 12.0067 1490 100.892 467.895 487.315
1046 0 128.084 11.8438 1517 101.445 466.806 485.691
1047 0 133.161 11.7902 1570 102.126 467.796 483.34
1048 1 78.0777 10.9378 854 96.6733 467.664 511.82
1049 0 82.0995 11.0963 911 98.7409 467.528 512.388
1050 0 84.0902 11.5233 969 93.354 467.001 511.92
1051 0 88.1451 12.037 1061 92.6098 467.076 511.691
1052 0 90.1581 11.5242 1039 95.9923 466.811 509.794
1053 0 93.1273 11.5111 1072 96.5392 466.51 509.707
1054 0 95.2056 11.3439 1080 100.566 466.701 506.495
1055 0 98.1921 12.1293 1191 99.6902 467.84 504.568
1056 0 99.2783 11.6743 1159 102.552 467.552 505.26
1057 0 104.194 12.112 1262 100.173 467.075 503.441
1058 0 107.137 12.5726 1347 97.5976 467.627 501.186
1059 0 110.125 11.8229 1302 101.164 467.095 499.858
1060 0 113.147 11.8076 1336 101.092 466.99 497.285
1061 1 54.0608 10.4882 567 101.485 467.312 527.818
1062 0 54.0609 10.3957 562 104.043 467.63 527.867
1063 0 56.0473 10.4911 588 100.794 468.196 526.713
1064 0 56.0499 10.7404 602 102.784 467.854 527.056
1065 0 60.1436 10.8241 651 107.402 468.387 524.911
1066 0 61.1835 11.0978 679 107.495 467.882 523.635
1067 0 64.1249 11.54 740 103.468 467.616 522.504
1068 0 64.1278 11.134 714 107.287 467.782 522.375
1069 0 66.1276 11.009 728 107.169 467.441 520.797
1070 0 68.258 11.31 772 107.277 467.876 519.587
1071 0 69.236 11.6125 804 106.526 467.335 519.388
1072 0 69.0772 10.7706 744 103.901 469.457 521.298
1073 0 68.0941 10.324 703 107.32 468.745 520.465
1074 0 73.1415 11.0881 811 104.196 469.342 520.117
1075 0 74.1586 11.5968 860 104.813 468.55 518.624
1076 0 75.1512 10.9646 824 106.811 468.54 517.877
1077 0 77.1444 10.9664 846 107.986 468.227 516.817
1078 0 79.1478 11.1816 885 107.534 468.397 515.81
1079 0 83.2418 11.7009 974 106.557 468.241 514.077
1080 0 84.1752 11.678 983 107.304 468.511 512.866
1081 0 87.2328 11.1082 969 109.965 468.071 510.942
1082 0 88.1179 11.8364 1043 108.477 469.253 509.003
1083 0 89.1025 11.0322 983 111.993 468.624 506.444
1084 0 96.1188 12.2661 1179 107.92 468.89 507.746
1085 0 97.0918 11.2162 1089 110.837 468.458 506.835
1086 0 100.132 11.6945 1171 108.871 468.637 505.417
1087 0 101.089 11.4255 1155 109.945 468.41 504.851
1088 0 107.102 11.7925 1263 109.185 468.027 501.729
1089 1 56.0284 9.86999 553 125.031 468.656 523.468
1090 0 57.0284 10.223 583 120.581 469.566 521.645
1091 0 56.0639 9.00757 505 107.747 468.271 521.479
1092 0 58.0985 9.56996 556 106.324 468.453 522.421
1093 0 60.1164 9.41507 566 107.062 467.551 522.251
1094 0 61.0828 9.85548 602 104.223 467.862 521.098
1095 0 62.1601 9.42727 586 107.517 467.887 521.701
1096 0 66.0939 9.77397 646 106.793 467.621 519.673
1097 0 67.1119 10.4452 701 105.257 467.603 518.399
1098 0 69.1472 10.1378 701 106.305 467.907 517.812
1099 0 71.0537 10.0628 715 105.344 469.344 520.326
1100 0 71.061 10.0055 711 146.18 470.359 520.539
1101 0 74.0623 10.0726 746 105.542 468.921 514.822
1102 0 78.1788 10.3737 811 101.797 468.546 516.358
1103 0 80.0696 10.5908 848 102.705 468.386 513.335
1104 0 84.053 10.4934 882 102.135 468.188 512.1
1105 0 85.0861 10.7656 916 102.879 467.972 511.19
1106 0 86.1472 10.3195 889 105.741 467.319 509.339
1107 0 90.2322 10.9495 988 104.744 467.165 507.859
1108 1 49.0707 11.2083 550 115.425 468.991 530.175
1109 0 51.0777 11.3161 578 115.957 469.024 530.239
1110 0 54.0576 12.4867 675 107.287 468.97 528.89
1111 0 54.0818 12.5366 678 144.553 468.981 528.898
1112 0 55.0401 12.9178 711 106.399 468.906 527.76
1113 0 55.0886 12.2348 674 104.887 468.982 528.93
1114 0 56.1859 11.7467 660 105.182 469.074 528.677
1115 0 58.0985 11.4461 665 101.162 468.147 527.311
1116 0 60.082 12.0835 726 100.55 468.698 527.147
1117 0 63.0578 11.8621 748 100.362 469.139 525.957
1118 0 64.0602 12.0043 769 100.512 468.61 524.664
1119 0 67.0594 11.6762 783 100.605 468.648 524.238
1120 0 67.0799 12.0453 808 100.108 468.427 523.594
1121 0 68.1288 12.4764 850 99.6176 467.924 521.407
1122 0 70.0618 11.3757 797 102.384 468.583 521.706
1123 0 75.111 12.2485 920 97.2087 467.985 520.254
1124 0 76.1234 12.0462 917 99.687 467.639 518.55
1125 0 78.1153 12.4944 976 98.9293 467.947 517.16
1126 0 80.1106 12.1457 973 100.202 468.324 515.443
1127 0 80.1025 11.2855 904 103.835 467.648 515.41
1128 0 82.0733 12.038 988 102.076 467.786 513.803
1129 0 85.0512 11.887 1011 102.756 467.893 512.838
1130 0 88.0903 11.8628 1045 102.965 467.377 511.826
1131 0 88.0968 11.022 971 107.028 467.341 512.779
1132 0 92.0442 11.4945 1058 105.407 468.484 509.912
1133 0 93.0693 10.9273 1017 106.343 468.44 509.427
1134 0 96.0536 11.2958 1085 106.072 468.504 506.069
1135 0 98.0853 11.6429 1142 105.99 467.907 506.947
1136 0 100.1 11.4086 1142 106.442 467.313 508.185
1137 0 106.095 11.7065 1242 104.143 467.961 502.395
1138 0 107.087 11.0565 1184 106.197 467.866 499.868
1139 0 114.193 11.9272 1362 102.971 467.902 497.242
1140 0 117.087 11.6495 1364 103.694 467.707 496.038
1141 0 120.146 11.5277 1385 104.547 467.523 494.866
1142 0 123.134 11.5403 1421 104.151 467.768 494.725
1143 0 127.166 12.1259 1542 103.978 467.942 490.53
1144 0 131.17 11.9692 1570 104.735 468.05 489.068
1145 0 134.265 11.4475 1537 105.916 466.996 489.179
1146 0 140.183 12.3695 1734 104.509 467.313 488.381
1147 0 142.145 12.0229 1709 107.954 466.202 482.898
1148 0 148.253 12.2358 1814 106.805 465.92 480.16
1149 0 152.204 12.0759 1838 107.475 466.163 478.496
1150 0 158.233 12.2604 1940 94.7412 466.642 475.94
1151 0 163.185 12.3235 2011 96.6663 466.155 474.403
1152 0 168.403 12.6245 2126 95.961 465.73 473.293
1153 1 95.284 11.1771 1065 92.907 465.892 512.563
1154 0 99.2293 11.5591 1147 93.7585 466.674 509.451
1155 0 99.2596 9.70184 963 98.242 466.749 511.736
1156 0 105.252 11.0877 1167 96.3368 466.484 509.539
1157 0 106.235 11.1827 1188 96.9941 466.441 505.966
1158 0 109.148 11.1591 1218 96.6675 466.024 506.08
1159 0 112.254 10.6633 1197 98.9373 466.566 504.591
1160 0 115.15 10.7339 1236 100.867 466.298 504.54
1161 1 58.0402 10.441 606 101.805 466.551 524.916
1162 0 60.1552 11.4204 687 100.14 465.718 521.47
1163 0 62.1224 11.5578 718 103.48 464.833 524.687
1164 0 60.046 10.8583 652 97.5629 465.997 526.133
1165 0 65.0162 10.7819 701 98.2468 465.402 524.434
1166 0 65.0644 11.1582 726 100.054 465.676 523.021
1167 0 69.0513 11.2235 775 98.8542 465.587 523.303
1168 0 75.1553 8.92818 671 101.736 464.641 523.271
1169 0 74.129 10.6706 791 100.573 464.608 520.121
1170 0 73.1053 10.4917 767 103.601 464.614 518.601
1171 0 78.2031 10.6262 831 102.244 464.629 518.4
1172 0 80.0946 10.4252 835 101.086 464.638 517.222
1173 1 47.0533 10.605 499 97.0481 464.746 533.593
1174 0 49.0197 10.9956 539 99.8015 464.694 531.622
1175 0 48.0915 11.0207 530 101.153 465.768 531.443
1176 0 48.0791 10.8571 522 103.467 464.883 531.529
1177 0 51.0928 11.0974 567 103.434 464.744 530.266
1178 0 51.0935 11.1169 568 105.482 465.225 528.435
1179 0 53.0846 11.4723 609 105.076 464.603 528.144
1180 0 54.0973 11.4054 617 105.164 464.538 526.912
1181 0 57.0619 11.0056 628 107.447 464.451 527.495
1182 0 60.0465 12.3904 744 104.487 464.145 522.196
1183 0 60.0776 12.0011 721 107.344 463.971 523.656
1184 0 62.114 11.6399 723 108.426 463.911 521.862
1185 0 64.1451 11.9884 769 109.421 464.43 521.082
1186 0 66.1292 12.7478 843 107.715 464.646 520.725
1187 0 68.1381 12.0197 819 109.717 465.158 519.37
1188 0 71.2914 12.0351 858 105.168 466.15 521.386
1189 0 78.3569 12.0347 943 105.943 466.332 517.971
1190 0 79.185 12.174 964 105.302 465.655 519.423
1191 1 41.0448 11.5727 475 100.627 466.981 537.032
1192 0 41.0259 11.4805 471 104.261 467.516 536.223
1193 0 41.0628 10.9101 448 81.0781 466.027 533.9
1194 0 40.1105 10.0472 403 85.7618 466.407 533.787
1195 0 41.1358 10.0885 415 87.1687 465.79 533.581
1196 0 42.0615 10.4133 438 86.3721 466.842 533.521
1197 0 44.1267 10.5605 466 87.0901 466.923 531.931
1198 0 45.1452 10.8317 489 89.6258 467.29 532.775
1199 0 47.0655 11.1122 523 88.8795 466.277 531.369
1200 0 48.1095 11.3699 547 87.947 465.91 531.433
1201 0 48.0826 11.3347 545 91.8514 466.211 530.042
1202 0 50.0836 11.1014 556 90.3777 466.426 529.701
1203 0 50.0619 11.7854 590 90.9136 466.742 529.036
1204 0 51.0352 11.4627 585 91.5863 466.326 528.761
1205 0 52.0303 11.5125 599 93.2404 466.656 528.753
1206 0 54.0387 11.4918 621 95.0419 466.28 527.675
1207 0 57.0382 12.9913 741 104.031 467.286 530.609
1208 0 58.0863 12.8602 747 105.415 466.673 529.128
1209 0 59.0484 13.2434 782 105.503 467.004 528.416
1210 0 61.1384 13.4285 821 104.408 466.844 528.488
1211 0 63.0621 13.2409 835 106.532 465.781 526.903
1212 0 64.073 13.2037 846 108.001 465.606 526.071
1213 0 66.0596 12.8974 852 108.952 466.144 525.212
1214 0 67.0649 13.1664 883 110.216 466.854 524.071
1215 0 71.0846 13.3362 948 109.752 466.648 522.66
1216 0 73.157 13.3685 978 110.617 466.263 522.448
1217 0 75.135 13.2295 994 112.167 466.141 521.167
1218 0 77.0604 13.2883 1024 111.71 466.13 521.268
1219 0 81.1412 13.4703 1093 111.954 466.152 518.855
1220 1 42.0092 13.0686 549 118.419 466.33 535.25
1221 0 43.0481 12.1724 524 121.882 464.735 535.334
1222 0 45.0281 13.0807 589 119.333 465.489 534.584
1223 0 43.0348 11.9903 516 116.533 465.843 531.535
1224 0 46.0324 13.295 612 121.859 466.673 532.31
1225 0 46.0139 12.9743 597 119.214 465.893 535.003
1226 0 47.0126 13.1454 618 118.712 465.725 534.453
1227 0 47.0154 13.0808 615 118.995 466.543 533.483
1228 0 50.0786 13.359 669 116.211 466.3 532.29
1229 0 50.101 13.2732 665 114.678 466.116 532.968
1230 0 53.0547 13.6275 723 112.611 465.755 530.81
1231 0 55.074 13.8541 763 112.043 466.491 529.934
1232 0 55.0706 13.4918 743 113.908 465.629 528.409
1233 0 58.0857 13.8244 803 112.095 465.618 527.468
1234 0 60.0965 13.7778 828 111.617 465.406 526.999
1235 0 60.1096 13.5419 814 114.231 465.962 525.604
1236 0 62.1532 13.7563 855 113.916 466.533 522.766
1237 0 64.0724 13.8749 889 112.976 466.367 524.732
1238 0 66.0521 13.9738 923 112.824 466.719 522.881
1239 0 69.1023 13.6899 946 115.781 466.338 523.426
1240 0 68.0528 13.4601 916 118.499 466.068 521.356
1241 0 73.0585 13.4002 979 115.513 467.375 519.514
1242 0 75.0647 14.3077 1074 113.132 466.444 517.871
1243 0 77.1168 13.888 1071 113.543 466.416 515.923
1244 0 78.0994 14.1102 1102 113.106 467.005 515.016
1245 0 81.1292 14.1133 1145 112.32 467.197 512.64
1246 0 83.1687 14.2 1181 113.616 467.384 512.697
1247 0 87.2408 13.6519 1191 115.035 466.365 509.982
1248 0 92.3709 14.0087 1294 114.921 466.95 507.297
1249 0 93.3075 13.8038 1288 116.578 465.634 504.419
1250 0 98.3449 13.7069 1348 117.128 466.757 502.792
1251 1 53.2245 13.0767 696 113.085 466.865 523.805
1252 0 54.2366 13.3858 726 112.388 467.331 523.753
1253 0 56.0896 12.4266 697 117.395 467.131 524.489
1254 0 57.0846 12.9107 737 117.689 467.479 526.966
1255 0 60.0274 14.0103 841 115.43 468.071 524.653
1256 0 62.0939 13.8178 858 115.996 468.751 524.017
1257 0 62.0799 13.4504 835 117.832 469.465 523.709
1258 0 65.071 13.1395 855 120.103 468.628 521.429
1259 0 68.0695 13.1483 895 118.268 467.989 520.241
1260 0 71.094 13.8268 983 115.632 468.209 518.564
1261 0 71.0576 13.088 930 119.076 467.86 517.488
1262 0 73.0926 12.833 938 119.862 467.634 517.149
1263 0 75.0315 13.7142 1029 118.479 467.567 514.86
1264 0 78.111 13.3528 1043 119.585 468.053 513.54
1265 0 81.1018 13.5262 1097 118.314 467.493 510.758
1266 0 84.0787 13.4993 1135 118.76 467.523 510.43
1267 0 86.0815 13.371 1151 119.347 467.841 509.19
1268 0 88.1768 13.8018 1217 118.016 467.513 507.352
1269 0 90.107 13.6504 1230 120.412 466.665 504.263
1270 0 94.0642 13.225 1244 121.064 465.989 503.593
1271 0 96.0682 13.3135 1279 118.318 466.274 500.22
1272 0 98.1468 13.6428 1339 116.39 465.987 496.438
1273 0 102.085 12.7835 1305 117.39 465.82 495.126
1274 0 108.115 13.199 1427 112.405 465.742 494.043
1275 0 111.14 12.6417 1405 112.139 465.658 492.891
1276 0 116.248 13.1529 1529 108.598 465.78 490.819
1277 1 57.1326 10.7819 616 105.211 465.618 519.25
1278 0 60.2252 12.0216 724 108.345 465.822 522.272
1279 0 61.1006 11.882 726 108.693 465.373 521.78
1280 0 63.2216 12.5116 791 106.216 466.386 521.547
1281 0 68.2245 12.8839 879 105.761 466.025 520.749
1282 0 68.1706 12.278 837 107.37 466.026 519.557
1283 0 71.1414 12.5806 895 106.518 466.047 517.992
1284 0 73.1702 13.1611 963 105.954 465.658 515.819
1285 0 74.2094 12.5456 931 106.618 466.012 514.814
1286 0 76.128 12.8862 981 104.485 465.941 514.579
1287 0 80.2356 13.5227 1085 101.876 466.443 513.023
1288 0 81.1375 12.7315 1033 104.095 466.454 511.669
1289 0 84.1391 13.1092 1103 102.321 466.701 510.039
1290 0 85.2902 13.1551 1122 101.509 466.934 510.11
1291 0 90.1547 13.3215 1201 100.238 466.492 508.295
1292 0 93.296 13.291 1240 98.1589 466.696 506.519
1293 0 94.2525 12.562 1184 98.1537 466.807 506.236
1294 1 48.1799 10.7514 518 101.037 467.278 527.894
1295 0 50.1138 11.4539 574 96.6899 466.697 524.974
1296 0 51.2024 10.8979 558 96.1326 467.529 524.588
1297 0 56.0497 11.3471 636 93.9041 466.918 526.822
1298 0 57.1217 11.1516 637 92.6201 466.584 525.995
1299 0 59.1615 11.7982 698 90.9857 467.063 523.102
1300 0 62.1172 11.3495 705 91.2355 467.295 523.379
1301 0 64.0764 12.1574 779 88.3825 467.211 523.363
1302 0 66.0616 12.0191 794 87.8073 467.628 522.219
1303 0 67.0587 11.6912 784 88.6747 467.682 520.032
1304 0 70.0793 12.1291 850 87.2859 467.168 517.895
1305 0 73.0912 11.5472 844 87.2192 467.199 518.217
1306 0 73.0895 10.9865 803 89.5616 466.553 516.149
1307 0 75.1432 11.2319 844 90.5474 467.05 517.586
1308 0 78.1799 10.9363 855 88.2573 466.682 516.144
1309 0 80.1253 10.6084 850 88.9776 466.562 516.496
1310 0 83.0972 10.9149 907 89.1797 466.299 514.103
1311 0 85.1597 10.4392 889 88.0979 466.011 513.458
1312 0 89.1626 10.9239 974 88.5503 465.911 513.765
1313 1 45.1079 9.8874 446 84.509 466.924 533.356
1314 0 48.3353 10.4892 507 83.4872 466.519 528.318
1315 0 48.4981 10.5159 510 82.3255 466.804 525.626
1316 0 48.1917 11.226 541 88.5545 467.386 526.25
1317 0 51.0369 11.5015 587 83.1158 467.69 531.79
1318 0 52.0153 12.2464 637 82.0816 467.826 530.466
1319 0 55.0195 12.3229 678 82.4779 467.294 530.864
1320 0 54.0667 12.0037 649 86.8213 467.402 530.837
1321 0 56.0199 12.442 697 88.9727 467.551 529.296
1322 0 60.0329 11.7602 706 95.0042 467.425 528.489
1323 0 61.0519 12.1863 744 94.6667 467.031 527.382
1324 0 62.0389 12.2665 761 94.5966 467.089 525.875
1325 0 65.0416 12.8072 833 93.7239 467.912 524.204
1326 0 67.2108 12.3938 833 95.7311 469.181 523.385
1327 0 67.1234 12.4696 837 97.319 467.331 522.208
1328 0 68.1452 12.0771 823 100.339 469.55 522.1
1329 0 72.1415 12.3507 891 99.2559 467.835 522.095
1330 0 74.1586 12.2575 909 102.106 467.353 520.285
1331 0 76.1926 12.2059 930 101.728 467.444 519.276
1332 0 79.1175 11.8305 936 101.786 466.9 517.995
1333 0 82.107 11.9722 983 100.985 467.469 517.912
1334 0 83.1366 12.4374 1034 101.699 467.261 516.308
1335 0 86.1839 12.2645 1057 101.919 467.342 514.21
1336 0 90.2029 12.1726 1098 102.178 466.213 513.561
1337 0 92.1666 12.1628 1121 102.729 466.818 513.237
1338 0 94.1312 12.3445 1162 103.46 466.785 512.164
1339 1 48.0751 11.482 552 102.614 467.02 534.116
1340 0 49.0701 12.4719 612 100.712 466.624 534.051
1341 0 52.0654 12.6379 658 97.7796 466.854 532.992
1342 0 52.0221 12.3025 640 103.866 467.402 531.205
1343 0 53.0312 13.0866 694 105.101 467.003 530.11
1344 0 56.149 12.8586 722 110.119 466.832 529.744
1345 0 57.0353 13.0095 742 110.923 466.733 529.845
1346 0 59.0742 13.0344 770 109.196 466.766 529.026
1347 0 61.0416 13.2041 806 108.133 465.999 526.112
1348 0 63.0629 13.1139 827 110.087 466.435 525.961
1349 0 63.084 13.062 824 112.052 465.751 525.155
1350 0 66.0843 13.6492 902 111.56 466.024 524.387
1351 0 68.0614 12.8707 876 113.46 466.07 523.6
1352 0 70.0653 13.3447 935 113.406 465.652 522.318
1353 0 72.0651 13.4045 966 113.321 465.724 521.51
1354 0 76.0823 12.9597 986 113.82 465.635 520.146
1355 0 76.1078 13.6517 1039 114.736 465.879 518.721
1356 0 79.189 13.7645 1090 114.074 465.778 518.3
1357 0 80.0904 13.9467 1117 116.367 466.441 516.801
1358 0 84.2349 14.0797 1186 114.573 466.097 515.833
1359 0 87.2189 13.5521 1182 116.714 465.951 513.324
1360 0 89.1683 13.8054 1231 117.363 465.777 512.226
1361 0 89.1683 13.7941 1230 168.497 465.785 512.296
1362 0 92.1754 13.279 1224 121.803 465.636 509.638
1363 0 96.2468 13.6108 1310 120.965 465.583 508.091
1364 0 100.121 13.3539 1337 121.963 465.752 506.455
1365 1 54.1342 10.9727 594 120.217 465.593 529.357
1366 0 58.2345 12.5699 732 118.182 466.22 527.257
1367 0 58.2517 12.3602 720 120.897 465.738 525.489
1368 0 60.1663 12.3657 744 118.776 466.461 523.964
1369 0 61.0724 12.4934 763 114.967 466.227 525.086
1370 0 62.1202 12.1217 753 118.053 465.32 525.017
1371 0 65.156 12.6312 823 115.208 464.983 524.218
1372 0 66.165 12.0003 794 116.654 465.744 523.168
1373 0 69.2011 12.7455 882 113.651 465.649 521.829
1374 0 72.1372 12.7535 920 112.396 465.335 519.543
1375 0 72.1225 12.2708 885 113.436 464.609 519.114
1376 0 75.0677 12.3355 926 112.173 464.671 517.333
1377 0 78.0734 12.706 992 105.475 465.208 516.076
1378 0 78.104 12.1377 948 110.801 464.547 515.489
1379 0 80.0547 12.6164 1010 107.129 464.357 515.845
1380 0 79.0362 12.8675 1017 114.934 464.921 513.218
1381 0 79.0688 11.9896 948 119.482 464.621 515.513
1382 0 81.0789 12.5803 1020 118.038 464.888 513.578
1383 0 82.1182 11.9949 985 117.64 464.599 513.535
1384 0 85.0894 12.0697 1027 113.597 464.325 512.448
1385 0 87.1421 11.8772 1035 110.689 463.755 509.835
1386 0 91.0683 12.1228 1104 106.077 463.873 508.412
1387 0 94.0699 11.9273 1122 103.532 463.897 507.014
1388 1 49.0266 10.7289 526 103.226 463.202 528.192
1389 0 50.0355 10.8723 544 100.954 463.206 526.961
1390 0 51.0124 11.1149 567 97.9683 463.312 525.164
1391 0 57.103 12.5037 714 93.119 463.681 528.877
1392 0 58.1859 12.0304 700 93.78 464.054 528.913
1393 0 61.2398 12.4429 762 91.5682 464.391 527.206
1394 0 61.178 12.0141 735 95.0857 464.031 525.615
1395 0 65.2083 12.3911 808 92.4852 464.205 525.972
1396 0 63.1896 11.8532 749 96.9025 464.318 523.475
1397 0 67.1958 12.1138 814 95.7174 463.574 522.803
1398 0 67.148 11.8842 798 97.906 463.563 520.91
1399 0 69.1856 12.4303 860 98.036 463.267 520.656
1400 0 71.2061 12.0355 857 98.846 463.988 516.981
1401 0 71.1741 11.7318 835 102.002 463.829 517.15
1402 0 73.1774 11.8206 865 103.745 463.887 516.688
1403 0 73.214 11.1864 819 107.057 464.059 515.509
1404 0 76.1173 12.5727 957 104.053 464.473 513.226
1405 0 75.083 11.747 882 109.307 464.627 511.776
1406 0 76.1886 10.9859 837 112.557 463.667 510.516
1407 0 78.1776 11.1541 872 112.735 464.065 511.033
1408 0 78.1013 11.1778 873 114.836 464.154 509.041
1409 0 79.1217 11.0336 873 116.709 464.31 508.809
1410 0 84.1362 10.6851 899 117.501 463.725 507.471
1411 0 87.2353 11.1308 971 115.564 463.583 505.764
1412 0 89.174 11.1243 992 116.936 463.333 501.415
1413 0 92.2724 10.8808 1004 118.163 464.073 501.984
1414 0 94.2067 11.2306 1058 116.655 464.247 502.991
1415 0 98.2323 11.4219 1122 114.907 464.459 502.049
1416 0 101.266 10.7045 1084 115.724 464.496 499.101
1417 0 102.221 10.8393 1108 114.474 464.709 499.406
1418 1 56.1445 9.95644 559 113.095 464.712 520.83
1419 0 59.129 10.2826 608 111.255 463.368 519.829
1420 0 62.1827 11.4823 714 111.66 466.403 518.699
1421 0 68.1903 11.4532 781 107.369 465.438 521.634
1422 0 70.1455 11.02 773 110.779 465.697 520.499
1423 0 73.1662 11.2484 823 107.563 465.83 519.763
1424 0 74.1932 10.9579 813 110.397 466.266 516.745
1425 0 79.3327 10.9665 870 109.487 466.324 516.4
1426 0 81.245 11.6438 946 106.114 465.729 515.966
1427 0 84.2072 10.8542 914 106.864 466.112 513.766
1428 0 87.2998 11.7182 1023 107.396 466.556 513.703
1429 0 91.1771 12.4483 1135 106.746 466.317 511.477
1430 0 92.3077 11.7217 1082 105.616 465.868 511.746
1431 0 95.2305 11.8659 1130 105.56 465.744 509.835
1432 0 98.3416 11.8566 1166 105.352 466.147 509.386
1433 0 102.368 12.3281 1262 102.697 465.315 506.317
1434 1 48.1183 10.8067 520 99.5481 467.138 533.215
1435 0 49.1546 10.8027 531 94.3861 466.017 531.635
1436 0 52.1426 12.3124 642 93.7134 465.445 530.469
1437 0 52.0938 12.1511 633 94.4992 465.561 530.093
1438 0 53.058 12.3073 653 94.9387 466.957 530.949
1439 0 57.0431 13.0077 742 91.3518 466.566 530.753
1440 0 57.071 12.8437 733 93.7367 466.521 529.261
1441 0 60.0687 13.0018 781 92.8796 466.014 527.434
1442 0 62.045 12.7972 794 92.5756 465.678 526.026
1443 0 62.057 12.7786 793 93.4578 465.385 525.528
1444 0 64.0707 12.3926 794 95.6587 466.014 525.134
1445 0 68.0876 12.2636 835 95.4216 465.469 522.989
1446 0 69.183 13.2547 917 93.614 465.847 522.031
1447 0 72.0844 12.5131 902 94.5421 465.425 520.461
1448 0 74.0429 12.8709 953 93.8269 466.108 518.208
1449 0 74.1019 12.9281 958 95.3351 465.124 517.888
1450 0 78.1079 12.79 999 95.9269 465.182 516.56
1451 0 79.0994 13.3124 1053 95.6933 465.381 514.777
1452 0 80.057 13.2905 1064 98.7171 464.745 514.275
1453 0 84.0915 13.3664 1124 100.399 465.486 512.905
1454 0 85.1286 13.1566 1120 105.141 465.437 512.225
1455 0 85.0944 13.6437 1161 108.265 465.642 512.321
1456 0 86.0448 13.7835 1186 109.814 464.841 512.158
1457 0 89.0499 13.4194 1195 112.32 465.014 510.992
1458 0 92.1278 13.9697 1287 112.164 465.686 509.132
1459 0 94.0777 13.4463 1265 116.545 465.489 508.515
1460 0 95.0728 13.1689 1252 118.975 464.965 509.176
1461 0 99.0706 13.6771 1355 117.333 465.756 507.085
1462 0 99.0902 13.4524 1333 119.369 465.269 505.715
1463 0 101.157 14.255 1442 118.11 465.155 506.196
1464 0 103.121 14.6429 1510 116.875 464.956 506.902
1465 0 102.177 14.837 1516 119.133 464.635 505.227
1466 0 103.086 14.842 1530 119.886 464.233 502.895
1467 0 107.135 15.6157 1673 117.456 463.851 503.103
1468 0 107.086 15.5763 1668 119.126 463.85 502.07
1469 0 106.096 15.5896 1654 120.826 464.32 502.354
1470 0 108.135 14.8426 1605 127.648 464.658 502.833
1471 0 108.117 15.8347 1712 126.195 465.046 502.773
1472 0 110.104 16.221 1786 126.775 464.478 501.753
1473 0 111.062 15.7119 1745 129.038 465.001 501.344
1474 0 111.12 15.9557 1773 132.041 464.256 500.188
1475 0 112.133 16.2129 1818 132.009 464.587 499.357
1476 0 112.134 16.4089 1840 133.843 464.341 498.567
1477 0 112.154 16.6021 1862 135.902 464.753 498.095
1478 0 114.093 16.3463 1865 138.379 463.981 498.248
1479 0 116.125 16.0259 1861 138.63 464.704 498.27
1480 0 116.103 16.3389 1897 138.473 464.289 497.267
1481 0 116.147 16.6427 1933 137.612 465.063 497.834
1482 0 116.049 15.907 1846 141.022 464.528 496.132
1483 0 118.055 16.9073 1996 136.427 464.917 496.828
1484 0 117.113 16.5395 1937 138.457 464.585 494.937
1485 0 119.048 16.6319 1980 137.486 465.036 495.578
1486 0 119.14 17.064 2033 135.462 464.579 495.732
1487 0 119.128 16.5956 1977 137.424 465.174 495.447
1488 0 118.084 16.7 1972 138.538 465.112 496.686
1489 0 119.06 16.5379 1969 137.965 465.185 497.087
1490 0 119.046 17.027 2027 136 464.769 496.142
1491 0 122.102 16.8957 2063 133.835 464.91 495.944
1492 0 122.059 16.5821 2024 134.695 465.518 495.967
1493 0 122.044 16.6334 2030 135.632 465.411 494.247
1494 0 123.054 17.2282 2120 132.756 465.651 494.53
1495 0 122.166 16.3629 1999 134.543 465.226 494.573
1496 0 124.138 16.9811 2108 131.403 465.108 494.313
1497 0 120.091 16.4625 1977 138.951 465.387 494.809
1498 0 115.069 16.1121 1854 146.257 465.31 495.565
1499 0 115.058 16.5048 1899 143.544 465.062 495.535
1500 0 116.058 16.1729 1877 141.043 465.053 494.971
1501 0 116.044 16.2524 1886 137.66 464.844 493.774
1502 0 117.093 16.6534 1950 134.716 465.341 494.598
1503 0 117.063 16.9481 1984 132.605 464.961 495.39
1504 0 116.101 16.546 1921 132.822 464.991 495.577
1505 0 119.037 16.5579 1971 130.595 464.565 495.377
1506 0 118.08 17.124 2022 126.407 464.544 497.047
1507 0 119.069 17.0573 2031 125.689 464.664 495.853
1508 0 119.056 16.6224 1979 125.007 464.653 495.736
1509 0 118.08 16.1501 1907 124.229 465.2 496.178
1510 0 120.123 17.1575 2061 119.775 465.021 496.309
1511 0 118.075 16.3371 1929 121.712 465.519 497.448
1512 0 117.085 16.3813 1918 122.453 465.214 496.98
1513 0 119.169 16.7409 1995 119.719 464.965 495.461
1514 0 118.076 15.6933 1853 101.527 464.813 494.962
1515 0 117.1 15.9352 1866 123.443 464.99 496.431
1516 0 114.091 15.7682 1799 125.267 465.49 498.8
1517 0 113.079 15.5731 1761 126.999 464.966 497.582
1518 0 112.062 16.366 1834 130.356 465.029 498.819
1519 0 113.078 16.0155 1811 123.379 464.819 498.466
1520 0 113.124 15.3991 1742 124.865 464.869 498.268
1521 0 115.083 15.8929 1829 120.7 465.657 499.876
1522 0 113.068 16.3265 1846 117.683 465.942 498.216
1523 0 116.078 16.1702 1877 114.785 465.178 498.694
1524 0 116.077 15.6103 1812 114.754 465.649 496.833
1525 0 114.057 15.7027 1791 112.317 465.637 498.463
1526 0 112.058 15.4473 1731 114.108 465.673 497.775
1527 0 113.033 15.1991 1718 113.964 465.707 497.378
1528 0 115.109 15.9588 1837 110.996 465.459 498.265
1529 0 114.059 15.2904 1744 112.807 464.74 498.499
1530 0 113.081 14.5913 1650 112.833 465.174 498.709
1531 0 112.067 15.2141 1705 113.307 465.421 498.456
1532 0 114.059 15.0185 1713 109.397 465.621 498.427
1533 0 114.116 15.3002 1746 107.501 465.7 498.468
1534 0 112.086 14.8546 1665 108.189 465.584 498.81
1535 0 113.067 15.3273 1733 105.523 466.191 499.851
1536 0 114.19 15.5617 1777 105.726 465.131 498.814
1537 0 114.112 15.2657 1742 104.951 465.727 497.489
1538 0 114.091 14.7952 1688 106.033 465.048 496.488
1539 0 113.089 15.3065 1731 105.844 465.307 497.746
1540 0 114.123 15.4219 1760 102.999 465.623 497.606
1541 0 113.13 14.7353 1667 104.542 465.392 497.907
1542 0 114.094 15.1191 1725 102.419 465.166 497.783
1543 0 113.082 15.5639 1760 101.052 465.227 497.117
1544 0 115.074 15.4596 1779 100.329 465.362 495.976
1545 0 117.106 16.105 1886 96.0758 465.841 496.115
1546 0 116.063 15.4571 1794 96.5563 465.552 497.527
1547 0 114.057 14.9048 1700 98.1624 465.361 496.353
1548 0 116.082 15.11 1754 97.955 465.742 495.509
1549 0 115.098 14.8916 1714 95.3582 465.583 497.876
1550 0 114.109 14.2145 1622 98.7034 466.162 498.649
1551 0 112.081 14.4895 1624 98.7438 466.2 499.562
1552 0 113.058 13.9663 1579 100.491 465.775 498.028
1553 0 113.078 14.8217 1676 97.3771 465.912 497.467
1554 0 112.069 13.6969 1535 95.4586 465.425 498.758
1555 0 111.066 13.3795 1486 96.8816 464.97 497.871
1556 0 112.093 13.6762 1533 96.6934 464.953 497.35
1557 0 112.057 13.636 1528 96.2958 464.382 499.328
1558 0 112.13 14.1532 1587 97.8607 464.973 500.011
1559 0 113.139 15.0965 1708 94.2962 464.636 499.535
1560 0 114.174 14.3114 1634 93.2834 465.149 499.483
1561 0 114.072 14.1927 1619 94.3447 464.557 500.542
1562 0 112.095 14.3985 1614 95.5867 465.234 499.417
1563 0 114.104 14.4429 1648 92.6729 465.201 498.103
1564 0 112.052 14.6807 1645 92.7131 464.708 499.204
1565 0 113.174 14.1287 1599 91.8555 465.059 496.472
1566 0 112.104 13.987 1568 92.3731 464.936 496.552
1567 0 113.052 15.0197 1698 88.907 464.972 497.565
1568 0 112.05 14.8684 1666 88.7245 465.194 497.022
1569 0 112.074 14.3477 1608 89.4316 465.59 495.092
1570 0 114.058 15.2904 1744 86.4381 464.774 497.145
1571 0 112.054 14.5376 1629 87.1037 464.462 496.599
1572 0 112.144 14.6508 1643 87.4127 464.757 497.984
1573 0 113.146 14.5122 1642 87.679 465.277 498.368
1574 0 114.067 14.6932 1676 84.8347 465.687 495.669
1575 0 112.074 14.7938 1658 85.9638 465.276 496.256
1576 0 111.088 14.5741 1619 85.8295 465.49 496.405
1577 0 111.118 14.3992 1600 87.2394 464.539 496.365
1578 0 112.072 14.2141 1593 88.0722 465.483 496.25
1579 0 109.101 14.2346 1553 87.7289 465.084 495.448
1580 0 110.064 13.6647 1504 88.24 464.201 496.37
1581 0 110.139 14.4273 1589 86.4695 464.476 495.693
1582 0 111.125 14.2003 1578 86.0292 464.532 495.263
1583 0 109.088 13.3654 1458 88.0919 465.489 493.552
1584 0 109.092 13.4381 1466 115.213 466.483 493.324
1585 0 109.105 13.3174 1453 86.6896 464.902 495.993
1586 0 107.107 13.2205 1416 87.4732 465.254 495.583
1587 0 107.169 13.2687 1422 85.8776 465.473 494.828
1588 0 106.087 12.9705 1376 86.5145 465.578 495.615
1589 0 103.082 12.9994 1340 86.8716 464.957 495.533
1590 0 103.087 12.9987 1340 101.351 464.957 495.533
1591 0 106.073 12.6894 1346 88.2697 464.844 494.837
1592 0 104.146 12.5881 1311 87.3585 465.215 496.363
