time division length width area intensity CMx CMy
1030 0 73.0853 12.9848 949 94.1517 167.166 467.78
1031 0 74.0931 12.7002 941 95.2317 167.243 465.818
1032 0 77.1927 12.9416 999 93.4434 167.356 464.597
1033 0 79.0776 12.9619 1025 93.6937 167.311 464.195
1034 0 82.0881 13.1444 1079 93.9778 166.755 463.299
1035 0 85.08 12.741 1084 104.173 166.499 460.506
1036 0 86.0712 12.4548 1072 104.591 166.464 460.492
1037 0 91.1127 13.0059 1185 100.907 166.732 458.972
1038 0 93.0884 12.1605 1132 102.444 166.731 456.954
1039 0 95.0531 11.6146 1104 103.646 166.646 457.001
1040 0 99.0982 12.0487 1194 100.429 165.947 454.424
1041 0 102.139 12.0522 1231 99.6141 166.228 460.582
1042 0 104.119 11.775 1226 103.321 166.505 452.372
1043 0 108.142 11.9102 1288 102.071 165.939 452.349
1044 0 114.139 12.2833 1402 100.563 166.267 450.155
1045 0 116.163 11.8282 1374 106.551 166.649 449.663
1046 0 120.117 11.364 1365 102.09 165.756 450.166
1047 0 122.235 12.0587 1474 108.311 166.685 452.145
1048 1 66.1863 12.1022 801 106.579 166.444 477.343
1049 0 68.0984 11.6009 790 108.311 166.406 474.294
1050 0 69.1594 12.5941 871 106.363 166.567 474.023
1051 0 72.1507 12.2244 882 108.16 166.935 471.855
1052 0 76.1434 12.7785 973 106.054 166.792 471.761
1053 0 77.125 12.2139 942 107.621 166.552 470.708
1054 0 80.1079 12.6704 1015 108.721 166.817 469.358
1055 0 83.1702 12.745 1060 110.389 167.746 467.748
1056 0 85.1292 12.8041 1090 112.548 167.695 466.362
1057 0 88.139 12.5484 1106 112.412 166.963 466.24
1058 0 90.1315 13.2251 1192 110.54 167.313 466.182
1059 0 94.093 13.1253 1235 110.811 166.886 464.326
1060 0 97.1114 13.191 1281 111.283 167.257 463.752
1061 0 98.1096 12.537 1230 114.191 167.23 462.683
1062 0 102.12 13.1707 1345 114.598 167.183 461.173
1063 0 105.092 12.7983 1345 114.761 166.909 458.84
1064 0 109.123 13.4619 1469 112.717 166.447 459.528
1065 0 111.114 13.0947 1455 114.83 166.486 456.406
1066 0 118.144 12.6964 1500 114.114 165.775 452.308
1067 1 59.0431 11.6864 690 109.028 165.807 478.428
1068 0 62.0723 12.0666 749 110.099 166.705 478.003
1069 0 63.0385 12.2306 771 106.765 166.217 478.636
1070 0 66.065 12.6693 837 103.429 166.539 478.263
1071 0 67.0561 13.183 884 102.225 166.022 476.515
1072 0 70.1095 12.8941 904 111.34 167.341 476.712
1073 0 73.0893 13.4903 986 107.905 166.662 476.379
1074 0 74.0743 12.8115 949 110.255 167.545 475.292
1075 0 77.1551 12.8183 989 110.185 167.078 473.847
1076 0 80.1368 12.6409 1013 109.424 166.67 474.728
1077 0 82.1402 13.3309 1095 107.646 166.506 473.724
1078 0 86.1513 13.0816 1127 108.079 166.955 471.523
1079 0 88.139 13.5354 1193 105.084 167.05 471.57
1080 0 90.1623 12.7659 1151 107.993 167.372 469.946
1081 0 92.125 13.0258 1200 107.223 166.893 468.395
1082 0 95.1969 13.4143 1277 105.546 167.76 466.608
1083 0 97.1021 13.2438 1286 106.754 166.999 467.359
1084 0 99.0829 13.3827 1326 107.469 167.388 463.882
1085 0 103.098 13.0167 1342 106.423 166.459 462.383
1086 0 105.079 12.4288 1306 107.46 166.423 462.038
1087 0 109.144 13.6333 1488 103.184 166.097 460.507
1088 0 110.151 12.9459 1426 105.694 166.79 460.873
1089 0 114.139 12.809 1462 118.018 166.375 459.3
1090 0 118.132 13.2479 1565 117.764 167.35 456.821
1091 1 61.077 10.9043 666 120.56 166.589 482.604
1092 0 64.0797 11.8758 761 118.94 166.666 481.761
1093 0 65.1755 12.5354 817 117.12 166.596 481.579
1094 0 69.1067 12.2998 850 101.254 166.401 479.119
1095 0 68.1635 12.1619 829 108.866 167.391 480.964
1096 0 70.227 11.1211 781 110.978 167.164 481.415
1097 0 70.0968 11.2559 789 111.298 166.926 480.096
1098 0 74.1653 11.9733 888 109.328 167.39 478.398
1099 0 76.1634 11.1865 852 110.79 169.122 481.029
1100 0 76.1634 11.2259 855 145.402 171.131 480.993
1101 0 82.1949 12.4947 1027 108.426 168.716 475.88
1102 0 84.2639 12.0811 1018 109.894 168.367 474.261
1103 0 89.2206 12.5083 1116 107.057 168.329 474.249
1104 0 91.2291 12.2329 1116 109.572 167.866 472.923
1105 0 93.4163 12.4496 1163 110.785 167.23 470.992
1106 0 97.3894 12.3217 1200 112.57 166.652 468.982
1107 0 100.377 13.4991 1355 110.129 166.56 467.303
1108 0 103.39 12.7962 1323 117.325 166.881 464.806
1109 0 110.302 13.0006 1434 121.431 167.038 461.315
1110 0 112.24 12.5623 1410 107.721 167.213 460.746
1111 0 112.24 12.6425 1419 154.617 167.218 460.633
1112 1 54.117 10.6991 579 101.551 168.584 489.914
1113 0 54.173 10.9464 593 103.649 168.562 487.673
1114 0 55.309 12.4573 689 105.884 168.01 489.607
1115 0 56.2953 12.5765 708 106.53 166.636 488.141
1116 0 57.1739 12.5232 716 108.096 167.471 487.511
1117 0 59.3323 12.7418 756 106.213 167.954 487.397
1118 0 60.4106 12.8454 776 104.843 167.545 491.446
1119 0 64.353 12.9132 831 106.093 167.497 486.333
1120 0 66.3714 12.7314 845 107.32 167.212 486.882
1121 0 67.4251 13.1108 884 105.399 166.861 486.245
1122 0 70.4175 12.4969 880 107.438 167.506 484.257
1123 0 71.3473 12.4462 888 107.546 167.107 482.864
1124 0 74.4644 12.7578 950 116.752 166.526 480.685
1125 0 78.3385 13.1864 1033 114.571 166.91 480.876
1126 0 79.3398 12.8435 1019 116.521 167.813 479.104
1127 0 82.3641 12.3598 1018 117.543 166.842 477.547
1128 0 84.4048 12.4756 1053 117.044 166.602 477.705
1129 1 43.2896 10.3489 448 116.621 166.94 497.272
1130 0 44.3338 10.5788 469 117.151 166.595 496.657
1131 0 44.2998 10.8127 479 117.225 167.294 495.597
1132 0 46.2819 12.0133 556 111.356 167.633 495
1133 0 48.32 11.8584 573 105.019 167.653 495.12
1134 0 48.31 11.6746 564 101.009 168.367 493.39
1135 0 51.1423 11.7124 599 100.172 168.452 493.713
1136 0 52.2857 12.3743 647 99.0572 168.005 493.96
1137 0 54.2831 11.8453 643 98.958 167.974 492.734
1138 0 54.2801 11.9749 650 98.5723 168.102 491.045
1139 0 56.246 12.2853 691 96.1737 168.221 491.012
1140 0 56.2395 12.0556 678 97.056 167.727 489.456
1141 0 56.291 11.2451 633 99.7599 167.779 493.57
1142 0 56.2463 11.0229 620 99.9564 168.182 493.452
1143 0 58.1637 12.0006 698 97.0387 168.128 491.635
1144 0 60.2625 11.3337 683 98.145 168.319 490.909
1145 0 61.1836 10.9997 673 98.9198 167.603 491.7
1146 0 64.2714 12.5406 806 98.0782 167.548 490.278
1147 0 65.2731 11.3983 744 100.505 166.319 489.241
1148 0 66.3485 11.6958 776 98.5812 166.062 488.758
1149 0 69.3018 11.1108 770 99.7753 166.21 486.819
1150 0 71.3687 11.2514 803 89.2391 166.585 484.352
1151 0 74.2832 12.0485 895 89.7441 166.049 480.962
1152 0 76.4522 11.9944 917 88.7917 165.867 482.976
1153 0 77.3701 11.4773 888 91.3908 165.468 481.398
1154 0 82.3077 11.785 970 90.732 166.301 481.353
1155 0 85.2907 11.7129 999 91.3654 166.208 478.559
1156 0 86.4168 11.19 967 93.3661 166.146 476.737
1157 0 88.3379 11.2862 997 91.1866 166.38 479.962
1158 1 48.3595 11.6833 565 90.0142 166.416 494.858
1159 0 48.3317 11.6073 561 141.198 165.392 494.761
1160 0 49.2097 9.91674 488 91.2418 165.564 484.039
1161 0 47.083 10.9381 515 85.635 165.318 490
1162 0 50.115 10.7353 538 88.039 165.18 490.714
1163 0 51.1561 10.8296 554 89.1462 164.984 488.72
1164 0 51.0527 10.3814 530 92.4245 166.536 488.06
1165 0 50.0743 10.7241 537 94.6425 166.117 485.858
1166 0 54.0842 10.9089 590 93.0492 166.441 486.966
1167 0 57.0891 11.193 639 91.5243 166.623 485.577
1168 0 58.0657 10.712 622 93.9775 166.569 485.169
1169 0 61.0394 11.255 687 93.0233 166.608 483.204
1170 0 61.1091 10.9149 667 94.985 166.798 482.016
1171 0 65.1776 11.4456 746 95.9853 166.28 482.882
1172 0 67.0936 11.6255 780 95.6256 166.368 482.055
1173 0 69.1501 11.8293 818 95.7286 165.474 481.273
1174 0 69.1262 11.5875 801 98.9501 165.236 479.541
1175 0 74.1974 12.1837 904 97.448 164.719 478.335
1176 0 75.1296 11.5401 867 101.453 164.972 476.065
1177 0 78.1624 11.6552 911 101.333 164.864 475.955
1178 0 81.1742 12.1344 985 101.963 165.305 473.581
1179 0 83.1578 12.2177 1016 103.637 164.529 472.269
1180 0 86.1241 12.4471 1072 104.593 164.971 471.974
1181 0 90.1055 12.2301 1102 109.172 165.24 475.309
1182 0 90.1653 12.2553 1105 109.537 165.881 474.668
1183 0 94.1183 11.783 1109 110.833 165.546 472.317
1184 0 98.1029 11.9874 1176 109.479 165.461 470.135
1185 0 101.165 11.674 1181 111.301 165.936 470.456
1186 0 105.138 11.8606 1247 112.352 165.889 468.624
1187 0 107.209 12.4803 1338 110.633 166.282 467.113
1188 1 56.1512 10.2936 578 99.6868 165.071 490.021
1189 0 60.0748 10.2039 613 107.122 167.168 489.666
1190 0 62.1287 11.1543 693 99.4502 165.322 489.75
1191 0 62.1082 10.5783 657 93.7215 165.654 485.138
1192 0 64.1335 10.6808 685 103.742 165.464 484.134
1193 0 66.1557 11.2764 746 102.93 165.064 484.429
1194 0 67.2242 11.3352 762 105.429 165.117 482.227
1195 0 69.2452 11.1055 769 107.023 164.606 482.31
1196 0 72.1429 10.7703 777 109.139 165.894 480.309
1197 0 72.1108 11.0524 797 110.954 165.944 479.056
1198 0 76.1336 11.3879 867 115.097 166.174 479.856
1199 0 79.134 11.9797 948 114.943 165.828 480.879
1200 0 79.1721 11.8097 935 116.203 165.041 477.398
1201 0 82.259 12.0108 988 117.385 165.223 477.266
1202 0 84.1026 12.128 1020 114.856 165.767 473.563
1203 0 85.0483 11.5229 980 118.218 166.211 472.224
1204 0 88.1556 11.82 1042 117.027 165.699 471.255
1205 0 91.1167 11.9737 1091 117.958 165.438 471.614
1206 0 93.1175 11.8989 1108 118.746 165.252 469.176
1207 0 96.136 12.1287 1166 119.916 166.087 468.323
1208 0 97.1494 12.383 1203 119.485 165.402 467.074
1209 0 99.2469 12.2926 1220 118.623 165.794 468.048
1210 0 104.13 11.7449 1223 120.845 165.86 465.915
1211 0 107.181 12.1104 1298 120.172 164.787 462.317
1212 0 111.252 12.5751 1399 117.089 164.936 459.751
1213 0 116.256 12.7047 1477 115.265 165.418 457.043
1214 0 117.338 12.2296 1435 118.257 166.095 453.185
1215 0 123.24 12.8855 1588 115.802 165.877 452.281
1216 0 126.243 12.9988 1641 117.129 165.548 449.913
1217 0 130.338 13.0046 1695 116.967 165.687 450.066
1218 0 134.303 13.1643 1768 116.371 165.55 448.335
1219 0 137.268 12.8945 1770 117.479 165.678 446.806
1220 0 142.418 13.7413 1957 118.493 165.354 442.519
1221 0 146.24 13.5873 1987 116.198 164.822 438.216
1222 0 151.203 14.0142 2119 115.439 165.928 438.483
1223 0 156.239 13.7674 2151 113.638 165.673 437.465
1224 0 164.245 15.0141 2466 107.868 165.255 429.577
1225 0 167.376 13.7953 2309 112.162 165.714 429.948
1226 0 178.221 16.7489 2985 99.3216 165 420.805
1227 1 101.227 11.3014 1144 100.786 165.836 467.147
1228 0 103.256 11.1277 1149 100.491 165.314 465.257
1229 0 108.173 12.0824 1307 99.9059 164.812 462.462
1230 0 109.146 11.7732 1285 101.044 164.542 458.593
1231 0 112.174 11.4287 1282 101.399 165.509 458.583
1232 0 115.219 11.5172 1327 101.946 164.604 455.483
1233 0 120.209 12.2371 1471 99.7192 164.771 454.677
1234 0 123.229 11.4665 1413 102.398 164.507 451.136
1235 0 127.217 11.9796 1524 101.028 165.14 450.606
1236 1 65.0858 10.5246 685 92.8642 165.269 481.977
1237 0 67.0938 10.5375 707 93.3805 165.146 481.286
1238 0 71.044 11.1902 795 93.4868 165.352 479.486
1239 0 75.0126 11.958 897 100.673 164.69 478.177
1240 0 73.0795 10.5365 770 96.9753 165.199 480.088
1241 0 72.2003 10.5263 760 101.737 165.766 486.284
1242 0 77.1121 10.5172 811 99.4883 165.219 479.814
1243 0 79.1046 10.5556 835 99.5066 164.863 479.072
1244 0 81.1058 10.7391 871 101.972 165.347 477.011
1245 0 84.0827 10.787 907 99.8015 165.709 475.999
1246 0 87.062 11.0266 960 100.415 166.061 475.985
1247 0 88.126 10.9502 965 100.577 165.359 472.942
1248 0 94.1886 11.4664 1080 99.8935 165.924 471.976
1249 0 94.3121 10.847 1023 102.487 164.52 471.448
1250 0 97.1688 10.9706 1066 104.205 165.623 469.563
1251 0 101.146 11.1917 1132 105.593 165.537 467.27
1252 1 56.0306 10.6549 597 103.489 165.003 491.757
1253 0 57.014 10.7517 613 106.29 165.183 492.008
1254 0 58.0575 11.1269 646 106.06 165.358 486.163
1255 0 60.1011 11.9299 717 104.969 165.402 487.625
1256 0 57.1213 9.5236 544 103.353 166.59 492.232
1257 0 59.1524 10.4307 617 102.58 167.237 492.005
1258 0 61.0798 9.75773 596 105.693 166.49 490.317
1259 0 63.1781 10.9057 689 101.801 165.933 487.84
1260 0 63.166 10.2587 648 104.951 166.185 487.431
1261 0 67.1779 10.7178 720 105.008 165.833 486.45
1262 0 68.0682 10.9155 743 104.445 165.556 485.804
1263 0 68.0933 10.1332 690 108.074 165.623 486.894
1264 0 71.1513 11.0469 786 105.399 166.246 484.59
1265 0 75.1364 11.539 867 104.614 165.627 480.195
1266 0 78.144 11.338 886 105.362 165.753 481.068
1267 0 79.1632 11.3689 900 107.386 166.368 478.748
1268 0 80.176 10.8012 866 109.93 166.021 479.092
1269 0 84.2099 11.8395 997 109.049 166.38 475.959
1270 0 85.1568 11.8487 1009 110.282 165.472 478.12
1271 0 88.2039 11.6208 1025 110.045 166.127 476.008
1272 0 90.2732 11.1772 1009 111.716 166.342 473.148
1273 0 94.2022 12.3033 1159 109.863 166.223 470.798
1274 0 97.2453 11.8977 1157 109.902 166.092 469.764
1275 0 100.407 12.6386 1269 107.515 166.121 467.876
1276 0 103.198 12.384 1278 107.761 166.133 467.837
1277 0 106.237 12.5851 1337 106.348 166.057 466.396
1278 0 108.313 13.2579 1436 103.722 166.584 463.49
1279 0 113.303 13.3713 1515 102.519 166.036 461.425
1280 0 116.397 13.3595 1555 102.268 167.005 461.071
1281 0 119.389 13.6947 1635 111.9 166.311 458.664
1282 0 123.226 13.4874 1662 111.772 165.872 456.597
1283 0 124.246 12.9904 1614 114.006 165.895 455.1
1284 0 129.211 13.4973 1744 112.347 165.526 452.423
1285 0 132.203 12.9876 1717 112.67 165.846 451.451
1286 0 136.157 12.6692 1725 111.806 165.741 448.751
1287 0 140.231 13.2424 1857 110.876 165.931 447.666
1288 0 144.215 13.5422 1953 111.07 165.849 444.282
1289 0 149.231 13.9448 2081 110.817 166.602 440.772
1290 0 154.207 13.5272 2086 111.502 166.671 440.454
1291 0 158.2 13.78 2180 111.279 166.468 437.43
1292 0 163.2 14.2954 2333 108.785 166.674 433.17
1293 0 163.196 14.2405 2324 165.484 165.678 433.19
1294 0 170.247 13.686 2330 110.183 166.797 429.06
1295 0 177.3 13.9763 2478 108.918 166.391 423.082
1296 0 181.309 13.8989 2520 108.534 166.563 422.336
1297 0 188.239 13.8175 2601 108.703 165.509 417.227
1298 0 193.235 13.7967 2666 106.85 165.146 415.241
1299 0 199.188 14.5691 2902 104.053 165.557 411.015
1300 0 204.236 13.9594 2851 104.911 166.015 408.648
1301 0 209.234 13.6211 2850 104.58 165.724 407.859
1302 0 217.246 13.533 2940 105.095 166.136 402.001
1303 1 133.129 11.6278 1548 97.936 166.257 447.866
1304 0 136.321 11.0621 1508 99.0869 165.858 445.741
1305 0 139.31 11.7938 1643 97.7937 166.197 443.399
1306 0 147.288 13.8233 2036 106.3 165.928 442.114
1307 0 150.445 13.1011 1971 108.552 166.252 441.196
1308 0 154.379 12.9746 2003 108.933 166.077 438.499
1309 0 159.464 12.7991 2041 108.035 166.3 437.172
1310 0 164.483 13.2354 2177 107.587 166.177 434.951
1311 0 170.469 13.1871 2248 105.075 165.911 433.469
1312 1 78.3803 10.8828 853 102.297 165.883 482.06
1313 0 78.24 11.0046 861 101.367 165.649 473.316
1314 0 82.0546 12.2357 1004 96.7301 165.195 471.402
1315 0 85.4305 11.8225 1010 91.4158 166.568 476.88
1316 0 86.1973 11.056 953 93.0367 167.792 478.557
1317 0 89.1829 10.5289 939 93.4228 167.897 476.628
1318 0 89.1657 10.1833 908 92.87 168.137 476.342
1319 0 92.1826 9.51373 877 93.0821 167.438 477.121
1320 0 97.1878 9.99097 971 93.3852 167.179 474.464
1321 0 100.284 10.4304 1046 94.0736 166.758 473.294
1322 0 103.216 10.5701 1091 93.7525 166.439 470.244
1323 0 106.237 9.94009 1056 94.9337 166.449 469.329
1324 0 111.309 11.2749 1255 93.6175 166.211 466.111
1325 0 113.199 10.6626 1207 93.7746 167.312 464.897
1326 1 61.2501 11.102 680 88.325 168.987 491.729
1327 0 63.2795 10.9988 696 87.6351 167.381 491.111
1328 0 66.216 11.4776 760 86.796 169.488 490.176
1329 0 65.1747 10.7864 703 91.6927 167.89 488.122
1330 0 65.2246 9.9349 648 94.3133 167.559 492.395
1331 0 66.1589 10.2178 676 93.7589 167.607 492.034
1332 0 68.2192 10.0851 688 93.2849 166.968 490.355
1333 0 71.2331 10.4586 745 91.4322 167.521 488.016
1334 0 73.1507 10.909 798 90.1366 167.47 485.871
1335 0 75.1949 11.5566 869 88.3326 167.659 485.191
1336 0 79.218 11.1591 884 88.9672 166.214 484.337
1337 0 80.3379 10.7172 861 89.1916 166.825 484.163
1338 0 84.4035 11.6227 981 87.7329 166.735 483.151
1339 0 85.2974 11.4423 976 88.6014 166.684 481.99
1340 0 87.2499 10.7049 934 90.8972 166.465 480.908
1341 0 92.2178 10.9957 1014 90.2475 166.711 476.566
1342 1 51.1332 10.9909 562 88.0712 168.431 498.628
1343 0 51.0521 10.264 524 94.4179 168.353 495.964
1344 0 52.1284 11.6635 608 89.9638 168.013 496.735
1345 0 51.3335 11.3766 584 94.7706 166.449 497.747
1346 0 54.3634 10.5034 571 97.1103 166.292 492.559
1347 0 56.3364 10.8633 612 96.7663 165.492 491.005
1348 0 59.3831 11.0132 654 95.8731 165.838 490.453
1349 0 59.3198 11.5476 685 93.5314 165.46 491.874
1350 0 62.2937 11.6224 724 94.1326 165.707 490.247
1351 0 62.3403 11.2447 701 94.0499 165.872 490.391
1352 0 62.2931 10.868 677 96.3619 165.323 488.338
1353 0 66.2394 11.3528 752 93.9362 165.428 487.461
1354 0 66.2267 11.9287 790 92.6519 165.309 486.137
1355 0 70.2671 11.6413 818 92.2127 165.593 486.22
1356 0 71.2343 11.6377 829 91.5718 165.56 485.881
1357 0 70.2474 11.5307 810 92.884 166.28 485.494
1358 0 73.2109 11.3098 828 92.6172 165.967 485.236
1359 0 75.2988 11.7797 887 91.4476 165.648 483.063
1360 0 77.2512 11.1843 864 92.5359 165.663 483.501
1361 0 76.2529 11.2783 860 163.688 165.655 483.415
1362 0 81.2029 11.3543 922 93.0087 165.918 479.009
1363 0 82.2193 11.2991 929 93.648 165.84 479.122
1364 0 86.1752 11.8944 1025 92.7132 166.072 478.561
1365 0 85.2681 11.3055 964 95.3714 165.611 477.725
1366 0 88.2506 10.8668 959 98.7831 166.107 475.051
1367 0 93.2619 11.7733 1098 96.2586 165.178 473.89
1368 0 94.1744 11.7017 1102 96.2178 166.415 472.885
1369 0 97.1921 11.4207 1110 97.1685 166.102 472.991
1370 0 100.277 11.7574 1179 97.4054 166.358 469.261
1371 0 100.277 11.7175 1175 161.713 166.372 469.421
1372 0 107.218 11.416 1224 97.991 166.697 469.906
1373 0 110.25 12.0907 1333 97.5926 166.676 467.569
1374 0 112.22 12.7517 1431 96.529 166.273 464.472
1375 0 113.219 11.6677 1321 98.1188 165.702 464.329
1376 0 117.305 11.7983 1384 98.5426 165.602 462.227
1377 0 122.277 12.8642 1573 89.7635 165.615 459.595
1378 0 121.216 12.2839 1489 94.7844 164.921 457.116
1379 0 123.27 12.9228 1593 91.189 164.841 458.285
1380 0 123.231 12.505 1541 98.7735 165.404 458.178
1381 0 124.308 12.6541 1573 101.376 165.116 458.994
1382 0 126.32 12.5713 1588 101.784 165.397 456.353
1383 0 130.27 12.4357 1620 100.591 165.102 454.785
1384 0 135.217 13.0753 1768 95.9135 164.832 454.77
1385 0 136.294 12.6858 1729 95.5946 164.355 452.311
1386 0 143.302 12.512 1793 93.2197 164.599 451.539
1387 0 143.345 12.5711 1802 93.3418 164.638 450.335
1388 0 149.3 12.7394 1902 92.1961 164.381 448.092
1389 0 152.259 13.4376 2046 89.4516 164.325 446.901
1390 0 155.297 13.2198 2053 90.1003 164.249 445.19
1391 0 161.254 13.4694 2172 88.9429 164.072 443.077
1392 0 164.38 13.2742 2182 89.6925 164.39 439.489
1393 0 168.388 13.2551 2232 90.4861 164.68 436.059
1394 0 173.34 12.4957 2166 93.1436 164.285 435.407
1395 0 177.458 12.8256 2276 93.5422 164.296 432.336
1396 0 184.379 13.1739 2429 94.506 164.188 429.123
1397 0 187.497 12.6402 2370 97.2274 163.478 425.945
1398 0 193.734 12.414 2405 98.6112 163.58 426.031
1399 0 200.638 12.849 2578 99.0225 163.235 422.939
1400 0 205.576 12.9879 2670 99.8022 164.006 418.351
1401 0 205.545 12.9802 2668 158.528 164 418.478
1402 1 60.2852 8.84131 533 99.3696 164.812 492.555
1403 0 57.3486 10.1136 580 100.752 164.631 487.35
1404 0 56.1834 9.2376 519 94.5125 166.087 490.489
1405 0 56.1921 9.52092 535 94.6841 166.462 492.062
1406 0 59.2131 10.116 599 94.0401 165.472 491.918
1407 0 62.1624 9.87735 614 95.1254 166.059 492.14
1408 0 62.1599 9.44338 587 98.0988 166.218 491.211
1409 0 65.1207 10.6725 695 96.4892 166.283 487.845
1410 0 66.1774 9.89765 655 98.8916 165.736 489.169
1411 0 69.2176 10.3586 717 98.3626 165.407 485.831
1412 0 68.1695 10.2979 702 100.759 165.151 485.318
1413 0 71.1595 11.0597 787 100.769 165.863 484.54
1414 0 72.1994 9.91698 716 103.563 166.155 484.92
1415 0 73.1832 10.5352 771 101.495 166.31 485.167
1416 0 76.2148 10.103 770 103.687 166.051 482.439
1417 0 79.236 10.4498 828 101.999 166.612 483.95
1418 0 82.2813 10.6707 878 101.128 166.999 481.587
1419 0 81.1974 9.49537 771 103.691 165.524 480.556
1420 0 87.1753 9.68164 844 101.259 166.315 478.646
1421 0 90.2224 10.7623 971 101.848 165.573 474.362
1422 0 100.284 14.5786 1462 99.7804 164.974 467.899
1423 0 94.1758 10.5972 998 107.262 165.844 471.135
1424 1 49.1038 9.57156 470 104.64 167.564 493.543
1425 0 52.1495 10.7192 559 104.004 167.445 489.869
1426 0 53.1359 10.4261 554 103.875 167.027 491.303
1427 0 51.2005 9.82412 503 96.4652 166.781 493.628
1428 0 50.2239 10.1943 512 96.5508 167.137 495.219
1429 0 52.2481 9.81854 513 96.7875 167.119 495.041
1430 0 55.061 10.3885 572 94.8234 167.795 490.397
1431 0 58.1258 10.8041 628 93.3503 167.669 488.949
1432 0 59.072 10.2925 608 94.0888 167.924 487.217
1433 0 57.1438 9.27485 530 96.0604 166.762 489.617
1434 0 63.1528 11.0209 696 89.3779 167.599 488.043
1435 0 62.1591 10.2801 639 93.4617 167.757 488.49
1436 0 64.1383 9.72897 624 93.6715 167.409 488.43
1437 0 65.0804 10.172 662 92.793 167.576 486.415
1438 0 66.1364 9.91889 656 93.0427 167.52 484.346
1439 0 68.1925 10.4997 716 91.4749 167.109 484.943
1440 0 70.1213 10.5674 741 92.1876 167.282 482.885
1441 0 73.1956 10.7657 788 90.9734 166.505 482.439
1442 0 73.1949 10.3423 757 92.4056 166.168 479.53
1443 0 73.1949 10.3286 756 123.209 166.184 479.429
1444 0 77.1406 10.4614 807 93.9256 166.643 478.274
1445 0 81.164 10.8176 878 93.0456 166.273 477.526
1446 0 84.1293 10.8761 915 92.9967 166.709 477.162
1447 0 85.1199 11.6776 994 93.1569 166.127 475.08
1448 0 88.1244 11.393 1004 93.8018 166.838 473.771
1449 0 88.1498 11.1515 983 95.469 165.888 472.709
1450 0 92.145 11.3842 1049 94.8532 165.925 472.83
1451 0 95.1528 11.5498 1099 95.1793 166.246 469.77
1452 0 97.1913 11.2664 1095 96.8393 165.687 467.3
1453 0 100.205 11.5564 1158 98.6934 166.297 468.396
1454 0 102.179 12.2334 1250 99.5488 166.238 466.318
1455 0 105.163 11.487 1208 101.891 166.402 466.292
1456 0 108.224 11.929 1291 101.338 165.602 463.404
1457 0 113.172 12.3883 1402 99.826 166.077 462.927
1458 0 114.256 12.3407 1410 100.684 166.567 460.757
1459 0 121.205 12.0044 1455 94.9581 166.456 458.543
1460 1 67.1452 10.9762 737 96.5834 166.795 484.586
1461 0 69.1621 12.1309 839 94.857 167.474 483.22
1462 0 72.1712 12.6643 914 93.9311 167.057 482.254
1463 0 73.0957 12.3537 903 96.3278 167.115 481.07
1464 0 76.1022 12.3255 938 97.3252 166.684 478.919
1465 0 77.072 12.4559 960 96.6812 166.519 478.216
1466 0 79.0847 12.9608 1025 97.4985 165.75 475.189
1467 0 81.0745 13.1237 1064 96.4276 165.211 474.376
1468 0 85.0965 12.8442 1093 96.226 165.577 473.341
1469 0 87.1959 13.1772 1149 93.3951 165.614 471.05
1470 0 89.0727 12.6526 1127 111.599 166.492 471.348
1471 0 92.1038 12.5185 1153 111.347 166.888 469.338
1472 0 95.0654 12.6439 1202 111.166 166.285 469.077
1473 0 97.1274 13.0035 1263 110.423 166.625 466.363
1474 0 99.1138 13.1667 1305 110.224 165.76 468.785
1475 0 103.158 12.7669 1317 109.514 165.787 464.014
1476 0 106.131 12.7767 1356 108.919 165.408 462.155
1477 0 108.147 13.1118 1418 109.605 165.925 460.243
1478 0 110.166 12.9078 1422 110.008 165.065 458.177
1479 0 112.094 12.775 1432 105.85 165.741 460.971
1480 0 114.12 12.2941 1403 107.072 165.285 458.599
1481 1 51.1777 10.786 552 99.0616 166.623 490.821
1482 0 53.2261 11.2539 599 95.5576 165.693 488.937
1483 0 52.1942 11.7829 615 89.3382 166.156 488.61
1484 0 57.3414 11.6321 667 95.1619 165.517 488.852
1485 0 58.277 11.3939 664 97.2937 165.831 487.161
1486 0 57.2008 11.7131 670 97.9881 165.243 486.343
1487 0 59.2572 11.7117 694 97.6873 165.833 486.39
1488 0 61.24 11.953 732 98.6448 165.783 486.754
1489 0 64.2033 12.3514 793 97.0303 165.75 486.005
1490 0 64.2648 12.184 783 98.3231 165.206 484.014
1491 0 66.3253 11.6698 774 99.0233 165.247 483.178
1492 0 69.3347 12.519 868 95.7477 165.901 482.331
1493 0 68.2778 12.1269 828 98.8406 165.575 480.785
1494 0 71.3641 11.9388 852 99.6103 165.912 480.154
1495 0 71.2909 12.3298 879 99.1456 165.437 479.876
1496 0 73.3162 12.0983 887 100.16 165.333 479.34
1497 0 75.2424 12.174 916 100.348 165.743 478.317
1498 0 78.2493 12.6135 987 99.077 165.813 477.609
1499 0 79.2538 11.9868 950 102.484 165.563 475.421
1500 0 80.2257 12.5396 1006 101.239 165.332 473.572
1501 0 83.2831 12.4995 1041 101.452 165.123 472.038
1502 0 85.2304 11.6156 990 102.729 165.793 470.057
1503 0 88.2102 11.0645 976 103.791 165.339 468.343
1504 0 91.1741 11.4835 1047 101.863 165.224 467.751
1505 0 94.246 11.4594 1080 101 164.752 466.954
1506 1 53.1748 10.2304 544 95.5018 166.05 488.009
1507 0 55.1291 10.4482 576 94.1319 166.408 487.495
1508 0 55.1307 11.2097 618 92.4207 166.047 486.147
1509 0 55.1932 10.8166 597 92.7588 166.387 485.766
1510 0 57.0794 10.9497 625 87.6816 166.835 484.811
1511 0 59.124 11.1292 658 86.7766 167.348 485.713
1512 0 60.0968 11.2984 679 88.3682 167.012 481.938
1513 0 62.1067 10.3048 640 90.5406 166.742 482.43
1514 0 63.1341 10.5015 663 89.371 166.537 481.644
1515 0 66.1317 10.3884 687 89.8894 166.674 480.313
1516 0 67.1262 10.6069 712 89.9157 167.117 479.558
1517 0 70.1433 11.1344 781 89.3047 166.657 477.777
1518 0 71.1001 10.9845 781 94.0487 166.465 475.484
1519 0 73.09 10.836 792 87.5417 166.452 477.231
1520 0 74.1373 10.5615 783 89.5428 166.382 477.465
1521 0 77.1168 10.5424 813 88.7196 167.086 478.223
1522 0 78.1009 10.2047 797 91.4567 166.94 474.66
1523 0 84.1859 10.5006 884 89.991 165.888 473.096
1524 1 43.1945 10.1402 438 89.9612 166.548 492.534
1525 0 40.1067 9.64926 387 91.4806 167.253 494.837
1526 0 41.0903 10.124 416 92.012 167.171 493.296
1527 0 41.0683 9.47202 389 93.892 167.208 494.447
1528 0 42.0946 9.73996 410 95.7854 167.061 493.641
1529 0 44.105 10.0442 443 96.3454 166.269 494.28
1530 0 44.1051 10.1122 446 96.9372 166.668 494.016
1531 0 45.0826 10.514 474 99.0633 166.669 492.857
1532 0 48.1462 10.4473 503 97.8847 167.008 493.692
1533 0 48.0626 10.9649 527 97.8653 167.059 491.793
1534 0 49.1301 10.2992 506 99.1996 167.028 491.939
1535 0 51.2038 11.6593 597 97.0419 167.616 491.563
1536 0 53.0504 11.5174 611 98.9787 166.502 489.83
1537 0 54.1223 12.2316 662 98.145 167.145 489.113
1538 0 57.0624 12.2147 697 98.1062 166.471 488.442
1539 0 56.1135 12.1005 679 100.501 166.577 487.767
1540 0 59.0958 12.1667 719 100.018 166.826 486.345
1541 0 59.1225 11.4677 678 102.311 166.485 486.59
1542 0 62.1012 12.1898 757 100.279 166.312 485.663
1543 0 62.1185 12.3152 765 101.196 166.264 484.294
1544 0 66.1632 13.1795 872 98.3796 166.359 484.646
1545 0 66.1095 12.7818 845 100.775 166.699 484.574
1546 0 68.1669 12.8948 879 101.403 166.305 482.249
1547 0 70.2117 12.562 882 103.144 166.096 481.932
1548 0 71.1982 12.8795 917 103.068 166.454 481.87
1549 0 73.1991 13.0056 952 102.494 166.292 482.166
1550 0 76.1903 13.8732 1057 104.081 166.789 479.554
1551 0 77.2273 13.4926 1042 106.53 166.732 479.399
1552 0 78.223 13.3592 1045 108.349 166.204 477.771
1553 0 81.2209 13.2109 1073 107.883 166.474 476.429
1554 0 86.2414 13.2535 1143 106.378 166.052 475.621
1555 0 86.1203 13.7366 1183 106.979 165.569 473.877
1556 0 92.1755 13.6804 1261 106.408 165.477 473.028
1557 0 94.1873 13.866 1306 104.086 165.154 475.234
1558 0 97.213 13.7122 1333 108.561 165.524 469.778
1559 0 101.314 14.7659 1496 103.907 165.005 467.199
1560 1 56.1408 11.774 661 104.421 166.126 489.517
1561 0 57.1736 12.4183 710 102.03 165.461 489.187
1562 0 60.1004 13.3776 804 108.596 166.626 488.397
1563 0 61.1108 12.8619 786 109.378 166.581 486.42
1564 0 63.1147 12.5961 795 109.61 166.049 487.297
1565 0 64.1539 11.9089 764 98.445 166.047 486.665
1566 0 65.2091 12.4062 809 97.1891 165.947 485.965
1567 0 67.1481 12.0182 807 97.5998 166.017 483.81
1568 0 69.1608 11.8131 817 98.6365 166.146 482.554
1569 0 72.2676 12.0386 870 97.1184 166.754 480.988
1570 0 74.1004 12.0647 894 96.3512 165.826 480.555
1571 0 76.0874 12.1045 921 96.3116 165.515 478.317
1572 0 80.1419 12.1534 974 95.7813 165.816 478.352
1573 0 80.1908 11.6223 932 98.2811 166.162 477.635
1574 0 84.1573 12.037 1013 96.849 166.579 476.57
1575 0 87.1552 11.8409 1032 96.1715 166.095 475.111
1576 0 91.142 12.2007 1112 94.5153 166.344 472.429
1577 0 95.1487 11.8131 1124 95.806 165.421 469.903
1578 1 48.1284 10.7006 515 94.235 167.111 493.272
1579 0 49.0433 10.9699 538 93.7045 166.667 490.626
1580 0 49.149 11.3125 556 93.0719 165.732 489.941
1581 0 52.1279 11.9897 625 88.592 165.618 489.747
1582 0 52.1008 11.7848 614 89.4577 165.603 489.093
1583 0 55.1614 11.4392 631 89.3043 166.407 490.437
1584 0 55.1614 11.4029 629 130.873 167.413 490.369
1585 0 55.0897 11.8353 652 90.0583 165.9 489.745
1586 0 57.1415 11.3053 646 90.8452 166.149 486.125
1587 0 58.0973 11.7906 685 89.9737 166.374 485.965
1588 0 59.1322 10.671 631 89.496 166.501 488.006
1589 0 60.0854 11.3006 679 89.3947 165.764 485.093
1590 0 60.0898 11.2665 677 133.564 164.784 485.133
1591 0 62.1022 11.0302 685 90.8847 165.396 485.219
1592 0 65.1292 10.7172 698 90.4126 165.532 484.288
1593 0 68.1351 10.5819 721 89.5742 164.993 482.028
1594 0 68.1427 11.2264 765 88.5451 165.511 481.693
1595 0 70.3027 11.3225 796 88.4234 165.106 480.044
1596 0 73.1985 10.6696 781 88.1396 165.303 477.642
1597 0 75.2601 10.7494 809 88.1496 165.079 476.036
1598 0 78.2918 11.2911 884 85.509 164.912 474.785
1599 0 81.1921 11.2573 914 85.3643 164.876 472.1
1600 0 83.2347 11.1972 932 85.8809 164.486 470.835
1601 0 84.1525 10.6711 898 86.8764 165.109 470.148
1602 0 88.1631 10.957 966 88.1739 164.475 467.941
1603 0 90.2161 11.6831 1054 87.8681 165.322 467.299
1604 0 89.2046 11.255 1004 123.283 165.241 465.874
1605 0 98.2629 11.7542 1155 90.2545 165.738 464.622
1606 0 100.226 11.6337 1166 89.6887 165.245 463.124
1607 0 103.275 11.91 1230 88.8236 165.686 462.513
1608 0 106.217 11.7119 1244 89.3199 165.71 459.826
1609 1 55.2568 11.0213 609 86.4417 164.851 483.304
1610 0 54.1173 10.9946 595 80.358 165.341 483.282
1611 0 56.1156 11.405 640 81.2734 164.766 480.681
1612 0 58.0311 11.1836 649 80.6148 165.84 480.951
1613 0 60.1455 10.8237 651 80.957 165.244 480.009
1614 0 64.1326 11.5698 742 77.8666 165.128 477.64
1615 0 66.2027 11.6158 769 78.9155 164.646 474.834
1616 0 64.1658 9.84948 632 83.5791 163.953 477.247
1617 0 64.1025 10.6704 684 85.0102 166.02 475.311
1618 0 66.1368 10.8109 715 86.1972 165.236 473.655
1619 0 70.0646 11.0041 771 88.0363 165.432 471.971
1620 0 71.1015 11.3781 809 87.7108 165.335 475.321
1621 0 75.0951 11.3723 854 88.5656 164.693 475.918
1622 0 78.119 11.9305 932 88.4453 165.204 474.84
1623 0 80.135 11.3808 912 91.9528 165.534 473.341
1624 0 82.091 11.7065 961 93.2581 165.467 469.106
1625 0 84.1234 12.0062 1010 93.6366 166.142 468.568
1626 0 89.1284 11.8817 1059 94.3229 165.936 469.359
1627 0 87.0828 12.1953 1062 96.9218 166.137 467.304
1628 0 95.1523 13.0002 1237 93.4066 164.445 466.656
1629 0 96.098 12.3103 1183 96.5216 165.087 465.203
1630 0 99.1232 12.429 1232 97.4594 165.214 463.613
1631 0 100.12 12.1753 1219 100.365 165.397 462.758
1632 0 104.179 12.3825 1290 100.028 164.862 461.599
1633 0 108.179 12.4238 1344 100.257 165.039 459.866
1634 0 112.106 12.4881 1400 100.641 164.534 458.948
1635 0 116.122 12.4954 1451 100.978 165.471 456.3
1636 1 64.0495 10.0547 644 96.396 165.183 482.317
1637 0 64.0627 10.6927 685 100.007 165.121 479.31
1638 0 67.0518 11.5135 772 97.9573 165.469 478.56
1639 0 68.1205 11.2007 763 97.0052 163.849 476.159
1640 0 70.1237 11.6223 815 95.7693 163.919 475.972
1641 0 74.1705 11.6084 861 96.6469 163.69 474.031
1642 0 78.095 11.6397 909 97.8438 164.56 472.233
1643 0 78.1286 11.5067 899 85.6463 164.38 473.415
1644 0 82.1508 10.9189 897 86.99 164.758 472.193
1645 0 82.1381 10.458 859 89.915 164.194 471.151
1646 0 86.142 10.9703 945 89.7778 165.106 470.586
1647 0 87.1159 10.5951 923 92.4691 164.75 469.055
1648 0 92.1421 10.9722 1011 91.2888 164.726 468.767
1649 0 92.0902 10.7177 987 94.2411 164.57 465.844
1650 0 95.1026 10.7358 1021 95.1401 164.447 465.492
1651 0 98.0974 11.876 1165 95.0292 164.85 463.306
1652 0 101.081 11.9607 1209 95.4003 165.177 461.597
1653 0 102.092 11.8814 1213 97.8046 165.263 462.064
1654 0 106.108 11.9784 1271 97.1731 164.444 462.639
1655 0 108.08 11.4545 1238 101.413 165.521 459.858
1656 0 111.05 12.1477 1349 102.6 165.446 457.236
1657 0 114.122 11.7944 1346 101.522 165.935 457.575
1658 0 116.073 11.5876 1345 102.529 164.404 455.512
1659 0 122.071 12.0258 1468 98.4114 165.2 454.857
1660 0 124.066 12.1226 1504 98.4375 165.332 448.797
1661 1 69.0993 9.537 659 89.4203 164.788 478.234
1662 0 71.0864 10.1285 720 88.5889 165.024 477.626
1663 0 74.1281 10.9001 808 86.0953 164.804 474.595
1664 0 74.1206 10.9551 812 132.926 163.812 474.685
1665 0 77.1307 10.5017 810 86.016 165.828 473.837
1666 0 77.1135 11.1265 858 86.8741 165.826 473.203
1667 0 81.0913 10.334 838 88.3544 165.507 472.952
1668 0 81.0725 10.9162 885 80.8339 165.359 468.293
1669 0 89.0898 11.7634 1048 90.2424 164.389 468.77
1670 0 90.1078 11.4418 1031 93.6537 164.989 466.285
1671 0 92.0887 11.0003 1013 95.8786 164.211 465.873
1672 0 97.1316 12.4573 1210 102.78 164.24 464.031
1673 0 98.1073 11.9869 1176 105.283 163.747 461.993
1674 0 103.078 11.5931 1195 105.956 164.413 461.895
1675 0 104.147 11.8294 1232 105.442 164.356 459.111
1676 0 109.141 11.1966 1222 107.2 164.198 456.993
1677 0 113.152 11.816 1337 106.311 165.252 457.209
1678 0 118.076 11.5943 1369 107.475 165.427 455.289
1679 0 122.193 11.7601 1437 108.656 165.904 454.248
1680 1 63.1055 9.53958 602 95.7259 164.977 483.812
1681 0 67.1265 11.2027 752 95.3112 165.61 480.521
1682 0 69.1351 10.9496 757 95.5178 164.9 479.219
1683 0 72.1225 11.9657 863 94.5828 165.204 480.139
1684 0 72.1225 11.938 861 144.87 166.203 480.102
1685 0 76.1138 11.3646 865 96.7896 165.036 476.785
1686 0 78.0861 11.1544 871 98.9139 164.126 476.824
1687 0 79.1084 11.263 891 97.8025 164.755 475.001
1688 0 80.1234 11.7693 943 100.23 165.309 473.429
1689 0 83.118 11.622 966 99.1542 165.269 473.554
1690 0 84.1387 11.5642 973 99.4666 164.87 470.769
1691 0 88.1326 11.9479 1053 98.0864 165.093 469.84
1692 0 89.1515 11.6319 1037 99.0501 165.498 468.569
1693 0 92.1536 11.7413 1082 99.2431 165.642 465.253
1694 0 95.0993 12.3029 1170 98.0043 165.338 464.835
1695 0 98.153 12.1036 1188 99.2492 164.431 463.03
1696 0 100.132 12.4535 1247 99.8861 164.61 460.512
1697 0 102.088 11.8525 1210 102.004 164.298 460.139
1698 0 107.149 12.73 1364 99.6884 164.971 458.654
1699 0 107.145 12.6651 1357 155.605 164.968 458.671
1700 0 114.126 12.7666 1457 101.364 164.501 454.814
1701 0 116.131 12.6065 1464 103.018 163.824 453.042
1702 0 121.103 12.9229 1565 102.769 164.718 451.063
1703 0 124.113 12.5612 1559 104.257 164.706 449.649
1704 0 129.127 13.5138 1745 101.278 164.926 447.048
1705 0 131.124 13.1632 1726 103.189 164.563 445.217
1706 0 135.15 13.4739 1821 104.143 165.183 443.35
1707 0 138.161 13.1875 1822 105.155 164.855 441.144
1708 0 143.161 13.3346 1909 104.443 165.23 441.03
1709 0 148.165 13.2015 1956 105.839 164.54 438.495
1710 0 154.17 13.3749 2062 106.756 163.953 433.964
1711 0 157.172 13.552 2130 108.569 165.904 433.465
1712 0 162.16 13.8259 2242 109.239 165.374 430.339
1713 0 168.195 13.6032 2288 109.339 165.853 427.916
1714 0 175.195 13.642 2390 108.595 165.672 424.269
1715 1 93.0522 10.8864 1013 101.897 166.691 468.445
1716 0 96.0749 11.158 1072 100.497 165.949 467.922
1717 0 100.102 11.3684 1138 106.079 166.538 465.64
1718 0 104.141 11.6957 1218 104.467 166.565 464.515
1719 0 106.065 10.8801 1154 101.717 166.953 463.531
1720 0 110.149 11.2756 1242 100.13 165.456 460.183
1721 0 117.133 11.8071 1383 102.213 166.182 457.025
1722 0 121.112 11.6834 1415 101.54 165.324 454.127
1723 0 122.127 11.66 1424 102.396 165.944 449.895
1724 0 127.169 11.8032 1501 100.422 165.939 447.806
1725 0 134.099 11.5736 1552 100.251 166.381 449.408
1726 1 71.0431 10.754 764 86.945 167.014 480.619
1727 0 74.047 10.7364 795 87.8377 165.946 478.908
1728 0 76.0516 11.1109 845 85.2024 165.456 476.302
1729 0 76.1027 11.8655 903 97.2049 165.186 476.386
1730 0 79.1193 11.2867 893 98.7088 164.723 473.773
1731 0 83.1748 11.6622 970 95.9072 165.016 473.962
1732 0 85.2417 11.3911 971 96.8177 164.61 473.314
1733 0 87.1641 11.0481 963 96.5213 164.277 469.829
1734 0 89.1677 11.0242 983 96.5392 164.618 469.706
1735 0 94.1991 10.9874 1035 96.6 164.779 467.087
1736 0 94.1567 10.8224 1019 97.9568 164.34 466.477
1737 0 100.188 11.2987 1132 96.0406 164.726 465.87
1738 0 101.192 10.3368 1046 98.8222 164.718 463.36
1739 0 102.226 10.3105 1054 98.6907 164.815 460.956
1740 0 102.22 10.2916 1052 149.007 164.804 461.031
1741 1 54.1682 9.04589 490 86.8816 166.265 487.198
1742 0 56.1174 10.5315 591 88.9171 165.675 487.54
1743 0 60.1152 11.8606 713 90.6297 166.454 486.115
1744 0 60.129 10.8932 655 84.4397 166.163 486.588
1745 0 63.156 10.7512 679 93.6554 165.057 486.158
1746 0 63.2045 11.1068 702 94.0128 164.726 484.835
1747 0 66.1191 11.4188 755 94.3073 163.812 482.877
1748 0 68.1114 10.659 726 95.9601 164.369 482.601
1749 0 68.1668 10.621 724 95.5207 164.316 480.706
1750 0 70.1561 10.4624 734 95.5913 164.548 479.584
1751 0 70.1584 10.5191 738 147.534 164.535 479.515
1752 0 72.1453 10.562 762 97.0682 164.717 476.545
1753 0 74.1418 10.8306 803 97.0162 164.793 476.559
1754 0 77.1808 10.8058 834 96.2218 164.745 476.215
1755 0 82.1705 11.6222 955 94.4848 164.316 475.159
1756 0 82.1646 11.0266 906 96.7627 164.471 473.064
1757 0 86.1319 10.9832 946 95.6416 164.192 473.107
1758 0 89.1042 11.9186 1062 95.5932 164.317 469.206
1759 0 91.1367 10.8518 989 97.7068 163.978 468.767
1760 0 92.1045 11.0961 1022 99.6703 164.594 467.463
1761 0 96.1979 10.9774 1056 100.139 164.389 465.464
1762 0 97.2062 11.5116 1119 101.532 164.919 464.597
1763 0 99.1195 11.1179 1102 103.692 164.502 464.179
1764 0 104.219 11.8212 1232 101.775 164.589 463.577
1765 0 105.184 10.9332 1150 106.296 164.162 461.49
1766 0 108.226 12.5016 1353 104.142 164.787 460.012
1767 0 111.126 12.3374 1371 105.958 164.761 457.649
1768 0 115.141 11.8116 1360 111.774 164.846 457.296
1769 0 118.139 12.2398 1446 113.08 165.963 455.934
1770 0 123.189 12.5823 1550 112.389 165.348 457.186
1771 0 125.13 12.5629 1572 112.768 165.083 455.378
1772 0 129.164 12.0389 1555 113.404 164.304 452.992
1773 1 67.1648 11.0921 745 111.302 165.683 481.748
1774 0 69.1241 11.8193 817 114.024 165.389 479.629
1775 0 70.1028 11.797 827 112.148 164.802 478.975
1776 0 72.1031 11.4142 823 113.057 164.598 478.468
1777 0 75.2143 12.1519 914 111.034 165.159 476.211
1778 0 78.1853 11.6902 914 112.714 165.722 476.04
1779 0 77.1823 11.7255 905 115.672 165.916 473.585
1780 0 81.1305 12.1286 984 114.699 165.45 473.644
1781 0 80.1381 10.8563 870 107.349 166.113 474.048
1782 0 82.1914 11.1447 916 107.652 165.277 472.512
1783 0 84.0683 11.7405 987 107.879 166.197 472.229
1784 0 88.1991 11.8368 1044 106.883 165.829 471.139
1785 0 90.2242 11.5379 1041 109.533 165.57 468.307
1786 0 91.1775 11.9108 1086 112.099 165.206 468.823
1787 0 93.1448 11.509 1072 114.616 165.503 467.924
1788 0 94.1206 11.0815 1043 117.937 165.507 466.438
1789 0 99.1262 12.0856 1198 113.721 165.637 465.422
1790 0 100.237 11.9516 1198 116.556 165.068 464.423
1791 0 105.371 12.0906 1274 115.965 165.385 463.72
1792 0 109.17 12.7782 1395 114.108 164.986 461.028
1793 0 112.283 12.4685 1400 114.781 165.851 460.832
1794 0 113.197 12.5268 1418 114.447 165.54 459.08
1795 0 116.168 11.9912 1393 114.486 165.182 459.054
1796 0 119.14 11.6418 1387 116.05 164.177 458.627
1797 0 125.317 12.0175 1506 112.859 164.635 455.35
1798 0 126.321 11.4153 1442 114.948 164.186 452.989
1799 0 130.27 11.8907 1549 112.565 163.94 450.429
1800 0 135.124 11.9816 1619 112.028 164.397 451.075
1801 0 139.277 12.1772 1696 112.175 164.479 446.254
1802 0 143.182 11.8451 1696 112.463 164.794 448.17
1803 1 79.1215 10.5028 831 102.876 164.124 478.07
1804 0 85.2532 11.7767 1004 106.344 164.827 476.308
1805 0 84.1505 11.0635 931 101.276 164.252 474.014
1806 0 89.1379 11.1737 996 100.702 164.114 472.118
1807 0 90.1032 11.3758 1025 101.289 164.161 471.551
1808 0 93.1104 11.8139 1100 98.4309 164.184 469.181
1809 0 96.1402 12.7626 1227 96.8509 163.487 467.958
1810 0 96.204 10.3738 998 103.398 164.077 465.22
1811 0 98.1442 10.4948 1030 103.75 163.495 464.442
1812 0 101.186 10.3967 1052 102.04 164.417 465.363
1813 0 103.216 10.4344 1077 101.98 163.983 463.114
1814 0 105.205 10.6649 1122 102.316 164.094 461.056
1815 0 108.155 9.81004 1061 103.36 163.653 458.85
1816 0 114.164 10.7302 1225 99.342 163.19 457.939
1817 0 115.139 10.1703 1171 100.546 163.763 457.166
1818 0 119.173 10.833 1291 98.7374 163.41 455.498
1819 0 121.138 10.3601 1255 99.8024 163.132 454.513
1820 0 122.175 9.7483 1191 101.083 162.898 453.739
1821 0 133.164 8.41065 1120 101.844 164.057 454.138
1822 0 132.246 9.54285 1262 101.468 163.765 447.08
1823 0 133.163 10.4233 1388 99.1448 164.208 449.017
1824 0 137.131 10.4572 1434 100.457 163.772 444.586
1825 0 142.137 10.6306 1511 100.149 163.896 443.61
1826 0 146.086 10.884 1590 99.9415 164.733 439.716
1827 0 148.105 9.47298 1403 103.026 164.16 439.648
1828 0 153.164 11.4388 1752 100.99 164.488 434.076
1829 0 158.188 11.0564 1749 102.067 163.731 431.62
1830 0 161.205 10.9053 1758 102.399 164.387 431.604
1831 0 166.179 11.1265 1849 103.322 163.609 429.373
1832 0 172.17 11.0879 1909 101.726 164.061 426.657
1833 1 94.1214 11.4427 1077 96.2117 163.98 466.796
1834 0 97.1059 11.3381 1101 93.733 164.248 464.287
1835 0 97.152 10.7255 1042 99.2889 165.019 461.186
1836 0 102.106 11.1649 1140 98.7114 165.682 458.353
1837 0 103.175 10.2545 1058 103.249 165.452 454.475
1838 0 104.149 10.0913 1051 103.868 165.431 452.201
1839 0 108.112 9.38846 1015 104.557 164.779 452.544
1840 0 111.137 9.8257 1092 103.473 165.152 452.031
1841 0 116.254 10.4083 1210 102.554 163.844 449.739
1842 0 118.132 10.1412 1198 99.369 164.988 449.665
1843 0 122.145 11.6501 1423 94.8742 164.065 450.218
1844 0 123.148 11.6202 1431 129.037 163.057 449.755
1845 0 130.327 12.4609 1624 104.495 164.35 445.88
1846 0 130.316 12.416 1618 134.847 166.353 445.933
1847 0 140.4 12.3576 1735 91.294 165.262 447.071
1848 0 141.281 12.0611 1704 94.6103 165.213 443.643
1849 0 145.346 11.8132 1717 95.4653 164.96 443.178
1850 0 152.354 12.8713 1961 96.3233 165.137 437.903
1851 0 156.424 12.7985 2002 95.7917 164.378 435.132
1852 0 160.27 12.1357 1945 95.0062 164.838 433.613
1853 0 165.194 12.5247 2069 94.4737 164.432 431.154
1854 1 91.1697 10.3543 944 96.7892 165.236 466.494
1855 0 94.1002 11.6472 1096 94.7993 165.076 465.349
1856 0 98.152 12.1852 1196 93.2383 165.121 462.628
1857 0 101.067 12.4571 1259 92.2351 165.452 461.613
1858 0 101.161 10.8737 1100 90.1545 164.269 461.832
1859 0 102.149 11.2874 1153 91.131 164.658 460.765
1860 0 106.115 11.7891 1251 91.7162 164.617 458.568
1861 0 108.176 11.583 1253 91.6464 165.309 458.07
1862 0 109.22 11.5364 1260 93.7579 164.847 456.97
1863 0 113.166 11.6554 1319 95.0076 164.712 456.551
1864 0 115.144 11.7765 1356 98.1917 164.551 454.326
1865 0 120.214 12.1034 1455 97.9952 164.774 451.557
1866 0 123.241 11.9116 1468 98.6287 165.118 452.559
1867 0 123.241 12.0009 1479 160.796 165.125 452.463
1868 0 123.243 11.9602 1474 160.548 165.128 452.402
1869 0 123.241 11.9603 1474 160.242 165.128 452.402
1870 1 74.1663 10.5034 779 89.1964 165.216 476.128
1871 0 77.102 11.5042 887 85.487 165.402 476.427
1872 0 77.103 10.4406 805 91.3702 164.819 474.262
1873 0 80.1353 11.2809 904 90.6748 164.469 472.603
1874 0 81.1486 11.1524 905 90.8619 164.041 472.579
1875 0 86.1963 11.1258 959 93.3587 164.337 468.765
1876 0 89.1309 11.6458 1038 93.0771 164.294 469.639
1877 0 92.1701 11.533 1063 94.3452 163.966 466.29
1878 0 96.1349 11.0574 1063 96.0612 164.375 466.463
1879 0 97.1587 11.1982 1088 96.3759 164.153 464.759
1880 0 100.131 11.2553 1127 94.5572 164.69 463.358
1881 0 102.139 11.4647 1171 94.2861 164.524 460.347
1882 0 106.158 11.5394 1225 96.5298 165.15 460.805
1883 0 110.141 11.8575 1306 96.2979 164.344 458.26
1884 0 111.142 11.5618 1285 95.7938 165.044 455.663
1885 1 60.1644 9.80646 590 88.2441 166.069 482.578
1886 0 63.0577 11.0058 694 86.1888 166.022 481.928
1887 0 65.1343 11.6682 760 84.8382 165.63 480.405
1888 0 64.1152 10.0288 643 89.1089 165.537 480.787
1889 0 67.1126 10.1769 683 92.2855 165.372 479.956
1890 0 68.2218 10.0848 688 92.0901 164.962 480.471
1891 0 71.1942 10.4924 747 91.0562 164.909 479.602
1892 0 73.1677 10.7698 788 93.7525 165.269 477.86
1893 0 76.1718 10.7914 822 94.1302 165.186 477.693
1894 0 77.1965 10.9202 843 93.0593 165.293 474.276
1895 0 77.1965 10.9072 842 134.23 165.285 474.29
1896 0 81.1226 10.7738 874 96.8467 165.191 473.119
1897 0 84.1521 11.598 976 99.0502 165.738 474.275
1898 0 84.0979 11.7482 988 100.97 165.806 472.578
1899 0 87.177 11.9183 1039 100.962 165.06 472.283
1900 0 90.1757 11.777 1062 102.621 165.085 471.384
1901 0 93.1407 12.0785 1125 103.787 165.723 469.383
1902 0 93.1322 11.9937 1117 107.197 166.284 469.256
1903 0 95.0847 12.0524 1146 109.921 166.632 467.423
1904 0 99.0714 12.6374 1252 112.549 164.95 466.622
1905 0 103.076 13.0389 1344 114.621 165.227 464.737
1906 0 104.091 13.0847 1362 116.148 163.936 463.906
1907 0 107.142 13.1508 1409 116.965 164.032 461.543
1908 0 111.156 13.0357 1449 118.1 163.93 460.01
1909 0 113.227 12.2939 1392 119.672 163.412 461.963
1910 1 67.0401 11.6497 781 117.732 163.599 482.414
1911 0 69.1535 12.089 836 115.868 164.371 481.339
1912 0 71.0794 12.7322 905 112.144 164.905 480.179
1913 0 74.2616 13.439 998 111.307 163.243 477.556
1914 0 77.0515 13.5234 1042 109.647 164.425 478.83
1915 0 76.0844 12.4861 950 108.378 164.339 478.651
1916 0 76.0509 12.4259 945 109.228 164.638 477.847
1917 0 81.0917 12.492 1013 108.407 164.144 476.004
1918 0 83.0992 12.6114 1048 109.409 163.794 475.246
1919 0 86.1252 12.5979 1085 109.395 164.13 473.693
1920 0 87.2568 12.9388 1129 109.477 163.502 472.166
1921 0 90.1872 12.4962 1127 109.953 164.067 471.598
1922 0 92.1666 12.3906 1142 110.099 163.334 470.803
1923 0 97.1626 13.2767 1290 107.35 163.749 468.591
1924 0 100.156 12.6603 1268 108.124 163.297 467.656
1925 0 104.235 12.9228 1347 105.484 163.814 466.575
1926 0 104.148 12.8376 1337 106.221 163.796 464.081
1927 0 109.157 13.4851 1472 103.682 163.351 462.578
1928 0 113.206 12.8703 1457 103.69 163.877 461.489
1929 0 118.19 12.8352 1517 102.643 162.744 459.738
1930 1 64.0713 11.7057 750 102.129 163.908 484.631
1931 0 66.0634 11.8674 784 101.704 164.064 484.452
1932 0 67.135 12.2887 825 101.259 164.577 482.833
1933 0 69.0642 13.0748 903 99.6301 164.001 479.594
1934 0 70.1422 12.5174 878 102.02 163.134 481.072
1935 0 70.1422 12.5032 877 162.017 162.125 481.074
1936 0 72.0496 12.0334 867 95.1223 163.617 480.256
1937 0 73.0596 11.7302 857 95.9673 163.098 481.114
1938 0 76.1279 11.993 913 96.7547 162.962 479.057
1939 0 77.1204 12.5518 968 95.9452 163.049 478.723
1940 0 79.0723 11.6982 925 98.7265 162.404 477.229
1941 0 82.1617 12.4389 1022 97.9198 163.223 476.632
1942 0 84.2026 12.3868 1043 98.418 163.027 473.992
1943 0 89.093 13.0426 1162 97.284 163.5 472.398
1944 0 91.2714 12.7422 1163 99.3783 163.086 470.492
1945 0 93.4034 12.6227 1179 99.6209 163.148 469.699
1946 0 97.2731 12.6242 1228 99.3884 162.963 468.726
1947 0 102.208 13.2573 1355 96.9631 162.879 466.136
1948 0 105.288 13.3919 1410 96.4007 162.045 465.536
1949 0 107.275 12.2955 1319 98.8923 162.862 461.241
1950 0 110.211 12.5396 1382 98.2431 162.658 459.038
1951 1 60.2098 10.6959 644 94.8727 163.205 484.006
1952 0 64.1608 10.9724 704 91.6278 162.452 483.172
1953 0 66.1641 11.1087 735 86.7034 164.118 480.136
1954 0 69.0929 11.8102 816 85.4216 163.185 480.38
1955 0 69.1654 11.6388 805 85.6311 165.202 480.619
1956 0 74.1184 13.2626 983 85.2075 165.068 480.578
1957 0 76.0922 12.2877 935 85.9551 164.786 477.114
1958 0 79.0727 12.3304 975 91.6636 163.933 476.106
1959 0 80.1372 12.3788 992 91.9224 164.847 476.058
1960 0 82.0914 12.1815 1000 89.558 164.033 472.154
1961 0 86.1218 11.9598 1030 91.2311 164.575 470.911
1962 0 89.1602 12.4495 1110 90.8009 163.763 469.183
1963 0 91.1915 12.5012 1140 92.6412 163.816 468.368
1964 0 94.1802 12.5079 1178 93.8939 163.643 469.126
1965 0 96.1717 12.7896 1230 95.3748 163.388 466.112
1966 0 96.1717 12.7792 1229 149.334 163.403 466.139
1967 0 105.232 13.6176 1433 94.3294 163.724 463.663
1968 0 107.251 12.5499 1346 98.6939 163.254 462.508
1969 1 61.1681 11.2967 691 90.7656 162.656 487.734
1970 0 64.1374 11.5065 738 89.813 163.218 487.107
1971 0 67.143 11.9446 802 88.9701 162.729 485.02
1972 0 68.1382 11.9757 816 90.565 163.159 483.259
1973 0 69.1888 11.3891 788 89.4759 162.171 481.218
1974 0 71.1476 12.2562 872 89.2007 162.542 479.664
1975 0 72.1596 11.9596 863 92.4519 162.678 479.211
1976 0 75.0933 11.812 887 93.2717 162.308 477.291
1977 0 78.1032 11.8305 924 94.3333 162.799 477.886
1978 0 81.1044 12.0709 979 94.5832 163.372 475.461
1979 0 82.1686 12.4865 1026 95.8177 162.619 474.206
1980 0 83.1401 12.0159 999 98.7257 162.917 472.834
1981 0 87.1323 12.5441 1093 99.258 162.118 471.988
1982 0 87.1275 12.5448 1093 156.08 162.119 471.941
1983 0 93.1502 12.7965 1192 99.4908 162.661 470.204
1984 0 95.0979 12.8289 1220 100.573 162.589 468.465
1985 0 99.0935 12.7052 1259 100.106 163.154 467.479
1986 0 100.1 12.5174 1253 101.279 162.918 464.919
1987 0 105.085 12.8849 1354 99.5687 162.886 464.4
1988 0 108.192 13.1249 1420 99.281 162.493 462.686
1989 1 58.0692 11.2796 655 97.3038 163.695 488.995
1990 0 59.0859 11.7964 697 94.7446 163.811 489.65
1991 0 61.1137 11.7813 720 94.8319 163.981 487.617
1992 0 65.0744 12.2936 800 92.775 163.148 486.325
1993 0 65.1174 12.8998 840 92.1476 163.319 484.985
1994 0 66.0534 12.0357 795 96.883 163.087 485.114
1995 0 66.107 11.799 780 98.5603 163.474 485.664
1996 0 70.0653 12.574 881 94.8195 162.716 483.279
1997 0 72.038 12.2158 880 94.6625 162.733 483.557
1998 0 74.1041 12.1316 899 94.4449 162.392 482.093
1999 0 75.097 12.1976 916 93.9924 162.84 480.413
2000 0 74.0965 11.9574 886 140.919 162.831 480.018
2001 0 76.0874 11.6445 886 140.501 162.812 479.853
2002 0 84.0663 12.6924 1067 90.478 162.984 475.038
2003 0 87.1499 12.6678 1104 90.2726 163.326 473.537
2004 0 89.0951 12.3688 1102 90.9719 163.357 471.985
2005 0 93.187 13.0168 1213 94.695 162.769 467.477
2006 0 96.2992 12.2846 1183 96.4108 163.178 466.734
2007 0 98.1991 12.1692 1195 96.1975 162.977 464.873
2008 0 102.134 12.4445 1271 95.4123 163.578 465.491
2009 0 104.184 12.046 1255 94.4175 163.525 463.048
2010 0 108.148 12.3626 1337 93.6612 163.048 461.747
2011 0 110.222 12.5565 1384 93.8013 162.935 459.965
2012 0 110.207 12.6307 1392 123.574 162.96 459.93
2013 0 109.169 12.1921 1331 124.927 162.938 458.687
2014 1 61.1658 11.4933 703 92.7425 163.195 485.622
2015 0 63.0997 11.3788 718 91.5362 163.181 484.489
2016 0 65.14 11.8974 775 90.9587 163.431 483.201
2017 0 68.2843 12.448 850 90.3624 162.839 482.801
2018 0 72.0311 14.1189 1017 86.9705 162.961 480.329
2019 0 75.1699 13.7688 1035 88.4725 162.7 480.562
2020 0 76.2013 13.3987 1021 92.3663 163.082 479.875
2021 0 77.0588 13.0939 1009 94.4965 163.097 477.44
2022 0 79.1841 13.336 1056 94.4536 163.181 476.468
2023 0 81.1251 13.51 1096 95.1396 162.825 474.898
2024 0 84.1754 13.6976 1153 93.8378 162.445 475.345
2025 0 86.1986 14.3042 1233 93.511 162.706 474.517
2026 0 88.0494 13.5946 1197 97.3475 162.691 470.706
2027 0 91.1013 13.9735 1273 96.6771 162.195 471.434
2028 0 93.2452 13.8452 1291 97.8962 161.996 469.059
2029 0 96.3095 13.8927 1338 98.3677 162.195 468.748
2030 0 99.2261 14.8146 1470 97.4333 161.927 466.707
2031 0 102.264 14.2474 1457 100.63 161.773 464.913
2032 0 106.278 14.4714 1538 100.001 161.678 464.125
2033 0 110.244 14.6312 1613 99.4588 162.187 464.153
2034 0 113.15 14.494 1640 100.798 162.287 461.932
2035 0 115.113 14.6117 1682 101.207 162.023 458.907
2036 0 119.1 14.3997 1715 101.855 162.486 458.279
2037 0 124.151 15.0301 1866 99.448 162.207 456.125
2038 0 127.111 14.5621 1851 98.5419 161.703 455.115
2039 0 132.171 14.1105 1865 99.0718 162.527 450.031
2040 0 136.146 14.1246 1923 100.547 162.281 450.111
2041 0 140.173 14.5606 2041 101.131 162.175 448.557
2042 0 145.137 14.9307 2167 100.989 161.809 447.839
2043 0 151.177 15.5117 2345 99.0648 162.094 444.541
2044 0 154.101 14.3672 2214 102.696 162.381 442.217
2045 0 159.163 15.9019 2531 100.064 162.884 436.443
2046 0 163.185 15.7674 2573 98.5966 162.448 437.506
2047 0 169.224 16.0025 2708 97.3634 161.96 434.479
2048 0 176.21 16.3612 2883 95.3368 162.638 429.609
2049 0 180.092 15.12 2723 96.4939 162.492 430.55
2050 0 187.105 15.51 2902 96.6113 162.829 424.143
2051 1 97.0264 12.9552 1257 97.7971 162.479 468.152
2052 0 102.056 13.7572 1404 96.2101 162.35 465.481
2053 0 104.115 14.023 1460 96.8466 162.652 466.843
2054 0 108.078 14.6931 1588 96.4106 162.533 463.474
2055 0 111.057 14.6772 1630 97.8877 162.4 462.657
2056 0 115.071 14.2695 1642 100.001 163.166 462.522
2057 0 118.109 13.8178 1632 102.613 163.485 459.699
2058 0 123.136 14.155 1743 103.091 162.991 456.684
2059 0 123.136 14.1632 1744 172.116 162.993 456.507
2060 0 133.134 14.1512 1884 104.025 162.415 453.856
2061 0 139.134 14.5903 2030 103.16 162.611 453.138
2062 0 141.087 13.5732 1915 107.563 162.106 448.764
2063 0 148.156 14.2958 2118 104.973 162.679 447.864
2064 0 153.152 13.9469 2136 107.143 161.711 444.803
2065 0 159.183 14.6623 2334 105.861 162.204 443.271
2066 1 89.1807 13.4446 1199 109.374 161.915 475.371
2067 0 92.1742 13.5938 1253 109.921 162.211 474.152
2068 0 94.0752 14.2758 1343 108.575 162.077 473.888
2069 0 95.2013 12.8675 1225 109.317 162.511 473.891
2070 0 97.1625 12.1446 1180 113.032 162.398 472.26
2071 0 100.144 12.9514 1297 112.575 162.483 472.254
2072 0 105.054 13.317 1399 112.325 162.566 469.582
2073 0 107.068 13.4961 1445 112.83 162.921 465.409
2074 0 110.119 13.2675 1461 114.578 162.504 466.408
2075 0 115.133 13.4714 1551 115.114 162.931 463.553
2076 0 117.117 13.8835 1626 115.698 162.261 459.756
2077 0 119.152 13.7724 1641 117.799 162.671 457.489
2078 0 126.242 13.9019 1755 116.677 162.154 457.008
2079 0 128.235 13.4285 1722 115.673 162.094 455.384
2080 0 136.179 15.017 2045 117.069 161.51 450.438
2081 0 140.224 15.7249 2205 116.896 162.115 447.635
2082 0 144.28 14.6937 2120 120.415 161.628 445.822
2083 0 151.433 14.5609 2205 120.912 162.008 443.174
2084 1 86.2045 13.0272 1123 120.5 161.752 476.378
2085 0 89.1945 13.5434 1208 120.413 162.607 474.275
2086 0 92.2027 13.5896 1253 115.868 161.658 472.979
2087 0 93.1026 14.2853 1330 115.095 162.039 472.23
2088 0 98.0969 14.1085 1384 114.227 162.227 471.246
2089 0 101.185 14.0239 1419 115.316 162.317 469.014
2090 0 103.066 13.7194 1414 117.101 162.386 467.001
2091 0 104.084 13.9119 1448 118.593 163.095 465.93
2092 0 108.1 14.1813 1533 118.315 162.232 463.635
2093 0 112.126 13.9664 1566 118.827 162.536 463.716
2094 0 112.185 12.2654 1376 111.229 162.128 465.228
2095 0 117.216 13.104 1536 110.169 162.352 462.342
2096 0 121.128 13.7871 1670 110.25 161.95 460.751
2097 0 126.319 13.64 1723 113.733 161.714 459.455
2098 0 130.266 13.5722 1768 115.932 160.891 457.186
2099 0 135.286 13.3347 1804 115.331 161.954 453.985
2100 1 75.268 12.3426 929 113.76 162.481 481.649
2101 0 77.2004 13.044 1007 111.56 163.09 480.791
2102 0 78.1775 12.9577 1013 109.462 163.02 479.365
2103 0 81.2139 12.9165 1049 109.437 162.858 477.361
2104 0 83.2264 12.9646 1079 109.466 163.079 477.806
2105 0 85.236 12.7059 1083 110.561 162.763 477.259
2106 0 87.3148 12.6325 1103 111.765 162.606 475.033
2107 0 90.2673 12.9172 1166 111.545 162.343 474.798
2108 0 95.1449 13.3165 1267 109.866 162.985 471.731
2109 0 96.1556 12.9894 1249 112.857 162.682 470.91
2110 0 100.297 12.8219 1286 113.218 162.718 469.708
2111 0 103.323 12.7077 1313 113.351 162.535 467.769
2112 1 54.1557 12.3902 671 116.507 163.085 489.802
2113 0 56.2864 11.2461 633 117.464 162.57 490.714
2114 0 59.312 12.1898 723 117.189 163.383 488.376
2115 0 59.1652 12.1693 720 116.767 162.725 487.085
2116 0 60.1371 12.2387 736 117.409 163.095 487.674
2117 0 65.2557 12.8111 836 113.903 163.039 486.665
2118 0 67.2491 13.4277 903 111.798 163.379 484.324
2119 0 69.2682 13.5849 941 111.614 163.752 483.139
2120 0 71.2428 13.5593 966 112.836 163.776 482.063
2121 0 73.2021 13.333 976 113.946 163.162 481.12
2122 0 75.1424 13.348 1003 113.843 163.055 479.942
2123 0 77.1636 12.8947 995 116.336 163.431 479.794
2124 0 80.1551 13.0497 1046 116.51 163.552 478.382
2125 0 82.2814 13.6726 1125 114.684 163.449 476.017
2126 0 84.1574 13.3678 1125 115.567 162.868 475.488
2127 0 87.1245 12.9585 1129 116.152 163.022 474.402
2128 0 91.1746 13.4687 1228 114.328 162.472 472.855
2129 0 92.1247 13.6011 1253 114.552 163.745 471.628
2130 0 97.1782 13.1923 1282 114.707 163.324 470.392
2131 0 99.1905 13.5598 1345 113.37 163.662 468.581
2132 0 102.084 13.2832 1356 115.942 163.229 467.578
2133 0 105.157 13.9411 1466 114.054 163.802 464.636
2134 0 106.206 13.9917 1486 115.1 163.675 462.453
2135 0 112.147 13.6517 1531 115.438 164.056 464.044
2136 0 115.083 14.0508 1617 115.369 163.973 461.806
2137 0 117.121 14.0794 1649 115.143 163.944 460.084
2138 0 122.177 14.2007 1735 113.538 163.753 456.899
2139 0 124.235 13.9735 1736 116.011 163.964 454.369
2140 0 129.248 14.4297 1865 115.826 163.544 454.267
2141 0 134.325 13.9438 1873 117.025 164.156 452.652
2142 0 137.282 14.2116 1951 116.926 163.958 451.684
2143 0 141.196 14.0797 1988 117.397 164.184 447.76
2144 0 145.289 13.979 2031 118.137 164.056 446.384
2145 0 151.26 14.1214 2136 118.083 163.925 444.767
2146 0 153.23 13.6853 2097 120.011 162.777 440.863
2147 0 161.278 14.23 2295 118.173 163.365 438.261
2148 0 166.303 14.5818 2425 118.44 162.774 433.881
2149 0 171.32 14.0731 2411 120.847 163.799 434.172
2150 0 171.321 14.0496 2407 158.083 164.807 434.033
2151 1 94.1703 11.5111 1084 130.203 163.78 469.157
2152 0 95.2109 12.7716 1216 127.56 163.701 466.592
2153 0 98.1672 12.0712 1185 130.363 164.123 467.353
2154 0 103.138 12.3621 1275 128.764 163.53 466.07
2155 0 105.125 12.9655 1363 128.354 164.068 464.824
2156 0 108.218 13.2418 1433 127.298 163.672 463.021
2157 0 113.245 13.0336 1476 127.888 163.545 459.018
2158 0 116.166 13.3257 1548 125.517 163.627 458.782
2159 0 120.202 13.1529 1581 125.708 163.615 454.791
2160 0 127.163 13.6596 1737 122.638 163.45 453.427
2161 0 131.233 14.0971 1850 122.534 164.26 450.628
2162 0 135.2 14.7189 1990 121.566 163.973 447.866
2163 0 138.247 14.503 2005 123.322 163.808 443.388
2164 0 146.265 14.8087 2166 120.758 164.322 444.26
2165 0 151.232 15.2746 2310 120.589 164.103 439.649
2166 0 155.21 15.1536 2352 121.909 165.175 435.772
2167 0 161.256 15.311 2469 122.65 164.765 433.23
2168 0 166.329 15.1928 2527 124.781 164.436 429.713
2169 0 171.263 14.7726 2530 125.579 164.685 427.897
2170 0 178.403 15.0614 2687 123.892 164.654 423.755
2171 1 100.278 12.2659 1230 125.322 165.067 464.31
2172 0 104.247 12.7678 1331 124.919 165.24 462.73
2173 0 106.225 12.5394 1332 127.915 164.443 460.666
2174 0 110.203 13.0849 1442 126.264 164.952 459.286
2175 0 113.21 13.4882 1527 126.725 164.748 456.408
2176 0 117.276 13.3105 1561 126.663 165.225 454.931
2177 0 118.265 13.3768 1582 128.503 164.744 451.341
2178 0 124.188 13.8822 1724 125.477 164.968 448.236
2179 0 128.278 13.5565 1739 126.555 164.541 446.941
2180 0 133.184 13.9657 1860 125.784 164.994 444.954
2181 0 136.137 14.1549 1927 126.065 164.585 442.176
2182 0 142.108 13.8978 1975 127.522 165.214 439.035
2183 0 148.187 14.3332 2124 127.113 165.249 435.459
2184 0 150.122 14.0886 2115 129.464 165.635 433.439
2185 0 155.116 14.1378 2193 130.194 165.519 430.828
2186 0 161.096 13.9668 2250 131.069 165.343 428.352
2187 0 165.17 14.373 2374 130.605 164.162 423.855
2188 0 171.149 13.9761 2392 132.026 164.888 421.631
2189 0 176.126 14.4896 2552 130.316 164.498 420.514
2190 0 182.176 13.7998 2514 132.521 165.081 414.376
2191 0 188.247 14.1782 2669 132.124 164.974 412.815
2192 0 196.255 14.3894 2824 131.046 164.604 409.069
2193 0 202.409 14.8067 2997 131.459 164.528 407.107
2194 0 204.201 13.8442 2827 131.497 164.492 402.277
2195 0 206.21 13.1177 2705 136.838 164.347 397.465
2196 0 218.253 14.0158 3059 133.543 164.769 397.948
2197 0 228.293 14.039 3205 134.685 165.432 396.376
2198 0 233.444 14.0676 3284 139.677 164.93 395.228
2199 0 245.477 14.4535 3548 137.515 164.858 393.028
2200 0 252.591 14.2246 3593 138.151 164.622 393.007
2201 0 261.332 14.2003 3711 136.208 164.582 390.581
2202 1 273.62 14.3264 3920 135.233 164.916 391.093
2203 0 282.476 13.9162 3931 138.022 164.614 384.32
2204 0 291.831 13.943 4069 139.697 164.627 377.562
2205 0 301.732 15.0498 4541 136.11 164.209 370.827
2206 0 310.8 14.0508 4367 141.507 163.833 369.079
2207 0 320.621 14.369 4607 141.428 164.383 364.869
2208 1 67.4789 8.35817 564 94.8564 165.225 506.498
2209 0 70.2477 8.27073 581 96.4647 166.088 506.224
2210 0 70.3257 7.08133 498 99.8173 165.269 504.51
2211 0 72.4464 8.30959 602 97.8056 165.429 505.801
2212 0 75.4399 8.96078 676 97.2618 165.46 505.41
2213 0 77.3748 8.19388 634 98.4842 164.894 506.183
2214 0 78.3746 7.13242 559 101.086 164.735 504.295
2215 0 81.2874 8.42688 685 99.6044 164.753 504.231
2216 0 80.3522 7.76581 624 101.058 164.37 504.986
2217 0 85.3483 7.20576 615 103.472 163.941 499.78
2218 0 93.4397 10.381 970 104.382 164.353 494.173
2219 0 94.4269 9.70062 916 105.278 164.206 493.94
2220 0 97.5805 9.43836 921 108.371 164.429 490.907
2221 0 101.433 9.76998 991 108.772 164.543 492.289
2222 0 103.524 9.73684 1008 110.111 164.184 491.869
2223 0 106.243 10.4007 1105 112.385 164.843 489.516
2224 0 109.163 10.9469 1195 109.02 164.056 488.912
2225 0 112.383 10.1439 1140 109.554 164.425 489.148
2226 1 62.0473 10.1858 632 103.021 165.26 512.427
2227 0 66.1171 10.4512 691 101.868 164.695 512.567
2228 0 69.1272 11.3269 783 100.608 164.552 512.75
2229 0 69.1625 11.3645 786 101.812 164.891 510.373
2230 0 72.1872 11.0684 799 102.874 164.638 510.279
2231 0 72.2095 10.9958 794 148.854 164.64 510.474
2232 0 76.3215 11.766 898 102.138 164.772 509.718
2233 0 76.213 11.586 883 103.613 164.73 508.302
2234 0 76.2821 11.9163 909 105.645 164.301 507.419
2235 0 77.2814 12.0469 931 104.883 164.897 507.162
2236 0 81.5132 12.2434 998 105.463 164.14 506.585
2237 0 83.4278 12.334 1029 103.899 164.26 505.709
2238 0 84.3427 12.6033 1063 104.477 163.33 505.804
2239 0 88.2475 12.6916 1120 103.842 164.124 504.58
2240 0 90.3461 13.3487 1206 102.283 164.147 502.371
2241 0 92.2903 13.3167 1229 102.746 164.139 501.341
2242 0 94.2945 13.4366 1267 102.662 163.717 501.193
2243 0 97.3507 13.5181 1316 104.734 164.139 499.664
2244 0 99.3019 14.2092 1411 103.738 163.906 497.46
2245 0 101.174 13.9266 1409 105.559 164.507 496.435
2246 0 103.232 13.7845 1423 106.605 164.169 493.929
2247 0 108.295 14.5713 1578 103.347 163.567 493.556
2248 0 110.279 14.8985 1643 103.603 163.886 491.968
2249 0 113.198 14.426 1633 107.308 164.251 491.191
2250 0 116.29 13.8705 1613 109.293 164.15 489.533
2251 0 118.284 14.22 1682 109.442 163.984 487.781
2252 0 120.21 15.8306 1903 104.714 163.606 486.013
2253 0 126.227 14.1412 1785 110.068 163.318 484.966
2254 0 129.244 14.67 1896 109.061 163.201 482.218
2255 0 133.213 14.0828 1876 110.138 164.317 481.391
2256 1 79.2023 11.5653 916 107.714 165.035 509.547
2257 0 82.1273 12.3832 1017 107.222 164.817 508.437
2258 0 85.1857 12.819 1092 105.949 164.755 506.799
2259 0 88.1645 12.5107 1103 104.851 165.489 504.21
2260 0 90.2484 12.3991 1119 104.202 165.612 502.604
2261 0 94.1445 12.5127 1178 103.923 165.597 501.147
2262 0 97.1878 13.3247 1295 104.538 165.301 500.097
2263 0 99.2215 12.4066 1231 104.556 165.263 499.718
2264 0 101.309 12.7235 1289 105.033 165.702 498.874
2265 0 106.202 13.0411 1385 105.178 164.526 495.275
2266 0 109.26 13.2893 1452 104.434 165.418 495.654
2267 0 112.254 13.2378 1486 106.515 164.688 493.952
2268 0 117.299 13.6659 1603 105.91 164.595 491.132
2269 0 121.254 13.2202 1603 107.25 164.605 490.826
2270 0 122.165 13.4245 1640 108.416 165.048 488.943
2271 0 129.322 14.6843 1899 105.46 165.129 487.779
2272 0 131.308 14.5764 1914 103.954 165.385 484.975
2273 1 62.184 11.7394 730 98.9534 164.508 520.332
2274 0 63.2362 11.9552 756 98.7288 164.71 519.019
2275 0 67.1035 11.7729 790 97.8038 164.782 517.738
2276 0 68.1657 12.6457 862 97.3039 165.252 516.285
2277 0 71.1612 12.2679 873 96.8179 165.477 514.993
2278 0 75.2596 12.9153 972 94.2202 164.97 514.279
2279 0 76.2363 12.212 931 97.4039 165.014 512.786
2280 0 78.1315 12.8629 1005 95.5134 165.272 511.594
2281 0 80.1366 12.5036 1002 96.7036 165.321 509.889
2282 0 84.1545 12.7979 1077 96.182 165.396 511.129
2283 0 87.2412 12.8838 1124 96.637 166.449 508.706
2284 0 89.2733 13.6099 1215 95.2543 166.222 508.568
2285 0 91.1802 13.5227 1233 97.0738 165.843 507.45
2286 0 94.2874 13.2892 1253 98.3735 165.993 506.056
2287 0 97.2326 13.2672 1290 96.9775 165.686 504.337
2288 0 100.374 13.1707 1322 98.4955 165.356 502.413
2289 0 104.217 13.4911 1406 99.1273 165.306 500.744
2290 0 107.229 14.0447 1506 97.8705 165.143 499.88
2291 0 111.324 13.564 1510 100.376 164.947 498.106
2292 0 113.295 13.231 1499 102.881 165.091 494.41
2293 0 116.24 13.257 1541 103.3 163.96 494.428
2294 0 119.233 14.0649 1677 101.645 164.661 492.754
2295 0 122.288 13.4273 1642 103.986 164.387 490.959
2296 0 129.288 14.1545 1830 100.74 164.44 490.402
2297 0 131.423 14.13 1857 102.109 163.98 487.608
2298 0 133.467 13.9885 1867 102.99 164.223 485.908
2299 0 138.45 13.875 1921 102.732 163.828 483.158
2300 0 142.462 13.9055 1981 103.096 163.986 481.668
2301 0 150.475 14.3878 2165 101.076 164.349 478.513
2302 0 156.381 14.6373 2289 99.82 163.911 477.616
2303 1 84.3327 13.5298 1141 100.699 165.06 511.751
2304 0 87.2596 13.5114 1179 101.002 165.321 510.613
2305 0 91.2084 13.354 1218 100.862 164.948 509.012
2306 0 94.374 13.4147 1266 99.5584 165.688 506.779
2307 0 96.4171 13.732 1324 99.3761 164.651 505.631
2308 0 100.407 13.5748 1363 100.58 164.674 504.401
2309 0 104.414 13.7242 1433 100.833 164.858 503.701
2310 0 104.401 13.3811 1397 104.213 165.043 501.971
2311 0 110.377 13.472 1487 102.513 165.199 501.399
2312 0 113.414 13.0495 1480 103.393 165.249 499.745
2313 0 117.525 13.41 1576 102.973 165.194 497.817
2314 0 121.426 13.9014 1688 101.428 164.574 495.616
2315 0 125.362 14.869 1864 99.6105 164.036 493.923
2316 0 129.462 14.3595 1859 101.088 165.147 493.102
2317 0 131.395 14.4755 1902 102.218 164.733 490.446
2318 0 134.448 14.2955 1922 103.126 164.502 489.506
2319 0 141.564 15.2158 2154 98.5376 164.338 485.027
2320 0 144.398 14.4947 2093 100.485 164.335 484.652
2321 0 148.448 14.4832 2150 103.271 164.103 482.666
2322 0 154.473 14.6563 2264 102.436 164.239 480.519
2323 0 158.401 14.2297 2254 104.873 164.365 477.869
2324 0 165.42 14.7202 2435 104.203 164.304 474.252
2325 0 173.401 15.173 2631 103.201 163.807 471.489
2326 0 178.394 14.2045 2534 107.328 163.992 467.679
2327 0 183.425 14.5127 2662 107.14 164.741 463.641
2328 1 101.147 13.2481 1340 113.646 164.757 498.816
2329 0 104.344 13.3501 1393 113.613 165.352 498.626
2330 0 107.179 14.2659 1529 113.673 165.032 495.078
2331 0 112.248 13.9779 1569 111.414 165.376 495.852
2332 0 116.243 14.8482 1726 108.329 165.555 493.544
2333 0 120.193 14.5349 1747 109.478 165.48 490.564
2334 0 121.264 14.1097 1711 112.018 164.726 489.189
2335 0 126.214 14.1585 1787 111.571 164.973 488.865
2336 0 132.199 14.2966 1890 110.693 165.315 485.449
2337 0 135.291 14.9974 2029 110.344 165.149 483.174
2338 0 139.285 14.919 2078 110.286 165.285 480.874
2339 0 144.269 14.8056 2136 110.177 164.904 478.392
2340 0 148.281 14.3512 2128 111.581 164.434 475.587
2341 0 152.237 14.438 2198 110.499 164.767 475.382
2342 0 158.193 14.4633 2288 108.917 166.098 472.073
2343 0 163.33 13.8921 2269 109.689 166.223 471.413
2344 0 168.27 14.1915 2388 109.221 165.171 468.162
2345 0 174.255 13.8934 2421 106.762 164.841 464.807
2346 0 175.253 14.3278 2511 154.112 163.904 466.18
2347 1 102.215 12.8552 1314 104.25 166.005 499.959
2348 0 104.157 12.7979 1333 104.499 164.899 498.897
2349 0 109.113 13.5365 1477 101.008 164.796 496.902
2350 0 111.165 13.1336 1460 105 164.047 494.84
2351 0 115.124 12.569 1447 105.262 163.683 493.279
2352 0 119.179 13.0811 1559 102.118 163.523 491.936
2353 0 122.15 12.5665 1535 103.4 164.047 490.014
2354 0 125.158 12.8557 1609 104.139 163.072 487.874
2355 0 131.197 12.9653 1701 102.877 162.734 486.986
2356 0 133.156 13.0073 1732 103.711 162.908 484.997
2357 0 137.216 12.7828 1754 103.768 163.314 480.749
2358 0 143.176 13.3751 1915 101.29 162.783 479.987
2359 0 149.233 13.0736 1951 101.943 162.577 475.482
2360 0 155.173 13.6879 2124 99.2684 162.317 472.815
2361 1 71.0854 9.42528 670 84.7448 162.982 521.064
2362 0 75.1072 10.1322 761 85.1866 162.752 519.15
2363 0 75.1265 9.61046 722 87.0983 162.533 517.187
2364 0 79.1108 10.4284 825 85.8994 161.865 515.668
2365 0 80.1745 9.51674 763 92.0472 161.983 514.097
2366 0 82.2125 9.54843 785 91.814 161.819 512.941
2367 0 85.1905 10.412 887 92.0485 161.939 510.494
2368 0 87.2227 10.6509 929 92.0775 160.692 508.469
2369 0 91.2141 10.9632 1000 90.555 162.768 510.713
2370 0 94.3897 11.4949 1085 89.7853 162.455 510.067
2371 0 97.2825 11.7801 1146 89.9799 161.976 506.394
2372 0 98.1117 10.9467 1074 93.014 162.013 501.277
2373 0 103.259 10.9046 1126 91.595 161.925 500.153
2374 0 109.254 11.5511 1262 89.8051 162.409 499.029
2375 0 110.233 11.14 1228 92.9324 162.052 496.061
2376 0 115.284 12.2133 1408 91.0462 161.756 495.866
2377 0 116.242 11.7427 1365 93.9216 162.001 492.265
2378 0 121.29 11.6167 1409 95.0177 162.4 489.919
2379 0 125.268 11.4953 1440 95.775 161.917 487.422
2380 0 128.197 10.8349 1389 98.0576 162.369 486.289
2381 1 75.1331 7.78618 585 89.8427 162.051 513.973
2382 0 79.1659 8.47587 671 88.7586 162.525 509.747
2383 0 82.1877 7.84789 645 92.5581 162.479 509.437
2384 0 83.0681 8.43886 701 93.4964 163.742 507.188
2385 0 86.0487 7.69332 662 93.6148 163.239 506.308
2386 0 91.1093 8.60505 784 92.1658 163.219 504.503
2387 0 89.1396 7.97625 711 95.827 163.342 499.57
2388 0 90.1354 6.74541 608 97.2303 163.433 498.013
2389 0 99.1597 9.89313 981 91.4944 162.642 499.798
2390 0 98.2706 7.91691 778 95.8149 162.59 498.189
2391 0 101.141 8.43379 853 95.4174 162.476 492.454
2392 0 111.28 10.9454 1218 87.4015 163.169 494.297
2393 0 113.258 10.816 1225 88.3298 163.051 491.884
2394 0 117.258 10.7541 1261 87.9897 163.198 491.189
2395 0 119.325 11.0119 1314 88.8706 162.835 486.519
2396 0 121.293 10.2726 1246 91.4791 162.652 484.816
2397 0 120.251 12.0414 1448 88.3018 162.588 484.344
2398 0 128.305 11.2077 1438 90.7976 162.741 481.162
2399 0 131.287 11.4101 1498 91.0521 162.53 479.299
2400 0 134.313 11.4732 1541 92.0136 162.353 477.533
2401 0 136.319 11.2824 1538 94.0084 163.352 472.531
2402 0 142.285 12.0955 1721 92.2806 163.038 472.782
2403 0 145.261 12.0128 1745 94.0413 163.002 469.12
2404 0 151.292 11.8248 1789 94.6853 163.28 468.343
2405 0 155.318 12.5549 1950 93.3503 163.659 465.921
2406 0 160.218 11.9899 1921 95.7314 163.941 463.792
2407 0 165.228 12.516 2068 95.1891 163.338 461.997
2408 0 169.272 12.3115 2084 96.1449 164.119 461.267
2409 0 172.21 11.9389 2056 98.2797 163.62 456.598
2410 1 110.19 8.52164 939 91.1949 165.078 493.136
2411 0 113.204 9.54033 1080 89.6389 165.606 493.996
2412 0 115.165 9.44731 1088 93.2601 165.47 488.316
2413 0 118.167 10.3921 1228 95.4186 164.293 487.557
2414 0 122.234 10.6681 1304 97.2883 163.824 483.408
2415 0 124.185 9.84819 1223 101.771 164.653 483.205
2416 0 129.209 10.9435 1414 98.7786 165.171 483.136
2417 0 132.209 10.3699 1371 101.09 164.726 480.974
2418 0 137.232 10.5224 1444 101.307 165.345 477.525
2419 0 141.233 10.727 1515 99.8251 165.161 478.16
2420 0 144.258 10.6892 1542 100.338 165.578 476.933
2421 0 146.312 10.7168 1568 101.898 164.912 475.904
2422 0 151.305 10.7597 1628 102.135 165.156 471.38
2423 0 155.229 10.7518 1669 101.264 164.915 469.88
2424 0 159.16 10.235 1629 104.719 164.784 466.774
2425 0 164.204 9.98757 1640 104.806 164.957 464.976
2426 0 169.273 10.6928 1810 103.778 164.775 463.042
2427 0 175.371 10.7315 1882 104.184 164.892 459.867
2428 0 179.31 11.126 1995 104.295 164.894 458.607
2429 0 182.279 10.8515 1978 107.152 164.595 452.432
2430 0 189.333 11.3345 2146 106.825 164.1 449.284
2431 0 194.321 11.7846 2290 107.687 164.517 446.202
2432 0 200.324 12.4499 2494 107.729 164.066 442.139
2433 0 205.35 11.9357 2451 110.326 164.149 435.985
2434 0 211.337 12.208 2580 110.236 164.076 432.846
2435 0 216.382 11.4797 2484 112.014 164.121 429.924
2436 0 223.374 12.7768 2854 107.429 163.25 430.656
2437 0 230.465 13.0866 3016 107.215 163.557 425.842
2438 0 235.568 12.7097 2994 108.412 163.448 423.775
2439 0 239.504 12.0875 2895 110.55 164.152 420.324
2440 0 244.506 12.7768 3124 108.257 163.98 417.908
2441 0 252.501 12.4158 3135 108.514 164.209 414.136
2442 0 258.564 13.0645 3378 106.583 164.225 412.077
2443 0 266.518 13.2899 3542 106.023 164.017 406.572
2444 0 273.586 12.6797 3469 108.089 164.795 402.59
2445 0 273.442 11.5089 3147 111.998 164.012 405.038
2446 0 273.509 9.46586 2589 116.554 164.762 406.392
2447 1 38.0183 6.73359 256 69.625 167.793 532.715
2448 0 39.0305 6.55897 256 67.4688 167.711 533.363
2449 0 38.0137 5.73477 218 69.6514 167.702 535.413
2450 0 44.0124 6.47544 285 68.4246 168.484 532.607
2451 1 33.0081 7.60419 251 67.4382 168.044 537.243
2452 0 32.0095 7.52901 241 68.1079 167.838 536.822
2453 0 31.018 7.83417 243 71.0123 167.16 536.831
2454 0 31.0567 7.56682 235 74.2043 168.038 537.426
2455 0 29.0949 6.73658 196 77.1786 167.923 538.092
2456 1 317.823 15.8579 5040 90.0133 163.669 375.167
2457 0 319.701 13.1467 4203 99.5667 162.626 381.147
