time division length width area intensity CMx CMy
2566 0 58.0808 11.5701 672 89.0149 868.472 459.298
2567 0 59.0583 11.1923 661 90.0651 869.169 458.174
2568 0 60.0621 10.8887 654 89.9404 868.534 457.269
2569 0 63.0718 11.0668 698 89.914 868.648 455.994
2570 0 67.133 12.006 806 97.5819 869.017 455.077
2571 0 68.1012 11.7179 798 99.8997 869.246 453.434
2572 0 70.1241 11.8647 832 99.5 869.113 452.138
2573 0 72.1117 11.9398 861 99.3926 868.848 452.294
2574 0 75.1278 12.299 924 96.8398 868.444 451.624
2575 0 77.0981 11.9458 921 98.0521 868.748 450.662
2576 0 78.0806 11.8851 928 98.4138 869.13 449.096
2577 0 81.0948 12.023 975 98.9262 868.918 446.702
2578 1 43.0099 9.27693 399 99.0827 868.987 466.411
2579 0 43.0121 10.0437 432 97.8657 869.178 466.146
2580 0 45.0236 11.2608 507 95.9152 868.72 465.393
2581 0 47.0393 10.7782 507 96.426 868.588 466.103
2582 0 48.0494 10.8846 523 87.4015 871.287 465.732
2583 0 49.0538 11.0491 542 87.7011 871.443 466.035
2584 0 51.1041 11.5255 589 86.6604 871.192 464.53
2585 0 51.1041 11.6233 594 126.874 871.204 464.508
2586 0 53.0759 11.9263 633 86.9115 870.951 462.615
2587 0 54.136 11.4896 622 87.8344 870.198 462.923
2588 0 56.104 12.0491 676 87.0547 870.97 461.533
2589 0 56.104 12.0134 674 128.001 871.978 461.558
2590 0 60.0933 11.8483 712 88.1152 871.32 460.298
2591 0 61.037 12.6808 774 87.2868 871.425 459.424
2592 0 65.133 12.7432 830 86.7084 871.631 458.637
2593 0 64.0497 12.8494 823 86.7691 871.781 457.29
2594 0 69.0335 12.6171 871 86.0608 871.346 457.23
2595 0 66.0452 11.9615 790 91.0646 871.728 456.181
2596 0 69.0342 11.7188 809 91.7948 871.7 455.822
2597 0 71.0605 11.5676 822 92.9672 871.871 455.835
2598 0 73.0455 12.102 884 92.6188 870.714 453.372
2599 0 75.0709 12.2418 919 92.6355 870.851 451.826
2600 0 78.1186 11.969 935 92.893 870.771 452.189
2601 0 81.0705 11.8662 962 93.8368 871.58 451.701
2602 0 84.0336 12.3522 1038 93.5607 871.12 450.602
2603 0 84.1622 12.2383 1030 94.5408 870.122 447.669
2604 0 89.1455 11.9804 1068 94.8596 870.14 448.519
2605 0 92.2755 12.7228 1174 93.4932 870.948 446.156
2606 0 94.2016 12.6219 1189 94.4676 870.521 445.255
2607 1 50.1366 11.2692 565 95.2407 871.216 466.671
2608 0 50.1786 11.1601 560 96.1107 870.895 465.973
2609 0 52.1059 11.6493 607 93.5601 870.791 464.677
2610 0 53.0775 11.926 633 96.6746 870.773 464.011
2611 0 54.1492 12.484 676 96.8713 870.21 463.546
2612 0 56.1346 12.7551 716 95.8841 870.268 462.359
2613 0 56.1618 12.9448 727 98.4154 870.619 462.634
2614 0 60.1194 13.1904 793 97.0492 870.375 460.738
2615 0 61.2169 13.1663 806 98.2283 870.143 460.619
2616 0 62.037 12.5731 780 100.963 869.055 459.519
2617 0 64.1682 13.1374 843 99.8185 870.611 458.652
2618 0 65.0877 12.6291 822 103.158 870.732 458.328
2619 0 67.12 13.1257 881 102.383 870.807 457.285
2620 0 70.2499 14.178 996 98.9809 869.892 457.357
2621 0 71.1465 13.8447 985 100.605 870.521 455.832
2622 0 72.2009 14.0857 1017 100.076 870.527 455.756
2623 0 75.2406 13.3837 1007 102.524 871.471 453.949
2624 0 78.3477 13.8741 1087 99.9641 870.042 453.267
2625 0 77.2718 13.1096 1013 102.673 870.511 450.573
2626 0 81.1829 13.3033 1080 99.1222 869.896 449.793
2627 0 84.0764 12.5481 1055 98.0825 869.842 448.785
2628 0 86.1382 12.3406 1063 92.3104 869.69 446.795
2629 0 88.1109 12.4275 1095 92.7598 869.576 445.586
2630 0 93.1586 12.4733 1162 94.9647 869.634 444.484
2631 0 96.2162 12.4719 1200 94.5025 869.983 443.762
2632 0 99.1789 12.4522 1235 95.5571 870.155 442.612
2633 0 101.147 12.2298 1237 96.6006 870.187 438.918
2634 0 104.229 12.5205 1305 96.0927 870.137 438.403
2635 0 108.258 12.8674 1393 94.1945 870.126 437.973
2636 0 111.195 12.6355 1405 94.474 869.941 436.186
2637 0 115.226 12.7835 1473 94.0869 869.986 435.072
2638 0 118.2 12.1151 1432 96.7633 870.168 432.457
2639 1 60.0792 10.9189 656 89.5229 870.462 461.405
2640 0 63.1428 11.3235 715 88.2266 869.303 460.326
2641 0 64.139 12.0364 772 87.6943 869.532 458.275
2642 0 65.1213 11.6398 758 89.3245 869.669 459.062
2643 0 66.1016 11.7244 775 89.4813 869.494 457.866
2644 0 71.133 12.5539 893 88.505 869.506 455.782
2645 0 72.1311 11.8534 855 90.2023 869.575 455.851
2646 0 74.1794 12.3619 917 90.8321 869.967 452.731
2647 0 79.2497 12.1515 963 90.4029 870.286 453.485
2648 0 80.2147 12.1424 974 90.768 869.557 452.046
2649 0 81.1955 12.2544 995 91.4774 869.356 451.162
2650 0 82.28 12.4575 1025 92.6517 870.095 449.244
2651 0 86.2053 13.0734 1127 91.339 869.77 447.905
2652 0 90.2495 12.6649 1143 91.6728 869.5 446.999
2653 0 91.2696 12.0741 1102 93.7196 870.058 445.025
2654 0 94.3182 12.0974 1141 93.6643 869.706 443.558
2655 0 97.2819 12.0372 1171 93.9821 869.462 442.068
2656 0 100.188 12.3668 1239 93.9241 869.845 439.258
2657 0 105.227 12.7534 1342 91.6073 869.728 440.8
2658 0 109.346 12.9222 1413 91.8316 869.279 437.933
2659 1 57.1945 11.1199 636 86.6305 870.278 463.972
2660 0 59.1665 12.0338 712 85.5913 870.226 462.735
2661 0 61.1814 12.3567 756 86.3757 870.89 461.319
2662 0 61.2044 12.2214 748 88.7928 870.011 459.484
2663 0 63.1623 12.2858 776 88.7771 869.951 458.736
2664 0 65.1797 11.9976 782 90.6036 869.325 458.738
2665 0 66.1765 12.512 828 90.8684 869.957 457.975
2666 0 68.257 12.3357 842 92.7447 869.165 452.973
2667 0 70.1671 12.0854 848 92.8856 868.65 453.416
2668 0 73.1753 12.4359 910 92.5593 869.164 450.767
2669 0 74.12 11.7512 871 94.9633 870.482 450.715
2670 0 78.1345 12.5041 977 94.8014 870.207 449.584
2671 0 80.147 12.3273 988 94.0283 870.256 448.725
2672 0 83.1455 11.6903 972 96.5 870.457 446.639
2673 0 85.1475 11.8383 1008 95.4633 871.14 444.569
2674 0 87.2018 12.4195 1083 97.9215 870.948 443.559
2675 0 92.1835 12.6704 1168 98.8887 870.683 441.274
2676 0 95.1822 12.3658 1177 100.327 870.746 440.123
2677 0 98.1356 12.2891 1206 100.436 870.712 438.93
2678 0 101.219 12.1914 1234 100.064 870.796 437.453
2679 1 52.166 11.3867 594 93.0741 869.953 462.779
2680 0 53.1203 11.201 595 94.5714 868.706 461.874
2681 0 56.1316 11.9362 670 92.2075 869.767 462.799
2682 0 56.0339 11.618 651 96.7389 869.418 460.204
2683 0 60.0742 12.3847 744 92.7406 869.567 460.515
2684 0 61.1778 12.0305 736 104.53 868.678 460.3
2685 0 64.2012 11.6197 746 102.678 868.511 458.331
2686 0 65.1575 11.7408 765 101.708 868.275 456.443
2687 0 67.1433 11.6318 781 100.716 868.654 457.117
2688 0 72.1965 12.1751 879 96.628 868.833 456.743
2689 0 74.0663 12.0568 893 95.7055 868.929 454.898
2690 0 76.1033 12.2334 931 95.6015 868.666 453.319
2691 0 78.2286 12.3868 969 94.8256 868.89 453.362
2692 0 78.112 11.9572 934 96.0931 868.921 453.039
2693 0 82.1646 12.195 1002 95.506 868.74 451.522
2694 0 86.0702 11.9321 1027 94.5862 868.819 448.011
2695 0 87.1112 11.9273 1039 93.691 868.95 446.885
2696 0 92.1302 12.6669 1167 92.9006 869.311 445.123
2697 0 92.1893 12.1381 1119 95.2377 869.173 445.017
2698 0 96.1262 12.4316 1195 92.9983 869.505 443.081
2699 0 97.1627 12.1343 1179 94.3274 868.728 442.888
2700 0 100.178 11.7291 1175 96.286 868.302 439.86
2701 0 104.169 11.7309 1222 93.3928 868.389 438.847
2702 0 107.118 12.3882 1327 93.217 868.382 437.39
2703 0 110.112 12.3238 1357 93.2845 868.617 436.996
2704 0 115.21 11.8827 1369 93.3302 868.682 432.641
2705 0 117.209 11.9786 1404 93.6517 868.766 431.869
2706 0 119.229 11.8176 1409 94.6253 869.196 428.213
2707 0 123.117 11.4932 1415 95.4855 869.265 426.886
2708 1 63.1016 9.41338 594 83.3283 867.997 460.614
2709 0 66.1431 10.2354 677 83.1905 868.959 456.82
2710 0 68.1332 10.5675 720 84.2375 869.154 456.269
2711 0 70.1142 11.0391 774 82.8669 868.866 455.999
2712 0 73.1812 11.0411 808 84.1658 868.803 454.269
2713 0 73.1227 10.8038 790 85.6342 867.82 452.859
2714 0 76.1164 11.062 842 85.1805 868.429 452.185
2715 0 78.1087 10.5238 822 86.3577 867.982 450.498
2716 0 82.1966 11.3752 935 85.4717 868.512 447.429
2717 0 84.1323 10.8401 912 86.5186 868.346 445.955
2718 0 85.1013 10.5286 896 89.1384 868.506 444.421
2719 0 87.076 10.7377 935 89.7936 868.405 442.306
2720 0 90.114 10.7641 970 89.2515 868.151 439.734
2721 0 93.1059 10.7834 1004 88.9412 867.934 440.267
2722 0 96.0749 11.21 1077 88.1448 868.371 436.565
2723 0 96.0959 10.5416 1013 90.9585 868.321 433.341
2724 0 101.136 10.4216 1054 90.6471 868.528 432.243
2725 0 105.082 11.5338 1212 88.2228 868.189 431.711
2726 1 51.0268 9.01487 460 86.3761 868.004 459.233
2727 0 54.0449 9.3996 508 85.4035 867.451 459.028
2728 0 55.0485 9.37355 516 84.8702 868.287 458.587
2729 0 56.0612 10.5242 590 82.2169 868.851 457.278
2730 0 57.0562 10.8665 620 82.6629 869.289 456.237
2731 0 60.055 10.5903 636 88.2154 868.58 454.247
2732 0 62.0986 10.7088 665 88.5489 868.841 454.089
2733 0 65.07 10.604 690 88.5101 868.241 453.623
2734 0 63.0331 10.788 680 89.7809 868.234 452.779
2735 0 65.0548 11.2213 730 89.411 868.633 451.051
2736 0 67.1316 11.321 760 89.2908 869.639 452.626
2737 0 68.1853 11.6447 794 89.5403 869.815 450.049
2738 0 70.2205 11.8911 835 89.1413 870.049 449.105
2739 0 72.1613 11.8207 853 89.7468 870.278 447.964
2740 0 76.1529 12.3567 941 88.8672 870.123 446.937
2741 0 76.1363 12.0573 918 89.7386 870.093 445.714
2742 0 79.179 12.2633 971 88.4943 869.965 446.866
2743 0 82.2065 12.5173 1029 87.6997 869.581 445.246
2744 0 81.1688 11.0141 894 85.7752 870.103 445.907
2745 0 82.1051 9.87759 811 87.8224 869.831 445.99
2746 0 85.121 11.2076 954 86.608 869.809 445.205
2747 0 86.1474 11.1205 958 86.6733 869.453 442.979
2748 0 88.154 10.5384 929 89.9742 870.459 441.276
2749 0 92.1911 11.1291 1026 89.7904 870.627 439.763
2750 0 94.1856 11.2119 1056 89.0208 870.779 439.42
2751 0 97.1309 11.222 1090 89.4615 869.813 437.146
2752 0 101.142 11.1922 1132 88.4982 870.478 435.949
2753 0 104.108 11.4401 1191 87.9404 869.37 434.34
2754 0 107.126 11.2577 1206 88.9129 869.931 431.063
2755 0 110.187 10.7998 1190 89.8235 869.863 432.276
2756 0 116.065 11.2781 1309 85.6868 869.895 427.13
2757 1 64.0821 10.705 686 80.4723 869.891 457.424
2758 0 65.0748 10.7722 701 79.8103 871.719 454.322
2759 0 66.1274 11.7198 775 79.9884 871.03 454.741
2760 0 65.1086 10.0294 653 86.8025 871.876 455.289
2761 0 68.0883 10.222 696 87.5647 871.67 454.01
2762 0 70.0884 10.501 736 86.6182 871.732 453.558
2763 0 72.0657 11.3369 817 84.9657 871.741 453.104
2764 0 74.2103 10.8745 807 85.2726 870.975 451.522
2765 0 77.2151 10.7492 830 85.5831 871.161 451.186
2766 0 80.191 11.1733 896 85.173 871.354 450.672
2767 0 81.1099 10.8988 884 88.526 871.292 447.876
2768 0 83.2928 11.3095 942 87.6454 870.686 447.058
2769 0 85.1867 11.5394 983 87.7731 870.993 446.23
2770 0 86.1512 11.6655 1005 87.6816 870.734 445.347
2771 0 89.1699 11.4837 1024 87.3809 870.867 445.317
2772 0 93.2514 11.7425 1095 87.2521 871.247 443.53
2773 0 95.2127 11.5216 1097 89.2817 870.466 439.784
2774 0 98.2124 11.5566 1135 89.5013 870.605 439.845
2775 0 101.25 11.1111 1125 87.9884 870.664 436.745
2776 0 105.147 11.6408 1224 87.1225 870.212 434.325
2777 0 109.232 11.5809 1265 87.6206 870.297 433.942
2778 1 61.0493 10.9911 671 85.4799 871.004 457.224
2779 0 65.0461 12.2528 797 81.4831 870.493 457.605
2780 0 65.0205 12.3653 804 81.8458 870.363 456.667
2781 0 68.0368 12.8166 872 80.7225 870.929 455.35
2782 0 70.0641 12.7169 891 80.6476 870.182 454.485
2783 0 70.0492 12.5341 878 81.7756 870.839 453.599
2784 0 73.0399 12.0756 882 83.2472 870.371 451.593
2785 0 78.1518 12.2966 961 81.23 870.315 450.308
2786 0 78.0766 12.7055 992 81.3306 870.683 448.677
2787 0 83.1632 12.9625 1078 79.4731 870.655 446.839
2788 0 81.1252 10.9953 892 86.1693 869.796 447.491
2789 0 85.1886 11.68 995 85.5789 869.998 445.994
2790 0 90.1326 11.4609 1033 85.4724 869.946 443.072
2791 0 91.0873 11.4835 1046 85.6071 871.599 440.09
2792 0 95.1664 11.6007 1104 85.5172 870.361 439.446
2793 0 97.1346 11.6539 1132 86.053 870.898 436.381
2794 1 52.0448 9.01146 469 86.2729 871.578 455.804
2795 0 54.1005 9.40841 509 84.1906 870.198 453.929
2796 0 58.1895 11.5313 671 85.7317 870.626 459.796
2797 0 60.18 11.6982 704 86.223 870.662 458.129
2798 0 63.24 11.4485 724 85.5939 871.062 457.907
2799 0 64.1399 11.8803 762 85.1955 870.854 457.467
2800 0 65.228 11.5748 755 85.6119 870.678 456.233
2801 0 66.1935 11.2096 742 87.0175 870.233 455.819
2802 0 70.1397 11.748 824 84.875 870.17 454.666
2803 0 71.0909 11.2391 799 86.5307 869.899 453.944
2804 0 75.195 12.1817 916 83.9192 869.213 451.868
2805 0 76.1674 11.6979 891 84.5028 870.02 452.476
2806 0 81.064 12.2002 989 83.3873 869.513 451.398
2807 0 81.1808 11.3697 923 85.4485 869.464 450.815
2808 0 86.2518 12.3592 1066 82.7008 869.14 448.548
2809 0 88.1241 12.2781 1082 82.7847 870.047 447.162
2810 0 90.0787 13.0108 1172 81.8797 869.445 445.264
2811 0 94.2223 12.5554 1183 82.7608 870.525 444.524
2812 1 46.1732 9.61596 444 83.0473 870.745 466.809
2813 0 49.0909 11.0407 542 78.845 869.611 466.129
2814 0 50.0944 10.8795 545 78.9156 869.218 466.899
2815 0 51.0274 11.0333 563 77.0284 869.165 466.837
2816 0 50.122 10.2949 516 71.5717 868.754 467.948
2817 0 53.1092 11.015 585 70.1214 868.61 466.738
2818 0 54.1425 10.6017 574 70.9355 868.78 465.458
2819 0 57.1743 11.1763 639 69.6604 869.088 464.563
2820 0 57.1475 11.0066 629 70.3148 869.024 464.808
2821 0 60.1405 11.3235 681 69.3994 869.079 463.292
2822 0 59.0614 10.5314 622 71.3794 868.666 462.251
2823 0 61.0876 11.3771 695 70.4691 868.77 460.253
2824 0 63.0967 11.1733 705 70.2837 869.182 460.638
2825 0 66.1543 11.1709 739 71.138 868.896 459.497
2826 0 65.0634 11.2506 732 71.6011 869.137 459.068
2827 0 69.13 11.0227 762 72.1601 869.486 458.635
2828 0 71.1379 11.794 839 75.4029 869.374 456.145
2829 0 75.1456 11.5775 870 72.5793 869.197 454.776
2830 0 77.104 11.3353 874 73.4897 868.995 452.844
2831 0 80.1076 11.6094 930 72.8624 869.049 451.306
2832 0 81.1196 11.4892 932 74.6202 869.372 451.42
2833 0 86.2128 12.2372 1055 73.7555 869.111 449.76
2834 0 89.109 11.2671 1004 81.2082 869.079 448.144
2835 1 44.0946 10.9991 485 77.0165 868.674 470.381
2836 0 45.1235 10.7261 484 76.0579 868.884 470.8
2837 0 46.0636 11.419 526 74.7224 868.719 469.186
2838 0 49.0606 11.496 564 75.8812 869.144 468.713
2839 0 50.0709 11.9231 597 74.5829 868.767 467.821
2840 0 51.0841 12.2543 626 76.1597 868.732 467.494
2841 0 51.1181 11.6593 596 78.5721 868.601 466.732
2842 0 54.1359 11.2679 610 78.0623 868.782 465.507
2843 0 57.1356 11.849 677 77.2083 868.292 464.799
2844 0 57.1466 12.0917 691 78.097 868.482 465.117
2845 0 60.091 12.1649 731 78.223 868.116 463.538
2846 0 60.1451 12.553 755 79.3815 868.838 463.691
2847 0 63.1495 11.9082 752 80.0851 868.904 462.537
2848 0 65.1901 12.5172 816 80.1054 868.811 461.877
2849 0 68.1599 11.7224 799 88.8911 868.217 459.921
2850 0 70.1387 12.3042 863 87.7729 868.511 459.16
2851 0 72.0698 12.1688 877 88.2406 868.669 457.633
2852 0 77.1341 12.3551 953 86.9192 869.239 456.906
2853 0 77.201 12.0983 934 87.5139 869.517 457.552
2854 1 39.1429 11.0365 432 86.7384 868.887 474.986
2855 0 42.1501 10.3677 437 87.5492 868.815 473.78
2856 0 43.1242 11.0147 475 87.8947 869.324 472.488
2857 0 43.1628 11.2133 484 85.1343 868.975 472.221
2858 0 45.1058 12.0384 543 82.291 868.91 471.195
2859 0 47.1459 11.5387 544 83.193 869.838 469.244
2860 0 49.1532 12.2678 603 80.0415 870.486 469.668
2861 0 50.1404 11.9664 600 81.495 870.46 469.083
2862 0 50.1467 12.3039 617 80.7374 869.564 467.558
2863 0 53.1035 12.5039 664 79.0813 870.024 465.599
2864 0 54.1403 11.8581 642 81.7243 869.681 465.058
2865 0 56.0557 11.8632 665 81.8977 869.436 464.114
2866 0 57.098 12.5574 717 80.2134 869.937 463.587
2867 0 58.2061 12.4042 722 81.5125 869.123 463.439
2868 0 60.082 12.2333 735 82.1129 869.325 463.399
2869 0 61.0903 13.0299 796 80.4975 868.677 460.053
2870 0 63.0903 11.9987 757 83.0489 869.359 459.898
2871 0 66.0876 13.24 875 83.5646 868.944 458.538
2872 0 66.1382 11.99 793 84.2926 869.571 456.518
2873 0 70.0621 12.1036 848 82.4575 868.904 456.249
2874 0 70.1099 11.6674 818 84.1443 869.302 455.345
2875 0 73.0896 11.4243 835 85.812 868.958 453.593
2876 0 75.0916 11.5592 868 86.2316 869.775 451.518
2877 1 40.0573 10.4101 417 87.1727 868.602 471.242
2878 0 41.0977 10.4872 431 88.5986 868.956 470.148
2879 0 43.1287 11.3382 489 85.1493 868.677 468.791
2880 0 43.0794 11.6065 500 85.33 868.386 468.5
2881 0 45.0888 11.555 521 84.6814 868.864 468.664
2882 0 45.1498 11.7165 529 85.259 869.473 467.047
2883 0 48.0463 11.4057 548 86.5602 869.724 465.504
2884 0 49.135 12.2723 603 87.0282 869.605 465.68
2885 0 50.07 11.7236 587 87.7019 869.261 465.569
2886 0 54.0965 12.2374 662 86.2508 869.807 463.988
2887 0 53.0827 12.0566 640 89.7969 869.684 463.464
2888 0 57.0836 12.4204 709 89.4669 869.822 463.78
2889 0 57.0967 12.4 708 90.613 869.205 461.547
2890 0 60.1364 12.7211 765 98.0549 869.478 461.549
2891 0 60.1757 11.9483 719 93.7483 869.232 460.768
2892 0 62.155 12.131 754 90.9244 869.037 460.154
2893 0 63.1667 12.0475 761 100.396 869.26 459.656
2894 0 65.1421 12.8028 834 101.137 868.791 457.543
2895 0 65.1186 12.4849 813 108.146 869.124 457.873
2896 0 65.2913 12.5744 821 102.558 869.14 457.87
2897 0 67.1228 12.5591 843 104.196 869.327 457.626
2898 0 67.1303 12.9003 866 105.371 868.703 458.539
2899 0 68.1803 12.7603 870 105.857 869.477 456.985
2900 0 71.1471 12.7342 906 103.798 869.458 456.779
2901 0 73.155 12.453 911 100.256 869.706 455.338
2902 0 73.0969 12.3535 903 99.4917 869.434 453.501
2903 1 40.0444 10.5133 421 93.0641 869.247 471.033
2904 0 40.0541 10.6356 426 92.8709 869.702 470.425
2905 0 41.0541 10.9368 449 92.078 869.298 469.664
2906 0 42.0922 11.0947 467 91.167 869.747 469.411
2907 0 44.0919 11.7028 516 88.4031 869.506 469.374
2908 0 44.1697 11.32 500 91.138 869.648 469.89
2909 0 46.0849 11.4354 527 90.7628 869.207 468.112
2910 0 48.1784 11.831 570 94.193 868.714 466.737
2911 0 48.0601 11.5064 553 96.141 869.66 467.156
2912 0 48.064 11.9216 573 96.5724 869.698 466.368
2913 0 49.0813 11.593 569 99.2179 869.482 466.402
2914 0 50.0891 11.6991 586 99.0307 869.283 465.469
2915 0 52.0802 11.8471 617 99.4246 869.652 464.476
2916 0 54.0987 12.2739 664 99.134 869.146 464.806
2917 0 54.0607 11.9495 646 100.481 869.43 465.24
2918 0 56.1832 12.1923 685 102.02 869.591 463.213
2919 0 56.067 12.3067 690 103.906 869.442 462.871
2920 0 57.0868 12.0168 686 106.143 869.8 461.589
2921 0 59.0847 11.8643 701 108.061 869.857 460.161
2922 0 60.0742 11.8687 713 110.731 869.808 461.234
2923 0 62.0705 11.793 732 112.261 869.191 461.128
2924 0 64.1668 12.2026 783 114.074 870.179 460.123
2925 0 64.0979 11.9973 769 118.234 869.463 458.577
2926 0 67.1298 12.2003 819 116.674 869.586 459.427
2927 0 69.1093 11.9231 824 119.09 869.589 457.367
2928 0 70.0984 12.3683 867 120.15 869.669 456.098
2929 0 71.1574 12.114 862 122.122 868.904 454.899
2930 0 74.2499 11.798 876 123.411 870.016 455.63
2931 0 76.3047 12.1356 926 124.283 869.428 453.998
2932 1 39.1429 10.1423 397 120.106 868.854 472.882
2933 0 42.1313 10.7996 455 118.297 868.618 471.211
2934 0 41.1525 11.3966 469 117.028 868.957 470.714
2935 0 43.107 11.3207 488 119.156 869.213 468.459
2936 0 46.1423 11.7029 540 119.565 869.561 466.828
2937 0 46.126 11.7721 543 125.077 869.735 465.648
2938 0 48.1268 12.6333 608 121.35 869.947 464.992
2939 0 47.2131 12.6236 596 123.589 869.487 463.874
2940 0 46.1045 10.7365 495 117.475 869.44 467.279
2941 0 48.0929 10.9788 528 115.701 868.892 467.481
2942 0 48.0624 10.9025 524 116.933 869.071 466.01
2943 0 48.0787 10.8572 522 136.519 868.082 465.946
2944 0 51.0615 11.0651 565 116.365 868.924 464.642
2945 0 53.0952 11.1498 592 114.311 869.655 464.049
2946 0 55.0611 10.8425 597 112.871 869.042 464.183
2947 0 56.0378 10.1182 567 114.721 868.979 462.243
2948 0 57.0492 10.5172 600 112.05 868.773 462.657
2949 0 59.0843 10.9166 645 111.307 868.992 461.488
2950 0 60.0376 10.7932 648 110.299 869.165 458.381
2951 0 64.0537 11.4747 735 108.407 868.743 458.988
2952 0 66.1258 11.463 758 112.33 868.799 460.644
2953 0 66.1033 10.7559 711 115.983 868.242 459.414
2954 0 70.0442 10.9931 770 115.712 868.894 457.81
2955 0 72.0618 10.9212 787 114.208 868.344 457.061
2956 0 74.1185 10.9015 808 114.422 869.006 453.947
2957 0 75.0808 10.1491 762 115.71 868.827 453.995
2958 0 79.067 10.9022 862 112.184 868.198 452.817
2959 0 83.0454 10.8615 902 110.399 868.187 451.264
2960 0 85.1231 10.9371 931 110.638 868.73 449.144
2961 0 88.0474 11.4597 1009 108.57 868.625 449.096
2962 1 48.03 10.5559 507 107.574 868.203 468.394
2963 0 49.0647 10.8836 534 107.861 868.562 466.26
2964 0 51.03 11.1111 567 106.896 868.642 461.843
2965 0 51.1051 11.2513 575 97.9252 868.885 462.343
2966 0 54.0703 11.4296 618 95.5858 868.812 465.055
2967 0 54.0772 11.761 636 95.2233 868.961 464.58
2968 0 57.0265 11.9593 682 93.3798 868.331 462.569
2969 0 54.0355 10.1415 548 103.286 869.35 405.974
2970 0 60.0748 12.0516 724 93.0097 868.649 461.091
2971 0 62.0712 11.519 715 93.379 869.049 459.894
2972 0 63.0882 11.5394 728 93.3173 868.655 459.419
2973 0 63.088 11.5077 726 115.956 868.656 459.459
2974 0 68.0894 12.3514 841 90.3472 869.227 457.162
2975 0 68.1112 11.0995 756 94.7844 869.185 459.778
2976 0 70.0533 11.6768 818 93.2873 869.262 459.317
2977 0 73.1127 11.407 834 93.9257 869.517 458.482
2978 0 76.1051 11.2082 853 95.5217 869.662 456.773
2979 0 76.2174 11.441 872 96.7122 869.571 455.929
2980 0 80.084 11.3631 910 98.0088 869.171 454.652
2981 0 83.0957 11.9621 994 97.8199 869.386 453.041
2982 0 85.0817 12.0825 1028 97.5496 868.787 449.894
2983 1 47.0538 10.8174 509 98.6346 870.849 466.246
2984 0 46.1967 11.4294 528 98.4053 870.864 467.826
2985 0 48.1773 11.8728 572 97.4266 870.58 466.126
2986 0 50.1387 11.4083 572 101.266 870.708 467.617
2987 0 52.154 11.1976 584 102.426 870.589 466.202
2988 0 51.13 11.5197 589 102.805 870.401 466.194
2989 0 54.1478 11.8564 642 101.597 870.949 465.682
2990 0 55.1376 11.6617 643 103.022 870.361 464.048
2991 0 58.1423 11.5751 673 101.884 870.294 463.908
2992 0 58.1232 11.7337 682 101.265 870.537 464.535
2993 0 61.2054 11.6656 714 100.211 871.263 463.768
2994 0 63.1905 12.5335 792 98.0732 870.742 462.946
2995 0 65.1156 11.6869 761 99.2076 870.849 461.265
2996 0 66.1117 11.7831 779 99.9474 870.154 460.479
2997 0 69.173 11.7242 811 99.963 870.514 457.957
2998 0 69.1828 11.4624 793 100.368 869.77 458.163
2999 0 73.1698 11.4801 840 98.1274 870.367 457.982
3000 0 75.1305 12.1522 913 97.5674 869.512 453.274
3001 0 76.2018 11.627 886 99.7009 870 452.861
3002 0 79.1728 11.1907 886 100.52 870.102 451.582
3003 0 82.1105 11.655 957 99.2163 870.256 449.806
3004 0 85.1708 11.1658 951 101.353 870.503 448.498
3005 0 87.1348 11.9585 1042 98.6631 870.654 446.489
3006 0 89.1071 11.3122 1008 100.185 870.559 446.35
3007 0 91.1048 11.5801 1055 97.4351 870.269 446.371
3008 1 49.0213 9.95485 488 93.8504 871.092 465.654
3009 0 50.0317 10.4934 525 90.5448 870.848 465.55
3010 0 51.0663 10.2024 521 89.1766 871.534 466.392
3011 0 52.0562 10.7768 561 87.6845 871.399 464.569
3012 0 55.0689 11.5855 638 87.906 871.467 462.966
3013 0 57.0404 11.6935 667 87.0195 871.063 461.864
3014 0 60.0426 12.5577 754 84.1538 871.073 459.873
3015 0 61.0882 12.4738 762 84.9528 870.602 460.336
3016 0 62.0529 11.8931 738 87.0081 870.821 458.568
3017 0 63.0688 12.0979 763 86.8978 870.422 456.9
3018 0 65.0417 11.6387 757 86.642 870.923 455.626
3019 0 69.0606 11.946 825 84.7479 870.719 453.088
3020 0 70.0699 12.145 851 85.3655 870.456 453.054
3021 0 70.0758 11.3734 797 87.2886 870.444 452.59
3022 0 75.1034 11.624 873 85.638 870.357 450.787
3023 0 76.0987 12.878 980 83.8255 870.047 449.604
3024 0 78.1126 11.6754 912 86.6151 870.077 448.134
3025 0 81.1559 12.3466 1002 86.2076 870.523 446.767
3026 0 80.1125 12.1579 974 89.9086 870.121 446.74
3027 0 84.0881 11.8923 1000 90.711 870.31 446.193
3028 0 89.0775 12.5621 1119 86.8481 870.374 444.013
3029 0 92.1665 12.5425 1156 89.0026 869.862 443.056
3030 0 95.1461 12.3599 1176 90.8087 870.506 441.81
3031 0 95.1328 12.5614 1195 94.3339 870.184 440.416
3032 0 99.1473 12.0225 1192 95.7701 870.155 436.128
3033 0 101.129 12.6966 1284 94.8575 869.984 434.653
3034 0 105.136 12.6217 1327 96.2562 870.078 429.775
3035 0 108.171 12.7946 1384 97.6452 870.511 430.098
3036 0 110.103 11.6346 1281 103.328 870.896 430.082
3037 0 113.24 11.798 1336 104.07 869.561 433.653
3038 1 61.1285 11.3204 692 98.9408 869.792 457.165
3039 0 63.0953 10.6981 675 101.948 870.172 456.36
3040 0 63.2491 11.6523 737 101.094 870.457 455.365
3041 0 65.1367 11.2686 734 103.805 870.18 453.851
3042 0 65.1146 10.1513 661 109.573 870.351 450.076
3043 0 67.1215 10.6076 712 109.003 870.42 450.952
3044 0 73.1516 11.9888 877 105.14 870.242 450.333
3045 0 74.2112 12.3836 919 102.947 870.637 452.832
3046 0 79.217 12.5731 996 103.324 870.503 451.099
3047 0 81.199 12.7588 1036 103.852 870.597 450.187
3048 0 80.1349 12.4166 995 107.76 870.133 448.499
3049 0 84.149 12.7868 1076 106.514 870.924 447.303
3050 0 86.1656 12.6152 1087 107.874 870.665 446.111
3051 0 88.1837 13.177 1162 107.664 870.479 445.06
3052 0 92.1677 12.6943 1170 108.781 870.913 444.016
3053 0 94.2217 13.3727 1260 106.903 870.563 442.233
3054 0 95.1495 13.2423 1260 108.308 870.301 439.382
3055 0 99.2495 13.0782 1298 109.595 870.257 438.53
3056 0 102.227 13.1667 1346 110.461 870.62 437.625
3057 0 102.316 12.911 1321 113.023 869.829 436.21
3058 0 107.245 13.5857 1457 108.237 870.616 436.515
3059 0 109.24 12.7151 1389 111.361 870.06 433.879
3060 0 110.313 12.7637 1408 111.338 870.054 431.759
3061 0 114.161 13.1831 1505 107.091 869.754 432.517
3062 0 115.055 12.1334 1396 99.687 869.799 430.6
3063 0 120.078 12.317 1479 99.8411 869.311 429.748
3064 0 124.101 12.6994 1576 101.435 869.243 427.318
3065 0 130.107 12.1823 1585 101.891 869.478 425.174
3066 1 71.1688 10.5383 750 94.656 869.319 456.539
3067 0 74.1046 11.4163 846 94.0402 869.54 454.505
3068 0 76.1349 12.005 914 93.5886 869.802 453.418
3069 0 78.1294 12.9529 1012 92.8389 869.845 451.217
3070 0 80.1515 12.1146 971 92.241 869.317 452.071
3071 0 80.1381 11.8545 950 94.1758 869.605 450.611
3072 0 82.1379 11.2981 928 94.6476 869.444 449.137
3073 0 88.151 11.8093 1041 90.2949 869.454 449.206
3074 0 90.1154 11.8626 1069 90.5538 869.633 446.848
3075 0 92.0975 11.9004 1096 89.9161 869.989 444.743
3076 0 96.1214 11.9432 1148 88.8711 869.784 444.766
3077 0 99.0882 12.2921 1218 89.0952 869.552 442.153
3078 0 103.094 12.7554 1315 89.108 869.98 440.142
3079 0 106.127 12.6452 1342 89.8294 869.852 436.684
3080 0 109.133 12.0037 1310 92.0374 869.321 436.497
3081 1 55.0984 10.7444 592 87.6554 868.78 462.228
3082 0 58.047 11.4045 662 85.4033 869.474 461.011
3083 0 60.0924 11.8651 713 82.791 868.649 461.565
3084 0 61.1048 11.6194 710 84.9183 869.431 459.738
3085 0 62.0497 11.0073 683 85.4012 869.01 459.713
3086 0 62.0565 10.6194 659 87.8042 869.715 457.965
3087 0 65.0556 11.0213 717 85.0725 869.725 458.084
3088 0 68.0684 11.5178 784 85.1798 869.938 457.034
3089 0 69.0661 11.5107 795 85.8189 868.975 456.235
3090 0 70.0938 11.2563 789 87.2624 869.046 454.621
3091 0 73.0525 11.8408 865 85.015 869.149 454.467
3092 0 77.0808 11.6501 898 86.3797 868.916 453.053
3093 0 79.0758 11.078 876 85.8687 868.769 451.006
3094 0 80.2006 10.8727 872 86.9094 869.688 449.509
3095 0 84.0737 11.7397 987 86 869.343 448.517
3096 0 86.0571 11.5272 992 88.9597 868.824 447.028
3097 0 89.0837 11.3713 1013 90.0454 869.131 447.858
3098 1 47.1074 9.95598 469 86.8465 870.352 466.857
3099 0 48.1253 9.80773 472 86.7669 870.051 466.392
3100 0 51.1336 10.893 557 84.6535 870.142 463.212
3101 0 52.1014 12.015 626 84.2891 869.238 463.498
3102 0 52.1679 10.9071 569 86.5343 870.237 463.251
3103 0 56.1555 11.8599 666 84.4444 869.746 463.318
3104 0 57.1133 12.2563 700 83.8786 869.631 462.666
3105 0 58.1483 11.4363 665 85.9353 869.97 461.693
3106 0 58.149 12.1928 709 86.1227 870.693 460.285
3107 0 60.0943 11.4154 686 87.3571 869.456 459.449
3108 0 62.1432 11.9724 744 86.4637 869.978 459.832
3109 0 65.1299 11.7458 765 85.2954 869.511 459.46
3110 0 67.1968 11.8607 797 86.3287 870.243 455.772
3111 0 67.1219 12.3656 830 86.1398 870.233 455.981
3112 0 68.0541 10.2272 696 79.546 869.595 456.091
3113 0 72.1034 10.9704 791 78.2946 869.077 454.812
3114 0 73.1472 11.1829 818 79.4156 868.792 453.7
3115 0 75.12 10.3168 775 82.7716 869.07 451.91
3116 0 79.0918 11.5815 916 81.5841 868.972 451.603
3117 0 81.0974 11.4677 930 83.3667 868.373 450.686
3118 1 46.0224 9.79959 451 81.0754 868.55 467.65
3119 0 47.006 9.91364 466 81.9678 869.017 465.974
3120 0 47.0376 11.2888 531 85.8154 868.661 464.798
3121 0 49.1072 11.648 572 84.3147 870.409 464.28
3122 0 50.2082 11.0938 557 85.1059 870.18 466.038
3123 0 51.1485 11.5937 593 85.4418 869.973 464.035
3124 0 53.123 11.7651 625 86.7792 869.819 462.675
3125 0 55.1713 11.6365 642 86.9143 869.597 462.171
3126 0 55.1348 11.9707 660 87.8773 870.062 462.176
3127 0 56.0745 11.5561 648 88.7701 870.011 461.41
3128 0 58.1181 12.3025 715 87.4308 869.825 460.897
3129 0 59.083 12.2539 724 88.6133 870.065 461.175
3130 0 61.0955 12.5377 766 89.8355 869.718 459.993
3131 0 63.1369 13.051 824 88.8689 869.837 457.692
3132 0 65.0833 12.8297 835 89.3246 870.989 457.002
3133 0 67.0754 12.7021 852 90.1174 871.17 456.865
3134 0 69.0739 12.4215 858 90.6142 870.564 455.929
3135 0 70.0414 12.407 869 91.5834 870.032 453.793
3136 0 74.0648 12.5296 928 91.0754 870.186 452.877
3137 0 76.0648 12.6208 960 90.9906 870.486 451.698
3138 0 79.0404 12.6265 998 91.4299 871.047 451.665
3139 1 43.0317 10.4806 451 90.6408 871.457 468.831
3140 0 43.0532 10.5451 454 90.7753 871.427 468.172
3141 0 43.0518 11.1261 479 89.0313 870.641 467.474
3142 0 45.1222 11.081 500 84.766 870.604 466.642
3143 0 48.0653 11.7548 565 81.9593 870.393 465.674
3144 0 47.0857 11.3623 535 83.1607 871.08 465.71
3145 0 50.0774 11.5022 576 82.3264 870.29 465.304
3146 0 51.0712 11.3371 579 83.0397 870.547 464.06
3147 0 52.1132 11.6861 609 82.8736 870.662 461.629
3148 0 53.0767 11.7 621 83.715 870.937 462.68
3149 0 55.0694 11.5309 635 84.2283 870.586 461.291
3150 0 56.0858 11.2684 632 84.8117 870.517 459.78
3151 0 60.0558 12.1887 732 80.8866 870.519 458.952
3152 0 61.1864 11.8817 727 83.1513 871.076 458.393
3153 0 64.1028 11.7623 754 83.2149 870.81 456.711
3154 0 65.1206 12.0085 782 83.8402 870.615 455.662
3155 0 66.0937 11.6653 771 86.2698 870.095 455.556
3156 0 68.0405 11.5813 788 87.0964 870.447 455.912
3157 0 69.0736 11.3068 781 88.9347 870.777 453.951
3158 0 73.052 12.0599 881 87.4972 871.09 452.268
3159 0 74.0647 12.0165 890 89.1022 870.979 452.448
3160 0 78.083 12.333 963 88.5234 870.611 450.484
3161 0 80.1036 12.2591 982 90.0662 870.561 448.829
3162 0 82.1583 12.2203 1004 91.4163 871.202 447.503
3163 0 84.1586 11.3595 956 100.271 870.907 446.205
3164 1 46.0151 9.7142 447 99.1253 871.293 465.327
3165 0 46.0544 10.5093 484 98.7645 871.355 463.512
3166 0 47.0506 11.0732 521 97.6027 871.472 463.994
3167 0 47.0929 10.8721 512 96.5508 870.898 464.242
3168 0 51.1633 11.864 607 92.3427 870.577 464.509
3169 0 49.0975 10.8763 534 94.6948 870.575 465.577
3170 0 50.093 10.1811 510 97.7392 870.704 464.625
3171 0 53.0851 11.1519 592 94.6993 870.343 464.451
3172 0 53.0954 10.6601 566 96 870.422 464.613
3173 0 56.0534 11.2393 630 95.3714 870.281 463.638
3174 0 56.1099 10.9072 612 95.598 870.301 463.57
3175 0 59.1122 11.2498 665 93.2361 869.603 461.314
3176 0 59.1532 11.5125 681 93.2746 870.391 461.344
3177 0 63.0772 11.0658 698 93.9728 870.192 460.153
3178 0 65.0878 10.8776 708 94.5085 870.915 459.462
3179 0 64.0629 10.8487 695 95.1784 870.508 459.039
3180 0 66.0282 10.4349 689 95.8128 871.184 456.845
3181 0 70.0367 10.8943 763 95.422 870.16 455.24
3182 0 72.1151 11.2043 808 94.7092 870.55 454.351
3183 0 74.0808 11.393 844 94.8863 869.966 451.454
3184 0 76.0477 11.3876 866 95.8406 870.166 451.217
3185 0 78.0593 10.3383 807 99.7732 870.266 449.337
3186 0 80.0455 11.0812 887 97.3303 870.182 448.945
3187 0 82.0739 10.7342 881 96.6118 870.539 447.781
3188 0 86.0506 11.8303 1018 95.6002 870.465 446.389
3189 0 89.0791 10.6085 945 92.0952 869.961 438.776
3190 0 92.0712 10.4376 961 93.486 869.165 437.579
3191 1 52.0431 9.39606 489 88.863 868.658 457.282
3192 0 55.0318 11.3207 623 94.6982 870.225 461.352
3193 0 57.0848 11.9296 681 92.6344 870.402 460.561
3194 0 59.1061 11.5724 684 102.778 869.806 459.061
3195 0 61.2065 12.1556 744 100.966 870.11 459.358
3196 0 62.2044 11.8641 738 102.491 870.203 456.541
3197 0 64.1218 11.6653 748 100.639 870.29 456.179
3198 0 63.142 12.3848 782 102.487 869.789 454.847
3199 0 66.0943 12.346 816 101.121 869.858 452.741
3200 0 69.12 12.0804 835 100.15 870.661 452.941
3201 0 72.0795 12.5972 908 97.9108 869.981 451.494
3202 0 75.0665 12.6954 953 97.7303 870.998 450.191
3203 0 76.0666 12.0552 917 100.201 870.216 449.936
3204 0 81.0942 13.0712 1060 95.9142 869.563 449.298
3205 0 83.0723 12.459 1035 99.0599 869.623 446.816
3206 0 85.0905 12.8451 1093 98.0247 869.932 445.25
3207 0 87.0636 12.0142 1046 99.5268 870.421 445.08
3208 0 89.0629 11.4975 1024 101.559 870.133 442.753
3209 0 94.0946 12.5193 1178 99.8404 870.179 439.511
3210 0 99.0686 12.7286 1261 96.9381 870.006 438.805
3211 0 100.077 12.7501 1276 97.9522 870.37 438.923
3212 0 102.101 12.7521 1302 98.5737 871.016 435.442
3213 1 54.014 10.8676 587 93.0903 871.274 463.141
3214 0 56.0811 10.6096 595 90.3412 871.45 463.069
3215 0 57.0384 11.5536 659 88.8316 871.109 460.011
3216 0 58.0324 12.2173 709 85.1354 870.883 458.622
3217 0 61.09 12.5225 765 82.8183 871.183 458.393
3218 0 59.0573 10.9724 648 87.25 871.344 460.838
3219 0 62.0348 11.7192 727 85.6781 871.179 460.543
3220 0 61.0426 11.0906 677 87.5524 871.489 459.245
3221 0 65.1567 11.3112 737 85.7585 870.902 458.007
3222 0 67.0649 10.3929 697 86.7059 871.611 458.142
3223 0 70.05 10.8066 757 85.8653 871.589 456.363
3224 0 72.0548 10.7141 772 85.2927 871.214 455.354
3225 0 74.0661 11.2602 834 83.8993 871.001 451.93
3226 0 76.0655 9.92566 755 86.9046 870.849 451.223
3227 0 80.0786 11.9508 957 82.6019 870.638 449.191
3228 0 82.0458 11.652 956 83.0649 870.046 448.81
3229 0 86.1049 11.9854 1032 81.9351 869.817 447.258
3230 0 88.0644 11.6165 1023 82.5191 869.361 444.959
3231 0 89.1335 11.3762 1014 83.431 870.034 442.35
3232 0 94.0958 12.3385 1161 81.3118 870.024 438.631
3233 0 97.0812 11.7531 1141 81.9965 869.558 437.642
3234 0 100.106 11.7176 1173 82.393 869.731 437.095
3235 0 103.08 11.4766 1183 82.9992 869.566 435.313
3236 0 109.188 12.2907 1342 80.9598 869.023 433.911
3237 1 58.0111 10.6014 615 82.3008 868.915 458.296
3238 0 59.0757 11.1213 657 83.4018 868.785 456.846
3239 0 61.0672 11.7903 720 83.7958 869.642 455.836
3240 0 62.1156 11.5269 716 85.4288 869.895 455.302
3241 0 64.0915 11.2808 723 84.8202 869.491 454.31
3242 0 68.1025 11.3946 776 85.0902 870.214 452.628
3243 0 70.1151 11.9375 837 83.914 869.73 452.17
3244 0 70.0978 11.6266 815 85.8319 870.212 450.487
3245 0 75.096 12.211 917 83.9487 869.281 449.823
3246 0 77.1317 12.0703 931 85.6939 869.176 448.84
3247 0 80.1437 12.1407 973 86.1562 869.088 446.929
3248 0 82.107 12.3376 1013 86.2991 869.669 446.772
3249 0 85.1092 12.6308 1075 85.9107 869.223 444.858
3250 0 87.1197 12.4771 1087 87.6035 869.799 443.842
3251 0 90.1401 12.7579 1150 86.9322 870.328 441.674
3252 0 94.0927 12.7853 1203 87.0175 869.331 440.206
3253 0 97.0903 13.0085 1263 86.635 869.164 440.003
3254 0 100.109 13.1756 1319 87.4443 869.662 436.452
3255 0 102.11 13.1133 1339 88.2606 869.712 436.369
3256 0 107.092 12.7927 1370 88.7263 869.133 434.338
3257 0 109.063 12.6716 1382 88.754 869.52 432.187
3258 0 112.091 12.5613 1408 89.7145 870.082 431.603
3259 0 117.114 13.0045 1523 89.2377 869.384 428.817
3260 0 120.141 12.0442 1447 89.9157 869.704 427.04
3261 0 121.213 11.0136 1335 85.1176 869.936 427.715
3262 0 126.161 11.1445 1406 86.9196 870.704 427.021
3263 1 70.0866 11.7426 823 85.8433 870.598 452.205
3264 0 70.0671 11.5889 812 79.3645 870.56 454.315
3265 0 73.0602 12.3597 903 77.7885 870.77 452.554
3266 0 76.0696 13.1064 997 76.3069 870.493 453.013
3267 0 80.1219 12.7431 1021 77.1577 869.617 451.267
3268 0 81.0771 12.2846 996 78.7751 870.017 450.107
3269 0 82.067 12.1852 1000 80.214 869.336 448.911
3270 0 85.048 12.5223 1065 80.2 869.322 448.35
3271 0 87.1028 12.3991 1080 80.838 869.599 445.803
3272 0 89.2 11.5919 1034 82.9043 869.729 444.746
3273 0 92.1453 12.2307 1127 81.6167 869.501 443.197
3274 0 96.0922 12.0821 1161 81.7382 868.746 441.17
3275 0 97.083 12.0515 1170 83.1479 869.773 439.509
3276 0 101.036 12.1739 1230 83.5854 869.697 436.076
3277 0 104.108 11.4976 1197 84.7636 869.476 437.903
3278 0 106.047 11.0045 1167 87.3728 868.948 432.497
3279 1 58.0566 11.1271 646 86.017 869.827 460.062
3280 0 59.0403 11.2804 666 82.6847 869.492 457.643
3281 0 61.1139 11.5358 705 79.2468 868.793 454.74
3282 0 61.0473 11.6467 711 81.4023 869.225 456.899
3283 0 64.0963 11.7635 754 80.6963 869.708 454.963
3284 0 65.0479 11.4685 746 81.9249 870.18 453.897
3285 0 69.1016 11.8666 820 82.0061 870.26 452.92
3286 0 67.0625 10.7512 721 87.3245 870.376 452.971
3287 0 72.0761 11.363 819 86.5629 869.659 450.908
3288 0 74.0368 11.4538 848 87.9823 869.792 450.763
3289 0 76.0954 11.9981 913 87.7306 869.911 450.264
3290 0 80.0304 12.3953 992 86.2903 870.263 448.384
3291 0 81.084 12.3082 998 85.988 869.27 446.776
3292 0 85.0845 12.6462 1076 85.7928 869.502 444.932
3293 0 88.1352 12.3674 1090 86.0413 869.696 442.873
3294 0 89.0637 12.07 1075 86.5274 869.394 440.698
3295 0 92.1167 12.0608 1111 86.4932 869.559 437.845
3296 0 98.1029 13.1597 1291 83.0372 869.508 433.949
3297 1 52.0849 11.6732 608 83.75 869.817 457.938
3298 0 53.0844 11.3781 604 84.7765 869.972 457.73
3299 0 55.0936 11.7618 648 85.1404 869.509 457.671
3300 0 55.0378 12.0826 665 85.6962 870.11 454.692
3301 0 56.048 11.6507 653 87.6462 870.305 455.285
3302 0 58.0867 12.0165 698 86.4842 870.236 454.271
3303 0 60.0923 12.2645 737 87.0176 869.934 451.199
3304 0 61.0272 12.4043 757 86.0291 870.251 451.443
3305 0 62.091 12.2723 762 87.6037 869.568 450.739
3306 0 65.0877 12.3218 802 87.3803 870.337 449.504
3307 0 67.0614 13.1223 880 87.0807 869.392 449.81
3308 0 67.06 13.3313 894 86.3255 869.655 450.432
3309 0 69.0449 12.9481 894 87.4072 869.157 450.167
3310 0 72.0588 12.8645 927 87.2686 869.782 448.08
3311 0 73.0752 12.9456 946 88.4831 869.19 447.495
3312 0 75.0591 12.8565 965 88.8373 869.663 447.322
3313 0 78.0607 13.0539 1019 87.475 869.216 445.418
3314 0 80.0949 13.2218 1059 87.2663 869.495 444.193
3315 0 82.1002 13.6662 1122 87.1444 869.324 443.376
3316 0 85.1381 13.1316 1118 88.7245 869.501 441.75
3317 0 86.115 12.971 1117 89.0519 869.936 439.651
3318 0 86.1122 12.9598 1116 135.399 869.941 439.649
3319 0 95.1978 13.3091 1267 87.0442 869.26 437.846
3320 0 96.1372 13.6472 1312 86.5252 869.372 435.9
3321 1 46.0271 10.9284 503 87.672 869.459 461.05
3322 0 49.0676 12.0446 591 85.4061 869.503 458.651
3323 0 50.0785 12.3806 620 84.9274 869.576 458.173
3324 0 52.0394 12.7211 662 78.1314 869.427 454.787
3325 0 53.0416 12.4054 658 80.4392 869.79 454.956
3326 0 56.0707 12.7161 713 79.0084 869.885 455.548
3327 0 56.0455 12.8824 722 79.2188 869.465 452.609
3328 0 58.0561 13.5903 789 77.4943 869.474 451.843
3329 0 58.0294 12.1145 703 82.3016 870.263 452.195
3330 0 60.0576 12.0884 726 83.186 870.204 450.521
3331 0 64.0313 12.775 818 80.7616 870.758 450.253
3332 0 65.0609 13.0493 849 80.9753 869.949 450.019
3333 0 67.0446 13.5283 907 80.6582 869.932 448.702
3334 0 71.0925 13.2081 939 81.278 869.728 447.958
3335 0 73.0718 13.7262 1003 80.7697 870.545 446.382
3336 0 74.0793 13.6745 1013 81.5459 869.702 444.839
3337 0 77.0656 13.4042 1033 82.7793 869.422 444.179
3338 0 80.1258 13.8407 1109 82.8693 869.945 442.743
3339 0 84.0984 14.5187 1221 81.602 869.856 441.974
3340 0 85.1027 14.0654 1197 83.3709 869.884 441.056
3341 0 86.103 14.0646 1211 84.896 869.811 439.829
3342 0 90.084 14.3533 1293 84.3241 869.253 437.913
3343 0 93.1356 13.8615 1291 86.4965 869.936 440.079
3344 0 94.0875 13.2961 1251 89.1966 869.578 437.413
3345 0 97.082 13.2156 1283 88.9719 869.248 437.439
3346 0 102.09 13.9485 1424 87.4235 868.883 435.436
3347 0 106.142 13.8023 1465 88.6901 869.269 432.847
3348 0 108.195 12.9397 1400 91.2543 869.36 430.621
3349 0 113.116 13.6585 1545 89.0939 870.203 428.983
3350 1 64.0369 12.1024 775 90.6219 870.254 452.631
3351 0 66.0769 12.773 844 90.5829 869.455 451.609
3352 0 69.0748 12.9135 892 91.5135 869.845 451.01
3353 0 71.062 13.8752 986 90.9868 869.786 450.06
3354 0 73.0783 13.4103 980 93.6786 869.926 449.223
3355 0 75.041 13.9257 1045 93.9407 869.633 446.455
3356 0 77.0989 13.2946 1025 96.7356 870.326 445.785
3357 0 79.0548 13.6994 1083 95.0646 869.538 443.917
3358 0 82.0749 13.4146 1101 97.2534 869.698 444.281
3359 0 86.1194 13.6903 1179 96.3147 870.192 443.275
3360 0 88.0904 13.577 1196 97.6263 869.696 440.87
3361 0 90.0817 13.5766 1223 97.1513 869.371 439.443
3362 0 93.1206 14.1 1313 96.6626 869.679 438.592
3363 0 97.074 14.1644 1375 96.88 869.674 437.403
3364 0 98.0939 13.8235 1356 98.4838 869.955 435.81
3365 0 101.073 14.168 1432 98.433 869.6 434.601
3366 0 104.066 13.7605 1432 100.219 870.089 433.179
3367 0 108.12 13.9567 1509 98.2757 868.828 432.861
3368 0 112.118 13.3698 1499 100.417 869.37 430.185
3369 0 115.116 13.6036 1566 98.2535 869.571 427.19
3370 0 120.116 14.4444 1735 96.9429 869.312 424.489
3371 1 58.0523 11.4724 666 96.3619 868.763 455.824
3372 0 59.0611 11.141 658 96.5198 870.071 454.169
3373 0 63.0749 11.6845 737 95.5102 869.301 453.338
3374 0 63.0427 11.7698 742 96.5916 869.462 452.218
3375 0 64.0598 12.1449 778 97.8522 868.539 451.371
3376 0 66.0665 12.2301 808 97.5804 869.027 451.656
3377 0 69.0525 12.3529 853 97.9894 868.968 450.001
3378 0 68.0472 11.9182 811 100.455 869.374 448.118
3379 0 73.1345 13.1538 962 96.473 869.401 448.06
3380 0 75.1536 12.867 967 96.4943 869.441 446.648
3381 0 78.0691 12.5274 978 97.7219 869.125 441.726
3382 0 78.0705 12.1044 945 101.066 868.156 440.194
3383 0 79.0519 12.1566 961 101.371 868.783 440.197
3384 0 83.0813 12.4216 1032 100.579 869.537 438
3385 0 85.1009 12.1503 1034 101.262 869.663 437.094
3386 0 90.0878 12.3435 1112 100.344 869.415 435.109
3387 0 92.1195 12.842 1183 100.331 869.001 432.014
3388 0 94.0921 12.6897 1194 99.1131 868.762 432.24
3389 0 99.0837 12.878 1276 98.0556 869.138 429.76
3390 0 103.096 12.9007 1330 97.3835 868.474 429.565
3391 0 104.112 12.4386 1295 98.4873 868.928 427.944
3392 1 58.0624 10.3854 603 92.6285 868.672 452.187
3393 0 61.0612 11.2346 686 91.8965 868.942 451.557
3394 0 62.0815 11.2755 700 92.4014 869.341 451.13
3395 0 62.0815 11.1788 694 135.218 870.32 450.942
3396 0 65.1287 11.2239 731 92.933 868.434 448.135
3397 0 68.068 11.4004 776 91.9059 868.68 447.209
3398 0 69.0601 11.0628 764 94.2945 869.287 444.745
3399 0 71.1396 11.0768 788 93.9061 869.454 444.747
3400 0 75.0757 11.202 841 93.239 868.853 443.559
3401 0 77.1186 11.4758 885 93.9367 869.256 441.747
3402 0 78.1142 11.24 878 95.2688 869.235 440.192
3403 0 81.062 11.7688 954 93.631 868.43 439.698
3404 0 82.0734 11.7334 963 94.5109 868.342 439.821
3405 0 86.0897 10.9769 945 90.109 868.667 441.159
3406 0 87.0351 11.4092 993 91.5891 868.623 438.113
3407 0 91.0583 11.1906 1019 92.42 868.545 438.843
3408 0 91.0435 11.4561 1043 92.8428 868.704 438.152
3409 0 98.0838 11.7247 1150 90.293 869.021 436.778
3410 0 99.0968 11.8874 1178 92.0195 869.336 435.663
3411 0 102.077 11.315 1155 93.484 868.349 433.935
3412 1 54.0523 9.3428 505 92.7248 869.311 457.549
3413 0 55.0578 9.66258 532 92.3929 870.188 457.107
3414 0 59.1038 10.71 633 91.3934 869.19 457.987
3415 0 58.0322 9.99445 580 84.2034 869.228 463.031
3416 0 59.175 9.46345 560 84.3679 868.682 461.207
3417 0 62.0449 9.477 588 84.1803 868.616 461.043
3418 0 64.0865 10.283 659 84.431 868.112 456.751
3419 0 67.112 9.96841 669 85.3169 867.978 458.676
3420 0 67.112 9.95351 668 116.326 866.957 458.561
3421 0 70.1411 10.8638 762 87.1824 868.014 456.022
3422 0 73.0944 11.3689 831 86.2262 867.883 456.347
3423 0 78.0913 11.7043 914 85.8053 867.802 454.153
3424 0 79.0877 11.5947 917 88.8299 867.399 451.516
3425 0 82.1458 12.5143 1028 87.1839 867.468 453.517
3426 0 85.0832 12.1528 1034 90.44 868.01 450.325
3427 0 86.0992 12.2417 1054 96.2391 868.143 449.747
3428 0 90.0545 11.7151 1055 97.9355 867.5 447.248
3429 0 93.2027 11.77 1097 97.9262 867.472 445.046
3430 0 94.0906 12.0097 1130 97.485 867.322 444.967
3431 0 98.0527 11.2592 1104 97.9665 867.893 444.074
3432 0 101.135 11.5192 1165 98.2541 867.422 441.286
3433 1 54.1314 10.9363 592 91.4932 868.199 465.588
3434 0 54.102 10.8129 585 92.3778 867.663 468.238
3435 0 57.0671 10.4614 597 92.6097 868.62 466.372
3436 0 57.0352 11.7471 670 94.4985 866.972 463.563
3437 0 58.082 11.8798 690 92.7623 867.846 465.128
3438 0 60.0753 12.4177 746 92.055 867.934 460.975
3439 0 62.1059 11.9956 745 92.8322 869.187 461.302
3440 0 64.1463 12.1129 777 93.9755 868.762 460.273
3441 0 65.049 12.7289 828 92.372 868.22 458.921
3442 0 67.1822 11.9377 802 93.9401 868.369 458.214
3443 0 69.0865 12.2889 849 94.1531 868.841 456.932
3444 0 70.1085 12.6518 887 93.805 868.621 455.576
3445 0 72.1526 11.9192 860 96.5337 869.17 453.514
3446 0 76.0802 12.4605 948 94.9135 868.678 449.408
3447 0 79.1667 12.9095 1022 94.589 868.859 450.436
3448 0 80.1766 12.8466 1030 97.4903 868.498 448.294
3449 0 84.2022 12.5888 1060 110.338 868.819 447.537
3450 0 85.1764 12.7265 1084 110.808 868.442 446.911
3451 0 89.0916 12.5152 1115 110.849 868.404 445.493
3452 0 89.0974 12.8511 1145 111.988 868.696 442.871
3453 0 92.1217 12.668 1167 111.471 868.973 443.606
3454 0 95.0453 13.0675 1242 110.988 868.855 440.271
3455 0 97.1539 13 1263 111.546 868.659 439.693
3456 0 101.18 13.6489 1381 110.509 868.371 437.907
3457 0 101.079 12.4853 1262 114.395 869.116 437.139
3458 0 105.083 12.5901 1323 113.947 869.328 436.449
3459 0 111.07 13.316 1479 111.657 869.6 433.956
3460 0 112.063 12.7517 1429 113.091 869.176 431.807
3461 1 57.0701 10.8463 619 106.008 868.992 460.892
3462 0 60.0786 11.3019 679 104.367 869.116 458.829
3463 0 62.0879 12.2085 758 102.563 868.832 458.467
3464 0 62.0173 11.6258 721 93.6768 868.394 457.438
3465 0 66.0431 11.5531 763 92.6383 868.071 455.739
3466 0 68.0836 11.9265 812 92.5653 868.808 455.824
3467 0 71.0652 12.0171 854 92.3126 868.42 455.203
3468 0 71.0806 11.4518 814 94.3784 869.585 453.106
3469 0 75.0473 12.3122 924 91.3344 868.578 450.715
3470 0 75.0676 12.3888 930 127.282 867.589 450.372
3471 0 76.1083 11.8515 902 94.0344 868.205 449.788
3472 0 80.1461 11.9906 961 92.1863 868.155 448.573
3473 0 81.0495 11.5362 935 93.7134 868.533 445.142
3474 0 84.1498 11.3369 954 94.4088 867.937 447.643
3475 0 86.146 10.6447 917 97.1897 868.684 445.491
3476 0 90.0945 11.721 1056 93.2453 868.874 444.253
3477 0 90.0599 11.2148 1010 95.3881 869.343 443.535
3478 0 92.1133 10.7802 993 96.2538 869.355 442.177
3479 0 92.1133 10.7802 993 130.345 868.352 442.073
3480 0 98.1563 11.716 1150 95.1078 869.703 439.039
3481 0 101.078 11.4466 1157 96.4935 869.516 437.56
3482 0 103.09 12.0865 1246 95.5241 869.742 436.05
3483 0 107.129 11.3414 1215 95.9975 870.162 434.181
3484 0 109.104 11.5303 1258 95.8792 869.804 431.946
3485 0 114.11 12.0673 1377 97.5585 870.269 428.359
3486 0 118.128 12.4103 1466 98.5819 870.336 425.512
3487 0 123.126 12.8648 1584 100.957 869.619 423.925
3488 0 125.186 12.7091 1591 101.926 870.32 422.762
3489 0 130.186 13.5037 1758 100.318 869.567 420.557
3490 0 134.175 14.0041 1879 99.2187 870.757 419.252
3491 0 138.124 13.7919 1905 100.838 870.218 417.603
3492 0 143.123 13.8343 1980 101.239 870.155 415.688
3493 0 147.155 13.6659 2011 101.683 870.606 412.554
3494 0 153.113 13.4541 2060 101.061 870.157 412.793
3495 1 80.1969 11.9082 955 97.6094 870.174 450.32
3496 0 82.1141 11.8981 977 98.1494 869.448 448.565
3497 0 84.0982 12.3784 1041 100.951 869.62 444.947
3498 0 87.1128 12.7306 1109 98.5645 869.805 445.412
3499 0 90.0754 12.6339 1138 99.4323 870.249 443.954
3500 0 92.0596 12.6331 1163 99.4807 869.821 442.129
3501 0 94.1283 12.8654 1211 98.8588 869.518 441.903
3502 0 98.1962 13.086 1285 98.3782 869.161 441.181
3503 0 101.137 12.6956 1284 98.5639 869.948 439.991
3504 0 104.133 13.8092 1438 95.6586 869.432 437.989
3505 0 108.235 14.062 1522 95.5059 869.584 439.365
3506 0 110.109 13.741 1513 96.2082 869.372 438.697
3507 0 116.152 14.2141 1651 93.4706 869.159 436.027
3508 0 118.199 13.8665 1639 95.7041 869.2 435.004
3509 0 123.27 13.4015 1652 95.2948 869.527 434.357
3510 0 127.18 12.8637 1636 96.7775 869.641 430.263
3511 0 132.26 12.362 1635 97.3865 869.375 429.054
3512 0 137.22 12.8188 1759 96.1131 869.608 425.048
3513 0 142.241 13.1959 1877 94.7507 869.729 425.124
3514 1 78.2005 11.7007 915 90.1027 869.654 454.687
3515 0 82.1589 12.3785 1017 89.3776 869.735 452.719
3516 0 84.3134 12.3942 1045 89.5981 869.877 451.61
3517 0 87.2063 12.4303 1084 89.631 869.383 448.268
3518 0 91.2631 12.7872 1167 88.2279 869.075 448.509
3519 0 91.3857 12.3105 1125 90.4809 869.482 447.453
3520 0 95.1397 12.2136 1162 90.315 869.631 446.716
3521 0 97.2197 12.4152 1207 90.4217 869.271 443.459
3522 0 101.178 12.3841 1253 90.0136 868.985 443.953
3523 0 105.189 13.2904 1398 89.0787 869.301 441.033
3524 0 109.229 13.6136 1487 87.0693 869.307 441.323
3525 0 112.245 13.2567 1488 89.5444 869.273 438.004
3526 0 114.27 13.0918 1496 89.5334 868.869 436.366
3527 0 117.25 13.3475 1565 91.7527 869.684 433.19
3528 0 121.259 13.1949 1600 90.9919 868.679 430.983
3529 0 126.257 13.5834 1715 90.028 868.987 428.429
3530 0 130.18 13.5659 1766 89.5861 869.718 424.785
3531 0 130.18 13.6043 1771 150.873 870.708 424.689
3532 1 141.283 13.9082 1965 90.5684 869.125 422.07
3533 0 144.234 13.7693 1986 94.3031 868.537 419.478
3534 0 150.325 13.657 2053 95.2616 868.938 416.117
3535 0 158.291 14.726 2331 93.541 868.734 414.235
3536 0 162.221 14.622 2372 95.2804 869.124 407.513
3537 0 165.263 14.2197 2350 97.7226 869.027 404.547
3538 1 89.1519 11.3514 1012 93.8824 869.171 446.655
3539 0 92.1747 11.4999 1060 94.7575 869.006 444.916
3540 0 94.2925 11.528 1087 95.977 868.846 442.682
3541 0 98.1676 12.3055 1208 95.1217 869.903 441.645
3542 0 100.22 12.4326 1246 95.2063 870.039 439.449
3543 0 104.142 12.2717 1278 95.9906 870.25 437.796
3544 0 107.243 12.9892 1393 94.822 870.198 435.151
3545 0 109.192 12.7116 1388 95.7803 870.078 435.151
3546 0 113.265 13.2433 1500 94.1747 870.48 433.52
3547 0 116.247 12.439 1446 97.7994 870.317 429.201
3548 0 116.184 12.5835 1462 97.9569 870.456 428.885
3549 0 122.118 12.9711 1584 96.113 871.105 426.701
3550 0 126.112 12.6237 1592 97.2073 870.924 423.148
3551 0 126.107 12.5053 1577 138.51 870.937 423.1
3552 0 136.306 13.0075 1773 96.7417 870.68 418.065
3553 0 141.22 13.0293 1840 96.0891 870.642 415.657
3554 0 142.319 12.472 1775 99.0738 871.668 413.288
3555 1 81.1277 10.5759 858 89.3928 871.439 447.681
3556 0 82.1351 10.9332 898 90.4788 870.48 445.167
3557 0 87.1917 11.9736 1044 90.5795 870.503 442.234
3558 0 87.1397 10.9824 957 94.5465 870.886 441.581
3559 0 90.1554 10.9034 983 94.8179 870.72 440.053
3560 0 93.1473 10.8752 1013 95.6357 871.664 438.943
3561 0 96.2208 12.1284 1167 93.0574 871.38 438.298
3562 0 97.1878 11.5241 1120 96.1214 871.559 435.089
3563 0 101.184 12.5217 1267 93.6306 870.725 433.586
3564 0 104.246 11.7318 1223 96.5307 871.155 431.854
3565 0 106.185 12.0921 1284 96.1301 871.403 430.977
3566 0 109.327 12.0099 1313 96.556 871.27 429.82
3567 0 112.204 12.3525 1386 98.4949 870.453 427.385
3568 0 116.129 12.0642 1401 99.7259 871.208 425.41
3569 0 120.262 12.5061 1504 98.9694 871.759 420.837
3570 0 123.244 12.244 1509 100.292 872.001 420.887
3571 0 127.273 12.8385 1634 99.8647 872.58 417.461
3572 0 130.24 12.6613 1649 100.697 872.501 416.42
3573 0 134.26 12.7365 1710 101.365 872.688 412.983
3574 0 139.251 12.9909 1809 101.807 872.506 412.423
3575 0 141.245 12.4606 1760 105.17 872.091 409.204
3576 0 146.317 12.4797 1826 105.983 872.98 409.247
3577 0 150.24 12.9726 1949 106.601 872.927 406.577
3578 0 156.33 12.9534 2025 105.488 873.161 404.556
3579 0 162.319 12.7465 2069 105.515 873.376 401.226
3580 0 165.318 12.8358 2122 105.379 873.232 399.486
3581 0 172.251 13.1088 2258 104.39 873.635 396.424
3582 0 176.169 13.1067 2309 104.703 873.333 393.487
3583 0 182.259 12.9157 2354 105.901 874.013 391.45
3584 0 187.225 13.3262 2495 104.855 873.523 387.037
3585 0 194.172 13.2872 2580 105.476 873.746 382.63
3586 0 200.315 13.4039 2685 106.825 873.39 378.272
3587 0 206.312 13.3972 2764 109.127 873.424 377.249
3588 0 212.294 13.2882 2821 108.708 873.43 375.177
3589 0 216.313 12.4634 2696 110.638 873.9 372.014
3590 0 221.294 12.3772 2739 112.073 873.445 367.017
3591 0 228.305 12.6936 2898 110.972 873.591 366.489
3592 0 236.314 13.3932 3165 110.548 874.032 360.689
3593 1 264.345 18.6952 4942 90.708 873.613 337.221
3594 0 268.51 19.4891 5233 91.0099 873.313 334.952
3595 0 257.299 15.2935 3935 108.031 873.427 349.408
3596 0 265.283 16.1676 4289 106.88 873.249 345.354
3597 0 273.222 16.2652 4444 107.884 873.945 340.736
3598 0 282.281 16.1754 4566 107.485 873.608 335.08
3599 0 291.278 15.995 4659 108.873 873.434 332.961
3600 0 300.296 15.8943 4773 109.998 873.494 330.454
3601 0 310.334 16.5241 5128 108.776 872.969 324.265
3602 0 319.247 16.1536 5157 113.341 872.777 315.301
3603 1 266.225 18.4393 4909 102.932 873.842 334.954
3604 0 271.292 17.6046 4776 107.479 874.198 337.349
3605 0 275.321 13.7476 3785 121.761 873.475 338.111
3606 0 282.335 15.7472 4446 115.462 873.573 331.335
3607 0 292.291 15.8712 4639 115.65 873.131 327.599
3608 0 299.242 15.3722 4600 117.026 872.91 320.17
3609 0 308.289 15.3589 4735 117.509 872.463 320.698
3610 0 315.279 15.4054 4857 119.444 872.135 315.694
3611 0 325.218 15.8448 5153 118.265 872.005 309.213
3612 0 336.237 16.6162 5587 114.615 871.825 301.808
3613 0 344.31 15.759 5426 117.225 872.326 301.759
3614 0 353.303 15.6721 5537 117.845 872.268 292.31
3615 0 366.306 16.1286 5908 116.047 871.582 287.696
3616 0 377.362 15.8468 5980 118.209 871.995 277.369
3617 0 382.457 16.5247 6320 116.175 871.751 273.124
3619 0 62.1949 8.08748 503 88.3101 872.499 438.759
3620 0 66.2069 9.13803 605 86.676 871.955 445.324
3621 0 66.203 9.2594 613 87.8662 871.892 449.445
3622 0 65.0613 8.46893 551 82.4592 871.572 454.407
3623 0 68.1508 7.49807 511 83.8082 871.841 452.988
3624 0 77.1014 13.2034 1018 63.388 871.172 443.814
3625 0 80.2017 13.865 1112 62.4209 871.772 446.496
3626 0 81.141 13.9757 1134 62.7134 870.288 443.302
3627 0 83.1088 13.4763 1120 65.5795 870.454 441.854
3628 0 84.062 13.7993 1160 68.5483 870.169 440.395
3629 0 89.1393 15.0887 1345 65.5294 870.56 439.065
3630 0 91.1151 14.5421 1325 68.5449 870.235 438.004
3631 0 93.1158 14.4659 1347 71.0572 869.876 438.814
3632 0 94.0639 13.8736 1305 73.9602 869.913 439.574
3633 0 97.053 14.013 1360 74.4794 869.677 436.097
3634 0 100.166 13.857 1388 76.1837 869.842 434.401
3635 0 103.125 13.9443 1438 78.1057 869.869 432.019
3636 0 106.113 14.2302 1510 80.5073 870.155 431.21
3637 0 108.079 14.4801 1565 83.2262 869.148 427.242
3638 0 111.131 15.1083 1679 82.5873 869.259 426.789
3639 1 64.0828 9.79982 628 89.7659 868.938 452.707
3640 0 67.0867 11.0752 743 86.9731 869.306 449.293
3641 0 67.0343 10.9496 734 88.0572 869.351 451.132
3642 0 68.1309 10.3624 706 89.2323 868.619 450.204
3643 0 71.3246 11.8753 847 90.6883 869.378 453.531
3644 0 72.2656 10.9042 788 85.6865 869.367 457.048
3645 0 73.1335 11.0483 808 87.8168 869.046 453.962
3646 0 77.1963 10.5316 813 87.8942 869.341 453.498
3647 0 79.2069 10.3653 821 88.7235 869.336 453.169
3648 0 79.1993 10.3536 820 151.962 868.329 453.204
3649 0 80.2036 11.0718 888 90.9685 869.811 448.136
3650 0 83.2504 11.3393 944 89.9989 869.374 448.056
3651 0 86.367 11.3701 982 89.7627 869.801 448.278
3652 0 87.2593 11.0934 968 90.9122 869.115 445.711
3653 0 88.3253 11.6841 1032 91.1172 869.576 446.313
3654 0 90.3002 10.897 984 92.5142 869.642 443.602
3655 0 92.293 10.5642 975 92.879 870.458 441.72
3656 0 93.24 10.9717 1023 92.477 870.572 437.902
3657 0 98.1839 11.5803 1137 92.2814 870.365 435.402
3658 0 100.186 11.2691 1129 93.8742 870.378 434.242
3659 0 102.181 11.2644 1151 94.742 870.516 431.481
3660 0 104.101 11.3928 1186 92.645 870.312 426.762
3661 0 106.157 11.0779 1176 95.1216 871.336 425.132
3662 0 108.12 10.5808 1144 96.785 871.637 423.33
3663 0 115.176 11.0614 1274 97.1774 871.851 424.229
3664 1 67.1948 10.477 704 91.4503 871.082 448.044
3665 0 69.2514 10.5413 730 91.4904 871.311 447.547
3666 0 69.1018 11.7942 815 90.6577 871.368 445.367
3667 0 71.0974 11.0693 787 94.3024 871.559 445.022
3668 0 73.0714 11.5367 843 94.9205 871.326 444.324
3669 0 73.1203 11.5016 841 96.396 871.602 442.391
3670 0 77.106 11.8797 916 93.8177 872.287 441.301
3671 0 79.1138 11.9069 942 94.1348 871.811 439.305
3672 0 80.1076 11.909 954 94.4078 872.269 439.024
3673 0 81.1088 11.6757 947 96.0993 872.277 439.412
3674 0 83.1764 11.674 971 98.1329 872.108 440.954
3675 0 84.1163 11.7456 988 98.7773 871.726 441.281
3676 0 86.2757 11.7183 1011 100.397 871.26 440.036
3677 0 90.2248 11.4381 1032 100.971 870.894 439.567
3678 0 90.2452 11.5906 1046 102.43 871.51 437.772
3679 0 92.1656 11.7506 1083 102.857 872.09 434.034
3680 0 95.2419 11.959 1139 101.96 871.694 433.334
3681 0 95.144 11.5719 1101 103.178 871.778 430.787
3682 0 97.1456 11.7555 1142 102.594 871.312 429.329
3683 0 98.1339 11.6066 1139 104.572 870.79 426.861
3684 0 105.227 12.0217 1265 101.213 870.48 428.73
3685 0 108.129 12.3463 1335 102.261 871.21 425.927
3686 0 109.134 11.7196 1279 104.31 870.095 424.93
3687 0 112.199 11.8985 1335 103.735 870.083 421.199
3688 0 115.133 11.7082 1348 104.909 870.323 421.739
3689 0 120.123 12.021 1444 104.231 869.711 419.443
3690 0 121.134 11.9207 1444 105.076 870.471 416.754
3691 0 125.156 12.5044 1565 103.612 870.253 416.364
3692 0 129.103 11.7348 1515 106.269 870.915 415.704
3693 0 135.149 12.1347 1640 105.354 870.205 417.48
3694 0 139.124 12.3702 1721 105.107 869.861 414.504
3695 0 144.117 12.4829 1799 105.104 869.938 412.824
3696 0 149.143 12.4914 1863 106.602 870.231 409.885
3697 0 155.092 12.8117 1987 104.71 870.205 407.172
3698 0 160.207 11.8159 1893 107.768 869.71 405.244
3699 1 91.1236 9.89864 902 99.4424 869.645 438.113
3700 0 94.0822 10.5121 989 97.724 869.695 437.003
3701 0 98.0911 10.7247 1052 97.9914 870.298 434.768
3702 0 100.137 10.9849 1100 101.497 869.562 433.794
3703 0 103.204 11.4725 1184 99.8395 870.7 431.937
3704 0 105.234 11.5266 1213 100.089 869.826 431.318
3705 0 109.195 11.6305 1270 99.5362 869.687 430.745
3706 0 112.157 12.108 1358 99.1451 869.909 429.124
3707 0 114.124 12.2235 1395 98.6401 870.275 429.068
3708 0 117.185 11.6482 1365 101.284 870.171 426.273
3709 0 120.195 12.355 1485 105.18 870.018 427.609
3710 0 125.215 12.9378 1620 103.099 869.852 424.615
3711 0 129.14 13.2414 1710 101.86 870.155 422.507
3712 0 133.104 13.3955 1783 101.689 870.139 418.462
3713 0 135.123 12.8032 1730 103.283 870.166 417.38
3714 0 140.211 12.4812 1750 104.078 869.314 412.626
3715 0 145.263 13.0522 1896 101.531 869.38 409.932
3716 0 147.159 12.4355 1830 103.846 869.386 409.877
3717 0 151.22 12.3066 1861 104.464 868.266 405.876
3718 0 157.137 12.1932 1916 105.642 868.629 406.385
3719 0 162.185 12.572 2039 104.259 868.379 405.827
3720 0 167.22 11.9064 1991 106.66 868.653 403.692
3721 0 171.228 12.1534 2081 105.855 868.635 400.525
3722 1 100.163 10.1335 1015 94.9232 868.948 440.443
3723 0 102.154 10.6115 1084 97.0157 868.626 436.873
3724 0 106.156 11.2288 1192 95.7458 869.037 436.432
3725 0 110.151 11.9836 1320 99.7939 868.737 432.313
3726 0 114.079 11.7813 1344 100.891 869.702 430.157
3727 0 117.156 11.9328 1398 100.729 868.636 428.418
3728 0 118.089 11.9571 1412 101.436 869.453 426.959
3729 0 123.125 11.8417 1458 101.634 869.162 424.394
3730 0 125.097 12.1586 1521 101.749 869.615 423.684
3731 0 127.129 11.799 1500 104.705 868.936 420.774
3732 0 133.109 11.577 1541 102.606 869.859 421.25
3733 0 138.17 12.4629 1722 100.401 869.544 417.408
3734 0 140.102 11.6059 1626 102.329 869.235 417.94
3735 0 145.129 12.4441 1806 100.594 869.054 416.884
3736 0 149.116 11.89 1773 102.015 869.726 414.835
3737 0 152.133 12.0881 1839 104.267 870.27 409.067
3738 0 157.12 11.5453 1814 104.903 869.554 410.977
3739 0 164.178 11.9504 1962 105.033 869.587 406.865
3740 0 167.244 12.1379 2030 105.864 869.758 404.685
3741 0 172.162 11.9655 2060 108.203 869.448 400.194
3742 0 176.233 12.37 2180 108.686 870.254 396.826
3743 0 179.272 12.2161 2190 110.226 869.899 394.896
3744 0 185.163 12.1623 2252 110.756 870.627 390.089
3745 0 190.203 11.8663 2257 112.18 870.747 386.629
3746 0 195.237 12.3235 2406 111.326 870.515 384.53
3747 0 200.179 12.204 2443 113.216 871.052 380.655
3748 0 205.182 12.5255 2570 113.725 870.484 375.477
3749 0 210.265 12.9218 2717 114.114 870.757 374.276
3750 0 217.265 12.8599 2794 113.525 869.806 369.739
3751 0 223.154 12.9552 2891 113.06 870.131 366.797
3752 0 229.344 12.5052 2868 114.871 869.748 363.52
3753 1 178.162 11.2258 2000 110.811 870.067 393.62
3754 0 183.253 11.7597 2155 109.175 869.595 390.641
3755 0 190.189 12.0512 2292 109.013 869.511 385.442
3756 0 192.147 12.3811 2379 111.289 869.869 379.565
3757 0 200.242 12.2701 2457 110.536 869.216 378.739
3758 0 205.28 12.3782 2541 111.299 869.633 376.468
3759 0 212.33 12.6596 2688 113.046 868.901 373.29
3760 0 217.291 12.145 2639 113.831 869.228 368.323
3761 0 225.238 12.1427 2735 114.291 868.959 364.946
3762 0 235.301 12.7751 3006 113.041 869.628 360.014
3763 0 242.37 12.5263 3036 114.592 870.228 355.954
3764 1 184.271 11.7599 2167 113.345 869.268 387.849
3765 0 191.269 12.3543 2363 112.018 869.984 386.48
3766 0 196.279 13.6439 2678 110.67 869.647 382.732
3767 0 202.313 13.2765 2686 113.483 870.087 379.698
3768 0 208.207 12.7469 2654 116.737 870.039 374.268
3769 0 210.141 11.9777 2517 118.779 870.211 370.73
3770 0 220.17 12.2133 2689 115.625 870.61 369.827
3771 0 225.247 12.3509 2782 114.31 870.674 366.473
3772 0 232.208 12.6998 2949 115.048 870.626 365.52
3773 0 241.203 11.9899 2892 115.475 871.107 361.515
3774 0 247.153 11.6932 2890 116.353 870.591 356.746
3775 0 255.139 12.1738 3106 116.569 871.515 351.949
3776 0 262.181 14.5472 3814 112.261 871.436 341.029
3777 0 270.195 14.9337 4035 110.964 871.8 339.393
3778 1 210.149 10.6401 2236 116.681 872.079 379.317
3779 0 219.203 11.3092 2479 115.878 871.436 374.552
3780 0 228.209 11.9978 2738 115.254 871.371 369.808
3781 0 230.253 11.761 2708 119.54 870.482 355.85
3782 0 241.147 12.171 2935 118.256 870.379 356.944
3783 0 247.221 11.9812 2962 120.458 870.734 352.429
3784 0 259.21 13.1245 3402 118.408 870.31 351.922
3785 0 332.404 15.8001 5252 95.6816 870.842 325.604
3786 1 264.246 9.10892 2407 125.83 870.64 354.403
3787 1 86.1026 7.59559 654 104.735 870.969 442.59
3788 0 85.0562 7.0424 599 106.312 870.514 441.467
3789 0 85.1131 7.91888 674 105.681 869.889 441.361
3790 0 81.178 8.68461 705 107.156 869.455 436.633
3791 0 84.2127 9.40476 792 106.101 869.822 436.583
3792 0 87.2534 10.6586 930 104.387 869.966 435.609
3793 0 88.1966 10.8394 956 104.305 870.944 434.274
3794 0 90.1379 10.728 967 105.81 870.087 432.701
3795 0 94.1074 10.828 1019 99.5996 871.41 430.772
3796 0 96.0932 11.031 1060 100.397 871.543 430.04
3797 0 98.0431 10.5668 1036 105.855 871.753 426.494
3798 0 102.069 10.8652 1109 103.091 871.009 426.73
3799 0 104.104 10.7585 1120 103.798 871.306 424.566
3800 0 105.13 10.4442 1098 106.985 871.319 422.67
3801 0 111.091 13.6375 1515 95.5492 871.863 423.065
3802 0 114.117 14.1609 1616 94.1634 871.267 420.645
3803 0 118.083 14.0918 1664 92.9856 873.068 419.773
3804 0 122.12 13.7324 1677 98.2439 873.226 417.263
3805 1 74.1644 9.69468 719 92.4979 874.248 447.591
3806 0 75.1615 9.97852 750 92.1693 874.033 445.912
3807 0 76.0926 9.65928 735 91.1075 874.408 442.803
3808 0 78.0981 10.0387 784 84.1518 874.033 443.971
3809 0 79.0782 10.4074 823 84.0984 873.499 441.616
3810 0 81.1741 10.2865 835 95.2731 873.041 439.848
3811 0 83.1791 10.1708 846 95.0686 872.916 438.489
3812 0 86.2015 9.50099 819 96.6984 873.441 437.844
3813 0 87.0859 10.2887 896 96.4029 872.854 437.21
3814 0 90.1443 10.5498 951 95.2482 872.605 434.267
3815 0 92.0687 12.1866 1122 93.9545 871.865 431.306
3816 0 96.083 11.438 1099 95.6706 872.673 432.722
3817 0 95.2063 10.514 1001 99.4735 872.198 433.209
3818 0 95.1689 12.4831 1188 97.2643 872.174 430.854
3819 0 96.2292 12.491 1202 98.1281 872.197 432.217
3820 1 115.114 9.47756 1091 103.13 872.182 430.479
3821 0 114.138 9.76889 1115 103.446 872.474 428.278
3822 0 113.144 10.1199 1145 160.212 873.488 427.121
3823 0 114.111 12.0584 1376 102.079 871.64 424.443
3824 0 114.142 11.3017 1290 102.305 871.64 425.139
3825 0 118.082 11.5683 1366 102.653 872.227 420.358
3826 0 120.061 11.3526 1363 104.186 871.017 420.197
3827 0 122.101 11.8918 1452 98.3781 871.517 416.481
3828 0 128.092 12.4286 1592 101.807 871.259 416.335
3829 0 131.139 11.7585 1542 102.252 870.453 416.879
3830 0 134.121 12.5559 1684 99.2067 871.085 411.989
3831 0 137.105 11.5386 1582 100.075 871.293 411.259
3832 0 140.104 11.2488 1576 100.039 871.836 408.47
3833 1 84.1027 9.80943 825 90.1806 871.642 439.061
3834 0 87.0824 10.4269 908 88.9714 871.55 438.703
3835 0 87.0793 10.4732 912 89.9638 871.833 435.633
3836 0 90.0951 11.8208 1065 93.2967 871.532 436.113
3837 0 90.0585 8.91643 803 91.477 871.103 435.319
3838 0 90.0689 8.10491 730 93.9699 871.174 433.703
3839 0 93.0794 8.9386 832 92.3678 871.154 433.362
3840 0 98.0666 10.0646 987 90.2786 871.683 431.054
3841 0 101.077 9.72526 983 91.9797 871.741 431.762
3842 0 101.043 9.59987 970 94.4433 871.77 427.905
3843 0 106.042 10.8919 1155 91.5186 871.184 426.857
3844 0 107.053 10.4808 1122 92.82 871.594 424.75
3845 0 96.0309 7.90371 759 103.043 871.271 418.748
3846 1 112.075 11.4923 1288 92.302 871.119 420.988
3847 0 117.07 10.7969 1264 94.1741 870.79 419.213
3848 0 118.049 11.5545 1364 93.1151 870.917 417.355
3849 0 123.078 11.7811 1450 93.0655 870.941 419.894
3850 0 127.218 12.058 1534 94.0378 870.643 415.57
3851 0 131.155 12.9617 1700 93.4459 870.478 410.777
3852 0 136.148 11.7372 1598 97.9549 870.688 411.056
3853 0 139.187 12.1419 1690 97.2308 870.96 410.215
