time division length width area intensity CMx CMy
0 0 66.0545 13.7311 907 114.515 584.768 493.635
1 0 68.0395 14.0507 956 112.397 583.911 492.356
2 0 70.0167 14.1252 989 110.498 583.876 491.998
3 0 71.0526 13.9896 994 110.68 583.737 490.732
4 0 72.029 13.0503 940 112.672 583.588 491.434
5 0 75.0527 13.9768 1049 109.643 583.996 490.382
6 0 78.0339 14.4168 1125 107.314 585.053 489.384
7 0 79.0301 14.02 1108 107.583 585.136 487.97
8 0 80.0562 13.6779 1095 109.87 584.891 487.44
9 0 83.0836 13.5285 1124 109.714 584.172 486.877
10 0 86.1072 14.0523 1210 106.26 584.326 486.374
11 0 87.138 13.2089 1151 108.976 583.214 483.895
12 0 90.0549 13.836 1246 106.758 583.829 482.891
13 0 94.052 13.4713 1267 106.556 583.364 480.938
14 0 96.0542 13.5028 1297 106.439 583.318 480.418
15 0 96.0542 13.5549 1302 164.924 583.322 480.334
16 1 53.0274 12.5784 667 101.138 583.333 500.283
17 0 55.0737 12.8555 708 99.4859 583.383 499.654
18 0 56.037 12.3311 691 92.4457 582.96 500.349
19 0 56.0782 12.1794 683 93.0278 583.053 499.567
20 0 59.035 12.4672 736 93.7364 582.481 497.192
21 0 63.0514 13.259 836 96.067 582.492 496.687
22 0 65.0556 13.1733 857 95.0758 581.383 494.839
23 0 67.0604 13.4804 904 94.0763 581.714 493.646
24 0 69.0684 13.3636 923 93.4312 582.159 493.882
25 0 71.0564 13.4822 958 93.1889 581.936 492.285
26 0 74.0374 12.9934 962 94.1403 582.363 491.946
27 0 75.0457 13.0321 978 94.8896 582.429 489.457
28 0 79.0431 13.8532 1095 91.2055 581.857 488.89
29 1 41.0229 10.7257 440 92.1409 582.418 508.727
30 0 40.0231 12.3179 493 91.6531 581.515 507.75
31 0 45.009 12.6197 568 89.6673 581.873 507.526
32 0 43.0472 12.2888 529 92.4896 580.773 507.429
33 0 44.0374 12.0352 530 82.4887 581.479 507.658
34 0 45.0051 11.4876 517 84.06 581.482 508.188
35 0 45.0248 11.5492 520 87.55 581.583 507.204
36 0 47.0141 11.4221 537 87.3966 582.006 506.926
37 0 48.0302 11.8259 568 86.1673 581.75 504.921
38 0 49.0289 11.789 578 87.7561 581.405 503.367
39 0 51.0343 12.0311 614 86.5668 581.862 502.054
40 0 53.0333 12.6524 671 85.1595 581.899 501.022
41 0 55.0214 11.7954 649 86.1895 581.835 500.949
42 0 57.0546 11.6029 662 87.2387 581.752 500.893
43 0 58.0378 12.1128 703 84.899 580.727 498.344
44 0 59.0542 11.7011 691 83.2402 581.24 498.219
45 0 61.0354 11.9439 729 81.8162 581.08 495.675
46 0 62.0482 11.5233 715 81.7944 581.624 497.284
47 0 64.0726 11.0187 706 81.9788 580.766 494.406
48 0 67.0519 11.5731 776 80.9394 581.184 493.674
49 0 70.1394 11.4771 805 81.595 580.769 491.87
50 0 74.079 11.7442 870 80.9253 581.424 490.287
51 0 76.0753 12.0538 917 80.7775 581.407 490.47
52 0 77.1556 11.3926 879 82.5449 580.788 487.528
53 1 39.0287 10.6588 416 80.012 579.531 507.091
54 0 39.0208 10.8147 422 79.4645 580.287 507.071
55 0 40.0081 10.123 405 80.2691 580.479 505.753
56 0 43.0262 11.3419 488 76.498 581.723 504.334
57 0 41.024 10.7498 441 75.6644 581.095 505.193
58 0 40.0188 10.72 429 77.4615 581.249 506.186
59 0 43.0421 10.8731 468 76.2137 580.372 504.624
60 0 43.0142 10.1827 438 76.8333 581.744 503.495
61 0 44.0317 10.765 474 75.6203 581.635 504.065
62 0 47.0063 10.4667 492 75.2053 580.917 503.549
63 0 48.0352 10.9919 528 74.6212 580.464 501.938
64 0 50.0154 10.8567 543 74.2099 580.484 501.611
65 0 50.0207 11.2953 565 75.0106 580.899 500.991
66 0 53.0202 11.241 596 75.4295 580.651 499.547
67 0 54.0291 11.4013 616 75.3068 580.002 498.998
68 0 55.051 10.6992 589 76.2564 580.508 499.044
69 0 59.0472 11.0928 655 74.7374 581.067 497.725
70 0 59.1337 11.381 673 75.0312 580.389 497.698
71 0 60.0446 11.0751 665 76.9188 581.495 496.926
72 0 64.058 12.0048 769 75.1196 580.757 496.514
73 0 67.073 11.8826 797 75.9787 581.033 492.516
74 0 69.0428 11.7029 808 78.0012 580.89 493.671
75 0 72.0896 12.1932 879 79.2946 581.116 491.162
76 0 75.0702 12.9079 969 81.0341 580.498 489.73
77 0 78.0375 13.3397 1041 80.9635 580.614 488.327
78 0 79.0604 12.5221 990 83.0313 580.771 488.114
79 1 37.0159 10.2659 380 82.0868 581.06 510.008
80 0 39.0162 10.2778 401 80.6983 581.357 509.332
81 0 42.0494 11.4389 481 78.0769 581.308 508.048
82 0 41.0528 10.9859 451 78.8071 581.417 507.825
83 0 45.025 13.015 586 74.6502 581.85 506
84 0 41.0141 10.9718 450 77.5178 581.94 507.873
85 0 42.0116 10.8303 455 77.8791 581.415 507.673
86 0 46.0191 11.7125 539 75.9703 582.093 505.113
87 0 49.0471 11.1526 547 76.0969 581.384 504.947
88 0 49.0471 11.2341 551 126.936 580.405 504.933
89 0 50.0197 11.8753 594 75.8064 581.712 502.216
90 0 54.0875 11.7957 638 75.2837 581.544 502.26
91 0 53.0382 11.3692 603 76.9602 581.766 502.144
92 0 56.0698 11.3608 637 77.0016 581.65 500.242
93 0 60.0265 12.3945 744 75.5753 581.496 499.036
94 0 62.034 12.5737 780 75.6103 581.32 497.436
95 0 62.0657 11.5684 718 78.8997 581.586 496.643
96 0 65.0874 12.1068 788 77.6523 581.72 496.089
97 0 67.0391 12.172 816 77.8713 581.533 496.064
98 0 70.0466 11.8778 832 78.0397 581.501 495.935
99 0 72.0443 11.2708 812 81.1305 581.127 493.361
100 0 72.0618 11.3097 815 81.2356 580.983 492.59
101 0 76.0796 12.0794 919 79.988 581.178 490.172
102 0 80.0658 11.9901 960 79.4979 581.011 489.711
103 1 36.0379 9.60102 346 80.8988 581.405 510.624
104 0 39.0765 10.5434 412 79.4102 581.721 508.951
105 0 41.0286 11.2848 463 74.9611 582.013 509.318
106 0 42.0541 11.1761 470 76.0638 581.202 509.194
107 0 42.026 10.6839 449 77.8441 581.579 508.122
108 0 43.0247 11.0169 474 77.7637 581.224 507.099
109 0 46.0162 11.1265 512 75.9902 581.547 506.971
110 0 47.0345 11.6723 549 75.0874 581.246 506.08
111 0 49.0453 11.4792 563 75.3712 581.284 504.645
112 0 50.0194 11.4955 575 76.32 581.463 505.551
113 0 50.0184 10.916 546 77.3168 581.841 503.978
114 0 52.0097 11.6709 607 75.9044 581.394 504.611
115 0 55.0426 12.4631 686 74.5539 581.354 502.204
116 0 56.0218 12.0667 676 75.9275 581.791 501.928
117 0 56.0317 12.1181 679 76.3034 581.155 502.669
118 0 59.0478 12.2613 724 75.547 581.546 500.416
119 0 61.0533 12.743 778 75.8907 580.902 499.332
120 0 63.0304 12.4067 782 77.3453 581.26 497.783
121 0 64.0555 12.4267 796 78.1872 580.844 496.642
122 0 66.0107 12.9524 855 77.9906 581.083 495.885
123 0 69.0903 12.9975 898 78.5512 581.331 495.439
124 0 71.0668 13.4943 959 78.7883 581.529 494.117
125 0 71.0953 12.9122 918 82.9989 581.659 492.342
126 0 76.0275 13.2321 1006 85.0755 581.783 490.127
127 0 79.0835 12.9736 1026 88.8294 581.189 488.616
128 0 82.0325 13.2508 1087 88.6771 581.191 486.931
129 0 84.1003 13.3412 1122 88.9813 581.238 486.207
130 0 86.0628 13.2578 1141 90.2445 581.066 484.836
131 0 89.1707 13.2891 1185 89.7595 581.209 484.272
132 0 92.0751 13.174 1213 90.7922 581.03 482.389
133 0 95.0419 13.5414 1287 89.9666 580.851 481.511
134 0 99.122 12.9336 1282 90.525 580.87 480.548
135 0 101.113 13.1338 1328 90.2169 581.514 478.04
136 0 104.103 13.429 1398 89.7153 581.591 476.401
137 0 108.058 13.2429 1431 89.2334 581.302 475.29
138 0 112.06 12.9752 1454 89.5922 581.875 472.883
139 0 116.141 13.0187 1512 88.8452 580.694 471.068
140 1 56.0169 10.711 600 82.0667 581.357 500.36
141 0 60.0395 11.3592 682 82.3196 580.707 500.018
142 0 63.0507 11.6097 732 81.8812 580.943 498.395
143 0 64.0658 12.1906 781 82.0397 581.106 496.055
144 0 67.0649 11.9287 800 81.4112 581.028 494.891
145 0 70.0737 11.5878 812 81.7845 581.913 494.808
146 0 71.052 12.1038 860 83.1744 582.023 492.898
147 0 76.0623 12.5686 956 83.1778 580.931 490.972
148 0 77.0816 12.1689 938 84.323 581.202 490.092
149 0 79.1019 12.6925 1004 84.509 580.912 489.156
150 0 80.0877 13.223 1059 89.6601 580.602 487.239
151 0 84.1008 12.0451 1013 85.075 580.535 485.557
152 0 88.0574 12.5373 1104 82.3795 581.261 484.686
153 0 89.1515 12.0245 1072 84.3778 580.958 483.035
154 0 92.0559 12.3838 1140 83.6272 581.31 481.286
155 0 95.0926 12.5877 1197 84.9774 580.929 478.959
156 0 97.0673 12.4965 1213 84.042 581.036 478.689
157 0 101.081 11.9706 1210 84.0355 580.407 476.641
158 0 104.11 12.0929 1259 84.6569 580.862 474.561
159 0 110.277 12.3507 1362 83.3583 580.568 472.434
160 1 61.1146 11.1757 683 83.0688 580.646 495.597
161 0 61.117 10.259 627 83.5853 580.451 495.246
162 0 63.2156 10.9625 693 82.7157 580.429 494.814
163 0 65.2392 11.6035 757 83.4122 580.219 492.276
164 0 69.1716 11.8835 822 83.6582 580.27 489.934
165 0 70.1717 12.1274 851 81.9742 580.274 489.877
166 0 72.1052 11.5526 833 83.485 580.223 489.708
167 0 75.1516 12.375 930 82.2925 580.07 486.827
168 0 78.1539 12.5777 983 81.9644 580.034 484.644
169 0 80.1531 12.2266 980 82.8255 580.451 484.572
170 0 83.136 11.9443 993 84.5347 580.441 473.313
171 0 86.136 12.0739 1040 84.275 580.495 481.303
172 0 88.1302 12.6404 1114 84.3752 580.439 479.148
173 0 92.0803 12.4022 1142 84.8109 580.719 479.398
174 0 96.1172 13.1818 1267 84.1444 580.078 478.021
175 0 97.1133 12.8304 1246 85.4767 580.341 476.243
176 0 98.2136 12.1368 1192 87.1888 579.598 474.237
177 0 101.136 13.1012 1325 86.117 579.214 474.471
178 0 105.115 13.138 1381 84.1593 579.731 471.815
179 0 108.089 13.0818 1414 84.5827 580.358 470.275
180 0 110.104 13.0604 1438 85.0904 579.922 470.364
181 0 114.169 13.2961 1518 83.3617 579.87 468.255
182 0 118.134 13.1207 1550 82.8981 579.73 468.059
183 1 61.088 11.0496 675 78.3126 579.496 498.104
184 0 65.0997 11.0292 718 80.1198 579.337 494.795
185 0 67.0424 11.5449 774 79.6977 579.717 492.747
186 0 69.0592 11.9173 823 80.9636 579.847 492.599
187 0 72.0668 13.0851 943 80.4507 580.123 491.401
188 0 74.0576 13.5165 1001 74.6913 580.289 489.119
189 0 77.1052 13.0601 1007 75.6346 579.772 488.064
190 0 78.1087 12.329 963 77.217 579.751 487.595
191 0 79.0721 12.4317 983 79.2584 579.897 487.231
192 0 83.0792 12.2654 1019 79.6889 578.957 486.46
193 0 87.0719 13.0007 1132 80.5495 579.257 484.121
194 0 89.0633 13.0132 1159 83.6739 579.551 480.434
195 0 92.0597 13.0459 1201 87.2948 579.308 480.763
196 0 92.0854 12.6187 1162 88.957 579.373 479.468
197 0 96.0798 13.0933 1258 86.12 578.804 479.042
198 0 98.0873 13.4574 1320 86.203 579.128 477.167
199 0 99.0484 13.0138 1289 86.5182 579.593 477.052
200 0 101.15 12.9609 1311 87.4127 579.908 477.166
201 0 105.137 13.4681 1416 85.5685 579.385 473.422
202 0 106.097 12.9221 1371 111.376 579.689 472.358
203 0 110.096 13.125 1445 110.093 580.003 470.804
204 0 112.106 13.2375 1484 109.233 579.472 470.682
205 0 115.152 12.896 1485 109.9 579.689 470.207
206 1 63.0626 10.5451 665 103.298 579.398 493.994
207 0 66.1786 11.4387 757 103.943 579.363 494.209
208 0 69.0732 11.3648 785 99.1605 579.553 493.279
209 0 71.1186 12.0644 858 97.1399 580.176 491.649
210 0 70.0308 11.0808 776 92.4034 579.246 491.9
211 0 73.0395 11.6375 850 90.7129 579.911 489.945
212 0 76.048 11.3086 860 92.4744 579.351 489.563
213 0 80.0309 11.7829 943 90.8378 579.602 487.622
214 0 82.0256 11.4842 942 91.8121 579.55 486.38
215 0 85.0518 11.8869 1011 91.3788 579.907 485.883
216 0 86.0297 11.9145 1025 92.9327 580.03 485.505
217 0 89.076 11.507 1025 93.3171 579.952 483.583
218 0 93.0586 12.0354 1120 91.6009 579.773 482.621
219 0 95.0319 12.3432 1173 92.4339 579.163 479.604
220 0 97.0277 11.5843 1124 93.9457 579.413 478.599
221 0 102.038 12.2798 1253 92.7606 579.487 475.774
222 0 105.067 11.8115 1241 94.191 579.906 474.047
223 0 107.082 11.6827 1251 95.4005 580.13 473.5
224 0 110.069 11.5928 1276 97.8872 580.135 471.104
225 0 116.073 12.0527 1399 94.9178 579.668 469.308
226 1 60.0274 10.1121 607 88.2076 580.033 497.529
227 0 63.0341 10.7244 676 85.6627 579.648 498.396
228 0 64.0472 10.5859 678 87.205 579.37 496.131
229 0 68.0384 11.3759 774 87.4289 579.097 494.616
230 0 69.0226 11.1123 767 87.94 580.133 492.184
231 0 71.0362 11.3886 809 85.2015 579.718 491.886
232 0 72.1348 10.8131 780 87.8462 579.094 490.512
233 0 76.1559 12.1855 928 85.4073 579.176 488.53
234 0 78.0829 11.6543 910 86.2264 579.469 487.974
235 0 80.0439 11.5437 924 87.0465 579.684 487.673
236 0 84.0375 11.8876 999 86.8128 579.374 485.909
237 0 86.0264 11.5895 997 87.7402 580.076 483.995
238 0 89.0949 11.3811 1014 88.9744 579.902 483.493
239 0 91.0314 11.7871 1073 90.11 579.938 480.802
240 0 95.0517 12.1408 1154 90.6378 579.762 478.125
241 0 96.0544 11.7434 1128 92.3475 579.214 477.12
242 0 98.0729 11.6138 1139 93.7226 579.191 476.184
243 0 102.096 12.2139 1247 92 578.96 475.107
244 0 105.034 11.3678 1194 96.5938 579.534 471.897
245 0 109.13 12.114 1322 93.9879 579.26 471.037
246 0 113.065 12.6652 1432 93.9532 579.216 470.081
247 0 115.099 12.2417 1409 95.4017 578.44 470.231
248 0 118.183 11.8461 1400 97.8136 579.157 465.802
249 0 122.093 12.4659 1522 97.7332 579.173 465.696
250 0 125.098 12.2064 1527 98.9627 579.294 463.406
251 0 130.07 12.8239 1668 97.8777 578.842 462.53
252 0 134.138 12.2933 1649 100.041 579.38 458.833
253 0 137.092 12.1014 1659 101.766 579.25 456.267
254 1 72.0767 9.89223 713 96.6017 579.323 492.504
255 0 75.0897 9.32219 700 98.5271 578.401 490.264
256 0 78.0703 10.4393 815 96.2932 579.125 487.142
257 0 81.1099 10.7508 872 96.2385 578.982 487.693
258 0 83.1127 11.5867 963 102.379 579.219 484.228
259 0 87.1351 11.8781 1035 100.948 579.28 483.21
260 0 87.1369 12.2336 1066 102.225 579.965 482.358
261 0 92.0981 12.1175 1116 103.709 579.467 481.393
262 0 93.0372 11.5438 1074 105.741 579.548 478.721
263 0 96.1907 12.1321 1167 103.442 579.504 478.246
264 0 98.068 12.2772 1204 102.89 579.685 476.208
265 0 101.08 12.1389 1227 102.836 579.541 476.742
266 0 104.068 12.3765 1288 102.955 579.377 475.762
267 0 106.116 11.9115 1264 102.665 578.827 473.778
268 0 109.058 11.2876 1231 101.859 578.924 472.578
269 0 110.041 10.5506 1161 99.6357 579.324 471.944
270 0 114.079 11.1853 1276 97.8072 579.158 470.948
271 0 119.083 11.4626 1365 96.2264 579.419 469.747
272 0 121.101 11.123 1347 96.5353 579.344 467.049
273 0 125.055 10.7633 1346 96.9272 579.672 464.992
274 0 130.082 10.7855 1403 95.9302 578.89 462.86
275 0 134.175 11.0975 1489 96.5897 578.448 459.081
276 0 138.202 10.9333 1511 96.1549 578.791 457.307
277 0 146.093 12.0129 1755 92.2929 579.093 454.795
278 1 85.0655 9.83948 837 91.46 578.432 485.239
279 0 86.1062 10.7425 925 91.1243 579.409 483.718
280 0 91.0458 11.7413 1069 87.9916 579.236 481.804
281 0 93.0525 11.8535 1103 85.738 579.191 480.881
282 0 94.0561 10.9722 1032 86.8818 579.076 481.389
283 0 95.1279 10.838 1031 89.6518 579.592 479.537
284 0 98.0917 11.2038 1099 87.2975 579.465 479.919
285 0 99.0596 11.0741 1097 87.5342 578.329 478.325
286 0 102.155 10.7288 1096 90.3203 578.81 473.665
287 0 105.104 11.1603 1173 89.798 578.5 472.701
288 0 107.119 10.7824 1155 91.8797 578.899 472.321
289 0 111.114 11.5377 1282 92.3284 578.1 467.942
290 0 111.108 11.1513 1239 95.046 578.437 466.29
291 0 117.099 11.6397 1363 92.3331 578.324 464.215
292 0 121.07 11.6131 1406 91.5092 578.565 464.082
293 0 123.081 10.8872 1340 93.6298 578.663 460.762
294 1 66.0356 10.4489 690 84.9855 578.91 493.322
295 0 68.1176 10.658 726 92.2176 578.928 490.35
296 0 71.0428 10.923 776 93.7784 578.691 489.692
297 0 71.0515 10.1898 724 86.9337 578.478 491.251
298 0 74.0821 10.6503 789 85.8036 578.454 488.441
299 0 74.0659 10.1396 751 86.9108 578.844 487.563
300 0 77.0986 10.2336 789 86.1128 578.406 485.454
301 0 82.054 10.9562 899 84.1769 578.596 483.696
302 0 85.1512 10.2993 877 84.6773 578.778 484.187
303 0 84.0638 9.96861 838 85.679 579.159 482.07
304 0 89.1503 10.2411 913 84.9748 578.394 478.48
305 0 91.2375 9.98493 911 86.0856 578.553 475.814
306 0 97.2823 11.4718 1116 82.491 578.481 477.69
307 0 100.287 10.9885 1102 83.0626 578.107 477.571
308 0 100.36 11.2096 1125 83.4204 578.776 475.144
309 0 105.268 11.181 1177 83.0578 578.023 474.11
310 1 56.2189 10.2101 574 78.7909 577.929 498.983
311 0 58.2282 9.99517 582 79.9519 578.106 499.304
312 0 59.1821 10.1382 600 79.3467 578.492 497.132
313 0 60.2116 10.297 620 79.2629 578.886 496.947
314 0 63.2404 10.6578 674 78.1588 577.881 498.338
315 0 64.2359 11.2554 723 81.0124 578.698 495.018
316 0 67.2563 11.7164 788 83.3541 578.616 493.688
317 0 69.3435 12.2434 849 83.7138 578.422 491.355
318 0 70.2788 11.682 821 86.0585 578.307 490.905
319 0 73.2429 11.4823 841 88.5814 578.191 489.05
320 0 74.3191 12.0292 894 87.566 577.969 488.828
321 0 76.2628 12.6012 961 86.1717 578.092 486.903
322 0 79.3194 12.3047 976 88.2756 578.502 486.836
323 0 82.2366 12.4276 1022 88.5812 577.742 487.142
324 0 82.207 11.909 979 91.618 577.849 483.541
325 0 85.2937 12.3456 1053 90.8025 577.694 484.589
326 0 85.262 12.0921 1031 93.9418 577.728 482.81
327 0 89.2325 11.6774 1042 94.5969 577.251 483.097
328 0 91.2336 12.2871 1121 93.4585 576.822 480.306
329 0 94.2003 12.6539 1192 92.3893 576.834 480.839
330 0 96.1444 12.398 1192 93.5218 576.655 477.961
331 0 97.0995 12.0701 1172 95.5776 576.324 477.885
332 0 102.138 12.6398 1291 92.8908 576.424 475.28
333 0 103.213 11.9559 1234 95.3258 576.339 474.994
334 0 106.151 12.4446 1321 94.5148 576.464 473.872
335 0 110.143 12.1116 1334 97.2436 576.143 470.804
336 0 112.108 12.2918 1378 97.1132 575.28 468.044
337 0 117.078 11.8895 1392 97.4009 575.806 464.568
338 1 62.0128 9.54641 592 90.9392 575.367 490.414
339 0 65.0319 9.33389 607 91.2356 575.109 488.715
340 0 69.053 10.8467 749 88.2817 575.462 489.976
341 0 72.0377 10.6472 767 83.7458 576.478 496.849
342 0 69.0202 9.86667 681 86.6226 575.799 494.769
343 0 75.0748 10.6827 802 85.1895 575.728 494.306
344 0 78.1387 10.8013 844 86.0604 574.836 491.435
345 0 79.0786 10.1165 800 88.4612 574.718 492.771
346 0 81.0714 10.1145 820 88.5439 574.095 491.3
347 0 84.1418 10.0188 843 88.8232 574.228 489.878
348 0 90.1786 11.2887 1018 87.0334 574.046 487.671
349 0 92.1411 10.9397 1008 89.9206 574.408 486.067
350 0 94.0884 11.0853 1043 88.6059 574.82 484.398
351 0 97.0576 11.7868 1144 85.9449 574.726 484.021
352 0 99.0791 11.2637 1116 87.2957 575.059 482.187
353 0 102.122 10.8596 1109 88.33 574.843 480.503
354 0 106.166 11.4632 1217 87.9688 574.816 478.251
355 0 109.131 11.5824 1264 88.2389 574.788 476.005
356 0 110.04 11.3959 1254 89.6746 574.687 475.171
357 0 115.058 12.0201 1383 89.8626 576.406 473.892
358 0 118.051 11.7407 1386 91.0635 576.167 471.172
359 0 123.092 11.5767 1425 90.9881 576.258 471.173
360 0 126.144 12.232 1543 91.3552 575.754 466.81
361 1 71.0523 9.65486 686 87.5904 575.913 496.169
362 0 71.0992 9.64849 686 84.9825 575.985 494.939
363 0 74.1287 10.3064 764 81.0052 576.458 495.063
364 0 78.0718 10.4903 819 78.5726 576.407 492.93
365 0 78.0659 9.96594 778 79.0064 576.404 493.717
366 0 80.0678 10.3912 832 79.8353 576.62 492.01
367 0 83.035 10.4534 868 80.4343 577.099 491.199
368 0 84.0397 9.6859 814 82.8894 576.832 488.614
369 0 88.045 10.0744 887 82.6934 576.849 487.955
370 0 91.0602 10.4327 950 83.3968 576.283 482.969
371 0 96.0818 9.94986 956 95.8462 575.695 482.437
372 0 96.0858 10.1472 975 96.838 575.782 481.523
373 0 100.077 8.6733 868 97.7892 576.491 480.787
374 0 104.094 9.15522 953 94.3767 576.247 479.161
375 0 107.141 9.18416 984 94.4573 576.47 479.151
376 0 110.112 8.26428 910 98.2604 576.762 474.491
377 1 56.0113 8.92677 500 86.056 578.116 503.074
378 0 58.0614 9.52439 553 82.4774 578.166 504
379 0 59.1168 9.60809 568 83.0528 578.18 502.692
380 0 59.0728 9.32748 551 83.5717 577.88 500.704
381 0 62.051 8.4769 526 81.4259 577.38 500.656
382 0 66.0568 9.74919 644 78.7391 577.211 497.019
383 0 69.1549 9.41364 651 79.1813 577.095 496.935
384 0 71.0944 10.7463 764 78.339 576.969 495.075
385 0 73.1125 10.2171 747 93.1044 577.799 492.491
386 0 74.1362 10.3054 764 93.695 577.243 492.736
387 0 75.0646 9.88482 742 95.1563 577.691 491.152
388 0 78.1128 10.1648 794 94.8866 577.647 489.18
389 0 81.052 10.4007 843 95.796 577.377 487.675
390 0 84.0936 11.2375 945 94.581 577.925 486.596
391 0 87.109 11.0666 964 95.8444 577.393 485.687
392 0 89.0899 10.8991 971 96.4552 578.004 482.464
393 0 93.11 11.2233 1045 95.1177 576.9 481.977
394 0 96.131 11.2139 1078 93.7885 577.328 480.321
395 0 97.178 10.8152 1051 93.7964 577.618 479.677
396 1 51.0514 9.28477 474 89.8734 577.076 504.165
397 0 50.0377 9.47286 474 89.2405 577.939 503.65
398 0 52.1236 9.55422 498 85.0181 579.313 502.309
399 0 55.0911 10.0016 551 82.5499 578.299 498.949
400 0 55.0496 10.536 580 82.8 578.738 500.943
401 0 55.0997 10.2541 565 84.1416 578.526 499.796
402 0 56.0187 10.193 571 84.4063 579.18 499.508
403 0 59.0486 10.4321 616 82.8718 578.541 500.547
404 0 60.0575 10.6731 641 83.7176 578.636 497.945
405 0 61.0466 10.1234 618 84.1942 578.238 499.922
406 0 60.0382 10.6432 639 83.9687 578.485 500.318
407 0 63.1218 10.0758 636 85.2657 578.336 498.865
408 0 66.0608 10.2179 675 82.8015 578.277 500.148
409 0 68.0754 10.7675 733 81.0109 578.272 496.839
410 0 71.0631 10.5259 748 80.3235 578.247 496.491
411 0 72.1256 10.8006 779 78.7522 578.502 494.901
412 0 74.0368 10.2382 758 79.5369 577.47 493.598
413 0 77.0686 10.5101 810 79.2173 577.363 490.52
414 0 79.0445 9.99437 790 80.5089 577.701 489.704
415 0 82.0801 10.6116 871 79.1045 577.811 487.976
416 1 43.0233 8.90216 383 80.7232 577.82 509.856
417 0 43.0506 9.45398 407 80.7568 578.749 507.58
418 0 45.0091 9.84245 443 79.9436 578.257 506.761
419 0 48.0549 10.5713 508 76.9842 578.669 506.419
420 0 49.0092 10.8347 531 77.5782 578.797 504.921
421 0 50.0212 10.8554 543 86.3278 577.556 503.552
422 0 49.0714 10.556 518 81.029 576.629 503.344
423 0 50.0298 9.8941 495 79.4586 576.364 504.374
424 0 47.0161 9.16707 431 81.1253 576.907 502.884
425 0 51.0664 10.0262 512 78.3789 577.016 504.475
426 0 51.0618 9.34162 477 79.608 577.22 502.153
427 0 53.0324 9.56019 507 79.288 576.608 501.939
428 0 55.0474 10.8452 597 77.6214 577.172 501.69
429 0 55.0442 10.3735 571 79.5954 576.489 500.098
430 0 57.0741 9.72421 555 79.4234 577.18 498.306
431 0 61.0342 10.6334 649 76.2342 577.903 496.974
432 0 62.0678 10.0857 626 77.1869 577.454 494.457
433 0 65.1092 10.8433 706 76.0822 577.432 494.97
434 0 68.0497 10.845 738 76.0772 577.241 495.23
435 0 69.0505 10.7602 743 77.1629 577.721 494.292
436 0 73.0924 11.6154 849 74.9729 578.282 492.436
437 0 75.09 11.3863 855 78.1345 578.318 492.402
438 0 78.101 10.576 826 78.3717 577.903 489.987
439 0 82.0701 11.3805 934 78.334 577.451 488.969
440 0 85.0865 11.6235 989 79.4034 577.534 486.489
441 0 86.0959 11.8473 1020 80.948 577.566 486.068
442 1 44.0727 9.77929 431 84.4037 578.589 504.912
443 0 47.0317 9.88695 465 83.9806 577.555 506.017
444 0 46.0566 10.5957 488 87.9139 577.639 504.504
445 0 48.0199 10.9538 526 87.9658 577.112 502.593
446 0 51.1441 11.3601 581 85.6661 578.052 500.157
447 0 50.0182 12.0156 601 88.6323 576.524 500.963
448 0 53.0264 12.0883 641 86.7364 576.594 501.677
449 0 54.0044 11.9435 645 86.8868 576.622 500.521
450 0 58.0173 12.6859 736 85.8967 576.781 500.553
451 0 60.0243 12.295 738 84.3577 576.678 497.752
452 0 62.0435 12.7652 792 83.5328 576.848 496.871
453 0 62.0473 12.2487 760 85.5382 577.424 497.47
454 0 64.0311 12.369 792 85.678 577.306 496.429
455 0 67.0234 12.4583 835 85.2874 577.696 496.06
456 0 70.0828 12.5851 882 84.593 577.246 494.416
457 0 72.053 12.2271 881 86.5096 578.336 493.78
458 0 73.0524 12.0461 880 88.8602 577.534 491.709
459 0 76.2026 12.5455 956 87.477 577.721 491.415
460 0 77.1157 12.2802 947 88.0634 577.426 488.826
461 0 81.0867 11.9132 966 88.148 577.709 487.244
462 0 84.0454 12.5052 1051 85.8896 577.624 485.444
463 0 86.0738 12.3383 1062 88.2655 578.016 485.015
464 0 89.0908 12.0776 1076 86.9684 577.419 482.419
465 0 89.0908 12.1337 1081 146.251 577.414 482.443
466 0 94.043 12.6325 1188 83.3906 577.673 481.088
467 0 96.042 11.7761 1131 83.6844 577.373 481.592
468 0 100.077 12.0207 1203 83.6118 577.519 478.054
469 0 104.094 11.6433 1212 84.8977 577.251 476.043
470 0 107.164 12.271 1315 83.7186 577.151 473.648
471 0 110.164 11.8551 1306 83.268 576.828 471.351
472 0 111.108 11.4303 1270 83.574 577.359 470.689
473 0 115.133 11.6822 1345 81.9554 576.485 467.752
474 0 119.09 11.8985 1417 83.5893 577.106 466.248
475 0 121.133 10.5422 1277 89.296 577.327 464.747
476 0 123.071 11.5868 1426 87.514 577.074 463.148
477 1 67.0559 9.69341 650 83.2154 577.302 492.543
478 0 67.043 9.54611 640 82.9797 576.809 492.723
479 0 71.0399 10.5574 750 78.4987 576.404 491.608
480 0 70.1063 10.7694 755 82.045 575.862 486.6
481 0 75.0921 10.9332 821 83.1413 576.714 486.814
482 0 76.0791 11.0937 844 86.9822 576.905 485.712
483 0 80.0788 11.6011 929 83.6878 576.628 485.795
484 0 83.1024 11.5881 963 84.351 576.18 481.886
485 0 85.1021 11.4451 974 84.7885 575.57 481.286
486 0 88.1482 11.5487 1018 84.447 575.608 479.219
487 0 90.0753 12.2009 1099 83.4923 575.702 478.21
488 0 92.1185 12.256 1129 82.7564 575.458 476.077
489 0 93.1536 11.1644 1040 85.4788 575.515 475.254
490 0 98.1412 11.8299 1161 84.0233 575.37 473.874
491 0 99.1247 11.4401 1134 86.6252 576.647 471.881
492 0 105.095 11.7037 1230 86.8236 576.546 471.812
493 0 106.179 10.9061 1158 88.5769 576.238 470.709
494 0 111.075 11.5058 1278 87.6315 577.461 466.962
495 0 112.123 11.1484 1250 87.7968 576.899 468.978
496 0 116.053 10.8657 1261 86.835 576.761 464.01
497 0 119.087 11.1179 1324 87.1692 576.429 464.09
498 0 123.107 11.1041 1367 87.8669 576.947 463.31
499 0 129.061 11.5527 1491 88.0966 577.082 461.574
500 0 132.061 11.5704 1528 89.2297 576.753 459.695
501 0 136.105 11.1899 1523 90.9061 577.04 457.993
502 1 76.0627 10.5308 801 90.236 577.228 488.893
503 0 80.0899 11.3872 912 89.1963 577.09 489.073
504 0 80.0578 11.3918 912 91.8882 576.702 485.319
505 0 84.163 11.8461 997 90.9669 576.715 486.659
506 0 86.0286 11.9728 1030 93.1893 576.818 483.514
507 0 88.1211 12.2899 1083 92.1413 576.094 482.395
508 0 90.1281 11.7167 1056 94.8248 576.354 478.402
509 0 94.0922 12.4346 1170 91.4487 575.346 479.691
510 0 97.0554 12.8483 1247 91.6744 575.75 479.766
511 0 100.204 12.2351 1226 93.9641 575.971 476.834
512 0 102.146 12.2276 1249 95.1505 576.076 476.283
513 0 105.204 12.1193 1275 96.3271 576.342 474.269
514 0 110.138 12.7204 1401 94.1649 576.183 474.181
515 0 113.156 12.7434 1442 94.6304 575.378 471.001
516 0 115.076 12.1485 1398 96.9192 575.431 468.648
517 0 118.119 11.844 1399 97.6447 575.228 469.133
518 0 122.135 12.4043 1515 95.235 575.422 467.785
519 0 127.09 12.7311 1618 94.7027 574.964 466.666
520 1 67.0634 10.3931 697 82.9383 575.591 498.74
521 0 65.0883 10.7085 697 78.089 576.453 498.469
522 0 67.0511 11.2452 754 82.1194 576.416 498.34
523 0 67.0554 10.3496 694 87.1124 576.517 498.065
524 0 70.0455 10.9357 766 85.3499 575.326 497.01
525 0 71.0636 10.5117 747 85.1419 575.576 496.505
526 0 73.0312 10.9131 797 86.468 574.987 493.404
527 0 75.0978 11.5183 865 84.8717 575.578 492.21
528 0 77.1692 10.9888 848 87.0837 575.182 492.191
529 0 80.1906 11.5101 923 85.9902 575.177 491.892
530 0 83.235 11.6057 966 85.381 575.513 488.916
531 0 83.148 11.1849 930 86.1032 575.362 486.301
532 0 85.171 11.4593 976 84.8832 574.845 483.903
533 0 90.1007 11.8312 1066 82.9728 573.956 482.706
534 0 90.1007 11.8312 1066 134.249 572.953 482.626
535 0 97.1071 11.9971 1165 81.5142 574.38 480.004
536 1 50.093 9.74188 488 81.9775 575.82 504.857
537 0 47.1389 9.24925 436 82.1537 576.335 499.463
538 0 52.1422 10.7782 562 82.6886 575.628 503.132
539 0 53.118 10.6932 568 83.4806 575.576 502.782
540 0 56.1205 10.2993 578 84.6384 575.251 503.322
541 0 55.0745 10.6401 586 84.8447 574.904 501.986
542 0 56.1132 10.8531 609 84.6486 575.322 502.054
543 0 58.0622 11.2121 651 83.6774 575.424 501.028
544 0 60.1577 10.8216 651 83.3825 574.541 500.214
545 0 61.1478 10.8262 662 84.077 575.316 500.16
546 0 65.1162 11.7329 764 81.1505 575.181 499.78
547 0 67.1922 11.6382 782 80.6407 574.982 498.317
548 0 68.1624 11.4726 782 82.1956 574.967 497.265
549 0 69.1636 11.5812 801 82.226 575.401 496.019
550 0 73.0883 11.1919 818 82.4548 575.5 494.704
551 0 74.2095 11.5753 859 83.142 574.617 493.723
552 0 75.2034 11.7947 887 82.3585 575.282 492.161
553 0 79.2313 12.1417 962 81.6341 575.221 489.758
554 0 80.2144 11.6064 931 82.5263 575.562 488.936
555 0 82.305 11.4574 943 81.7169 575.416 489.262
556 0 83.0569 10.7758 895 76.6067 575.414 488.377
557 0 86.0847 10.3619 892 80.87 575.724 487.904
558 1 46.0424 10.5989 488 73.7377 576.238 509.838
559 0 49.032 10.1362 497 74.837 576.229 510.306
560 0 50.1752 9.68605 486 78.0473 575.023 504.938
561 0 52.1328 9.76352 509 78.2927 575.534 504.804
562 0 53.1617 10.0636 535 78.3421 574.983 504.359
563 0 54.176 10.6689 578 77.5657 574.093 502.782
564 0 55.1545 11.3499 626 76.0942 574.95 503.439
565 0 58.096 10.8958 633 76.0348 575.286 504.253
566 0 60.0419 11.492 690 72.7319 575.029 503.112
567 0 63.0329 11.5337 727 72.707 574.396 501.298
568 0 64.0642 11.2543 721 73.9334 574.792 500.72
569 0 65.0446 11.8534 771 73.5448 574.655 500.262
570 0 66.1439 11.6262 769 73.9636 574.615 498.964
571 0 70.0894 11.5567 810 74.0482 574.682 498.928
572 0 72.0911 11.6519 840 74.4155 573.827 497.164
573 0 74.0561 11.7343 869 74.7756 574.092 496.771
574 0 76.0683 11.5423 878 76.7187 573.73 495.838
575 0 79.1159 11.5148 911 77.8573 574.863 493.896
576 0 82.0859 12.1458 997 76.7402 573.809 493.134
577 0 83.0626 11.2566 935 79.2599 573.716 491.431
578 0 85.0752 11.2841 960 81.9177 573.664 490.091
579 0 88.0413 11.3242 997 84.0933 573.629 488.287
580 0 91.0626 11.5854 1055 83.1697 573.852 487.804
581 0 93.0523 11.7138 1090 83.145 574.398 486.134
582 0 97.1318 11.9837 1164 83.8445 574.474 485.071
583 0 99.1069 11.6339 1153 83.6366 574.046 482.022
584 0 102.253 11.0511 1130 84.831 574.178 479.44
585 0 107.322 12.197 1309 82.9137 574.537 479.964
586 1 58.1076 9.67171 562 89.1014 574.484 504.772
587 0 59.0832 10.4937 620 89.1258 574.566 503.771
588 0 61.0916 11.5073 703 82.8065 574.073 504.223
589 0 64.0605 10.9428 701 90.3638 574.173 502.993
590 0 65.1206 11.425 744 92.3508 573.653 501.243
591 0 67.0467 11.932 800 90.385 574.208 501.832
592 0 70.124 12.1784 854 89.7166 574.012 500.811
593 0 71.1214 12.0217 855 80.2374 574.248 500.267
594 0 72.1388 11.4224 824 81.9891 573.237 499.613
595 0 75.0522 11.3388 851 82.1528 573.449 497.819
596 0 77.0682 12.1321 935 80.5872 573.706 496.479
597 0 80.1585 11.6519 934 81.9186 574.291 494.909
598 0 83.1452 11.498 956 81.4843 573.711 493.792
599 0 86.0839 11.663 1004 82.3466 573.754 493.155
600 0 88.2097 12.1415 1071 82.0663 573.553 491.043
601 0 89.1359 11.6339 1037 84.161 573.34 488.031
602 0 92.1968 12.1045 1116 84.0233 573.608 487.205
603 0 97.2055 11.7895 1146 85.1553 573.826 485.267
604 0 99.1689 11.4955 1140 88.5561 573.43 482.155
605 0 102.162 11.9125 1217 89.7461 573.15 480.111
606 0 107.159 11.8422 1269 93.5579 573.373 478.411
607 1 57.1285 9.96 569 91.0053 572.448 504.68
608 0 58.0701 10.074 585 88.335 572.499 504.215
609 0 57.0753 11.4235 652 87.6196 573.41 504.327
610 0 61.0498 11.1221 679 87.595 573.499 503.934
611 0 61.0564 11.5139 703 88.1678 573.159 502.548
612 0 61.0119 10.8995 665 91.7639 573.645 501.232
613 0 63.0288 11.7089 738 89.4946 573.165 500.084
614 0 65.052 11.6061 755 89.2927 573.232 498.526
615 0 69.032 11.5164 795 89.5535 573.474 496.818
616 0 70.037 12.0936 847 88.4852 573.252 496.093
617 0 72.0256 11.5653 833 89.3313 572.891 494.547
618 0 75.0274 11.9423 896 89.2009 572.408 493.026
619 0 77.0469 11.8629 914 88.8534 572.754 491.711
620 0 78.0887 11.7943 921 91.0239 573.305 489.214
621 0 82.0284 12.4713 1023 89.2199 573.671 489.272
622 0 83.1227 12.1387 1009 88.6749 574.825 487.552
623 0 85.1848 11.9857 1021 90.2135 574.461 485.08
624 0 88.1256 12.346 1088 89.204 573.841 484.139
625 0 89.1381 12.3067 1097 91.3984 574.317 483.484
626 0 91.1148 12.7531 1162 89.8081 573.597 481.596
627 0 93.1182 12.5754 1171 90.8804 573.523 479.666
628 0 95.1238 12.51 1190 92.2773 574.829 479.559
629 0 96.1872 12.2677 1180 94.3483 574.281 477.548
630 0 98.1435 12.5021 1227 93.2787 574.65 475.858
631 0 105.161 13.2748 1396 89.5287 574.37 475.752
632 0 107.138 12.9739 1390 90.5827 574.939 473.43
633 0 111.132 12.9486 1439 91.344 574.358 472.289
634 0 112.134 13.1005 1469 92.0061 574.624 470.634
635 0 116.07 13.2507 1538 91.526 574.198 467.358
636 0 117.182 12.8689 1508 91.8501 574.07 462.802
637 0 120.194 12.6213 1517 93.0046 574.035 460.945
638 0 123.212 13.0587 1609 92.3505 574.347 460.504
639 0 125.24 12.8793 1613 92.6268 574.719 458.396
640 0 133.258 13.4776 1796 88.9282 574.118 452.973
641 0 135.262 13.2336 1790 90.638 574.005 450.75
642 0 139.329 13.1129 1827 93.3908 574.768 450.161
643 0 144.163 13.6096 1962 91.3175 575.076 448.568
644 0 148.274 13.475 1998 92.4575 575.334 445.605
645 0 152.188 13.1745 2005 92.9451 575.262 443.428
646 0 156.169 13.3318 2082 93.0706 575.008 440.012
647 0 160.276 13.4206 2151 94.0953 574.189 438.324
648 0 165.249 13.0954 2164 95.7398 574.714 433.307
649 0 173.386 13.6286 2363 94.5637 575.246 433.611
650 0 177.252 13.7432 2436 95.5263 574.665 430.698
651 0 184.195 13.8114 2544 94.1792 575.181 427.403
652 0 187.192 13.43 2514 93.7916 574.435 423.207
653 0 194.12 12.8065 2486 95.9578 575.477 422.753
654 0 200.225 13.3 2663 92.9027 575.7 420.364
655 0 208.171 13.7916 2871 90.0575 575.721 421.632
656 0 213.14 13.4606 2869 90.801 575.89 418.811
657 0 221.118 13.3097 2943 92.8722 575.115 415.031
658 1 55.0769 10.0042 551 78.9619 575.817 502.96
659 0 56.1042 10.6944 600 79.87 576.207 501.987
660 0 60.1282 10.8435 652 80.3635 577.012 502.195
661 0 60.087 10.8176 650 75.0815 576.028 500.474
662 0 61.0425 10.1732 621 78.525 576.08 499.622
663 0 63.0194 9.69543 611 79.4926 575.732 500.966
664 0 64.0789 10.6119 680 79.2691 576.296 498.443
665 0 68.1053 10.3369 704 80.1094 576.109 498.149
666 0 69.0779 9.91634 685 82.4774 576.603 497.07
667 0 71.0733 10.3696 737 83.1194 577.071 495.86
668 0 73.0515 10.3352 755 84.5272 576.072 495.093
669 0 76.0982 10.3025 784 84.7908 575.607 494.501
670 0 75.1174 10.1707 764 87.5039 576.149 493.39
671 0 79.0465 10.1586 803 87.7634 575.889 492.138
672 0 81.0948 10.2843 834 88.7242 576.489 491.236
673 0 83.1068 10.8655 903 87.5327 577.023 489.869
674 0 86.0426 10.4483 899 88.9144 576.888 489.093
675 0 89.0846 10.6079 945 88.036 576.871 485.766
676 0 91.0876 10.6162 967 88.2389 576.933 484.192
677 1 48.0495 9.38615 451 85.8138 576.914 507.849
678 0 50.0604 10.3874 520 83.5827 576.2 506.471
679 0 50.243 10.9269 549 83.173 577.226 504.862
680 0 52.0436 10.8947 567 81.9453 576.289 505.84
681 0 54.0103 10.498 567 83.0265 576.795 503.06
682 0 55.0592 9.64417 531 85.8606 575.727 502.392
683 0 56.0622 11.184 627 83.2982 576.536 501.679
684 0 57.0363 10.7651 614 84.6596 577.122 502.508
685 0 58.0212 10.996 638 83.953 577.455 501.378
686 0 60.1034 10.9811 660 83.5924 577.706 501.105
687 0 61.0247 11.2413 686 83.6604 578.019 499.777
688 0 62.0339 10.6877 663 83.3364 576.395 499.074
689 0 64.0198 10.7935 691 83.4935 577.683 498.291
690 0 68.0687 11.8851 809 77.5686 576.356 461.136
691 0 68.052 11.5794 788 77.2779 576.909 475.732
692 0 71.0561 11.4276 812 76.2118 576.052 480.376
693 0 72.0384 11.6605 840 75.5714 576.511 483.1
694 0 73.0476 11.1845 817 77.0208 576.458 482.038
695 0 75.0666 12.0693 906 74.957 576.702 483.326
696 0 79.0891 11.4934 909 75.209 576.97 487.847
697 0 82.1473 12.9037 1060 81.75 576.931 492.489
698 0 82.078 12.9633 1064 84.5771 576.205 491.883
699 0 88.0978 13.5077 1190 86.6445 575.669 489.182
700 0 87.0826 12.9188 1125 89.9751 576.353 487.167
701 0 92.1034 13.5826 1251 86.8401 576.119 486.942
702 0 96.1536 13.3536 1284 87.0966 576.17 485.336
703 0 97.092 12.9259 1255 88.7641 576.12 482.492
704 1 52.0523 10.6623 555 90.3189 575.674 507.099
705 0 51.0377 12.1087 618 86.5 576.047 508.4
706 0 53.0225 12.4664 661 84.5628 574.864 507.076
707 0 54.1264 11.9535 647 89.0464 574.87 505.107
708 0 57.0381 12.3076 702 87.7436 574.722 503.9
709 0 57.029 12.3972 707 87.7949 574.68 502.518
710 0 60.0218 12.8287 770 84.961 574.777 503.851
711 0 62.0685 12.3573 767 85.3038 574.785 502.808
712 0 62.1111 12.6386 785 84.456 574.489 502.482
713 0 63.1281 12.7519 805 84.7578 575.288 501.375
714 0 66.0855 12.7411 842 84.7411 575.261 500.881
715 0 67.1195 12.2766 824 86.9709 574.934 499.193
716 0 68.1904 12.3624 843 87.2918 575.596 499.393
717 0 71.1378 12.8342 913 87.8916 574.643 498.848
718 0 74.1139 12.5078 927 89.1057 575.288 496.929
719 0 75.0917 12.3316 926 89.4752 575.034 496.421
720 0 79.0928 12.8204 1014 84.8136 575.24 495.822
721 0 80.0955 12.0606 966 85.5 574.817 494.639
722 0 82.086 12.1824 1000 83.007 575.541 493.977
723 0 85.0638 11.9675 1018 81.2102 574.682 493.965
724 0 88.0728 12.0469 1061 78.6315 574.956 490.172
725 0 89.0446 12.1961 1086 79.7026 575.622 490.056
726 0 93.0615 12.2177 1137 80.9894 575.194 489.109
727 0 95.0937 11.5991 1103 82.7253 574.968 486.426
728 0 98.072 11.5222 1130 82.7027 574.919 485.068
729 0 101.121 12.5889 1273 80.8036 575.234 482.896
730 0 104.16 11.8855 1238 81.6276 575.023 482.953
731 0 109.07 11.8548 1293 90.0294 574.94 482.056
732 0 112.068 11.0112 1234 89.6386 575.199 480.054
733 0 116.098 11.0424 1282 86.7972 575.048 477.542
734 1 58.0758 9.45316 549 80.8306 575.21 505.738
735 0 60.0579 10.5565 634 76.5363 574.88 505.314
736 0 63.0649 10.7033 675 76.0178 574.895 500.844
737 0 66.0511 10.8855 719 75.9152 575.609 499.458
738 0 65.0923 10.585 689 76.4673 575.618 499.489
739 0 73.027 10.4345 762 75.7454 575.329 500.189
740 0 72.0467 11.2149 808 75.7265 575.656 495.854
741 0 74.0714 11.8534 878 75.0877 575.28 496.256
742 0 75.056 11.165 838 78.0012 575.846 493.208
743 0 77.0362 10.865 837 78.6392 575.366 494.084
744 0 78.0386 10.482 818 81.8301 575.598 491.603
745 0 82.0318 10.63 872 81.2087 574.27 490.26
746 0 84.0485 10.1132 850 82.3682 574.722 490.833
747 0 85.06 9.95768 847 84.0035 574.93 486.491
748 0 90.0801 10.4907 945 83.1058 575.909 486.925
749 0 90.0578 10.0158 902 84.3337 575.183 483.68
750 0 96.0752 10.3773 997 85.2337 575.041 482.92
751 1 49.0382 9.44161 463 90.892 574.836 505.689
752 0 52.0247 9.99526 520 89.3885 575.348 504.829
753 0 54.0235 11.0878 599 91.0401 574.93 505.063
754 0 54.0267 11.1056 600 117.605 574.938 505.103
755 0 57.1495 11.2162 641 94.7754 574.636 502.326
756 0 58.0907 11.1033 645 94.9876 574.563 500.676
757 0 60.1042 11.8794 714 93.2647 575.605 500.557
758 0 62.0945 11.6758 725 93.0552 575.414 499.448
759 0 61.134 11.3357 693 93.6926 575.746 500.336
760 0 64.1067 11.6057 744 92.4906 575.836 499.386
761 0 67.1457 12.1229 814 89.5811 575.566 498.275
762 0 69.1503 11.9161 824 90.835 576.15 496.945
763 0 68.1686 12.1757 830 93.3723 575.722 495.996
764 0 71.1042 12.4043 882 92.2585 575.783 495.244
765 0 72.0676 11.9749 863 95.4647 575.492 493.645
766 0 76.0626 11.6877 889 96.198 575.444 492.823
767 0 79.0728 12.2545 969 94.7286 575.935 493.153
768 0 79.1352 12.2954 973 94.7153 575.872 492.586
769 0 83.0306 12.67 1052 92.2557 575.827 490.588
770 0 83.0431 11.9095 989 93.0981 575.546 489.226
771 1 42.0136 10.0444 422 93.6754 576.434 510.981
772 0 44.0346 10.2874 453 94.0221 576.87 510.033
773 0 44.0221 10.0858 444 93.3739 576.277 508.691
774 0 44.0219 10.4039 458 92.6921 576.358 508.703
775 0 47.059 11.4112 537 89.7002 576.436 508.028
776 0 47.0095 12.1039 569 90.2812 576.787 506.121
777 0 50.0227 11.7747 589 91.9576 576.421 506.082
778 0 51.0386 12.3632 631 94.0856 576.203 504.797
779 0 50.0357 12.0914 605 92.2545 575.521 506.455
780 0 52.0324 12.0502 627 92.9553 575.908 505.464
781 0 53.1248 11.8212 628 92.6385 576.567 505.037
782 0 56.0301 12.3505 692 91.9017 576.457 504.442
783 0 56.0533 12.0956 678 93.1976 576.17 502.667
784 0 58.0348 12.4925 725 92.8897 576.103 502.639
785 0 60.1076 12.0783 726 94.0771 575.764 500.578
786 0 63.1025 12.4401 785 94.1287 576.176 500.117
787 0 66.0577 12.3982 819 95.6215 576.603 498.443
788 0 67.0574 12.4968 838 94.4129 576.243 497.733
789 0 70.0581 12.6324 885 93.8384 577.089 496.541
790 0 72.0231 12.8986 929 94.4639 577.406 495.701
791 0 76.047 13.0709 994 93.8702 577.936 494.853
792 0 76.0208 12.6544 962 101.618 576.763 493.02
793 0 81.0122 13.1091 1062 94.9341 577.24 490.886
794 0 82.0277 13.02 1068 97.2753 577.211 490.623
795 0 85.0322 13.0774 1112 97.2482 577.373 488.635
796 0 88.0523 12.5948 1109 100.053 576.902 486.719
797 0 89.0727 12.922 1151 101.054 577.54 486.423
798 0 90.0444 12.3272 1110 103.961 577.563 485.341
799 0 95.0323 13.5533 1288 100.76 577.426 484.182
800 0 96.0491 13.035 1252 102.796 577.596 484.106
801 0 97.0725 13.083 1270 104.366 577.624 482.098
802 0 101.063 13.1205 1326 103.204 577.704 482.189
803 0 105.074 13.619 1431 101.315 577.05 479.82
804 0 108.134 13.7422 1486 101.332 577.227 478.25
805 0 113.138 13.6382 1543 100.467 576.342 478.287
806 0 114.075 12.9652 1479 103.482 576.365 476.826
807 0 119.067 13.7569 1638 102.053 576.488 475.564
808 0 119.099 12.9221 1539 103.684 576.202 470.511
809 0 124.088 13.7 1700 101.224 576.39 471.642
810 0 130.083 13.9219 1811 98.9503 576.249 468.977
811 0 132.09 13.8391 1828 101.298 576.282 468.886
812 0 136.132 13.4942 1837 103.772 576.164 466.867
813 0 142.112 14.5379 2066 101.114 575.988 463.337
814 0 145.157 13.9642 2027 103.606 576.337 461.787
815 0 150.142 14.3064 2148 103.202 576.145 457.634
816 0 156.215 14.4032 2250 105.108 575.707 453.36
817 0 160.205 14.0882 2257 107.243 576.066 450.776
818 0 162.233 13.8566 2248 106.047 575.457 447.92
819 0 169.153 13.5381 2290 106.975 575.24 444.372
820 0 174.153 13.5111 2353 107.136 574.978 441.38
821 0 180.169 13.6094 2452 107.515 575.505 437.016
822 0 185.247 13.1824 2442 107.726 574.938 436.158
823 1 100.041 11.1554 1116 103.574 575.634 480.168
824 0 101.092 11.5043 1163 102.662 575.568 477.175
825 0 104.072 11.9244 1241 101.959 575.227 476.338
826 0 108.086 11.8424 1280 104.755 575.284 481.459
827 0 112.09 12.2669 1375 103.928 574.639 479.533
828 0 116.115 12.1001 1405 106.157 574.97 476.452
829 0 121.124 11.9134 1443 101.529 574.888 473.342
830 0 123.09 11.2276 1382 100.475 575.75 467.365
831 1 64.0139 9.49794 608 90.2928 574.628 495.998
832 0 66.0538 9.08351 600 90.0033 575.572 495.058
833 0 66.0538 9.21976 609 118.658 575.524 495.023
834 0 75.056 11.6846 877 89.5667 575.917 498.845
835 0 76.0584 11.6227 884 92.2715 576.227 497.8
836 0 80.1049 11.8595 950 92.0516 576.187 494.993
837 0 81.0796 11.5319 935 94.431 575.949 493.573
838 0 84.0658 11.9073 1001 93.7043 575.602 491.697
839 0 88.0707 12.5694 1107 92.7588 575.732 489.744
840 0 89.039 11.2198 999 96.4845 575.096 488.569
841 0 93.0618 12.3466 1149 93.7824 574.784 485.934
842 0 97.112 12.8408 1247 94.4258 574.14 483.739
843 0 98.0917 12.5903 1235 97.7806 574.229 481.698
844 0 102.113 13.1129 1339 94.2748 574.262 479.108
845 0 105.068 13.3342 1401 93.8851 574.802 479.294
846 0 108.089 13.091 1415 94.8438 574.206 477.873
847 0 112.084 12.9902 1456 95.7885 574.946 476.184
848 0 116.111 13.0134 1511 96.9345 575.198 468.762
849 0 117.106 12.8858 1509 97.7972 574.726 471.064
850 0 124.1 12.9332 1605 99.2903 574.801 469.345
851 0 127.122 13.6877 1740 99.6994 574.759 466.982
852 0 130.117 13.4263 1747 101.799 574.879 465.773
853 0 132.096 13.2025 1744 102.794 574.745 464.618
854 0 137.118 13.8348 1897 102.401 574.596 463.853
855 0 140.124 13.4595 1886 101.365 574.676 458.412
856 0 144.132 13.7999 1989 100.054 574.521 456.246
857 0 145.158 12.4692 1810 102.143 575.086 451.81
858 0 150.121 13.1361 1972 101.116 575.224 446.901
859 0 151.066 12.9083 1950 101.745 574.3 445.566
860 0 155.165 13.1602 2042 101.404 575.174 445.045
861 0 158.149 12.64 1999 102.328 574.427 441.898
862 0 161.163 12.7263 2051 102.451 575.024 437.649
863 0 166.175 12.5711 2089 102.603 575.054 437.365
864 0 171.192 12.6817 2171 102.017 574.912 433.873
865 0 174.115 12.4803 2173 103.19 574.623 432.02
866 0 179.195 12.4445 2230 104.082 575.308 428.952
867 0 187.194 12.7889 2394 102.815 574.83 426.3
868 0 192.182 12.7535 2451 103.03 574.588 424.949
869 0 198.286 12.719 2522 105.078 574.417 420.866
870 0 204.216 12.8932 2633 104.943 573.768 419.657
871 0 210.239 12.7569 2682 104.375 573.405 416.249
872 0 215.254 12.7756 2750 103.902 573.461 415.691
873 0 223.2 12.5493 2801 105.047 574.301 413.297
874 0 230.259 13.1113 3019 103.056 574.857 409.366
875 1 172.257 11.5932 1997 107.137 575.197 443.414
876 0 176.209 12.0085 2116 103.865 574.267 440.215
877 1 48.0361 8.84751 425 86.9035 573.376 506.708
878 0 53.0556 9.42408 500 83.6 573.722 502.918
879 0 53.0634 10.2519 544 82.4669 573.243 504.721
880 0 54.0895 10.0204 542 83.9945 573.594 502.996
881 0 56.0406 10.1534 569 83.8102 573.569 502.97
882 0 58.0267 10.5296 611 85.4844 573.491 503.134
883 0 60.041 10.9758 659 85.2762 573.539 503.58
884 0 62.0235 11.3183 702 86.3932 573.933 500.127
885 0 62.0492 10.5239 653 89.5513 573.674 499.329
886 0 67.0851 11.3289 760 86.579 574.222 498.829
887 0 67.088 11.1943 751 89.9001 574.337 496.927
888 0 70.027 11.0672 775 87.8297 573.906 497.032
889 0 71.0596 11.624 826 88.8196 573.77 493.886
890 0 72.0824 11.6533 840 86.0631 573.638 494.232
891 0 74.0708 11.435 847 86.0071 573.72 491.811
892 0 75.0506 11.0459 829 87.8492 573.678 490.241
893 0 78.0606 10.6968 835 93.2862 573.515 489.052
894 0 81.0715 11.681 947 86.9789 573.695 487.906
895 0 82.1817 11.3164 930 89.1151 574.666 487.563
896 0 86.1026 11.5908 998 93.8236 574.421 483.631
897 0 88.1238 12.0512 1062 84.0593 574.657 486.02
898 0 91.0505 11.6199 1058 81.3242 574.925 483.517
899 0 94.0584 11.5673 1088 81.1222 574.668 483.081
900 0 96.0469 11.7338 1127 81.4082 574.867 481.146
901 0 98.0918 11.8359 1161 80.8596 575.268 478.827
902 0 101.051 11.9543 1208 83.4768 576.2 478.483
903 0 104.124 11.1982 1166 83.2882 575.081 476.156
904 1 53.0166 9.6385 511 83.2935 575.033 502.873
905 0 55.0175 10.3058 567 83.0194 575.356 500.411
906 0 57.099 10.403 594 84.3434 575.754 481.816
907 0 59.0756 11.5107 680 78.3059 575.707 488.247
908 0 57.0324 10.608 605 77.8165 575.693 499.167
909 0 60.0762 10.5366 633 78.2891 575.092 496.976
910 0 63.0359 11.9297 752 75.7088 575.165 496.36
911 0 64.0433 11.5234 738 77.164 574.989 495.439
912 0 66.057 11.1267 735 77.5551 575.22 495.901
913 0 66.0483 10.7497 710 80.8169 575.596 495.6
914 0 69.0446 11.6881 807 79.5948 575.481 494.888
915 0 69.0237 11.228 775 81.0671 575.346 494.862
916 0 71.0441 11.7251 833 80.5462 575.813 493.696
917 0 75.0385 12.0871 907 81.1952 574.756 494.546
918 0 76.0286 12.3111 936 91.5267 575.088 492.567
919 0 77.0613 12.7301 981 91.1519 574.597 490.934
920 0 80.0932 13.1971 1057 89.65 574.122 490.199
921 0 81.0335 12.7725 1035 90.6087 574.376 490.683
922 0 84.0788 13.3565 1123 89.2191 574.402 489.009
923 0 85.0249 13.1373 1117 89.6696 575.41 486.936
924 0 88.0597 12.7186 1120 91.5652 575.404 487.677
925 0 90.0722 12.7675 1150 91.1835 575.15 487.435
926 0 90.1499 13.0893 1180 92.8644 574.758 486.479
927 0 94.0761 13.0107 1224 92.9992 574.665 485.588
928 0 97.0653 12.7852 1241 88.0346 574.486 484.654
929 0 99.118 13.1157 1300 80.7054 575.017 482.443
930 0 101.109 12.4816 1262 81.4485 574.237 481.782
931 0 103.101 12.8029 1320 82.7424 573.595 479.154
932 0 106.119 12.1185 1286 84.4308 573.771 477.282
933 0 110.097 13.6425 1502 80.1345 574.284 475.947
934 0 110.103 12.2703 1351 79.1206 574.064 470.607
935 0 112.112 12.3627 1386 84.2929 574.003 470.169
936 0 116.105 12.1958 1416 83.9873 573.605 468.549
937 0 121.086 12.5944 1525 82.5318 573.591 468.515
938 0 123.09 12.1456 1495 84.6201 573.126 465.186
939 0 127.094 12.8723 1636 83.4511 572.93 464.776
940 0 131.113 12.6227 1655 84.7764 573.283 462.169
941 0 135.061 12.661 1710 84.9199 572.518 462.249
942 0 140.127 13.6305 1910 83.8178 573.111 461.41
943 0 143.063 12.6867 1815 87.5394 573.164 460.114
944 0 149.105 12.7963 1908 88.6897 573.029 455.866
945 1 76.1942 10.8538 827 77.6941 573.784 499.12
946 0 76.0653 10.6356 809 80.0532 573.189 498.695
947 0 81.0231 11.7868 955 77.2785 573.285 497.501
948 0 82.0671 11.515 945 78.1746 573.664 495.163
949 0 86.0823 11.4658 987 79.1013 573.459 493.882
950 0 89.0505 13.0263 1160 76.469 573.381 489.71
951 0 91.059 12.1789 1109 85.5744 573.651 489.485
952 0 92.0625 11.1989 1031 88.1135 573.988 488.48
953 0 97.0597 11.8381 1149 87.2576 574.495 488.272
954 0 100.058 11.8831 1189 86.7494 573.772 484.468
955 0 104.079 11.597 1207 88.5029 573.932 482.369
956 0 107.038 11.9957 1284 78.9743 574.022 479.766
957 0 109.088 11.4769 1252 79.8059 574.482 479.165
958 0 113.097 12.1842 1378 83.6212 574.193 474.704
959 0 118.19 11.4223 1350 83.3244 574.287 473.915
960 0 120.045 11.2707 1353 82.3444 574.168 472.119
961 1 63.047 10.3574 653 79.3093 574.205 501.81
962 0 64.0415 9.68122 620 79.8597 575.219 500.865
963 0 66.0287 11.0104 727 78.7552 575.406 499.153
964 0 68.0144 11.4976 782 77.7059 575.139 498.299
965 0 72.0733 11.2802 813 85.0209 574.79 496.838
966 0 75.0503 11.0193 827 87.3422 574.394 495.643
967 0 76.0886 11.4209 869 87.0046 574.122 496.023
968 0 80.0567 11.6792 935 86.3455 574.689 492.864
969 0 81.0712 11.2494 912 87.7149 574.421 492.816
970 0 84.0669 11.6693 981 86.4801 573.989 490.571
971 0 86.0889 11.372 979 87.3115 574.674 490.411
972 0 88.0891 11.2159 988 87.6933 574.927 487.71
973 0 92.0994 11.9219 1098 85.2714 575.296 486.472
974 0 93.064 11.4437 1065 86.7286 574.952 485.154
975 0 96.0669 11.9188 1145 85.1162 575.358 483.707
976 0 97.0896 11.0516 1073 86.3812 575.344 482.336
977 0 100.092 11.7391 1175 84.1966 575.404 480.363
978 0 103.153 10.8577 1120 85.3473 574.464 479.288
979 0 105.076 10.7065 1125 92.9911 575.276 477.807
980 0 109.116 11.584 1264 93.1456 574.828 476.225
981 0 112.118 11.6039 1301 93.7656 575.862 474.149
982 0 115.114 10.4765 1206 85.9668 575.289 473.197
983 0 115.149 10.4299 1201 88.4488 575.363 472.212
984 0 122.183 10.0096 1223 84.0646 575.662 467.486
985 0 125.154 10.5789 1324 82.6307 575.182 465.403
986 0 129.135 10.5239 1359 82.1891 574.893 464.341
987 0 134.178 10.4488 1402 88.3809 575.652 463.438
988 1 74.045 10.8988 807 82.1908 575.543 493.046
989 0 77.0291 12.0734 930 81.7516 574.846 494.432
990 0 78.104 11.5359 901 73.8779 575.526 491.185
991 0 80.0571 11.8166 946 73.2706 575.154 490.949
992 0 83.0526 10.969 911 74.5082 575.067 492.494
993 0 87.1554 12.1507 1059 72.797 574.67 489.194
994 0 87.0745 11.1858 974 75.5226 575.324 487.647
995 0 88.0748 10.8544 956 76.5492 574.957 486.859
996 0 89.0536 10.8923 970 77.3093 574.977 484.348
997 0 94.0617 11.131 1047 77.2798 574.892 484.269
998 0 97.1553 11.7544 1142 77.7391 575.701 483.623
999 0 102.174 11.7839 1204 78.015 575.846 481.349
1000 0 104.092 12.3929 1290 77.2969 576.191 479.292
1001 0 106.086 12.0468 1278 78.4171 575.732 478.275
1002 0 110.157 12.4731 1374 76.9054 575.124 476.301
1003 0 114.136 11.8456 1352 76.4246 575.414 474.942
1004 1 60.032 10.5111 631 79.1078 574.998 501.81
1005 0 64.1464 11.9882 769 77.6073 575.96 500.657
1006 0 66.1 11.6641 771 85.847 576.34 499.305
1007 0 65.1001 11.3518 739 89.2043 576.525 498.601
1008 0 68.0933 11.5136 784 88.5064 576.769 497.834
1009 0 70.1282 11.2223 787 88.2757 576.621 496.917
1010 0 74.026 12.1309 898 86.5601 576.383 497.801
1011 0 76.1082 12.18 927 86.4412 576.51 496.886
1012 0 78.1701 12.6391 988 86.0779 577.099 494.326
1013 0 79.0937 12.2134 966 87.2909 576.281 493.275
1014 0 81.0788 12.8394 1041 85.6772 575.867 492.97
1015 0 84.0608 12.6813 1066 85.9878 575.99 489.347
1016 0 87.1028 12.468 1086 85.1179 576.402 489.943
1017 0 90.1813 12.5081 1128 85.7004 575.792 488.067
1018 0 93.1426 11.8528 1104 86.3496 576.254 486.169
1019 0 95.0854 12.1785 1158 87.19 576.536 485.714
1020 1 48.0129 9.64325 463 88.7862 576.518 507.611
1021 0 51.0445 11.2451 574 85.1829 577.089 506.46
1022 0 52.0209 10.4958 546 86.5128 577.518 506.799
1023 0 54.0462 11.2311 607 77.7068 577.39 506.56
1024 0 54.0944 10.8699 588 78.2585 578.139 504.105
1025 0 56.0697 11.7711 660 73.9909 577.074 505.276
1026 0 56.0128 10.7654 603 77.5423 577.425 503.688
1027 0 58.0514 10.9903 638 76.127 576.671 503.951
1028 0 59.053 11.6505 688 74.6642 576.744 501.435
1029 0 62.0241 11.8825 737 73.943 576.005 501.905
1030 0 60.0452 11.458 688 75.7951 576.196 499.927
1031 0 63.0457 11.8961 750 76.364 576.129 500.196
1032 0 64.0237 11.9331 764 76.2356 575.7 498.459
1033 0 68.04 11.846 806 77.3734 575.805 498.196
1034 0 69.0701 11.9589 826 79.2651 575.706 496.065
1035 0 71.0775 12.4653 886 77.7065 575.395 495.781
1036 0 72.0636 12.0033 865 79.7676 575.694 495.56
1037 0 75.1192 12.0076 902 80.4922 575.471 493.212
1038 0 77.1845 12.2693 947 80.3632 575.108 490.754
1039 0 81.0935 12.7507 1034 79.8017 575.136 490.572
1040 0 82.1538 12.9148 1061 80.6032 574.951 488.477
1041 0 84.1736 12.0941 1018 82.7809 575.403 486.803
1042 0 86.239 12.3726 1067 82.3402 575.701 487.591
1043 0 87.2265 12.244 1068 83.089 575.858 486.689
1044 0 91.1661 12.384 1129 82.9646 575.695 485.474
1045 0 90.1842 12.1529 1096 83.5976 575.48 481.843
1046 0 96.2956 12.5032 1204 81.5008 575.546 480.002
1047 0 98.2132 13.2365 1300 82.6938 575.836 479.747
1048 0 102.272 12.4178 1270 84.8504 575.623 479.283
1049 0 104.203 13.4353 1400 83.9429 575.906 476.894
1050 0 107.192 13.1353 1408 86.5142 575.494 476.789
1051 0 109.275 12.9398 1414 86.8706 575.501 474.673
1052 0 111.232 12.8111 1425 87.0175 575.975 473.445
1053 0 114.189 12.8121 1463 87.0547 576.209 470.049
1054 0 121.133 12.8866 1561 89.0647 575.736 470.753
1055 0 123.124 12.2559 1509 91.2088 575.843 467.937
1056 1 66.1473 11.2174 742 93.8693 576.597 498.317
1057 0 69.1009 11.6352 804 92.7425 576.878 499.313
1058 0 71.0746 11.9311 848 92.9281 576.397 495.465
1059 0 71.0567 12.1875 866 96.7055 576.344 494.289
1060 0 72.0374 12.2159 880 98.7682 576.757 491.177
1061 0 72.0363 12.2716 884 146.015 576.773 491.133
1062 0 74.1351 11.6679 865 101.34 575.594 496.113
1063 0 76.1093 11.7068 891 101.953 575.426 494.341
1064 0 80.1394 12.2162 979 99.9356 575.273 492.798
1065 0 81.0434 12.228 991 99.55 575.789 492.158
1066 0 85.2314 12.4837 1064 99.859 575.735 491.617
1067 0 86.1646 12.3252 1062 102.064 575.843 488.895
1068 0 89.2251 11.9809 1069 102.636 576.125 489.154
1069 0 91.1254 12.1042 1103 103.538 576.279 487.895
1070 0 93.1191 12.1457 1131 103.861 575.645 487.592
1071 0 95.0654 12.4335 1182 103.935 575.967 486.102
1072 0 99.0873 11.9894 1188 105.375 576.242 484.551
1073 0 104.105 12.7179 1324 103.178 575.733 480.256
1074 0 107.145 12.8424 1376 102.015 575.92 478.377
1075 1 55.0412 10.8464 597 104.407 575.809 503.958
1076 0 59.0347 11.8913 702 103.011 575.705 503.739
1077 0 59.0642 12.2917 726 102.678 576.139 501.346
1078 0 60.0623 11.6213 698 101.39 575.427 504.072
1079 0 61.0678 11.872 725 101.324 576.399 505.4
1080 0 63.1028 11.9329 753 101.489 576.143 504.805
1081 0 65.1675 11.8004 769 101.722 576.103 501.783
1082 0 68.0898 12.1163 825 99.8861 575.862 500.954
1083 0 68.1199 11.5825 789 103.679 575.777 498.997
1084 0 71.1389 12.4264 884 100.459 575.82 498.249
1085 0 73.1595 11.9738 876 100.09 575.978 498.935
1086 0 75.0818 11.3876 855 101.242 575.64 497.62
1087 0 79.1932 11.554 915 99.6754 576.366 496.53
1088 0 79.0537 11.0937 877 100.255 576.974 496.188
1089 0 83.1551 12.1339 1009 111.259 576.14 493.042
1090 0 84.0702 11.8472 996 111.391 576.34 492.378
1091 0 88.0963 12.0209 1059 112.109 575.893 489.532
1092 0 89.0226 11.9183 1061 113.46 575.906 488.381
1093 0 91.0903 11.7685 1072 113.608 575.784 487.481
1094 0 93.0578 11.7239 1091 111.623 575.46 485.926
1095 0 99.0758 12.9194 1280 108.594 575.416 484.563
1096 0 100.064 12.6818 1269 107.219 575.425 482.913
1097 0 104.11 13.4377 1399 104.819 575.37 480.287
1098 0 104.089 12.595 1311 108.242 575.43 481.261
1099 0 107.086 12.532 1342 107.779 577.6 482.549
1100 0 108.063 11.993 1296 110.238 576.936 482.299
1101 0 111.11 11.8531 1317 110.705 575.981 480.496
1102 0 115.05 12.212 1405 109.837 576.349 478.001
1103 0 120.114 12.563 1509 108.39 575.584 475.408
1104 0 122.144 11.9449 1459 111.801 575.626 473.258
1105 0 126.066 12.898 1626 110.978 575.99 471.254
1106 0 130.136 12.2103 1589 112.955 575.098 468.578
1107 0 134.179 12.9007 1731 110.393 575.308 466.884
1108 0 137.212 12.5208 1718 110.781 575.148 464.83
1109 0 142.197 12.5038 1778 110.471 575.328 461.76
1110 0 145.185 12.0674 1752 111.437 575.061 459.289
1111 0 150.186 12.4379 1868 111.423 575.27 453.426
1112 0 154.169 11.7923 1818 110.756 574.613 441.987
1113 0 162.155 12.8087 2077 108.451 575.059 438.362
1114 0 169.256 13.199 2234 105.948 575.815 437.643
1115 0 173.412 12.9749 2250 106.771 575.451 435.607
1116 0 179.209 13.208 2367 107.744 575.251 432.605
1117 0 183.288 13.116 2404 108.341 575.376 431.313
1118 0 187.35 12.3779 2319 111.207 575.445 430.499
1119 0 191.362 11.8832 2274 114.215 574.958 429.169
1120 0 195.203 12.1207 2366 111.005 575.156 429.963
1121 0 204.368 12.5949 2574 111.373 575.018 429.312
1122 1 154.177 10.5074 1620 110.191 575.2 458.225
1123 0 160.309 10.592 1698 112.573 575.231 454.477
1124 0 165.303 11.615 1920 114.48 574.946 455.407
1125 0 172.292 12.5775 2167 112.947 574.795 450.527
1126 0 176.258 12.7087 2240 113.983 575.108 448.421
1127 0 182.329 12.7407 2323 113.828 574.601 445.852
1128 0 187.323 13.1004 2454 113.819 575.849 443.457
1129 0 192.288 12.9857 2497 115.176 576.044 438.793
1130 0 198.293 12.9354 2565 115.011 575.997 436.5
1131 0 203.261 12.8554 2613 117.683 575.536 435.252
1132 0 209.262 12.8069 2680 119.365 575.506 432.179
1133 0 216.241 13.4109 2900 118.682 575.218 428.156
1134 0 226.242 13.3043 3010 118.024 575.207 424.127
1135 0 231.339 13.7115 3172 113.2 575.592 416.45
1136 0 237.209 13.2878 3152 116.882 575.035 414.071
1137 0 245.274 13.5359 3320 116.021 575.27 409.078
1138 1 55.0769 11.2933 622 107.33 575.124 508.531
1139 0 57.0337 11.3442 647 109.326 575.178 505.765
1140 0 58.0523 11.3346 658 109.337 575.843 505.456
1141 0 58.122 11.149 648 106.293 575.045 507.63
1142 0 57.0307 10.0823 575 109.718 575.054 509.301
1143 0 57.0344 10.4148 594 110.593 575.057 510.29
1144 0 59.0521 10.7363 634 110.576 574.315 508.874
1145 0 60.0426 10.1428 609 113.744 574.626 508.571
1146 0 62.0392 9.71965 603 116.514 575.036 507.421
1147 0 63.0354 9.51846 600 117.388 574.768 506.908
1148 0 66.0337 10.8884 719 113.777 574.932 504.065
1149 0 68.0257 10.2608 698 114.404 574.02 502.411
1150 0 70.0357 10.0806 706 100.422 574.7 502.133
1151 0 72.0605 10.2275 737 101.11 574.51 500.815
1152 0 73.0282 9.92768 725 101.64 574.803 500.931
1153 0 76.0504 10.3878 790 102.41 574.14 498.516
1154 0 79.0625 9.38498 742 105.806 573.991 497.372
1155 0 81.105 9.7158 788 105.758 573.487 493.939
1156 0 84.0634 11.0155 926 102.678 574.093 493.375
1157 1 42.013 9.63988 405 111.131 573.511 513.269
1158 0 43.0487 10.2907 443 110.634 573.537 513.499
1159 0 45.0211 10.595 477 110.562 573.759 512.807
1160 0 45.0616 10.3858 468 105.472 574.536 511.994
1161 0 46.0462 10.3809 478 102.713 574.487 510.774
1162 0 49.0243 9.60748 471 105.17 574.59 509.297
1163 0 49.03 9.72874 477 120.608 574.161 452.912
1164 0 47.0743 10.4091 490 101.31 574.892 509.327
1165 0 52.1071 10.1714 530 99.6887 575.668 507.658
1166 0 52.0481 9.12618 475 93.2505 574.922 501.665
1167 0 55.0727 9.75075 537 93.0652 574.344 501.317
1168 0 56.0278 9.20971 516 94.9167 573.653 501.209
1169 0 58.0981 10.0003 581 95.5972 574.441 501.298
1170 0 61.0917 10.5579 645 96.9954 575.364 502.674
1171 0 63.0587 11.5289 727 97.2187 575.472 503.861
1172 0 64.1305 10.7125 687 97.9243 575.24 502.004
1173 0 64.0756 10.8466 695 98.4662 574.43 502.489
1174 0 67.0743 10.6896 717 99.5816 574.467 502.063
1175 0 68.0769 10.8994 742 98.1469 575.352 501.217
1176 0 71.1043 11.0964 789 96.2079 574.693 499.314
1177 1 34.0137 9.20217 313 103.463 574.454 516.521
1178 0 35.0257 9.87845 346 100.35 573.818 516.341
1179 0 37.0312 9.5595 354 99.8729 574.073 515.24
1180 0 37.0549 10.4979 389 98.5836 574.093 516.013
1181 0 38.0177 10.0479 382 96.2251 574.052 517.215
1182 0 40.0536 10.7606 431 92.522 574.541 516.942
1183 0 42.0305 10.8969 458 94.8035 574.181 517.297
1184 0 42.0205 10.6139 446 93.8386 574.652 516.462
1185 0 43.0178 10.5305 453 92.6402 574.4 515.589
1186 0 45.0459 11.1442 502 90.1295 574.865 514.58
1187 0 47.0356 11.0767 521 87.62 575.065 513.098
1188 0 48.0283 11.4516 550 86.3964 574.967 511.607
1189 0 49.1283 10.7677 529 87.9924 574.686 511.756
1190 0 50.0279 10.8739 544 89.3474 575.066 511.224
1191 0 52.107 10.3441 539 88.9944 574.414 510.221
1192 0 53.0758 10.777 572 87.6451 574.724 509.542
1193 0 55.0911 10.4191 574 88.1237 574.47 509.204
1194 0 54.0857 10.9271 591 88.7496 575.03 508.425
1195 0 59.113 10.6745 631 101.77 573.765 506.861
1196 0 57.0765 11.3181 646 100.909 573.749 505.806
1197 0 56.1069 9.85618 553 103.36 573.788 505.58
1198 0 57.0801 10.5991 605 101.668 573.314 504.739
1199 0 62.084 10.518 653 101.009 573.518 502.461
1200 0 67.1045 10.7444 721 96.8169 573.613 502.258
1201 0 70.1227 11.8792 833 94.964 574.552 501.851
1202 0 71.1181 11.7832 838 94.0656 574.529 501.344
1203 0 71.218 11.7667 838 94.4833 573.969 500.243
1204 0 74.1922 11.6859 867 93.0185 573.96 499.226
1205 0 75.1087 11.5433 867 94.4602 574.497 499.446
1206 0 76.2282 11.7804 898 93.8341 574.459 498.498
1207 0 80.1166 11.1462 893 95.467 575.05 497.324
1208 0 81.1692 11.4822 932 94.7929 574.369 496.197
1209 0 82.2281 11.3951 937 96.428 574.853 495.268
1210 0 83.195 10.4453 869 96.2796 574.091 494.558
1211 0 85.2704 10.2967 878 98.508 574.591 494.842
1212 0 91.196 10.8996 994 96.1841 573.9 491.278
1213 0 94.1825 10.5858 997 96.0492 574.199 490.254
1214 0 95.1485 10.615 1010 96.7416 573.57 490.426
1215 0 98.1675 10.8692 1067 95.269 574.168 489.871
1216 0 102.213 10.6053 1084 95.6651 573.763 486.382
1217 0 106.178 10.4636 1111 96.4968 574.453 485.871
1218 0 108.295 10.6837 1157 95.7277 573.899 483.674
1219 1 53.089 11.5278 612 88.7565 574.149 511.837
1220 0 55.19 10.6179 586 91.7116 574.423 509.222
1221 0 56.1057 11.4783 644 92.9534 574.099 509.649
1222 0 58.0814 11.8799 690 99.5203 573.816 508.194
1223 0 58.0982 11.4978 668 91.3099 574.181 508.454
1224 0 60.0994 12.1798 732 88.6475 574.945 507.184
1225 0 63.0425 11.8492 747 89.0214 574.656 506.348
1226 0 66.059 12.9733 857 86.5846 574.728 505.268
1227 0 66.0457 12.5368 828 89.0483 574.367 503.822
1228 0 68.0571 12.4895 850 89.2482 575 503.098
1229 0 71.1009 12.7987 910 89.4044 574.909 500.203
1230 0 74.0426 12.7899 947 89.2598 574.102 498.45
1231 0 75.0501 12.5516 942 90.4607 574.483 498.458
1232 0 77.0836 12.8302 989 91.1547 573.921 496.108
1233 0 79.066 12.2935 972 93.1008 574.24 497.112
1234 0 81.2083 11.9692 972 93.7037 573.656 493.39
1235 0 85.1208 12.8523 1094 90.5969 573.859 493.554
1236 0 87.2249 12.8862 1124 91.4128 573.965 491.018
1237 0 90.1362 12.4478 1122 92.574 574.54 491.232
1239 0 93.1623 12.2474 1141 93.2805 574.024 489.827
1240 0 95.2179 12.8337 1222 91.9624 574.473 489.469
1241 0 95.2138 11.931 1136 95.9657 574.392 489.684
1242 0 99.0571 12.2556 1214 93.1104 575.107 486.951
1243 0 102.176 12.4197 1269 92.0638 574.162 485.545
1244 0 103.252 11.9029 1229 93.0504 574.521 484.628
1245 0 111.124 12.2386 1360 91.7346 574.505 478.843
1246 0 116.181 12.9539 1505 89.0027 574.91 476.332
1247 0 120.161 12.2586 1473 93.685 574.703 473.441
1248 0 122.306 12.6159 1543 93.4854 575.284 473.628
1249 0 125.298 12.163 1524 94.378 574.984 464.763
1250 1 61.1603 10.5788 647 96.0325 574.934 495.672
1251 0 63.1483 10.895 688 94.7529 574.769 494.991
1252 0 65.1752 11.6916 762 87.6247 575.337 494.152
1253 0 68.3174 12.2224 835 96.3665 575.223 498.989
1254 0 68.0316 10.9361 744 84.9247 576.649 499.839
1255 0 72.0957 11.7899 850 84.3588 576.771 498.944
1256 0 74.1237 12.1014 897 89.1182 575.871 500.714
1257 0 77.0391 12.2146 941 90.1392 576.257 500.414
1258 0 79.0377 12.222 966 92.5828 575.735 498.41
1259 0 81.0619 12.509 1014 93.003 574.871 497.829
1260 0 83.0698 12.4474 1034 93.765 575.057 496.078
1261 0 86.1 12.0674 1039 94.7709 574.545 495.03
1262 0 88.0808 12.6021 1110 95.2486 574.933 491.844
1263 0 91.0616 12.7277 1159 94.5462 574.525 493.006
1264 0 93.1049 12.9316 1204 94.4161 575.263 492.37
1265 0 95.1926 12.1858 1160 97.2509 574.862 488.002
1266 0 97.0583 12.7346 1236 96.3341 575.193 489.354
1267 0 101.085 12.9001 1304 94.8719 575.086 489.199
1268 0 104.106 13.2653 1381 94.273 575.109 487.836
1269 0 108.119 13.0504 1411 95.606 575.318 485.592
1270 0 110.137 13.6466 1503 95.4737 574.813 484.114
1271 0 114.163 13.5946 1552 98.212 574.24 480.534
1272 0 116.172 13.8416 1608 100.568 574.163 479.352
1273 0 120.152 13.433 1614 102.437 575.173 477.566
1274 0 124.237 14.0135 1741 106.63 574.604 473.883
1275 0 129.21 14.1785 1832 105.532 574.74 473.634
1276 0 132.212 13.8565 1832 106.821 574.505 471.517
1277 0 135.136 13.7787 1862 108.375 574.412 468.648
1278 0 141.152 14.3462 2025 105.007 574.644 465.947
1279 0 145.147 13.6275 1978 106.188 574.429 465.175
1280 1 82.066 12.6362 1037 102.622 574.898 496.283
1281 0 84.0782 12.643 1063 104.251 574.56 495.544
1282 0 88.1834 13.1431 1159 103.721 574.708 493.414
1283 0 91.1602 13.6134 1241 111.54 574.571 492.809
1284 0 92.091 13.4758 1241 113.697 575.385 492.274
1285 0 96.1112 13.4428 1292 114.608 574.839 490.406
1286 0 99.058 13.9615 1383 111.711 574.967 488.062
1287 0 102.078 13.5289 1381 114.177 575.426 487.296
1288 0 104.104 14.1397 1472 112.584 575.36 487.546
1289 0 107.117 13.8073 1479 114.477 575.66 485.275
1290 0 111.114 13.5086 1501 113.484 575.134 484.845
1291 0 114.161 13.7875 1574 110.346 575.937 482.512
1292 0 118.047 13.8844 1639 109.007 575.53 479.71
1293 0 120.076 13.5331 1625 113.239 575.507 478.319
1294 0 122.058 13.2642 1619 112.899 575.145 477.314
1295 0 128.072 13.3363 1708 112.506 574.864 474.087
1296 0 131.038 13.6754 1792 112.443 574.867 473.277
1297 0 134.116 13.2124 1772 113.269 574.94 472.577
1298 0 138.112 13.6339 1883 112.092 574.841 469.165
1299 0 142.09 13.421 1907 112.87 574.778 467.631
1300 0 146.101 13.1416 1920 115.116 574.467 464.424
1301 0 151.114 13.738 2076 113.359 575.157 462.283
1302 0 155.111 13.8352 2146 113.163 575.245 458.93
1303 0 159.225 13.4275 2138 114.304 575.749 456.529
1304 0 163.176 13.1514 2146 116.286 575.642 453.101
1305 0 170.138 12.9659 2206 116.206 575.509 450.202
1306 0 174.161 12.6837 2209 117.62 575.469 447.277
1307 0 177.238 12.6666 2245 117.993 575.283 444.499
1308 0 184.184 13.0956 2412 117.262 575.155 444.122
1309 0 187.191 12.522 2344 120.439 575.401 438.947
1310 0 194.252 12.6691 2461 120.117 575.246 436.675
1311 0 198.208 12.9207 2561 121.125 575.136 433.254
1312 0 203.261 12.88 2618 121.082 574.767 427.052
1313 0 210.289 12.9822 2730 117.788 574.973 424.675
1314 0 216.247 12.8094 2770 118.026 574.894 419.23
1315 1 52.0647 11.0439 575 113.301 574.956 497.854
1316 0 56.1082 11.6382 653 111.809 575.289 502.729
1317 0 59.1896 12.046 713 110.353 575.296 502.648
1318 0 60.1873 12.594 758 113.047 574.828 503.189
1319 0 64.0523 13.6139 872 109.404 574.684 505.934
1320 0 64.1776 12.8394 824 110.93 574.365 504.206
1321 0 67.096 13.2944 892 108.979 575.059 504.29
1322 0 68.0466 13.0646 889 109.062 574.291 501.794
1323 0 72.056 12.8095 923 109.697 574.22 500.571
1324 0 75.2348 13.1588 990 108.827 575.148 498.43
1325 0 76.1837 13.4937 1028 108.625 574.995 498.554
1326 0 78.1046 13.5075 1055 109.578 575.662 498.351
1327 0 82.0824 14.0469 1153 103.913 576.42 497.669
1328 0 83.0901 13.4553 1118 108.869 576.478 495.811
1329 0 86.1939 13.5392 1167 108.626 575.028 493.975
1330 0 86.1377 13.0489 1124 111.262 574.682 493.898
1331 0 90.2165 13.2902 1199 109.427 574.465 492.173
1332 0 92.1861 12.6917 1170 111.444 574.558 491.524
1333 0 95.2858 12.4992 1191 111.616 574.695 490.422
1334 0 99.2878 13.1638 1307 108.414 574.85 489.882
1335 0 100.29 13.1618 1320 108.539 574.617 488.621
1336 0 100.297 13.111 1315 152.357 573.601 488.576
1337 0 106.331 13.1476 1398 105.595 574.529 485.085
1338 0 108.274 12.9948 1407 105.724 574.667 483.371
1339 0 111.317 12.8731 1433 107.898 574.411 481.906
1340 0 115.424 13.4808 1556 106.037 575.174 482.519
1341 0 116.247 12.4734 1450 109.092 574.956 478.317
1342 0 120.325 12.832 1544 108.17 574.385 476.28
1343 0 125.335 13.3083 1668 106.434 574.52 474.79
1344 0 129.337 13.314 1722 106.452 573.772 474.494
1345 0 133.533 14.7829 1974 102.687 574.09 468.069
1346 0 134.356 13.5238 1817 107.572 573.915 470.264
1347 0 138.651 13.5087 1873 108.097 573.926 467.214
1348 0 141.536 13.7562 1947 109.702 574.091 464.464
1349 0 145.673 13.9284 2029 108.834 573.867 461.465
1350 0 149.375 13.6569 2040 110.421 573.373 458.544
1351 0 151.531 14.1357 2142 112.561 573.305 455.774
1352 0 156.487 13.4708 2108 114.309 573.97 453.07
1353 0 161.621 14.2741 2307 113.022 573.469 452.12
1354 0 165.358 14.4777 2394 112.448 574.253 449.089
1355 0 169.462 14.6168 2477 111.746 573.996 450.935
1356 0 175.511 14.9734 2628 110.408 574.207 447.324
1357 0 179.775 14.7462 2651 112.096 574.017 444.338
1358 0 184.41 14.4949 2673 114.96 573.964 440.898
1359 0 190.505 14.4038 2744 115.018 573.691 436.462
1360 0 194.52 14.2093 2764 113.406 572.985 438.213
1361 0 198.597 13.9026 2761 114.505 574.139 435.251
1362 0 207.582 14.0089 2908 112.323 573.926 431.212
1363 0 215.493 13.9633 3009 111.886 574.165 427.535
1364 1 159.529 12.2047 1947 119.787 574.049 454.098
1365 0 166.563 13.2623 2209 116.731 574.308 449.493
1366 0 170.593 13.5879 2318 117.27 574.176 447.275
1367 0 177.696 13.7482 2443 115.874 574.186 443.808
1368 0 183.422 13.6734 2508 116.5 574.052 444.071
1369 0 190.638 13.8902 2648 116.444 574.368 441.449
1370 0 196.546 14.1697 2785 115.859 574.498 439.161
1371 0 201.475 14.0911 2839 117.293 574.153 435.207
1372 0 210.494 14.2474 2999 117.155 573.462 432.732
1373 0 216.5 14.5681 3154 115.904 573.684 429.782
1374 0 221.373 14.252 3155 115.56 573.46 428.752
1375 1 57.2733 10.6158 608 103.016 573.84 509.242
1376 0 59.0777 11.4595 677 101.854 573.292 507.662
1377 0 60.0689 11.287 678 97.3599 573.886 507.515
1378 0 61.1744 11.9331 730 97.1521 573.588 506.867
1379 0 63.2841 11.4405 724 96.8992 574.137 507.311
1380 0 63.2381 12.1762 770 101.004 573.991 507.549
1381 0 63.1158 11.7562 742 105.181 574.466 507.061
1382 0 64.1518 11.6287 746 105.979 574.024 506.832
1383 0 65.098 11.7976 768 104.152 573.785 506.267
1384 0 66.1853 11.3469 751 103.615 573.991 506.369
1385 0 68.167 11.5892 790 100.544 573.191 503.758
1386 0 71.2537 11.3538 809 97.3016 572.771 505.336
1387 0 72.217 11.2023 809 96.3894 572.998 505.347
1388 0 75.1625 11.3621 854 94.2073 573.186 503.583
1389 0 77.1663 11.6631 900 92.03 572.964 501.904
1390 0 79.1261 11.943 945 89.9683 573.37 500.569
1391 0 81.1581 11.0648 898 92.8129 572.728 498.552
1392 0 83.1548 11.689 972 91.0658 573.211 498.536
1393 0 84.193 11.0579 931 93.5005 572.513 496.184
1394 1 31.0606 9.43318 293 80.5939 572.785 524.41
1395 0 33.0686 9.22324 305 80.6197 572.862 524.236
1396 0 32.0625 9.01365 289 83.308 573.522 522.689
1397 0 30.0175 8.56167 257 86.2101 574.265 523.202
1398 0 31.0556 9.43469 293 84.5802 574.024 522.304
1399 0 32.0222 8.96252 287 88.8432 574.533 522.317
1400 0 33.043 9.26066 306 89.0327 574.14 521.742
1401 0 33.0463 9.83469 325 90.7385 574.665 521.545
1402 0 33.1206 8.30299 275 95.4836 573.782 520.131
1403 0 33.1294 8.81392 292 97.3185 573.199 519.106
1404 0 34.1212 8.70425 297 97.5859 573.135 518.764
1405 0 36.1694 9.45551 342 96.6871 572.866 517.582
1406 0 36.1834 8.62274 312 98.4295 573.413 517.042
1407 0 37.1472 9.28737 345 97.5942 573.162 516.687
1408 1 119.486 11.7336 1402 112.581 573.292 471.439
1409 0 121.416 12.2306 1485 112.347 573.119 470.157
1410 0 127.47 12.1048 1543 112.756 573.42 467.596
1411 0 130.343 12.5745 1639 112.816 573.796 468.711
1412 0 132.28 11.8083 1562 115.387 573.272 465.721
1413 1 40.0534 9.76197 391 97.4552 573.87 518.394
1414 0 41.0701 10.2508 421 94.5629 574.99 518.399
1415 0 41.0932 10.1477 417 96.5036 575.194 516.868
1416 0 42.0226 8.87618 373 101.643 574.778 516.512
1417 0 42.0491 9.5127 400 99.855 574.962 517.342
1418 0 44.0571 9.57847 422 100.457 574.763 516.443
1419 0 45.051 10.1441 457 99.3217 575.223 515.516
1420 0 46.0744 9.91874 457 99.186 575.431 516.497
1421 0 47.0707 10.4524 492 97.8537 575.4 515.772
1422 0 48.0331 10.2637 493 99.2231 575.112 515.432
1423 0 48.0237 9.89095 475 100.232 574.699 514.034
1424 0 49.046 10.2557 503 100.485 575.636 513.38
1425 0 51.0736 10.0639 514 100.479 575.593 513.525
1426 0 53.1206 11.088 589 98.3158 575.318 511.088
1427 0 55.0832 11.2739 621 96.8599 575.459 508.597
1428 0 56.149 10.579 594 99.0135 575.375 509.288
1429 0 58.1208 11.4589 666 96.0375 574.444 507.252
1430 0 61.2435 10.9073 668 96.6647 574.762 507.795
1431 0 61.1808 11.0983 679 96.3888 574.51 506.862
1432 0 65.2421 11.8175 771 99.6252 574.654 502.839
1433 0 66.2781 11.5574 766 94.8185 574.67 503.198
1434 0 67.2309 11.4977 773 93.7012 574.708 502.651
1435 0 68.148 11.5631 788 92.8566 574.568 501.496
1436 0 71.275 11.9397 851 93.0212 574.514 499.163
1437 0 75.2246 11.6983 880 92.3205 573.825 498.309
1438 0 74.1225 11.3191 839 97.1156 574.459 497.451
1439 0 77.1847 11.4271 882 96.5612 573.859 496.739
1440 0 79.1695 11.8101 935 96.3551 574.421 496.394
1441 0 81.1621 12.6537 1027 92.0273 574.041 494.513
1442 0 83.1736 12.1793 1013 95.535 573.812 491.285
1443 0 86.1594 11.943 1029 95.5909 573.989 491.982
1444 0 86.1232 11.7971 1016 94.4272 573.814 492.462
1445 0 90.0874 12.1438 1094 95.1691 573.779 489.796
1446 0 92.1124 12.7127 1171 89.0965 574.11 488.528
1447 0 94.1292 11.9304 1123 88.7213 574.371 486.476
1448 0 95.2256 12.3496 1176 87.9668 574.631 484.041
1449 0 98.1604 11.634 1142 88.2207 574.424 482.246
1450 0 102.225 12.0421 1231 86.9285 574.335 479.068
1451 0 106.09 11.839 1256 87.6927 573.777 479.809
1452 0 109.107 12.0982 1320 89.0659 574.515 477.57
1453 0 111.106 11.9975 1333 89.1208 574.13 474.788
1454 0 114.103 12.3836 1413 87.8096 573.833 474.438
1455 0 118.138 12.6377 1493 86.8359 574.28 473.032
1456 0 120.101 11.6485 1399 88.6383 574.312 471.379
1457 0 127.125 11.532 1466 87.7633 573.267 470.03
1458 0 129.104 11.6185 1500 86.8207 572.897 467.94
1459 1 66.0485 10.1441 670 87.1284 572.473 500.412
1460 0 69.0412 9.96506 688 88.5494 572.942 500.372
1461 0 71.0626 10.8355 770 88.8961 572.827 495.979
1462 0 75.0747 10.7493 807 89.4597 572.834 497.271
1463 0 78.0986 11.1654 872 89.0642 573.118 495.927
1464 0 79.1131 11.6163 919 91.0326 573.175 493.632
1465 0 83.2072 12.2465 1019 89.1963 573.379 492.692
1466 0 84.1723 11.3339 954 91.8753 572.5 489.86
1467 0 87.1502 11.4974 1002 92.0888 573.028 487.647
1468 0 88.1879 11.1807 986 93.646 573.096 485.27
1469 0 91.1742 11.5822 1056 93.2434 572.801 485.143
1470 0 94.1541 12.0016 1130 91.6522 573.062 486.019
1471 0 97.2345 12.187 1185 92.0076 572.878 482.456
1472 0 98.1789 11.7541 1154 93.6785 573.12 480.361
1473 0 102.183 12.6048 1288 90.4728 572.586 481.54
1474 0 104.188 12.4582 1298 90.9877 573.163 480.551
1475 0 107.237 12.5237 1343 90.8637 573.123 476.89
1476 0 110.297 12.0584 1330 92.0872 573.097 479.042
1477 0 113.257 12.273 1390 92.0504 573.734 475.943
1478 1 60.1434 10.1258 609 88.2808 573.299 504.537
1479 0 64.0972 11.0769 710 89.6718 573.544 502.562
1480 0 64.0618 11.3484 727 85.1224 575.118 503.582
1481 0 63.0396 9.93026 626 80.4569 574.968 506.348
1482 0 67.0882 10.1955 684 79.4415 574.92 502.578
1483 0 69.0849 10.0167 692 78.8396 574.776 502.84
1484 0 68.044 9.52325 648 80.1065 574.227 500.221
1485 0 71.033 9.9672 708 79.8206 574.016 498.024
1486 0 73.0765 10.1264 740 80.2959 574.131 496.264
1487 0 75.0426 10.061 755 80.8013 573.763 495.869
1488 0 80.1314 10.6949 857 80.3186 573.864 493.816
1489 0 80.1314 10.7199 859 112.577 573.851 493.828
1490 0 84.0868 10.8578 913 81.46 573.632 491.912
1491 0 84.0421 9.79272 823 83.4253 574.17 484.758
1492 0 91.0423 10.3798 945 81.9111 574.406 485.221
1493 1 46.0405 8.84004 407 74.0123 574.767 508.334
1494 0 46.0358 7.64622 352 75.5085 573.875 506.946
1495 0 49.0293 8.85185 434 75.5576 574.749 506.869
1496 0 47.0164 8.69909 409 77.9462 574.932 502.196
1497 0 53.0117 9.05461 480 76.2938 574.988 505.792
1498 0 53.0651 9.51661 505 77.4376 574.291 507.156
1499 0 54.0361 10.6965 578 81.263 573.796 506.704
1500 0 54.0738 9.39457 508 85.563 573.24 508.222
1501 0 55.0309 9.41289 518 86.3591 573.332 507.095
1502 0 55.0373 9.86604 543 86.1123 573.274 504.773
1503 0 57.0868 10.1424 579 85.7565 573.23 504.038
1504 0 60.051 10.0581 604 86.3212 573.424 503.25
1505 0 61.0203 9.75086 595 87.3647 573.756 503.148
1506 0 62.0373 8.88175 551 84.3503 574.045 499.339
1507 0 63.1303 9.06062 572 87.8199 574.294 499.792
1508 0 65.0262 8.85797 576 88.7118 574.207 498.627
1509 0 70.0443 9.09424 637 85.8383 574.287 497.1
1510 0 75.063 11.6169 872 80.2144 574.171 499.672
1511 0 76.0885 10.9872 836 81.7273 574.574 499.054
1512 0 78.0924 11.5632 903 81.1418 574.582 498.451
1513 0 81.0487 11.3018 916 82.3843 574.17 497.099
1514 0 83.0927 11.6256 966 81.8582 573.873 495.792
1515 0 87.1226 11.6732 1017 82.3432 573.294 494.583
1516 0 89.1188 11.8494 1056 84.4205 573.558 492.655
1517 0 91.1061 12.3702 1127 85.0222 573.872 490.776
1518 0 91.1061 12.3592 1126 149.461 574.876 490.802
1519 0 97.0806 12.2167 1186 86.1788 575.006 488.087
1520 0 99.104 11.5233 1142 89.2364 574.664 485.963
1521 0 101.076 12.4164 1255 88.3434 574.557 483.665
1522 0 105.081 12.2097 1283 88.9143 575.147 482.968
1523 0 109.133 12.0312 1313 88.9992 575.179 480.398
1524 0 110.105 11.5617 1273 92.1013 574.874 478.934
1525 0 115.081 12.3478 1421 90.5201 575.263 477.341
1526 1 59.0619 10.1758 601 85.7637 575.346 507.596
1527 0 62.0832 10.9531 680 85.4926 573.285 503.293
1528 0 66.011 11.8465 782 82.4834 574.822 503.302
1529 0 68.0626 11.1956 762 84.0669 574.636 504.05
1530 0 70.0362 11.4369 801 83.8789 574.928 503.05
1531 0 72.0898 10.9031 786 84.7697 574.83 501.739
1532 0 75.0767 11.7746 884 81.707 575.18 501.808
1533 0 79.0505 11.499 909 83.8944 574.854 497.585
1534 0 79.0285 11.2618 890 86.1034 575.003 496.983
1535 0 84.0401 12.2323 1028 82.715 576.111 496.294
1536 0 85.0864 11.929 1015 83.7773 575.808 493.129
1537 0 88.0828 11.0578 974 85.6016 574.834 491.662
1538 0 89.0244 11.3789 1013 86.537 574.929 489.091
1539 0 91.0852 11.1873 1019 87.9696 574.611 485.532
1540 0 97.0526 12.0553 1170 85.3718 574.469 486.067
1541 0 99.1548 11.8602 1176 88.4005 575.734 483.234
1542 1 53.024 10.3727 550 89.52 575.295 506.705
1543 0 55.0117 11.034 607 86.4382 575.181 506.458
1544 0 57.0927 10.9121 623 86.6886 574.795 505.116
1545 0 59.0811 11.3742 672 84.8438 574.766 505.9
1546 0 61.1133 11.765 719 89.1488 574.042 504.166
1547 0 63.1357 11.3565 717 90.2357 574.697 502.697
1548 0 64.0891 11.9053 763 89.7222 574.037 502.797
1549 0 66.116 12.463 824 88.7949 574.771 501.792
1550 0 66.0938 11.7712 778 92.1645 574.186 500.783
1551 0 67.0768 12.0012 805 92.5789 574.504 499.062
1552 0 72.0746 12.3067 887 90.4487 574.711 498.646
1553 0 74.0509 12.6805 939 90.0501 574.296 498.627
1554 0 75.0704 12.2552 920 91.7152 574.192 497.74
1555 0 77.0732 13.0396 1005 92.3463 574.24 496.035
1556 0 77.1219 12.4089 957 94.6374 574.257 495.618
1557 0 81.1102 13.0193 1056 92.7206 574.077 495.56
1558 0 84.0683 13.6437 1147 91.1221 574.39 493.76
1559 0 85.0801 13.2228 1125 94.2471 573.941 492.296
1560 0 90.073 13.7 1234 93.3671 574.634 491.173
1561 0 92.1459 13.4135 1236 93.7638 573.887 490.262
1562 0 95.043 14.0252 1333 92.4554 574.507 488.35
1563 0 96.0917 13.664 1313 94.409 574.296 487.472
1564 0 100.09 14.0973 1411 93.1524 574.514 486.457
1565 0 101.086 14.2948 1445 93.7972 574.618 484.041
1566 0 103.086 13.8913 1432 95.4567 574.374 483.742
1567 0 107.096 14.585 1562 93.0461 574.056 482.967
1568 0 112.142 14.3835 1613 92.0273 573.568 480.497
1569 0 113.141 14.4687 1637 94.0666 574.673 479.025
1570 0 117.15 13.9735 1637 95.4545 574.412 477.588
1571 1 60.0574 10.5899 636 94.8113 574.275 502.37
1572 0 59.0621 10.7514 635 91.3433 574.318 500.348
1573 0 60.0747 11.236 675 91.6267 574.144 496.45
1574 0 64.0677 12.0341 771 90.0298 574.253 498.009
1575 0 63.0374 10.6921 674 82.1113 574.114 499.582
1576 0 67.0661 11.9136 799 85.4418 574.121 501.794
1577 0 70.0157 11.7974 826 85.4516 573.738 501.145
1578 0 70.0892 12.1131 849 86.4888 573.795 501.033
1579 0 74.0497 11.7489 870 86.3942 573.263 498.61
1580 0 77.083 12.3892 955 86.7623 574.344 496.796
1581 0 79.0475 12.5368 991 87.776 574.035 496.019
1582 0 80.0656 12.2774 983 89.1506 573.633 494.329
1583 0 83.0244 13.0685 1085 86.7972 574.082 492.785
1584 0 83.057 11.8714 986 91.3235 574.199 492.38
1585 0 89.0342 12.8602 1145 92.6812 574.594 489.986
1586 0 91.0702 13.4072 1221 94.0672 574.468 487.633
1587 0 93.0423 13.1231 1221 95.1843 573.939 486.479
1588 0 97.0578 13.3426 1295 93.8494 573.757 485.525
1589 0 98.0505 12.7689 1252 94.0767 573.873 483.68
1590 0 100.116 12.9949 1301 94.8563 573.946 480.132
1591 0 103.185 12.8313 1324 94.4305 574.575 480.818
1592 0 106.075 12.0104 1274 95.5259 574.771 479.195
1593 0 111.177 12.3497 1373 92.587 574.532 477.474
1594 0 115.14 12.8452 1479 89.6944 574.448 474.71
1595 0 120.101 12.3812 1487 89.7518 574.633 472.59
1596 0 125.156 12.6722 1586 88.3777 574.153 470.107
1597 1 64.1068 10.3109 661 88.8064 573.938 500.383
1598 0 66.1932 11.6175 769 90.9051 574.754 495.035
1599 0 67.14 12.3324 828 91.8841 574.219 493.866
1600 0 71.1019 12.1938 867 89.9827 574.204 497.954
1601 0 73.0541 12.2375 894 89.7987 573.95 496.845
1602 0 75.0587 11.6309 873 91.1776 573.6 495.187
1603 0 79.0812 12.1268 959 89.7602 573.488 492.989
1604 0 80.0927 11.4368 916 90.476 574.23 492.135
1605 0 82.0433 10.7626 883 85.6761 573.804 491.673
1606 0 86.1015 11.4284 984 83.2337 574.237 489.801
1607 0 87.0396 10.995 957 82.1024 573.483 488.833
1608 0 91.0722 10.7827 982 81.724 574.128 489.415
1609 0 93.0405 10.92 1016 81.8159 573.119 488.806
1610 0 97.0565 10.4578 1015 81.5744 573.763 486.442
1611 1 51.0219 10.1329 517 77.6905 573.952 509.692
1612 0 53.0254 9.99522 530 77.8415 573.689 508.617
1613 0 55.0126 10.8339 596 76.6628 574.017 505.784
1614 0 55.0791 10.1672 560 80.3929 574.773 503.845
1615 0 57.0607 10.9182 623 77.8652 575.032 500.543
1616 0 59.0566 11.2265 663 69.1991 573.882 497.813
1617 0 60.0362 11.5763 695 76.0345 573.873 500.083
1618 0 63.09 11.0319 696 76.9138 574.161 500.766
1619 0 66.0569 12.0654 797 74.7654 574.166 498.793
1620 0 68.041 11.3902 775 85.3058 573.188 496.95
1621 0 71.039 12.3172 875 82.8846 573.738 495.395
1622 0 73.0524 11.6355 850 84.5353 573.321 495.522
1623 0 73.0695 11.4959 840 87.3381 573.126 493.513
1624 0 78.045 11.724 915 86.341 573.21 492.295
1625 0 80.0947 11.3865 912 87.443 572.831 491.798
1626 0 81.0409 11.5744 938 88.5522 573.245 489.197
1627 0 85.0863 11.7528 1000 86.95 573.097 489.338
1628 0 86.0942 10.8602 935 89.4406 573.181 487.197
1629 0 88.0786 11.2854 994 89.2918 573.208 485.967
1630 0 91.0388 11.3139 1030 89.8835 573.656 484.711
1631 0 95.0454 11.4682 1090 91.2716 573.85 484.143
1632 0 95.0393 11.511 1094 91.6618 573.719 483.664
1633 0 98.0356 10.9858 1077 93.5571 573.725 480.32
1634 0 100.026 11.2871 1129 93.209 573.096 479.151
1635 0 104.048 11.0045 1145 93.1502 573.309 477.783
1636 0 107.043 10.8367 1160 93.3069 573.518 475.733
1637 0 111.064 11.3178 1257 92.8711 573.505 473.229
1638 0 115.078 10.8448 1248 93.4359 573.118 470.998
1639 0 121.117 11.6416 1410 91.7475 573.44 469.982
1640 0 122.121 10.8909 1330 94.3962 573.671 468.369
1641 0 128.057 11.2997 1447 94.0726 573.171 463.989
1642 0 131.103 11.7389 1539 94.0552 573.806 460.758
1643 0 133.118 11.0203 1467 95.2372 573.371 459.44
1644 0 141.086 11.6029 1637 92.0959 573.635 459.625
1645 0 144.141 11.683 1684 92.0416 573.27 457.976
1646 0 149.068 11.3841 1697 93.4266 572.751 455.33
1647 0 153.128 11.4544 1754 94.4618 573.497 452.917
1648 0 158.211 11.5352 1825 95.2126 572.861 450.173
1649 0 162.101 11.6285 1885 96.0631 573.223 447.092
1650 0 166.166 11.8375 1967 96.4042 574.199 446.475
1651 0 174.218 12.6795 2209 97.7804 574.104 444.481
1652 0 178.229 12.2483 2183 97.9492 574.404 442.233
1653 0 183.316 12.683 2325 99.6658 574.303 437.655
1654 0 188.244 12.5423 2361 99.8907 573.996 438.432
1655 0 194.276 12.5543 2439 100.627 573.819 433.477
1656 0 201.359 13.235 2665 100.424 573.868 431.489
1657 0 208.2 13.7704 2867 102.795 573.524 425.646
1658 1 161.177 10.7708 1736 101.824 573.623 444.752
1659 0 163.181 11.3861 1858 101.156 574.07 442.322
1660 0 171.19 12.4599 2133 103.798 573.206 441.757
1661 0 177.225 11.5333 2044 102.24 573.903 442.817
1662 0 185.197 12.2302 2265 100.595 573.655 439.222
1663 0 190.237 12.1217 2306 101.966 573.765 433.476
1664 0 197.2 12.4392 2453 101.443 573.036 428.431
1665 0 201.189 12.6697 2549 100.452 573.362 422.177
1666 0 208.256 11.8076 2459 103.046 573.383 421.442
1667 0 216.227 13.4627 2911 98.7396 572.814 416.169
1668 0 221.367 13.3308 2951 99.0281 572.826 411.065
1669 0 228.34 12.7091 2902 99.5886 572.906 406.809
1670 0 234.294 13.0392 3055 101.342 572.831 405.977
1671 0 241.395 13.1196 3167 101.973 572.576 404.274
1672 0 249.342 12.9661 3233 103.35 572.386 396.867
1673 0 259.369 13.6755 3547 101.798 572.228 392.738
1674 0 263.369 13.2704 3495 103.794 572.236 387.953
1675 0 271.329 12.7594 3462 102.661 572.585 377.803
1676 0 281.235 12.7402 3583 103.086 573.176 374.762
1677 0 287.29 12.4891 3588 105.519 572.427 369.97
1678 1 315.351 6.61802 2087 116.017 572.522 382.919
1679 0 312.201 17.2325 5380 91.276 572.703 348.307
1680 0 319.37 16.6234 5309 94.4483 572.603 343.963
1681 0 322.316 13.3068 4289 107.366 571.964 347.329
1682 0 330.275 12.4866 4124 110.405 572.314 344.022
1683 0 343.417 14.7488 5065 102.811 572.075 337.155
1684 0 355.558 14.3605 5106 104.051 572.028 329.084
1685 0 366.619 14.26 5228 104.145 572.435 326.416
1686 0 377.522 14.2959 5397 103.793 571.917 318.857
1687 0 389.39 14.3994 5607 103.119 571.943 311.871
1688 0 399.488 14.5136 5798 102.789 571.295 306.739
1689 0 412.576 14.2107 5863 103.501 572.25 298.11
1691 0 381.907 13.9589 5331 104.322 573.323 299.176
1692 0 368.575 14.0785 5189 101.932 572.658 312.492
1693 0 378.545 13.7025 5187 103.436 572.02 306.571
1694 0 390.499 13.9565 5450 104.13 572.01 296.878
1695 0 400.471 13.8936 5564 105.743 572.297 286.036
1696 0 401.686 14.0782 5655 108.353 572.529 279.448
1697 0 402.136 13.4979 5428 110.245 572.78 276.956
1698 0 403.844 13.6067 5495 107.687 573.08 280.061
1699 0 409.293 13.4818 5518 106.642 572.957 281.961
1700 0 414.312 14.0715 5830 103.952 573.716 285.572
1701 0 396.517 14.1104 5595 103.821 573.105 280.199
1702 0 390.6 13.8607 5414 102.513 573.494 282.941
