time division length width area intensity CMx CMy
2853 0 76.0652 12.3973 943 97.0795 125.348 437.931
2854 0 79.1441 12.4583 986 97.5345 124.547 435.948
2855 0 82.1533 12.4889 1026 97.347 124.565 435.641
2856 0 85.0947 12.0219 1023 98.217 124.642 432.91
2857 0 86.1579 11.537 994 98.7586 124.326 431.394
2858 0 90.131 12.504 1127 94.8358 124.348 431.884
2859 0 91.088 11.5712 1054 97.1926 125.15 427.893
2860 0 96.1797 12.1231 1166 93.0592 125.994 424.565
2861 1 51.1233 9.64335 493 88.2292 126.606 449.418
2862 0 53.039 10.2566 544 86.4926 125.502 448.57
2863 0 53.0489 11.4988 610 92.2475 125.464 452.577
2864 0 56.0853 11.322 635 91.6063 125.12 451.35
2865 0 56.1258 11.5455 648 91.1111 124.637 452.168
2866 0 59.0899 11.9479 706 88.8952 125.051 449.703
2867 0 59.0584 11.4802 678 89.9248 124.506 448.386
2868 0 62.1223 11.1876 695 89.1755 124.495 448.679
2869 0 66.093 11.9831 792 85.6553 123.979 447.649
2870 0 68.1194 12.4047 845 85.1195 124.622 447.262
2871 0 71.0831 12.197 867 86.5017 124.044 444.869
2872 0 69.0485 11.7743 813 88.401 124.76 444.504
2873 0 73.0784 12.5345 916 84.8832 124.104 442.602
2874 0 74.0972 12.1192 898 86.3163 124.509 441.562
2875 0 75.074 12.2546 920 89.6457 124.198 439.654
2876 0 79.0898 12.3025 973 90.3659 124.983 438.525
2877 0 81.0931 12.4672 1011 90.7636 123.982 436.635
2878 0 83.1355 13.039 1084 88.7362 124.489 437.438
2879 0 86.1308 12.5855 1084 90.8515 124.238 434.305
2880 0 90.1001 12.8635 1159 89.3106 123.786 432.242
2881 0 89.1167 12.5117 1115 92.0987 124.358 432.271
2882 0 94.1018 12.9328 1217 90.6007 124.836 431.066
2883 0 97.1152 12.8404 1247 91.5477 125.276 431.284
2884 0 99.1475 12.4158 1231 92.918 124.885 428.985
2885 0 101.148 13.159 1331 92.84 124.593 427.155
2886 0 105.081 12.4094 1304 94.5314 125.107 427.281
2887 0 108.078 13.0831 1414 96.1945 124.984 424.623
2888 1 62.0343 10.9778 681 98.2232 125.07 448.488
2889 0 64.0381 11.8836 761 95.3114 124.619 447.745
2890 0 65.0402 11.4544 745 88.7302 125.923 443.031
2891 0 65.0136 11.1054 722 93.3006 125.425 439.231
2892 0 71.0399 13.1053 931 84.0311 125.074 443.352
2893 0 71.055 12.6662 900 95.7833 125.384 442.21
2894 0 73.0687 13.1383 960 96.7177 124.792 441.907
2895 0 73.0791 13.1775 963 102.495 125.315 441.494
2896 0 73.1204 13.1154 959 96.9082 125.307 441.146
2897 0 73.0713 12.9052 943 100.279 125.174 441.566
2898 0 75.0571 13.4964 1013 99.5114 124.899 441.075
2899 0 77.0358 13.5521 1044 97.5977 125.582 441.469
2900 0 79.0415 14.0306 1109 95.1208 125.581 440.104
2901 0 82.0785 13.6577 1121 94.7261 125.512 438.52
2902 0 83.1004 13.4777 1120 94.5634 125.172 436.247
2903 0 85.1377 13.2139 1125 93.1867 125.047 435.395
2904 0 87.0722 13.908 1211 91.2568 125.736 433.615
2905 0 91.0532 13.7173 1249 89.5476 125.457 433.645
2906 0 94.0849 13.5303 1273 89.3637 126.039 433.16
2907 0 92.1197 12.8854 1187 91.7911 125.715 431.573
2908 0 96.0543 13.7839 1324 90.2356 125.681 430.878
2909 0 100.065 13.9609 1397 86.4116 125.202 429.507
2910 0 100.095 13.2974 1331 92.296 124.669 428.188
2911 0 102.079 14.0577 1435 92.9652 125.446 428.243
2912 0 103.116 13.4799 1390 96.4568 125.473 426.852
2913 0 106.08 13.4709 1429 96.9762 124.875 426.523
2914 0 109.084 13.4759 1470 96.1279 124.599 426.861
2915 0 112.1 13.6485 1530 97.5503 124.936 425.495
2916 0 113.093 13.4049 1516 100.474 124.438 424.349
2917 0 114.132 13.2479 1512 101.696 124.753 423.817
2918 0 116.211 13.966 1623 103.139 124.928 422.281
2919 0 120.184 13.3545 1605 98.919 124.802 422.116
2920 0 121.123 13.6308 1651 108.7 125.26 419.134
2921 0 123.174 13.8585 1707 111.299 125.332 417.169
2922 0 129.163 14.3694 1856 109.461 125.211 417.15
2923 0 131.127 14.0704 1845 112.223 124.63 414.951
2924 0 133.16 14.1034 1878 117.739 125.53 414.304
2925 0 136.166 14.1518 1927 125.607 124.539 412.197
2926 1 66.1004 11.3615 751 128.933 125.451 447.941
2927 0 68.0498 11.4916 782 120.362 124.752 446.145
2928 0 70.0617 12.1607 852 120.634 124.88 446.063
2929 0 71.044 12.0066 853 124.898 124.203 445.294
2930 0 74.1297 12.4511 923 125.55 125.354 445.072
2931 0 76.1109 13.2701 1010 126.961 124.608 442.553
2932 0 77.0736 12.8708 992 130.209 124.704 442.212
2933 0 80.1213 13.0178 1043 131.732 124.417 440.424
2934 0 79.1066 13.2227 1046 148.546 124.354 439.914
2935 0 81.2189 13.3097 1081 150.191 124.366 439.2
2936 0 82.1348 12.8447 1055 153.899 124.599 437.47
2937 0 81.1315 12.868 1044 156.681 125.356 438.167
2938 0 85.115 12.8884 1097 144.052 125.304 438.061
2939 0 85.0761 12.9179 1099 147.272 124.904 436.464
2940 0 87.0691 13.116 1142 146.574 125.135 436.721
2941 0 90.0677 13.2234 1191 152.416 124.89 436.525
2942 0 91.0873 13.4157 1222 153.315 124.986 435.645
2943 0 91.0917 13.448 1225 170.873 124.994 435.623
2944 0 93.0988 13.3299 1241 156.268 124.664 433.212
2945 0 96.0525 13.6488 1311 150.079 125.134 434.416
2946 0 96.0417 13.0985 1258 148.246 124.961 431.904
2947 0 98.082 13.4887 1323 145.218 124.825 429.216
2948 0 99.1017 14.026 1390 145.837 124.617 431.255
2949 0 103.08 14.2414 1468 142.951 124.584 430.337
2950 0 104.097 13.6411 1420 144.918 124.868 427.887
2951 0 107.138 14.3366 1536 141.689 124.436 429.666
2952 0 108.078 13.7493 1486 144.662 124.803 427.515
2953 0 111.076 14.3415 1593 141.992 124.746 427.787
2954 0 112.1 13.7021 1536 147.232 125.315 426.331
2955 0 112.128 13.6094 1526 148.714 124.922 424.127
2956 0 118.069 14.1443 1670 142.186 125.356 424.899
2957 0 120.125 14.0188 1684 143.929 125.198 422.982
2958 0 121.161 14.3776 1742 141.896 124.14 420.385
2959 0 124.112 14.0599 1745 141.462 124.063 419.654
2960 0 127.144 14.2908 1817 141.38 124.554 418.332
2961 0 130.14 13.716 1785 143.115 124.592 416.854
2962 0 132.151 13.7267 1814 143.679 124.574 416.42
2963 0 136.116 14.3261 1950 139.216 124.922 415.056
2964 0 140.161 13.8911 1947 141.732 124.7 413.445
2965 0 144.172 13.6157 1963 143.499 124.984 411.738
2966 0 147.123 13.8252 2034 141.501 124.748 409.205
2967 1 107.086 12.588 1348 141.012 124.921 431.263
2968 0 110.168 12.7714 1407 142.467 124.385 430.026
2969 0 113.149 13.6723 1547 141.495 124.583 429.696
2970 0 116.157 14.3082 1662 143.234 124.685 427.022
2971 0 119.226 13.5709 1618 142.195 125.048 425.744
2972 0 121.138 13.6456 1653 139.854 124.626 424.037
2973 0 128.218 13.5784 1741 138.33 124.535 421.69
2974 0 131.159 13.7924 1809 136.759 125.166 419.023
2975 0 134.245 14.0415 1885 135.034 125.068 410.338
2976 0 137.236 13.6553 1874 135.638 124.996 409.052
2977 0 142.175 13.821 1965 134.287 125.212 407.858
2978 0 147.293 13.8431 2039 134.19 125.203 404.813
2979 0 152.262 13.6016 2071 133.563 125.056 402.411
2980 1 78.1337 12.3122 962 136.346 124.976 439.407
2981 0 82.1554 13.6814 1124 134.577 125.152 436.706
2982 0 85.1039 13.5247 1151 134.244 124.802 434.448
2983 0 88.163 14.6887 1295 132.177 125.236 433.242
2984 0 91.2089 14.1543 1291 132.835 125.549 435.451
2985 0 95.159 14.0607 1338 129.985 125.361 435.677
2986 0 95.1809 13.9419 1327 132.094 125.248 435.375
2987 0 98.1622 14.3436 1408 131.07 125.058 433.776
2988 0 103.147 14.3096 1476 129.79 124.856 431.363
2989 0 106.111 14.8429 1575 127.281 125.241 429.97
2990 0 109.093 14.1806 1547 128.176 124.781 429.893
2991 0 113.105 13.9339 1576 127.438 124.761 428.383
2992 0 116.106 14.1768 1646 125.125 124.828 428.072
2993 0 119.082 13.7553 1638 126.033 125.595 424.862
2994 0 122.088 13.8343 1689 126.535 124.98 423.093
2995 0 129.074 14.3019 1846 121.268 125.186 419.689
2996 0 131.104 13.4702 1766 124.814 124.505 415.827
2997 0 136.264 13.7307 1871 123.386 124.862 415.294
2998 0 142.143 13.6764 1944 121.197 124.123 412.528
2999 0 148.182 13.6994 2030 118.117 124.636 409.086
3000 0 152.235 13.7419 2092 118.177 123.865 408.404
3001 0 156.189 13.4901 2107 118.637 124.289 405.609
3002 1 85.1608 12.6467 1077 116.498 124.895 437.922
3003 0 89.2397 13.1668 1175 113.531 125.117 437.431
3004 0 91.1376 13.529 1233 113.413 125.423 435.952
3005 0 96.1247 13.2016 1269 112.83 125.598 433.871
3006 0 97.1694 13.3581 1298 113.448 125.408 432.451
3007 0 101.215 13.6048 1377 111.55 125.091 433.604
3008 0 104.173 12.8152 1335 113.339 125.121 431.557
3009 0 107.104 13.6596 1463 112.044 124.975 428.437
3010 0 111.175 13.996 1556 111.326 125.586 425.04
3011 0 115.117 13.8468 1594 111.587 125.564 422.583
3012 0 118.148 12.9752 1533 115.15 125.712 421.455
3013 0 121.199 13.4324 1628 112.324 125.386 421.679
3014 0 126.169 13.1411 1658 112.416 125.846 419.6
3015 0 129.167 13.6722 1766 111.791 125.301 418.768
3016 0 134.165 13.707 1839 111.79 125.683 416.223
3017 0 138.173 13.4614 1860 114.003 125.018 412.715
3018 0 144.208 13.4389 1938 112.252 125.641 410.941
3019 1 77.1271 11.1634 861 107.214 125.566 445.904
3020 0 81.1238 11.8584 962 106.599 125.35 444.264
3021 0 81.1125 11.8108 958 158.474 125.338 444.23
3022 0 86.1887 12.9715 1118 106.14 125.793 441.108
3023 0 90.1392 12.2921 1108 107.597 125.418 440.022
3024 0 93.1467 12.8507 1197 104.94 125.312 438.93
3025 0 97.242 13.2247 1286 104.865 125.756 435.501
3026 0 97.2299 12.2596 1192 110.291 125.414 435.512
3027 0 100.202 12.7742 1280 110.352 125.626 433.145
3028 0 105.231 12.2017 1284 109.646 125.602 432.522
3029 0 106.192 12.6564 1344 110.638 125.09 431.543
3030 0 110.201 13.439 1481 109.893 125.639 429.637
3031 0 111.166 12.8006 1423 111.623 125.521 428.874
3032 0 117.223 13.4018 1571 110.623 125.446 426.63
3033 0 119.243 13.4012 1598 112.354 125.279 424.598
3034 1 63.116 11.5343 728 108.418 125.966 453.029
3035 0 64.0816 11.3137 725 110.194 126.091 452.327
3036 0 68.0878 12.058 821 108.487 126.391 449.829
3037 0 70.0986 12.9389 907 106.342 126.04 448.49
3038 0 69.1278 12.542 867 107.887 126.587 448.239
3039 0 73.1151 12.0905 884 109.178 127.07 448.113
3040 0 76.1439 12.542 955 108.629 126.896 445.22
3041 0 79.126 12.6381 1000 108.796 126.615 444.287
3042 0 82.1295 12.5046 1027 110.734 126.43 443.172
3043 0 85.1325 12.6509 1077 110.626 126.582 441.966
3044 0 87.0927 12.3547 1076 112.205 126.498 440.341
3045 0 90.1679 12.8538 1159 110.185 127.009 438.342
3046 0 94.1236 13.4929 1270 108.053 126.642 437.983
3047 0 96.1262 13.295 1278 107.417 126.736 437.123
3048 0 99.1234 13.4075 1329 108.886 126.242 436.045
3049 0 101.127 13.0924 1324 110.267 126.997 433.644
3050 0 104.09 13.719 1428 108.231 126.783 431.286
3051 0 107.093 13.2875 1423 111.001 126.476 429.744
3052 0 112.178 14.2541 1599 106.092 126.655 428.479
3053 1 57.158 11.7744 673 105.829 127.16 455.287
3054 0 59.107 11.7583 695 106.399 126.869 453.976
3055 0 61.0435 12.3027 751 106.024 126.941 453.698
3056 0 63.1835 12.3608 781 108.457 127.227 451.818
3057 0 64.0872 13.0759 838 107.436 126.53 451.27
3058 0 66.1231 13.1119 867 108.025 127.34 450.699
3059 0 69.1121 12.9645 896 109.253 126.734 449.373
3060 0 71.1316 13.1587 936 108.168 126.746 448.351
3061 0 71.1222 13.1323 934 110.472 126.562 447.51
3062 0 74.1281 13.5306 1003 108.403 126.651 446.634
3063 0 75.1032 13.2085 992 111.818 125.932 444.855
3064 0 79.1069 13.6777 1082 109.871 125.949 443.05
3065 0 82.0813 12.6704 1040 112.249 126.262 441.987
3066 0 85.0774 12.9647 1103 111.233 126.319 439.85
3067 0 87.142 12.8755 1122 113.168 126.41 439.696
3068 0 89.1128 12.8489 1145 113.221 126.604 439.586
3069 0 92.1006 13.2681 1222 110.866 126.561 437.817
3070 0 96.0759 13.9265 1338 110.114 126.145 435.062
3071 0 98.2031 14.2256 1397 108.727 126.465 435.337
3072 0 101.12 14.0131 1417 108.839 126.066 432.59
3073 1 52.1357 11.4509 597 109.03 126.673 457.276
3074 0 53.0927 11.4893 610 108.603 126.836 455.118
3075 0 56.081 12.3036 690 104.657 127.193 454.738
3076 0 58.1353 12.7117 739 105.084 126.882 453.037
3077 0 60.1342 12.7215 765 104.184 126.675 452.54
3078 0 62.1296 13.0051 808 103.463 127.161 451.557
3079 0 62.0588 12.7782 793 105.058 126.783 449.591
3080 0 65.0916 12.8281 835 103.781 126.434 450.513
3081 0 67.0632 12.1378 814 107.028 126.232 448.195
3082 0 69.0594 13.1916 911 104.368 126.841 447.405
3083 0 70.0515 12.291 861 107.194 126.065 447.146
3084 0 72.066 12.7522 919 106.655 126.707 445.19
3085 0 75.0923 13.237 994 105.048 126.21 443.025
3086 0 77.0668 12.0675 930 107.583 126.838 443.526
3087 0 80.0702 12.9262 1035 105.449 126.835 442.41
3088 0 84.0909 13.1524 1106 106.439 126.883 440.898
3089 0 86.0813 13.1387 1131 107.027 125.869 440.294
3090 0 87.1158 12.6957 1106 110.025 126.173 438.51
3091 0 91.0836 13.2955 1211 107.791 126.158 436.782
3092 0 93.0726 13.0328 1213 110.124 125.814 435.462
3093 0 95.0473 13.2039 1255 109.971 125.548 434.128
3094 0 98.0835 12.6117 1237 113.259 126.283 431.9
3095 0 100.076 13.25 1326 112.762 125.574 431.192
3096 0 102.139 13.4131 1370 114.942 124.307 429.599
3097 0 105.168 13.1503 1383 115.542 124.309 428.828
3098 0 107.085 13.1391 1407 114.909 125.494 427.508
3099 0 112.09 13.0431 1462 112.608 125.004 426.524
3100 0 117.119 13.2515 1552 111.057 124.723 423.511
3101 1 62.0705 10.2625 637 108.76 124.871 450.009
3102 0 62.0444 10.3313 641 103.888 125.261 445.133
3103 0 66.0871 10.7888 713 97.7826 125.947 441.783
3104 0 66.1145 10.6633 705 98.3943 125.34 440.374
3105 0 69.112 10.7217 741 98.058 125.553 439.078
3106 0 71.1066 11.1523 793 97.4615 126.081 438.614
3107 0 74.1383 10.8176 802 97.5711 126.019 437.498
3108 0 77.1719 11.6752 901 102.427 124.929 441.706
3109 0 78.1148 11.8672 927 102.795 125.064 440.056
3110 0 81.1992 11.9459 970 101.47 124.972 439.578
3111 0 83.0767 12.0732 1003 100.22 125.061 437.751
3112 0 86.1308 11.9586 1030 100.176 124.938 434.774
3113 0 89.244 11.6422 1039 101.126 124.503 434.196
3114 0 92.2859 11.6702 1077 101.104 124.835 434.591
3115 0 94.2491 11.9789 1129 100.795 125.302 430.911
3116 0 98.1722 10.8279 1063 95.3528 124.643 429.984
3117 0 101.21 11.1056 1124 93.8479 124.042 429.382
3118 0 104.292 11.9089 1242 93.0741 124.862 425.895
3119 0 107.255 11.8875 1275 95.1184 125.46 426.386
3120 1 54.1589 9.4352 511 91.5519 124.926 452.716
3121 0 56.2291 10.475 589 89.0492 125.362 451.591
3122 0 59.2351 11.0239 653 87.608 125.662 451.225
3123 0 61.172 11.4268 699 86.2761 125.599 449.618
3124 0 63.1549 10.2921 650 99.1554 125.628 447.334
3125 0 64.1151 10.8087 693 97.7807 125.108 446.255
3126 0 66.1139 10.9054 721 96.932 125.483 446.72
3127 0 68.0544 11.2557 766 95.953 125.376 446.462
3128 0 68.1043 10.9978 749 97.0414 125.215 444.935
3129 0 73.119 10.8317 792 96.4457 125.332 445.53
3130 0 74.1281 10.6302 788 98.3706 124.915 443.317
3131 0 76.0714 11.3446 863 96.0603 125.211 442.034
3132 0 77.1675 11.0409 852 96.3862 125.682 442.074
3133 0 79.2206 11.3102 896 96.2835 125.826 441.609
3134 0 83.2861 10.7461 895 97.8536 124.887 439.842
3135 1 44.2677 9.84916 436 93.5894 124.493 460.385
3136 0 45.254 9.61241 435 94.5356 124.623 458.747
3137 0 47.214 10.9501 517 91.2282 124.855 458.66
3138 0 48.1966 10.8306 522 92.2759 125.284 458.215
3139 0 50.2436 10.8869 547 93.3784 125.527 457.68
3140 1 97.3861 10.8742 1059 105.966 125.559 436.039
3141 0 99.4684 10.918 1086 105.167 125.038 434.321
3142 0 100.466 10.7101 1076 107.388 125.149 433.925
3143 0 104.487 10.5372 1101 106.761 124.767 432.772
3144 0 105.62 10.4999 1109 105.95 125.462 432.17
3145 0 108.465 9.87412 1071 108.261 124.825 430.392
3146 0 110.52 10.1611 1123 106.844 125.131 427.817
3147 0 115.37 11.1814 1290 102.104 125.187 425.178
3148 0 115.396 10.425 1203 104.162 125.278 427.411
3149 0 115.461 9.10266 1051 105.64 125.125 430.356
3150 0 115.379 7.67905 886 105.525 124.847 437.086
3151 0 116.281 6.43272 748 106.825 124.722 441.037
3152 0 115.274 5.90766 681 106.253 125.366 448.373
3153 0 115.368 6.4923 749 105.523 125.037 447.615
3154 0 113.251 6.38403 723 107.306 124.881 447.44
3155 0 117.428 9.94654 1168 100.888 124.255 437.819
3156 1 79.2205 11.853 939 102.138 124.677 446.843
3157 0 83.2413 11.6529 970 102.303 124.863 446.006
3158 0 84.2273 11.3977 960 103.922 125.222 444.242
3159 1 42.1603 11.1005 468 101.827 125.393 465.107
3160 0 41.1225 11.1861 460 104.898 125.209 463.359
3161 0 46.2615 11.9105 551 100.944 125.35 461.641
3162 0 46.1648 11.9788 553 101.559 125.953 461.19
3163 0 47.1249 11.6923 551 102.691 125.704 459.739
3164 0 50.1751 12.6557 635 100.616 125.444 459.698
3165 0 49.205 11.7265 577 105.643 125.766 459.194
3166 0 50.1011 12.1155 607 104.586 125.791 458.262
3167 0 53.1025 12.3911 658 104.082 125.714 457.432
3168 0 53.1017 12.1465 645 110.485 125.62 455.755
3169 0 54.1198 12.1397 657 110.51 125.647 455.382
3170 0 56.0636 12.4858 700 109.463 125.713 454.92
3171 0 58.1122 12.9921 755 107.338 125.132 453.526
3172 0 60.0939 13.2792 798 106.133 125.026 452.633
3173 0 61.1509 13.0824 800 108.371 124.821 452.275
3174 0 61.084 12.4583 761 110.745 124.888 450.913
3175 0 63.1266 12.863 812 106.335 124.096 448.728
3176 0 64.1142 12.8833 826 107.024 124.958 448.754
3177 0 66.2157 13.0181 862 106.401 124.369 448.835
3178 0 69.2019 13.2077 914 105.844 125.233 448.437
3179 0 68.1785 13.406 914 108.615 124.691 448.544
3180 0 70.0632 13.0739 916 108.555 125.515 448.782
3181 0 74.2179 13.1235 974 109.102 124.441 448.072
3182 0 75.1587 13.079 983 110.521 124.843 446.74
3183 0 77.1607 12.9729 1001 112.09 124.506 445.633
3184 0 80.1683 13.0476 1046 111.423 124.595 444.303
3185 0 83.2133 13.3632 1112 111.273 124.71 444.113
3186 0 84.212 13.2285 1114 113.162 124.812 442.051
3187 0 88.2937 13.4664 1189 111.282 125.357 442.215
3188 0 88.1358 13.2636 1169 114.474 125.19 440.252
3189 0 93.2523 12.9863 1211 115.972 125.196 438.876
3190 1 51.1556 12.5891 644 120.096 124.057 458.575
3191 0 52.0472 12.5463 653 125.68 123.435 456.175
3192 0 53.0949 13.1463 698 124.527 124.441 456.155
3193 0 53.0375 13.745 729 123.604 124.68 455.417
3194 0 55.0365 13.8635 763 123.883 124.894 454.178
3195 0 56.1091 13.7589 772 122.858 125.009 454.837
3196 0 57.1109 13.395 765 124.471 125.193 452.651
3197 0 60.1438 13.4178 807 122.523 125.022 451.872
3198 0 62.1385 13.8562 861 123.812 124.331 451.719
3199 0 63.1232 13.7984 871 125.72 124.533 449.656
3200 0 64.1299 14.0028 898 125.043 125.314 450.217
3201 0 66.1331 14.0172 927 124.732 124.867 449.049
3202 0 69.167 13.9373 964 126.146 125.353 447.901
3203 0 71.1161 14.7083 1046 124.19 124.662 447.988
3204 0 74.18 14.357 1065 124.954 124.305 446.865
3205 0 73.1295 13.7564 1006 130.151 124.408 445.765
3206 0 77.1698 14.0469 1084 128.354 124.729 445.815
3207 0 77.1579 13.9584 1077 131.253 125.202 444.801
3208 0 81.1396 14.2594 1157 129.438 124.997 443.496
3209 0 81.1161 14.0663 1141 132.514 125.083 441.731
3210 0 85.1505 15.0087 1278 128.583 124.847 441.289
3211 0 88.1151 14.4357 1272 130.114 125.036 440.373
3212 0 90.0918 14.4852 1305 129.759 125.819 437.857
3213 0 94.0868 14.5291 1367 128.715 125.073 438.464
3214 0 95.0704 14.3893 1368 129.109 125.351 436.385
3215 0 99.1242 14.8299 1470 124.836 125.046 434.78
3216 1 50.1119 11.4943 576 128.991 124.899 458.564
3217 0 49.1564 11.8194 581 130.17 125.358 456.628
3218 0 51.0559 12.5353 640 125.575 125.478 455.317
3219 0 53.095 12.4682 662 127.396 125.302 455.4
3220 0 54.108 12.2348 662 129.332 125.492 454.816
3221 0 53.0358 12.5576 666 130.305 125.069 454.122
3222 0 59.0721 13.1873 779 126.325 125.709 452.299
3223 0 58.0483 12.9031 749 129.417 125.617 451.599
3224 0 61.0677 12.7891 781 128.513 125.169 450.542
3225 0 63.125 12.8951 814 127.978 125.171 448.369
3226 0 65.0402 13.1457 855 128.178 125.074 446.836
3227 0 68.1008 14.0086 954 124.206 124.953 445.134
3228 0 70.0805 13.7699 965 125.531 125.687 444.201
3229 0 74.0978 15.0747 1117 118.619 125.386 442.97
3230 0 74.0454 15.1664 1123 119.321 125.089 440.605
3231 0 74.0347 14.2906 1058 123.047 125.648 441.296
3232 0 76.1377 13.5675 1033 125.347 125.578 439.557
3233 0 78.0539 13.606 1062 124.921 125.154 438.75
3234 0 82.1502 13.9988 1150 121.941 125.218 437.629
3235 0 84.1134 14.1832 1193 123.044 124.992 437.016
3236 0 85.0667 14.2359 1211 121.956 124.586 436.105
3237 0 90.0883 14.619 1317 120.428 124.793 433.374
3238 0 92.1332 14.7612 1360 120.955 124.769 433.094
3239 0 94.1126 14.0364 1321 124.381 125.275 430.489
3240 0 96.157 13.53 1301 127.966 124.86 428.897
3241 0 99.0947 14.5315 1440 124.759 124.333 427.749
3242 0 101.082 14.2261 1438 127.401 125.095 425.903
3243 0 105.051 13.6505 1434 128.915 124.577 424.22
3244 0 111.062 14.7306 1636 125.309 125.153 422.039
3245 0 113.102 14.288 1616 128.394 124.286 418.597
3246 0 117.086 14.5278 1701 128.811 124.273 415.631
3247 1 69.1178 10.5617 730 122.947 124.193 443.695
3248 0 69.1008 11.5194 796 121.656 124.724 444.16
3249 0 73.1156 11.7485 859 122.185 124.18 441.626
3250 0 75.0576 11.4579 860 124.33 125.12 443.33
3251 0 78.1162 11.8925 929 122.527 125.614 443.479
3252 0 79.1143 11.5908 917 124.521 124.656 441.773
3253 0 82.1531 12.075 992 122.27 124.432 439.519
3254 0 83.1308 12.1495 1010 124.05 124.929 436.292
3255 0 86.1226 12.459 1073 122.169 124.91 435.035
3256 0 88.1553 12.0356 1061 123.428 124.371 434.419
3257 0 92.1648 12.0436 1110 121.938 124.717 432.862
3258 0 94.1734 12.0629 1136 122.745 125.062 431.741
3259 0 96.1612 11.5327 1109 124.573 124.649 429.273
3260 0 100.219 11.9937 1202 122.215 124.39 428.235
3261 0 102.255 11.9701 1224 121.578 124.862 426.117
3262 0 105.192 11.1986 1178 124.214 125.631 425.269
3263 1 58.2243 8.98251 523 111.514 125.826 451.05
3264 0 59.2558 10.2437 607 107.647 125.857 451.224
3265 0 61.1505 9.53385 583 107.66 126.744 450.47
3266 0 62.2353 9.89792 616 107.768 126.422 451.091
3267 0 62.1953 9.24507 575 111.228 125.718 448.13
3268 0 65.3241 9.75138 637 108.98 126.372 445.849
3269 0 66.1754 9.73172 644 109.116 125.82 442.744
3270 0 67.246 9.45781 636 109.929 125.819 443.104
3271 0 72.1724 9.03393 652 108.304 125.975 443.089
3272 0 74.2013 9.64942 716 107.973 126.161 440.587
3273 0 76.2491 9.65257 736 107.016 125.855 437.731
3274 0 80.3288 9.52336 765 104.877 125.158 437.929
3275 0 81.1579 9.88197 802 105.445 126.358 435.435
3276 0 86.2523 9.72727 839 104.287 126.107 432.855
3277 1 44.0988 8.23152 363 99.7741 125.835 454.534
3278 0 46.1092 7.98105 368 100.296 125.329 451.783
3279 0 46.0808 8.4851 391 98.1995 125.069 452.363
3280 0 41.0581 5.79666 238 91.2773 124.176 453.782
3281 0 43.031 6.29779 271 91.0627 124.07 452.192
3282 0 46.0512 6.73164 310 89.6226 124.461 452.245
3283 0 48.062 7.03259 338 87.9408 124.852 449.198
3284 0 46.058 6.44839 297 87.8451 125.458 448.926
3285 0 51.0665 7.20628 368 85.7554 125.413 448.897
3286 0 49.0879 7.37453 362 85.9807 125.843 448.135
3287 0 52.054 6.93511 361 86.3878 125.053 448.017
3288 0 54.0699 8.04514 435 85.0989 125.329 444.945
3289 0 49.0443 6.03536 296 89.3615 125.459 444.588
3290 0 53.0509 7.72842 410 86.278 125.537 442.815
3291 0 60.065 7.82486 470 84.6915 124.421 444.068
3292 0 64.126 8.68603 557 82.4417 124.497 443.501
3293 0 62.0522 7.54203 468 85.1175 124.833 441.818
3294 0 67.0626 8.06709 541 83.9427 124.595 439.898
3295 0 68.1091 8.89749 606 83.1073 124.762 437.15
3296 0 75.0617 9.85856 740 79.7797 124.265 438.376
3297 0 78.0553 10.0698 786 79.229 124.623 438.276
3298 0 82.09 10.1718 835 78.4216 124.846 434.674
3299 0 82.0551 9.89579 812 80.3719 124.498 434.718
3300 0 87.0756 10.5081 915 80.459 124.979 432.568
3301 0 88.0712 10.0033 881 89.4143 124.863 431.082
3302 0 90.113 10.6977 964 87.029 124.82 429.192
3303 0 92.1251 10.0516 926 88.6263 124.602 427.232
3304 0 97.1185 11.1719 1085 85.13 125.173 427.449
3305 0 100.14 11.7836 1180 84.861 124.579 427.145
3306 0 101.09 11.3562 1148 86.0409 125.464 425.486
3307 0 105.109 11.7497 1235 85.7093 124.413 422.491
3308 0 106.144 11.0887 1177 85.7213 124.789 422.85
3309 0 111.072 11.5061 1278 85.0689 124.448 421.29
3310 0 113.135 11.6232 1315 84.2213 124.903 421.03
3311 0 116.151 11.9327 1386 83.6003 124.366 420.811
3312 0 120.139 12.0694 1450 83.0979 124.727 417.752
3313 0 122.179 11.9088 1455 82.8962 124.324 413.635
3314 0 130.159 13.0379 1697 79.0189 124.47 415.052
3315 0 133.187 12.7264 1695 79.9209 124.297 413.202
3316 0 139.159 12.8415 1787 79.4454 124.176 408.926
3317 0 143.151 12.4345 1780 80.8416 124.636 409.054
3318 0 143.151 12.3856 1773 158.764 124.649 408.98
3319 1 153.095 14.233 2179 80.4383 124.023 405.452
3320 0 158.236 13.265 2099 79.7723 123.948 399.884
3321 1 83.1042 11.0103 915 74.0033 125.356 432.491
3322 0 87.0917 11.574 1008 74.002 125.312 430.886
3323 0 89.1101 12.0188 1071 80.4725 124.566 434.488
3324 0 92.0976 12.1393 1118 78.9758 124.228 432.116
3325 0 94.0987 12.7845 1203 78.7523 124.588 430.461
3326 0 99.1489 13.0107 1290 78.4 124.629 429.778
3327 0 100.103 12.7968 1281 80.2443 124.434 427.736
3328 0 103.135 12.2073 1259 80.9333 124.45 428.304
3329 0 106.117 12.5333 1330 81.5827 125.14 427.776
3330 0 108.104 12.0254 1300 83.9354 125.145 427.14
3331 0 113.117 12.686 1435 83.5129 126.116 424.548
3332 0 117.145 13.3254 1561 83.0852 125.45 422.894
3333 0 119.053 12.9355 1540 84.863 125.045 421.632
3334 0 123.067 13.1961 1624 85.0794 124.627 420.085
3335 1 69.0246 10.2137 705 87.261 124.845 446.811
3336 0 72.0497 10.8259 780 84.1705 124.124 445.629
3337 0 74.0671 11.9756 887 85.2717 125.647 442.924
3338 0 75.0946 11.8783 892 87.6872 126.592 442.345
3339 0 77.0938 11.8687 915 90.5443 126.438 440.692
3340 0 80.0883 12.1741 975 89.841 126.465 437.84
3341 0 81.1354 12.5839 1021 90.9001 126.148 438.208
3342 0 85.0754 12.6476 1076 91.7277 125.708 437.217
3343 0 86.1063 12.9956 1119 93.8919 126.237 435.841
3344 0 90.1086 12.8179 1155 95.1394 126.003 435.601
3345 0 92.105 13.224 1218 94.6108 125.748 434.048
3346 0 95.1371 13.5909 1293 93.58 125.154 431.641
3347 0 95.1977 12.952 1233 96.9692 125.257 429.004
3348 0 98.1142 12.1695 1194 94.8777 125.537 431.336
3349 0 101.178 11.9394 1208 90.1474 125.776 429.563
3350 0 105.211 11.7954 1241 91.1031 126.026 429.629
3351 0 106.124 11.5902 1230 97.135 125.636 427.224
3352 0 108.055 11.5682 1250 97.9488 126.35 425.273
3353 0 112.075 12.0009 1345 96.0677 126.193 422.683
3354 0 116.059 12.2352 1420 95.8092 126.16 421.085
3355 0 120.073 12.1177 1455 95.0715 125.536 422.41
3356 1 64.0396 10.7433 688 91.6003 127.126 446.438
3357 0 66.0191 11.6936 772 85.886 126.299 446.972
3358 0 67.0632 11.4966 771 84.3087 126.34 446.639
3359 0 68.0908 9.88386 673 87.1887 127.095 448.18
3360 0 70.0768 10.2316 717 86.9344 126.367 444.626
3361 0 74.0946 10.5136 779 83.7728 126.178 444.834
3362 0 74.0869 10.5822 784 84.9732 126.503 444.263
3363 0 77.103 10.7778 831 85.556 126.409 442.25
3364 0 79.0734 11.053 874 84.3021 126.733 442.751
3365 0 80.0974 10.4997 841 86.6326 126.239 440.988
3366 0 85.0993 11.1164 946 84.3805 126.618 439.376
3367 0 88.0937 10.9429 964 83.8568 125.275 438.408
3368 0 88.0745 10.423 918 86.8529 125.636 437.315
3369 0 92.1102 11.1605 1028 83.6021 125.914 436.675
3370 0 96.1263 10.7775 1036 85.5743 125.499 432.996
3371 0 98.1813 11.6315 1142 86.3476 125.032 434.958
3372 0 100.129 11.3353 1135 83.9524 126.224 432.5
3373 0 105.079 12.3907 1302 82.735 125.586 428.215
3374 0 108.07 11.9368 1290 83.8643 125.773 426.911
3375 0 111.134 12.0845 1343 83.9724 124.837 426.537
3376 0 113.123 11.8102 1336 85.2964 125.013 424.498
3377 0 117.154 12.1549 1424 85.4326 125.031 421.058
3378 0 119.111 12.1567 1448 85.6823 125.275 419.971
3379 0 124.191 11.9815 1488 87.3293 125.306 416.949
3380 1 67.1139 10.1171 679 83.9087 125.848 446.557
3381 0 70.0585 10.5912 742 85.8437 125.858 442.395
3382 0 72.0323 11.5365 831 88.1974 125.211 441.546
3383 0 74.0601 11.9903 888 81.2725 123.806 443.14
3384 0 76.0722 11.6337 885 83.2938 124.431 443.241
3385 0 76.0905 11.4338 870 83.6793 124.539 442.861
3386 0 77.0406 10.9163 841 85.3805 124.325 442.048
3387 0 79.0642 11.4464 905 86.7624 124.063 440.419
3388 0 83.0842 11.9036 989 84.2669 123.839 439.621
3389 0 86.0491 12.2604 1055 83.8332 124.107 440.05
3390 0 88.0805 12.1253 1068 85.1086 123.528 439.04
3391 0 88.0537 12.2198 1076 87.171 123.967 437.592
3392 0 91.0714 12.2651 1117 87.9624 123.732 437.549
3393 0 94.0737 12.8942 1213 88.1294 124.144 434.634
3394 0 94.1383 12.2267 1151 92.0191 124.554 435.376
3395 0 94.1383 12.2161 1150 155.142 125.543 435.319
3396 0 100.1 12.7172 1273 94.077 123.672 432.661
3397 0 104.097 13.1608 1370 93.8 123.99 431.397
3398 0 106.143 13.5949 1443 94.8919 124.477 429.252
3399 0 110.156 14.0074 1543 94.4627 124.753 429.446
3400 0 113.16 13.3528 1511 96.9034 124.406 427.997
3401 0 113.114 13.2521 1499 105.102 124.667 424.424
3402 0 118.106 13.3694 1579 102.876 124.725 425.304
3403 0 119.065 13.354 1590 104.36 124.209 422.745
3404 0 121.089 13.2795 1608 106.425 123.655 422.762
3405 0 126.125 13.6135 1717 104.909 124.258 421.175
3406 0 128.18 13.1612 1687 104.96 123.992 420.603
3407 0 132.17 13.475 1781 103.003 124.131 419.751
3408 0 137.139 13.4608 1846 101.842 124.159 416.881
3409 0 140.152 13.0644 1831 102.289 124.466 416.044
3410 0 144.118 13.4473 1938 101.778 124.292 413.46
3411 0 147.151 13.1769 1939 102.121 123.589 410.656
3412 0 151.179 12.7928 1934 103.022 123.322 408.468
3413 0 157.157 13.2097 2076 100.214 124.228 408.098
3414 0 162.119 13.194 2139 100.018 123.521 405.117
3415 0 160.173 12.0869 1936 104.085 123.788 402.58
3416 0 170.144 13.4122 2282 99.7134 123.406 399.114
3417 0 175.267 13.2883 2329 99.3959 123.367 395.173
3418 0 179.204 13.3814 2398 100.029 123.067 392.327
3419 0 185.198 13.0941 2425 100.059 122.815 392.271
3420 0 191.201 14.1317 2702 97.3216 122.842 390.926
3421 0 194.195 13.2496 2573 100.606 122.892 385.933
3422 0 199.161 12.7183 2533 100.923 122.842 383.212
3423 0 206.139 13.2532 2732 99.7925 123.103 373.424
3424 0 213.204 13.2127 2817 101.179 122.622 372.379
3425 0 221.233 16.0645 3554 92.8967 122.579 366.007
3426 0 227.198 15.7572 3580 94.9835 123.07 363.399
3427 0 233.174 15.2461 3555 98.0892 123.341 360.919
3428 0 240.182 15.5299 3730 98.3702 122.695 353.906
3429 0 248.211 15.8534 3935 98.6125 122.522 350.765
3430 1 187.173 13.7039 2565 103.531 122.533 383.508
3431 0 192.218 13.4795 2591 104.596 122.905 380.658
3432 0 198.2 13.4006 2656 103.881 122.579 378.096
3433 0 205.226 13.931 2859 102.757 123.166 374.531
3434 0 210.228 13.2427 2784 105.462 122.542 373.104
3435 0 216.235 13.1339 2840 106.316 123.41 372.568
3436 0 224.252 13.0211 2920 106.767 122.717 368.239
3437 0 233.323 13.0249 3039 105.644 122.702 364.71
3438 0 237.342 12.8633 3053 105.926 122.398 356.451
3439 0 247.307 14.391 3559 100.812 123.642 350.888
3440 0 252.339 14.0604 3548 102.242 123.372 348.572
3441 1 264.406 14.9732 3959 98.4438 122.728 341.853
3442 0 272.399 17.1366 4668 91.1986 122.735 331.108
3443 0 275.335 13.3474 3675 101.916 123.304 338.236
3444 0 325.578 22.8793 7449 68.258 122.848 301.461
3445 1 80.103 10.4865 840 82.6952 124.179 443.533
3446 0 80.1518 11.1164 891 80.0954 123.871 441.354
3447 0 79.1507 10.878 861 139.965 123.866 440.76
3448 0 82.0623 10.8942 894 82.3512 123.635 438.109
3449 0 87.0623 11.8191 1029 79.3732 123.732 438.105
3450 0 88.1541 12.0925 1066 89.0882 124.109 434.8
3451 0 89.1871 11.6609 1040 92.1529 123.542 436.566
3452 0 92.2187 12.0583 1112 89.5836 124.338 434.1
3453 0 93.2376 11.6691 1088 89.9642 124.16 433.511
3454 0 96.2499 11.2416 1082 89.1044 123.93 432.747
3455 0 96.2497 11.1585 1074 140.169 123.928 432.681
3456 0 101.186 12.2348 1238 83.8086 123.764 429.908
3457 0 101.169 12.2172 1236 81.7751 123.9 428.256
3458 0 101.188 12.1556 1230 81.5935 124.076 427.613
3459 0 105.184 11.9219 1254 78.2727 124.219 426.449
3460 0 106.094 11.5558 1226 75.2055 123.655 425.954
3461 0 109.121 11.6843 1275 73.7325 123.569 423.422
3462 0 106.077 13.1791 1398 69.8627 123.575 419.954
3463 0 106.1 11.5175 1222 71.207 123.451 419.623
3464 0 105.09 10.7147 1126 70.3242 123.203 418.948
3465 0 116.124 15.0013 1742 60.5413 123.348 419.367
3466 0 118.127 15.3903 1818 59.258 124.053 419.193
3467 0 119.117 14.725 1754 59.8005 123.713 420.51
3468 0 120.121 15.0764 1811 58.1452 125.144 420.183
3469 0 122.113 15.281 1866 57.2149 124.11 416.395
3470 0 122.113 15.2892 1867 156.812 124.107 416.417
3471 0 127.208 15.6751 1994 55.0165 123.765 414.106
3472 0 131.203 16.3716 2148 52.5899 123.745 413.577
3473 0 131.097 15.9424 2090 53.1239 123.994 410.69
3474 0 134.187 15.5827 2091 52.5041 123.503 409.216
3475 0 134.168 15.0706 2022 53.4268 124.259 407.695
3476 0 139.261 15.97 2224 50.3597 124.428 408.108
3477 0 142.182 15.853 2254 49.9454 124.932 404.94
3478 0 144.172 15.4954 2234 50.0085 124.96 404.2
3479 0 147.241 16.4492 2422 47.2985 125.237 402.127
3480 0 147.251 14.5262 2139 49.6905 125.425 399.954
3481 0 152.227 16.1338 2456 46.7476 125.138 399.603
3482 0 154.252 15.8377 2443 46.79 125.262 396.503
3483 0 157.144 15.7054 2468 46.4635 125.781 395.618
3484 0 160.21 16.9152 2710 44.3417 125.466 393.944
3485 0 162.17 16.3532 2652 44.8654 126.041 393.9
3486 0 165.138 15.8413 2616 45.0898 125.756 392.958
3487 0 167.133 17.2198 2878 43.2703 125.169 390.698
3488 0 171.179 16.1819 2770 44.3397 125.502 388.879
3489 0 174.25 16.8781 2941 43.7113 125.059 387.215
3490 0 178.233 16.5682 2953 44.1646 126.037 386.843
3491 0 180.196 16.9982 3063 44.1051 125.53 383.188
3492 0 183.248 16.3658 2999 44.9853 125.738 383.955
3493 0 186.263 16.4176 3058 45.2165 126.059 381.825
3494 0 191.209 16.7879 3210 44.4947 125.869 380.313
3495 0 193.209 15.698 3033 46.4777 125.674 379.215
3496 0 198.289 17.53 3476 44.565 124.895 374.141
3497 0 201.2 16.5059 3321 46.3806 125.142 373.242
3498 0 205.173 17.1076 3510 45.1877 125.346 373.486
3499 0 210.238 16.6764 3506 46.2114 125.702 368.036
3500 0 214.251 16.8727 3615 46.1707 125.161 367.287
3501 0 216.269 15.527 3358 48.3166 124.726 363.188
3502 0 223.173 16.606 3706 47.3443 124.385 363.016
3503 0 226.296 16.0498 3632 48.4218 125.156 361.067
3504 0 233.218 17.5544 4094 46.6317 124.643 359.185
3505 0 236.223 16.9374 4001 48.2709 124.651 358.419
3506 0 242.288 16.5382 4007 48.9935 124.368 354.372
3507 0 246.304 15.895 3915 49.9014 124.093 354.016
3508 0 251.318 16.5925 4170 50.0422 124.068 352.968
3509 0 257.248 16.5871 4267 50.4622 124.258 347.294
3510 0 261.299 16.0008 4181 52.0062 124.326 344.534
3511 0 267.287 15.5937 4168 53.5367 123.951 344
3512 0 276.196 16.9698 4687 51.7578 124.057 340.217
3513 0 280.297 16.3327 4578 53.6273 124.113 337.176
3514 0 288.217 16.3037 4699 54.5176 123.892 329.919
3515 0 294.215 16.0529 4723 55.2412 123.892 330.564
3516 1 82.0696 10.1743 835 46.4228 124.818 446.922
3517 0 82.082 10.1484 833 48.012 124.322 442.373
3518 0 85.0766 11.2957 961 47.8866 124.202 443.212
3519 0 85.1997 10.6338 906 50.2826 124.588 443.52
3520 0 89.1334 10.9948 980 50.1469 125.146 444.729
3521 0 89.1846 10.6745 952 51.5431 124.458 443.197
3522 0 92.1931 10.7166 988 53.6488 124.279 439.589
3523 0 92.2788 10.3274 953 55.7282 124.61 440.511
3524 0 95.2269 11.3938 1085 55.929 124.627 438.593
3525 0 97.2564 11.4954 1118 57.1896 124.607 437.374
3526 0 99.1936 11.7044 1161 57.1705 124.034 437.543
3527 0 101.236 10.8163 1095 61.2027 124.797 433.669
3528 0 105.236 12.7048 1337 59.2924 123.928 430.853
3529 0 109.32 14.0047 1531 58.8779 124.071 424.764
3530 0 111.26 11.3069 1258 65.6153 124.913 427.732
3531 0 111.26 11.2799 1255 130.577 125.91 427.731
3532 0 120.096 13.7556 1652 66.4946 123.838 415.572
3533 0 120.096 13.7639 1653 124.894 121.826 415.655
3534 1 64.0481 9.57094 613 72.3116 123.68 450.638
3535 0 68.0406 10.6995 728 68.8462 123.427 450.297
3536 0 71.0529 11.2029 796 69.3204 123.802 448.525
3537 0 72.0751 12.3343 889 68.8583 123.853 448.151
3538 0 73.1796 11.5333 844 71.7334 124.167 447.089
3539 0 74.2268 11.64 864 72.2326 124.028 448.184
3540 0 77.1461 11.381 878 76.1059 123.849 445.533
3541 0 78.2279 11.6199 909 77.1705 124.966 444.218
3542 0 81.2074 11.4645 931 77.6681 125.079 442.772
3543 0 82.1578 11.198 920 78.9685 125.402 441.788
3544 0 85.1309 11.4529 975 78.24 125.312 440.289
3545 0 86.292 10.7542 928 80.2651 125.268 440.321
3546 0 87.223 10.6279 927 80.3139 125.652 440.529
3547 0 92.1594 10.9593 1010 80.3822 125.238 439.165
3548 0 93.1965 11.3524 1058 80.1219 125.361 437.173
3549 0 95.2045 10.9869 1046 80.8059 126.122 437.076
3550 0 98.1729 11.6427 1143 80.9965 125.816 434.585
3551 0 99.1147 11.8247 1172 80.6613 125.779 434.41
3552 0 102.163 11.9612 1222 81.0589 125.5 432.537
3553 0 104.113 11.526 1200 81.1825 125.437 430.071
3554 0 109.139 11.4075 1245 81.8482 126.57 429.147
3555 0 109.182 11.3114 1235 81.7166 126.58 425.649
3556 1 58.1146 10.3072 599 77.3088 125.912 452.491
3557 0 57.1635 10.7236 613 77.1028 126.289 448.79
3558 0 61.1399 11.4491 700 75.7186 126.599 449.409
3559 0 63.221 11.7208 741 75.2146 126.475 448.136
3560 0 63.1515 11.6229 734 77.7112 127.462 446.554
3561 0 62.0575 10.8448 673 74.6018 126.975 447.689
3562 0 63.0996 10.8083 682 75.6188 127.129 446.394
3563 0 65.093 10.846 706 74.7337 126.31 445.278
3564 0 66.1176 10.7536 711 75.3572 126.668 444.414
3565 0 69.0743 11.0895 766 75.1893 127.014 442.063
3566 0 71.0407 10.8952 774 72.3475 127.236 437.008
3567 0 73.0976 11.382 832 79.1959 126.334 439.131
3568 0 75.0987 11.4117 857 79.0292 126.784 439.641
3569 0 77.0742 11.9106 918 78.7015 127.317 438.301
3570 0 80.1111 12.0208 963 80.9533 127.56 437.697
3571 0 81.1561 11.9399 969 82.5521 128.167 437.291
3572 0 83.2294 11.7987 982 83.5499 127.944 435.412
3573 0 85.1062 11.8793 1011 84.2275 127.976 435.593
3574 0 86.1844 11.8119 1018 87.0766 128.062 434.735
3575 0 90.1552 12.3343 1112 86.2113 127.504 434.042
3576 0 92.2094 11.398 1051 89.3996 128.33 434.1
3577 0 94.1645 12.2127 1150 88.9565 128.284 432.681
3578 0 97.1366 11.9625 1162 90.2108 128.413 432.104
3579 0 99.1865 12.6328 1253 89.1093 128.659 429.093
3580 0 104.312 12.4626 1300 90.5631 128.5 428.337
3581 0 109.184 12.5659 1372 90.7012 128.957 424.392
3582 0 112.173 13.8358 1552 91.4942 128.66 421.614
3583 1 54.0405 10.8437 586 92.099 128.981 450.961
3584 0 56.0527 11.2929 633 90.2622 128.735 449.461
3585 0 59.0625 11.8518 700 88.6814 129.059 450.319
3586 0 60.0522 12.0229 722 90.8075 128.723 447.037
3587 0 63.0874 12.4272 784 99.2219 128.843 447.103
3588 0 66.078 12.7879 845 96.8083 128.838 448.395
3589 0 66.0698 12.3052 813 99.1747 129.365 446.793
3590 0 68.0724 12.7364 867 98.6517 128.878 446.784
3591 0 70.1036 12.5243 878 99.0194 129.058 444.554
3592 0 73.0586 12.7706 933 98.6238 129.443 444.904
3593 0 72.075 12.82 924 100.729 129.179 444.693
3594 0 77.0686 13.3388 1028 100.891 128.796 444.015
3595 0 80.0729 13.5377 1084 100.836 128.75 442.753
3596 0 81.0713 13.6053 1103 103.147 128.626 441.68
3597 0 83.0596 13.5926 1129 103.487 129.108 440.424
3598 0 85.0811 13.3402 1135 105.461 128.774 439.696
3599 0 87.0566 13.3821 1165 107.203 128.595 438.202
3600 0 89.0759 12.9103 1150 109.998 128.734 436.143
3601 0 92.0431 13.2003 1215 108.458 128.213 435.983
3602 0 95.0566 13.1921 1254 110.788 128.244 433.513
3603 0 96.045 13.1605 1264 111.252 129.767 431.385
3604 0 99.0749 13.4242 1330 110.343 129.305 432.898
3605 0 101.045 13.588 1373 111.799 128.719 431.378
3606 0 102.061 13.5507 1383 114.06 128.951 431.022
3607 0 105.058 13.9447 1465 114.076 128.52 429.919
3608 0 108.059 13.6221 1472 114.83 128.234 428.988
3609 0 110.068 13.7824 1517 114.31 127.955 425.351
3610 0 112.068 13.8845 1556 116.762 127.576 426.688
3611 0 117.058 14.0699 1647 115.662 127.437 424.167
3612 0 121.079 13.7514 1665 115.399 127.295 422.901
3613 0 125.063 13.9449 1744 114.659 127.919 422.066
3614 0 127.066 13.9376 1771 114.995 128.042 418.276
3615 0 132.094 13.725 1813 115.391 127.236 415.526
3616 0 135.071 13.541 1829 115.517 127.623 414.309
3617 0 141.052 13.8246 1950 112.489 127.264 412.852
3618 0 144.092 13.4566 1939 113.714 127.627 408.861
3619 1 80.0582 12.0163 962 111.036 128.491 441.32
3620 0 82.0522 12.4433 1021 111.939 127.685 439.595
3621 0 84.0711 12.8701 1082 111.457 127.628 438.067
3622 0 88.0829 12.7721 1125 114.069 126.861 436.52
3623 0 91.0912 13.7006 1248 115.538 126.807 436.05
3624 0 92.1388 13.0672 1204 119.085 126.663 438.074
3625 0 96.135 13.7619 1323 115.785 127.205 436.681
3626 0 98.1396 13.1751 1293 113.002 126.022 434.053
3627 0 100.173 12.7979 1282 107.104 126.382 433.08
3628 0 102.111 12.222 1248 111.344 126.184 431.914
3629 0 108.101 13.4781 1457 108.389 126.312 431.036
3630 0 110.077 13.1817 1451 109.795 125.899 429.705
3631 0 113.063 12.8867 1457 112.471 125.575 428.815
3632 0 114.093 12.7615 1456 114.123 125.673 428.526
3633 0 121.07 13.3725 1619 111.531 125.479 424.724
3634 0 123.069 13.4153 1651 112.998 125.411 423.512
3635 0 127.09 13.6675 1737 116.34 125.188 421.526
3636 0 132.144 13.1902 1743 119.035 125.596 419.09
3637 1 73.0731 11.8375 865 113.539 124.96 448.11
3638 0 77.0673 12.6643 976 109.708 124.857 447.75
3639 0 79.1375 12.8763 1019 113.743 124.581 445.342
3640 0 82.0953 12.9605 1064 114.134 125.158 444.797
3641 0 84.0551 12.242 1029 113.566 125.049 444.236
3642 0 83.1019 11.7566 977 116.482 124.535 443.769
3643 0 88.0921 12.4302 1095 114.311 125.18 443.064
3644 0 90.1063 12.5629 1132 113.273 124.914 441.682
3645 0 92.1108 12.6695 1167 117.037 124.524 438.829
3646 0 96.0673 12.5953 1210 116.936 124.852 437.907
3647 0 99.1194 13.2769 1316 114.7 125.07 437.575
3648 0 103.177 12.9195 1333 114.387 125.201 435.22
3649 0 106.102 13.5813 1441 120.438 125.2 432.588
3650 0 109.138 13.9089 1518 118.744 124.821 430.702
3651 0 111.07 13.658 1517 119.645 124.98 429.464
3652 0 113.177 13.2182 1496 119.801 124.75 427.996
3653 0 116.12 13.6841 1589 117.23 124.977 426.49
3654 0 120.092 13.448 1615 118.094 125 423.318
3655 0 125.12 13.2593 1659 118.771 125.923 422.685
3656 0 128.119 13.386 1715 119.107 125.773 416.342
3657 1 68.0585 11.9456 813 118.272 126.585 445.619
3658 0 73.0768 12.8632 940 115.3 126.5 444.974
3659 0 73.0465 12.8822 941 117.352 125.584 442.884
3660 0 75.0558 12.4174 932 112.338 125.554 445.147
3661 0 75.0976 11.9178 895 115.04 126.723 444.709
3662 0 80.0297 12.3579 989 111.642 126.904 443.701
3663 0 80.0853 12.649 1013 112.914 127.424 441.668
3664 0 84.0508 12.659 1064 111.646 126.485 440.781
3665 0 85.0356 12.583 1070 110.91 126.632 440.444
3666 0 88.0479 12.8794 1134 110.539 126.815 438.721
3667 0 89.0545 13.0482 1162 111.04 126.229 437.781
3668 0 92.0623 13.1324 1209 112.736 126.056 435.821
3669 0 95.086 12.9777 1234 112.897 126.182 434.051
3670 0 98.0344 12.8118 1256 111.686 127.226 432.236
3671 0 99.0408 12.9341 1281 112.635 126.994 430.983
3672 0 104.058 13.3194 1386 108.649 127.303 430.332
3673 0 107.05 12.9285 1384 111.473 127.239 428.796
3674 0 108.068 12.9271 1397 110.03 127.085 422.169
3675 1 62.0987 11.0791 688 105.318 126.956 446.778
3676 0 63.1786 11.048 698 105.223 127.064 445.708
3677 0 65.0996 11.997 781 103.041 126.794 444.303
3678 0 70.0652 12.6739 888 105.716 126.599 448.036
3679 0 72.0854 12.5268 903 103.053 127.466 447.619
3680 0 75.13 11.0475 830 103.806 126.798 447.689
3681 0 74.0453 11.5605 856 103.425 127.155 444.988
3682 0 76.11 12.3505 940 98.2777 126.56 445.032
3683 0 77.079 11.5725 892 99.5426 125.96 445.62
3684 0 79.0645 11.5349 912 100.211 125.689 444.205
3685 0 82.062 11.7838 967 99.1861 126.422 442.624
3686 0 85.0409 11.9119 1013 98.4847 125.292 441.172
3687 0 85.0706 11.3905 969 100.119 125.516 438.735
3688 0 88.1103 11.4516 1009 100.135 125.772 437.592
3689 0 91.1221 11.8852 1083 97.7655 125.036 436.61
3690 0 94.1758 12.1369 1143 97.2485 125.914 436.127
3691 0 95.1919 12.1964 1161 97.1068 125.84 436.537
3692 0 99.2085 12.1159 1202 98.49 126.46 433.673
3693 0 100.271 12.4363 1247 100.621 125.754 433.656
3694 0 104.144 12.4731 1299 102.867 125.194 430.099
3695 0 106.21 12.7201 1351 101.451 125.29 430.346
3696 0 110.124 12.9309 1424 101.817 125.699 428.172
3697 0 114.116 13.092 1494 100.256 125.708 424.917
3698 0 116.218 12.5024 1453 101.08 125.178 424.968
3699 1 63.1271 10.566 667 96.0015 125.181 453.634
3700 0 63.2058 11.154 705 97.4681 125.187 453.485
3701 0 65.2746 12.4704 814 98.2973 125.69 449.226
3702 0 68.2695 11.4985 785 105.409 124.516 447.768
3703 0 69.0477 12.0496 832 96.5853 125.81 448.494
3704 0 71.1948 12.0093 855 96.4269 125.053 448.503
3705 0 75.1353 12.5241 941 94.6769 124.775 447.505
3706 0 75.1526 12.2284 919 97.1523 125.005 445.069
3707 0 79.2202 12.2696 972 98.3981 125.247 444.585
3708 0 79.0717 11.9765 947 104.879 125.058 443.153
3709 0 82.1575 12.3543 1015 103.959 124.964 442.231
3710 0 86.1939 11.8918 1025 104.751 124.733 440.795
3711 0 87.0964 12.1475 1058 104.701 125.242 439.48
3712 0 90.2124 12.6812 1144 103.403 125.074 437.704
3713 0 92.1206 12.4402 1146 103.766 125.211 438.152
3714 0 96.1813 12.518 1204 104.599 124.541 434.633
3715 0 96.1719 11.9993 1154 107.718 124.575 432.217
3716 0 100.074 12.6106 1262 105.403 124.662 432.618
3717 0 102.069 12.0213 1227 106.754 123.76 430.865
3718 0 104.045 12.0813 1257 108.021 124.29 430.301
3719 0 106.099 12.4035 1316 107.484 123.916 428.042
3720 0 109.142 12.1035 1321 108.291 124.158 417.757
3721 0 114.188 13.3202 1521 102.909 124.114 416.619
3722 0 116.132 12.4858 1450 103.961 124.35 415.598
3723 0 122.107 13.439 1641 101.994 123.918 415.042
3724 0 125.096 13.3817 1674 101.59 124.313 412.973
3725 0 127.11 13.2405 1683 102.355 123.842 408.978
3726 1 65.0777 10.8947 709 100.236 124.867 442.523
3727 0 69.0483 11.7744 813 97.6162 123.942 443.399
3728 0 70.0483 12.5199 877 99.7628 124.469 445.245
3729 0 73.0769 13.0684 955 100.073 124.497 443.009
3730 0 75.0408 13.1129 984 100.252 124.87 443.11
3731 0 77.0815 12.6879 978 101.732 124.127 441.758
3732 0 78.0411 12.2371 955 102.298 125.126 439.485
3733 0 80.0347 12.4696 998 101.165 124.772 438.621
3734 0 82.0461 13.1146 1076 99.9926 124.531 439.312
3735 0 84.047 12.9808 1091 100.38 124.43 437.108
3736 0 87.0632 13.2203 1151 98.4909 125.033 437.538
3737 0 86.0401 12.4593 1072 103.031 125.569 435.936
3738 0 90.0415 12.7941 1152 102.493 125.273 433.128
3739 0 92.0446 12.5483 1155 103.971 125.375 431.842
3740 0 96.0538 13.3155 1279 101.289 125.686 430.988
3741 0 98.089 13.4979 1324 101.938 125.344 429.761
3742 0 100.082 12.9794 1299 104.443 125.965 428.691
3743 0 103.078 13.5043 1392 103.793 125.645 426.149
3744 0 104.088 13.4886 1404 104.912 126.403 424.898
3745 0 108.049 13.4198 1450 105.688 126.555 425.276
3746 0 109.075 13.6878 1493 106.679 126.218 422.975
3747 0 115.064 14.4354 1661 104.072 126.743 422.12
3748 0 117.057 14.2495 1668 106.3 126.083 417.573
3749 0 120.051 13.8192 1659 108.828 126.306 416.035
3750 0 125.104 13.8684 1735 108.386 125.319 415.935
3751 0 128.151 13.5466 1736 110.022 125.73 414.054
3752 0 131.109 13.7901 1808 110.393 125.479 413.351
3753 0 136.065 14.9928 2040 107.927 125.6 411.147
3754 0 140.121 13.731 1924 111.957 124.971 409.357
3755 0 144.188 13.6904 1974 111.316 124.842 407.034
3756 0 148.084 14.1136 2090 111.235 125.231 404.078
3757 0 153.143 14.0327 2149 110.875 124.533 405.736
3758 0 157.173 13.921 2188 112.793 124.908 401.739
3759 0 162.17 15.6071 2531 109.145 124.196 398.431
3760 0 165.144 14.2118 2347 113.85 124.509 399.181
3761 0 168.116 13.8833 2334 117.733 124.174 394.171
3762 0 173.118 14.7529 2554 116.468 124.946 390.656
3763 0 183.109 18.306 3352 103.26 125.398 382.237
3764 0 352.626 13.4505 4743 111.462 124.308 313.5
3765 0 350.476 14.7542 5171 108.95 124.943 307.682
3766 0 352.363 14.7575 5200 110.998 124.599 306.76
3767 1 209.15 20.9658 4385 96.7795 125.039 366.724
3768 0 209.187 19.0356 3982 106.025 124.977 366.187
3769 0 212.164 16.1149 3419 118.389 125.185 370.827
3770 0 215.186 16.2883 3505 118.443 125.659 367.039
3771 0 222.154 16.7992 3732 117.043 125.682 362.292
3772 0 229.12 17.0216 3900 119.281 125.471 360.834
3773 0 236.176 16.8179 3972 121.352 126.045 355.979
3774 0 244.316 16.933 4137 121.595 125.437 353.42
3775 0 251.213 16.4721 4138 124.435 125.701 349.629
3776 0 261.126 16.5667 4326 125.475 125.829 346.025
3777 0 271.257 17.3857 4716 122.956 126.123 340.732
3778 1 193.136 11.4841 2218 133.496 126.402 391.763
3779 0 201.156 12.637 2542 131.519 125.807 386.124
3780 0 208.197 13.4104 2792 129.279 125.873 378.912
3781 0 213.235 12.859 2742 129.784 125.053 368.886
3782 1 87.0623 11.084 965 117.826 126.113 429.326
3783 0 92.0627 11.2858 1039 116.571 126.502 429.178
3784 0 93.1105 12.3509 1150 117.147 126.243 434.843
3785 0 97.1839 11.7303 1140 117.594 127.034 430.399
3786 0 102.208 12.8268 1311 119.506 126.569 429.659
3787 0 105.19 12.5867 1324 117.482 126.576 432.815
3788 0 107.142 12.1988 1307 117.055 125.914 429.559
3789 0 111.22 11.8504 1318 115.679 125.455 427.678
3790 0 113.234 12.2843 1391 113.225 125.454 426.293
3791 0 118.305 11.7493 1390 114.442 125.627 424.637
3792 1 68.1344 11.1104 757 113.807 125.576 445.84
3793 0 71.1398 11.5688 823 109.933 126.727 447.412
3794 0 73.2188 12.4285 910 110.236 125.518 444.231
3795 0 76.1853 12.5352 955 110.543 125.757 443.752
3796 0 77.2073 12.8615 993 108.751 125.746 441.714
3797 0 79.1637 12.3668 979 113.127 126.076 439.292
3798 0 80.1889 10.812 867 110.584 125.732 441.758
3799 0 84.1558 11.1816 941 110.004 126.177 440.139
3800 0 85.1212 11.2193 955 112.47 126.452 439.587
3801 0 87.1366 10.9369 953 112.537 126.97 439.338
3802 0 90.0809 10.4573 942 101.808 125.948 430.531
3803 0 94.0947 10.2025 960 101.386 127.761 430.808
3804 0 95.0504 10.3524 984 107.722 127.938 427.924
3805 0 99.0892 10.7984 1070 105.247 128.905 427.331
3806 0 102.185 10.9311 1117 105.405 128.812 425.417
3807 0 105.141 11.0137 1158 105.171 129.645 424.457
3808 0 107.1 10.9524 1173 106.066 129.164 422.327
3809 0 112.084 10.974 1230 106.328 128.598 420.181
3810 0 115.113 10.6938 1231 107.53 128.709 417.641
3811 1 61.1158 9.13022 558 102.772 129.145 445.43
3812 0 63.0727 10.7019 675 99.7585 129.492 445.547
3813 0 66.0664 11.0949 733 97.2565 129.038 446.948
3814 0 68.076 11.5019 783 98.7382 128.692 444.729
3815 0 68.0592 11.2255 764 100.255 127.622 445.263
3816 0 72.0877 11.4028 822 99.4075 128.389 444.369
3817 0 74.0935 11.2561 834 100.506 127.817 443.827
3818 0 77.0581 11.6146 895 100.08 127.798 441.76
3819 0 77.1341 11.8365 913 100.245 127.88 440.676
3820 0 79.0435 11.9934 948 101.065 127.951 439.268
3821 0 81.0562 11.7203 950 102.579 128.167 438.951
3822 0 81.0594 11.7198 950 143.522 128.143 438.947
3823 0 87.0486 12.0622 1050 102.327 127.431 436.329
3824 0 87.0616 12.0145 1046 105 127.223 435.775
3825 0 91.0639 12.1234 1104 105.245 127.88 433.044
3826 0 94.1681 13.1255 1236 101.905 126.669 432.944
3827 0 96.1053 12.0077 1154 102.609 127.081 430.399
3828 0 99.1685 11.667 1157 110.066 126.739 430.694
3829 0 102.171 11.7059 1196 110.388 125.913 427.988
3830 0 105.111 11.4546 1204 110.374 126.398 426.664
3831 1 57.0775 10.2142 583 106.082 126.268 446.967
3832 0 60.101 10.4324 627 104.805 126.946 446.981
3833 0 61.0761 10.8717 664 104.533 126.581 447.03
3834 0 63.1046 11.3621 717 105.222 126.597 446.594
3835 0 66.0761 11.5019 760 107.734 127.164 444.987
3836 0 66.0541 10.991 726 104.355 127.459 447.55
3837 0 68.0732 11.1057 756 105.836 127.504 445.381
3838 0 69.0348 10.7917 745 105.753 127.624 446.413
3839 0 71.1103 11.4892 817 105.024 127.433 443.961
3840 0 76.0623 11.7798 896 102.927 127.829 445.069
3841 0 77.0915 12.2192 942 103.539 127.895 442.993
3842 0 79.0902 11.9863 948 104.459 127.869 440.595
3843 0 81.0663 11.8298 959 105.969 127.14 440.071
3844 0 84.0719 11.8589 997 106.353 127.124 437.875
3845 0 87.1094 12.7885 1114 105.937 126.942 435.417
3846 0 89.1461 12.3056 1097 108.016 126.497 434.389
3847 0 92.0759 12.6961 1169 107.186 126.127 433.096
3848 0 93.108 12.4049 1155 110.294 126.202 431.189
3849 0 95.1866 12.4807 1188 111.46 126.04 432.655
3850 0 97.1318 12.6838 1232 113.905 125.83 430.081
3851 0 102.182 13.1237 1341 113.547 125.568 428.541
3852 0 105.229 13.6939 1441 114.653 125.567 428.062
3853 0 108.257 13.8467 1499 114.282 125.662 424.919
