time division length width area intensity CMx CMy
0 0 46.0397 13.2494 610 108.072 807.777 501.133
1 0 47.0301 13.5232 636 106.869 806.972 500.42
2 0 50.0354 13.2906 665 105.734 806.809 499.693
3 0 52.0124 13.516 703 104.003 806.771 499.58
4 0 53.0248 14.1255 749 102.395 806.66 499.658
5 0 54.043 13.7853 745 103.55 806.966 498.267
6 0 57.0727 13.9997 799 102.507 808.235 496.926
7 0 57.0205 14.2054 810 102.627 808.231 496.23
8 0 59.0208 13.8595 818 103.454 807.841 495.641
9 0 61.1039 14.058 859 102.915 807.293 494.343
10 0 64.0585 13.5189 866 104.342 807.298 493.079
11 0 65.1127 14.4979 944 103.422 806.349 490.061
12 0 69.1055 13.8773 959 104.901 806.798 489.95
13 0 69.0634 14.5808 1007 104.848 806.281 488.517
14 0 73.0313 14.0488 1026 105.436 806.288 489.079
15 0 73.036 14.089 1029 161.088 806.265 489.037
16 0 77.1051 14.0717 1085 103.653 806.288 486.488
17 1 38.0296 12.1221 461 102.332 806.269 504.931
18 0 40.0361 12.4887 500 101.79 806.008 504.906
19 0 42.0611 12.5056 526 101.743 806.137 504.086
20 0 43.0261 12.4808 537 96.4264 805.896 506.836
21 0 44.023 12.5389 552 98.4873 805.888 506.221
22 0 46.0192 13.2336 609 95.8752 805.003 504.954
23 0 45.0315 12.4802 562 99.3843 805.187 504.098
24 0 48.0072 13.6021 653 94.2557 805.706 504.642
25 0 48.0646 13.2114 635 96.4315 805.373 503.145
26 0 52.0108 13.0934 681 94.696 805.891 503.2
27 0 52.0136 13.4965 702 95.037 805.855 501.071
28 0 54.0452 13.5072 730 94.7671 805.273 501.501
29 0 55.0228 13.4671 741 95.6626 805.978 499.347
30 0 57.0409 13.464 768 94.737 805.12 498.803
31 0 60.0299 14.3095 859 90.5751 805.512 498.572
32 0 62.0804 12.8865 800 92.8225 804.369 498.051
33 0 64.0393 13.2887 851 90.1234 804.467 495.133
34 0 66.0347 13.7503 908 88.7698 804.37 494.789
35 0 69.0247 13.5314 934 90.3373 804.521 494.601
36 0 70.1117 13.1647 923 91.0683 804.999 493.038
37 0 74.0254 13.6305 1009 87.9098 804.702 490.302
38 0 76.0184 13.2863 1010 89.904 804.318 487.892
39 0 81.0108 13.1217 1063 88.3001 804.817 487.174
40 1 39.0345 11.2208 438 88.2511 804.66 505.612
41 0 40.0269 11.1675 447 87.7025 804.604 505.799
42 0 43.0224 11.5754 498 87.2972 804.598 506.195
43 0 44.0379 11.8307 521 85.8196 803.62 504.804
44 0 43.0472 11.6849 503 80.3002 804.634 504.247
45 0 45.0398 12.1004 545 77.8018 804.506 504.741
46 0 46.0256 12.1454 559 77.3041 805.07 504.186
47 0 46.0194 11.7994 543 78.1731 804.298 503.168
48 0 48.0257 11.6188 558 78.6649 804.69 501.717
49 0 49.0197 12.036 590 77.7983 804.327 502.107
50 0 53.0271 12.4465 660 76.0258 804.956 500.764
51 0 55.0202 12.2137 672 76.4643 804.79 501.774
52 0 55.02 12.4137 683 77.1728 804.328 498.792
53 0 57.0345 12.0453 687 78.0582 803.463 497.137
54 0 60.0314 12.7433 765 76.6876 804.176 496.675
55 0 63.0365 12.6911 800 77.0675 804.206 494.536
56 0 65.029 12.7635 830 75.7699 805.324 493.177
57 0 68.1156 12.1999 831 75.9254 804.362 491.088
58 0 69.0307 11.7629 812 77.0776 804.415 491.706
59 0 73.0463 12.1156 885 76.0203 803.56 489.551
60 0 75.0622 12.7228 955 74.3791 804.859 488.53
61 0 79.0552 11.7892 932 75.0225 804.867 486.343
62 1 39.0243 9.99377 390 77.5718 804.062 506.29
63 0 42.0148 11.5911 487 75.0308 803.92 505.735
64 0 41.0162 11.4589 470 77.4 803.819 504.194
65 0 40.0186 10.645 426 70.8474 804.643 507.249
66 0 41.0232 10.3356 424 71.9953 804.241 505.601
67 0 41.0151 10.484 430 72.0953 803.693 506.612
68 0 44.0276 10.289 453 71.9956 804.148 505.645
69 0 43.0173 10.2517 441 72.0658 804.633 505.057
70 0 46.0447 10.4464 481 71.6715 804.168 503.572
71 0 50.0155 11.6764 584 68.387 805.007 504.286
72 0 50.0641 11.1457 558 69.138 804.513 503.437
73 0 52.0325 10.8778 566 70.083 804.707 500.845
74 0 54.0283 11.457 619 69.7221 804.653 500.3
75 0 55.0179 10.1967 561 71.8663 804.93 501.007
76 0 58.039 11.251 653 71.2818 804.297 498.256
77 0 59.0577 11.4634 677 71.8508 804.452 496.724
78 0 61.084 11.0504 675 72.2415 804.575 496.804
79 0 64.0717 11.4559 734 72.515 804.774 495.737
80 0 65.0384 11.1934 728 73.5096 804.904 494.26
81 0 69.0713 11.5678 799 73.0125 804.837 493.574
82 0 72.1015 11.567 834 72.3573 804.634 493.27
83 0 74.0335 11.4813 850 72.2224 804.824 489.268
84 0 77.0691 11.7427 905 72.4442 805.017 489.589
85 0 78.0497 10.8136 844 74.878 804.601 488.976
86 0 82.0448 12.1641 998 73.7886 805.138 485.62
87 0 84.0294 11.0795 931 77.2331 804.591 485.148
88 0 83.0297 10.972 911 127.057 804.638 485.575
89 1 46.0166 10.6483 490 78.4286 805.349 502.522
90 0 47.0337 12.0339 566 80.5901 804.099 502.118
91 0 46.0427 11.0332 508 75.5217 804.435 504.896
92 0 49.0456 11.2548 552 75.1196 804.299 502.83
93 0 50.0769 11.4823 575 74.847 804.233 502.068
94 0 52.0722 11.292 588 75.4813 804.156 499.844
95 0 52.0155 11.2082 583 76.9726 804.292 499.617
96 0 53.0169 10.7136 568 79.0246 804.386 499.789
97 0 55.065 11.3684 626 78.3019 804.249 499.043
98 0 57.037 11.2909 644 78.3276 804.321 500.415
99 0 59.0638 10.9035 644 79.191 804.051 498.197
100 0 62.1045 12.0764 750 76.4 803.873 496.641
101 0 65.0612 12.0963 787 76.8081 803.976 495.278
102 0 66.0762 12.304 813 77.7109 803.935 494.392
103 0 66.0854 12.045 796 78.4334 804.617 492.848
104 0 69.0241 11.3004 780 79.2103 804.695 492.387
105 0 73.0683 12.0298 879 77.1604 804.973 490.189
106 0 77.0581 12.4971 963 76.107 804.265 489.454
107 0 77.0617 12.198 940 78.0191 804.673 487.69
108 0 79.0284 11.7173 926 78.9071 804.26 486.989
109 0 84.0481 11.6719 981 77.5066 804.679 485.643
110 0 85.1407 11.6748 994 78.5815 804.445 484.832
111 1 45.068 11.0278 497 77.9879 804.688 503.125
112 0 46.129 11.2077 517 78.8162 804.555 502.899
113 0 48.1319 11.1153 535 77.4056 804.968 499.572
114 0 50.1029 12.0751 605 78.4744 804.079 500.187
115 0 50.0187 12.0155 601 74.1364 803.94 502.283
116 0 52.0218 11.3991 593 74.9983 804.912 501.457
117 0 51.0141 11.5654 590 76.4169 804.451 501.973
118 0 53.0228 11.5233 611 75.4861 804.876 502.018
119 0 53.0245 11.4852 609 77.4171 804.169 499.54
120 0 56.0453 11.9189 668 76.4491 804.458 498.484
121 0 57.025 11.8194 674 76.4228 804.12 498.34
122 0 59.0538 11.8028 697 76.9857 804.154 497.357
123 0 63.0511 12.4026 782 76.1662 804.408 495.367
124 0 66.0688 12.5173 827 76.659 804.647 495.002
125 0 66.0682 12.3963 819 78.8864 804.777 493.116
126 0 68.0217 12.5254 852 78.885 804.952 493.354
127 0 72.0535 12.116 873 80.7216 804.434 491.669
128 0 73.0392 12.1989 891 82.5859 804.506 490.149
129 0 76.0699 12.6463 962 81.8514 804.478 488.763
130 0 78.0949 12.5488 980 82.899 804.29 487.934
131 0 81.0856 12.715 1031 83.1629 804.362 486.767
132 0 84.0337 12.8996 1084 83.5895 804.08 485.08
133 1 43.0371 11.6411 501 88.4671 804.08 505.868
134 0 42.007 10.2602 431 85.2135 804.316 502.768
135 0 44.0444 11.3522 500 81.796 805 500.954
136 0 46.0878 11.7602 542 89.845 804.786 504.522
137 0 46.0602 12.0277 554 84.3628 804.365 504.343
138 0 47.0246 12.1426 571 84.8476 804.898 503.643
139 0 47.0199 12.0162 565 85.7168 803.92 503.088
140 0 49.0372 11.7666 577 84.714 804.381 501.666
141 0 50.0591 11.1268 557 88.2675 803.867 502.425
142 0 53.048 12.2531 650 85.8292 803.808 501.886
143 0 54.0648 12.3186 666 86.5661 803.889 499.548
144 0 57.033 12.1509 693 84.6999 803.851 500.175
145 0 57.0674 12.3188 703 85.7966 804.67 498.42
146 0 58.0296 11.7354 681 87.2291 804.791 498.207
147 0 60.0495 11.7736 707 87.4653 803.887 497.041
148 0 65.0453 12.2376 796 84.6558 804.132 496.22
149 0 67.0431 12.2608 822 84.5852 804.061 494.482
150 0 70.0452 11.7781 825 91.5055 803.661 493.304
151 0 73.026 12.6393 923 82.0802 803.529 492.637
152 0 74.025 12.6849 939 82.1544 804.256 490.788
153 0 77.0704 11.7814 908 84.6002 803.835 490.395
154 0 80.0327 11.8701 950 82.6895 804.212 489.881
155 1 43.0219 11.5987 499 85.4228 803.519 506.559
156 0 43.0381 11.3853 490 86.9633 803.378 506.324
157 0 45.0296 11.7034 527 87.8065 802.985 505.554
158 0 48.0075 11.9565 574 90.0192 803.484 504.855
159 0 43.0369 10.8279 466 85.118 803.856 506.663
160 0 46.0345 10.9049 502 82.988 804.052 506.988
161 0 46.0754 11.4378 527 81.8444 803.765 505.539
162 0 49.0555 11.1303 546 82.3901 803.592 505.799
163 0 49.0206 10.6486 522 85.0977 803.471 504.308
164 0 51.0484 11.1267 568 85.6937 803.373 501.952
165 0 54.1027 11.2379 608 82.9671 803.265 501.465
166 0 56.0821 11.8933 667 82.0165 803.021 500.333
167 0 57.1019 11.5408 659 83.7618 803.094 500.325
168 0 58.0684 11.3487 659 87.2625 802.751 498.17
169 0 62.1225 11.6705 725 86.9048 803.079 497.292
170 0 63.0501 11.6891 737 88.346 803.237 496.961
171 0 64.0859 11.5002 737 90.806 803.286 494.395
172 0 67.0985 11.6098 779 90.5635 803.123 493.537
173 0 70.1482 11.7323 823 89.5687 803.514 492.994
174 0 73.0989 11.204 819 91.7424 802.844 491.46
175 0 75.0861 11.2404 844 90.2915 803.325 490.384
176 0 79.0665 11.7749 931 87.7637 802.715 488.456
177 0 83.0446 11.5119 956 87.7333 802.34 486.961
178 0 85.0509 12.0516 1025 87.038 802.783 484.881
179 0 88.0791 12.08 1064 86.8045 803.445 484.215
180 1 46.0268 10.2549 472 91.6144 802.729 503.93
181 0 47.0559 11.2845 531 89.6648 802.71 503.759
182 0 50.0482 11.6688 584 91.5993 802.603 502.269
183 0 51.024 11.6416 594 93.0034 802.655 500.448
184 0 50.0336 11.2125 561 84.7344 802.836 503.396
185 0 49.079 10.5952 520 87.8577 803.102 502.046
186 0 50.0243 10.7548 538 87.0762 803.262 501.312
187 0 55.0327 11.8838 654 84.9602 803.448 500.774
188 0 54.0919 10.5746 572 87.8164 803.414 498.965
189 0 57.0872 10.6504 608 87.4046 802.962 499.581
190 0 59.0652 11.2079 662 86.1707 803.059 497.018
191 0 61.045 11.1885 683 85.9751 803.101 497.086
192 0 62.024 11.028 684 85.6667 802.186 495.548
193 0 64.0452 11.4919 736 86.6073 802.355 493.053
194 0 66.0469 10.9468 723 87.9848 802.698 491.223
195 0 70.1034 11.7113 821 86.2948 802.314 491.72
196 0 71.0561 11.7794 837 87.5305 802.358 490.765
197 0 74.0339 12.1296 898 86.7784 801.817 489.546
198 0 77.0482 11.5512 890 88.5596 802.188 487.745
199 0 78.0692 11.7204 915 88.9432 801.967 485.987
200 0 82.0627 12.3077 1010 87.1545 802.323 484.535
201 0 82.0905 11.8284 971 89.1081 801.831 483.215
202 0 88.0432 12.4598 1097 110.187 802.185 482.83
203 0 90.0745 12.5341 1129 109.491 802.552 481.913
204 0 93.1455 12.6683 1180 107.421 802.282 479.909
205 0 95.0358 12.4795 1186 107.439 802.524 478.422
206 0 97.0884 11.9994 1165 107.496 801.997 476.639
207 0 99.109 12.2794 1217 105.932 802.051 474.724
208 0 102.184 11.9001 1216 103.549 802.678 471.17
209 0 103.154 11.701 1207 103.657 802.778 468.215
210 0 105.153 11.5927 1219 103.888 802.189 463.341
211 0 110.071 12.183 1341 101.011 802.99 463.211
212 0 112.1 11.3916 1277 103.703 802.18 463.513
213 0 120.154 11.943 1435 102.863 802.325 462.403
214 0 124.148 11.2607 1398 101.729 802.378 459.446
215 1 62.1057 9.87027 613 91.0718 803.101 490.556
216 0 63.0591 9.94305 627 91.0558 803.175 489.129
217 0 64.0373 10.5407 675 87.4607 803.169 487.433
218 0 66.0425 10.2661 678 82.2876 803.094 487.016
219 0 71.067 10.8489 771 79.3632 802.589 485.358
220 0 71.0461 10.3032 732 81.3866 802.728 483.631
221 0 78.1392 13.3864 1046 87.6855 802.132 489.456
222 0 82.1509 12.6718 1041 88.3295 802.576 488.751
223 0 83.1028 12.9719 1078 89.1234 802.752 485.857
224 0 86.0694 12.4667 1073 89.2162 802.783 484.73
225 0 89.0615 13.137 1170 88.0376 802.523 482.445
226 0 91.0948 13.0633 1190 88.916 802.74 481.656
227 0 95.0681 13.2747 1262 86.1149 803.078 480.411
228 0 98.1803 12.9456 1271 86.5539 802.882 478.259
229 0 100.09 13.0882 1310 85.5275 802.176 476.518
230 0 102.083 12.6564 1292 85.9489 803.197 474.792
231 0 106.071 13.4721 1429 83.1183 802.945 472.853
232 0 108.094 12.9979 1405 84.6783 802.926 472.765
233 0 111.102 12.9521 1439 85.089 802.954 470.171
234 0 114.067 13.0976 1494 84.2202 802.546 467.531
235 0 118.19 13.2414 1565 83.9681 802.788 465.261
236 0 121.1 13.2453 1604 84.6303 802.45 463.022
237 0 124.122 13.1483 1632 84.5135 803.096 462.147
238 0 129.217 13.0788 1690 85.5544 802.902 460.6
239 0 131.207 13.2158 1734 86.8806 802.924 457.366
240 0 135.126 13.6909 1850 88.0297 802.736 455.775
241 0 138.166 12.7889 1767 91.9366 802.297 456.035
242 0 142.255 13.033 1854 92.9488 802.198 451.272
243 0 146.192 12.8667 1881 92.9282 801.954 449.045
244 0 151.29 12.367 1871 95.7296 802.413 444.666
245 0 155.152 12.7875 1984 95.4375 802.262 440.579
246 0 161.179 13.0662 2106 98.3922 802.03 439.774
247 0 165.223 13.0733 2160 100.331 801.362 436.94
248 0 170.219 12.9069 2197 102.01 802.3 432.723
249 0 177.244 13.93 2469 99.8732 802.072 432.357
250 0 184.304 13.391 2468 103.188 802.314 427.31
251 0 189.366 14.031 2657 101.992 801.837 426.18
252 0 195.395 14.0229 2740 102.808 802.361 422.682
253 0 200.27 13.6716 2738 104.628 802.31 419.152
254 0 205.342 13.7429 2822 104.643 802.541 416.908
255 0 214.334 14.4774 3103 101.855 802.075 412.902
256 0 218.411 14.3674 3138 102.112 802.643 410.444
257 0 227.405 14.6874 3340 100.984 802.423 407.309
258 0 234.489 13.9836 3279 104.809 802.359 399.728
259 0 244.56 14.2746 3491 103.847 802.407 398.046
260 1 193.414 10.9506 2118 106.873 802.944 428.227
261 1 65.3277 9.73553 636 93.5535 802.597 488.631
262 0 69.2361 11.5691 801 94.4594 802.502 488.98
263 0 70.1182 11.4093 800 94.3175 802.349 486.725
264 0 71.0723 12.3536 878 95.8929 802.103 488.064
265 0 74.0496 12.2891 910 92.5791 802.522 490.568
266 0 75.1052 11.9965 901 94.8724 801.779 489.323
267 0 76.1568 12.4743 950 94.8074 801.617 487.555
268 0 78.0729 12.0144 938 98.3721 801.641 486.835
269 0 83.0996 12.6475 1051 97.6356 801.954 485.006
270 0 86.0329 12.1698 1047 100.018 801.822 483.244
271 0 88.0567 11.7992 1039 102.341 801.81 482.245
272 0 91.0617 12.1017 1102 102.982 801.934 481.005
273 0 93.105 11.6965 1089 105.261 802.369 479.93
274 0 95.0674 11.8968 1131 105.944 801.862 477.77
275 0 101.026 12.3037 1243 106.11 801.555 475.534
276 1 54.0187 10.8851 588 103.912 801.189 499.327
277 0 56.0306 10.8691 609 102.696 801.581 497.765
278 0 57.0661 11.8985 679 101.973 802.23 499.284
279 0 56.0874 10.4836 588 90.5034 802.179 501.908
280 0 58.0525 11.1106 645 89.014 801.87 501.278
281 0 58.0693 11.5552 671 89.1923 801.978 498.724
282 0 60.0731 10.5538 634 90.2334 801.726 499.323
283 0 63.1441 10.3098 651 91.5745 802.396 499.495
284 0 65.0792 10.6793 695 89.6863 802.365 497.269
285 0 67.1332 10.7994 725 89.5766 801.159 495.542
286 0 70.0298 11.1238 779 89.9705 801.732 494.003
287 0 71.0898 10.8736 773 90.6986 801.431 493.63
288 0 74.0513 10.9789 813 91.8659 801.957 493.469
289 0 77.1042 11.6595 899 90.9755 801.231 489.879
290 0 80.0615 11.641 932 89.9142 801.827 488.646
291 0 81.0472 10.7098 868 90.9343 801.368 488.537
292 0 87.0283 11.6744 1016 87.124 801.719 486.492
293 0 88.0601 11.5262 1015 89.0059 802.316 484.95
294 0 90.0498 10.9717 988 89.4433 802.414 485.897
295 1 49.0291 10.7895 529 92.0643 801.282 504.352
296 0 52.0175 11.3039 588 91.284 800.932 502.997
297 0 51.0467 12.0086 613 92.2741 801.147 502.148
298 0 55.0239 12.3219 678 96.7625 801.111 501.353
299 0 54.0525 11.8773 642 87.1417 801.908 501.603
300 0 56.0103 11.5871 649 87.4854 801.475 500.627
301 0 57.1494 11.8286 676 86.6657 802.8 499.741
302 0 59.0767 11.9844 708 86.5424 802.558 497.234
303 0 60.0614 12.3707 743 85.9812 803 498.987
304 0 61.062 12.2335 747 87.1392 802.523 496.726
305 0 63.0681 11.9712 755 87.506 802.677 496.134
306 0 66.0651 12.9569 856 85.7325 802.673 496.415
307 0 65.0483 12.4215 808 89.4554 802.224 494.913
308 0 68.0681 12.6638 862 88.645 802.852 494.558
309 0 71.0858 12.5764 894 89.8557 802.143 494.964
310 0 73.0735 12.9596 947 88.2165 802.027 493.042
311 0 75.1729 12.9701 975 90.0687 802.114 492.672
312 0 77.0908 12.1934 940 90.8255 802.404 492.362
313 0 81.1375 12.9287 1049 89.7207 802.996 490.338
314 0 80.0586 12.8031 1025 93.8341 801.956 489.708
315 0 85.1429 12.9899 1106 94.2224 802.623 488.471
316 0 87.0709 12.8631 1120 95.0527 802.363 487.065
317 0 88.0547 12.3105 1084 97.4013 802.394 484.807
318 1 47.028 11.4187 537 98.1769 802.678 507.358
319 0 47.079 11.2152 528 105.53 802.515 507.428
320 0 46.0542 10.5745 487 94.8111 801.164 503.097
321 0 47.0346 10.3541 487 81.4908 802.138 501.926
322 0 48.0732 10.38 499 81.9679 802.513 501.265
323 0 46.0424 9.86048 454 83.304 801.727 500.335
324 0 50.0992 10.3994 521 80.5163 801.785 499.948
325 0 49.0449 9.07332 445 83.4 801.82 501.245
326 0 53.0444 10.9531 581 93.0654 800.776 504.633
327 0 56.0247 11.37 637 90.3972 800.407 504.108
328 0 57.028 10.9595 625 90.1136 800.118 501.102
329 0 60.0133 10.9142 655 88.0031 800.232 500.551
330 0 61.0471 11.3355 692 86.8512 799.962 500.078
331 0 63.0287 11.4551 722 85.5651 799.825 499.996
332 0 65.0891 10.6469 693 84.1775 800.058 496.905
333 0 69.062 10.9757 758 82.624 800.094 494.512
334 0 69.0519 10.789 745 81.851 800.204 495.495
335 0 73.1158 10.8185 791 82.4981 799.97 493.14
336 0 74.2525 10.8683 807 82.715 799.177 491.778
337 0 78.0729 11.2715 880 81.7341 799.636 490.165
338 0 82.1049 11.4 936 79.3184 799.395 490.989
339 0 84.1439 11.8131 994 79.3893 799.138 490.246
340 0 88.1025 12.4741 1099 78.8435 799.533 487.612
341 1 46.0188 11.517 530 77.366 799.347 509.281
342 0 46.0925 10.9779 506 77.4684 799.01 508.52
343 0 47.0245 11.93 561 74.1889 799.018 508.763
344 0 49.0305 12.5228 614 73.8111 798.71 508.681
345 0 51.0247 12.249 625 74.9888 798.578 506.744
346 0 53.0152 12.0343 638 76.0956 798.335 505.903
347 0 55.0594 12.6227 695 75.164 798.312 504.207
348 0 57.0374 12.6058 719 76.9374 798.006 503.711
349 0 57.0415 12.4295 709 79.3738 798.303 503.52
350 0 61.0497 12.8911 787 77.2211 798.625 502.559
351 0 62.0323 11.8164 733 80.7012 798.457 501.441
352 0 64.0481 12.6155 808 79.0644 798.731 500.678
353 0 64.06 12.2854 787 81.5604 798.424 500.353
354 0 68.0482 11.9768 815 81.9718 798.416 500.372
355 0 71.0689 11.9743 851 82.2797 798.21 497.74
356 0 73.0323 12.159 888 82.7872 798.054 497.631
357 0 76.0589 12.0827 919 82.7432 799.603 495.617
358 0 80.0999 11.9601 958 84.2672 799.2 494.306
359 0 82.0784 11.5743 950 85.5063 799.314 492.738
360 0 86.0885 11.6973 1007 85.4439 798.968 490.564
361 1 44.0265 11.0161 485 89.2371 799.12 510.175
362 0 46.0183 11.0391 508 94.7362 799.083 509.01
363 0 49.0215 11.7499 576 91.5382 799.306 507.944
364 0 48.0374 11.6992 562 89.831 799.295 506.731
365 0 51.0611 12.1815 622 87.5161 799.397 506.466
366 0 51.0594 12.084 617 89.825 799.394 506.303
367 0 53.0216 11.3161 600 90.8083 799.853 505.732
368 0 55.0253 12.0672 664 90.375 799.63 504.069
369 0 57.028 11.1524 636 91.9733 799.885 504.069
370 0 59.0483 12.4644 736 89.5367 799.486 500.064
371 0 61.0477 11.9579 730 91.1219 799.364 500.089
372 0 61.0383 11.3371 692 94.5766 799.494 499.818
373 0 66.0636 12.4425 822 91.5754 799.989 499.356
374 0 67.0511 12.8111 859 91.3702 799.589 498.19
375 0 66.0305 11.0101 727 97.2765 799.845 498.729
376 0 70.0671 11.2749 790 96.4367 800.085 497.663
377 0 73.0431 11.8012 862 95.4838 800.534 495.505
378 0 75.0648 11.8831 892 92.7836 800.65 495.887
379 0 77.0822 11.5072 887 96.0902 800.612 495.157
380 0 80.059 11.4416 916 95.9432 800.361 491.676
381 0 84.0766 11.5609 972 93.8014 800.032 490.184
382 0 85.1268 11.8529 1009 94.0079 800.203 489.7
383 0 87.0306 11.9613 1041 95.243 800.736 488.17
384 0 92.0884 11.6193 1070 97.6271 800.54 485.883
385 1 49.0322 10.6869 524 102.008 800.739 506.817
386 0 49.0624 11.1083 545 105.051 800.593 506.714
387 0 51.041 11.383 581 107.721 801.088 504.764
388 0 53.0927 11.2821 599 109.152 800.806 503.891
389 0 54.1244 11.8431 641 107.604 800.607 503.596
390 0 57.1483 11.9864 685 108.057 800.772 500.803
391 0 57.0979 11.5941 662 109.156 800.089 501.156
392 0 58.0635 11.7285 681 109.815 801.248 500.263
393 0 60.1718 11.8494 713 109.358 800.237 499.309
394 0 63.129 11.627 734 108.958 800.631 497.718
395 0 65.2035 12.4226 810 106.275 800.884 497.116
396 0 67.1419 11.9151 800 107.365 801.054 497.134
397 0 68.1782 12.174 830 107.236 801.398 496.72
398 0 71.1405 12.398 882 106.989 801.574 495.006
399 0 72.253 12.5254 905 106.93 800.723 494.357
400 0 75.1604 12.5199 941 107.197 800.875 492.532
401 0 77.1829 12.4121 958 107.855 800.686 490.502
402 0 79.1548 12.7472 1009 106.64 801.476 489.557
403 0 83.127 12.1621 1011 108.088 800.725 488.203
404 0 84.1296 12.8255 1079 106.557 801.073 487.289
405 0 87.1377 12.4745 1087 106.728 800.698 487.959
406 0 90.1554 12.8445 1158 105.692 801.016 486.53
407 0 92.1302 11.983 1104 108.391 800.973 484.775
408 0 94.124 12.0267 1132 107.551 800.913 484.617
409 0 97.0943 11.8854 1154 107.264 801.121 481.826
410 0 100.087 11.9396 1195 105.985 801.222 480.849
411 1 56.0813 10.4669 587 97.7734 802.228 505.37
412 0 54.0578 11.3027 611 95.9378 801.157 503.218
413 0 56.1375 10.8662 610 96.8902 801.079 501.574
414 0 57.0747 10.9506 625 93.4784 801.376 501.405
415 0 61.0375 12.3367 753 85.5644 800.57 500.574
416 0 61.0649 11.758 718 89 800.843 500.565
417 0 65.0337 12.5012 813 85.444 801.61 499.231
418 0 68.089 12.8802 877 84.3044 801.23 498.218
419 0 70.0629 12.1748 853 87.3165 801.483 498.059
420 0 71.0655 12.2563 871 87.8014 801.412 496.109
421 0 74.1379 12.6116 935 87.4428 801.422 495.457
422 0 73.0958 11.9159 871 91.2216 800.397 494.4
423 0 77.0273 12.0607 929 90.8558 800.523 492.267
424 0 79.0414 12.272 970 90.9485 801.018 492.627
425 0 81.0489 12.3136 998 92.2345 801.119 491.581
426 0 83.0985 12.4671 1036 92.2461 801.154 489.789
427 0 85.088 12.3989 1055 92.7602 800.561 490.824
428 0 89.0489 12.6672 1128 92.1649 801.04 489.105
429 0 86.0373 10.9255 940 99.1053 800.249 489.628
430 0 89.0782 11.6415 1037 97.2874 800.549 487.512
431 0 90.088 11.3334 1021 97.334 801.03 488.631
432 0 93.0351 11.5225 1072 96.8619 800.343 486.863
433 0 95.0616 11.7713 1119 97.0098 800.39 485.149
434 0 98.0336 10.7514 1054 97.9374 800.312 484.159
435 0 101.048 10.9156 1103 96.3708 800.66 482.393
436 0 105.046 11.5378 1212 94.5578 801.029 479.394
437 0 111.121 12.4639 1385 95.1646 801.05 476.108
438 0 111.122 12.4548 1384 128.785 801.05 476.059
439 0 118.213 12.7821 1511 95.2627 800.157 468.969
440 0 119.133 12.0622 1437 96.7794 800.413 467.353
441 0 121.12 11.2121 1358 94.5486 800.451 468.653
442 0 125.105 11.6862 1462 95.1012 800.723 466.272
443 1 68.0157 10.1006 687 90.8996 800.082 496.434
444 0 70.0457 9.96492 698 88.2464 800.543 494.288
445 0 73.1206 10.681 781 85.137 800.376 490.834
446 0 77.1121 10.9321 843 84.4769 800.197 488.325
447 0 79.0894 10.9496 866 87.1559 799.387 485.758
448 0 79.1343 10.8423 858 88.6573 800.118 484.049
449 0 81.0629 11.2875 915 82.3082 800.189 484.316
450 0 86.0552 12.1317 1044 88.5038 800.148 481.991
451 0 88.0572 11.3676 1001 89.1648 800.382 480.327
452 0 91.1181 11.9954 1093 87.731 800.242 480.099
453 0 94.1006 11.679 1099 87.3221 800.709 478.904
454 0 99.0682 11.3457 1124 85.1432 800.115 476.254
455 0 100.144 11.2638 1128 83.0009 800.647 475.417
456 0 104.131 11.1207 1158 81.2686 799.819 474.377
457 0 107.052 11.415 1222 80.1702 801.089 473.406
458 0 112.077 12.081 1354 80.1499 800.682 472.593
459 1 59.0381 10.6033 626 84.6166 800.725 497.569
460 0 61.0629 10.7103 654 82.2446 799.916 492.968
461 0 62.0567 11.28 700 78.9186 800.209 492.806
462 0 64.0556 11.6149 744 75.0444 800.027 494.355
463 0 64.0772 11.5486 740 76.5514 800.315 492.82
464 0 68.123 11.582 789 76.1229 800.089 491.074
465 0 68.1061 11.5849 789 105.439 800.053 491.157
466 0 72.0561 11.8796 856 76.132 800.254 490.363
467 0 73.0466 11.5406 843 77.5824 799.953 489.552
468 0 76.1251 11.5468 879 78.0933 800.106 489.175
469 0 78.1624 11.8727 928 79.0248 800.159 486.727
470 0 79.1046 11.2383 889 79.793 799.836 484.855
471 0 84.111 11.3897 958 77.714 799.669 482.265
472 0 86.1168 12.0302 1036 76.6081 800.227 480.502
473 0 92.0638 13.1648 1212 74.2219 799.542 482.299
474 0 95.0524 12.9402 1230 74.8659 799.673 480.939
475 0 97.1274 12.8388 1247 76.5293 799.993 478.811
476 0 102.066 13.1582 1343 75.3194 799.552 478.263
477 1 53.1355 10.9908 584 74.5634 799.666 500.103
478 0 53.0629 11.7219 622 74.2219 799.805 499.666
479 0 56.0424 12.2943 689 73.4427 799.756 500.488
480 0 56.0625 11.5942 650 71.0246 799.278 502.712
481 0 57.0625 12.3899 707 70.1994 799.618 501.29
482 0 58.0762 11.7949 685 72.6584 799.445 501.882
483 0 58.0371 11.9062 691 72.6237 798.983 501.725
484 0 62.0737 11.1158 690 74.2 799.343 500.203
485 0 63.0848 12.2533 773 72.7038 798.609 498.604
486 0 63.0592 11.9887 756 74.873 798.853 497.894
487 0 68.0298 12.0241 818 74.5917 798.787 497.29
488 0 68.0462 12.0359 819 76.6117 798.778 494.509
489 0 70.0363 10.9943 770 79.0571 798.769 493.906
490 0 74.0262 12.2119 904 77.3164 798.381 492.543
491 0 76.0446 12.1771 926 78.0173 798.775 490.354
492 0 79.0511 11.9037 941 80.5739 798.981 490.211
493 0 82.0814 12.3658 1015 80.5507 798.926 488.141
494 0 84.0734 12.3583 1039 81.2291 799.733 488.455
495 0 88.0807 12.2728 1081 81.4681 799.353 486.475
496 0 89.1088 12.2547 1092 83.2555 799.2 484.246
497 0 93.1588 12.2479 1141 82.2875 798.904 485.714
498 0 95.0782 12.1479 1155 84.2701 799.196 481.459
499 1 53.1245 11.8401 629 82.7091 799.245 502.924
500 0 53.0202 10.8072 573 78.7749 798.991 501.642
501 0 56.0313 10.9939 616 79.7224 799.266 499.396
502 0 58.0805 11.8284 687 85.7438 799.277 500.643
503 0 58.0769 11.743 682 86.129 799.434 500.381
504 0 58.0349 10.7005 621 75.9082 800.148 502.266
505 0 60.0166 10.6137 637 76.7551 799.849 500.87
506 0 63.0339 11.5652 729 76.3841 799.501 498.439
507 0 66.0865 11.4849 759 77.3491 798.879 497.47
508 0 68.0674 10.8716 740 78.9932 799.036 497.091
509 0 69.0339 10.5455 728 81.5618 799.328 496.971
510 0 72.0894 10.7228 773 82.8228 799.181 494.242
511 0 74.1062 10.8088 801 83.2647 799.311 493.296
512 0 78.046 11.0063 859 83.0256 798.965 493.615
513 0 82.0244 11.6185 953 84.4586 800.002 492.027
514 0 84.0436 11.2204 943 86.5186 800.139 490.429
515 0 87.0206 11.4915 1000 85.374 799.259 489.805
516 0 90.0346 11.3956 1026 86.2495 799.315 487.582
517 0 95.0301 11.5963 1102 87.0717 799.122 487.324
518 1 49.0084 10.9165 535 89.6112 800.065 506.284
519 0 51.0415 11.4613 585 90.1197 799.443 505.101
520 0 54.1021 11.4598 620 87.0435 799.405 503.216
521 0 56.0608 12.1654 682 91.7771 797.764 504.324
522 0 56.0857 11.2863 633 95.5403 797.645 503.463
523 0 59.0441 12.3467 729 93.6639 797.797 502.723
524 0 61.0747 11.6087 709 95.0818 797.034 502.034
525 0 62.0576 11.9566 742 93.2251 797.336 501.434
526 0 65.0833 12 781 93.2548 797.397 500.332
527 0 66.0728 12.8949 852 90.9401 798.011 498.736
528 0 68.0947 12.512 852 91.7124 797.675 497.589
529 0 69.1109 11.8939 822 92.5937 797.59 497.765
530 0 70.1343 11.5778 812 92.601 797.982 496.182
531 0 75.1515 12.5081 940 88.3404 797.884 496.298
532 0 74.0916 11.5938 859 91.7439 797.405 494.666
533 0 78.0923 12.3956 968 89.4081 796.66 493.8
534 0 80.1191 12.444 997 89.4223 797.077 491.997
535 0 83.0621 12.2679 1019 90.1129 797.206 491.266
536 0 86.1211 12.494 1076 89.7351 798.204 490.332
537 0 88.1103 12.0758 1064 91.8365 798.647 487.864
538 0 89.1212 11.8378 1055 93.018 797.941 485.953
539 0 92.1554 11.7736 1085 92.5207 798.152 485.741
540 0 95.1439 11.7927 1122 92.1266 797.821 486.48
541 0 98.1294 11.0568 1085 93.8166 797.67 482.777
542 0 101.146 11.7651 1190 92.3387 797.822 483.087
543 0 105.148 11.3935 1198 92.6937 798.069 481.22
544 0 106.059 8.6744 920 84.2337 798.143 477.541
545 0 110.16 8.30609 915 85.5847 798.421 473.772
546 0 116.071 10.5366 1223 78.0327 798.478 472.975
547 0 119.141 10.5757 1260 76.6278 798.405 473.061
548 0 124.138 9.30417 1155 80.0372 798.352 469.86
549 0 128.155 8.84866 1134 80.2646 798.667 467.41
550 1 58.0289 10.2707 596 69.8591 799.017 505.651
551 0 60.1123 10.8963 655 72.6565 798.203 502.344
552 0 59.1226 9.52259 563 69.7407 798.714 502.851
553 0 63.1688 11.0498 698 67.3653 798.321 500.47
554 0 66.0645 10.4141 688 67.3474 799.395 499.18
555 0 67.1419 10.7087 719 66.4312 798.68 499.754
556 0 70.0869 11.3573 796 64.8769 797.91 499.431
557 0 73.055 11.4161 834 64.4281 798.252 498.158
558 0 74.1244 11.9664 887 63.7756 798.53 498.511
559 0 73.104 11.4631 838 65.7494 798.746 497.01
560 0 79.1546 12.3556 978 63.4949 798.664 494.679
561 0 81.1139 12.0694 979 64.5546 799.361 493.95
562 0 83.0552 11.9318 991 65.1504 798.799 492.595
563 0 86.1163 12.7618 1099 63.3385 798.055 490.076
564 0 88.1801 10.6827 942 67.8004 799.266 486.67
565 0 88.0666 8.90236 784 71.8839 798.483 485.796
566 0 93.1112 10.0955 940 69.8457 798.972 486.696
567 0 93.1087 10.042 935 120.905 799.969 486.684
568 1 45.0759 10.205 460 66.7152 798.17 510.052
569 0 45.0759 10.1163 456 108.792 796.189 509.917
570 0 49.0423 11.1129 545 67.1872 798.02 505.635
571 0 53.0609 11.5716 614 64.1906 798.27 507.751
572 0 55.0402 11.2463 619 62.7997 797.258 508.221
573 0 58.0254 12.1671 706 61.8003 797.793 506.782
574 0 57.0677 10.286 587 65.9455 797.376 505.451
575 0 60.0812 9.90327 595 65.7261 798.582 504.067
576 0 62.0489 11.6199 721 63.8391 797.555 502.591
577 0 65.0325 12.5629 817 62.0257 797.443 502.639
578 0 65.0827 11.616 756 65.3558 797.345 502.303
579 0 68.1284 12.3884 844 65.013 797.251 500.091
580 0 70.0679 12.7162 891 65.7464 797.43 499.668
581 0 73.1489 12.8368 939 72.0628 797.422 497.605
582 0 74.0663 12.0298 891 74.1874 797.354 495.35
583 0 76.1449 12.3186 938 74.4584 796.934 494.657
584 0 78.1709 13.0355 1019 73.7792 796.937 493.67
585 0 81.1079 12.5142 1015 76.1182 797.477 491.43
586 0 81.0971 12.7502 1034 78.2282 797.448 491.426
587 0 85.1708 13.4671 1147 77.2624 797.576 490.935
588 0 87.1616 12.6432 1102 80.9519 797.56 488.75
589 0 90.1555 13.8317 1247 78.992 797.227 490.861
590 0 93.1363 13.5608 1263 81.8591 796.906 488.721
591 0 93.1164 13.7462 1280 82.8336 797.341 488.73
592 0 99.1813 13.8232 1371 83.7688 797.258 486.991
593 0 99.0956 13.5627 1344 86.1637 797.894 486.211
594 0 103.224 14.1633 1462 86.4918 796.851 484.867
595 0 105.1 14.7669 1552 86.9439 797.204 483.272
596 0 108.115 15.3355 1658 85.7521 797.334 481.584
597 0 111.162 15.0951 1678 87.0989 797.976 479.843
598 0 113.232 14.9781 1696 88.5873 797.27 480.945
599 0 117.192 14.6426 1716 89.1958 797.206 479.449
600 0 121.121 15.6125 1891 87.4204 796.987 477.644
601 0 125.105 14.7316 1843 90.4764 796.97 475.832
602 0 129.154 14.7886 1910 91.2691 797.414 474.22
603 1 59.0637 13.1045 774 101.942 797.28 507.764
604 0 61.1216 13.8576 847 101.355 796.763 506.383
605 0 63.1212 14.6385 924 101.486 796.552 505.067
606 0 66.0975 14.9476 988 99.6964 796.704 504.192
607 0 67.0722 14.2235 954 104.205 796.357 502.656
608 0 69.1077 14.8175 1024 103.51 796.562 500.64
609 0 72.0653 14.917 1075 103.391 797.54 501.197
610 0 75.063 15.3471 1152 100.944 797.36 500.974
611 0 79.1135 15.7874 1249 99.1649 797.339 500.921
612 0 79.0554 14.9895 1185 104.393 797.64 499.272
613 0 82.0791 14.9734 1229 104.162 797.493 498.194
614 0 85.092 15.5596 1324 102.13 797.458 496.994
615 0 88.0831 15.4513 1361 102.05 797.727 494.746
616 0 90.0469 15.3142 1379 103.094 797.186 494.458
617 0 95.0917 15.4062 1465 103.247 797.143 491.482
618 0 96.0562 15.3139 1471 105.472 796.544 489.385
619 0 103.04 15.3629 1583 102.142 797.16 488.035
620 1 48.0754 13.8532 666 114.242 797.264 511.299
621 0 51.0236 13.7583 702 113.897 797.691 510.765
622 0 53.0558 14.1361 750 111.141 797.501 509.256
623 0 56.0312 14.4384 809 109.761 797.55 508.272
624 0 58.0305 14.7853 858 110.606 797.118 507.453
625 0 58.0676 14.6381 850 113.392 797.307 506.969
626 0 60.0815 14.7799 888 113.8 797.271 503.595
627 0 62.0592 15.6947 974 111.338 797.2 503.069
628 0 65.0858 15.7331 1024 111.092 797.602 502.281
629 0 67.0127 15.4299 1034 112.892 797.426 500.775
630 0 68.0584 15.8246 1077 110.52 797.854 499.638
631 0 69.0113 15.3453 1059 113.093 797.732 498.972
632 0 73.0709 15.9571 1166 109.862 798.408 498.391
633 0 75.0939 15.4074 1157 112.359 797.795 496.895
634 0 77.0379 16.0181 1234 110.928 798.143 494.901
635 0 79.068 15.1515 1198 113.759 797.768 492.753
636 0 81.0875 15.5881 1264 112.801 797.951 491.619
637 0 83.0455 15.4614 1284 114.122 797.911 490.338
638 0 85.0686 15.7167 1337 113.04 798.162 489.966
639 0 88.0396 15.175 1336 114.189 798.581 488.591
640 0 92.0543 15.3714 1415 112.656 797.958 488.306
641 0 93.0843 15.8136 1472 113.668 797.721 486.299
642 0 96.0307 15.7137 1509 115.362 798.618 485.256
643 0 98.1282 15.6836 1539 115.688 798.853 483.318
644 0 103.086 16.0449 1654 114.437 799.21 481.817
645 0 105.065 16.0758 1689 115.213 799.022 481.116
646 0 110.094 15.8047 1740 115.545 798.744 478.841
647 0 113.061 15.8852 1796 116.296 798.004 476.418
648 0 114.11 15.9846 1824 117.288 798.504 474.674
649 0 121.075 15.5937 1888 116.207 799.096 473.646
650 0 123.092 15.8011 1945 117.214 798.388 469.434
651 0 128.106 15.9711 2046 115.771 798.881 468.239
652 1 64.1145 13.2731 851 121.813 798.288 499.608
653 0 65.0612 13.91 905 122.054 799.283 497.872
654 0 66.0487 14.2168 939 122.92 799.427 496.988
655 0 68.0639 14.3395 976 122.74 799.416 495.033
656 0 71.072 14.6612 1042 119.809 799.512 494.529
657 0 71.0992 14.3884 1023 123.527 798.893 493.184
658 0 75.085 14.9431 1122 120.893 799.514 492.722
659 0 78.0564 14.9635 1168 119.479 799.157 491.604
660 0 80.2082 14.8239 1189 121.505 799.828 489.484
661 0 83.1758 14.7639 1228 121.451 799.653 487.773
662 0 86.1932 14.6531 1263 123.137 799.673 486.755
663 0 87.1522 14.7902 1289 123.706 799.306 484.763
664 0 89.1427 14.5048 1293 125.945 799.705 483.005
665 0 93.2383 14.2752 1331 127.838 799.355 481.198
666 0 96.208 15.321 1474 125.117 799.986 480.767
667 0 96.2652 14.5847 1404 129.717 800.385 478.938
668 0 103.127 15.5149 1600 124.173 799.397 479.146
669 0 105.238 14.7855 1556 127.861 798.634 475.503
670 0 110.29 14.8155 1634 127.783 799.257 474.102
671 0 112.265 15.027 1687 128.28 799.12 471.039
672 0 117.317 14.9084 1749 127.755 799.623 471.42
673 0 121.239 14.9127 1808 127.108 800.147 468.285
674 0 122.307 14.7089 1799 129.983 799.936 465.678
675 0 128.239 14.8707 1907 128.08 799.943 461.504
676 0 133.176 14.7474 1964 127.511 799.93 463.097
677 0 137.206 14.6786 2014 128.205 799.552 458.094
678 0 141.266 14.186 2004 129.761 798.824 455.376
679 0 146.222 14.7379 2155 127.173 799.549 454.671
680 1 84.173 11.9278 1004 122.452 799.3 485.424
681 0 86.144 12.1425 1046 122.56 799.492 485.305
682 0 89.1934 12.6579 1129 124.064 798.724 481.291
683 0 92.1342 13.1547 1212 123.353 799.179 480.859
684 0 92.1454 13.0772 1205 124.568 799.827 479.895
685 0 97.193 13.0668 1270 123.715 800.356 477.73
686 0 99.1788 12.7346 1263 126.178 800.376 475.876
687 0 103.202 12.8971 1331 127.63 800.844 472.876
688 0 107.142 12.8054 1372 126.374 799.301 471.343
689 0 110.185 12.8148 1412 127.564 800.406 469.535
690 0 115.22 12.793 1474 126.088 800.078 468.685
691 0 119.234 13.3603 1593 124.905 800.62 465.654
692 0 123.147 13.4393 1655 124.602 799.72 463.763
693 0 127.311 13.1725 1677 124.427 799.965 462.824
694 0 132.147 13.0688 1727 125.51 799.76 458.741
695 0 134.202 12.8761 1728 126.785 799.761 454.996
696 0 140.253 12.9337 1814 125.632 800.073 455.179
697 0 145.281 13.0024 1889 125.576 799.818 453.004
698 0 150.204 12.9158 1940 126.084 799.26 448.436
699 0 153.345 12.5599 1926 128.111 799.148 446.099
700 1 92.1639 8.51743 785 118.629 800.111 480.99
701 0 95.1566 9.88897 941 114.787 799.945 481.742
702 0 98.2831 10.5613 1038 117.829 799.445 481.097
703 0 102.193 11.7229 1198 115.295 799.788 478.132
704 0 103.265 11.0976 1146 116.988 799.142 477.376
705 0 106.294 10.6591 1133 112.329 799.279 476.656
706 0 109.245 10.8106 1181 112.228 798.397 472.998
707 0 113.153 10.5521 1194 113.612 799.281 471.525
708 0 118.205 10.2872 1216 114.373 799.135 465.597
709 0 123.18 9.96912 1228 113.225 798.827 465.569
710 1 69.0559 9.0072 622 98.2814 799.214 496.614
711 0 73.133 9.54426 698 91.7722 799.486 496.958
712 0 73.1412 9.18771 672 92.4866 799.292 496.6
713 0 76.2074 9.52663 726 93.5661 799.791 493.891
714 0 79.251 9.77905 775 92.9871 799.773 495.347
715 0 83.2566 9.63287 802 92.389 799.308 491.43
716 0 85.3864 9.97817 852 92.5927 799.966 488.955
717 0 88.3251 9.66883 854 95.192 798.883 488.46
718 0 87.2919 9.71453 848 103.16 797.863 488.097
719 0 96.3445 10.7323 1034 104.343 798.925 483.755
720 0 96.3745 10.7601 1037 105.847 799.135 481.665
721 1 49.109 9.20402 452 101.153 799.843 508.42
722 0 50.0746 9.30611 466 100.903 800.727 507.599
723 0 53.0931 9.41741 500 100.42 799.94 507.29
724 0 46.1436 8.32185 384 94.2422 800.174 509.224
725 0 48.0489 8.44973 406 92.5591 800.793 509.288
726 0 49.145 8.46475 416 93.9928 800.151 508.079
727 0 53.1595 9.44327 502 91.1494 799.813 507.51
728 0 54.0644 9.52568 515 91.2175 799.86 503.893
729 0 54.105 9.2413 500 92.318 799.944 501.548
730 0 58.0796 9.50419 552 90.154 799.938 500.841
731 0 60.0384 9.66048 580 91.6569 799.579 498.583
732 0 62.0343 9.75266 605 90.7934 799.709 497.803
733 0 63.0672 10.1796 642 89.4143 799.037 494.768
734 0 66.103 11.2703 745 86.4362 799.028 494.913
735 0 68.1646 10.6214 724 88.1961 798.185 493.256
736 0 69.1114 10.6205 734 88.8365 798.39 489.486
737 0 72.1466 11.047 797 86.6788 798.693 487.585
738 0 73.1943 10.7385 786 88.1807 798.197 484.201
739 0 72.315 10.4128 753 90.8898 797.614 483.869
740 0 78.2797 11.6761 914 87.0263 798.318 482.765
741 0 83.2986 10.9246 910 95.2495 798.23 478.965
742 0 85.4217 10.852 927 96.3031 798.644 479.208
743 0 85.4261 10.8749 929 105.676 799.653 479.22
744 0 91.2682 11.6251 1061 95.9519 798.087 476.481
745 1 47.0717 8.81634 415 88.1012 798.494 496.949
746 0 49.0428 9.33877 458 86.0611 798.917 495.576
747 0 49.029 10.0553 493 83.787 798.963 494.669
748 0 51.0916 10.3539 529 85.242 799.718 495.737
749 0 53.0561 11.1203 590 84.4322 798.686 494.251
750 0 54.1463 11.5613 626 86.3914 798.7 495.272
751 0 54.0802 11.446 619 88.0145 798.838 494.619
752 0 57.1828 11.5244 659 88.0653 799.357 493.464
753 0 56.1425 11.2393 631 90.5087 799.139 493.724
754 0 56.1463 11.2385 631 119.64 799.139 493.724
755 0 57.1384 11.3059 646 95.1796 798.759 494.057
756 0 59.1388 11.1095 657 94.4734 798.578 493.323
757 0 61.1166 11.159 682 95.1833 799.575 490.339
758 0 64.1026 12.3084 789 92.6996 799.262 489.248
759 0 65.1223 11.5782 754 90.1923 799.656 490.415
760 0 68.1701 12.5862 858 91.9942 799.491 487.058
761 0 71.2602 12.1667 867 91.9481 799.095 487.058
762 0 74.2595 13.1162 974 88.8634 799.793 485.854
763 0 73.2354 12.4257 910 95.3088 799.169 484.078
764 0 76.209 12.3083 938 94.4744 799.186 482.101
765 0 80.3553 12.6563 1017 99.7778 798.83 482.461
766 0 82.278 12.6401 1040 100.025 798.709 482.379
767 0 84.2142 12.8719 1084 100.879 799.149 478.102
768 1 46.1463 10.4017 480 96.95 798.981 499.517
769 0 44.1584 10.5982 468 96.7991 799.028 498.34
770 0 47.1456 11.0509 521 99.833 798.691 498.148
771 0 49.133 11.6215 571 99.9264 799.695 496.753
772 0 50.0657 11.9443 598 101.259 800.676 494.617
773 0 51.0737 12.2372 625 99.0608 799.942 493.976
774 0 51.0503 11.8706 606 94.5479 800.226 495.285
775 0 52.0697 12.3296 642 94.2087 800.193 493.664
776 0 52.088 12.6709 660 93.7485 800.286 492.341
777 0 55.0739 12.0565 664 93.1717 800.232 492.349
778 0 56.096 12.4786 700 94.6571 800.144 491.906
779 0 57.0533 12.6724 723 93.8769 799.396 491.337
780 0 58.0801 12.1728 707 95.4668 799.777 490.975
781 0 59.0784 12.5765 743 95.3701 800.174 490.787
782 0 61.1682 12.6209 772 96.7254 800.236 489.19
783 0 61.1033 12.4216 759 97.9051 799.966 488.91
784 0 62.0872 12.2086 758 99.219 799.851 487.978
785 0 63.1302 11.6268 734 101.266 799.478 486.067
786 0 66.0785 11.8193 781 101.311 799.709 485.753
787 0 67.1179 12.3067 826 100.783 800.189 483.442
788 0 67.2123 12.1555 817 100.564 799.767 481.558
789 0 71.1976 11.7981 840 100.018 800.669 480.198
790 0 72.1421 12.0318 868 100.889 801.075 476.741
791 0 74.1468 11.8549 879 100.933 801.511 478.516
792 0 78.0656 12.4895 975 104.504 800.39 476.284
793 0 79.1124 12.0209 951 101.086 800.856 474.023
794 0 80.1033 11.6724 935 103.345 800.775 473.914
795 0 83.0988 12.3949 1030 101.806 800.894 471.14
796 0 87.1591 11.9781 1044 103.673 800.235 468.938
797 1 49.0127 10.5279 516 104.264 801.308 490.793
798 0 50.0471 11.4292 572 102.276 801.194 490.897
799 0 53.1792 11.7715 626 98.9856 801.136 491.257
800 0 54.1449 12.3557 669 95.565 801.157 490.631
801 0 52.1042 11.477 598 95.6873 801.268 493.443
802 0 53.0831 11.1335 591 95.467 801.623 493.477
803 0 54.0527 10.8598 587 94.8058 800.917 491.685
804 0 57.0595 11.4617 654 91.8471 800.904 490.089
805 0 59.0523 11.3967 673 91.9643 800.048 490.152
806 0 60.0731 12.3017 739 89.3829 800.261 490.606
807 0 60.1007 11.3143 680 91.7897 800.149 490.125
808 0 64.0886 11.843 759 88.0408 799.929 487.938
809 0 66.0795 11.2138 741 89.2146 800.3 487.055
810 0 68.0819 12.1912 830 85.7518 800.149 485.387
811 0 69.0523 11.3248 782 88.2404 800.052 486.827
812 0 74.0859 12.0941 896 84.4107 799.982 485.129
813 0 76.0745 11.6465 886 85.9233 799.83 481.877
814 0 76.0767 11.4884 874 87.3387 800.308 482.192
815 0 80.0641 12.0029 961 86.5786 799.923 481.408
816 0 82.0459 11.5911 951 90.1073 799.567 477.822
817 0 84.1577 11.2289 945 92.836 799.879 478.746
818 0 88.1258 12.4708 1099 90.152 799.289 475.583
819 0 90.0928 11.6213 1047 93.7316 799.077 474.753
820 1 50.05 10.3497 518 93.5212 799.398 494.245
821 0 50.0244 10.335 517 93.6209 799.803 493.325
822 0 50.0735 11.0238 552 92.2717 798.998 492.721
823 0 54.1315 11.7861 638 90.2774 799.87 490.79
824 0 53.1493 11.6653 620 85.8081 799.513 495.792
825 0 52.0564 11.0841 577 88.4818 799.399 496.447
826 0 54.1445 10.9337 592 89.2314 799.253 495.632
827 0 56.0802 10.8238 607 86.8847 798.768 496.18
828 0 58.046 11.2841 655 85.2443 798.965 495.157
829 0 60.097 11.6645 701 83.077 798.706 493.447
830 0 62.0977 11.9328 741 83.5128 799.493 493.707
831 0 65.0479 11.7144 762 82.8806 798.627 493.189
832 0 67.0908 11.6708 783 84.6692 799.361 491.471
833 0 67.0908 11.626 780 124.937 800.354 491.532
834 0 70.0849 11.7144 821 83.9488 799.29 489.431
835 0 72.0937 12.1786 878 83.1902 799.564 489.536
836 0 74.1565 11.5971 860 85.1081 799.283 485.631
837 0 77.1145 11.7358 905 85.0166 799.242 483.903
838 0 80.1268 11.4818 920 84.7207 798.99 483.284
839 0 83.1729 11.5663 962 84.5166 799.202 481.946
840 0 85.0773 12.0714 1027 83.9688 798.458 480.534
841 0 89.125 12.2749 1094 83.0192 798.551 477.622
842 0 92.0922 12.4115 1143 83.2012 798.353 475.692
843 0 94.1758 11.9139 1122 84.3333 798.237 473.004
844 0 96.1816 11.2599 1083 83.6307 798.209 471.869
845 1 51.0626 11.2019 572 85.4161 799.434 493.253
846 0 53.1439 10.6127 564 86.6312 798.775 493.387
847 0 53.1016 11.0354 586 87.5085 799.232 492.614
848 0 57.0932 11.7702 672 86.003 798.939 491.506
849 0 57.1494 11.6362 665 88.0195 798.454 490.662
850 0 58.0987 11.5665 672 84.3095 798.848 491.707
851 0 60.0596 11.3221 680 84.825 798.979 491.885
852 0 60.0898 11.6659 701 85.5792 799.01 491.32
853 0 63.0588 11.7985 744 85.0618 798.755 490.222
854 0 65.07 11.8488 771 85.6433 798.489 488.257
855 0 67.078 11.8519 795 85.8176 798.654 488.425
856 0 71.1326 12.3431 878 85.3485 798.419 486.432
857 0 72.0986 11.7339 846 87.9941 798.892 486.444
858 0 72.0673 11.8639 855 89.8901 798.878 484.54
859 0 73.0588 11.8945 869 90.8792 797.911 483.594
860 0 78.0805 12.6024 984 89.7795 798.86 482.131
861 0 80.1368 12.1043 970 89.6948 798.155 482.598
862 0 81.0813 12.0743 979 90.8417 798.754 480.164
863 0 84.1236 12.7432 1072 89.2388 798.39 478.531
864 0 88.1654 13.0664 1152 89.8733 798.108 474.75
865 0 90.163 13.0209 1174 90.7027 798.097 475.297
866 0 93.1088 12.8344 1195 92.4075 798.669 472.228
867 0 94.0534 12.982 1221 91.5684 798.254 472.34
868 0 94.1259 12.0052 1130 93.3646 797.978 473.462
869 0 97.1017 13.0585 1268 93.3415 797.88 469.766
870 0 100.08 12.8198 1283 93.4451 797.118 472.037
871 0 101.15 12.7434 1289 94.1963 796.811 471.542
872 0 105.083 12.6757 1332 93.2583 796.842 468.621
873 0 108.084 13.0639 1412 92.3945 797.744 469.127
874 0 112.143 13.0191 1460 92.2116 798.239 467.414
875 0 114.177 12.9448 1478 92.5223 798.295 466.606
876 0 121.166 12.3384 1495 96.2977 797.536 463.455
877 0 124.172 12.1364 1507 97.7432 797.298 462.298
878 0 127.21 12.161 1547 95.9127 798.345 461.615
879 0 129.087 12.1856 1573 94.8239 797.925 461.252
880 0 134.178 12.0064 1611 94.4146 798.024 457.027
881 0 137.201 11.3774 1561 94.0974 797.767 456.3
882 0 143.173 12.2369 1752 91.9566 797.868 455.155
883 0 148.115 11.4911 1702 93.1974 797.395 453.071
884 0 149.148 11.0025 1641 94.6045 797.796 451.424
885 0 155.206 11.6362 1806 94.8527 797.604 447.476
886 0 159.185 10.9746 1747 95.5695 798.096 446.855
887 0 163.157 10.542 1720 96.3994 798.099 444.952
888 0 168.195 11.344 1908 95.5964 797.657 439.651
889 0 172.204 11.318 1949 96.116 797.62 438.65
890 0 176.118 11.0778 1951 95.3106 797.246 435.519
891 0 181.184 10.9944 1992 95.3439 797.304 429.711
892 0 187.11 11.1378 2084 95.0211 797.183 428.963
893 0 190.151 10.8177 2057 96.6393 796.804 424.286
894 0 195.188 11.3685 2219 95.9869 797.021 421.644
895 0 200.174 10.8905 2180 98.1234 797.843 417.724
896 0 208.102 11.6674 2428 97.9806 798.342 415.46
897 0 216.249 11.8752 2568 97.588 798.308 411.437
898 0 223.292 11.6977 2612 99.3951 798.145 407.662
899 1 178.098 12.6841 2259 98.9124 797.783 425.59
900 0 183.172 12.5783 2304 100.711 798.042 421.304
901 0 189.191 12.9605 2452 101.978 798.684 415.492
902 0 194.135 12.718 2469 104.012 799.261 413.581
903 0 201.197 12.8183 2579 104.401 798.308 409.268
904 0 209.148 13.0721 2734 103.811 798.911 405.905
905 0 213.26 12.3043 2624 105.619 799.236 399.508
906 0 223.141 13.2248 2951 104.036 798.729 394.98
907 1 286.28 10.4513 2992 108.757 798.983 385.575
908 0 287.278 8.81724 2533 110.228 799.495 392.586
909 1 61.1413 10.9255 668 90.3593 799.726 481.942
910 0 65.0581 11.5896 754 86.6247 798.879 481.536
911 0 64.1371 11.1948 718 84.1407 798.855 479.429
912 0 67.1015 10.7747 723 81.8326 798.65 480.846
913 0 69.076 10.8576 750 82.8613 799.143 480.995
914 0 69.0948 11.2309 776 83.2938 799.008 478.312
915 0 71.0729 10.9606 779 83.8164 798.796 476.693
916 0 74.0556 11.4238 846 83.0674 799.22 475.459
917 0 75.0276 11.0626 830 84.6084 798.512 474.289
918 0 82.0636 11.6251 954 82.4172 799.166 473.912
919 0 85.0288 11.4902 977 82.2313 798.676 473.376
920 0 86.0497 11.1099 956 83.9665 798.201 471.035
921 0 88.045 11.6418 1025 83.2937 798.37 470.189
922 0 93.0672 11.4004 1061 83.7304 798.153 467.312
923 0 98.1521 11.9814 1176 83.0748 798.005 467.59
924 0 103.204 11.3755 1174 84.9957 798.526 468.147
925 1 56.1389 10.0465 564 77.266 798.172 492.605
926 0 56.0202 10.4605 586 81.128 797.933 491.357
927 0 58.1446 11.0242 641 84.0016 797.783 493.849
928 0 59.0274 10.69 631 77.5325 797.861 490.924
929 0 59.0425 10.7888 637 78.0031 798.218 491.689
930 0 58.083 10.33 600 81.67 797.615 487.853
931 0 59.0465 10.0768 595 84.9445 796.85 488.301
932 0 62.0431 10.2993 639 85.2754 797.164 487.847
933 0 69.1185 11.3573 785 82.3631 797.591 486.473
934 0 69.1438 12.2065 844 82.5379 797.241 485.105
935 0 73.1442 11.9627 875 85.1371 797.174 484.432
936 0 73.1616 11.8231 865 87.2763 796.642 484.43
937 0 75.1285 11.6334 874 89.405 796.704 482.126
938 0 78.3193 12.4618 976 88.8381 796.331 483.119
939 0 80.157 12.4755 1000 90.163 796.079 482.559
940 0 84.1348 12.1828 1025 90.5971 796.463 480.396
941 0 88.2785 12.6305 1115 88.896 795.63 479.142
942 0 90.1543 12.8668 1160 90.7767 796.318 477.889
943 0 93.136 12.4334 1158 94.2323 796.219 475.024
944 0 96.1548 13.0311 1253 94.9162 796.15 473.943
945 0 99.2092 13.1036 1300 94.3738 796.443 472.738
946 1 48.1217 9.49676 457 95.7724 795.969 497.735
947 0 50.1215 9.83611 493 94.7383 796.223 495.86
948 0 54.022 10.903 589 89.7606 796.693 495.297
949 0 54.0405 10.9547 592 89.4443 796.424 494.154
950 0 53.0258 11.3341 601 90.5973 796.318 491.869
951 0 56.0696 11.3074 634 96.6703 796.568 493.981
952 0 60.0389 11.3093 679 96.0309 796.882 492.969
953 0 63.0353 12.374 780 94.3423 797.138 491.054
954 0 64.036 12.0869 774 95.5155 796.531 490.432
955 0 67.0726 12.1063 812 96.8633 796.727 489.858
956 0 67.0755 12.5828 844 87.5723 796.729 488.201
957 0 69.0561 12.0771 834 88.9185 797.104 486.728
958 0 71.0583 12.2153 868 90.2846 796.935 484.904
959 0 74.0329 12.67 938 88.5426 797.058 485.407
960 0 75.0405 12.0868 907 90.8853 796.959 482.454
961 0 78.05 12.6842 990 90.5232 796.794 481.955
962 0 82.0843 13.2668 1089 88.1726 797.679 479.916
963 0 84.042 12.7436 1071 89.9365 797.687 478.788
964 0 87.0602 13.0025 1132 89.3083 797.548 478.361
965 0 87.0746 13.0693 1138 90.1098 797.489 475.865
966 0 90.1175 12.4504 1122 92.3556 797.51 473.541
967 0 94.1141 12.8249 1207 91.5062 797.172 474.245
968 0 99.1229 13.0141 1290 91.293 797.529 473.081
969 1 48.0402 10.0541 483 82.9834 796.81 498.166
970 0 52.0368 9.70466 505 85.9149 796.394 497.78
971 0 54.0525 9.76829 528 86.1023 796.807 495.225
972 0 54.0131 10.2568 554 84.4278 797.171 493.52
973 0 56.0095 10.7482 602 82.8621 797.347 492.465
974 0 60.05 10.0083 601 83.5507 797.151 491.141
975 0 61.0643 10.8574 663 81.9397 797.363 489.198
976 0 59.0909 11.0338 652 81.8712 798.294 485.802
977 0 65.0722 10.1733 662 81.5363 798.449 484.471
978 0 67.0939 10.6269 713 81.1739 798.223 482.879
979 0 66.1032 10.9223 722 89.8269 799.008 481.503
980 0 70.0497 11.0921 777 91.3668 798.299 482.345
981 0 75.1075 11.1307 836 91.2835 799.128 481.481
982 0 74.0707 11.3945 844 82.378 798.584 481.545
983 0 81.13 11.8698 963 86.3427 798.826 483.791
984 0 78.1031 11.4336 893 84.5655 798.834 479.711
985 0 80.0646 11.6031 929 85.2982 798.473 478.59
986 0 82.2029 11.0823 911 88.315 798.092 477.441
987 0 86.0677 11.7698 1013 89.0128 798.852 474.855
988 0 89.099 11.852 1056 88.6667 798.84 472.952
989 0 91.1417 11.6412 1061 90.5137 798.123 473.691
990 0 96.2041 12.0785 1162 88.6145 798.633 470.659
991 0 100.105 12.2771 1229 88.7339 799.042 472.951
992 0 103.102 10.9988 1134 92.1949 798.826 468.892
993 0 105.109 11.7306 1233 92.2328 798.142 467.281
994 1 57.053 10.4815 598 82.3913 797.987 489.677
995 0 63.1933 10.3967 657 78.8615 798.391 487.728
996 0 63.1864 8.81518 557 80 798.831 483.734
997 0 65.1242 10.4877 683 80.5813 798.748 485.57
998 0 68.2063 10.2923 702 81.8974 799.326 482.477
999 0 69.1669 9.67225 669 83.6353 799.423 481.299
1000 0 72.1149 9.70673 700 84.5657 799.789 477.914
1001 0 72.1306 8.66484 625 87.4112 799.49 474.794
1002 0 75.1286 9.26412 696 87.4641 798.999 474.22
1003 0 80.2044 10.1491 814 85.9324 799.248 476.452
1004 0 84.1213 11.3408 954 84.8176 799.103 475.59
1005 0 85.1228 10.2675 874 88.3238 799.914 475.28
1006 0 88.0724 10.2075 899 89.3838 800.345 473.339
1007 0 91.1385 11.1479 1016 88.7539 800.45 472.163
1008 0 94.1538 11.0989 1045 89.8191 800.611 471.031
1009 0 94.1462 10.3244 972 93.4784 800.433 470.266
1010 0 99.0712 10.9719 1087 94.6651 800.301 469.483
1011 0 102.153 10.6899 1092 95.8672 800.429 469.18
1012 0 106.094 11.5652 1227 95.2755 800.963 467.235
1013 0 108.233 11.004 1191 96.7011 800.308 463.498
1014 0 111.102 10.9989 1222 98.1113 800.062 461.736
1015 0 118.118 11.878 1403 95.6265 800.229 463.52
1016 0 122.146 11.7728 1438 95.911 800.222 461.257
1017 0 127.167 11.9528 1520 98.0388 799.131 460.018
1018 1 67.1043 11.3108 759 90.2978 799.614 489.847
1019 0 70.1302 12.2629 860 103.28 800.085 489.536
1020 0 70.1317 12.3482 866 107.255 799.761 486.752
1021 0 71.0909 12.1394 863 108.8 800.168 485.752
1022 0 76.166 12.1314 924 107.382 800.265 484.495
1023 0 80.1467 12.1777 976 106.543 800.14 484.562
1024 0 83.1807 12.3707 1029 106.183 800.762 481.638
1025 0 84.2195 12.5743 1059 107.027 799.757 480.706
1026 0 87.1462 13.1044 1142 105.714 799.609 479.048
1027 0 91.0623 12.7385 1160 101.435 798.482 478.781
1028 0 91.0833 11.8792 1082 103.831 798.625 477.328
1029 0 94.1082 12.2625 1154 96.7972 798.218 476.896
1030 0 97.159 12.2274 1188 96.6591 798.364 475.394
1031 0 100.164 12.5994 1262 95.9002 798.403 476.223
1032 0 104.14 12.2815 1279 96.2174 798.214 474.21
1033 0 109.138 12.5987 1375 96.4422 798.287 472.999
1034 0 111.162 12.4683 1386 99.7771 798.675 471.337
1035 0 114.163 12.0529 1376 101.658 798.417 468.328
1036 0 117.135 11.6191 1361 101.834 798.649 466.574
1037 1 61.1396 11.9563 731 97.4295 798.609 492.882
1038 0 59.0683 10.9534 647 94.8995 798.223 489.439
1039 0 60.1028 11.4803 690 93.813 798.196 491.593
1040 0 62.0546 11.1354 691 82.3025 798.507 489.847
1041 0 65.0927 11.9676 779 81.0732 799.009 489.171
1042 0 67.1565 11.9423 802 81.5885 799.142 488.929
1043 0 67.1177 11.9045 799 83.6671 799.078 485.929
1044 0 69.1738 11.5506 799 85.0213 798.546 486.564
1045 0 73.2378 11.7562 861 84.4344 798.402 485.58
1046 0 75.2223 12.6558 952 82.4485 798.378 482.908
1047 0 76.0789 12.1979 928 86.6466 798.719 481.556
1048 0 79.1149 12.4123 982 86.0153 798.586 481.545
1049 0 80.1499 11.8528 950 87.9579 798.802 483.263
1050 0 85.1275 11.8646 1010 88.0594 798.442 483.468
1051 0 87.2063 11.4785 1001 89.002 798.365 481.375
1052 0 89.1685 12.067 1076 87.5288 798.917 480.934
1053 0 92.0879 11.4673 1056 88.2017 799.189 480.812
1054 0 95.1875 11.9028 1133 91.6734 798.709 480.354
1055 0 96.2268 12.1172 1166 94.2727 798.63 476.355
1056 0 101.074 11.269 1139 95.5268 799.135 474.91
1057 1 57.0629 9.98898 570 88.0561 799.43 496.554
1058 0 59.0461 10.7374 634 86.9653 798.946 494.29
1059 0 61.0927 11.0324 674 93.3056 798.568 493.396
1060 0 62.0221 11.9151 739 81.8863 799.23 492.054
1061 0 62.0229 11.9795 743 119.205 799.23 492.117
1062 0 64.0166 11.3096 724 84.1575 798.924 491.026
1063 0 63.023 10.6469 671 87.3785 798.738 492.013
1064 0 67.0752 10.451 701 86.8588 798.596 491.94
1065 0 69.0608 10.3966 718 88.337 798.648 489.68
1066 0 71.0504 10.8796 773 89.0181 799.138 488.547
1067 0 74.0225 11.3749 842 89.2363 799.292 487.371
1068 0 74.0351 10.6976 792 92.2222 799.466 487.414
1069 0 78.0345 11.3027 882 91.0442 799.612 486.569
1070 0 81.0287 10.5888 858 92.5618 798.944 484.403
1071 0 83.0586 10.8959 905 93.379 799.324 481.933
1072 0 87.0575 10.9812 956 93.8713 799.649 481.664
1073 0 93.0493 10.9404 1018 94.7967 798.993 480.658
1074 0 94.0965 11.0206 1037 95.704 799.244 478.302
1075 0 98.0668 11.1964 1098 96.3315 799.056 476.298
1076 1 49.0164 10.4863 514 90.3424 799.23 501.938
1077 0 51.0979 10.8419 554 90.2906 799.255 500.484
1078 0 52.0778 11.6748 608 99.0461 799.61 499.551
1079 0 53.0488 11.4988 610 99.9344 799.766 499.72
1080 0 56.0491 11.365 637 100.132 799.381 499.648
1081 0 58.0595 12.315 715 97.2671 799.383 496.224
1082 0 60.1017 11.4306 687 98.3159 799.068 495.508
1083 0 62.0467 11.9104 739 97.0636 799.058 494.651
1084 0 63.0555 12.1322 765 97.7882 798.646 493.067
1085 0 66.0536 12.0205 794 96.6977 799.003 492.626
1086 0 67.1711 11.7461 789 97.436 798.523 492.48
1087 0 68.1175 12.1408 827 97.2128 798.75 491.658
1088 0 72.1091 12.2176 881 96.7957 799.392 490.471
1089 0 75.1443 12.4161 933 109.869 798.891 489.331
1090 0 77.0898 12.479 962 109.555 798.865 487.498
1091 0 80.1758 12.8468 1030 110.274 798.891 486.663
1092 0 83.0913 12.3358 1025 112.378 798.267 484.668
1093 0 84.1001 12.0095 1010 113.598 798.132 483.018
1094 0 88.1629 12.4088 1094 111.455 798.064 483.331
1095 0 92.074 12.4031 1142 112.64 798.091 480.551
1096 0 96.1139 12.8285 1233 109.817 798.293 479.59
1097 0 98.0885 12.2644 1203 112.248 798.067 477.986
1098 0 101.074 13.0399 1318 110.956 798.242 475.579
1099 1 49.0465 10.9692 538 101.054 800.859 505.21
1100 0 51.0515 12.125 619 97.3086 800.168 503.457
1101 0 53.0597 12.0619 640 100.702 799.414 504.62
1102 0 52.1338 12.372 645 99.8031 799.535 504.056
1103 0 54.0999 11.9594 647 100.253 798.666 503.091
1104 0 57.1271 11.8333 676 99.5178 798.78 501.095
1105 0 60.0831 12.6325 759 97.4018 799.165 500.294
1106 0 61.1228 12.1559 743 99.5707 798.394 498.833
1107 0 63.1122 12.5491 792 97.6111 798.524 497.211
1108 0 63.0701 12.1294 765 99.9216 798.354 496.833
1109 0 67.1343 12.7059 853 98.4607 798.401 495.63
1110 0 67.1361 12.7204 854 100.004 798.247 494.939
1111 0 70.0541 13.0756 916 99.9389 798.493 495.044
1112 0 71.0773 12.3668 879 102.99 797.717 494.349
1113 0 73.1608 12.329 902 103.564 798.237 493.543
1114 0 76.0318 12.6394 961 102.563 799.04 492.83
1115 0 79.1109 12.7669 1010 102.715 798.541 491.459
1116 0 81.0819 12.6292 1024 105.265 798.284 490.431
1117 0 84.2155 12.5986 1061 105.399 798.686 489.07
1118 0 86.1256 12.6211 1087 106.372 798.933 488.144
1119 0 88.2106 12.6969 1120 108.11 798.437 486.498
1120 0 91.1945 13.4657 1228 103.303 798.661 485.086
1121 0 93.1115 13.3818 1246 104.027 798.481 485.304
1122 0 95.0945 12.7662 1214 106.207 798.402 484.295
1123 0 100.18 13.1863 1321 104.759 798.599 481.624
1124 0 102.124 13.0528 1333 107.299 798.313 482.188
1125 0 104.119 12.7258 1325 109.547 798.087 480.005
1126 0 109.087 13.6588 1490 105.462 798.492 479.007
1127 0 111.147 11.9481 1328 109.571 797.864 479.196
1128 0 115.269 13.334 1537 106.904 799.174 477.296
1129 0 117.214 13.4028 1571 107.275 799.343 475.964
1130 0 122.154 12.3041 1503 109.128 799.583 472.391
1131 0 126.213 13.0018 1641 108.453 799.054 470.428
1132 0 128.137 12.9471 1659 109.822 799.014 469.142
1133 0 133.218 13.2714 1768 109.305 798.919 468.079
1134 0 138.336 13.2503 1833 109.106 798.925 465.549
1135 0 142.364 13.4866 1920 108.466 799.238 462.152
1136 0 147.252 13.4192 1976 108.833 798.571 461.436
1137 0 153.269 13.858 2124 107.374 798.78 458.884
1138 0 159.298 13.6348 2172 108.515 798.547 456.59
1139 0 164.256 14.0269 2304 110.47 798.427 452.207
1140 0 170.275 14.1125 2403 117.353 798.666 448.4
1141 0 177.45 14.2124 2522 116.314 798.532 446.209
1142 0 183.393 13.452 2467 119.481 798.242 443.975
1143 0 188.542 13.2119 2491 122.086 798.176 440.771
1144 0 195.362 13.1653 2572 123.247 797.928 436.902
1145 0 202.522 13.1887 2671 124.107 797.799 433.68
1146 0 208.507 13.3521 2784 123.921 798.18 429.994
1147 0 216.556 13.8625 3002 122.543 798.052 427.188
1148 1 164.321 11.727 1927 122.712 798.369 453.949
1149 0 169.291 12.3397 2089 121.781 797.71 451.135
1150 0 178.304 13.477 2403 103.749 798.376 447.893
1151 0 184.298 12.024 2216 107.876 798.16 444.428
1152 0 190.311 12.0487 2293 107.949 798.31 441.41
1153 1 62.2234 13.2426 824 101.2 797.513 504.158
1154 0 65.1556 13.4447 876 103.203 797.545 501.958
1155 0 68.179 13.6699 932 102.976 796.971 500.152
1156 0 69.2119 14.2317 985 103.149 797.472 499.257
1157 0 72.2668 14.1559 1023 103.855 797.479 498.201
1158 0 73.1477 13.5616 992 107.915 797.418 498.256
1159 0 76.2641 12.5354 956 109.463 797.622 497.699
1160 0 78.2174 13.4753 1054 107.405 798.096 495.645
1161 0 80.2001 13.6658 1096 107.567 797.788 494.026
1162 0 84.2942 13.4766 1136 107.105 797.054 493.389
1163 1 42.2311 13.4498 568 112.989 797.537 511.602
1164 0 43.1484 12.654 546 115.456 797.163 510.821
1165 0 44.2123 12.9828 574 115.929 797.573 509.688
1166 0 46.1524 13.7154 633 112.946 797.477 509.305
1167 0 47.2485 14.5825 689 113.03 796.878 508.766
1168 0 48.2097 14.188 684 115.329 796.367 508.165
1169 0 51.1787 15.0258 769 113.679 797.092 505.826
1170 0 52.194 14.5802 761 116.23 797.372 507.231
1171 0 54.1251 14.5773 789 118.322 797.716 504.113
1172 0 57.2275 14.4161 825 119.31 797.295 503.495
1173 0 60.1877 14.8702 895 118.558 797.089 503.136
1174 0 60.1274 15.068 906 121.77 797.009 501.498
1175 0 64.1307 14.564 934 121.788 797.988 499.258
1176 0 66.1535 14.4966 959 123.811 797.265 498.554
1177 0 67.1233 14.5702 978 125.108 797.172 496.88
1178 0 69.0951 14.386 994 126.283 796.484 497.346
1179 0 69.074 14.2166 982 129.638 796.844 495.548
1180 0 72.1358 14.542 1049 129.426 796.928 495.367
1181 0 75.1642 15.1136 1136 126.33 796.897 494.361
1182 0 78.1558 15.9809 1249 121.038 797.216 492.941
1183 0 76.1228 14.8707 1132 132.243 796.849 494.342
1184 0 81.1199 14.9285 1211 128.095 797.333 492.765
1185 0 83.1488 14.1193 1174 131.836 796.688 492.539
1186 0 83.1637 14.7901 1230 131.764 797.106 491.543
1187 1 41.1072 13.404 551 134.583 796.931 511.334
1188 0 40.138 13.7526 552 137.241 796.917 510.56
1189 0 43.1133 13.8936 599 135.953 796.755 509.162
1190 0 42.0498 14.3877 605 139.793 797.243 508.737
1191 0 46.1525 15.4271 712 130.712 796.726 507.407
1192 0 46.0959 15.381 709 133.724 796.897 507.274
1193 0 47.0844 14.9731 705 135.904 796.746 507.345
1194 0 48.1604 14.6386 705 136.905 797.245 507.464
1195 0 49.1139 14.7209 723 137.779 797.105 506.185
1196 0 49.1831 14.5782 717 138.664 797.079 505.633
1197 0 49.1201 15.0855 741 137.213 797.061 504.729
1198 0 51.0931 15.1684 775 136.826 796.556 504.541
1199 0 53.0813 14.9017 791 138.071 796.915 503.458
1200 0 54.1313 15.0745 816 136.92 796.603 503.395
1201 0 56.086 17.2592 968 129.623 797.38 501.225
1202 0 56.0746 16.3354 916 135.484 797.09 500.808
1203 0 57.1631 15.9544 912 138.812 796.519 501.537
1204 0 58.0667 15.5511 903 141.951 796.75 501.167
1205 0 60.1604 16.2233 976 141.027 797.075 501.175
1206 0 61.1709 14.7946 905 146.116 797.103 499.751
1207 0 63.089 16.0567 1013 142.727 797.696 499.142
1208 0 65.1339 15.7368 1025 143.771 797.053 497.804
1209 0 67.1318 16.0878 1080 145.297 797.493 497.708
1210 0 68.0917 15.861 1080 147.891 796.746 497.467
1211 0 70.0806 15.9959 1121 146.768 797.296 496.317
1212 0 72.1574 16.1176 1163 145.357 796.863 495.524
1213 0 72.1844 15.6128 1127 148.055 797.269 494.236
1214 0 76.1094 16.3055 1241 144.162 796.794 493.8
1215 0 76.1357 15.6694 1193 149.064 797.376 492.092
1216 0 78.2352 16.4632 1288 146.465 797.061 490.981
1217 0 81.1324 17.0216 1381 144.458 797.665 491.72
1218 0 84.1585 16.5759 1395 145.063 797.232 489.062
1219 0 86.2174 17.5023 1509 141.588 797.396 487.522
1220 0 91.2507 17.3916 1587 140.418 797.585 485.604
1221 0 93.1053 18.2267 1697 137.868 797.272 485.572
1222 0 99.1948 19.497 1934 129.249 797.122 481.365
1223 0 99.1525 18.1135 1796 136.447 797.472 481.413
1224 0 105.223 19.8626 2090 125.59 798.522 476.068
1225 0 110.24 21.5166 2372 119.562 798.239 475.656
1226 0 112.155 20.0348 2247 124.012 798.072 473.249
1227 0 116.283 22.7548 2646 114.747 797.358 470.287
1228 1 53.1069 14.0471 746 147.398 797.651 504.819
1229 0 52.132 13.4466 701 152.036 797.815 502.833
1230 0 55.0866 13.6149 750 151.003 796.985 501.905
1231 0 56.1321 14.1986 797 150.941 797.336 501.346
1232 0 56.154 14.5136 815 153.053 796.771 500.471
1233 0 60.1255 16.1496 971 143.441 797.256 500.117
1234 0 62.1023 16.972 1054 139.676 796.891 497.893
1235 0 63.137 16.7572 1058 140.871 797.104 497.33
1236 0 65.1467 16.5473 1078 142.272 797.34 495.391
1237 0 66.0639 17.029 1125 140.502 797.853 495.977
1238 0 69.1498 18.149 1255 135.352 797.443 494.108
1239 0 72.1048 17.9877 1297 135.138 797.872 494.168
1240 0 73.1956 17.9382 1313 137.238 797.65 492.541
1241 0 73.0604 18.3273 1339 136.458 798.142 491.175
1242 0 78.1297 18.6229 1455 132.799 797.735 487.982
1243 0 81.1704 18.9971 1542 128.849 797.891 487.971
1244 0 83.1362 19.4019 1613 127.338 797.438 485.684
1245 0 85.0973 19.3191 1644 126.911 797.785 484.526
1246 0 88.1286 19.812 1746 123.994 798.076 482.345
1247 1 154.129 10.5756 1630 161.185 797.947 462.752
1248 0 155.135 9.8366 1526 161.472 797.682 465.06
1249 0 152.116 8.1911 1246 158.048 797.571 475.127
1250 0 153.181 8.73477 1338 158.721 797.518 471.626
1251 0 147.227 8.51068 1253 148.684 797.377 474.046
1252 0 153.267 15.9396 2443 99.8977 798.113 447.497
1253 0 154.146 15.8875 2449 104.004 798.4 445.061
1254 0 157.259 16.5523 2603 102.889 799.088 442.139
1255 0 159.156 15.9529 2539 106.718 799.358 440.234
1256 0 160.194 16.4238 2631 107.513 798.708 440.533
1257 0 168.231 16.5486 2784 105.029 799.009 435.311
1258 0 176.281 16.3432 2881 106.886 798.823 434.885
1259 0 179.313 16.6135 2979 106.725 797.908 431.079
1260 0 184.33 17.2191 3174 105.332 797.746 428.418
1261 0 188.195 17.0408 3207 106.936 797.353 425.099
1262 1 265.481 11.5338 3062 135.27 797.916 394.438
1263 1 290.322 14.5253 4217 116.622 797.793 378.872
1264 0 294.401 13.8145 4067 121.013 798.018 373.703
1265 0 300.398 14.8203 4452 117.89 797.891 368.575
1266 0 302.413 14.8803 4500 120.26 798.208 369.592
1267 0 306.522 14.8146 4541 121.341 798.14 366.244
1268 0 305.544 11.5793 3538 138.728 798.007 374.563
1269 1 40.033 8.9676 359 101.797 796.719 513.777
1270 0 40.0198 9.14548 366 103.413 796.227 512.669
1271 0 41.0177 8.60605 353 105.564 795.977 510.904
1272 0 39.0609 8.08993 316 102.509 796.139 512.044
1273 0 37.0328 8.47896 314 103.223 797.264 512.717
1274 0 39.0487 8.42538 329 103.249 796.611 513.289
1275 0 39.0341 8.99214 351 102.581 797.037 511.84
1276 0 41.0378 8.04137 330 103.624 796.852 512.691
1277 0 42.0913 8.10144 341 105.009 796.891 513.073
1278 0 42.0633 7.41739 312 106.965 797.24 510.913
1279 0 43.0902 9.05079 390 105.018 796.992 510.459
1280 0 45.0472 8.48 382 105.51 797.435 508.901
1281 0 45.1025 7.84879 354 107.362 796.949 509.811
1282 0 47.101 7.79176 367 107.678 796.888 510.248
1283 0 49.1012 8.63522 424 107.656 797.087 508.092
1284 0 51.0854 8.14323 416 110.752 797.606 508.853
1285 0 50.0934 7.68564 385 114.179 797.117 509.486
1286 0 55.151 8.79404 485 110.101 797.575 506.208
1287 0 58.1253 8.172 475 112.328 797.994 505.886
1288 0 58.1322 7.87859 458 112.273 797.836 507.854
1289 0 61.1212 8.1641 499 112.367 798.148 507.188
1290 0 62.1194 7.56607 470 113.806 797.655 506.37
1291 0 67.1898 8.34948 561 112.563 798.449 501.56
1292 0 68.1367 8.33619 568 113.648 798.037 499.782
1293 0 69.1353 8.33149 576 115.399 798.161 500.391
1294 1 36.0736 8.87075 320 119.291 796.816 513.606
1295 0 40.151 9.24011 371 118.523 796.485 513.631
1296 0 40.0712 9.70771 389 119.524 796.679 514.434
1297 0 40.3076 10.0229 404 116.597 797.453 514.181
1298 0 35.1363 8.53818 300 122.093 796.443 515.457
1299 0 36.0799 8.48117 306 123.765 796.422 515.52
1300 0 41.1733 9.73933 401 117.302 796.424 511.828
1301 0 41.1296 9.48223 390 119.556 797.115 511.108
1302 0 41.1589 9.45117 389 121.039 797.288 511.357
1303 0 41.1603 8.84347 364 123.978 797.681 510.986
1304 0 44.0846 8.82395 389 125.136 797.584 509.504
1305 0 45.126 10.4153 470 119.915 797.583 509.036
1306 0 45.1303 9.37286 423 122.589 797.307 509.957
1307 0 47.1126 9.99733 471 120.352 797.34 508.915
1308 0 47.1134 9.7849 461 121.46 797.202 511.145
1309 0 48.1697 9.25894 446 122.955 797.552 510.177
1310 0 49.0995 9.22616 453 123.448 797.461 510.168
1311 0 48.1167 9.26913 446 124.812 797.41 510.785
1312 0 49.0992 9.45026 464 123.065 797.114 511.787
1313 0 53.1773 9.42131 501 121.05 797.413 508.896
1314 0 54.1391 9.43865 511 121.344 797.323 508.303
1315 0 55.1456 9.35704 516 120.601 797.172 507.074
1316 0 58.1036 10.2231 594 118.69 797.365 505.416
1317 1 73.3745 14.828 1088 96.7077 798.326 484.285
1318 0 69.0268 12.401 856 109.72 797.582 478.387
1319 0 71.0376 12.4582 885 111.298 797.899 484.141
1320 0 74.0814 12.2973 911 109.302 797.578 484.773
1321 0 76.0731 12.8692 979 108.412 798.253 484.366
1322 0 77.0947 12.3614 953 109.629 797.903 482.621
1323 0 79.0862 11.8352 936 111.448 797.771 481.599
1324 1 40.1155 9.92136 398 112.515 798.784 499.402
1325 0 39.1739 9.52165 373 111.625 798.509 504.89
1326 0 41.0621 9.88746 406 110.155 799.286 506.468
1327 0 42.0916 10.2158 430 106.223 799.653 505.553
1328 0 43.1073 10.787 465 107.226 799.692 505.034
1329 0 43.1745 11.4188 493 106.919 798.471 504.178
1330 0 44.119 11.3103 499 107.2 798.108 504.743
1331 0 44.246 10.8484 480 108.002 797.7 503.904
1332 0 45.1612 10.6507 481 107.607 797.942 503.64
1333 0 47.1353 10.926 515 105.614 797.988 503.192
1334 0 48.2235 10.5135 507 105.988 798.075 503.633
1335 0 51.2143 10.7392 550 104.018 797.785 501.882
1336 0 52.1851 11.2484 587 102.719 798.022 501.736
1337 0 53.2555 11.0036 586 102.805 797.558 501.119
1338 0 55.2819 11.2152 620 101.724 797.639 500.248
1339 0 57.1592 11.3543 649 102.188 797.492 498.547
1340 0 56.149 10.4187 585 104.284 798.193 498.954
1341 0 57.0437 10.676 609 102.443 797.535 497.143
1342 0 59.0574 10.9216 645 100.803 797.129 496.625
1343 0 60.0521 11.0737 665 100.337 797.424 496.182
1344 0 62.1033 10.3376 642 101.053 796.692 494.964
1345 0 60.0828 9.42034 566 96.1166 797.316 495.624
1346 0 62.0692 9.02219 560 96.8125 797.312 495.755
1347 0 64.0783 9.84732 631 94.6624 797.398 493.586
1348 0 67.1407 10.128 680 94.0985 797.724 494.406
1349 0 70.0525 9.74983 683 95.0937 797.545 493.867
1350 0 71.0938 9.43823 671 98.3204 797.069 491.124
1351 0 75.0643 10.1513 762 97.5459 797.004 489.78
1352 0 77.0994 9.8185 757 99.6869 797.675 489.096
1353 0 77.1379 9.47653 731 101.473 797.186 487.579
1354 0 79.1041 9.84778 779 101.442 797.845 487.353
1355 0 84.1204 10.4493 879 101.149 797.499 488.067
1356 0 85.1077 10.1401 863 103.076 797.637 486.499
1357 0 88.0899 9.83087 866 105.605 797.339 483.95
1358 0 91.1161 10.4811 955 107.215 797.293 483.064
1359 0 92.0716 10.1008 930 108.717 797.281 481.185
1360 0 96.079 10.4289 1002 106.184 796.748 480.42
1361 1 46.021 9.01762 415 94.0843 798.414 505.243
1362 0 45.0526 8.03505 362 96.0276 797.934 503.633
1363 0 51.0842 9.57242 489 91.1881 798.055 504.92
1364 0 53.1302 10.6342 565 99.6761 797.55 502.887
1365 0 55.2041 9.94492 549 101.426 797.734 500.893
1366 0 54.1144 10.2006 552 103.529 797.5 499.415
1367 0 57.2647 11.2111 642 100.221 797.796 500.695
1368 0 60.2008 10.3985 626 101.636 797.548 497.192
1369 0 60.19 10.5167 633 102.731 797.923 496.515
1370 0 64.0879 10.6572 683 102.136 798.31 495.722
1371 0 67.1442 11.5572 776 100.852 798.058 494.89
1372 0 70.1281 11.0655 776 104.353 797.272 492.496
1373 0 69.1031 11.4901 794 104.608 797.516 491.081
1374 0 70.102 11.4262 801 106.179 797.317 491.228
1375 0 78.1543 12.1682 951 102.409 797.017 490.978
1376 0 80.2197 12.3037 987 102.216 796.587 489.301
1377 0 82.1616 11.9764 984 100.833 797.353 487.17
1378 0 81.1248 11.9815 972 105.365 797.055 486.698
1379 0 84.1517 12.5725 1058 100.129 797.573 488.816
1380 0 85.1199 12.3825 1054 106.994 797.41 486.371
1381 0 84.2238 12.3124 1037 111.665 797.689 486.824
1382 0 85.2359 11.7087 998 115.165 797.132 486.711
1383 0 90.2681 12.7287 1149 108.981 796.997 485.849
1384 0 93.293 12.0909 1128 108.766 797.113 485.676
1385 0 94.1501 12.7031 1196 105.839 796.427 482.611
1386 0 97.239 12.7212 1237 102.683 795.998 483.567
1387 0 101.203 12.9245 1308 99.88 796.281 482.431
1388 0 102.241 12.6955 1298 99.5709 796.351 480.878
1389 0 102.107 11.3312 1157 102.381 796.241 482.137
1390 0 103.167 11.2342 1159 101.86 796.683 480.86
1391 0 107.103 11.4376 1225 100.367 796.239 479.749
1392 1 51.1036 8.98175 459 96.7386 797.462 505.767
1393 0 54.0435 8.95574 484 95.7541 796.632 506.452
1394 0 55.1289 10.1217 558 95.7061 796.358 503.437
1395 0 57.0882 10.948 625 93.8288 796.072 504.36
1396 0 57.089 9.09106 519 100.875 796.422 501.936
1397 0 60.0911 9.43567 567 100.972 796.552 501.81
1398 0 63.0944 9.52541 601 102.502 795.917 499.14
1399 0 65.1219 9.9045 645 103.157 796.299 500.394
1400 0 66.1503 8.91908 590 108.269 795.924 497.159
1401 0 67.0617 10.3934 697 108.534 796.449 497.595
1402 0 66.1089 10.0743 666 112.527 796.321 492.835
1403 0 71.0956 10.2538 729 112.128 796.198 492.521
1404 0 72.0739 9.92038 715 114.544 796.148 490.227
1405 0 77.0497 11.6548 898 117.444 796.023 482.818
1406 0 79.0594 11.523 911 120.748 796.456 480.891
1407 0 82.0644 11.8078 969 121.368 796.015 479.446
1408 0 83.0453 11.9332 991 121.35 796.744 479.058
1409 0 84.0335 12.0547 1013 126.012 796.581 478.057
1410 0 88.0729 12.0241 1059 123.555 796.712 481.006
1411 0 88.1035 10.7828 950 123.313 797.213 481.998
1412 0 90.1054 11.5198 1038 120.211 796.449 481.56
1413 0 94.1022 12.327 1160 126.785 796.703 477.779
1414 0 99.1304 12.5794 1247 125.577 796.619 477.374
1415 0 100.093 12.0788 1209 128.087 796.872 475.606
1416 0 103.147 12.3028 1269 126.567 796.435 474.108
1417 0 105.147 12.2685 1290 125.635 796.647 473.799
1418 0 110.141 12.375 1363 126.23 796.447 470.552
1419 1 57.0903 9.70393 554 123.632 796.769 496.327
1420 0 59.0196 10.8269 639 120.444 797.088 495.413
1421 0 61.0639 11.1686 682 116.761 797.016 496.786
1422 0 63.0337 11.9143 751 114.947 796.751 494.675
1423 0 66.0584 11.8834 785 115.343 796.557 492.89
1424 0 67.1023 11.7433 788 116.668 797.504 491.311
1425 0 68.1105 12.0246 819 118.07 797.369 488.652
1426 0 70.1151 12.3083 863 115.919 797.343 488.926
1427 0 70.0574 12.2471 858 116.597 797.69 488.108
1428 0 74.1169 12.197 904 115.696 797.629 486.577
1429 0 75.0534 12.4312 933 114.766 796.914 486.842
1430 0 77.1773 12.4907 964 114.402 797.372 487.017
1431 0 79.0958 12.5418 992 113.709 797.1 485.252
1432 0 82.1447 13.6345 1120 108.471 797.566 484.729
1433 0 83.0695 13.0734 1086 111.786 797.445 482.243
1434 0 86.0951 13.1715 1134 111.067 797.377 481.303
1435 0 88.1077 13.1203 1156 111.756 797.33 479.683
1436 0 87.0759 12.9542 1128 113.839 797.308 477.712
1437 0 90.1143 13.1056 1181 110.202 796.724 477.977
1438 0 92.1147 13.494 1243 111.632 797.357 476.588
1439 0 97.1228 14.2706 1386 106.452 796.674 473.617
1440 0 98.0779 13.3261 1307 109.855 797.192 473.335
1441 0 98.0909 12.4782 1224 113.48 796.752 473.455
1442 0 100.132 12.3237 1234 113.919 796.799 474.231
1443 0 104.115 12.3613 1287 114.472 796.856 469.695
1444 0 106.095 11.7442 1246 116.474 796.471 466.781
1445 0 110.091 12.2535 1349 116.498 796.537 466.97
1446 0 111.125 11.9055 1323 114.325 796.703 466.819
1447 1 49.116 9.79315 481 94.4844 797.256 500.314
1448 0 52.142 10.7591 561 97 797.506 496.196
1449 0 55.1129 11.4311 630 98.6841 797.219 494.449
1450 0 54.0598 11.3578 614 108.511 797.269 495.036
1451 0 55.1224 11.8464 653 107.251 796.741 493.899
1452 0 55.0907 11.4357 630 107.17 797.46 495.063
1453 0 55.0847 11.0557 609 105.778 797.25 495.947
1454 0 58.0812 11.2257 652 103.018 796.989 496.574
1455 0 60.0322 11.0274 662 104.869 797.486 494.039
1456 0 61.0467 11.5485 705 103.047 797.533 493.128
1457 0 63.0896 11.7769 743 102.59 797.059 492.159
1458 0 64.1031 12.2771 787 99.9682 796.94 491.578
1459 0 65.0458 12.0069 781 100.968 796.891 492.067
1460 0 67.1919 11.7425 789 98.8897 797.184 492.88
1461 0 69.1455 11.9603 827 100.868 796.885 487.493
1462 0 71.0611 11.863 843 100.811 796.977 487.639
1463 0 75.0572 11.751 882 100.279 797.094 484.692
1464 0 77.1216 12.0978 933 99.2937 796.938 482.791
1465 1 33.0534 8.44089 279 97.7455 797.251 505.201
1466 0 35.0521 8.53017 299 97.6054 796.301 504.388
1467 0 38.0729 9.40301 358 95.0587 796.732 503.439
1468 0 41.1162 9.72854 400 93.1125 796.87 503.632
1469 0 42.1726 10.3148 435 97.7264 796.099 504.211
1470 0 45.0222 11.8164 532 92.5 796.68 502.457
1471 0 48.0166 11.2253 539 93.6531 796.391 501.213
1472 0 48.0488 11.5091 553 93.1718 796.694 501.277
1473 0 49.1239 10.9926 540 94.0778 796.067 501.204
1474 0 50.035 11.3321 567 93.6578 796.667 500.058
1475 0 52.0083 11.2482 585 96.8718 796.607 495.648
1476 0 54.0569 11.6359 629 97.62 796.61 493.517
1477 0 53.0315 11.5592 613 99.6444 797.085 492.887
1478 0 57.0486 11.7619 671 97.6349 796.897 493.951
1479 0 57.0413 11.7459 670 140.11 796.888 493.952
1480 0 59.0601 12.3434 729 97.1276 797.514 494.392
1481 0 59.0553 11.2437 664 102.054 797.477 492.107
1482 0 64.0273 12.3229 789 97.526 797.539 490.856
1483 0 63.0294 11.8675 748 99.8142 797.361 491.164
1484 0 64.0233 11.8238 757 100.103 796.84 489.777
1485 0 66.1305 11.8705 785 99.8752 796.777 489.336
1486 0 68.0604 11.5926 789 100.208 796.842 488.81
1487 0 71.0446 11.8236 840 99.5321 796.626 487.19
1488 0 71.049 11.2598 800 102.32 796.754 487.115
1489 0 71.0482 11.2037 796 141.348 796.726 487.109
1490 0 79.0934 11.8847 940 99.4574 796.478 481.54
1491 0 79.0315 11.856 937 99.4504 797.002 479.537
1492 0 80.0717 12.0642 966 98.1573 797.134 480.418
1493 0 84.0714 11.3594 955 100.343 797.373 476.95
1494 1 43.0408 8.61973 371 94.1806 796.445 498.35
1495 0 44.0733 9.23461 407 91.8845 797.43 500.396
1496 0 44.0451 10.0125 441 91.2744 797.429 501.07
1497 0 46.0264 10.494 483 97.8634 797.462 499.52
1498 0 48.0389 10.9287 525 97.0152 797.655 498.337
1499 0 49.0327 10.5644 518 102.925 797.292 493.624
1500 0 53.0172 11.4303 606 106.061 796.873 491.914
1501 0 54.0561 11.9876 648 105.003 796.961 491.793
1502 0 50.0789 11.3022 566 99.1714 796.889 495.571
1503 0 57.0374 11.4662 654 99.7049 796.786 492.139
1504 0 58.0327 12.0277 698 105.414 796.755 489.064
1505 0 59.044 12.6685 748 103.88 797.213 489.348
1506 0 60.0316 12.61 757 103.465 797.262 487.557
1507 0 62.0318 13.1062 813 101.926 796.809 486.608
1508 0 63.0241 12.5825 793 102.9 797.023 486.217
1509 0 66.0436 12.1586 803 103.121 797.122 485.093
1510 0 67.052 12.9303 867 101.068 797.077 484.705
1511 0 69.0269 13.2267 913 99.4513 797.429 485.306
1512 0 71.0614 12.2289 869 101.907 797.428 483.461
1513 0 72.0657 12.4054 894 101.347 797.151 483.515
1514 0 74.1213 12.0883 896 101.581 796.816 481.336
1515 0 76.0374 12.7569 970 100.549 796.242 479.059
1516 0 79.0747 13.0383 1031 99.5015 796.524 479.818
1517 0 81.0533 12.4116 1006 101.957 796.993 477.295
1518 0 84.0892 12.3559 1039 102.622 797.002 475.954
1519 0 86.0553 12.5849 1083 102.102 797.805 475.679
1520 0 89.1068 12.9395 1153 100.418 797.35 474.954
1521 0 90.091 13.3532 1203 98.9759 797.214 475.271
1522 0 92.076 12.5874 1159 102.05 797.714 472.235
1523 0 96.1339 12.7738 1228 99.8379 797.905 471.59
1524 0 98.288 12.8296 1261 100.617 797.511 470.626
1525 0 100.09 12.8485 1286 100.031 797.969 469.808
1526 0 105.113 12.8908 1355 98.8052 797.781 467.252
1527 0 106.12 12.1466 1289 100.861 797.064 466.369
1528 0 108.21 12.2632 1327 99.5486 797.929 462.569
1529 0 112.108 12.3899 1389 98.9611 797.447 462.688
1530 0 115.17 12.0517 1388 99.4207 797.837 460.025
1531 0 120.132 12.3365 1482 98.6019 797.965 459.043
1532 1 69.0613 10.6862 738 91.2534 798.56 488.304
1533 0 72.0654 11.6144 837 92.0191 797.823 485.958
1534 0 75.065 12.0962 908 93.2555 798.261 484.217
1535 0 76.0854 11.8814 904 97.9956 798.676 484.357
1536 0 80.0727 11.602 929 98.8977 798.46 481.273
1537 0 81.0561 12.0657 978 98.4796 797.525 478.866
1538 0 85.0791 12.506 1064 98.0179 797.745 476.678
1539 0 87.0684 12.0595 1050 99.5676 797.547 475.054
1540 0 91.0444 11.9722 1090 99.544 797.459 474.361
1541 0 93.0706 12.1628 1132 99.409 798.448 471.287
1542 0 94.0697 11.4915 1081 101.794 797.973 470.519
1543 0 98.0591 11.7888 1156 100.372 797.873 468.879
1544 0 103.174 12.2221 1261 98.5472 798.058 468.033
1545 0 104.103 11.9305 1242 100.994 798.035 467.305
1546 1 56.0548 11.0963 622 97.4791 797.447 491.109
1547 0 50.0728 10.0653 504 92.3532 797.927 492.736
1548 0 53.1054 9.66003 513 91.6745 797.37 493.522
1549 0 53.0802 9.92836 527 93.2296 798.146 496
1550 0 57.1052 11.2774 644 90.1491 797.661 494.064
1551 0 59.1518 10.2955 609 92.1215 797.737 493.685
1552 0 62.1294 10.623 660 90.15 797.948 493.188
1553 0 62.1425 10.669 663 90.7873 797.671 491.395
1554 0 66.0173 10.8911 719 90.1182 797.484 488.68
1555 0 73.1032 12.0104 878 94.1697 797.408 484.325
1556 0 75.0841 12.9988 976 91.8965 797.49 482.707
1557 0 77.0899 12.4141 957 93.6844 797.304 481.533
1558 0 77.0531 11.9009 917 96.1756 797.677 482.425
1559 0 81.1246 12.6842 1029 94.2255 797.34 481.547
1560 0 84.1229 12.8859 1084 95.464 797.919 479.922
1561 0 86.1061 12.5891 1084 96.1799 797.175 477.86
1562 0 88.1771 12.8265 1131 95.649 797.715 476.622
1563 0 91.1095 12.9295 1178 95.466 797.458 476.644
1564 0 93.1493 12.4102 1156 98.487 797.804 474.886
1565 0 97.1158 13.211 1283 97.173 797.786 473.209
1566 0 100.17 12.5387 1256 100.703 797.653 471.331
1567 1 53.067 11.1934 594 97.3805 797.313 495.045
1568 0 54.1035 11.0714 599 95.5726 797.23 494.641
1569 0 57.1387 11.6383 665 96.397 798.017 493.152
1570 0 58.087 12.2231 710 100.649 797.742 492.908
1571 0 58.0699 11.3656 660 99.1909 797.627 493.802
1572 0 61.0783 12.5085 764 100.258 797.546 491.427
1573 0 63.0446 12.8163 808 100.485 797.307 489.968
1574 0 66.1289 12.4756 825 101.509 797.559 488.856
1575 0 67.0708 12.6732 850 101.575 797.505 487.746
1576 0 69.1108 12.7766 883 101.569 797.661 487
1577 0 72.1196 12.4654 899 101.719 797.377 485.168
1578 0 74.114 12.7506 945 102.446 797.466 484.091
1579 0 76.0699 12.5937 958 100.436 796.82 484.363
1580 0 80.1521 13.175 1056 100.888 797.917 482.1
1581 0 81.1485 13.0994 1063 102.349 797.52 481.351
1582 0 85.107 13.2657 1129 102.058 797.203 478.764
1583 0 88.058 12.9914 1144 102.366 797.503 477.708
1584 0 88.0867 12.7602 1124 104.513 797.811 477.72
1585 0 91.0951 12.7779 1164 105.055 798.064 475.235
1586 0 93.0832 12.9132 1202 101.76 797.799 474.264
1587 1 48.0577 10.6747 513 98.6023 797.581 498.951
1588 0 47.0584 10.2001 480 99.9646 797.458 499.212
1589 0 49.0457 10.9897 539 98.5009 797.486 498.978
1590 0 50.1138 11.1546 559 98.1127 797.449 499.436
1591 0 53.0664 11.9473 634 105.303 797.812 496.091
1592 0 53.0274 12.2955 652 105.351 798.417 495.44
1593 0 57.0655 12.6872 724 102.254 797.855 494.8
1594 0 57.0767 13.0701 746 102.239 797.905 493.023
1595 0 59.0475 12.5831 743 102.686 797.961 492.829
1596 0 60.0476 12.4734 749 102.057 797.684 492.425
1597 0 62.0414 13.2814 824 100.72 797.237 490.711
1598 0 64.0434 13.0693 837 100.75 797.774 488.9
1599 0 66.117 12.2964 813 102.014 797.273 488.515
1600 0 69.0809 12.4926 863 101.505 797.601 486.753
1601 0 70.0194 12.725 891 101.247 797.319 485.448
1602 0 73.0419 12.7461 931 100.824 796.992 483.992
1603 0 73.1143 12.2821 898 101.52 796.836 483.212
1604 0 76.0342 12.6916 965 99.3492 797.514 484.048
1605 0 81.0519 12.9793 1052 96.4259 797.041 484.24
1606 0 83.0502 13.3534 1109 95.5735 797.622 482.199
1607 1 40.0158 10.5708 423 94.3073 797.125 504.111
1608 0 42.0135 11.3773 478 92.6485 797.653 505.571
1609 0 43.0208 11.785 507 90.2446 796.959 505.613
1610 0 43.0604 11.6348 501 92.0519 797.381 505.565
1611 0 46.1151 11.905 549 91.9144 796.876 503.719
1612 0 48.0873 12.3317 593 90.8449 797.14 502.032
1613 0 50.0559 13.1054 656 94.0473 797.535 497.71
1614 0 51.1221 12.9103 660 95.3682 797.595 496.441
1615 0 54.1638 12.8315 695 94.5281 797.784 493.119
1616 0 54.1823 13.1224 711 94.6653 796.948 493.335
1617 0 56.1235 13.2565 744 93.6976 796.718 492.27
1618 0 58.0903 12.8593 747 95.0402 797.005 493.112
1619 0 61.1007 13.4859 824 92.9612 797.074 492.07
1620 0 62.0844 13.4977 838 94.3365 796.526 489.668
1621 0 62.0647 13.2765 824 96.6456 796.846 489.711
1622 0 65.0975 12.9959 846 97.552 796.839 488.924
1623 0 66.0556 12.9588 856 100.025 796.602 487.82
1624 0 70.1399 13.4446 943 98.1018 796.731 485.97
1625 0 74.0349 13.6422 1010 97.3406 796.407 486.095
1626 0 75.0705 13.3874 1005 98.9891 796.794 485.025
1627 0 76.0446 13.9129 1058 99.3053 796.548 483.766
1628 0 80.0519 13.9535 1117 99.7269 796.517 483.233
1629 0 82.0602 14.5137 1191 98.838 796.536 482.495
1630 1 40.0536 10.8355 434 104.744 797.449 503.945
1631 0 43.0358 11.8274 509 103.138 797.342 501.336
1632 0 42.0475 11.3205 476 105.693 797.399 501.46
1633 0 43.0466 11.3366 488 103.344 797.258 503.168
1634 0 45.0731 11.7143 528 104.667 796.6 502.752
1635 0 49.0306 12.6248 619 101.021 796.677 498.549
1636 0 49.0367 12.3989 608 102.336 796.758 499.6
1637 0 50.0347 12.6312 632 102.505 796.728 499.742
1638 0 50.0347 12.6912 635 103.148 796.37 499.433
1639 0 53.0328 12.2189 648 104.815 796.613 497.458
1640 0 54.0221 12.9392 699 103.3 796.682 495.684
1641 0 57.0294 12.5725 717 103.524 796.245 494.141
1642 0 56.0263 13.0296 730 103.99 796.845 494.041
1643 0 58.0791 12.8273 745 106.216 796.45 493.426
1644 0 60.0751 13.3666 803 104.579 796.712 494.646
1645 0 63.0516 13.1797 831 105.964 796.345 493.059
1646 0 65.0624 13.8175 899 103.836 795.969 493.677
1647 0 65.1032 13.6092 886 106.388 796.774 492.497
1648 0 65.0937 13.6265 887 170.778 797.809 492.41
1649 0 70.0503 13.6045 953 107.045 796.549 490.952
1650 0 71.0257 13.474 957 108.034 797.571 490.913
1651 0 74.0513 13.3421 988 108.512 797.489 489.538
1652 0 76.0424 13.361 1016 108.423 797.804 487.86
1653 0 77.0535 13.4841 1039 109.161 797.603 488.072
1654 0 81.0917 13.8362 1122 106.553 797.291 487.986
1655 0 83.0638 13.3873 1112 108.327 797.116 486.496
1656 1 40.0595 11.0585 443 108.869 797.086 506.858
1657 0 44.0462 10.9885 484 108.275 797.002 506.19
1658 0 45.1959 12.3463 558 103.305 796.907 505.636
1659 0 46.1021 11.7782 543 105.786 797.457 504.762
1660 0 47.0827 12.2763 578 105.187 796.851 503.882
1661 0 48.0828 12.1873 586 105.949 797.263 503.802
1662 0 49.039 12.6838 622 103.526 797.203 504.301
1663 0 50.1008 12.7144 637 103.754 797.377 501.039
1664 0 54.0291 12.6784 685 101.727 796.606 500.42
1665 0 56.0795 13.3025 746 102.375 796.995 496.7
1666 0 57.0703 13.5447 773 101.902 796.739 495.859
1667 0 59.0464 12.9898 767 102.098 796.713 495.037
1668 0 60.0494 13.2225 794 100.057 796.712 495.913
1669 0 61.0573 13.561 828 99.6473 796.9 493.97
1670 0 64.1076 13.6333 874 100.08 796.793 492.752
1671 0 63.0427 12.8484 810 103.217 796.438 491.107
1672 0 67.1204 12.7979 859 100.51 796.32 493.12
1673 0 69.0439 13.7159 947 99.4382 796.136 491.64
1674 0 71.0517 13.3424 948 100.833 796.159 490.534
1675 0 73.0519 13.0866 956 104.106 796.302 485.674
1676 0 77.1247 13.6662 1054 102.522 796.957 484.669
1677 0 77.0948 13.3991 1033 103.664 796.18 485.797
1678 0 80.0687 13.5758 1087 101.212 796.249 486.283
1679 0 82.1022 12.9351 1062 105.114 796.465 483.737
1680 0 83.0403 13.2466 1100 104.862 796.516 484.434
1681 0 86.0845 13.1731 1134 103.996 795.995 484.266
1682 0 89.0435 13.499 1202 102.934 796.435 481.245
1683 1 44.0441 10.6938 471 102.45 796.253 504.1
1684 0 45.0246 10.4165 469 105.584 796.316 502.748
1685 0 49.0281 12.2991 603 101.378 796.697 500.31
1686 0 49.0479 11.8252 580 104.486 796.279 500.184
1687 0 52.0238 11.7446 611 102.498 796.347 498.948
1688 0 53.0658 11.9286 633 103.036 795.698 498.586
1689 0 55.042 12.5904 693 101.039 796.739 498.56
1690 0 57.0383 12.1147 691 103.074 796.331 497.405
1691 0 58.0335 12.3205 715 101.796 797.199 496.502
1692 0 61.0605 12.9216 789 99.1141 796.845 494.959
1693 0 63.0794 12.7141 802 98.7157 796.308 494.425
1694 0 64.1222 12.4918 801 100.19 796.169 494.416
1695 0 66.1117 12.5545 830 99.9265 796.307 492.725
1696 0 67.0916 13.4145 900 99.3833 796.336 491.141
1697 0 70.1046 13.166 923 99.9577 796.242 490.397
1698 0 71.0762 13.2956 945 99.8783 796.665 487.324
1699 0 73.0964 13.1607 962 100.017 796.45 487.139
1700 0 76.0975 12.9439 985 101.779 797.159 485.931
1701 0 78.0889 13.2797 1037 99.9238 796.292 484.171
1702 0 80.1228 12.9177 1035 100.467 796.739 481.853
1703 0 84.1159 14.0639 1183 100.5 796.758 479.88
1704 0 86.0803 13.3248 1147 98.6486 797.012 479.378
1705 0 87.0844 13.0563 1137 99.5295 797.052 479.019
1706 1 46.0677 11.0924 511 101.517 797.094 499.086
1707 0 48.1702 11.75 566 99.7615 796.493 499.647
1708 0 48.0352 12.241 588 100.543 797.617 498.825
1709 0 50.0497 12.3477 618 98.3786 797.108 500.519
1710 0 52.0433 12.528 652 102.666 797.067 495.853
1711 0 54.1319 12.7282 689 100.871 797.241 495.716
1712 0 55.0271 12.721 700 101.229 797.147 494.211
1713 0 58.1149 13.2152 768 99.1771 797.098 493.363
1714 0 59.055 12.8186 757 99.4439 796.98 493.539
1715 0 59.0314 12.8237 757 93.1308 797.317 496.326
1716 0 60.0286 12.4108 745 95.5933 797.627 493.38
1717 0 61.1143 12.8939 788 93.9137 797.242 491.369
1718 0 65.0692 13.0015 846 93.0473 797.596 491.431
1719 0 71.0784 13.4359 955 93.6492 796.864 488.524
1720 0 71.0266 13.2767 943 95.6532 797.433 488.276
1721 0 73.0877 13.3812 978 95.1513 797.576 487.585
1722 0 77.0696 13.8835 1070 93.3112 797.083 486.258
1723 0 79.0682 13.2038 1044 96.7989 796.862 483.244
1724 1 40.0106 11.197 448 97.8036 796.949 501.996
1725 0 43.0123 11.6246 500 97.562 796.788 500.122
1726 0 44.0117 12.474 549 96.8361 797.355 500.352
1727 0 44.0316 12.2412 539 100.449 797.152 498.364
1728 0 47.0399 12.3937 583 99.3894 797.103 498.115
1729 0 48.0293 12.1384 583 101.16 796.492 498.038
1730 0 49.0262 12.2995 603 101.668 796.745 496.945
1731 0 51.0131 12.6634 646 100.051 795.893 497.382
1732 0 52.0535 12.5448 653 100.625 797 496.309
1733 0 52.0485 12.277 639 103.18 796.391 495.643
1734 0 54.0232 13.7348 742 98.8747 796.305 495.999
1735 0 56.0131 12.7292 713 101.569 796.093 494.53
1736 0 57.0889 12.9447 739 101.156 796.319 493.053
1737 0 58.0526 13.505 784 102.223 796.509 491.796
1738 0 59.0058 13.4732 795 101.357 797.164 492.546
1739 0 62.0396 13.2657 823 100.614 796.914 489.471
1740 0 63.0219 12.8368 809 101.396 797.13 490.502
1741 0 67.0175 12.9966 871 100.031 796.946 490.529
1742 0 69.0558 13.7135 947 98.0116 797.269 490.238
1743 0 70.0393 13.1498 921 100.288 797.063 487.169
1744 0 73.1176 12.8697 941 100.852 797.205 487.487
1745 0 75.0631 12.7759 959 102.335 796.956 487.718
1746 0 80.175 13.72 1100 98.2782 796.479 484.62
1747 0 82.0862 13.1691 1081 101.437 796.49 483.809
1748 1 45.0617 10.9405 493 101.791 796.45 502.168
1749 0 46.0945 11.4113 526 98.6008 797.08 500.667
1750 0 46.0643 11.4405 527 100.573 796.886 498.947
1751 0 49.1048 12.3613 607 96.7842 797.168 499.68
1752 0 50.0755 12.6209 632 97.5301 796.737 498.168
1753 0 52.0172 12.8227 667 97.9235 796.384 496.022
1754 0 53.0174 12.5996 668 97.9716 796.019 497.028
1755 0 53.0426 12.2731 651 100.237 796.986 494.473
1756 0 57.0759 12.8425 733 97.6562 796.806 495.469
1757 0 57.0822 13.0338 744 98.5538 796.403 493.622
1758 0 60.1257 13.4884 811 95.1036 796.576 493.607
1759 0 60.0906 12.7141 764 98.161 797.17 492.384
1760 0 64.1379 12.8941 827 96.89 797.012 492.395
1761 0 66.0765 12.6671 837 97.0705 796.952 490.257
1762 0 68.0925 13.0411 888 96.4223 796.443 489.207
1763 0 71.1025 13.6282 969 94.3664 796.603 487.648
1764 0 71.0933 13.0955 931 97.5875 796.221 486.357
1765 0 74.0797 13.3775 991 96.0434 797.174 486.573
1766 0 75.1164 13.3393 1002 96.8653 797.326 484.252
1767 0 79.0943 13.6546 1080 95.7231 797.098 482.908
1768 0 82.06 13.1855 1082 95.7773 797.171 482.035
1769 0 84.1703 12.9856 1093 97.0174 796.495 479.298
1770 1 44.0938 11.158 492 97.2337 796.965 500.994
1771 0 45.2127 11.8108 534 97.1199 796.837 500.38
1772 0 47.211 12.1158 572 96.7727 796.867 500.059
1773 0 49.0746 12.4912 613 96.8891 796.992 498.33
1774 0 48.0608 12.1513 584 99.3733 796.986 497.985
1775 0 52.055 11.6607 607 99.8797 796.988 496.773
1776 0 54.0338 12.6958 686 98.691 797.22 495.491
1777 0 53.0915 12.5444 666 100.787 796.71 493.297
1778 0 57.1174 12.9033 737 98.825 797.543 491.833
1779 0 59.0691 13.171 778 97.2699 797.553 493.368
1780 0 58.1549 12.1744 708 101.076 797.13 492.097
1781 0 60.1125 12.3103 740 99.9284 797.215 489.811
1782 0 64.0647 13.0337 835 98.0443 797.479 488.637
1783 0 65.1474 12.1263 790 102.433 796.582 488.389
1784 0 67.0787 12.94 868 100.079 797.46 487.789
1785 0 69.0706 13.0012 898 100.892 796.812 486.717
1786 0 70.0588 12.4752 874 103.117 797.01 486.033
1787 0 71.0889 12.7868 909 102.95 796.695 485.208
1788 0 76.0816 13.0255 991 101.807 797.789 484.362
1789 0 78.0946 12.933 1010 102.026 796.827 484.397
1790 0 81.103 12.9958 1054 102.142 797.318 481.619
1791 0 82.1909 12.8725 1058 102.905 797.319 479.971
1792 0 85.3296 12.6568 1080 102.924 797.174 478.694
1793 1 44.0404 10.3541 456 100.318 797.664 502.572
1794 0 45.1143 11.216 506 96.1561 797.277 501.298
1795 0 47.057 11.6029 546 95.7344 797.081 500.482
1796 0 47.0523 11.6679 549 98.1475 796.089 499.299
1797 0 50.0941 11.6181 582 101.45 796.689 497.447
1798 0 50.0776 12.0213 602 101.748 796.269 494.91
1799 0 54.0327 11.9927 648 100.026 796.233 494.721
1800 0 55.0567 11.8787 654 101.219 795.763 495.174
1801 0 56.0285 11.9939 672 100.865 796.533 495.132
1802 0 58.0395 12.2503 711 100.406 796.43 495.117
1803 0 58.0662 12.2791 713 99.533 796.251 495.753
1804 0 60.0406 12.3416 741 99.359 796.298 492.842
1805 0 62.064 12.4871 775 99.1187 795.726 492.817
1806 0 63.0336 12.8503 810 100.177 795.628 491.347
1807 0 64.0683 12.6896 813 100.943 795.46 490.598
1808 0 68.0954 13.1727 897 98.3913 795.517 491.085
1809 0 71.0603 12.989 923 98.4529 795.952 488.99
1810 0 72.0848 12.2911 886 100.509 796.063 489.09
1811 0 72.1351 12.7539 920 100.535 796.004 486.484
1812 0 77.0732 13.0006 1002 98.1248 795.972 485.773
1813 0 78.1966 12.1744 952 100.854 795.524 485.762
1814 0 81.1428 12.4842 1013 99.1234 796.124 485.592
1815 1 44.1024 10.8838 480 99.4583 795.4 501.66
1816 0 46.1542 11.2016 517 97.9632 795.029 501.64
1817 0 47.1233 11.2259 529 98.4575 795.552 500.491
1818 0 50.0987 12.0762 605 96.7438 795.974 499.524
1819 0 48.0502 11.1966 538 91.3736 796.381 500.346
1820 0 49.1538 10.8028 531 91.6591 795.718 501.838
1821 0 49.1096 10.2628 504 93.4861 795.865 501.123
1822 0 51.0599 10.8304 553 94.9982 796.298 496.127
1823 0 56.0417 11.8305 663 98.3152 796.069 493.404
1824 0 57.0559 11.9181 680 98.6956 796.587 494.182
1825 0 59.0834 12.22 722 98.3449 796.626 494.118
1826 0 62.0353 12.2027 757 97.0172 796.374 492.941
1827 0 63.0643 12.1781 768 97.612 796.76 491.268
1828 0 63.0401 11.8813 749 100.21 796.239 489.713
1829 0 66.0161 12.2546 809 98.8047 796.204 488.583
1830 0 69.0494 12.6141 871 97.4788 796.76 490.824
1831 0 65.0629 10.0518 654 96.2416 796.121 490.156
1832 0 71.0687 11.1301 791 93.115 795.912 489.774
1833 0 73.0421 10.4871 766 100.339 796.322 489.41
1834 0 75.0768 10.5758 794 96.0277 796.481 487.843
1835 0 79.119 10.9961 870 97.0529 797.176 485.007
1836 0 81.0803 10.8658 881 100.93 797.052 484.173
1837 1 42.0338 10.325 434 105.979 797.461 500.56
1838 0 44.0154 10.4963 462 106.961 796.931 497.567
1839 0 44.0489 10.7381 473 108.82 796.571 497.761
1840 0 45.0228 11.794 531 107.682 796.427 496.778
1841 0 46.0181 11.4738 528 110.131 796.028 495.943
1842 0 47.0442 11.5423 543 104.945 796.204 495.013
1843 0 52.0214 11.822 615 103.629 796.528 495.75
1844 0 52.0246 11.9559 622 104.508 796.815 495.04
1845 0 54.0337 12.4367 672 104.955 796.827 493.783
1846 0 56.0397 12.6874 711 104.28 796.986 492.65
1847 0 57.0742 12.4049 708 106.018 796.918 494.253
1848 0 59.0686 12.8325 758 104.894 797.062 492.996
1849 0 59.0124 12.5228 739 106.95 797.039 492.111
1850 0 59.0135 13.4037 791 105.642 797.081 490.019
1851 0 61.0134 12.4399 759 107.391 796.968 489.462
1852 0 63.0261 12.6773 799 106.191 796.76 488.79
1853 0 64.0453 13.2094 846 104.967 796.24 489.073
1854 0 66.0142 12.9972 858 105.232 796.605 485.873
1855 0 69.0332 13.5442 935 103.492 796.647 486.52
1856 0 69.0628 12.7999 884 106.7 796.964 486.326
1857 0 72.0221 13.4126 966 103.638 797.266 485.306
1858 0 73.0409 13.0886 956 105.586 797.405 484.141
1859 0 75.0184 13.3034 998 106.241 796.722 483.915
1860 0 80.0802 13.6488 1093 103.687 797.478 481.085
1861 0 82.1096 14.0178 1151 103.323 797.522 476.626
1862 0 83.0575 14.0024 1163 104.363 797.224 477.457
1863 0 85.042 13.7932 1173 104.964 797.356 477.476
1864 0 90.1011 13.8289 1246 104.232 797.447 476.786
1865 0 92.0927 13.1824 1214 107.356 797.077 474.143
1866 0 95.0907 13.7237 1305 105.309 797.101 474.29
1867 0 99.1029 13.7635 1364 105.224 797.265 473.675
1868 0 101.125 13.9728 1413 105.199 797.451 470.955
1869 1 53.0526 11.7431 623 106.152 797.274 495.939
1870 0 53.1128 12.464 662 104.258 797.177 494.592
1871 0 56.0725 12.6622 710 101.056 797.207 495.194
1872 0 58.0327 13.0616 758 101.698 796.208 494.373
1873 0 55.1003 11.8874 655 98.0183 797.366 495.202
1874 0 57.1246 12.1489 694 98.111 796.707 493.007
1875 0 60.0298 12.8603 772 102.036 796.988 489.56
1876 0 63.0484 12.308 776 102.715 797.117 489.068
1877 0 65.035 12.9622 843 100.601 796.658 486.773
1878 0 65.0607 13.0647 850 101.902 797.055 487.324
1879 0 67.0629 12.9431 868 102.47 797.418 485.832
1880 0 69.0836 13.5778 938 100.11 797.527 485.532
1881 0 71.042 13.0486 927 102.043 796.833 484.632
1882 0 73.0442 13.2796 970 102.021 796.944 483.713
1883 0 74.0703 12.6367 936 104.419 797.337 482.536
1884 0 76.0398 13.0721 994 102.715 796.847 481.862
1885 0 77.0879 12.9333 997 104.299 795.94 480.732
1886 0 80.1446 12.6646 1015 103.999 796.242 479.444
1887 0 82.0974 12.4608 1023 103.067 797.361 478.442
1888 0 84.1398 12.919 1087 101.792 797.332 478.408
1889 0 87.0684 12.9898 1131 102.204 797.522 475.553
1890 0 88.1383 12.4123 1094 103.451 797.335 475.594
1891 0 92.0992 12.8123 1180 100.441 797.17 476.006
1892 1 46.0629 10.985 506 101.751 797.377 498.091
1893 0 49.0491 11.1929 549 99.6539 797.209 496.577
1894 0 50.0127 11.5171 576 97.6337 797.378 496.738
1895 0 55.0456 12.1717 670 99.3507 797.8 494.851
1896 0 56.0138 12.4969 700 96.48 797.859 494.883
1897 0 59.0235 12.7068 750 97.0987 797.304 493.235
1898 0 58.0388 12.4744 724 100.917 796.7 491.475
1899 0 61.0142 12.4561 760 100.946 797.47 490.782
1900 0 62.0323 12.5257 777 102.642 796.508 490.166
1901 0 64.0259 12.9635 830 101.906 796.923 487.892
1902 0 67.0543 13.1535 882 103.82 797.183 487.497
1903 0 70.0513 13.3616 936 104.549 797.137 487.339
1904 0 72.0548 13.4065 966 106.115 796.713 486.491
1905 0 74.0653 12.84 951 108.018 796.738 485.452
1906 0 75.033 13.3674 1003 108.84 796.209 484.189
1907 0 79.093 13.2629 1049 111.086 796.633 483.435
1908 0 82.0382 13.1402 1078 112.814 796.243 480.256
1909 0 84.0622 12.8833 1083 113.775 796.279 477.101
1910 0 85.0395 12.7823 1087 113.662 796.218 478.481
1911 1 45.0634 10.9401 493 107.609 795.921 500.888
1912 0 46.02 11.5167 530 107.889 796.43 499.036
1913 0 49.0092 11.3244 555 107.84 796.422 499.337
1914 0 51.0362 11.5016 587 109.245 796.082 498.184
1915 0 50.0879 11.7593 589 111.039 795.545 497.367
1916 0 53.0397 11.5008 610 109.811 795.77 497.775
1917 0 52.0421 11.5676 602 109.998 795.789 496.41
1918 0 59.0562 12.9538 765 107.093 795.731 495.234
1919 0 62.0702 13.4847 837 108.517 795.122 494.663
1920 0 62.0357 13.0731 811 112.326 796.076 492.513
1921 0 64.0686 13.7977 884 109.206 796.286 493.951
1922 0 66.068 13.0472 862 104.515 795.617 491.691
1923 0 68.0718 12.7806 870 106.531 795.53 491.662
1924 0 67.0549 12.7209 853 107.485 795.544 491.087
1925 0 74.0453 14.0049 1037 108.27 796.53 488.947
1926 0 76.019 13.9307 1059 108.922 795.869 486.702
1927 0 77.0432 13.5638 1045 110.266 796.198 486.432
1928 0 79.0254 13.8563 1095 110.22 795.428 481.929
1929 0 83.0711 13.7834 1145 108.524 795.417 482.854
1930 0 86.035 13.4248 1155 109.713 795.519 480.334
1931 0 88.0558 13.9798 1231 107.475 795.079 480.072
1932 0 90.072 14.7104 1325 103.728 795.672 479.616
1933 0 91.0932 13.6015 1239 107.069 795.358 478.866
1934 1 47.0353 10.7791 507 105.598 795.797 502.434
1935 0 47.0461 11.4143 537 103.063 795.21 501.251
1936 0 51.0562 11.7322 599 100.938 794.942 500.352
1937 0 53.0359 12.1616 645 106.113 794.439 497.702
1938 0 56.0441 12.7578 715 105.593 795.141 497.221
1939 0 53.058 11.8738 630 105.744 795.149 498.505
1940 0 56.085 12.3919 695 103.38 795.216 499.735
1941 0 58.0292 12.7867 742 103.375 795.011 497.57
1942 0 62.0522 12.844 797 106.671 794.849 495.035
1943 0 64.0551 13.1918 845 109.573 795.173 493.417
1944 0 66.0753 13.4846 891 109.73 795.438 491.832
1945 0 70.1066 13.7077 961 108.168 795.42 491.385
1946 0 71.0832 13.8711 986 109.095 795.706 490.029
1947 0 74.1065 13.8719 1028 108.325 795.672 488.982
1948 0 76.069 13.5929 1034 109.969 795.368 488.522
1949 0 79.09 13.845 1095 108.647 795.572 487.264
1950 0 82.0488 14.3086 1174 107.414 795.474 484.267
1951 0 83.0986 14.2842 1187 108.152 795.35 484.061
1952 0 87.0414 15.0044 1306 106.325 795.579 481.887
1953 0 90.0726 14.3551 1293 108.556 795.78 480.383
1954 0 93.1065 14.811 1379 106.503 795.964 481.149
1955 0 95.0531 15.0127 1427 106.21 795.28 480.01
1956 0 96.1225 14.2318 1368 109.554 795.528 477.936
1957 0 98.1101 14.0658 1380 111.022 795.236 475.167
1958 0 103.117 14.4399 1489 110.509 795.923 473.898
1959 0 104.089 14.257 1484 110.728 795.47 474.117
1960 0 110.058 14.5559 1602 108.968 795.825 472.657
1961 1 54.0415 12.0278 650 108.249 796.065 500.468
1962 0 55.0313 11.6116 639 106.862 795.915 497.189
1963 0 59.025 12.5032 738 101.882 795.098 497.003
1964 0 60.0592 13.0704 785 106.625 795.813 496.568
1965 0 60.0575 12.9376 777 107.188 795.654 496.532
1966 0 58.1111 10.7036 622 103.714 794.793 497.881
1967 0 61.0805 10.9691 670 102.604 795.181 496.79
1968 0 63.0548 11.5138 726 101.877 795.559 494.248
1969 0 68.0819 12.2793 836 103.955 794.951 493.077
1970 0 69.0467 12.0788 834 99.7362 794.71 492.859
1971 0 71.0974 12.2508 871 101.536 795.121 490.352
1972 0 72.1055 11.8992 858 99.9464 794.79 490.71
1973 0 71.0665 11.4259 812 101.818 795.16 489.089
1974 0 73.0969 10.9307 799 103.956 795.149 486.234
1975 0 80.07 12.2893 984 104.35 795.727 484.25
1976 0 81.1254 12.5115 1015 103.398 795.493 482.257
1977 0 85.0955 12.4566 1060 102.575 795.503 481.928
1978 0 87.1022 11.0904 966 99.3458 795.034 483.727
1979 0 88.082 11.1033 978 100.476 795.834 482.12
1980 0 89.0757 11.1141 990 107.035 795.191 478.375
1981 0 93.0946 12.0523 1122 102.806 794.48 479.143
1982 0 97.1234 12.1598 1181 102.732 794.73 478.068
1983 1 51.0527 10.5969 541 99.3678 794.845 499.035
1984 0 51.0349 11.11 567 98.0847 794.693 499.06
1985 0 53.0467 11.4427 607 95.6573 794.524 497.715
1986 0 56.0762 11.734 658 98.1672 795.122 497.518
1987 0 57.0559 11.5325 658 103.799 794.736 496.742
1988 0 59.0847 12.3044 727 100.252 794.865 495.955
1989 0 62.1419 12.2944 764 100.039 794.446 494.839
1990 0 63.0597 12.3217 777 101.073 795.279 492.686
1991 0 66.0724 12.6679 837 99.7407 795.056 492.68
1992 0 67.1449 11.8103 793 102.89 795.689 491.56
1993 0 70.212 12.8468 902 99.8171 794.833 490.175
1994 0 73.2184 12.3876 907 100 794.792 489.545
1995 0 74.2575 12.4163 922 100.973 794.85 486.883
1996 0 75.2267 12.4956 940 101.136 793.965 486.79
1997 0 77.1168 12.1245 935 103.497 795.239 484.588
1998 0 81.1067 13.3528 1083 99.5568 794.681 482.762
1999 0 82.0477 13.224 1085 100.735 794.918 479.273
2000 0 85.1149 12.9824 1105 99.8543 794.382 480.92
2001 0 87.097 13.02 1134 98.8095 795.074 479.22
2002 1 42.0331 10.3014 433 96.7275 795.383 504.171
2003 0 43.0268 10.3191 444 98.9234 795.462 503.322
2004 0 45.0497 11.1655 503 98.175 795.235 502.352
2005 0 45.0975 11.841 534 101.105 794.818 501.581
2006 0 45.0975 11.7967 532 150.592 793.838 501.541
2007 0 49.1893 12.5231 616 98.4432 794.95 502.482
2008 0 50.1174 12.4707 625 99.088 795.088 501.64
2009 0 50.0909 11.9583 599 101.559 794.743 501.341
2010 0 53.1078 11.6367 618 101.38 794.597 500.086
2011 0 54.0781 12.445 673 99.1412 794.496 499.767
2012 0 54.0546 12.8389 694 99.0951 794.876 498.01
2013 0 54.0732 12.0762 653 100.851 794.812 496.723
2014 0 58.0825 12.5856 731 97.5089 795.062 496.079
2015 0 58.087 12.137 705 99.3645 795.294 496.321
2016 0 59.0888 12.422 734 98.7398 794.301 495.409
2017 0 62.0909 12.4978 776 98.1379 794.955 495.932
2018 0 64.0907 12.732 816 97.7071 794.844 493.733
2019 0 65.1275 12.4986 814 99.1622 794.883 492.703
2020 0 68.0889 13.2915 905 96.9845 794.761 492.028
2021 0 69.1251 12.7595 882 98.8662 794.646 492.087
2022 0 71.1121 12.0936 860 101.563 794.576 489.956
2023 0 72.0905 12.4288 896 100.86 794.831 489.32
2024 0 76.1237 13.084 996 98.2129 794.892 484.089
2025 0 78.0686 13.0398 1018 98.4116 793.811 480.504
2026 0 80.0904 12.6607 1014 99.1144 794.743 480.449
2027 0 81.1068 12.6623 1027 99.6884 793.869 479.976
2028 0 84.0688 12.8347 1079 99.1316 794.339 481.21
2029 1 44.0964 10.3863 458 102.5 793.41 499.751
2030 0 46.0942 10.4351 481 100.815 793.925 500.815
2031 0 49.0846 11.3681 558 97.5824 794.315 500.039
2032 0 49.0832 11.3481 557 98.9515 794.492 499.056
2033 0 52.066 11.1781 582 97.1082 794.696 500.172
2034 0 51.0575 11.4577 585 99.0479 794.603 496.588
2035 0 54.019 11.7181 633 97.2401 794.163 495.79
2036 0 56.0435 11.9372 669 95.5441 793.433 496.68
2037 0 57.0482 11.9548 682 95.085 794.391 495.16
2038 0 58.0847 11.9653 695 95.0964 794.144 495.742
2039 0 59.0565 11.7345 693 96.8788 794.173 492.284
2040 0 60.0375 12.2257 734 94.2929 794.106 492.553
2041 0 63.1389 12.5279 791 93.5373 794.434 493.101
2042 0 65.0692 12.5559 817 93.9596 794.311 491.143
2043 0 67.0551 12.8402 861 92.813 794.34 489.744
2044 0 69.1158 12.6744 876 92.8596 794.046 487.917
2045 0 69.1051 12.0686 834 95.1319 794.868 487.532
2046 0 72.1387 11.9631 863 95.562 794.626 486.861
2047 0 73.1165 11.8715 868 96.8652 794.124 486.384
2048 0 76.1081 12.3114 937 95.1131 794.687 484.145
2049 0 78.2413 12.0525 943 96.4708 794.014 481.701
2050 0 82.1073 12.1183 995 96.5126 794.302 482.407
2051 0 84.1293 12.2787 1033 96.7657 793.969 481.046
2052 0 86.2703 12.6463 1091 96.11 794.427 480.435
2053 1 44.1831 10.6828 472 97.0508 794.286 502.903
2054 0 46.2773 11.1934 518 96.473 795.22 503.261
2055 0 47.2079 11.3964 538 96.5799 794.257 503.178
2056 0 49.3662 11.9718 591 95.2809 794.491 503.377
2057 0 48.0909 11.811 568 97.7324 794.586 500.667
2058 0 51.167 12.0195 615 97.0927 795.046 499.023
2059 0 52.0924 11.8443 617 98.3355 794.344 497.541
2060 0 52.0987 11.9005 620 98.7403 793.85 496.727
2061 0 55.1401 11.9695 660 97.2424 793.955 497.267
2062 0 55.1901 12.1399 670 96.7507 794.252 498.57
2063 0 55.2139 12.0984 668 97.3383 794.361 496.207
2064 0 60.2643 12.0635 727 94.9574 794.766 495.354
2065 0 62.1219 12.1374 754 94.7175 794.642 493.737
2066 0 63.3433 11.856 751 95.024 794.905 494.477
2067 0 63.3263 11.2907 715 97.0741 794.727 493.93
2068 0 64.4024 11.4747 739 96.4885 794.888 494.359
2069 0 66.4276 11.5464 767 96.399 794.409 493.222
2070 0 70.444 11.1578 786 94.2697 794.911 493.073
2071 1 37.4212 9.70038 363 90.1212 794.857 509.017
2072 0 36.3492 10.4542 380 89.5921 795.071 508.308
2073 0 37.2783 9.57661 357 89.0308 795.286 507.249
2074 0 39.1929 10.0018 392 86.5969 794.434 506.128
2075 0 39.135 11.2431 440 84.0841 793.673 505.082
2076 0 42.1468 10.5346 444 87.7365 794.119 503.027
2077 0 43.1273 11.8486 511 98.0176 793.82 499.082
2078 0 46.2367 12.1549 562 95.6174 794.215 499.539
2079 0 47.1501 11.8557 559 95.873 793.403 499.113
2080 0 48.3305 11.5869 560 96.7196 793.707 498.204
2081 0 48.1436 12.0681 581 95.3322 793.162 498.716
2082 0 50.3431 12.1367 611 95.4173 793.691 496.84
2083 0 51.3674 12.284 631 95.87 793.857 495.933
2084 0 53.3531 12.1642 649 96.3482 794.461 496.502
2085 0 52.2345 12.329 644 97.0155 794.095 496.932
2086 0 54.1406 11.9873 649 97.567 794.331 496.337
2087 0 55.4463 11.9395 662 97.4456 794.178 496.282
2088 0 57.3004 12.0243 689 95.7634 794.724 494.981
2089 0 59.298 12.4119 736 94.3587 794.624 494.425
2090 0 60.2023 12.2254 736 94.1372 794.019 493.336
2091 0 60.297 12.1067 730 94.674 793.644 491.478
2092 0 63.3335 11.8894 753 93.3612 794.371 491.425
2093 0 63.3477 11.8552 751 92.9001 794.17 491.913
2094 0 66.3461 11.6962 776 92.9227 794.349 489.79
2095 0 66.2581 11.4401 758 93.6055 793.913 488.949
2096 0 68.316 11.7542 803 92.0909 794.181 487.453
2097 0 70.2335 11.533 810 91.9086 793.659 486.912
2098 0 72.3061 11.5758 837 91.3178 794.068 486.842
2099 0 74.2304 11.6125 862 90.7448 794.405 485.161
2100 0 75.3061 11.4068 859 90.8929 794.057 484.168
2101 0 79.2382 11.8125 936 89.8932 794.818 482.547
2102 0 80.2813 11.7337 942 90.7558 794.535 482.237
2103 1 43.0967 10.4184 449 87.412 794.521 500.71
2104 0 43.1148 8.48896 366 90.3279 793.615 500.022
2105 0 46.1426 10.6409 491 86.7923 794.161 498.035
2106 0 48.0416 10.5325 506 86.5968 795.083 499.514
2107 0 49.0923 10.3479 508 92.1122 794.626 496.693
2108 0 50.1347 10.8308 543 94.2597 794.805 496.112
2109 0 54.2392 12.1315 658 97.4544 795.07 490.922
2110 0 55.1266 12.0631 665 97.7113 795.317 493.241
2111 0 57.075 11.6688 666 98.2958 795.383 493.215
2112 0 56.0651 12.1109 679 98.4389 795.119 492.677
2113 0 59.1141 12.7888 756 95.9048 795.269 491.972
2114 0 63.1407 12.3058 777 97.1712 795.358 489.178
2115 0 62.1196 12.3793 769 97.3901 795.398 489.13
2116 0 65.1068 12.8712 838 95.969 795.442 486.763
2117 0 65.2198 12.2815 801 98.3046 795.141 488.401
2118 0 69.1433 12.5392 867 97.2053 794.826 486.338
2119 0 69.2502 12.361 856 98.7126 795.131 486.478
2120 0 73.2263 12.6184 924 95.3301 795.145 485.302
2121 0 75.2705 12.2757 924 95.921 794.689 481.131
2122 0 77.1201 12.0072 926 95.6987 794.976 482.388
2123 0 80.2349 12.1892 978 94.8078 795.589 480.843
2124 0 83.1328 12.2695 1020 93.3275 794.946 479.351
2125 0 85.218 12.4152 1058 91.4565 796.547 480.04
2126 0 85.218 12.38 1055 153.163 798.553 479.979
2127 0 89.193 12.5346 1118 90.9767 795.803 477.501
2128 0 93.2854 11.8561 1106 91.5118 796.051 476.856
2129 0 96.1809 11.4368 1100 91.9564 795.502 474.38
2130 1 53.1138 10.7693 572 85.7517 795.682 495.701
2131 0 54.0639 10.2101 552 86.9402 795.839 495.962
2132 0 55.1116 10.8688 599 86.1302 795.721 494.085
2133 0 57.1886 11.3834 651 88.2642 794.957 493.267
2134 0 59.1256 11.6193 687 92.6798 795.68 491.32
2135 0 59.2359 12.5093 741 93.2767 796.916 491.217
2136 0 60.2294 12.6018 759 92.6403 796.082 490.437
2137 0 62.1172 12.2671 762 92.5354 796.343 489.122
2138 0 63.0724 12.1606 767 92.2269 796.356 488.497
2139 0 67.1472 12.4354 835 91.4503 796.265 486.602
2140 0 70.1949 12.2943 863 90.9073 796.952 486.327
2141 0 69.2612 12.4745 864 93.6308 796.485 485.637
2142 0 72.2033 12.9911 938 92.2793 796.376 485.399
2143 0 73.1671 12.2733 898 94.9555 796.208 485.139
2144 0 74.1142 12.4133 920 95.9109 796.252 483.08
2145 0 78.107 13.3023 1039 93.6939 795.962 482.689
2146 0 78.1361 13.1693 1029 95.9922 796.376 481.492
2147 0 82.1183 12.823 1053 96.8395 796.153 480.018
2148 0 85.1285 13.556 1154 93.4645 796.643 480.376
2149 0 88.1025 13.7 1207 94.5054 796.513 477.84
2150 0 91.1419 13.5722 1237 95.2781 796.486 476.023
2151 0 93.1408 14.1828 1321 94.6389 795.831 474.363
2152 0 93.1339 12.9813 1209 98.9123 796.197 472.988
2153 0 97.098 13.6151 1322 97.3971 796.943 473.323
2154 0 101.135 13.5265 1368 97.8399 796.977 472.657
2155 0 104.189 13.6771 1425 97.1607 796.901 471.44
2156 0 106.176 13.4965 1433 98.2442 796.789 469.095
2157 0 109.144 13.5784 1482 102.401 796.579 466.665
2158 0 114.206 13.7033 1565 98.4486 795.911 467.176
2159 1 58.1277 10.4253 606 93.8762 797.162 496.109
2160 0 61.158 11.315 692 92.1792 797.139 494.419
2161 0 61.1124 10.947 669 94.5665 796.644 494.079
2162 0 62.1031 11.658 724 94.8191 796.907 491.492
2163 0 65.1509 11.2968 736 98.0679 796.795 490.971
2164 0 66.2193 11.3109 749 100.656 797.011 489.637
2165 0 68.1121 11.4958 783 102.079 796.894 488.31
2166 0 71.1237 12.415 883 99.4881 796.236 486.815
2167 0 72.1654 11.2658 813 101.733 797.151 487.191
2168 0 75.263 11.9049 896 101.34 796.426 485.434
2169 0 78.1107 11.6885 913 100.623 796.775 482.48
2170 0 81.2039 12.2777 997 97.5697 796.735 482.282
2171 0 85.2166 12.4858 1064 96.8459 796.763 480.461
2172 0 85.1594 12.095 1030 99.0883 796.522 478.966
2173 0 87.1612 12.0581 1051 98.6927 797.257 477.406
2174 0 89.1103 11.4689 1022 101.382 796.75 476.261
2175 0 89.1103 11.5363 1028 147.388 796.752 476.242
2176 0 93.1994 12.4035 1156 99.3434 797.321 473.858
2177 0 97.1468 12.4863 1213 99.2993 796.843 472.735
2178 0 101.168 13.008 1316 97.9324 797.128 470.603
2179 0 105.177 12.3506 1299 97.8899 797.906 470.123
2180 0 106.213 12.2207 1298 98.4299 797.72 467.933
2181 0 110.124 12.159 1339 97.8252 797.329 465.243
2182 0 112.203 11.7109 1314 98.7686 797.331 463.881
2183 0 118.207 12.4951 1477 97.4902 797.531 463.697
2184 0 120.12 12.6207 1516 97.7836 797.546 461.836
2185 0 124.213 12.1888 1514 100.051 796.993 459.172
2186 0 127.187 11.7543 1495 100.373 796.961 457.234
2187 0 130.185 12.0982 1575 100.907 797.338 454.217
2188 0 136.191 12.0199 1637 101.497 797.115 454.123
2189 0 139.136 12.4195 1728 102.49 796.782 452.549
2190 0 143.179 12.6764 1815 103.006 797.382 451.569
2191 0 148.214 12.5697 1863 104.777 797.008 445.984
2192 0 153.217 13.073 2003 104.35 797.245 443.952
2193 0 158.179 12.96 2050 104.921 797.516 445.023
2194 0 162.238 13.1412 2132 104.267 797.437 441.789
2195 0 168.2 13.151 2212 105.076 797.488 438.56
2196 0 173.183 13.4597 2331 106.153 797.248 438.421
2197 0 178.186 13.9293 2482 107.214 797.426 434.518
2198 0 183.239 13.3268 2442 108.978 797.223 431.552
2199 0 187.269 13.5901 2545 110.09 797.915 431.65
2200 0 193.26 13.6345 2635 112.925 798.09 426.008
2201 0 200.176 14.5072 2904 112.792 797.694 421.048
2202 0 208.182 14.5546 3030 112.434 797.221 420.226
2203 1 155.137 11.5189 1787 115.932 796.572 447.98
2204 0 160.118 12.8593 2059 113.208 797.842 445.768
2205 0 160.117 12.8594 2059 169.919 798.827 445.564
2206 0 170.168 12.1527 2068 109.951 797.215 436.971
2207 0 178.163 13.28 2366 115.962 796.27 432.341
2208 0 184.179 13.7909 2540 114.693 796.728 429.725
2209 0 189.146 13.1909 2495 116.073 796.53 429.043
2210 0 194.141 13.1038 2544 117.65 796.902 425.028
2211 0 200.24 12.8396 2571 119.186 795.906 422.249
2212 0 208.278 13.4388 2799 118.249 796.439 420.244
2213 1 50.0351 9.49334 475 98.0295 796.947 499.229
2214 0 53.1031 10.2631 545 98.6936 796.862 499.668
2215 0 55.0815 10.784 594 98.5017 796.5 496.559
2216 0 54.1074 10.7564 582 100.321 796.481 496.51
2217 0 57.1444 10.9022 623 100.353 796.172 495.22
2218 0 60.1936 10.4995 632 101.622 795.916 494.6
2219 0 61.2449 10.858 665 100.559 796.096 494.299
2220 0 63.134 11.2934 713 100.37 796.47 492.585
2221 0 66.2024 11.48 760 98.6289 796.238 492.13
2222 0 67.2309 11.2448 756 99.9153 795.914 490.112
2223 0 68.141 11.3148 771 100.62 796.437 490.422
2224 0 70.1599 11.431 802 101.268 796.338 490.38
2225 0 71.1501 10.9487 779 102.592 795.32 487.574
2226 0 74.1965 11.2809 837 101.473 796.213 487.761
2227 0 74.1523 11.8405 878 100.784 795.886 485.715
2228 0 78.115 11.2526 879 101.407 796.104 485.257
2229 0 79.1562 11.1678 884 101.688 795.721 484.713
2230 0 81.1176 10.9224 886 102.872 796.252 482.532
2231 0 85.0912 11.6111 988 100.415 795.853 480.318
2232 1 41.1078 9.4386 388 98.4794 796.624 502.771
2233 0 45.1708 9.47515 428 93.5981 796.75 501.614
2234 0 40.0135 9.07195 363 87.0606 796.862 501.879
2235 0 46.0284 9.9721 459 95.4706 795.919 499.174
2236 0 48.0689 10.9842 528 93.7083 794.962 497.735
2237 0 50.0572 10.3681 519 94.9114 795.628 499.353
2238 0 49.0298 10.7078 525 95.4057 795.12 499.701
2239 0 51.023 10.8578 554 95.0433 794.879 498.04
2240 0 49.0891 9.51331 467 94.6724 794.43 501.606
2241 0 54.0575 10.4703 566 95.9505 794.781 496.604
2242 0 54.051 11.0081 595 96.1731 795.314 493.687
2243 0 55.0978 10.5993 584 96.399 795.159 497.599
2244 0 55.0593 10.4978 578 91.6817 794.49 497.841
2245 0 55.1151 10.6142 585 91.588 795.347 497.111
2246 0 55.113 10.5601 582 92.0567 795.115 497.527
2247 0 60.0906 10.6007 637 91.5934 794.973 496.11
2248 0 65.064 11.189 728 95.6044 795.161 491.438
2249 0 65.0577 11.6819 760 94.8763 795.689 491.542
2250 0 65.0354 11.2093 729 96.6063 795.276 489.955
2251 0 68.0602 10.9315 744 96.9449 795.507 488.798
2252 0 71.1114 11.4468 814 95.1671 795.199 489.501
2253 0 74.0744 11.6504 863 94.8204 795.105 488.419
2254 0 76.148 11.7928 898 95.3853 795.855 487.59
2255 0 77.1249 12.3436 952 94.5809 796.155 486.688
2256 0 79.104 11.9969 949 96.5184 795.579 485.36
2257 0 81.1483 12.2985 998 97.2275 796.251 484.82
2258 0 83.1622 12.3734 1029 98.001 795.623 483.128
2259 0 86.1505 12.6407 1089 98.1148 795.41 481.95
2260 0 89.2579 12.8728 1149 98.3151 796.317 481.919
2261 0 91.2762 13.1469 1200 98.58 795.849 479.331
2262 0 93.1835 13.2427 1234 100.625 794.927 478.776
2263 0 94.1375 12.9916 1223 101.835 795.819 478.405
2264 0 97.1809 13.161 1279 102.022 795.733 478.775
2265 0 100.224 13.4798 1351 101.074 795.93 477.679
2266 0 103.172 12.9687 1338 103.885 795.717 474.81
2267 0 106.296 13.9045 1478 100.133 795.977 475.9
2268 0 108.21 13.7695 1490 101.868 796.091 473.936
2269 0 110.343 13.4399 1483 103.194 796.133 471.586
2270 0 112.349 13.8497 1556 102.08 795.504 470.257
2271 0 116.318 13.7469 1599 102.006 796.222 469.36
2272 0 121.297 14.3037 1735 99.7539 796.211 468.168
2273 0 122.327 13.9626 1708 101.097 795.885 466.272
2274 0 127.352 14.1184 1798 99.6452 795.842 464.254
2275 0 131.379 14.8578 1952 97.4974 795.766 463.602
2276 0 135.509 14.4492 1958 98.4479 795.538 461.813
2277 0 139.507 13.8775 1936 99.4561 795.357 458.812
2278 0 142.346 14.3243 2039 98.2138 795.632 458.765
2279 0 144.236 13.6928 1975 98.4486 795.465 456.497
2280 0 151.242 13.5478 2049 96.896 795.378 454.238
2281 0 154.23 13.2594 2045 96.4758 795.809 450.314
2282 0 158.31 13.5809 2150 96.5107 795.987 447.966
2283 0 162.232 13.3698 2169 97.3029 795.582 446.207
2284 0 166.233 12.9998 2161 97.4313 794.999 441.911
2285 0 172.143 13.3668 2301 96.7697 794.997 441.638
2286 0 175.183 12.9522 2269 97.9978 794.482 439.103
2287 0 180.138 13.423 2418 97.2849 795.695 434.833
2288 0 185.146 12.8331 2376 99.7332 795.7 431.832
2289 0 190.269 12.9606 2466 99.8564 795.601 432.628
2290 0 196.287 13.9184 2732 99.3261 795.624 426.666
2291 0 202.211 13.481 2726 101.474 795.12 424.708
2292 0 206.105 12.5276 2582 104.391 795.257 421.997
2293 0 212.242 13.1501 2791 101.342 795.875 419.092
2294 0 222.26 13.5382 3009 101.639 795.659 415.941
2295 0 229.217 14.2965 3277 103.641 795.782 413.425
2296 0 234.188 13.4806 3157 105.817 795.324 406.675
2297 1 57.0235 9.34702 533 84.4897 796.587 498.507
2298 0 59.1795 10.409 616 84.9107 794.849 492.82
2299 0 61.0935 10.2957 629 84.8474 794.913 492.056
2300 0 65.2009 12.2391 798 91.5902 795.917 493.946
2301 0 66.245 12.0915 801 92.2572 795.566 495.635
2302 0 66.2425 12.1221 803 148.836 795.557 495.695
2303 0 70.2889 11.8226 831 93.8159 794.219 492.102
2304 0 71.1462 12.1018 861 93.9675 795.084 490.919
2305 0 73.2807 11.8995 872 94.8624 794.818 490.4
2306 0 76.2064 12.9123 984 91.876 795.934 488.688
2307 0 79.1421 13.2673 1050 91.0933 795.493 485.09
2308 0 79.2254 11.6124 920 96.4924 796.001 485.999
2309 0 80.315 12.1895 979 95.2533 796.219 486.418
2310 0 81.2531 11.9134 968 96.8719 796.026 484.191
2311 0 87.2084 12.1319 1058 95.5369 796.178 482.27
2312 0 88.1913 12.9151 1139 93.7515 796.286 481.411
2313 0 95.1377 14.3897 1369 87.195 795.787 477.369
2314 0 95.1152 14.0566 1337 88.1107 795.987 476.141
2315 0 90.0243 11.6968 1053 93.7312 795.877 477.785
2316 0 93.0754 11.625 1082 94.3235 795.835 478.419
2317 0 95.1041 11.4191 1086 95.3407 794.587 474.604
2318 0 100.084 11.9 1191 92.9211 795.086 474.938
2319 1 49.0639 9.78315 480 89.8167 794.698 498.073
2320 0 49.0242 9.75028 478 91.8096 794.787 496.849
2321 0 54.0399 9.99262 540 91.6056 794.594 496.267
2322 0 57.0244 10.8199 617 93.3209 794.543 492.684
2323 0 61.0273 11.4047 696 91.0647 794.728 493.451
2324 0 60.0152 11.3638 682 93.0557 795.133 491.836
2325 0 64.0193 12.0901 774 90.469 795.651 490.057
2326 0 64.0493 11.6473 746 92.693 795.185 487.491
2327 0 65.0473 11.238 731 90.6758 795.491 488.733
2328 0 70.052 11.9768 839 91.9702 795.762 483.077
2329 0 71.0915 12.0971 860 92.2802 795.687 483.792
2330 0 74.0601 12.7059 941 91.5569 796.478 481.939
2331 0 75.1132 12.5544 943 94.2927 795.852 481.661
2332 0 75.1132 12.5278 941 149.665 795.851 481.545
2333 0 78.0958 12.8688 1005 94.6129 796.081 481.379
2334 0 82.0975 12.9358 1062 93.0386 796.496 481.965
2335 0 84.1004 12.4375 1046 94.1033 796.755 480.498
2336 0 85.058 12.3092 1047 90.638 797.463 481.985
2337 0 89.1009 12.9516 1154 89.7253 797.066 477.927
2338 0 90.083 12.4996 1126 91.151 796.889 477.061
2339 0 95.1569 13.0626 1243 92.0555 796.869 473.201
2340 0 97.1002 12.4511 1209 93.1216 797.084 473.046
2341 0 101.071 13.1393 1328 90.5617 796.929 471.746
2342 0 103.17 12.6394 1304 89.5161 797.076 471.431
2343 0 106.085 12.5088 1327 92.2125 797.416 468.72
2344 0 106.097 12.4886 1325 138.225 797.426 468.772
2345 0 112.092 13.0964 1468 89.5565 796.567 466.869
2346 0 114.097 12.6647 1445 90.3017 796.55 465.417
2347 0 118.175 11.8722 1403 91.3122 796.21 464.684
2348 0 120.22 12.2359 1471 90.9252 796.845 462.365
2349 0 126.208 12.5745 1587 89.4367 796.595 462.382
2350 1 69.0703 10.8151 747 85.158 795.199 489.523
2351 0 71.0622 11.6236 826 83.4855 795.031 487.99
2352 0 75.0742 11.6018 871 81.7704 794.363 487.238
2353 0 75.0571 11.8177 887 86.584 794.592 486.829
2354 0 78.0706 12.5399 979 87.716 794.981 484.93
2355 0 81.0718 12.8405 1041 88.2507 794.81 483.891
2356 0 83.0939 12.7206 1057 89.6026 794.262 482.988
2357 0 83.1203 12.6564 1052 91.769 794.679 481.99
2358 0 88.1535 13.1021 1155 90.9307 794.794 481.588
2359 0 90.1985 13.0933 1181 92.3184 793.892 482.037
2360 0 90.0474 12.5712 1132 89.0106 793.917 480.205
2361 0 91.0673 12.4304 1132 91.3648 793.636 478.33
2362 0 93.0336 12.2966 1144 91.4493 793.842 478.897
2363 0 97.0613 12.4973 1213 91.6851 793.306 477.192
2364 0 100.114 12.1561 1217 94.3279 793.081 475.659
2365 1 54.067 8.93335 483 92.7143 793.07 501.104
2366 0 55.0667 9.78812 539 89.0705 792.837 501.937
2367 0 56.042 10.3494 580 86.7224 793.147 501.712
2368 0 59.0988 10.7447 635 88.2079 793.165 499.172
2369 0 62.0612 11.8754 737 94.0651 794.193 500.009
2370 0 63.0639 11.6549 735 97.7306 792.769 497.607
2371 0 67.1105 11.7567 789 97.4867 793.414 496.748
2372 0 70.052 11.9625 838 97.5907 793.857 493.672
2373 0 72.0428 12.8951 929 97.071 793.888 491.925
2374 0 75.0676 13.0282 978 96.9029 793.409 489.373
2375 0 76.0329 12.4683 948 99.6308 793.763 487.231
2376 0 77.0413 11.9157 918 101.59 793.542 486.38
2377 0 81.0709 12.3842 1004 100.107 794.13 486.191
2378 0 83.0498 12.342 1025 99.7678 793.615 485.01
2379 0 89.0256 12.9176 1150 98.0148 793.82 481.829
2380 0 90.0393 12.3502 1112 100.359 794.039 481.294
2381 0 93.0649 12.862 1197 99.1654 793.925 478.225
2382 0 94.1016 12.0721 1136 101.018 793.578 475.79
2383 0 96.064 12.7415 1224 100.132 793.382 475.476
2384 0 100.049 12.7937 1280 99.45 793.188 472.493
2385 0 102.166 12.7537 1303 100.071 794.023 471.872
2386 0 105.071 12.3346 1296 101.321 793.542 468.803
2387 0 110.109 12.524 1379 100.121 792.962 468.376
2388 0 114.091 12.5777 1435 99.0571 793.654 464.325
2389 0 118.145 12.5863 1487 98.6026 793.618 462.739
2390 0 120.151 12.0682 1450 101.954 793.903 461.492
2391 0 126.089 12.7767 1611 96.7027 793.798 459.579
2392 0 129.16 12.0393 1555 99.6868 793.495 457.626
2393 0 134.096 11.9094 1597 100.341 793.745 454.99
2394 1 71.0358 9.95272 707 92.5714 794.426 484.736
2395 0 73.0521 10.4446 763 92.0328 794.342 482.433
2396 0 77.1455 10.7978 833 90.0732 794.912 481.445
2397 0 76.1323 9.64111 734 93.4005 794.331 479.531
2398 0 82.1456 10.4205 856 90.0935 794.516 479.598
2399 0 84.082 10.24 861 90.2799 794.322 474.605
2400 0 88.112 10.7136 944 88.3453 794.217 474.443
2401 0 91.1254 10.0411 915 90.1716 794.56 472.469
2402 0 93.1278 9.5675 891 91.22 794.566 470.483
2403 0 93.1357 10.2968 959 90.2961 794.908 468.512
2404 0 98.1255 10.0178 983 89.6368 795.275 465.106
2405 0 95.1369 9.6913 922 82.1258 795.007 463.594
2406 0 102.098 9.55946 976 86.792 794.873 465.765
2407 0 101.074 9.775 988 86.83 795.867 463.129
2408 0 106.162 10.6535 1131 85.1149 795.659 459.455
2409 0 109.148 10.4354 1139 84.9807 795.611 457.352
2410 0 113.177 9.31284 1054 85.8966 795.392 458.16
2411 0 117.248 8.97246 1052 85.6911 795.968 454.106
2412 1 79.067 7.31026 578 87.4273 796.1 482.851
2413 0 80.1276 7.99974 641 84.3526 796.897 485.392
2414 0 79.0588 7.79167 616 85.4886 796.383 483.789
2415 0 80.1308 7.83719 628 85.7755 797.01 481.524
2416 0 80.0504 9.56898 766 80.7219 796.76 479.39
2417 0 86.2129 11.4136 984 77.0305 796.832 479.393
2418 0 89.07 11.025 982 81.0224 796.411 479.339
2419 0 91.0902 11.022 1004 79.9811 796.165 476.514
2420 0 93.0788 11.5923 1079 80.6274 795.72 473.754
2421 0 94.1331 11.1757 1052 81.3897 796.133 473.471
2422 0 98.1728 11.6427 1143 79.958 795.566 472.774
2423 0 102.158 11.0809 1132 80.9947 795.768 471.613
2424 0 103.142 11.0527 1140 81.5263 795.782 470.884
2425 0 107.24 11.1525 1196 81.4849 795.654 468.569
2426 0 110.253 11.1743 1232 81.8636 795.152 463.549
2427 0 111.215 10.9967 1223 82.6917 795.483 463.643
2428 0 117.304 11.824 1387 80.8039 796.602 461.707
2429 0 121.275 12.1624 1475 80.8915 795.858 460.857
2430 0 123.353 11.9413 1473 82.0048 795.989 460.888
2431 0 127.295 11.8701 1511 83.1092 795.85 456.375
2432 1 69.2988 9.81258 680 82.225 795.404 487.619
2433 0 73.2233 10.1334 742 82.1981 795.084 486.872
2434 0 73.321 10.2426 751 77.7364 795.69 484.964
2435 0 77.3033 11.2026 866 74.9734 796.048 484.902
2436 0 80.3083 11.6426 935 82.9241 796.353 484.574
2437 0 83.2544 11.627 968 83.2273 796.026 483.382
2438 0 84.2591 11.975 1009 83.8394 796.223 481.911
2439 0 87.2641 12.0095 1048 84.9628 795.628 481.526
2440 0 90.3029 12.2144 1103 85.6981 796.391 479.329
2441 0 93.2478 12.0003 1119 84.3986 796.052 479.122
2442 0 97.2577 11.9476 1162 85.8993 796.218 477.602
2443 0 99.2088 12.2973 1220 85.9311 796.192 476.371
2444 0 102.258 12.4684 1275 86.3451 795.469 474.508
2445 0 105.211 11.8904 1251 88.0216 795.616 474.002
2446 0 110.219 12.3754 1364 85.6444 795.453 470.221
2447 1 60.136 9.94413 598 82.9548 796.229 495.849
2448 0 62.0763 10.8093 671 78.7988 796.282 497.06
2449 0 64.1184 11.3696 729 75.7366 796.737 496.654
2450 0 64.2037 11.0118 707 79.0057 796.614 495.82
2451 0 66.1529 11.7153 775 80.0335 796.306 494.138
2452 0 68.0995 11.8356 806 83.1911 795.522 492.971
2453 0 69.1071 12.3576 854 81.9496 795.266 492.426
2454 0 73.1364 12.4425 910 86.5527 794.541 488.865
2455 0 73.0938 12.696 928 86.4504 794.741 488.102
2456 0 76.0603 12.8056 974 83.7936 795.297 489.188
2457 0 75.0845 12.7323 956 85.182 794.772 487.138
2458 0 79.0805 12.3039 973 84.9517 795.27 485.856
2459 0 82.1302 13.4664 1106 82.1148 796.344 484.622
2460 0 84.0787 13.2138 1111 82.6535 795.524 483.87
2461 0 87.0886 12.9294 1126 83.4449 794.695 482.451
2462 0 88.1279 12.9811 1144 83.8969 795.498 481.837
2463 0 88.1677 13.1114 1156 84.923 795.54 479.333
2464 0 92.1476 12.8272 1182 85.0186 795.464 478.981
2465 0 95.2138 13.2334 1260 83.8397 795.606 478.058
2466 0 97.2698 13.3032 1294 82.507 796.183 477.855
2467 0 101.124 13.1621 1331 82.2382 795.906 477.108
2468 0 104.151 13.058 1360 82.6243 796.229 475.98
2469 0 105.27 13.1852 1388 82.0728 796.274 475.209
2470 0 106.178 12.7521 1354 84.291 795.63 471.99
2471 0 111.19 12.69 1411 83.5549 795.972 469.561
2472 0 113.289 13.2051 1496 83.9037 795.967 468.424
2473 0 117.085 12.871 1507 85.3557 796.271 467.87
2474 0 119.144 13.1102 1562 86.2055 795.404 466.2
2475 0 122.144 12.4444 1520 88.2783 796.477 465.661
2476 0 126.209 12.8913 1627 88.4905 795.897 462.107
2477 0 129.158 12.6357 1632 90.0668 795.85 460.433
2478 0 134.155 13.3726 1794 88.3857 796.399 461.43
2479 0 139.129 13.7929 1919 88.7009 796.352 458.43
2480 0 142.155 13.4149 1907 90.8537 795.969 455.43
2481 0 147.09 13.8147 2032 90.8199 795.834 452.988
2482 0 152.193 13.7128 2087 91.9516 796.333 451.33
2483 0 154.145 13.7857 2125 93.2494 796.334 449.479
2484 0 162.162 14.4361 2341 89.3148 796.053 446.785
2485 0 167.2 14.073 2353 92.4862 795.425 444.022
2486 0 173.2 14.5843 2526 91.9667 795.501 441.639
2487 0 176.262 13.9452 2458 95.1517 796.27 438.581
2488 0 181.175 14.3397 2598 96.0982 796.372 435.913
2489 0 188.201 14.0329 2641 97.1098 795.685 431.166
2490 0 194.16 14.1636 2750 97.676 795.67 428.064
2491 0 199.31 13.9932 2789 98.976 795.642 424.357
2492 0 205.294 14.5061 2978 99.2347 795.407 422.901
2493 0 208.337 14.3373 2987 101.01 795.682 418.944
2494 0 213.283 14.0189 2990 102.868 795.831 414.786
2495 0 219.231 14.3821 3153 101.423 796.036 410.748
2496 0 227.257 14.5122 3298 102.044 795.769 407.795
2497 0 227.252 13.8657 3151 103.977 795.966 401.758
2498 0 231.17 13.7907 3188 104.819 795.545 398.066
2499 0 238.264 14.081 3355 104.434 795.085 394.143
2500 0 245.216 14.318 3511 104.093 795.535 390.084
2501 0 256.177 14.3417 3674 104.397 794.877 384.328
2502 0 264.202 14.33 3786 104.796 795.355 381.498
2503 1 56.0438 7.99374 448 81.5915 796.234 489.435
2504 0 56.0562 8.47363 475 79.3179 795.722 489.739
2505 0 58.0851 8.62528 501 81.2555 795.395 486.551
2506 0 61.0656 8.56455 523 82.0019 795.47 486.637
2507 0 68.0522 9.71314 661 88.4569 795.856 486.172
2508 0 69.0472 9.79041 676 89.6139 796.05 485.756
2509 0 71.0455 9.95137 707 91.0679 794.914 484.762
2510 0 75.0698 10.3903 780 89.9205 795.046 484.324
2511 0 78.0818 10.2329 799 92.433 794.997 481.309
2512 0 81.057 10.03 813 93.3887 795.141 480.699
2513 0 82.0563 10.0541 825 93.9285 794.542 479.713
2514 0 88.0964 11.408 1005 91.6129 794.596 477.323
2515 0 91.0697 11.321 1031 91.1775 794.632 476.449
2516 0 91.064 11.1021 1011 91.9387 794.526 477.277
2517 0 96.0849 11.7396 1128 90.4805 794.665 473.01
2518 0 96.0555 11.2123 1077 93.9814 794.49 473.033
2519 0 97.0379 11.4285 1109 92.9666 794.651 472.718
2520 0 99.1017 10.4943 1040 89.9288 794.421 472.596
2521 0 101.132 10.333 1045 93.3502 794.576 469.657
2522 0 102.114 10.2337 1045 94.8172 794.156 469.34
2523 0 106.152 11.2951 1199 95.2485 793.999 467.24
2524 0 109.125 10.8866 1188 95.7003 793.423 466.511
2525 0 111.17 11.217 1247 96.1051 793.87 464.642
2526 0 118.165 13.4473 1589 89.6394 793.432 455.901
2527 0 116.117 11.342 1317 98.1519 793.69 457.904
2528 1 129.15 15.7801 2038 82.659 793.776 456.668
2529 0 129.178 12.8118 1655 93.061 793.918 458.461
2530 0 132.21 13.0474 1725 92.8707 794.443 456.292
2531 0 137.162 13.5387 1857 92.4335 794.429 454.239
2532 0 139.168 13.4514 1872 93.578 794.24 453.256
2533 0 141.121 13.3857 1889 96.0572 794.215 450.427
2534 0 146.148 13.5206 1976 95.8497 793.993 447.878
2535 0 149.188 13.4528 2007 96.9492 793.662 445.991
2536 0 152.241 12.6182 1921 99.0146 794.122 447.411
2537 0 156.193 12.9263 2019 98.9965 793.738 443.655
2538 0 159.214 12.8883 2052 101.218 793.612 442.032
2539 0 162.198 12.4971 2027 101.808 794.471 438.515
2540 0 167.344 12.8179 2145 101.186 794.399 436.379
2541 0 172.129 13.2865 2287 100.794 795.006 433.422
2542 0 179.369 13.4639 2415 100.634 794.031 428.788
2543 0 184.234 13.434 2475 101.791 794.888 427.206
2544 0 188.35 13.3316 2511 103.384 794.277 425.026
2545 0 194.185 14.0845 2735 102.95 794.7 423.875
2546 0 199.325 13.2347 2638 107.669 794.48 417.904
2547 0 206.487 14.2479 2942 104.501 793.881 417.021
2548 0 212.326 14.0162 2976 104.984 793.371 412.712
2549 0 218.44 13.6422 2980 106.688 794.54 407.943
2550 1 163.483 11.6648 1907 107.152 794.007 439.125
2551 0 168.235 12.1794 2049 106.676 794.397 435.644
2552 0 171.361 13.2235 2266 105.898 794.459 434.397
2553 0 176.308 13.1815 2324 107.571 795.806 431.682
2554 0 181.3 12.9178 2342 107.898 796.452 428.411
2555 0 188.354 12.7526 2402 108.164 795.908 427.302
2556 0 193.3 12.8039 2475 108.878 796.267 422.423
2557 0 199.246 12.7782 2546 109.792 796.724 418.194
2558 0 206.291 12.9332 2668 110.24 795.174 416.974
2559 0 213.245 13.2476 2825 108.246 794.792 414.034
2560 0 218.351 12.6494 2762 109.585 793.891 406.712
2561 0 225.34 12.9893 2927 109.574 794.861 403.233
2562 0 230.323 12.9557 2984 110.508 794.798 396.599
2563 0 238.336 13.6236 3247 108.37 794.929 398.144
2564 0 241.321 13.0614 3152 111.593 794.833 392.083
2565 0 253.246 13.9272 3527 107.705 794.707 391.084
2566 0 258.405 13.4943 3487 110.541 794.431 386.513
2567 0 266.5 13.7523 3665 110.305 795.003 380.619
2568 0 273.439 13.279 3631 112.093 794.47 377.156
2569 0 280.54 13.4241 3766 113.585 794.433 371.823
2570 1 225.343 6.35919 1433 112.139 794.948 431.631
2571 0 224.322 5.96911 1339 114.827 795.062 426.684
2572 0 226.417 7.36253 1667 111.876 795.037 426.144
2573 0 226.262 10.2359 2316 112.154 794.765 407.604
2574 0 231.343 11.0529 2557 110.299 794.183 401.326
2575 0 238.314 12.0639 2875 108.097 794.509 399.965
2576 0 246.347 12.1698 2998 108.476 794.892 394.387
2577 0 253.364 12.4603 3157 108.725 794.612 388.799
2578 0 261.368 12.5149 3271 109.175 795.354 387.227
2579 0 268.349 12.875 3455 109.036 795.352 378.837
2580 0 276.406 12.3044 3401 111.277 794.893 377.936
2581 0 286.308 12.7904 3662 110.392 794.643 370.741
2582 0 297.42 13.0489 3881 109.97 795.513 367.56
2583 0 308.403 12.9149 3983 111.327 795.72 362.705
2584 0 317.391 15.2462 4839 103.527 795.536 355.256
2585 0 317.384 15.2528 4841 159.304 795.535 355.318
2586 0 335.412 15.2708 5122 104.467 795.319 342.931
2587 0 347.464 15.5959 5419 103.137 794.791 335.005
2588 0 358.351 15.8616 5684 101.428 795.492 332.134
2589 0 369.306 15.2827 5644 103.837 795.484 325.94
2590 0 380.431 15.3642 5845 103.343 795.562 321.06
2591 0 390.506 15.2674 5962 103.807 795.544 312.535
2592 1 329.393 13.5127 4451 110.329 795.856 342.702
2593 0 337.481 15.5239 5239 105.777 795.931 308.117
2594 0 346.397 15.7969 5472 104.691 795.417 310.466
2595 0 356.556 16.1293 5751 103.373 795.753 311.024
2596 0 364.59 15.165 5529 107.016 795.748 306.48
2597 0 375.677 15.2285 5721 107.01 795.74 303.547
2598 0 389.667 16.0291 6246 104.158 794.654 300.358
2599 0 402.65 16.0611 6467 102.864 794.863 297.848
2600 0 408.68 16.2719 6650 102.875 794.825 291.677
2601 0 412.497 15.9468 6578 104.42 795.877 291.863
2605 0 417.807 17.0485 7123 101.85 796.173 291.078
2606 0 420.346 15.58 6549 104.337 795.833 291.492
2607 0 422.488 15.5555 6572 104.965 796.529 293.171
2608 1 113.295 13.1251 1487 68.4089 796.218 467.64
2609 0 104.171 15.5706 1622 76.7633 796.29 462.511
2610 0 105.135 15.542 1634 76.8213 796.117 462.319
2611 0 107.187 15.0018 1608 78.9235 795.555 462.16
2612 0 110.18 15.157 1670 78.2467 795.509 461.64
2613 0 113.071 15.4593 1748 78.3667 795.809 458.799
2614 0 114.129 15.0969 1723 80.4968 795.616 456.489
2615 0 118.159 15.1152 1786 80.0879 795.247 455.533
2616 0 121.187 15.6618 1898 77.8045 795.233 454.661
2617 0 123.129 14.5051 1786 80.8768 795.847 451.519
2618 0 126.247 15.5489 1963 79.3469 795.973 449.414
2619 0 129.234 14.8336 1917 82.3443 796.798 447.705
2620 0 134.122 15.389 2064 80.6938 795.653 448.935
2621 0 138.193 15.3047 2115 81.5286 795.709 445.131
2622 0 141.212 15.2253 2150 80.8851 795.7 444.961
2623 0 144.245 15.543 2242 80.9099 796.789 440.672
2624 0 147.201 15.095 2222 83.1715 795.293 439.387
2625 0 149.218 14.9982 2238 83.0634 795.788 438.501
2626 0 154.246 14.3926 2220 84.8815 795.463 437.3
2627 0 159.192 14.448 2300 85.5478 795.487 435.869
2628 0 164.186 15.2388 2502 85.0835 795.163 432.833
2629 1 83.0959 10.4578 869 81.1692 794.631 478.855
2630 0 85.1104 10.9505 932 80.9045 794.769 478.676
2631 0 90.1114 11.7965 1063 79.8015 795.491 475.192
2632 0 91.0649 11.5742 1054 88.2514 796.156 475.48
2633 0 95.1936 12.3328 1174 85.8433 796.193 470.928
2634 0 95.08 12.1161 1152 88.0773 796.155 469.696
2635 0 97.1216 11.5628 1123 90.3072 796.093 469.476
2636 0 100.068 11.792 1180 89.972 795.741 470.398
2637 0 101.071 12.0707 1220 90.4295 795.663 471.155
2638 0 105.177 12.4171 1306 89.5444 796.033 470.505
2639 0 107.195 12.4913 1339 89.3226 796.399 468.993
2640 0 110.094 12.2895 1353 88.8263 794.31 467.331
2641 0 112.126 12.6643 1420 86.0606 794.888 465.124
2642 0 115.195 12.0231 1385 86.2498 795.242 465.924
2643 0 118.143 12.3918 1464 85.3122 795.152 464.21
2644 1 67.168 11.3447 762 86.6509 795.528 488.287
2645 0 66.0256 11.026 728 87.1964 795.18 488.942
2646 0 69.1228 11.2553 778 86.3072 795.409 487.716
2647 0 71.0721 11.3406 806 86.0248 795.665 486.29
2648 0 71.0269 11.6857 830 85.7687 795.143 485.282
2649 0 75.1321 11.8192 888 84.0495 795.236 483.212
2650 0 77.0703 11.7814 908 82.8833 796.024 482.718
2651 0 78.0797 12.0262 939 82.8211 795.619 480.938
2652 0 79.1313 12.1949 965 81.344 795.431 480.527
2653 0 82.1136 12.1052 994 80.4517 795.902 478.124
2654 0 84.1771 11.7847 992 80.9375 795.489 478.222
2655 0 86.1036 11.6023 999 81.3143 795.343 477.467
2656 0 87.0628 11.7386 1022 80.8708 795.715 475.802
2657 0 93.0775 12.409 1155 78.0632 795.623 474.434
2658 0 94.0785 11.703 1101 79.6576 795.153 471.889
2659 0 96.1505 11.9604 1150 77.9835 796.17 471.516
2660 0 99.1421 11.7105 1161 78.5797 796.201 469.78
2661 0 101.242 11.675 1182 79.8739 796.527 469.144
2662 0 103.15 11.8275 1220 79.3926 795.634 466.76
2663 0 108.134 11.3563 1228 78.263 795.752 469.035
2664 0 110.091 11.9355 1314 77.1743 795.126 466.932
2665 0 113.088 11.3805 1287 78.3489 795.87 464.705
2666 0 115.141 10.9778 1264 79.0886 794.83 462.113
2667 1 68.0445 10.5225 716 80.5489 794.511 484.176
2668 0 69.0894 11.1305 769 79.104 794.75 480.892
2669 0 73.1258 11.5007 841 77.1581 795.976 481.731
2670 0 77.0929 12.4655 961 75.7846 795.888 479.846
2671 0 81.1289 13.2998 1079 74.9277 796.104 481.412
2672 0 84.0806 12.9162 1086 76.1888 796.204 477.9
2673 0 86.1236 12.842 1106 75.8264 796.733 478.325
2674 0 86.1378 13.0024 1120 78.0214 796.601 476.114
2675 0 89.2217 12.7772 1140 78.8632 796.363 475.779
2676 0 90.1477 12.8567 1159 79.4728 796.587 474.355
2677 0 91.1071 12.6335 1151 80.8089 796.44 475.078
2678 0 95.1541 12.6847 1207 80.3977 796.632 471.488
2679 0 96.0861 12.6137 1212 82.0041 796.247 470.702
2680 0 102.08 12.6763 1294 80.619 795.011 469.066
2681 0 103.124 12.4899 1288 82.1351 795.962 470.191
2682 0 107.199 12.6773 1359 81.8124 795.585 467.757
2683 0 110.282 12.2051 1346 81.5936 795.766 466.948
2684 0 114.086 11.8858 1356 83.8709 795.051 463.996
2685 0 119.248 11.9918 1430 82.5098 794.918 463.758
2686 0 122.123 12.5612 1534 82.5782 794.572 459.292
2687 1 64.0771 11.1116 712 83.7795 794.517 487.5
2688 0 67.0993 11.6246 780 83.8256 795.095 487.955
2689 0 67.0362 11.7847 790 84.5582 795.085 487.539
2690 0 73.0671 12.8512 939 81.2971 794.709 486.528
2691 0 75.0825 12.9857 975 81.2831 795.04 486.292
2692 0 77.0976 12.335 951 83.0883 794.955 484.594
2693 0 79.0308 12.6027 996 83.7761 794.804 483.142
2694 0 81.0526 12.6214 1023 83.0792 794.346 482.227
2695 0 81.0612 12.324 999 82.9119 794.516 482.531
2696 0 85.0799 12.694 1080 80.4676 795.03 481.044
2697 0 90.0719 13.2561 1194 81.0452 795.267 479.256
2698 0 92.0939 13.2039 1216 81.9457 795.414 477.388
2699 0 95.1675 14.3011 1361 78.5878 794.867 476.497
2700 0 95.0746 13.3369 1268 82.7871 794.346 473.17
2701 0 100.112 13.5048 1352 80.6657 794.466 472.049
2702 0 103.146 13.3209 1374 81.7678 794.427 471.522
2703 0 105.122 14.1075 1483 81.6689 794.75 468.452
2704 0 111.126 14.5691 1619 80.3354 794.846 465.995
2705 0 110.184 13.5138 1489 84.9778 794.899 464.997
2706 0 116.092 13.4634 1563 85.2143 795.29 463.165
2707 0 119.137 13.623 1623 86.9396 795.421 463.362
2708 0 124.146 13.5727 1685 87.1715 794.615 460.357
2709 1 64.0906 10.844 695 93.3597 795.073 487.177
2710 0 66.0495 12.1273 801 94.8602 795.196 484.699
2711 0 72.0328 12.9247 931 92.1106 794.913 485.178
2712 0 71.0391 12.0356 855 98.5754 794.97 482.129
2713 0 75.0277 12.3021 923 97.8949 793.922 483.061
2714 0 77.0615 12.6263 973 98.1562 794.514 482.275
2715 0 80.0446 12.6929 1016 99.6624 794.122 479.841
2716 0 82.0322 12.8364 1053 100.72 794.628 479.804
2717 0 86.1025 12.7871 1101 101.838 794.549 477.275
2718 0 89.0549 12.6888 1130 103.913 794.579 476.61
2719 0 89.04 12.6123 1123 106.601 794.461 476.026
2720 0 93.1619 12.6769 1181 106.447 794.208 473.942
2721 0 93.0788 12.5807 1171 108.513 794.09 471.795
2722 0 95.0766 12.411 1180 109.615 794.468 470.71
2723 0 99.0979 12.7248 1261 109.061 794.388 469.691
2724 0 100.046 12.4543 1246 111.495 794.514 466.714
2725 0 104.087 12.5376 1305 110.786 794.201 467.411
2726 0 106.077 12.1327 1287 113.34 794.851 464.232
2727 0 110.086 12.6992 1398 112.064 794.078 461.956
2728 0 114.064 13.0103 1484 110.885 795.015 460.965
2729 0 118.099 12.5742 1485 112.38 795.475 457.319
2730 0 124.135 12.6234 1567 111.764 795.922 456.651
2731 0 129.154 12.8684 1662 110.548 795.411 453.744
2732 0 134.118 13.2197 1773 109.637 795.723 452.381
2733 0 139.125 13.3478 1857 107.68 795.227 449.146
2734 0 143.13 12.6249 1807 108.57 795.05 447.478
2735 0 149.103 12.4679 1859 108.848 795.364 444.623
2736 0 156.099 12.3576 1929 109.237 795.382 442.541
2737 0 160.137 12.8328 2055 107.931 795.42 438.187
2738 1 88.0666 10.5602 930 97.7602 795.859 474.984
2739 0 94.0433 11.5904 1090 108.202 795.88 463.485
2740 0 97.1296 13.065 1269 113.259 795.169 463.116
2741 0 99.0856 12.6254 1251 114.002 795.309 461.606
2742 0 103.039 13.0534 1345 111.755 795.255 460.133
2743 0 105.058 12.8596 1351 111.016 794.973 458.54
2744 0 108.068 12.6957 1372 111.652 795.958 456.457
2745 0 110.1 12.3433 1359 106.66 795.481 457.837
2746 0 108.163 11.7045 1266 107.359 795.609 457.478
2747 0 113.076 11.6912 1322 104.387 795.079 457.722
2748 0 119.065 12.2706 1461 102.816 795.86 456.817
2749 0 125.097 12.6142 1578 102.431 796.032 451.944
2750 0 131.087 13.0066 1705 104.509 796.163 448.315
2751 1 72.0438 11.0766 798 100.764 795.04 478.37
2752 0 75.0547 11.7381 881 98.42 795.647 478.497
2753 0 77.0458 12.1746 938 99.2143 795.083 476.284
2754 0 76.0752 11.6332 885 96.4814 795.42 476.527
2755 0 76.146 11.3072 861 100.111 795.973 480.848
2756 0 80.0975 12.0978 969 98.9195 795.853 478.816
2757 0 81.0367 11.6614 945 100.698 795.947 476.145
2758 0 83.1229 11.2604 936 101.995 795.943 474.631
2759 0 87.1281 12.4185 1082 98.9963 796.005 473.785
2760 0 89.0583 11.9809 1067 101.393 796.323 472.627
2761 0 93.1051 11.9865 1116 100.78 796.119 470.96
2762 0 95.109 11.8601 1128 100.644 796.479 470.062
2763 0 98.0568 11.8197 1159 101.013 796.47 467.577
2764 0 100.087 11.7297 1174 102.003 796.093 464.92
2765 0 102.128 11.9458 1220 102.4 796.315 465.166
2766 0 106.077 11.831 1255 102.306 796.342 463.226
2767 0 111.079 11.3883 1265 101.526 796.581 462.54
2768 0 114.116 12.1281 1384 103.133 795.867 459.223
2769 0 119.099 12.6366 1505 101.776 796.118 458.039
2770 0 125.174 12.7103 1591 101.835 795.933 455.914
2771 0 126.229 12.3506 1559 102.607 796.341 454.243
2772 0 131.12 12.6526 1659 103.311 796.656 451.829
2773 0 139.245 12.5534 1748 103.97 795.935 448.907
2774 1 54.0344 9.58648 518 91.3552 796.068 493.162
2775 0 55.0405 9.97447 549 88.173 795.876 489.871
2776 0 58.0901 10.4837 609 98.5862 795.565 489.545
2777 0 61.0459 10.4675 639 99.3959 795.493 489.066
2778 0 64.0414 10.3995 666 100.281 795.155 487.844
2779 0 69.0908 11.0869 766 96.6958 794.82 489.531
2780 0 71.0611 11.6379 827 97.1536 794.53 486.441
2781 0 72.0712 11.1001 800 100.15 795.024 485.15
2782 0 73.0205 11.2434 821 100.471 794.496 484.487
2783 0 76.0349 11.0607 841 99.6861 795.25 484.501
2784 0 77.0894 11.2467 867 97.5017 795.078 482.052
2785 0 82.058 11.7356 963 98.704 795.306 481.283
2786 0 82.0757 11.5747 950 99.6547 795.466 480.573
2787 0 84.0744 11.4779 965 99.6756 795.827 479.96
2788 0 89.0977 11.4144 1017 98.3088 795.293 480.86
2789 0 91.0692 11.4418 1042 102.427 795.126 478.661
2790 0 93.0348 12.4685 1160 100.675 795.205 476.653
2791 0 95.0725 12.075 1148 101.051 796.733 474.871
2792 0 99.1295 11.5506 1145 99.2952 796.054 474.525
2793 0 102.108 11.997 1225 99.978 796.303 470.922
2794 0 105.148 12.0687 1269 99.0954 796.454 470.349
2795 0 110.129 12.331 1358 98.4536 795.906 468.648
2796 0 113.128 12.4638 1410 99.0454 796.218 467.687
2797 0 116.208 12.5293 1456 99.0199 796.219 465.626
2798 0 118.171 12.9727 1533 96.8937 796.646 463.334
2799 0 123.172 13.1523 1620 97.1765 796.361 461.469
2800 0 128.08 12.9684 1661 97.0584 796.213 459.352
2801 0 131.163 12.0461 1580 103.188 795.54 458.404
2802 0 134.137 12.5692 1686 100.243 795.63 456.227
2803 0 136.159 12.434 1693 100.824 795.221 454.693
2804 1 68.1022 11.2625 767 94.6232 794.531 488.668
2805 0 68.0796 11.3103 770 95.3481 795.538 488.278
2806 0 71.1322 11.0498 786 95.1425 795.352 487.039
2807 0 76.0976 12.0635 918 97.0349 795.27 482.712
2808 0 81.1132 12.8586 1043 96.0192 795.023 476.955
2809 0 79.0312 12.4634 985 95.3289 795.951 480.69
2810 0 79.1043 11.9589 946 94.2167 795.33 482.936
2811 0 83.1028 11.9491 993 94.3293 796.436 481.886
2812 0 83.0931 12.0106 998 96.1673 795.662 478.952
2813 0 89.0858 13.0997 1167 91.5998 795.631 479.1
2814 0 91.0783 13.1206 1195 92.6067 795.231 479.906
2815 0 92.0683 13.0229 1199 94.1301 795.274 477.857
2816 0 96.0882 12.8632 1236 94.4167 794.948 476.825
2817 0 99.1577 12.5961 1249 94.5997 794.796 475.456
2818 0 103.079 13.2034 1361 91.8406 794.774 475.253
2819 1 54.0649 9.63657 521 91.1478 795.353 499.173
2820 0 56.0907 10.483 588 88.3622 795.037 497.616
2821 0 57.1387 11.1133 635 88.8362 794.778 498.326
2822 0 57.0417 12.1139 691 88.8596 794.663 494.726
2823 0 62.0965 11.4177 709 89.1975 794.377 493.87
2824 0 62.0999 11.868 737 87.8209 794.924 494.095
2825 0 65.1457 11.5434 752 88.254 794.524 493.848
2826 0 65.0954 11.583 754 89.6286 794.936 492.531
2827 0 67.1203 11.8742 797 90.2673 795.409 491.399
2828 0 71.1383 12.6795 902 91.8171 795.211 491.554
2829 0 71.1816 12.5454 893 91.6976 794.98 487.816
2830 0 74.052 13.0719 968 89.4979 794.809 487.834
2831 0 76.0804 12.8811 980 90.6408 794.721 487.303
2832 0 79.052 13.3836 1058 90.1786 795.054 487.031
2833 0 81.1342 13.0648 1060 90.9991 794.802 485.587
2834 0 82.1353 12.7473 1047 93.2101 794.68 484.815
2835 0 84.1255 12.7191 1070 94.2907 794.973 483.162
2836 0 87.1039 13.4552 1172 92.8302 795.315 482.463
2837 0 88.091 13.1455 1158 94.0665 794.627 482.097
2838 0 92.1086 13.4407 1238 92.7124 795.074 481.427
2839 0 93.1473 13.3123 1240 94.3444 795.073 478.178
2840 0 96.106 13.1209 1261 95.226 794.519 478.729
2841 0 98.0735 12.9189 1267 96.6977 794.424 477.369
2842 0 102.094 12.8706 1314 96.6583 795.013 474.762
2843 0 104.092 12.3833 1289 96.367 794.52 473.088
2844 0 109.088 12.907 1408 95.2933 794.582 471.626
2845 0 114.102 12.7956 1460 94.2486 794.185 470.52
2846 1 58.0462 10.9396 635 97.3055 794.872 495.29
2847 0 61.0714 11.5439 705 95.017 795.027 493.399
2848 0 64.0689 11.7686 754 94.3448 794.915 491.024
2849 0 64.1255 12.3976 795 93.434 794.46 489.858
2850 0 68.1235 12.3305 840 92.8738 794.624 489.857
2851 0 68.0353 12.1408 826 94.5351 794.833 487.306
2852 0 72.1329 11.7283 846 94.9988 795.378 487.558
2853 0 73.0211 11.6268 849 93.8881 795.708 488.976
2854 0 74.0732 12.3661 916 93.2784 794.991 487.303
2855 0 74.0478 11.6141 860 95.7256 795.149 488.037
2856 0 78.123 12.2499 957 96.2853 795.185 485.034
2857 0 80.0446 11.9683 958 95.9854 794.735 483.387
2858 0 83.0975 12.6719 1053 93.8727 794.689 482.171
2859 0 82.0771 12.1837 1000 96.344 795.629 479.135
2860 0 87.0459 12.189 1061 93.7304 796.318 477.108
2861 0 89.0539 11.9927 1068 94.7846 796.349 476.159
2862 0 92.09 12.0317 1108 94.093 795.528 475.214
2863 0 101.083 12.4155 1255 90.1586 795.774 475.488
2864 0 103.129 12.5668 1296 91.071 795.543 472.58
2865 0 107.087 12.5505 1344 90.5126 795.173 472.917
2866 0 109.08 13.3022 1451 88.6292 795.516 469.893
2867 0 110.113 12.1057 1333 91.3683 794.888 467.551
2868 0 116.1 12.1705 1413 90.1854 795.001 467.158
2869 0 119.122 12.9615 1544 88.9631 794.442 466.455
2870 0 123.114 12.793 1575 89.6806 794.934 463.91
2871 0 130.133 13.248 1724 92.0644 794.484 463.176
2872 0 133.11 12.4784 1661 90.9278 795.049 458.457
2873 0 136.127 12.8997 1756 89.5587 794.49 457.071
2874 0 141.126 12.875 1817 90.3495 794.823 452.234
2875 0 145.225 12.5667 1825 92.417 794.465 450.303
2876 1 72.0631 9.82473 708 91.8333 795.24 485.912
2877 0 77.0799 11.1832 862 88.7691 794.224 484.321
2878 0 79.0903 11.253 890 89.1382 794.508 483.325
2879 0 82.148 11.0289 906 90.9503 794.667 480.872
2880 0 83.0564 11.2333 933 91.5981 794.169 478.743
2881 0 88.0583 11.2993 995 91.0935 794.772 478.749
2882 0 87.1344 11.224 978 91.9151 795.077 475.835
2883 0 92.0487 11.3853 1048 92.0887 795.73 474.744
2884 0 94.0824 11.4793 1080 91.4093 795.161 472.807
2885 0 94.1397 11.3236 1066 93.2364 794.815 471.323
2886 0 101.092 12.0089 1214 91.5305 795.638 470.305
2887 0 103.067 11.9728 1234 93.081 795.552 469.28
2888 0 105.067 11.8686 1247 94.2277 795.64 467.051
2889 0 109.095 12.2279 1334 92.4228 795.17 463.245
2890 0 111.065 11.2907 1254 94.8772 795.556 462.994
2891 1 51.0791 10.0628 514 84.1673 794.924 492.016
2892 0 56.1859 10.661 599 79.9816 794.72 494.321
2893 0 57.0277 10.3108 588 92.5051 794.929 494.658
2894 0 58.0504 10.577 614 89.3844 794.453 493.738
2895 0 56.0983 11.1768 627 96.118 794.874 491.289
2896 0 57.0998 10.8231 618 93.2994 794.877 490.259
2897 0 60.0581 10.6897 642 95.2321 794.972 490.861
2898 0 59.0558 10.4985 620 98.721 794.184 490.256
2899 0 62.0426 10.4283 647 97.5796 795.065 490.971
2900 0 63.0736 10.7176 676 96.7308 795.077 488.404
2901 0 66.094 10.8785 719 92.9263 795.242 489.209
2902 0 70.1004 10.8844 763 90.3381 794.988 488.048
2903 0 71.1157 10.3493 736 90.5666 795.027 485.557
2904 0 74.1373 10.8582 805 87.8994 795.47 484.303
2905 0 76.0215 10.8522 825 86.8848 795.116 484.828
2906 0 77.0729 11.0934 855 86.738 795.744 483.998
2907 0 81.0992 11.3935 924 84.8344 795.36 483.498
2908 0 81.0733 11.2367 911 87.427 795.572 481.906
2909 0 84.0446 11.2083 942 84.4703 795.151 479.639
2910 0 85.1104 11.1032 945 86.4254 794.653 481.153
2911 0 87.0749 11.2317 978 89.0654 795.434 478.541
2912 1 43.0282 9.2265 397 81.1914 795.322 501.728
2913 0 44.0255 9.01751 397 83 795.29 501.113
2914 0 45.0282 10.0159 451 83.6186 795.064 499.969
2915 0 46.0304 10.0369 462 84.4784 795.39 500.368
2916 0 45.0521 10.1438 457 85.9081 794.873 499.335
2917 0 48.0524 9.76019 469 85.4392 795.256 498.974
2918 0 48.067 9.36192 450 88.3311 795.316 497.542
2919 0 48.0381 10.117 486 88.4897 795.274 496.537
2920 0 49.036 10.217 501 88.3174 795.441 494.758
2921 0 48.0213 9.72485 467 91.8137 795.452 494.047
2922 0 52.0239 10.13 527 91.8501 795.427 495.053
2923 0 50.0241 10.435 522 94.251 794.588 494.013
2924 0 50.0427 9.7117 486 99.2202 795.582 493.385
2925 0 53.0178 11.034 585 96.8872 794.838 492.062
2926 0 56.0462 11.0088 617 97.8185 795.062 491.596
2927 0 57.053 11.1826 638 98.7006 794.962 491.433
2928 0 57.0678 10.9519 625 108.019 795.061 489.794
2929 0 60.0366 11.1266 668 109.362 794.31 487.915
2930 0 59.047 10.7541 635 113.904 795.622 486.978
2931 0 60.0526 10.7239 644 116.595 794.901 486.384
2932 0 63.0614 11.1479 703 116.485 795.024 486.427
2933 0 65.0509 10.5302 685 119.791 794.709 486.133
2934 0 62.0914 10.8711 675 119.818 795.006 484.154
2935 0 66.0702 11.3516 750 117.587 795.091 483.139
2936 0 69.1118 11.1558 771 119.377 795.358 481.375
2937 0 74.1044 11.5917 859 117.915 795.228 481.678
2938 0 78.1015 12.0228 939 115.056 795.319 482.037
2939 0 81.1099 12.7112 1031 115.296 794.908 480.604
2940 0 83.0627 12.3882 1029 117.444 795.136 479.889
2941 1 39.0155 8.38129 327 116.599 794.697 501.373
2942 0 43.0434 10.7566 463 111.978 795.058 502.013
2943 0 44.0413 10.6037 467 112.859 795.3 501.126
2944 0 45.0223 10.2172 460 110.257 794.693 500.572
2945 0 45.0597 10.2309 461 111.017 795.308 500.345
2946 0 47.0459 10.7342 505 108.521 794.84 499.224
2947 0 49.0651 11.23 551 107.817 794.753 498.833
2948 0 47.0804 11.1936 527 111.144 794.452 498.311
2949 0 49.0775 11.3086 555 111.301 794.705 497.241
2950 0 52.0309 11.743 611 107.309 794.864 497.123
2951 0 52.0371 11.3765 592 109.28 794.412 496.02
2952 0 54.1223 11.6403 630 107.283 794.817 496.065
2953 0 55.0194 11.7231 645 108.011 794.47 494.631
2954 0 58.0526 11.9202 692 106.673 795.003 494.868
2955 0 58.062 12.3489 717 105.056 794.859 493.006
2956 0 59.0582 11.5649 683 106.143 795.346 491.814
2957 0 61.0712 11.7568 718 106.657 795.37 489.522
2958 0 65.1017 11.5972 755 104.576 794.587 490.093
2959 0 65.1689 11.8922 775 103.846 794.458 488.345
2960 0 69.0725 12.4507 860 103.263 794.886 487.337
2961 0 70.0927 12.3408 865 104.052 794.839 487.227
2962 0 73.14 12.77 934 102.934 794.833 486.467
2963 0 73.051 12.5255 915 103.692 795.054 486.54
2964 0 75.1317 12.152 913 105.412 794.835 486.119
2965 0 77.0522 11.6285 896 106.828 795.092 486.64
2966 0 80.0988 12.1974 977 105.489 794.831 482.445
2967 1 42.0155 9.32988 392 98.3546 794.844 501.638
2968 0 43.0273 10.1796 438 96.5639 794.395 501.578
2969 0 46.0141 11.1705 514 100.374 794.3 501.759
2970 0 46.0188 10.9303 503 102.014 794.408 501.586
2971 0 49.0069 11.7534 576 98.4878 794.759 500.523
2972 0 50.031 11.353 568 99.5229 794.685 499.449
2973 0 49.019 10.9957 539 101.23 794.558 499.095
2974 0 50.0256 11.2342 562 100.438 795.123 497.699
2975 0 51.0049 10.7833 550 102.022 795.175 497.002
2976 0 53.0908 11.7535 624 99.0481 795.228 496.308
2977 0 54.0368 11.3626 614 100.137 795.689 496.953
2978 0 56.0903 11.8559 665 98.4602 795.765 496.098
2979 0 57.0577 11.4445 653 99.5084 795.68 495.23
2980 0 60.049 11.2408 675 98.957 795.403 493.954
2981 0 60.0548 11.2231 674 99.911 795.668 493.411
2982 0 63.0972 12.3143 777 100.261 794.838 489.064
2983 0 64.0461 12.2412 784 101.227 795.333 488.12
2984 0 69.0533 12.7293 879 102.585 795.502 485
2985 0 70.0905 11.9845 840 102.08 795.395 485.461
2986 0 73.078 12.4388 909 108.055 795.271 481.325
2987 0 76.0647 12.8706 979 107.799 795.148 480.402
2988 0 78.0441 13.1464 1026 107.132 794.933 479.455
2989 0 80.0869 12.8985 1033 107.673 795.455 479.247
2990 0 83.0774 13.012 1081 106.294 794.974 477.095
2991 0 87.0981 12.7098 1107 105.47 794.903 476.315
2992 0 89.1505 12.7313 1135 104.594 795.005 474.298
2993 1 48.0418 11.0321 530 103.658 795.872 494.172
2994 0 49.0567 11.0688 543 104.238 795.046 492.396
2995 0 50.0493 11.5686 579 102.656 795.057 491.1
2996 0 54.0268 12.0126 649 104.888 794.547 490.122
2997 0 54.0266 12.4383 672 107.17 795.244 489.795
2998 0 53.0461 12.4986 663 108.76 794.345 487.75
2999 0 56.0276 12.7616 715 106.148 794.876 486.997
3000 0 56.0079 11.8912 666 108.562 794.108 485.931
3001 0 58.0279 12.0459 699 108.376 794.561 485.182
3002 0 59.0294 11.9263 704 110.095 794.669 483.774
3003 0 60.0325 11.8103 709 110.159 794.887 483.298
3004 0 62.022 12.3182 764 110.127 795.296 483.02
3005 0 65.0543 11.9285 776 110.131 795.501 480.665
3006 0 65.0228 12.0112 781 110.37 795.385 479.702
3007 0 67.0651 12.0033 805 110.075 795.068 478.735
3008 0 68.0381 12.4195 845 109.533 795.219 477.146
3009 0 70.0687 12.4164 870 110.253 795.111 476.017
3010 0 73.0397 12.281 897 110.266 795.907 475.42
3011 0 74.05 11.8433 877 111.369 795.797 474.166
3012 0 78.0612 11.9265 931 111.325 795.984 471.711
3013 0 79.0282 11.5275 911 111.94 795.703 470.082
3014 0 79.0875 11.9235 943 110.87 795.925 468.349
3015 0 84.0695 11.6213 977 111.07 795.163 467.357
3016 0 86.0489 11.261 969 111.524 795.486 466.662
3017 0 88.0754 11.8421 1043 111.22 795.099 464.337
3018 0 91.0705 11.1452 1015 111.047 795.683 461.392
3019 0 93.1025 11.7505 1094 108.894 795.537 462.134
3020 0 93.1244 11.5115 1072 111.271 795.326 458.447
3021 1 51.0856 9.45473 483 108.83 795.197 484.356
3022 0 50.1269 9.49591 476 109.328 795.208 484.013
3023 0 51.0411 9.75684 498 107.97 795.094 482.886
3024 0 54.0736 10.2638 555 104.402 794.897 480.546
3025 0 49.0214 9.87324 484 102.223 795.256 480.727
3026 0 50.0237 10.495 525 101.4 795.232 486.411
3027 0 52.0123 10.2476 533 100.617 795.568 485.508
3028 0 55.0199 9.88733 544 98.136 795.447 482.967
3029 0 56.0468 9.90244 555 98.782 795.025 480.094
3030 0 63.0833 10.5892 668 96.8234 795.659 480.969
3031 0 62.0329 10.2204 634 97.6767 795.188 480.336
3032 1 44.0165 4.13481 182 104.049 795.258 490.269
3033 0 42.0124 4.7605 200 102.8 794.85 491.3
3034 0 42.0145 2.90376 122 103.623 795.041 492.508
3035 0 46.0163 5.04169 232 105.142 795.371 484.659
3036 0 49.0092 5.20311 255 101.941 795.545 487.761
3037 1 86.1231 12.4705 1074 89.3119 795.053 475.279
3038 0 87.0892 11.6777 1017 88.6441 795.676 475.454
3039 0 92.0639 11.6767 1075 90.8381 795.95 472.777
3040 0 96.0925 11.7699 1131 88.1043 795.705 471.284
3041 0 98.0372 11.4344 1121 87.4193 795.642 468.578
3042 1 44.0248 9.60822 423 85.4374 795.262 492.622
3043 0 47.0376 10.0983 475 85.9137 795.272 490.867
3044 0 52.0336 11.1082 578 84.0813 795.235 493.189
3045 0 54.0148 10.7378 580 83.5793 795.793 492.06
3046 0 58.0547 11.5236 669 81.2855 795.541 490.991
3047 0 58.0564 10.9721 637 82.5071 795.474 490.684
3048 0 61.049 10.6799 652 82.9969 795.071 490.287
3049 0 63.0679 11.0357 696 80.9684 796.01 489.21
3050 0 63.0419 10.5327 664 81.7214 796.003 485.771
3051 0 70.0486 11.3921 798 79.7782 795.813 484.826
3052 0 67.0222 10.8322 726 81.2479 796.452 484.106
3053 0 72.0622 10.3383 745 80.4215 796.134 482.773
3054 0 73.0352 10.8304 791 80.7016 795.767 481.24
3055 0 74.0907 11.3105 838 82.3341 795.814 477.939
3056 0 80.0319 11.6953 936 85.2169 796.016 477.39
3057 0 84.0893 12.7127 1069 84.4602 795.24 475.406
3058 0 82.0389 12.1528 997 86.6048 796.048 475.164
3059 0 86.0424 11.936 1027 86.2726 795.787 474.209
3060 0 87.0837 11.7473 1023 87.1799 795.843 472.202
3061 0 89.0853 12.3926 1104 86.9004 795.475 471.559
3062 0 91.0602 12.3984 1129 87.5731 795.551 469.013
3063 0 96.0866 12.9154 1241 84.8364 795.249 469.151
3064 0 99.032 13.0665 1294 84.6252 795.313 466.445
3065 0 103.06 12.2938 1267 86.4688 795.572 465.852
3066 0 102.04 11.9462 1219 87.7703 795.68 463.375
3067 0 107.142 12.9268 1385 86.6274 795.767 460.469
3068 0 110.047 11.8586 1305 89.5625 796.061 459.075
3069 1 40.0175 8.84613 354 76.6525 795.997 497.729
3070 0 44.01 8.99795 396 79.9646 795.169 491.232
3071 0 51.0213 11.5638 590 85.7119 795.341 492.305
3072 0 54.0217 12.1247 655 84.2473 794.818 491.753
3073 0 53.0398 12.6132 669 85.8475 795.103 492.055
3074 0 54.0679 11.3191 612 84.0572 795.337 493.962
3075 0 53.0246 11.9567 634 82.336 796.224 496.568
3076 0 55.041 10.7919 594 85.2896 795.84 495.407
3077 0 57.0317 12.4492 710 82.1493 795.807 493.858
3078 0 58.048 11.4905 667 86.042 795.811 493.261
3079 0 59.0406 11.4498 676 87.6213 795.59 491.157
3080 0 63.0992 12.409 783 86.2516 794.973 490.585
3081 0 63.032 12.216 770 87.8273 795.142 490.37
3082 0 64.0606 11.4735 735 90.3605 795.66 489.396
3083 0 67.0584 12.4817 837 87.4217 794.871 488.441
3084 0 67.0412 11.5302 773 90.8137 795.525 487.391
3085 0 69.0627 11.7574 812 89.2106 795.102 486
3086 0 72.0846 12.1385 875 88.9737 795.755 484.322
3087 0 75.0479 11.8324 888 89.3829 796.037 484.752
3088 0 77.0307 12.0861 931 90.9828 796.322 482.681
3089 0 80.0596 12.3283 987 89.8754 795.288 483.16
3090 1 35.0224 10.2506 359 84.351 795.582 505.259
3091 0 37.018 9.72499 360 85.6389 795.731 502.639
3092 0 38.0721 10.5064 400 86.225 795.337 500.335
3093 0 39.0233 10.4041 406 84.1379 795.207 501.842
3094 0 41.0111 10.2655 421 84.1473 796.062 501.097
3095 0 43.0172 11.4373 492 84.0589 795.425 501.323
3096 0 45.0348 11.9019 536 85.2313 794.832 500.047
3097 0 44.0303 11.265 496 87.8609 794.901 499.296
3098 0 48.0205 11.62 558 86.4516 796.056 498.366
3099 0 47.1014 11.3797 536 87.7015 795.543 498.308
3100 0 50.0337 11.6721 584 87.8767 795.127 497.267
3101 0 51.0202 12.2696 626 92.9058 794.914 495.065
3102 0 54.0043 12.462 673 90.1426 795.535 495.319
3103 0 55.0656 11.7859 649 88.8243 795.214 495.353
3104 0 57.0262 13.0993 747 90.8942 795.127 493.669
3105 0 58.0872 12.5329 728 92.5783 795.345 492.672
3106 0 59.0564 12.5981 744 93.3562 795.942 490.042
3107 0 61.1149 12.7138 777 93.4054 795.885 487.969
3108 0 64.0987 12.8708 825 92.3115 795.248 488.625
3109 0 64.1037 12.7294 816 94.0417 794.988 487.175
3110 0 67.1058 13.1434 882 91.0601 795.265 486.105
3111 0 69.0992 12.7498 881 91.4336 795.289 486.473
3112 0 70.1162 12.793 897 91.8763 795.638 484.652
3113 0 73.0983 13.1467 961 88.359 795.107 484.408
3114 0 74.079 13.1211 972 88.4784 794.773 482.802
3115 0 79.0819 13.3406 1055 86.6597 795.035 479.914
3116 0 82.136 13.2341 1087 87.3201 795.017 479.982
3117 0 83.1605 12.4218 1033 90.151 794.408 480.593
3118 0 87.1665 12.5163 1091 90.1283 795.032 476.291
3119 1 44.0637 10.916 481 88.3763 795.846 498.453
3120 0 46.0575 10.8777 501 88.7285 795.287 495.687
3121 0 46.0757 11.2641 519 87.2736 795.746 495.303
3122 0 49.0855 11.4902 564 85.1418 795.869 494.899
3123 0 49.2124 11.3792 560 84.1232 795.773 495.102
3124 0 50.085 11.4406 573 84.3264 795.607 493.791
3125 0 51.0448 11.4017 582 84.5962 795.304 493.498
3126 0 53.1424 10.5377 560 85.3464 795.691 494.146
3127 0 53.052 10.9704 582 85.3522 795.782 492.5
3128 0 57.1056 11.8727 678 81.7109 795.363 491.338
3129 0 61.2017 12.2219 748 79.8503 795.523 491.305
3130 0 61.066 11.8397 723 83.379 795.202 489.607
3131 0 63.0641 11.5279 727 83.3535 795.333 488.569
3132 0 66.147 11.9129 788 82.2069 795.596 487.612
3133 0 67.0854 11.5077 772 84.285 795.352 489.477
3134 0 69.1422 11.6138 803 85.2902 794.887 487.738
3135 0 72.0593 11.6848 842 85.361 794.378 486.806
3136 0 73.1228 11.5969 848 86.4811 794.495 484.92
3137 0 76.1269 12.177 927 86.028 794.739 483.756
3138 0 77.1121 11.7362 905 87.7547 795.337 482.766
3139 0 81.1702 11.7284 952 88.959 795.492 480.191
3140 0 84.0922 11.6658 981 88.998 795.472 480.432
3141 0 84.2552 11.2871 951 91.6698 794.906 478.386
3142 0 89.239 11.7998 1053 92.9326 795.002 476.533
3143 0 91.2049 11.359 1036 94.1515 794.698 473.961
3144 1 50.0215 10.7954 540 90.7981 794.669 495.878
3145 0 51.0635 10.8297 553 93.7215 794.089 494.146
3146 0 52.012 11.805 614 92.2215 794.425 492.8
3147 0 55.1021 12.1229 668 90.9701 795.271 491.199
3148 0 55.0276 11.467 631 94.2615 795.139 491.17
3149 0 57.0454 11.8502 676 93.3388 795.012 489.445
3150 0 58.0652 11.8143 686 93.398 794.885 489.258
3151 0 60.1335 12.306 740 91.9811 794.959 488.245
3152 0 59.0247 11.7747 695 95.9094 795.317 486.23
3153 0 63.0807 11.8737 749 94.5514 795.271 486.312
3154 0 65.0796 12.2773 799 93.4243 795.119 483.68
3155 0 68.0749 11.9868 816 94.5282 794.536 483.607
3156 0 69.0699 11.6259 803 95.5093 794.917 483.223
3157 0 71.0518 11.4987 817 95.6291 795.162 481.854
3158 0 75.056 11.991 900 94.5011 795.45 480.958
3159 0 76.0842 12.0261 915 95.3213 795.34 480.733
3160 0 79.0532 11.6251 919 96.1948 795.091 478.721
3161 0 78.0873 11.6024 906 97.4172 795.135 477.123
3162 0 81.0758 11.7668 954 96.7589 795.984 476.543
3163 0 85.0733 11.8956 1012 96.5119 795.727 473.397
3164 0 87.0315 11.5246 1003 98.6361 795.377 473.965
3165 0 90.044 11.2612 1014 98.8639 795.669 473.776
3166 0 92.0879 11.8691 1093 98.7676 795.634 470.56
3167 0 95.0683 11.0237 1048 101.182 795.571 467.94
3168 0 97.0446 11.0774 1075 101.176 795.292 466.696
3169 0 101.131 11.3813 1151 100.212 795.425 464.932
3170 0 104.081 11.2412 1170 101.141 795.474 462.303
3171 0 110.187 10.7726 1187 99.2047 795.265 463.504
3172 0 116.204 11.2991 1313 97.9939 795.324 461.763
3173 1 64.1001 8.93915 573 90.6248 795.147 489.962
3174 0 66.1089 9.80201 648 89.2793 795.051 486.815
3175 0 71.208 11.024 785 85.0255 794.625 486.332
3176 0 71.0372 11.0646 786 91.6031 795.173 482.896
3177 0 73.0457 11.8419 865 94.4347 794.708 481.898
3178 0 75.048 12.0456 904 94.3131 795.525 480.117
3179 0 77.0393 11.7472 905 99.3293 794.751 481.726
3180 0 82.1054 12.2647 1007 96.5482 795.58 479.7
3181 0 82.1502 11.8076 970 100.375 794.526 479.155
3182 0 85.0344 12.4538 1059 98.6053 794.788 477.453
3183 0 88.0919 12.0556 1062 100.489 794.461 474.14
3184 0 90.0759 12.0787 1088 100.131 794.526 474.006
3185 0 95.1433 12.3603 1176 99.7126 794.537 470.764
3186 0 97.1314 12.4471 1209 99.1365 794.651 469.852
3187 0 100.166 11.7205 1174 99.4378 795.281 468.941
3188 0 103.19 11.6872 1206 98.641 795.08 467.003
3189 0 106.105 11.1681 1185 100.374 795.096 466.129
3190 1 57.0637 9.95379 568 91.8398 793.981 491.146
3191 0 63.0862 11.1435 703 93.7582 793.208 484.744
3192 0 63.0831 11.2708 711 95.5851 794.169 483.707
3193 0 65.0904 11.4149 743 95.2759 794.58 484.073
3194 0 67.0812 11.2699 756 94.9312 794.825 484.537
3195 0 66.1321 10.9478 724 95.6188 794.975 485.49
3196 0 69.0534 11.7445 811 93.7509 795.256 484.79
3197 0 70.0843 11.5432 809 93.6799 794.932 483.341
3198 0 76.0464 11.756 894 93.7864 794.395 483.602
3199 0 76.0974 12.3394 939 97.5719 794.392 479.784
3200 0 80.0349 12.5071 1001 95.997 795.349 480.423
3201 0 82.1262 12.2616 1007 96.7507 794.689 476.574
3202 0 89.0464 13.2291 1178 93.3387 795.141 476.93
3203 0 89.0879 12.2688 1093 96.2589 794.636 476.113
3204 0 93.0331 12.9201 1202 92.876 794.444 473.978
3205 0 95.036 12.5847 1196 93.5426 794.508 473.142
3206 0 100.074 13.2901 1330 90.4256 795.071 472.089
3207 0 103.064 12.4292 1281 91.8017 795.6 469.902
3208 0 105.033 12.5008 1313 92.6314 795.413 467.137
3209 0 109.073 12.5054 1364 92.2757 795.392 465.069
3210 0 115.097 12.1462 1398 92.1474 795.175 462.7
3211 1 59.0527 10.9733 648 89.3596 795.495 490.201
3212 0 61.0652 11.676 713 88.1206 796.192 488.234
3213 0 64.0834 11.4694 735 86.3034 795.626 487.797
3214 0 68.0193 12.5847 856 82.6857 795.341 486
3215 0 68.0843 12.2642 835 85.8263 795.208 488.576
3216 0 68.0849 11.9997 817 87.7797 795.275 487.816
3217 0 74.0657 12.0299 891 86.1706 795.798 487.083
3218 0 75.1416 12.1238 911 86.4347 795.967 483.678
3219 0 77.2212 11.6289 898 87.3775 795.763 483.801
3220 0 80.2534 12.149 975 86.1641 796.046 484.077
3221 0 81.1804 11.7762 956 86.8462 795.641 483.779
3222 0 85.1186 12.183 1037 85.2199 796.176 480.121
3223 0 86.1542 11.6303 1002 86.3463 796.305 479.25
3224 0 89.1242 11.6354 1037 85.4397 795.849 477.371
3225 0 91.1349 12.081 1101 84.0236 795.832 477.602
3226 0 93.2088 10.8681 1013 87.2873 795.7 475.456
3227 0 99.0399 11.6115 1150 84.0313 795.583 473.448
3228 0 102.094 11.1956 1143 85.4873 796.3 470.783
3229 0 106.142 11.6165 1233 84.5969 796.069 469.562
3230 1 55.0845 10.4022 573 85.2845 795.667 494.592
3231 0 56.062 11.8797 666 81.8964 795.97 494.899
3232 0 59.0325 11.2142 662 82.7326 795.757 490.826
3233 0 59.049 11.5667 683 80.9663 795.353 489.359
3234 0 60.1276 11.8914 715 80.3301 795.758 489.27
3235 0 62.1122 11.286 701 82.6348 795.556 490.078
3236 0 62.1112 11.1413 692 82.4798 795.136 487.259
3237 0 67.0929 11.1934 751 81.8509 795.294 488.063
3238 0 68.1461 10.6976 729 83.4088 795.351 487.117
3239 0 73.1876 11.7916 863 80.0417 795.871 484.413
3240 0 75.1003 11.3981 856 81.4638 795.39 482.457
3241 0 78.1154 12.1487 949 79.0032 795.027 481.07
3242 0 79.1716 11.7719 932 80.5547 795.817 480.765
3243 0 83.1097 11.8999 989 79.6057 795.246 480.253
3244 0 87.107 12.2723 1069 78.7689 795.874 479.81
3245 0 89.1023 11.3802 1014 80.2771 795.047 479.97
3246 0 94.1982 12.0703 1137 79.2463 794.882 476.11
3247 0 99.2235 12.4567 1236 77.8997 794.815 474.328
3248 0 103.182 12.2211 1261 77.9009 795.404 471.882
3249 0 105.197 11.7399 1235 78.9919 794.859 470.085
3250 0 110.283 11.7878 1300 79.1323 795.573 469.253
3251 0 114.168 11.0889 1266 81.684 796.164 466.24
3252 0 118.348 11.4239 1352 81.9112 795.337 464.437
3253 1 58.1318 11.818 687 84.5517 795.017 492.185
3254 0 61.0959 12.0303 735 84.2503 795.693 491.318
3255 0 62.0757 12.1465 754 84.3342 795.566 490.227
3256 0 65.1692 12.598 821 83.4227 795.011 488.145
3257 0 67.1525 12.9109 867 82.8431 795.394 489.168
3258 0 70.1694 12.9971 912 83.7621 795.656 487.402
3259 0 71.2934 12.7922 912 84.898 795.188 486.89
3260 0 74.1266 13.0587 968 84.8523 795.097 485.216
3261 0 76.1408 12.8315 977 86.042 795.465 484.259
3262 0 79.1343 12.8516 1017 86.9479 796.23 482.936
3263 0 79.0883 12.9096 1021 87.1254 796.262 482.113
3264 0 83.1559 12.8073 1065 86.4657 796.455 483.46
3265 0 87.4058 13.0426 1140 85.6175 796.64 481.058
3266 0 91.2994 13.0012 1187 85.663 796.332 479.341
3267 0 92.2324 12.6962 1171 86.9701 795.544 477.963
3268 0 95.2845 12.7408 1214 87.098 796.067 475.505
3269 0 97.1585 13.2773 1290 86.4217 795.355 473.745
3270 0 100.196 12.4256 1245 88.31 795.33 473.618
3271 0 104.179 12.229 1274 87.5267 795.549 472.184
3272 0 109.104 13.1526 1435 84.3303 795.635 468.219
3273 0 112.216 13.0819 1468 84.4414 795.266 464.873
3274 0 114.268 11.5431 1319 86.5398 794.679 464.792
3275 0 119.203 11.9125 1420 84.65 795.719 464.733
3276 0 124.194 12.1182 1505 84.4764 795.493 460.357
3277 0 131.168 12.7012 1666 83.2359 794.766 457.48
3278 1 69.2562 12.4321 861 87.144 794.83 485.987
3279 0 72.1177 11.509 830 89.5627 795.07 484.272
3280 0 74.1118 11.8335 877 88.0832 794.878 483.537
3281 0 79.2306 12.634 1001 85.6853 794.345 483.022
3282 0 81.1808 12.7124 1032 87.4312 794.415 480.381
3283 0 83.2111 12.7387 1060 88.233 794.836 478.101
3284 0 87.222 12.9898 1133 87.8588 795.43 477.046
3285 0 88.2924 12.5832 1111 89.7075 795.453 476.222
3286 0 93.1377 12.8734 1199 88.9958 795.626 474.416
3287 0 96.1922 12.5374 1206 89.9403 794.934 471.836
3288 0 100.2 13.0839 1311 90.0282 795.135 470.467
3289 0 105.102 12.7686 1342 90.5283 795.279 469.984
3290 0 105.193 12.6339 1329 91.5952 795.533 468.466
3291 0 111.151 12.7934 1422 89.8903 794.54 465.437
3292 0 113.248 12.9539 1467 91.3763 794.694 462.342
3293 0 116.105 12.6437 1468 91.7868 794.915 462.276
3294 0 122.139 12.8788 1573 90.4711 794.697 458.701
3295 0 125.185 12.7491 1596 91.7644 794.902 456.426
3296 0 130.118 13.6415 1775 89.92 794.633 453.326
3297 0 132.096 13.036 1722 92.3943 794.948 452.342
3298 0 138.173 13.6423 1885 91.4223 795.118 450.668
3299 0 141.185 13.2096 1865 93.1158 794.75 448.777
3300 0 149.145 14.0065 2089 91.4193 795.228 445.027
3301 0 152.163 13.032 1983 94.7206 795.049 442.405
3302 0 158.136 14.1903 2244 91.8659 795.12 440.121
3303 0 164.213 13.8478 2274 91.8012 794.84 439.226
3304 0 169.242 13.8559 2345 91.4819 795.43 438.058
3305 0 175.153 13.3084 2331 94.1223 794.787 435.353
3306 0 180.13 13.6457 2458 94.2701 795.581 431.476
3307 0 186.169 13.9443 2596 95.4472 794.557 427.89
3308 0 192.128 13.6419 2621 94.5746 794.874 427.145
3309 0 198.114 13.896 2753 94.6426 794.495 425.617
3310 0 205.197 14.3715 2949 93.2492 794.988 418.307
3311 0 211.143 14.1563 2989 94.4988 794.521 417.14
3312 0 218.177 13.9382 3041 94.5488 794.837 412.314
3313 0 226.151 14.1278 3195 93.0031 794.567 406.225
3314 0 234.123 14.3984 3371 93.5209 794.809 402.28
3315 0 244.141 15.3559 3749 91.0747 794.57 394.901
3316 0 252.109 14.8983 3756 93.1784 794.808 389.259
3317 0 263.204 15.2087 4003 90.9378 795.233 387.463
3318 0 262.22 15.079 3954 165.884 795.224 386.571
3319 1 61.0294 11.5846 707 82.8006 794.672 485.489
3320 0 61.0888 11.3769 695 82.7885 794.778 484.341
3321 0 64.0978 11.3108 725 83.2414 795.033 483.13
3322 0 65.0653 11.3424 738 83.1518 795.214 481.736
3323 0 67.1164 11.6961 785 82.3146 795.352 480.833
3324 0 67.077 10.6743 716 85.243 794.926 476.196
3325 0 72.0568 11.7407 846 82.8853 795.35 475.279
3326 0 73.0684 11.3319 828 84.9952 795.362 472.11
3327 0 77.0212 11.5033 886 84.2133 795.069 472.163
3328 0 77.0643 11.5618 891 84.7048 794.942 470.09
3329 0 80.0978 11.898 953 84.5026 795.764 471.489
3330 0 84.0962 12.0695 1015 84.5626 795.662 469.004
3331 0 88.0683 12.2178 1076 83.46 796.246 467.713
3332 0 88.0407 12.074 1063 86.0517 795.369 463.994
3333 0 91.0865 11.9118 1085 86.5069 795.315 461.213
3334 0 95.1435 11.9399 1136 86.485 795.155 460.487
3335 0 101.101 12.2353 1237 86.8504 796.096 459.559
3336 0 106.108 12.3554 1311 87.4363 795.404 463.147
3337 1 60.0851 9.28684 558 78.776 795.36 487.28
3338 0 61.0672 9.07198 554 77.6625 796.018 486.709
3339 0 64.0908 9.61136 616 75.9968 795.977 487.549
3340 0 64.0666 9.25599 593 78.5717 796.01 485.653
3341 0 67.0956 9.30017 624 82.9407 795.821 484.527
3342 0 68.1212 9.42438 642 83.9657 795.28 483.416
3343 0 69.0448 10.8335 748 83.2981 795.921 482.049
3344 0 67.0647 9.45356 634 88.4921 795.53 480.186
3345 0 72.0315 10.7453 774 85.5788 795.19 480.31
3346 0 77.0823 10.7677 830 85.0867 794.811 480.158
3347 0 75.13 10.3288 776 88.6624 795.027 477.383
3348 0 78.1308 10.7 836 88.5694 794.594 473.049
3349 0 79.0488 11.0691 875 87.2263 795.336 471.63
3350 0 81.0779 11.0141 893 87.0011 795.47 469.917
3351 0 85.2089 11.0787 944 89.2331 794.668 469.065
3352 0 86.1654 10.6771 920 90.8011 795.213 470.795
3353 1 47.0927 8.40894 396 76.6187 795.551 494.475
3354 0 49.1414 8.62817 424 73.9811 796.075 495.969
3355 0 52.1157 9.44053 492 72.8293 795.687 493.715
3356 0 54.0799 9.68937 524 73.7882 796.924 492.948
3357 0 58.1029 10.0683 585 71.4017 796.12 494.397
3358 0 58.0418 10.5097 610 72.0213 796.243 493.064
3359 0 60.0636 10.2558 616 83.9188 795.735 490.584
3360 0 61.1081 10.3751 634 84.3801 795.334 491.513
3361 0 63.0943 9.76316 616 84.3782 795.157 490.756
3362 0 63.0635 10.1644 641 85.1123 795.402 489.866
3363 0 65.1165 10.0743 656 84.6448 795.387 489.986
3364 0 66.1533 10.4152 689 83.7112 795.634 489.486
3365 0 68.0754 9.98892 680 85.1941 795.285 488.728
3366 0 69.0906 10.6237 734 84.5954 795.636 487.583
3367 0 70.0922 10.0582 705 84.1617 794.379 486.332
3368 0 73.0909 11.0411 807 82.8377 794.85 486.807
3369 0 74.0689 9.70718 719 85.299 795.039 483.209
3370 0 74.0596 10.397 770 85.3675 794.784 482.287
3371 0 79.1119 10.896 862 84.3411 794.468 481.215
3372 0 80.0698 10.6282 851 84.2056 795.538 480.968
3373 0 83.0666 11.7737 978 83.2331 794.836 478.378
3374 0 87.0615 11.1071 967 83.7787 794.869 476.892
3375 0 88.0795 11.5804 1020 83.3716 793.966 476.361
3376 0 89.09 10.9328 974 85.5103 794.482 474.521
3377 0 90.1301 11.1062 1001 85.6414 794.351 470.664
3378 0 94.0774 10.7358 1010 85.3812 794.658 470.119
3379 0 96.132 11.0681 1064 85.3562 794.816 467.802
3380 0 100.093 10.78 1079 84.9138 794.728 465.519
3381 0 101.101 11.355 1148 84.52 794.538 460.375
3382 0 105.108 11.4073 1199 85.5847 793.683 460.668
3383 0 109.146 11.929 1302 83.8833 794.176 459.261
3384 0 112.101 11.4897 1288 84.8494 794.891 456.434
3385 0 115.158 11.5407 1329 84.7487 794.974 453.348
3386 0 117.094 12.1782 1426 83.8086 794.842 452.595
3387 0 123.092 12.3403 1519 83.6412 794.392 449.777
3388 0 126.152 11.938 1506 83.5571 794.233 449.145
3389 0 129.099 12.3084 1589 83.4261 794.486 449.458
3390 0 133.157 12.7444 1697 81.9552 793.904 445.367
3391 0 137.123 12.2663 1682 84.0006 794.278 443.907
3392 0 141.135 12.4065 1751 85.6945 793.94 442.483
3393 0 147.096 13.0255 1916 85.2944 794.366 439.177
3394 1 76.0845 9.63403 733 84.9168 794.184 481.16
3395 0 77.0249 9.75009 751 85.3888 794.013 476.028
3396 0 80.0244 10.1469 812 78.766 793.621 475.783
3397 0 82.079 10.4168 855 77.8702 795.05 474.724
3398 0 86.1095 11.8918 1024 86.5859 794.756 473.408
3399 0 88.1337 10.9039 961 89.5473 794.995 470.353
3400 0 91.1262 11.2262 1023 89.6569 794.405 469.297
3401 0 93.189 10.8167 1008 91.1508 794.649 468.653
3402 0 94.1228 10.4969 988 92.6711 794.772 464.411
3403 0 98.0975 10.9993 1079 91.57 794.076 466.062
3404 0 101.149 10.5192 1064 94.4004 793.66 463.565
3405 0 103.119 10.6382 1097 95.5351 794.114 463.046
3406 0 110.134 11.0501 1217 93.7313 793.877 460.557
3407 0 110.139 11.0769 1220 95.6352 793.927 459.121
3408 0 113.106 11.361 1285 95.2724 793.96 457.058
3409 0 117.164 11.1724 1309 95.4049 794.316 455.72
3410 0 122.119 10.7682 1315 96.6433 794.271 454.219
3411 0 124.125 10.9487 1359 95.8286 793.606 449.773
3412 0 128.14 8.93551 1145 96.1057 794.026 448.302
3413 1 65.0792 8.11319 528 89.4564 794.775 484.835
3414 0 65.0334 9.24141 601 88.8785 794.15 480.622
3415 1 79.108 10.2392 810 87.4667 794.29 482.358
3416 0 85.0744 12.5067 1064 93.0047 793.698 474.796
3417 0 88.1098 12.8022 1128 93.9849 793.708 472.754
3418 0 90.097 12.198 1099 96.3849 793.396 470.833
3419 0 93.1692 12.1714 1134 96.7434 793.211 471.282
3420 0 95.1625 12.0426 1146 97.4887 793.126 470.134
3421 0 97.1075 12.862 1249 95.2978 793.146 471.388
3422 0 96.1149 12.2666 1179 96.4894 792.918 473.986
3423 0 100.176 11.8292 1185 96.7401 793.154 472.536
3424 0 104.065 12.7709 1329 94.6787 792.811 470.922
3425 0 106.128 12.4566 1322 95.3079 792.875 470.978
3426 0 108.083 12.2499 1324 97.5045 793.482 468.356
3427 0 111.163 11.9554 1329 95.3409 793.863 467.577
3428 0 115.059 11.8808 1367 96.3358 793.431 466.723
3429 1 59.0517 10.4315 616 94.1623 793.466 491.446
3430 0 61.0895 10.4764 640 94.0828 793.069 490.914
3431 0 64.0241 10.7147 686 90.1283 793.773 490.045
3432 0 65.0548 10.9907 715 96.6713 792.631 487.881
3433 0 65.0815 11.5701 753 96.3028 793.155 486.985
3434 0 68.0513 11.4619 780 95.2513 792.835 488.631
3435 0 70.0472 11.2781 790 95.443 793.751 487.465
3436 0 73.1718 11.9718 876 94.5285 792.86 486.122
3437 0 77.0891 11.6878 901 94.7991 792.873 484.587
3438 0 74.0985 11.3093 838 98.648 792.57 480.698
3439 0 80.1835 11.8104 947 95.5523 793.973 480.325
3440 0 83.097 12.2507 1018 94.7024 793.682 480.829
3441 0 87.1229 12.3045 1072 93.2994 793.132 478.502
3442 0 88.1045 12.6554 1115 92.2987 793.311 478.332
3443 0 90.1688 12.7095 1146 92.0113 793.786 475.346
3444 0 94.2021 12.643 1191 91.6222 793.929 474.054
3445 0 95.2111 12.5826 1198 92.6503 794.331 471.77
3446 0 97.1116 12.6864 1232 94.0601 793.84 467.069
3447 0 103.214 13.3218 1375 92.0858 794.159 467.634
3448 0 105.133 12.5269 1317 94.4943 793.595 465.893
3449 0 111.168 13.0793 1454 93.3569 794.14 464.732
3450 0 112.112 13.5489 1519 93.1494 793.681 462.267
3451 0 114.124 12.8369 1465 96.5495 793.89 463.45
3452 0 114.14 11.8802 1356 100.488 793.846 460.705
3453 1 62.1416 10.4922 652 94.4724 794.19 486.664
3454 0 65.0874 10.6933 696 94.2443 793.806 483.997
3455 0 67.0924 11.581 777 92.4196 793.929 485.768
3456 0 69.0787 11.5376 797 94.3074 793.949 484.463
3457 0 72.1122 11.8843 857 93.7235 794.078 483.685
3458 0 74.1074 11.6453 863 95.8076 794.241 482.124
3459 0 74.1024 11.727 869 96.8216 794.69 480.38
3460 0 81.1128 12.1559 986 92.6369 794.352 480.487
3461 0 81.1691 12.4924 1014 93.9734 794.204 478.283
3462 0 81.0846 11.8642 962 96.3368 794.236 475.377
3463 0 86.0877 12.1504 1046 94.3489 794.243 475.816
3464 0 89.1008 12.0425 1073 95.0913 793.783 473.884
3465 0 91.0773 12.7364 1160 95.3966 793.734 473.041
3466 0 93.0778 11.947 1112 98.9424 794.48 471.861
3467 0 95.0632 12.2971 1169 99.1514 794.174 471.34
3468 0 99.1315 12.5591 1245 98.1422 795.259 469.207
3469 0 103.062 12.4974 1288 97.962 794.171 465.444
3470 0 104.082 11.8368 1232 93.4919 794.33 467.603
3471 0 110.119 12.8769 1418 96.4937 793.653 463.474
3472 0 109.072 11.662 1272 100.45 793.625 459.696
3473 0 112.079 11.9023 1334 99.8163 793.901 458.553
3474 1 61.0582 9.31897 569 92.2337 793.494 487.685
3475 0 62.133 10.3005 640 91.6109 794.292 484.598
3476 0 64.0983 10.7803 691 90.0579 794.431 481.603
3477 0 67.0344 11.1286 746 84.1823 794.755 484.714
3478 0 70.037 11.1941 784 88.8125 794.471 482.04
3479 0 72.0458 11.8813 856 86.236 794.901 482.051
3480 0 74.0398 11.2102 830 87.6831 795.608 480.493
3481 0 75.0483 10.4333 783 89.7407 795.452 478.88
3482 0 79.0887 11.4302 904 88.3562 795.673 477.836
3483 0 82.0662 11.7344 963 86.9543 796.003 476.104
3484 0 83.0592 10.4263 866 91.5462 795.704 472.886
3485 0 86.0851 11.3608 978 89.8926 796.203 472.485
3486 0 87.0568 11.0962 966 91.3406 795.916 469.371
3487 0 91.0639 10.7397 978 92.0225 795.362 468.682
3488 0 95.0442 11.1001 1055 92.6028 795.604 470.133
3489 0 98.0868 11.2248 1101 92.1163 795.282 468.312
3490 0 99.1127 11.1792 1108 92.1065 796.474 465.445
3491 0 106.11 10.998 1167 91.8646 796.049 465.519
3492 1 55.1571 9.79022 540 87.1463 796.172 489.563
3493 0 56.1061 9.82067 551 89.2287 796.45 489.779
3494 0 58.0675 10.6944 621 87.5974 796.357 488.311
3495 0 61.049 10.6963 653 83.8009 795.793 486.897
3496 0 62.0471 11.3946 707 87.1895 794.854 486.943
3497 0 62.0643 11.4236 709 91.5599 795.082 484.361
3498 0 67.0838 11.7614 789 88.8479 795.199 485.588
3499 0 69.0929 11.7668 813 88.6335 795.907 484.568
3500 0 71.0654 12.7066 903 86.7885 795.338 484.338
3501 0 74.0938 11.8903 881 89.4177 794.856 482.337
3502 0 76.0314 11.5479 878 90.5478 794.603 482.839
3503 0 79.1013 12.0731 955 88.5058 795.373 480.807
3504 0 81.1017 12.0343 976 88.7418 795.092 479.442
3505 0 81.0791 11.7169 950 91.0347 795.023 481.151
3506 0 86.0863 12.3597 1064 88.6071 795.109 481.023
3507 0 87.1415 11.7051 1020 89.8814 794.753 478.036
3508 0 91.121 12.0938 1102 90.3684 794.914 477.484
3509 0 93.1358 12.0469 1122 90.5606 795.239 476.283
3510 0 95.1211 12.8363 1221 89.1581 795.308 474.904
3511 0 98.1143 11.7006 1148 91.466 795.173 474.435
3512 0 101.111 11.3737 1150 86.5617 795.159 474.496
3513 0 105.11 12.1777 1280 90.4352 795.323 470.519
3514 0 109.158 12.1933 1331 91.018 795.165 466.736
3515 0 113.168 12.5212 1417 89.5039 795.21 466.776
3516 0 117.079 11.9577 1400 89.9764 794.797 460.02
3517 0 122.088 11.5818 1414 89.0806 794.389 458.984
3518 1 66.0929 10.7273 709 84.9831 794.337 487.471
3519 0 70.0583 11.2335 787 84.9416 794.442 484.582
3520 0 74.0483 11.4115 845 86.4686 794.733 484.123
3521 0 75.0631 11.5636 868 86.1832 794.594 487.532
3522 0 77.0875 11.8177 911 87.0132 794.3 486.052
3523 0 80.0267 12.3084 985 86.7208 794.404 482.929
3524 0 82.0378 11.7141 961 88.078 794.287 484.082
3525 0 84.021 11.7352 986 89.6988 794.26 482.019
3526 0 84.0277 11.877 998 90.9749 793.815 479.121
3527 0 91.0772 13.0439 1188 88.5025 794.545 478.96
3528 0 93.0873 12.687 1181 89.3988 793.68 477.069
3529 0 95.0585 12.4555 1184 91.0363 794.221 474.954
3530 0 97.0493 12.4473 1208 92.7227 794.613 472.407
3531 0 99.0471 12.1861 1207 94.7622 793.927 470.514
3532 0 101.042 11.896 1202 95.6065 794.075 470.176
3533 0 107.065 12.2169 1308 96.3891 793.454 467.843
3534 0 109.109 11.2731 1230 98.2528 793.91 466.388
3535 0 113.085 12.4066 1403 96.5552 793.862 466.772
3536 0 116.118 12.961 1505 95.0957 794.204 463.541
3537 1 59.0334 10.7736 636 90.2186 794.948 493.226
3538 0 62.0586 11.8759 737 89.6703 794.465 487.217
3539 0 67.0592 13.1824 884 91.3688 794.113 484.114
3540 0 68.1012 13.1275 894 91.9004 793.676 482.262
3541 0 71.0859 13.2656 943 94.2174 794.83 481.636
3542 0 73.0398 13.431 981 93.8634 795.066 480.188
3543 0 76.0482 13.9122 1058 92.8904 795.461 478.822
3544 0 77.0859 13.5304 1043 95.6491 795.56 476.761
3545 0 80.0742 13.6748 1095 95.4986 795.487 477.057
3546 0 84.1275 13.6697 1150 93.3478 796.062 476.837
3547 0 83.0811 12.7827 1062 93.8117 795.978 475.404
3548 0 86.1203 12.7844 1101 93.4105 796.031 472.111
3549 0 88.1003 13.303 1172 92.0111 796.889 472.497
3550 0 90.0949 12.5312 1129 93.4092 796.616 469.516
3551 0 93.1711 11.8814 1107 96.1536 796.345 466.268
3552 0 97.1489 12.1051 1176 96.1029 796.082 464.958
3553 0 100.101 12.1677 1218 94.7463 796.033 462.636
3554 0 102.073 11.8543 1210 95.8942 797.23 462.621
3555 0 105.118 11.568 1216 96.6702 797.234 458.666
3556 0 107.058 11.8441 1268 96.0528 796.464 459.42
3557 0 110.077 12.0552 1327 97.4529 796.624 453.54
3558 0 113.199 12.191 1380 99.9935 797.006 453.323
3559 0 117.325 12.1883 1430 101.02 796.655 453.341
3560 0 119.229 12.3041 1467 102.277 797.501 446.836
3561 0 125.267 12.4853 1564 100.707 797.32 447.472
3562 1 69.0584 10.6576 736 91.4321 797.743 476.943
3563 0 69.0526 11.455 791 87.0038 796.903 475.418
3564 0 72.08 12.5555 905 91.3779 797.167 473.619
3565 0 73.055 12.4427 909 95.0297 797.338 470.839
3566 0 76.083 12.1578 925 95.6184 797.338 469.427
3567 0 79.102 12.0983 957 97.7482 796.543 468.257
3568 0 81.0826 12.5674 1019 97.686 797.215 467.184
3569 0 84.1075 12.698 1068 96.3155 797.792 466.065
3570 0 85.0886 12.5164 1065 96.7202 797.941 465.243
3571 0 90.1117 12.6288 1138 95.674 798.489 463.249
3572 0 92.0865 12.9661 1194 94.7923 798.33 461.646
3573 0 96.1046 13.3708 1285 92.4405 798.335 461.899
3574 0 97.1427 12.7853 1242 95.0032 798.371 460.546
3575 0 101.112 12.7977 1294 93.8594 798.009 459.678
3576 0 103.115 12.84 1324 93.6329 798.927 458.464
3577 0 104.069 12.0977 1259 96.923 798.828 457.389
3578 0 109.131 12.3154 1344 96.2016 798.987 457.085
3579 0 113.103 12.6168 1427 95.6153 799.163 454.168
3580 1 62.048 11.1043 689 87.1335 799.046 481.65
3581 0 62.0546 10.8614 674 87.8116 799.553 479.398
3582 0 66.0467 11.931 788 85.8972 799.112 479.155
3583 0 66.0616 11.5801 765 94.8222 799.817 478.361
3584 0 70.0483 13.0339 913 90.4206 799.368 477.906
3585 0 70.0474 12.6057 883 93.3545 799.719 477.827
3586 0 73.0864 11.89 869 95.7043 799.212 474.497
3587 0 74.1081 12.4278 921 98.2085 799.298 472.821
3588 0 78.0801 12.2823 959 97.6882 799.093 473.05
3589 0 79.0601 12.7877 1011 96.8042 799.754 472.081
3590 0 82.0849 12.2678 1007 98.4429 799.378 471.848
3591 0 83.0985 12.5754 1045 98.3751 799.436 470.243
3592 0 87.0483 12.763 1111 98.4194 799.804 470.606
3593 0 89.0305 12.7372 1134 98.9956 799.547 469.75
3594 0 92.0525 12.6558 1165 100.712 799.085 467.573
3595 0 95.032 12.8273 1219 100.214 799.202 466.384
3596 0 96.0566 12.2948 1181 102.733 799.074 465.922
3597 0 98.0326 12.302 1206 103.569 799.72 464.502
3598 0 102.046 12.3082 1256 103.29 799.49 462.869
3599 0 103.072 12.3409 1272 103.972 799.458 462.053
3600 0 106.055 12.4275 1318 104.22 799.617 459.577
3601 0 112.041 12.2098 1368 104.242 799.11 459.048
3602 0 115.098 12.6414 1455 105.101 798.979 455.337
3603 0 119.075 12.975 1545 103.388 800.571 453.897
3604 0 124.045 12.9066 1601 103.279 800.053 452.137
3605 1 67.0223 10.4443 700 98.8671 799.544 482.337
3606 0 70.1161 11.1101 779 98.2696 799.724 480.96
3607 0 71.0465 11.1617 793 99.2245 799.279 480.39
3608 0 73.077 11.6589 852 100.484 798.982 479.439
3609 0 77.0612 11.5622 891 100.082 798.828 477.32
3610 0 78.0924 11.8962 929 100.588 798.606 476.682
3611 0 79.1346 12.0428 953 101.028 798.512 474.907
3612 0 83.0389 12.2232 1015 99.2315 798.375 475.527
3613 0 85.0474 11.8992 1012 100.718 798.871 474.956
3614 0 87.0938 12.6645 1103 98.0952 798.866 474.544
3615 0 91.09 12.7676 1163 97.779 798.146 472.253
3616 0 94.1765 12.6783 1194 98.4573 798.474 471.371
3617 0 96.1332 12.7011 1221 98.5545 798.228 469.55
3618 0 98.147 12.95 1271 97.6743 797.689 469.96
3619 0 101.113 12.6987 1284 99.7399 798.248 467.306
3620 0 102.171 12.2931 1256 101.951 797.248 463.661
3621 0 107.092 12.662 1356 102.478 797.392 462.544
3622 0 109.093 12.4756 1361 104.967 796.626 460.339
3623 0 115.053 12.6985 1461 103.528 796.688 461.915
3624 0 116.054 12.8647 1493 103.747 796.784 461.74
3625 0 120.085 12.8742 1546 103.292 797.338 461.633
3626 0 125.14 13.0973 1639 102.383 795.912 456.438
3627 0 128.147 13.4221 1720 101.725 796.213 456.407
3628 0 133.163 13.1342 1749 103.949 796.038 453.798
3629 0 138.081 13.1228 1812 103.747 796.204 452.209
3630 0 140.175 13.3333 1869 106.219 796.036 448.656
3631 0 146.171 13.3132 1946 107.357 795.754 449.524
3632 0 148.178 13.4095 1987 108.407 795.868 449.406
3633 0 154.114 13.9053 2143 108.631 795.614 443.974
3634 0 159.153 13.4147 2135 111.408 795.644 443.982
3635 0 162.091 13.4739 2184 113.581 795.886 439.964
3636 0 166.161 13.7938 2292 114.559 796.226 439.092
3637 0 172.152 14.2897 2460 114.709 795.391 434.961
3638 0 178.183 13.6826 2438 116.172 795.381 434.886
3639 0 182.145 14.1591 2579 118.831 795.021 431.862
3640 0 187.184 14.2159 2661 118.391 795.567 430.508
3641 0 193.301 14.6042 2823 117.938 795.289 428.776
3642 0 201.231 14.7244 2963 116.097 794.877 426.283
3643 0 202.163 14.424 2916 117.317 795.487 425.643
3644 0 209.222 15.3569 3213 113.67 795.143 419.98
3645 0 216.257 15.2319 3294 115.619 794.98 418.465
3646 0 222.246 15.3929 3421 115.49 795.388 414.356
3647 0 229.231 15.4211 3535 115.903 795.49 411.894
3648 0 235.302 15.121 3558 117.707 795.279 410.673
3649 1 194.179 13.8892 2697 124.894 795.744 431.561
3650 0 199.128 13.8353 2755 126.716 795.309 425.001
3651 0 206.133 14.6265 3015 124.883 795.67 422.997
3652 0 210.136 13.891 2919 127.105 795.109 423.442
3653 0 216.13 13.9499 3015 128.231 795.515 419.639
3654 0 223.087 14.1649 3160 128.886 795.531 413.246
3655 0 229.102 14.4259 3305 128.177 796.382 411.903
3656 0 233.081 13.8879 3237 130.28 796.467 410.072
3657 0 238.1 14.0151 3337 132.433 796.258 404.262
3658 0 246.134 13.8258 3403 132.86 796.234 403.565
3659 0 255.145 14.4663 3691 130.551 796.201 400.57
3660 0 261.323 14.22 3716 132.702 795.944 394.906
3661 0 268.187 13.897 3727 134.273 796.991 390.856
3662 0 277.182 14.1315 3917 132.228 797.11 385.959
3663 0 285.221 14.0978 4021 133.174 797.597 378.016
3664 1 60.0139 11.0641 664 115.509 796.221 491.539
3665 0 62.0163 11.9001 738 115.347 796.291 487.98
3666 0 65.0576 12.3583 804 112.902 796.619 490.027
3667 0 66.0256 12.3285 814 114.143 796.437 488.715
3668 0 69.0256 12.4447 859 112.324 796.341 487.722
3669 0 71.0195 11.4476 813 102.202 796.56 487.424
3670 0 73.017 11.285 824 101.914 797.653 484.153
3671 0 75.0274 11.7424 881 100.692 797.402 484.316
3672 0 77.0537 11.161 860 102.15 797.928 483.469
3673 0 80.0533 11.7172 938 102.139 797.749 481.12
3674 0 84.0712 12.2515 1030 101.732 797.345 479.757
3675 0 87.0378 13.1897 1148 108.353 797.233 477.078
3676 0 90.0431 12.7828 1151 110.39 797.1 475.745
3677 0 93.0395 12.5001 1163 111.375 796.14 473.989
3678 0 97.0794 13.113 1273 110.477 796.739 474.521
3679 0 100.129 12.8334 1285 111.168 797.223 473.131
3680 0 104.105 13.2174 1376 110.591 796.787 467.887
3681 0 109.118 14.1681 1546 108.268 797.232 461.983
3682 0 111.171 14.5541 1618 107.86 796.602 460.858
3683 0 113.16 13.3616 1512 109.573 795.911 464.613
3684 0 119.239 16.1944 1931 101.513 795.723 451.084
3685 0 121.203 15.5525 1885 102.104 796.499 454.607
3686 1 64.0653 11.9253 764 106.445 795.126 490.101
3687 0 67.0456 12.0366 807 104.991 795.074 489.577
3688 0 67.1275 12.3794 831 106.864 795.424 489.214
3689 0 71.0954 13.517 961 105.722 794.744 485.81
3690 0 71.1308 13.6228 969 106.588 795.561 484.708
3691 0 74.1311 13.3682 991 106.153 795.542 486.118
3692 0 75.0922 13.0373 979 107.994 796.109 485.877
3693 0 76.0983 13.062 994 108.489 795.441 486.549
3694 0 80.1448 13.7002 1098 105.5 795.059 484.393
3695 0 80.0588 13.4027 1073 107.371 795.196 483.01
3696 0 85.0501 13.7801 1172 107.158 795.712 481.903
3697 0 87.1503 13.93 1214 103.124 795.694 482.11
3698 0 90.2302 14.0751 1270 101.63 795.254 480.534
3699 0 91.1013 13.4795 1228 103.986 795.073 480.814
3700 0 94.0698 13.1073 1233 103.991 795.212 479.437
3701 0 97.0635 13.3521 1296 103.432 795.779 478.916
3702 0 102.176 13.281 1357 104.826 794.876 476.009
3703 0 104.252 12.9686 1352 104.172 796.072 474.814
3704 0 108.198 13.5215 1463 101.8 795.36 474.116
3705 1 57.1246 12.4465 711 107.307 795.26 496.748
3706 0 61.0655 13.5756 829 102.976 794.955 494.783
3707 0 61.0617 13.1179 801 105.167 795.293 493.808
3708 0 64.0587 13.4096 859 103.919 795.268 492.639
3709 0 65.0404 13.8683 902 102.58 795.136 491.682
3710 0 66.1657 13.2244 875 105.19 794.843 489.987
3711 0 70.0937 13.1824 924 103.318 795.366 488.874
3712 0 71.0332 13.5852 965 102.28 795.255 487.103
3713 0 74.1048 13.4809 999 101.625 795.403 487.326
3714 0 75.1071 13.8069 1037 101.725 794.667 485.165
3715 0 78.0362 13.5066 1054 101.241 794.749 484.737
3716 0 78.1353 13.2463 1035 103.42 794.94 482.599
3717 0 81.1031 13.2671 1076 101.878 793.985 481.5
3718 0 85.2324 13.5864 1158 100.994 794.472 479.638
3719 0 85.0621 12.9317 1100 102.66 794.216 479.531
3720 0 89.0353 13.2869 1183 100.89 794.518 480.222
3721 0 91.1197 13.4768 1228 99.6409 794.486 478.945
3722 0 93.0376 12.8765 1198 100.333 794.765 476.946
3723 0 98.0383 13.3009 1304 100.442 794.35 474.684
3724 0 98.0881 12.8252 1258 101.695 794.762 473.603
3725 0 102.138 13.0607 1334 100.481 794.247 470.455
3726 0 104.146 12.6169 1314 101.577 795.138 470.869
3727 0 109.068 12.7719 1393 100.698 794.21 467.304
3728 0 112.107 13.0946 1468 98.8931 794.925 465.162
3729 0 115.141 13.1925 1519 98.1606 794.818 460.806
3730 0 122.14 12.9523 1582 98.1448 795.233 458.652
3731 1 60.0814 11.5011 691 99.0275 794.548 488.647
3732 0 61.0622 11.4473 699 100.529 795.459 488.997
3733 0 66.083 13.0139 860 96.3023 795.21 487.433
3734 0 69.1068 12.6471 874 99.5789 794.797 485.34
3735 0 72.1041 13.2864 958 98.6868 794.716 484.678
3736 0 74.1014 13.7244 1017 97.4513 795.245 483.776
3737 0 78.0939 13.9319 1088 96.9164 795.642 482.342
3738 0 82.0992 13.6907 1124 100.043 795.186 477.652
3739 0 85.123 13.8036 1175 100.039 795.265 477.383
3740 0 84.1381 13.668 1150 102.361 795.369 477.179
3741 0 88.1494 13.4885 1189 102.882 794.911 475.523
3742 0 92.1164 13.7869 1270 102.637 795.581 474.127
3743 0 94.139 13.6713 1287 102.639 795.32 475.091
3744 0 98.1704 13.5784 1333 102.571 796.014 473.119
3745 0 101.058 13.982 1413 101.275 796.135 473.006
3746 0 105.108 13.7383 1444 101.159 795.838 470.956
3747 0 109.16 14.1811 1548 99.3172 796.347 468.653
3748 0 113.192 13.5345 1532 102.542 795.722 464.907
3749 1 58.1308 11.6118 675 101.351 796.684 491.667
3750 0 60.1828 12.3125 741 98.9595 795.344 491.239
3751 0 65.1899 13.1769 859 95.4342 795.679 489.242
3752 0 67.2508 12.6839 853 97.0293 795.4 487.746
3753 0 67.162 12.522 841 101.112 795.578 486.317
3754 0 69.1227 12.8033 885 100.111 795.026 487.052
3755 0 72.1998 12.8532 928 99.2274 794.672 484.943
3756 0 73.1735 12.6822 928 100.695 795.351 485.195
3757 0 76.126 13.1887 1004 99.5339 794.511 483.433
3758 0 78.1473 13.5513 1059 98.7904 794.839 484.075
3759 0 81.1465 12.7177 1032 101.685 794.187 482.695
3760 0 84.0843 12.868 1082 100.141 794.663 480.747
3761 0 86.18 12.88 1110 101.066 794.41 479.719
3762 0 89.1327 12.689 1131 100.662 795.172 478.658
3763 0 91.1207 12.7852 1165 99.5554 795.656 478.158
3764 0 93.2133 11.9189 1111 102.581 794.671 477.07
3765 0 98.2969 12.5335 1232 100.647 795.287 475.318
3766 0 101.212 12.4591 1261 101.611 795.002 474.034
3767 0 106.139 12.4365 1320 100.665 795.438 472.239
3768 0 109.105 12.4009 1353 101.058 795.407 470.823
3769 1 58.1038 11.9613 695 102.658 795.577 494.036
3770 0 59.1216 12.2629 725 101.364 795.913 491.766
3771 0 61.2055 12.7113 778 99.0617 796.012 490.695
3772 0 64.2392 12.5157 804 100.271 795.978 489.007
3773 0 65.0907 12.6132 821 101.246 796.49 489.168
3774 0 69.0559 12.5261 865 100.887 796.018 489.555
3775 0 69.2055 12.6002 872 101.144 796.338 489.28
3776 0 71.0856 12.7171 904 103.027 796.689 488.388
3777 0 74.1078 12.4953 926 103.617 796.834 488.339
3778 0 75.1231 12.8988 969 104.16 796.788 487.321
3779 0 78.1484 12.809 1001 103.878 796.462 487.675
3780 0 80.1556 12.613 1011 104.471 796.565 485.632
3781 0 82.223 13.512 1111 102.347 795.857 481.326
3782 0 86.1925 13.3074 1147 101.821 796.248 481.038
3783 0 88.3752 13.1145 1159 102.854 796.666 481.311
3784 0 92.2756 13.8281 1276 104.716 796.229 479.802
3785 0 94.3107 13.148 1240 102.13 796.986 475.213
3786 0 96.3183 12.656 1219 105.61 796.42 473.713
3787 0 99.3236 12.7261 1264 104.767 796.484 477.647
3788 0 103.289 12.4892 1290 104.941 796.186 474.054
3789 0 107.236 12.5237 1343 104.656 795.73 471.99
3790 1 59.1818 12.2673 726 104.802 795.945 492.836
3791 0 61.0724 12.5261 765 104.48 796.231 492.974
3792 0 63.1171 13.2294 835 103.517 796.443 491.37
3793 0 63.0354 13.2465 835 103.493 797.184 491.286
3794 0 68.1838 14.0356 957 101.163 795.762 489.459
3795 0 69.1888 13.8462 958 101.397 796.244 489.687
3796 0 72.1321 13.9744 1008 100.259 796.21 489.091
3797 0 72.0885 14.0106 1010 104.05 796.647 485.722
3798 0 73.1915 12.7337 932 106.376 795.848 485.778
3799 0 76.1798 13.5731 1034 104.807 796.242 482.68
3800 0 79.1177 13.8275 1094 105.708 796.355 481.404
3801 0 80.1077 14.5679 1167 104.225 796.883 482.799
3802 0 83.2994 13.9257 1160 104.102 796.434 481.917
3803 0 86.1992 14.6753 1265 101.407 798.202 482.545
3804 0 86.2099 13.7107 1182 109.3 798.475 480.593
3805 0 89.1582 13.1564 1173 111.315 799.288 477.932
3806 0 91.1666 13.5795 1238 111.437 799.078 476.88
3807 0 95.158 13.2832 1264 111.184 799.762 473.822
3808 1 48.1055 11.7034 563 112.996 798.945 496.799
3809 0 49.0648 11.2912 554 114.097 798.195 493.543
3810 0 53.1336 12.0075 638 110.29 798.514 491.544
3811 0 54.2003 12.5276 679 108.34 798.881 490.224
3812 0 55.3275 12.3808 685 108.12 799.27 490.381
3813 0 58.3009 12.8643 750 106.688 798.675 489.596
3814 0 60.2445 12.6484 762 105.433 798.545 489.068
3815 0 59.2443 12.1024 717 108.483 798.025 487.979
3816 0 64.1977 12.15 780 106.504 798.76 486.615
3817 0 64.1817 12.5893 808 105.282 798.249 486.448
3818 0 65.2318 12.2333 798 105.855 798.06 485.652
3819 0 65.2464 11.4949 750 107.623 798.212 484.072
3820 0 70.159 12.0013 842 106.931 798.223 483.511
3821 0 73.1517 12.4262 909 106.334 798.524 481.515
3822 0 71.2297 12.6492 901 101.3 798.526 481.665
3823 0 79.1758 12.4786 988 104.296 797.755 478.449
3824 0 82.1469 13.1837 1083 102.6 797.569 478.96
3825 0 84.1464 13.2151 1112 102.638 798.209 477.092
3826 0 87.1143 12.6271 1100 103.977 797.077 477.091
3827 0 87.3482 12.5933 1100 96.0545 797.449 474.537
3828 0 89.103 12.6483 1127 105.212 797.139 472.595
3829 0 93.0603 12.1856 1134 106.772 796.209 471.896
3830 0 96.1615 12.1046 1164 107.478 796.74 469.886
3831 0 101.083 12.7717 1291 106.259 796.673 465.833
3832 1 45.0929 10.5338 475 111.684 797.309 492.377
3833 0 48.0624 10.8401 521 109.81 796.875 492.276
3834 0 50.0545 11.2278 562 109.815 796.859 492.178
3835 0 52.0281 11.9551 622 108.969 797.137 491.9
3836 0 55.1074 11.3233 624 110.522 797.024 490.766
3837 0 52.1098 12.0131 626 111.709 797.149 489.896
3838 0 55.0525 12.152 669 110.42 797.093 488.081
3839 0 59.2004 11.9932 710 110.208 796.975 486.682
3840 0 60.1071 11.7623 707 111.256 797.306 485.736
3841 0 63.1271 11.5798 731 111.985 797.466 482.35
3842 0 64.2113 12.2253 785 110.361 797.576 482.355
3843 0 67.0379 12.0081 805 110.2 796.852 481.174
3844 0 67.2004 11.8303 795 111.399 796.877 479.005
3845 0 70.1121 11.2962 792 113.807 796.742 476.201
3846 1 83.1986 13.0771 1088 104.946 796.221 482.434
3847 0 82.2878 12.3226 1014 109.574 795.771 479.567
3848 0 87.2554 13.3631 1166 106.554 795.868 478.791
3849 0 87.2685 12.6392 1103 110.833 795.963 478.259
3850 0 87.2565 12.4919 1090 112.667 795.771 477.423
3851 0 92.2231 12.8926 1189 111.556 795.7 475.379
3852 0 91.1254 11.3031 1030 118.693 795.941 473.729
3853 0 90.1547 11.7908 1063 119.584 796.301 470.135
