time division length width area intensity CMx CMy
0 0 74.0802 13.2289 980 132.006 852.271 479.163
1 0 76.0374 13.7432 1045 117.856 851.617 478.423
2 0 78.0694 13.0653 1020 117.967 852.044 477.077
3 0 78.0424 13.467 1051 115.406 851.702 476.868
4 0 82.0426 13.6636 1121 112.497 851.812 474.866
5 0 83.0867 13.4919 1121 111.313 851.449 474.313
6 0 85.1152 13.7108 1167 110.305 851.822 472.045
7 0 88.039 13.4145 1181 109.419 851.942 472.299
8 0 89.0489 13.3522 1189 108.307 851.831 470.579
9 0 92.0987 13.5724 1250 105.474 851.792 469.527
10 0 93.0754 13.1721 1226 104.335 852.88 467.17
11 0 95.0283 12.9856 1234 104.618 851.347 463.513
12 0 98.0573 13.1556 1290 103.829 851.495 462.474
13 0 102.041 13.132 1340 103.099 850.683 460.215
14 0 105.069 13.3436 1402 101.817 849.917 459.395
15 0 106.122 13.1264 1393 100.923 850.508 456.536
16 0 111.063 13.5868 1509 98.1796 850.3 454.363
17 0 113.096 13.2895 1503 98.4112 849.21 452.803
18 0 117.082 12.5126 1465 99.2662 850.194 450.376
19 0 121.132 12.7465 1544 97.9819 849.352 449.232
20 0 127.137 12.9546 1647 96.4499 849.868 448.12
21 0 130.151 13.3383 1736 95.3848 849.508 444.426
22 0 133.093 13.1487 1750 95.152 850.73 442.577
23 0 139.129 13.2108 1838 94.37 849.965 440.092
24 0 143.14 12.9244 1850 94.1341 850.105 439.716
25 0 147.181 12.685 1867 94.5919 849.362 435.5
26 0 152.173 13.0181 1981 93.3064 849.864 435.262
27 0 157.153 13.07 2054 93.3452 849.445 430.827
28 0 163.137 13.3446 2177 91.8875 849.167 429.635
29 0 166.146 13.1932 2192 92.0712 849.547 426.23
30 0 173.212 13.4459 2329 90.9386 850.397 423.053
31 0 179.109 13.1819 2361 90.4307 849.779 421.2
32 0 179.104 13.1544 2356 137.817 848.782 421.455
33 1 194.215 12.7848 2483 90.8679 849.818 413.646
34 0 201.16 12.8206 2579 91.1245 848.729 412.641
35 0 210.186 11.3852 2393 93.2674 849.091 412.451
36 0 219.139 12.1293 2658 92.2408 848.647 410.802
37 0 227.167 12.1144 2752 92.3038 849.101 402.176
38 0 235.191 11.3227 2663 94.3995 848.832 398.246
39 1 186.141 5.83427 1086 89.2044 849.203 454.445
40 0 187.188 8.94823 1675 91.0651 849.109 437.365
41 0 188.156 11.5436 2172 91.8573 849.75 422.1
42 0 196.254 12.4787 2449 91.4835 849.408 419.223
43 0 203.118 12.3574 2510 95.9478 848.379 412.265
44 0 212.184 12.8096 2718 95.5747 848.827 407.031
45 1 72.1052 10.8591 783 82.023 848.391 482.084
46 0 75.0801 11.7475 882 81.4762 848.635 482.247
47 0 78.0402 11.9041 929 81.1744 848.02 479.69
48 0 81.131 12.449 1010 82.7921 848.743 476.535
49 0 84.0886 12.4868 1050 83.2238 848.171 477.936
50 0 88.1345 12.5377 1105 84.0588 848.761 475.358
51 0 89.0821 12.4492 1109 85.5275 848.986 475.586
52 0 92.0844 12.8361 1182 94.9078 849.368 471.731
53 0 97.0731 12.8769 1250 94.016 848.658 471.26
54 0 100.084 13.0091 1302 93.0507 849.303 468.375
55 0 103.104 13.1712 1358 92.3954 849.345 466.742
56 0 106.168 12.5556 1333 94.2746 848.65 464.842
57 0 111.11 12.9871 1443 92.8351 848.532 463.701
58 0 115.18 13.6135 1568 91.9062 848.876 461.853
59 0 117.183 12.5956 1476 95.0075 847.808 460.871
60 0 121.177 13.2533 1606 94.5965 848.45 458.254
61 0 125.268 12.6689 1587 96.3913 848.842 456.07
62 0 130.339 13.1887 1719 92.5195 848.478 454.046
63 1 76.1938 11.392 868 88.5541 847.942 482.194
64 0 75.1491 11.3508 853 91.4865 848.531 479.454
65 0 80.1237 11.9565 958 90.0511 848.015 480.129
66 0 82.0613 11.9667 982 88.0316 847.49 477.931
67 0 84.0719 11.9422 1004 88.9592 847.342 473.822
68 0 83.0901 11.6139 965 91.0984 847.761 476.605
69 0 87.0738 12.0128 1046 88.9178 848.533 474.805
70 0 90.1207 12.2281 1102 88.1488 849.081 472.642
71 0 91.0592 11.9592 1089 88.5344 848.849 471.956
72 0 94.0655 11.7684 1107 89.0117 848.797 470.325
73 0 95.1208 12.0163 1143 89.1636 848.757 467.251
74 0 100.11 12.0168 1203 88.7091 848.781 466.894
75 0 103.105 12.4533 1284 86.9992 848.912 465.114
76 0 105.153 12.3629 1300 87.1908 848.438 462.32
77 0 107.137 12.6193 1352 87.2907 848.392 461.451
78 0 112.104 12.4884 1400 86.2343 848.953 459.889
79 0 114.132 12.2052 1393 87.8227 848.754 457.197
80 0 119.141 12.9595 1544 85.5376 849.115 454.326
81 0 121.075 12.8433 1555 86.3543 848.694 453.232
82 0 129.082 12.9298 1669 84.7651 848.873 452.887
83 0 130.04 12.7499 1658 86.4138 848.436 447.818
84 0 132.095 12.5213 1654 86.8936 848.869 444.715
85 0 135.082 12.8366 1734 86.2266 848.791 443.207
86 0 142.129 13.1219 1865 85.7684 848.856 440.675
87 0 147.161 13.1896 1941 86.3612 849.263 435.443
88 0 150.089 13.5586 2035 86.2314 849.674 429.98
89 0 158.218 13.6141 2154 87.3097 849.829 430.188
90 0 160.183 13.2598 2124 88.2726 849.629 422.13
91 1 85.1719 9.55714 814 82.5491 849.232 458.528
92 0 93.0613 11.2184 1044 80.909 849.758 455.766
93 0 98.0915 10.8368 1063 81.8975 849.823 460.425
94 0 98.1154 10.8953 1069 78.2713 849.879 456.513
95 0 107.078 11.571 1239 76.5028 849.622 463.938
96 0 111.129 10.9063 1212 78.231 849.891 462.072
97 0 113.086 11.7963 1334 77.9843 849.571 461.139
98 0 119.105 12.0818 1439 78.426 849.89 460.865
99 0 120.182 12.0567 1449 79.4182 849.97 458.671
100 0 126.153 11.6525 1470 79.2898 849.471 457.678
101 0 129.265 12.1611 1572 79.8709 849.583 451.92
102 1 70.0788 10.317 723 73.9585 848.757 484.62
103 0 72.0897 11.2499 811 70.6547 849.928 482.928
104 0 76.0533 11.7023 890 69.2551 849.525 482.44
105 0 78.1031 11.7793 920 69.7293 849.879 481.29
106 0 82.0959 11.45 940 79.1638 849.122 480.376
107 0 84.1377 11.2554 947 79.4699 849.927 477.181
108 0 86.0886 11.2675 970 79.1485 849.178 476.189
109 0 88.1503 11.0039 970 78.9732 849.767 476.3
110 0 93.1438 11.8419 1103 75.4696 849.668 474.85
111 0 96.0712 11.6372 1118 75.0447 848.893 470.447
112 0 95.1762 10.8536 1033 79.3224 849.086 470.413
113 0 99.182 11.8872 1179 77.7676 848.992 469.043
114 0 101.083 11.1592 1128 79.1401 848.798 469.267
115 0 105.227 12.0787 1271 78.1715 848.492 467.243
116 0 105.238 10.8516 1142 80.3643 848.332 466.743
117 0 108.295 11.7918 1277 78.8207 848.06 464.23
118 0 110.235 11.4665 1264 79.8149 848.715 462.021
119 0 116.141 12.3212 1431 80.2579 849.313 459.178
120 0 120.24 12.1757 1464 81.5881 849.113 457.566
121 1 61.0654 10.4151 636 75.9827 849.327 488.7
122 0 64.1231 11.1192 713 73.4684 849.499 488.819
123 0 67.0731 11.7335 787 72.4828 849.353 487.814
124 0 67.0731 11.808 792 120.275 848.35 487.707
125 0 68.0678 10.4161 709 74.3272 849.19 486.597
126 0 71.1032 11.856 843 73.2503 849.348 484.011
127 0 71.0968 11.0976 789 76.9544 848.861 483.845
128 0 71.1304 10.4175 741 79.8839 849.49 482.308
129 0 75.1678 11.6406 875 78.7714 849.637 480.424
130 0 78.1359 11.288 882 79.8345 849.483 482.67
131 0 81.1244 11.3653 922 79.256 848.715 480.851
132 0 81.1811 11.9856 973 80.2477 848.357 479.283
133 0 84.0901 11.7731 990 80.6556 848.273 477.917
134 0 88.1298 12.2546 1080 79.6519 848.399 476.578
135 0 91.2031 11.7978 1076 79.105 848.876 474.142
136 0 93.1176 11.8775 1106 80.2333 848.924 474.55
137 0 97.2348 11.9196 1159 80.8007 848.814 472.056
138 0 99.1736 12.2714 1217 81.6113 848.883 468.758
139 0 104.141 12.6751 1320 82.4106 849.21 467.948
140 0 106.179 13.3266 1415 86.6049 847.56 465.612
141 0 108.475 12.0581 1308 86.3272 847.588 463.49
142 0 112.46 12.2088 1373 85.8216 847.934 462.791
143 0 113.277 11.3174 1282 88.7715 847.717 453.394
144 0 115.229 11.8807 1369 87.328 847.838 449.27
145 0 120.388 11.9862 1443 86.5426 848.146 447.76
146 1 64.2323 8.22016 528 79.3049 849.341 480.269
147 0 70.2293 9.79648 688 77.0422 848.068 480.387
148 0 74.2492 11.5961 861 78.5354 847.379 482.46
149 0 77.1795 10.806 834 79.8441 847.58 481.415
150 0 79.1002 11.3021 894 79.2081 846.663 482.332
151 0 83.1088 11.8519 985 77.8487 847.062 480.835
152 0 84.1985 10.3565 872 75.5287 846.993 476.342
153 0 87.213 10.8241 944 76.821 847.317 476.86
154 0 91.2638 11.5161 1051 76.6032 846.991 474.924
155 0 93.1418 10.5967 987 77.538 847.42 474.045
156 0 97.1194 11.2027 1088 76.2289 847.762 473.068
157 0 99.1663 11.0118 1092 76.3013 847.688 471.327
158 0 102.196 10.656 1089 77.3903 847.232 469.54
159 0 104.156 10.5515 1099 77.2247 847.409 467.071
160 0 108.24 10.9848 1189 76.8276 847.997 463.384
161 0 111.168 11.0014 1223 76.5184 846.901 464.065
162 0 116.224 10.8497 1261 75.6836 846.565 462.184
163 0 118.219 10.9119 1290 76.1302 846.859 460.031
164 0 123.362 11.2028 1382 74.0514 847.182 456.706
165 0 127.257 10.3884 1322 75.5953 847.274 451.714
166 0 131.304 10.7385 1410 74.7915 847.736 447.935
167 1 69.1257 9.25849 640 65.3891 847.172 482.089
168 0 72.047 9.99348 720 65.9611 846.711 483.565
169 0 74.0527 9.95237 737 65.9851 847.316 481.4
170 0 76.072 9.13608 695 70.5353 847.435 477.318
171 0 77.0896 10.0403 774 72.1279 847.167 478.547
172 0 79.1279 9.37722 742 71.3935 846.919 475.522
173 0 82.1013 8.70875 715 72.3524 847.326 474.041
174 0 88.1657 10.2534 904 70.6394 847.091 473.301
175 0 88.0962 9.27396 817 73.2338 847.439 471.535
176 0 92.0984 10.2499 944 73.1282 847.958 469.586
177 0 94.1032 10.2547 965 73.7585 847.538 470.4
178 0 97.1334 10.0686 978 75.3395 847.189 467.165
179 0 100.377 10.0222 1006 75.8161 847.12 462.054
180 0 104.375 11.0562 1154 74.6906 847.218 462.913
181 0 106.405 10.3848 1105 76.3656 846.963 461.1
182 0 109.268 10.7808 1178 76.466 846.6 458.04
183 0 113.264 10.0297 1136 78.0933 847.375 458.879
184 0 116.173 10.5274 1223 77.3148 848.391 456.518
185 1 59.1782 8.71943 516 69.6453 846.676 484.764
186 0 62.3276 10.1239 631 67.5135 847.158 486.417
187 0 64.189 10.064 646 68.3498 846.755 485.568
188 0 67.0743 10.3467 694 68.255 846.879 486.231
189 0 69.0894 10.7542 743 68.0175 847.822 484.701
190 0 71.0638 11.6515 828 67.2391 847.097 485.365
191 0 73.0806 11.07 809 68.5735 847.443 483.916
192 0 73.0806 10.9879 803 122.395 847.43 483.903
193 0 76.1354 10.7834 821 72.5603 846.99 480.502
194 0 80.0497 11.6053 929 74.1109 846.874 478.311
195 0 82.146 11.6865 960 74.5677 846.973 479.641
196 0 85.2141 11.8525 1010 74.7416 846.855 479.091
197 0 88.1914 11.9059 1050 75.4295 846.625 475.262
198 0 90.3375 11.1028 1003 77.5115 846.636 472.481
199 0 92.2961 12.0698 1114 76.5987 846.316 470.066
200 0 94.2965 11.5487 1089 77.5574 846.701 469.163
201 0 97.2702 11.319 1101 78.6848 847.061 466.723
202 0 99.4439 11.9867 1192 99.4849 847.55 465.388
203 0 102.276 11.9676 1224 99.5711 846.742 464.964
204 0 105.36 12.6518 1333 97.6039 847.096 463.653
205 0 109.4 12.9708 1419 96.6427 846.813 463.116
206 0 112.283 12.2191 1372 99.312 847.34 461.908
207 0 113.269 12.2098 1383 100.309 846.524 460.785
208 0 117.281 12.8836 1511 98.8597 846.903 459.492
209 0 121.457 13.5851 1650 98.4879 847.075 457.101
210 0 125.382 13.7021 1718 99.6414 847.405 453.111
211 0 128.321 12.8974 1655 101.703 847.131 451.604
212 0 131.565 12.7693 1680 102.329 846.928 450.838
213 1 73.6172 10.7312 790 87.5165 847.665 483.468
214 0 75.3636 12.1013 912 84.886 847.457 482.196
215 0 78.2719 11.3962 892 85.9406 847.28 483.254
216 0 77.2051 11.4759 886 88.4086 847.202 483.212
217 0 80.0916 10.9874 880 89.6091 847.339 480.892
218 0 83.1676 11.7955 981 88.999 847.168 479.838
219 0 87.117 11.4673 999 90.2262 846.568 479.738
220 0 88.1079 11.2135 988 91.5071 846.285 477.111
221 0 91.1403 11.3122 1031 91.7556 846.218 474.418
222 0 93.1554 11.089 1033 92.2062 846.045 473.357
223 0 98.1583 10.9008 1070 92.8607 846.477 470.509
224 0 100.249 10.6834 1071 94.0635 846.535 468.579
225 0 104.19 11.5462 1203 94.4589 845.737 465.92
226 0 107.174 11.0475 1184 96.7019 845.903 464.002
227 0 109.157 10.9384 1194 97.5151 846.134 461.792
228 0 114.239 11.117 1270 97.3102 846.355 461.07
229 1 64.0979 9.59469 615 89.2878 846.564 489.561
230 0 66.2387 10.7188 710 87.6662 846.766 486.946
231 0 68.1351 10.9782 748 86.4265 846.965 486.019
232 0 72.1485 11.2684 813 84.6888 847.835 485.438
233 0 77.1524 11.5875 894 95.5224 847.06 483.757
234 0 78.112 11.7012 914 95.0558 846.593 480.432
235 0 78.1382 11.582 905 95.989 846.899 480.071
236 0 82.0965 11.389 935 95.5144 846.666 478.514
237 0 85.133 11.852 1009 94.0763 846.482 477.715
238 0 87.2092 12.4872 1089 93.6097 846.479 476.948
239 0 86.1097 11.5666 996 91.0131 847.011 473.368
240 0 86.0799 11.0943 955 93.4555 847.264 470.665
241 0 92.0946 11.5425 1063 92.809 847.733 470.439
242 0 96.1218 11.8495 1139 99.8543 846.64 471.678
243 0 97.0959 11.7719 1143 101.26 846.83 468.093
244 0 100.088 12.0495 1206 97.1484 846.285 468.586
245 0 103.089 12.2418 1262 100.437 846.448 467.291
246 0 108.113 12.2649 1326 100.937 846.671 466.707
247 0 109.12 12.4358 1357 105.307 846.278 464.925
248 0 114.093 12.2795 1401 109.501 846.395 461.295
249 1 49.006 8.9785 440 101.35 847.177 496.164
250 0 52.0389 10.6843 556 94.9928 847.529 494.885
251 0 53.0606 11.0817 588 92.8707 847.173 493.776
252 0 55.0522 11.5708 637 92.9466 846.49 492.374
253 0 55.1124 11.5763 638 94.8668 845.895 490.176
254 0 54.0608 10.3402 559 93.1556 847.624 493.233
255 0 57.0657 11.1275 635 91.9071 847.246 491.685
256 0 56.0603 10.7384 602 94.588 847.575 491.414
257 0 60.0698 11.0705 665 92.6722 847.42 490.417
258 0 61.0876 11.0988 678 93.056 847.462 489.143
259 0 62.0995 10.9985 683 93.6384 847.442 488.25
260 0 65.0691 11.8182 769 91.7763 847.395 486.451
261 0 67.1181 11.6213 780 90.1 847.395 485.622
262 0 70.0666 12.0457 844 88.8021 846.846 485.064
263 0 73.0903 11.6294 850 90.6153 847.609 482.314
264 0 74.0708 10.8815 806 91.5695 847.481 482.397
265 0 78.0924 11.7425 917 89.494 847.77 479.401
266 0 81.0389 11.7228 950 90.3789 848.119 477.941
267 0 84.0456 11.7317 986 91.1937 847.531 477.089
268 0 86.0585 11.0274 949 96.196 847.328 475.537
269 1 44.0681 10.7334 473 94.9577 847.958 494.863
270 0 46.0149 11.192 515 92.4097 847.825 494.049
271 0 47.0327 10.6734 502 94.0637 847.773 493.287
272 0 49.0893 10.9596 538 95.2937 847.578 494.033
273 0 47.0745 10.0054 471 83.2293 847.701 499.282
274 0 48.0573 9.80079 471 83.2548 848.282 497.684
275 0 48.0247 10.0365 482 83.6411 847.139 497.402
276 0 50.0465 9.97073 499 84.0741 846.1 495.565
277 0 52.0857 10.2907 536 84.4347 846.731 493.213
278 0 54.0738 9.8384 532 84.5771 847.278 491.581
279 0 56.0818 9.68228 543 86.2486 846.913 492.534
280 0 58.0948 10.328 600 84.3917 846.993 492.238
281 0 59.0246 9.86029 582 87.1478 846.686 489.541
282 0 61.0218 10.6683 651 83.2765 846.659 489.808
283 0 61.0613 9.84257 601 85.5691 847.143 489.674
284 0 64.0795 10.5806 678 85.0796 846.732 489.24
285 0 66.057 9.93082 656 86.7759 846.61 488.017
286 0 68.0519 11.1239 757 85.218 846.657 484.852
287 0 70.049 10.7782 755 85.6278 846.755 484.146
288 0 73.0762 10.5643 772 86.4145 846.89 481.46
289 0 74.0524 9.96592 738 88.8997 847.098 480.901
290 0 79.0603 10.8778 860 88.643 847.103 480.338
291 0 79.0713 10.5095 831 90.3767 846.066 478.903
292 0 82.1392 10.3726 852 91.1678 846.857 477.383
293 0 84.1225 9.93789 836 91.9246 846.203 475.423
294 0 90.169 10.6689 962 91.7391 846.323 475.016
295 0 90.123 10.752 969 92.8122 845.878 472.231
296 0 92.1129 10.2809 947 92.9187 846.386 469.676
297 0 96.1185 10.2998 990 90.5636 847.213 470.954
298 0 100.145 10.7644 1078 89.0325 846.502 468.811
299 0 100.232 9.81719 984 90.9248 846.311 467.466
300 0 106.199 9.8683 1048 90.1116 846.04 464.156
301 1 55.1441 9.97388 550 86.2745 846.167 489.351
302 0 59.1644 10.5807 626 83.1981 845.312 487.997
303 0 61.2101 11.4687 702 78.4772 845.944 486.899
304 0 62.1885 10.4682 651 81.7097 845.633 486.425
305 0 62.0154 9.61052 596 82.0419 846.198 489.416
306 0 64.0314 10.9946 704 78.794 846.891 488.261
307 0 65.13 9.94933 648 80.8519 846.664 486.242
308 0 70.0182 10.8543 760 78.6289 846.567 485.216
309 0 69.0609 9.62918 665 80.5519 846.239 484.977
310 0 75.049 11.4858 862 77.5766 846.421 482.059
311 0 77.0407 10.8774 838 78.599 845.728 482.888
312 0 80.0988 10.8241 867 79.6759 845.217 482.234
313 0 83.0918 10.5426 876 82.5685 845.583 481.075
314 0 83.1729 10.2678 854 83.7939 845.651 479.885
315 1 44.0583 9.78249 431 83.5174 845.13 501.633
316 0 46.0778 10.1784 469 84.1343 845.318 499.906
317 0 47.102 10.6153 500 82.666 845.342 499.26
318 0 49.0353 11.4 559 78.9356 844.413 497.909
319 0 48.096 10.9365 526 81.9981 845.462 499.099
320 0 51.1149 11.9143 609 83.4072 845.826 496.865
321 0 49.089 9.85965 484 84.0124 844.857 498.653
322 0 50.0409 10.1517 508 81.4134 844.445 500.274
323 0 52.0305 10.3209 537 82.0894 844.803 497.02
324 0 53.0701 10.3637 550 82.2491 844.845 497.451
325 0 56.0417 10.6706 598 81.7391 844.821 497.943
326 0 57.0872 10.1774 581 82.1549 845.205 497.63
327 0 57.0398 10.3612 591 82.3553 844.915 496.866
328 0 59.0172 9.79375 578 82.5519 844.472 497.394
329 0 61.027 10.4708 639 82.1815 843.964 495.396
330 0 64.0598 10.8492 695 82.1784 844.42 492.791
331 0 66.0692 11.2155 741 83.0202 844.08 493.085
332 0 68.0888 10.78 734 84.9005 843.313 489.629
333 0 72.0747 11.7656 848 83.7052 843.972 488.947
334 0 73.0871 11.1648 816 85.7108 844.018 489.102
335 0 75.0409 11.1539 837 87.6201 843.761 487.613
336 0 77.0586 11.4199 880 87.4534 843.39 485.524
337 0 79.109 11.2882 893 87.3516 843.693 484.922
338 0 82.0737 11.2216 921 88 843.058 483.964
339 0 84.0837 11.2269 944 87.9386 842.706 481.071
340 0 87.1017 11.0101 959 87.3858 842.429 481.447
341 0 89.0716 11.4402 1019 86.6497 843.057 480.102
342 0 92.0679 11.7848 1085 85.0645 842.915 478.135
343 0 94.1245 11.3042 1064 85.3092 843.037 477.32
344 0 97.1283 11.3355 1101 85.5713 842.5 476.076
345 0 99.0601 10.529 1043 87.8341 842.616 473.89
346 0 104.069 11.2233 1168 86.458 842.836 472.773
347 0 107.147 10.7516 1152 87.6597 842.441 472.049
348 0 112.117 11.9964 1345 86.7673 841.528 469.63
349 0 112.234 10.7365 1205 91.0581 842.322 467.079
350 0 115.163 11.6965 1347 90.6644 842.353 465.745
351 0 121.225 12.1098 1468 88.6063 842.389 462.256
352 0 124.109 12.6421 1569 89.3837 842.131 458.906
353 0 128.309 12.2595 1573 90.712 841.925 457.045
354 0 131.116 11.3563 1489 94.3298 842.791 454.445
355 0 136.322 11.9497 1629 93.0792 842.25 452.667
356 0 140.112 12.4471 1744 94.0109 841.951 453.039
357 0 146.303 12.8159 1875 93.768 842.546 448.997
358 0 153.39 13.6189 2089 92.4308 842.603 448.794
359 0 156.335 13.4327 2100 94.2014 842.94 446.28
360 0 161.235 13.4152 2163 95.6121 842.595 442.089
361 0 167.394 13.8655 2321 95.0595 843.234 437.436
362 0 172.437 13.5296 2333 93.8333 843.027 435.575
363 0 176.383 13.499 2381 94.0714 843.588 433.203
364 0 176.383 13.4934 2380 161.535 844.586 433.362
365 1 192.436 12.5393 2413 96.6614 842.834 427.284
366 0 199.409 13.0034 2593 97.2553 842.958 424.821
367 0 205.22 12.4354 2552 95.866 843.473 421.767
368 0 211.19 13.0073 2747 96.6829 843.628 417.97
369 0 219.242 12.3653 2711 98.9093 843.838 415.806
370 0 226.223 12.775 2890 96.5948 843.333 408.999
371 1 167.079 11.5814 1935 95.9271 843.362 439.494
372 0 173.122 12.1244 2099 96.9676 844.229 434.909
373 0 179.17 12.3514 2213 101.768 843.779 430.991
374 0 187.12 12.9168 2417 100.941 843.607 429.03
375 0 193.398 12.7354 2463 99.3524 844.225 425.727
376 0 199.365 12.7053 2533 100.074 844.066 420.852
377 0 206.338 12.9835 2679 99.9593 844.721 417.286
378 0 215.348 12.8722 2772 101.488 844.088 411.828
379 0 223.357 12.7688 2852 102.34 844.871 405.647
380 0 230.359 13.479 3105 99.818 844.855 404.411
381 0 239.402 13.4669 3224 100.978 844.659 399.086
382 0 249.314 13.3005 3316 102.478 844.506 395.062
383 1 185.199 10.6102 1965 101.259 844.759 428.254
384 0 191.322 11.3056 2163 101.591 844.641 424.869
385 1 57.1349 10.3614 592 87.5861 843.865 491.748
386 0 58.2043 10.5491 614 88.5472 844.059 491.052
387 0 58.1354 9.97671 580 89.6466 844.347 489.278
388 0 60.2087 10.5633 636 88.5676 844.682 487.285
389 0 59.0569 10.7185 633 89.5055 844.507 484.22
390 0 65.1099 11.2733 734 87.4823 845.102 482.187
391 0 65.1014 10.7064 697 88.0775 843.957 487.676
392 0 67.1916 11.2663 757 86.7741 844.255 487.391
393 0 68.2048 11.2602 768 87.5924 844.441 485.591
394 0 72.2751 11.3317 819 87.5299 844.182 484.717
395 0 74.3001 11.7496 873 88.669 844.168 483.228
396 0 76.2544 11.8419 903 90.8715 844.38 483.214
397 0 80.3119 12.0032 964 90.0664 844.55 481.457
398 0 83.3043 11.1759 931 92.1847 844.629 478.27
399 0 85.274 11.3634 969 91.8596 844.784 476.018
400 0 87.4332 12.0435 1053 92.8243 844.499 473.287
401 0 91.5485 11.7861 1079 95.1131 844.641 471.791
402 0 94.3693 11.7517 1109 94.6736 845.523 469.325
403 0 97.403 11.7553 1145 93.6323 845.705 467.37
404 0 101.235 12.2093 1236 98.7395 845.859 465.089
405 1 54.345 9.58689 521 85.595 845.526 492.831
406 0 58.2524 11.021 642 83.743 845.271 493.29
407 0 58.1169 11.2016 651 83.3948 845.519 493.768
408 0 59.1675 11.797 698 84.2135 846.11 493.917
409 0 60.1447 10.5911 637 79.3375 845.659 495.248
410 0 60.147 10.5408 634 81.4543 845.703 493.041
411 0 63.1934 11.0929 701 79.9743 847.031 493.796
412 0 65.1792 11.7522 766 80.205 846.166 490.698
413 0 65.1784 11.2614 734 80.9537 845.362 489.56
414 0 67.0828 11.6871 784 80.3673 845.31 488.938
415 0 70.1685 11.5721 812 80.1059 844.948 487.818
416 0 70.211 11.7503 825 81.1939 844.842 486.41
417 0 75.2019 11.6486 876 82.9966 844.749 481.505
418 0 75.2891 12.3657 931 82.6853 844.192 477.737
419 0 78.2012 12.1993 954 83.5597 844.994 478.08
420 0 82.0701 11.9776 983 85.5097 845.467 482.015
421 0 83.1431 11.8711 987 87.0182 845.895 479.747
422 0 85.1462 12.2378 1042 86.0029 844.588 478.865
423 0 90.2342 12.7557 1151 86.1685 844.214 477.989
424 0 91.3599 13.1568 1202 88.0591 844.461 476.166
425 0 93.298 12.9263 1206 89.9303 844.754 475.211
426 0 93.2549 13.5864 1267 94.341 844.642 475.34
427 0 98.2464 12.7842 1256 92.7357 844.894 471.396
428 0 101.391 12.4666 1264 94.1653 845.131 471.381
429 0 101.377 12.9714 1315 94.7384 844.957 469.771
430 0 106.298 13.1518 1398 93.2961 845.382 468.916
431 0 109.221 13.1934 1441 94.5427 844.67 465.01
432 0 111.388 13.1163 1461 94.3559 844.728 464.086
433 1 60.414 11.7853 712 85.0674 844.867 491.966
434 0 62.2158 11.7012 728 86.2981 845.265 490.426
435 0 66.4015 12.0027 797 88.5947 845.176 487.664
436 0 67.15 12.1817 818 91.3961 844.623 488.466
437 0 70.3602 12.2655 863 90.1136 844.677 486.406
438 0 72.453 12.6565 917 89.1483 844.98 485.299
439 0 74.1229 11.9666 887 87.6234 845.576 486.536
440 0 75.1158 12.1812 915 87.506 845.16 485.844
441 0 77.0359 11.4232 880 91.7591 845.992 483.822
442 0 79.0884 12.4165 982 90.2281 845.172 483.124
443 0 81.1676 11.9259 968 91.9329 844.906 480.46
444 0 85.094 12.0808 1028 90.679 845.299 478.98
445 0 86.2406 11.7926 1017 91.703 844.814 476.524
446 0 91.2565 12.7991 1168 87.9795 845.301 474.616
447 0 94.3884 11.9188 1125 89.5876 844.326 472.301
448 0 95.3789 12.1201 1156 90.4369 845.316 471.686
449 0 99.4443 11.9967 1193 92.4795 844.614 470.267
450 1 55.1489 10.2269 564 81.2252 844.977 495.73
451 0 58.1456 10.5769 615 77.187 844.909 495.659
452 0 58.1435 10.0785 586 79.5375 844.749 493.795
453 0 58.0454 10.4229 605 77.2661 845.068 493.101
454 0 61.0704 10.0212 612 77.585 845.69 491.995
455 0 63.1129 11.012 695 75.3482 845.178 489.37
456 0 66.1553 10.6114 702 75.5285 845.856 489.748
457 0 68.0663 10.5632 719 76.8707 845.549 487.637
458 0 70.1934 10.7417 754 82.366 845.915 483.748
459 0 72.14 10.3964 750 83.8907 845.359 484.132
460 0 73.0779 10.0578 735 85.1361 845.834 481.814
461 0 77.17 10.289 794 83.7884 846.107 480.389
462 0 79.1183 9.77018 773 83.9172 845.529 479.6
463 0 80.1206 9.6854 776 82.9588 845.728 477.812
464 0 82.1254 10.484 861 117.164 845.686 476.182
465 0 90.2134 10.9296 986 80.6207 845.844 477.436
466 0 90.2709 10.6457 961 82.3507 845.8 475.323
467 0 95.3094 11.1846 1066 79.576 845.577 474.873
468 0 98.2901 10.9065 1072 80.6371 845.949 472.318
469 0 100.156 11.3323 1135 81.7648 845.519 468.701
470 0 104.243 10.4372 1088 82.614 845.538 470.472
471 0 104.308 10.3923 1084 84.3533 844.537 464.372
472 0 109.281 10.3312 1129 84.4898 844.789 464.652
473 0 113.384 10.6188 1204 83.8198 845.299 462.625
474 0 116.436 10.5551 1229 84.048 844.834 460.514
475 0 119.195 9.88295 1178 84.5017 844.322 460.806
476 0 120.327 10.1972 1227 83.8191 844.275 456.244
477 1 62.178 10.4056 647 79.507 844.294 483.845
478 0 59.1444 10.8717 643 79.6407 844.549 479.631
479 0 64.1249 11.3684 729 76.5912 845.196 478.812
480 0 67.254 11.6424 783 77.7024 844.045 479.239
481 0 69.3039 11.8608 822 77.0377 844.287 476.648
482 0 70.2511 11.2027 787 77.6645 844.668 477.919
483 0 72.3069 11.7554 850 75.8847 844.185 475.56
484 0 73.2343 10.7736 789 78.5475 844.215 474.449
485 0 76.1491 11.8583 903 75.7741 844.357 472.009
486 0 78.1752 10.8986 852 78.561 844.75 469.938
487 0 78.0651 11.7466 917 77.5158 845.115 465.942
488 0 81.0638 11.2257 910 79.9385 844.032 466.749
489 0 80.0724 10.9276 875 81.5383 843.562 461.462
490 0 83.0655 11.5331 958 81.4833 843.805 460.799
491 0 87.0852 11.1385 970 81.8701 844.662 459.948
492 0 93.0633 11.8199 1100 79.4845 843.96 458.879
493 0 91.1235 11.1387 1015 81.9458 844.6 454.862
494 0 96.0411 11.0265 1059 82.1369 844.224 451.552
495 0 101.165 11.4862 1162 80.6713 844.485 452.823
496 0 101.126 10.5314 1065 83.9662 844.641 447.531
497 0 111.121 11.186 1243 81.7015 844.55 449.651
498 0 115.138 10.8739 1252 82.7061 844.112 449.649
499 1 67.157 9.66392 649 79.1202 843.917 482.539
500 0 66.066 9.41483 622 69.6431 844.098 484.076
501 0 71.0708 9.83526 699 69.0758 844.486 482.601
502 0 71.2614 9.71072 692 70.25 843.874 482.974
503 0 71.0756 7.99149 568 72.1303 844.504 479.504
504 0 77.1712 9.43357 728 70.3709 844.063 481.405
505 0 79.0722 9.97823 789 68.8365 843.947 482.157
506 0 82.1299 9.4728 778 69.9139 844.257 479.26
507 0 84.1023 10.2851 865 69.5919 843.91 478.521
508 0 88.1745 10.8648 958 68.8946 843.108 476.96
509 0 91.0875 10.4625 953 67.9748 843.901 476.321
510 0 91.0875 10.4844 955 130.057 844.912 476.429
511 0 96.1066 10.249 985 70.5117 843.213 474.28
512 0 100.132 11.5748 1159 68.9819 843.859 473.83
513 0 101.172 10.7935 1092 70.38 843.484 470.168
514 0 104.138 10.6013 1104 72.2246 843.759 468.693
515 0 105.28 9.83091 1035 74.1952 843.685 464.163
516 0 111.146 10.5717 1175 73.1481 842.931 464.058
517 0 112.118 10.5246 1180 73.9339 842.981 462.534
518 0 114.136 9.30468 1062 76.6893 843.217 458.818
519 0 119.069 9.5827 1141 77.3856 843.462 454.103
520 0 122.201 10.5564 1290 76.3845 843.79 456.3
521 0 126.168 9.8599 1244 77.951 843.2 451.088
522 0 131.213 10.1133 1327 76.8191 843.722 453.303
523 0 134.266 9.39177 1261 80.755 843.849 446.508
524 0 139.208 10.2005 1420 80.0465 843.44 443.454
525 0 146.241 11.2349 1643 77.4194 843.283 442.789
526 0 150.336 11.0486 1661 79.2288 842.957 437.859
527 0 156.264 11.8006 1844 78.6177 843.748 438.023
528 0 160.299 11.7655 1886 80.6389 843.363 437.154
529 0 165.404 12.007 1986 81.5337 842.701 433.655
530 0 170.436 12.0632 2056 83.0652 842.739 430.817
532 0 176.522 13.0466 2303 82.5371 843.03 429.223
533 0 182.429 12.5364 2287 85.0909 842.832 423.385
534 0 188.372 12.8469 2420 84.0756 842.014 421.476
535 0 195.519 12.9502 2532 83.2066 842.513 418.257
536 0 200.525 13.1355 2634 79.8508 842.206 418.903
537 0 206.399 12.7568 2633 80.9199 842.93 413.889
538 1 108.327 7.78199 843 71.4009 843.327 471.244
539 0 108.499 8.9125 967 72.788 842.961 470.157
540 0 112.368 9.33541 1049 74.3203 843.158 467.326
541 1 121.54 8.12078 987 79.0061 842.815 462.626
542 0 121.538 8.14562 990 140.513 841.803 462.911
543 0 121.445 10.2022 1239 79.8483 843.042 457.709
544 1 57.21 10.2255 585 66.0872 842.947 491.046
545 0 61.3397 10.6293 652 70.3926 843.658 492.316
546 0 63.1919 10.6185 671 71.1684 843.829 493.727
547 0 64.2496 10.3191 663 69.4389 843.124 493.793
548 0 66.2854 9.95694 660 70.1227 843.847 492.941
549 0 68.1818 9.95867 679 70.6657 843.92 490.664
550 0 69.1601 9.94794 688 71.9971 843.801 489.214
551 0 72.2438 9.20494 665 71.5895 844.137 489.487
552 0 72.1292 8.30454 599 64.9733 843.125 489.197
553 0 74.0945 8.51616 631 65.0618 843.818 486.643
554 0 77.1533 9.02101 696 64.4239 843.94 489.501
555 0 77.1961 8.64034 667 66.6942 843.483 486.357
556 0 84.1602 8.37689 705 66.3631 842.906 484.796
557 0 83.078 8.84711 735 66.4095 843.044 484.06
558 1 45.0548 6.10367 275 64.4764 843.047 504.578
559 0 46.0195 6.71455 309 65.8738 843.54 504.806
560 0 47.0696 7.11712 335 65.0299 843.06 504.158
561 0 50.0494 7.23286 362 66.7099 844.34 502.039
562 0 50.0445 6.89387 345 66.3391 844.058 500.113
563 0 57.1262 6.49439 371 63.1348 843.695 504.984
564 0 55.0567 7.68299 423 61.3783 843.645 497.52
565 0 55.1386 8.05244 444 63.1937 843.088 497.554
566 0 60.1216 8.68241 522 63.7356 842.343 496.584
567 0 60.0841 9.40349 565 66.6336 842.623 497.621
568 0 62.1412 9.94509 618 63.7087 843.141 495.752
569 0 65.1572 10.2982 671 63.9434 842.747 497.818
570 0 68.1804 11.5136 785 62.3032 842.578 496.527
571 0 69.0952 10.652 736 64.6196 842.433 497.16
572 0 71.2638 11.268 803 64.2204 842.445 494.347
573 0 73.0937 11.8889 869 64.0886 842.458 494.146
574 0 73.0857 11.5755 846 65.9574 842.043 494.226
575 0 77.1093 12.5277 966 64.353 842.465 492.54
576 0 78.0948 11.8958 929 66.5684 842.699 491.307
577 0 79.0524 11.8655 938 67.2708 842.469 490.479
578 0 82.1327 11.7128 962 69.5198 842.143 488.687
579 0 83.0806 11.7236 974 71.0216 842.15 488.955
580 0 87.1238 12.2929 1071 70.2568 842.267 487.371
581 0 87.1238 12.3388 1075 133.718 842.257 487.383
582 0 89.0893 11.9655 1066 74.4531 842.093 483.913
583 0 94.1526 12.3842 1166 73.5274 842.147 481.185
584 0 96.1514 12.0851 1162 78.3778 842.003 478.343
585 0 100.108 12.3567 1237 79.7745 841.864 478.652
586 0 103.205 12.0924 1248 79.9022 841.818 475.409
587 0 105.616 12.0531 1273 80.5915 841.191 471.911
588 1 59.2901 10.2715 609 71.4992 841.123 496.892
589 0 59.2175 10.5036 622 71.4984 841.161 497.175
590 0 61.1627 10.8399 663 72.81 842.255 500.256
591 0 62.2128 10.9141 679 76.4566 841.811 496.907
592 0 66.1172 11.2528 744 71.0296 841.888 498.702
593 0 65.1279 11.3776 741 72.3266 841.76 496.275
594 0 69.0913 11.9697 827 71.7823 842.318 496.983
595 0 69.1404 11.9178 824 72.7403 841.1 494.663
596 0 71.1182 11.502 818 74.5966 841.79 492.615
597 0 72.0724 11.3358 817 72.2069 842.131 493.507
598 0 75.0552 11.3383 851 72.7744 842.133 491.429
599 0 78.0538 11.4664 895 72.8425 842.25 491.342
600 0 78.1896 11.5233 901 74.2175 841.893 488.963
601 0 80.1083 10.8978 873 76.2268 841.898 487.47
602 0 84.1605 12.1553 1023 75.4418 842.643 488.808
603 0 84.1252 11.7206 986 78.5132 842.372 486.854
604 0 85.2619 11.4353 975 79.8862 842.254 485.984
605 0 89.0984 12.0204 1071 80.957 841.726 485.619
606 0 91.0941 11.5814 1055 83.6246 842.384 483.732
607 0 94.1676 11.7769 1109 82.8224 842.218 482.167
608 0 96.0768 12.1569 1168 83.2586 842.164 480.178
609 0 100.098 11.8684 1188 82.9806 841.664 479.897
610 0 102.121 12.5048 1277 81.581 842.623 478.709
611 0 104.163 12.1924 1270 83.326 842.28 477.917
612 0 110.133 12.5576 1383 82.611 842.237 477.286
613 0 112.182 12.2836 1378 85.2286 842.298 473.937
614 0 115.157 12.4526 1434 85.3445 841.561 472.464
615 0 121.112 13.1944 1598 84.0056 842.187 470.471
616 0 122.153 12.4598 1522 87.5519 841.804 468.63
617 0 125.184 12.4297 1556 89.0154 842.163 465.554
618 1 68.1271 11.4492 780 85.9564 841.35 493.829
619 0 69.1153 11.5749 800 86.3188 840.709 492.308
620 0 72.1366 11.6446 840 88.8262 841.362 490.783
621 0 74.0741 12.501 926 90.5022 841.952 487.897
622 0 78.1403 13.1686 1029 80.8163 841.48 487.5
623 0 79.1559 12.5954 997 81.4433 842.084 487.385
624 0 81.191 12.5999 1023 85.7742 840.997 485.069
625 0 86.1679 13.4273 1157 84.3872 841.601 483.557
626 0 88.1033 13.2458 1167 96.4722 842.105 480.609
627 0 91.1189 13.0708 1191 96.9127 842.159 479.653
628 0 94.1267 13.4287 1264 94.6566 841.252 480.498
629 0 96.0958 13.5698 1304 95.5575 841.39 477.9
630 0 99.108 13.8435 1372 100.337 841.794 475.081
631 0 102.187 13.7004 1400 100.489 841.459 475.745
632 0 104.156 13.9502 1453 98.7756 841.646 473.975
633 0 108.082 13.8229 1494 98.1084 842.826 470.782
634 0 111.228 14.1871 1578 97.9366 842.535 470.665
635 0 114.235 13.9625 1595 100.894 842.834 466.585
636 0 116.148 13.8616 1610 102.386 842.548 466.072
637 0 119.146 14.0081 1669 103.193 842.953 464.517
638 0 125.241 14.0768 1763 104.415 841.9 461.476
639 0 129.16 14.2613 1842 103.124 842.589 458.776
640 0 133.112 14.0032 1864 103.577 841.983 454.828
641 0 138.173 14.1199 1951 103.456 842.198 455.91
642 0 142.132 13.797 1961 105.306 843.349 453.551
643 0 147.181 13.5343 1992 107.908 842.609 449.185
644 1 84.0558 11.4924 966 106.3 843.104 479.988
645 0 85.0462 12.652 1076 108.191 843.287 477.815
646 0 92.0934 12.5742 1158 106.864 843.332 475.343
647 0 92.0681 12.7189 1171 107.969 842.475 473.675
648 0 95.0622 13.0336 1239 108.574 842.632 472.121
649 0 98.0488 13.5851 1332 107.399 843.258 470.597
650 0 101.041 13.4202 1356 108.447 842.371 468.293
651 0 101.042 12.9056 1304 111.795 842.604 465.789
652 0 106.056 13.1534 1395 110.019 842.229 464.802
653 0 110.168 12.9984 1432 110.87 842.774 461.285
654 0 113.134 12.9581 1466 112.521 842.658 460.267
655 0 113.095 13.2809 1502 112.203 842.74 457.883
656 0 118.203 13.0538 1543 111.785 843.519 453.51
657 0 120.158 13.6155 1636 111.069 843.616 450.357
658 0 122.094 13.6125 1662 111.704 843.11 445.857
659 0 126.179 13.3779 1688 110.718 843.4 443.268
660 0 126.16 13.3798 1688 167.982 843.392 443.239
661 1 139.127 13.0672 1818 111.759 843.572 439.197
662 1 79.2057 10.8452 859 103.991 843.371 475.563
663 0 86.2871 11.5429 996 104.541 843.05 475.418
664 0 83.0647 11.0877 921 100.292 844.922 475.001
665 0 88.1126 11.7236 1033 98.9409 844.69 474.7
666 0 88.0761 11.263 992 99.9617 844.468 474.028
667 0 92.0878 11.9886 1104 98.6784 844.728 471.124
668 0 95.0734 11.6647 1109 98.7439 845.528 469.418
669 0 98.0424 11.9132 1168 98.3262 844.25 469.586
670 0 99.0332 11.6829 1157 99.376 844.939 468.432
671 0 105.067 11.5831 1217 99.8513 844.511 465.616
672 0 105.068 11.5829 1217 100.242 844.619 464.928
673 0 112.094 11.6152 1302 99.2965 844.433 462.254
674 0 115.144 11.655 1342 99.3912 844.267 459.262
675 0 115.058 12.0026 1381 98.6155 843.718 454.188
676 0 120.12 11.4553 1376 100.625 843.597 452.852
677 1 67.1547 9.85784 662 94.9169 842.739 480.727
678 0 70.056 10.3203 723 90.5698 842.585 482.96
679 0 72.0795 10.9879 792 89.8662 842.785 479.941
680 0 76.095 10.96 834 87.699 841.887 480.687
681 0 77.0554 11.1348 858 86.7669 842.621 476.775
682 0 81.0581 11.2142 909 85.9593 842.305 476.936
683 0 83.1166 11.153 927 86.3172 842.563 475.57
684 0 83.1018 10.5293 875 89.1943 842.423 478.264
685 0 83.0748 9.97896 829 91.316 842.702 474.142
686 0 86.1489 10.5631 910 91.2132 843.533 473.204
687 0 91.1021 10.6584 971 89.9897 843.875 473.316
688 0 94.177 10.6608 1004 90.0478 843.285 472.522
689 0 96.1216 10.3619 996 92.8303 843.121 472.025
690 0 101.147 10.7269 1085 92.2719 843.011 469.766
691 0 104.099 11.1912 1165 91.9854 843.584 468.999
692 0 109.196 10.7055 1169 93.7322 843.593 467.359
693 0 106.069 10.3706 1100 95.0518 842.905 463.644
694 0 112.175 11.1077 1246 93.5746 842.543 461.03
695 0 114.091 10.6582 1216 95.0354 842.692 456.556
696 0 116.105 11.2829 1310 94.6634 842.992 455.575
697 1 68.1097 8.70654 593 95.7352 842.352 481.472
698 0 76.0855 10.4619 796 86.1005 843.176 486.887
699 0 77.0753 11.0282 850 86.1459 843.095 484.435
700 0 78.0543 9.42934 736 87.2935 843.549 485.878
701 0 78.059 9.24941 722 88.9044 842.988 484.86
702 0 81.0705 9.48557 769 89.0455 843.044 485.507
703 0 84.1096 9.03583 760 90.7026 842.046 482.218
704 0 87.0566 9.10902 793 90.6015 842.451 482.218
705 0 92.1061 9.77134 900 85.8667 842.661 481.272
706 0 95.1204 9.07271 863 85.2862 842.249 478.662
707 0 99.1791 9.55846 948 82.635 842.393 477.801
708 0 102.221 9.92951 1015 87.4059 842.193 476.57
709 0 104.111 9.9221 1033 88.1007 841.383 475.333
710 0 105.167 10.1077 1063 88.6802 842.214 474.678
711 0 111.182 10.6762 1187 86.4406 842.227 474.322
712 0 112.24 9.97859 1120 89.1554 841.871 472.062
713 0 113.272 9.55225 1082 91.0074 841.796 469.906
714 0 115.22 9.46018 1090 90.8706 842.43 468.277
715 0 118.251 9.92802 1174 89.8416 842.431 462.461
716 0 122.266 9.68382 1184 91.2584 842.192 463.407
717 0 127.426 10.6729 1360 86.2941 841.891 452.723
718 0 127.353 10.7183 1365 93.8725 842.322 450.905
719 0 132.295 11.4592 1516 84.8978 843.662 450.427
720 0 133.203 11.4111 1520 87.2454 842.997 444.155
721 0 136.105 10.3597 1410 91.883 841.984 439.104
722 1 81.2812 9.36256 761 83.1275 843.046 475.116
723 0 82.2664 10.3809 854 84.0222 841.811 474.433
724 0 89.235 10.1754 908 82.0518 842.994 479.632
725 0 93.2354 9.83531 917 81.3795 842.74 480.318
726 0 94.2189 9.62652 907 80.2745 843.797 477.359
727 0 98.2867 9.71647 955 80.0168 843.283 475.987
728 0 99.2314 9.7449 967 77.3464 843.086 473.889
729 0 102.207 9.30469 951 80.9685 843.101 467.716
730 0 102.207 9.40253 961 117.106 843.104 467.872
731 0 107.336 9.58668 1029 81.5539 842.893 469.861
732 0 110.269 9.86676 1088 81.9715 842.467 467.212
733 0 115.304 10.1645 1172 81.1647 843.265 465.615
734 0 119.27 10.6062 1265 81.3668 843.323 463.727
735 0 122.29 10.1807 1245 84.1486 842.52 462.28
736 0 125.269 11.8306 1482 82.4548 843.12 459.234
737 0 127.281 10.5829 1347 87.9451 841.658 453.948
738 0 131.443 11.3662 1494 85.8407 842.062 454.729
739 0 136.321 11.4656 1563 86.5829 842.051 451.863
740 0 140.409 11.2172 1575 86.633 842.374 449.497
741 1 79.3296 9.25254 734 79.7153 841.313 482.589
742 0 81.2603 8.65121 703 80.7639 841.431 481.026
743 0 83.3001 9.23168 769 78.632 841.84 480.098
744 0 86.1957 9.9541 858 76.3543 841.691 477.189
745 0 87.3058 9.47245 827 79.1342 841.466 477.746
746 0 90.0985 9.5895 864 77.4803 842.212 478.9
747 0 95.0983 10.6942 1017 75.4002 841.657 474.046
748 0 99.1221 11.3093 1121 73.5647 842.065 474.037
749 0 99.2233 10.2194 1014 83.0118 841.898 470.904
750 0 104.149 9.66882 1007 83.716 842.531 468.777
751 0 105.226 10.7008 1126 81.9307 842.402 467.951
752 0 108.106 10.2862 1112 84.1088 842.018 463.947
753 0 110.158 10.4123 1147 84.3871 842.258 463.941
754 0 115.177 10.9658 1263 81.2328 842.271 464.995
755 0 117.099 11.2042 1312 81.3758 841.99 460.915
756 0 120.248 10.5449 1268 82.2121 842.036 461.207
757 0 122.184 10.918 1334 82.8973 843.348 459.483
758 0 126.09 11.3649 1433 84.6923 842.713 460.272
759 0 128.212 11.8242 1516 85.4182 844.247 453.986
760 0 132.15 12.2663 1621 85.1943 843.402 454.258
761 0 135.173 11.5925 1567 85.6611 843.057 452.129
762 0 139.121 11.6661 1623 86.4338 844.003 451.522
763 0 144.163 11.8061 1702 88.1933 843.351 444.729
764 0 152.234 12.1129 1844 87.9219 844.166 446.247
765 0 155.183 13.1329 2038 88.6197 843.483 444.78
766 0 159.264 12.0429 1918 92.4468 844.071 439.2
767 1 92.1162 9.69428 893 85.813 843.286 476.329
768 0 96.1217 11.0381 1061 87.2545 844.057 473.876
769 0 99.1325 10.5515 1046 90.4254 844.161 473.312
770 0 101.107 11.6708 1180 90.0941 843.719 471.775
771 0 106.048 12.2208 1296 89.5046 843.536 472.148
772 0 107.089 11.3551 1216 93.4243 842.395 472.995
773 0 110.064 11.5842 1275 94.4329 842.667 471.053
774 0 112.133 11.4418 1283 95.2479 843.074 469.545
775 0 115.186 11.3468 1307 97.5318 843.599 465.868
776 0 118.193 11.8281 1398 95.2618 843.306 465.809
777 0 121.08 11.6782 1414 95.587 843.052 459.937
778 0 123.091 11.2437 1384 96.0824 845.098 457.491
779 0 121.087 11.2316 1360 158.04 846.101 456.554
780 0 126.182 11.7767 1486 97.6797 844.447 452.761
781 0 132.112 12.2396 1617 95.1769 843.508 449.596
782 0 131.087 11.13 1459 100.621 844.633 444.704
783 0 130.055 12.1102 1575 100.662 844.352 436.907
784 0 134.063 12.6583 1697 99.7684 844.417 435.813
785 0 134.063 12.703 1703 163.088 844.408 435.782
786 0 140.136 12.2595 1718 103.066 843.56 426.659
787 0 143.162 13.0552 1869 101.858 844.454 425.208
788 0 148.136 12.4413 1843 104.424 843.25 421.928
789 0 152.215 12.7648 1943 105.03 843.921 418.167
790 0 155.26 12.5145 1943 106.811 843.896 416.496
791 0 160.194 12.1415 1945 110.68 844.077 415.52
792 0 166.291 12.3218 2049 111.299 844.051 409.751
793 0 170.202 12.3442 2101 111.829 844.392 406.621
794 0 176.355 12.5316 2210 111.56 844.118 405.463
795 0 183.257 12.8672 2358 111.36 845.01 401.03
796 0 189.367 12.8058 2425 112.451 844.268 400.864
797 0 192.18 12.4831 2399 112.638 844.805 396.424
798 0 200.408 12.1951 2444 113.441 844.417 397.57
799 0 207.429 12.6887 2632 115.972 844.296 392.785
800 0 213.445 12.4435 2656 116.61 843.715 387.338
801 1 30.0144 5.93048 178 67.2303 844.663 488.596
802 0 30.1009 7.0762 213 67.5023 843.347 486.911
803 1 44.0295 7.17701 316 66.7627 842.766 492.215
804 0 52.057 8.75963 456 69.4649 844.893 500.107
805 0 55.0336 8.24951 454 69.7533 844.967 500.02
806 0 56.131 9.13934 513 69.6647 844.48 499.324
807 0 54.0295 8.69896 470 70.7 844.134 499.183
808 0 59.0714 9.85249 582 68.8351 843.505 498.529
809 0 56.0512 9.02747 506 72.3577 844.065 498.498
810 0 59.0764 9.27613 548 71.8431 843.641 498.177
811 0 61.1385 8.68519 531 72.6629 843.84 495.889
812 0 62.0682 9.60233 596 72.6812 843.604 495.953
813 0 65.0772 9.08152 591 73.0135 843.631 495.396
814 0 66.0858 9.5482 631 73.0095 844.521 492.609
815 0 66.0684 8.8696 586 75.8959 844.498 493.16
816 1 38.0277 4.6282 176 78.7614 844.051 507.602
817 0 47.0378 5.52747 260 80.2308 843.404 504.1
818 0 39.0216 5.68915 222 78.8694 843.054 507.014
819 0 37.0124 5.26851 195 78.5487 843.395 509.164
820 0 33.0211 4.78482 158 82.3987 842.671 504.399
821 0 43.0299 5.90287 254 79.9094 842.63 501.307
822 1 86.1923 10.581 912 86.3103 842.202 484.5
823 0 88.1206 10.236 902 86.714 842.518 483.29
824 0 90.1796 11.1999 1010 85.0059 842.022 482.025
825 0 94.1232 10.4544 984 85.2703 842.458 482.574
826 1 54.0564 8.91661 482 80.6846 841.243 503.041
827 0 57.1391 9.94065 568 77.0863 841.9 501.227
828 0 58.1551 10.9879 639 71.0141 841.61 500.809
829 0 59.0263 10.8765 642 68.3458 841.673 500.417
830 0 60.0266 10.1289 608 69.4062 841.836 501.03
831 0 64.0273 11.0109 705 67.6908 841.441 498.709
832 0 65.0248 10.5806 688 69.0523 842.132 497.84
833 0 65.0597 10.5288 685 70.7927 841.441 497.108
834 0 66.1009 11.0891 733 71.1678 842.061 496.422
835 0 69.0897 10.0594 695 73.1065 842.23 495.083
836 0 69.0796 9.95953 688 106.462 842.273 494.994
837 0 73.0364 10.4331 762 72.0866 842.951 491.682
838 0 75.1281 11.2741 847 84.6682 842.653 489.876
839 0 78.1404 10.7499 840 85.4607 841.752 487.41
840 0 79.1002 11.0113 871 85.7061 842.296 486.701
841 0 81.148 11.7317 952 84.312 842.067 484.485
842 0 85.0981 12.5385 1067 81.0637 842.122 485.591
843 0 85.2528 12.3163 1050 84.5743 841.94 482.712
844 0 87.2036 12.6142 1100 81.8755 842.307 479.877
845 0 91.185 12.0415 1098 80.2778 842.332 480.714
846 0 91.1793 11.8558 1081 80.0759 841.097 478.333
847 0 94.1359 11.5896 1091 80.9047 841.409 478.051
848 0 96.1214 12.2137 1174 80.9395 841.439 476.811
849 0 99.118 11.905 1180 80.3127 841.747 473.753
850 0 102.142 11.7875 1204 81.5623 841.689 472.844
851 0 104.063 11.7333 1221 81.0745 842.8 472.984
852 0 107.073 11.7023 1253 81.4589 842.576 471.528
853 0 110.1 12.6158 1389 80.2124 842.686 469.919
854 0 113.17 12.7419 1442 79.9854 842.094 470.387
855 0 116.157 12.6725 1472 80.2364 842.234 468.62
856 0 117.208 11.7996 1383 81.9328 842.057 467.67
857 0 123.278 12.9788 1600 81.47 842.379 464.642
858 0 124.132 12.7203 1579 84.8607 841.985 462.863
859 0 127.31 12.8191 1632 85.4804 842.225 460.866
860 0 132.315 12.7801 1691 84.5476 842.266 459.873
861 0 134.272 12.281 1649 85.832 841.296 455.267
862 0 139.289 12.693 1768 86.319 842.242 453.881
863 0 143.297 12.0658 1729 88.1637 842.986 450.547
864 0 146.321 11.673 1708 91.0369 842.379 447.032
865 0 150.369 11.7312 1764 90.9342 841.931 444.445
866 0 153.372 12.2056 1872 89.0337 842.609 440.18
867 0 160.307 12.6195 2023 86.3742 842.569 438.178
868 0 164.408 12.3838 2036 85.6336 842.318 435.816
869 0 169.352 12.0695 2044 86.2642 842.006 430.459
870 0 173.331 12.6694 2196 84.4422 841.888 428.308
871 0 178.337 12.9474 2309 83.2512 842.069 425.509
872 0 184.29 12.6106 2324 83.2827 842.068 423.552
873 0 187.276 12.8153 2400 83.385 841.562 421.037
874 0 194.32 13.0712 2540 82.4965 841.656 418.635
875 0 196.329 11.8475 2326 84.9273 841.525 415.916
876 0 199.277 11.9783 2387 88.3938 841.491 412.528
877 0 208.461 12.8897 2687 85.6844 840.941 409.806
878 1 46.1403 7.86732 363 67.6749 841.306 497.981
879 0 47.0164 7.80579 367 68.6131 841.572 495.921
880 0 50.0327 9.47381 474 67.2574 842.397 496.863
881 0 52.0221 8.97696 467 68.3683 843.182 497.441
882 0 52.0223 9.4767 493 69.9351 842.665 496.994
883 0 56.0296 9.97687 559 70.0877 843.424 496.379
884 0 56.0273 9.94158 557 98.8887 844.42 496.235
885 0 57.0169 9.2955 530 74.7792 841.975 491.54
886 0 61.0948 9.62438 588 74.4813 842.639 491.136
887 0 61.102 9.62325 588 106.367 844.639 491.136
888 0 66.0296 10.465 691 75.6049 842.848 492.802
889 0 66.0655 9.41489 622 78.3971 842.966 491.442
890 0 66.0527 9.46214 625 118.384 842.947 491.45
891 0 72.042 10.5078 757 77.3897 842.885 488.453
892 0 72.0911 9.94575 717 78.9066 842.463 486.941
893 0 77.0781 10.5348 812 76.6933 843.214 488.085
894 0 78.167 10.1066 790 80.2823 842.924 486.305
895 0 78.1694 10.183 796 121.389 842.913 486.408
896 0 83.1326 10.5855 880 80.7841 842.745 481.291
897 0 84.105 10.1183 851 83.9929 843.716 477.353
898 0 89.1114 10.8516 967 82.3578 843.457 478.599
899 0 91.1707 10.3213 941 84.7705 843.536 475.046
900 1 49.0842 9.24941 454 82.7004 842.273 496.773
901 0 47.0369 8.22758 387 85.4419 841.817 491.305
902 0 48.0335 9.82647 472 83.8093 842.142 493.468
903 0 54.0924 9.59469 519 81.3988 842.911 497.256
904 0 53.0802 8.59077 456 73.3531 842.064 498.612
905 0 52.0574 8.87482 462 75.2143 842.197 496.385
906 0 54.0468 8.52965 461 75.7636 842.102 496.79
907 0 57.0394 8.85353 505 75.899 841.707 493.515
908 0 55.2254 7.1525 395 72.3494 842.732 486.223
909 0 60.0829 9.25388 556 74.2428 843.268 492.572
910 0 65.167 10.8644 708 72.0438 842.503 492.678
911 0 67.1534 10.7515 722 73.1302 842.802 493.335
912 0 67.175 10.6438 715 75.0112 841.639 491.811
913 0 70.0525 10.7491 753 74.1288 841.835 490.292
914 0 71.1244 10.7839 767 75.0769 841.831 490.939
915 0 72.0593 10.7273 773 75.1876 842.247 490.268
916 0 72.0557 10.8944 785 76.2726 841.995 489.18
917 0 77.1057 11.2573 868 75.2131 842.044 488.01
918 0 77.0809 10.6382 820 77.0841 841.8 486.049
919 0 79.1504 10.3853 822 76.32 842.423 485.729
920 0 82.0448 11.4937 943 74.5164 841.69 484.485
921 0 85.0886 11.9052 1013 74.7552 843.391 482.689
922 0 85.0716 11.9076 1013 126.55 843.392 482.721
923 0 91.0646 11.2667 1026 76.6832 842.481 481.788
924 0 92.0263 11.0729 1019 78.9725 842.241 477.013
925 0 95.1263 12.0577 1147 78.8282 841.889 476.633
926 0 97.0792 11.4031 1107 82.0325 842.331 477.037
927 0 99.0467 10.8535 1075 85.1442 842.363 475.645
928 0 104.057 11.4841 1195 85.4243 841.965 474.972
929 1 54.0219 8.88529 480 75.3833 843.385 504.446
930 0 55.1216 8.68987 479 78.4843 842.219 502.401
931 0 58.0391 8.99394 522 78.4808 842.18 501.987
932 0 58.0598 9.1802 533 78.1351 841.807 503.233
933 0 63.0432 8.45452 533 79.1032 841.053 502.235
934 0 63.0778 9.17913 579 79.9275 841.04 501.024
935 0 64.1239 9.9027 635 80.5937 840.357 496.995
936 0 66.0671 10.1866 673 79.6092 840.238 499.227
937 0 70.1228 10.5244 738 79.6518 839.939 495.93
938 0 70.1475 10.6775 749 80.3258 840.041 496.391
939 0 73.1222 11.7475 859 78.142 840.377 497.18
940 0 74.141 11.6535 864 79.2222 840.237 493.784
941 0 76.0847 11.198 852 81.0188 840.022 492.878
942 0 78.1606 12.0905 945 81.7185 839.727 492.54
943 0 82.1804 12.5334 1030 81.9369 839.224 488.392
944 0 84.1173 12.1973 1026 80.2612 839.127 489.333
945 0 87.0747 12.4835 1087 78.7415 839.675 490.233
946 0 89.0628 12.2947 1095 80.0201 839.668 487.289
947 0 91.1612 12.5053 1140 79.0325 840.562 485.862
948 0 93.0809 12.2689 1142 77.9229 840.994 483.147
949 0 96.1726 12.1448 1168 79.4409 840.652 482.515
950 0 98.0607 11.5439 1132 81.3048 840.481 479.967
951 0 100.118 12.3155 1233 88.0552 841.148 480.174
952 0 102.118 11.9568 1221 90.4357 841.256 479.26
953 0 107.183 12.8098 1373 94.4268 841.84 476.019
954 0 110.083 11.8457 1304 95.8244 841.334 475.729
955 0 113.103 12.3692 1399 94.8234 841.741 474.744
956 0 117.2 12.6792 1486 84.4233 841.803 472.375
957 0 117.097 12.5195 1466 85.854 841.935 469.25
958 0 123.183 12.6722 1561 84.4574 841.785 469.277
959 0 127.184 13.1463 1672 82.0371 841.438 465.54
960 0 130.207 12.8794 1677 83.4937 842.136 462.735
961 0 133.173 12.3374 1643 86.1053 840.887 462.095
962 0 136.244 12.8299 1748 84.4005 841.108 458.125
963 0 141.214 13.1431 1856 84.7225 841.462 454.309
964 0 143.324 12.1612 1743 87.4739 841.141 452.492
965 0 151.342 13.0697 1978 86.1542 841.284 448.701
966 0 153.218 12.0678 1849 86.7372 842.159 446.91
967 0 159.274 12.4251 1979 88.4624 840.933 445.8
968 0 164.289 12.685 2084 89.7404 841.246 442.539
969 1 91.2501 11.3863 1039 88.3099 841.68 479.45
970 0 92.2467 11.4367 1055 92.2559 841.126 475.063
971 0 95.2421 12.0115 1144 91.4327 841.614 471.862
972 0 96.1563 11.5125 1107 91.4092 841.855 474.648
973 0 100.168 11.5806 1160 90.6595 842.138 471.071
974 0 101.142 11.5976 1173 90.1441 842.171 467.337
975 0 103.074 10.9533 1129 85.8361 842.271 471.195
976 0 105.075 10.7542 1130 85.715 842.996 466.792
977 0 111.1 11.1702 1241 84.589 843.251 462.382
978 0 115.097 10.9212 1257 84.7796 843.566 465.5
979 0 119.191 11.6116 1384 92.1756 843.536 464.353
980 0 124.166 11.549 1434 94.0077 843.789 462.198
981 0 125.242 11.4977 1440 94.9931 843.417 458.983
982 0 127.229 10.9959 1399 87.6119 843.785 454.611
983 0 132.236 11.5778 1531 86.6643 842.903 450.212
984 0 136.214 11.3278 1543 88.7498 842.924 447.747
985 0 140.214 11.461 1607 88.8494 842.907 443.216
986 0 146.235 12.0765 1766 90.9943 842.18 437.496
987 1 76.0919 7.92462 603 91.9818 843.39 465.597
988 0 81.2292 9.7625 793 87.947 842.479 468.625
989 0 86.1131 10.9391 942 85.3588 842.195 469.801
990 0 90.1193 11.9286 1075 82.8167 841.462 470.127
991 0 90.1326 11.3278 1021 77.142 842.454 467.833
992 0 95.0936 11.21 1066 78.2814 842.117 467.634
993 0 97.1702 11.804 1147 78.9791 842.218 464.391
994 0 101.115 12.1644 1230 79.0748 841.861 464.72
995 0 103.17 11.4084 1177 80.8751 842.255 462.696
996 0 109.167 12.6686 1383 84.9277 841.568 468.684
997 0 112.118 12.8882 1445 84.7952 842.298 466.568
998 0 115.293 13.019 1501 85.3304 842.559 464.746
999 0 117.159 12.4531 1459 86.7971 842.683 461.371
1000 0 122.218 12.9523 1583 85.1124 842.625 460.603
1001 0 118.108 11.7096 1383 87.5004 842.396 451.416
1002 0 119.127 11.1058 1323 89.9093 842.45 448.315
1003 0 124.11 11.1111 1379 89.2197 842.791 446.956
1004 0 131.168 11.3518 1489 88.3566 843.167 445.68
1005 0 134.109 11.4011 1529 88.2937 844.197 447.752
1006 0 138.139 11.1554 1541 88.4153 843.417 442.306
1007 0 144.175 10.9381 1577 88.65 844.068 442.672
1008 0 151.122 10.7264 1621 88.8532 843.905 439.737
1009 0 157.208 10.7882 1696 87.1946 843.779 438.544
1010 1 87.2338 9.90442 864 76.9606 843.206 481.778
1011 0 91.1643 10.6292 969 76.5511 843.452 480.348
1012 0 93.2337 11.4658 1069 74.5117 843.069 479.071
1013 0 96.208 11.1529 1073 74.6962 843.183 476.335
1014 0 98.252 10.9311 1074 76.1816 842.982 474.988
1015 0 103.124 10.9479 1129 76.8769 843.087 472.41
1016 0 105.13 11.9377 1255 75.5347 843.314 468.809
1017 0 108.201 11.1367 1205 82.3602 843.605 468.934
1018 0 112.203 12.0585 1353 79.7539 844.452 467.087
1019 0 115.153 12.0101 1383 79.9913 844.221 467.864
1020 0 118.244 10.952 1295 82.2239 844.157 463.147
1021 0 121.304 11.6649 1415 80.2721 843.422 462.348
1022 0 124.257 12.0395 1496 78.8717 843.21 461.321
1023 0 127.313 11.3657 1447 81.2813 843.985 456.414
1024 0 131.419 11.3607 1493 81.2271 844.534 452.005
1025 0 135.331 12.1776 1648 80.4187 843.464 450.025
1026 0 139.383 12.7132 1772 80.0192 843.98 448.65
1027 0 142.35 12.1742 1733 80.9279 843.496 448.579
1028 0 146.287 12.1542 1778 81.9235 843.192 444.31
1029 0 149.332 12.1407 1813 82.84 842.744 442.581
1030 0 155.573 12.38 1926 83.5929 842.665 439.832
1031 0 160.427 12.1052 1942 84.8934 842.821 437.774
1032 0 164.445 11.3472 1866 87.8532 842.72 433.757
1033 1 91.2745 10.8464 990 80.203 842.325 470.682
1034 0 94.2507 11.3845 1073 83.4371 842.474 468.764
1035 0 93.1651 11.0127 1026 82.9961 842.33 471.212
1036 0 97.0925 11.5766 1124 83.0845 842.735 469.362
1037 0 101.158 11.3881 1152 84.5391 843.194 466.658
1038 0 103.141 12.129 1251 86.5691 842.601 463.701
1039 0 108.192 12.0157 1300 97.2315 842.514 460.011
1040 0 110.243 12.5451 1383 98.0043 842.341 457.348
1041 0 114.222 13.0798 1494 97.0984 842.607 456.531
1042 0 114.331 12.1665 1391 95.0273 842.373 459.333
1043 0 118.28 12.9185 1528 92.3436 842.58 457.338
1044 0 121.211 12.4824 1513 93.1117 842.794 454.025
1045 0 125.31 13.1594 1649 92.8017 842.016 448.774
1046 0 128.122 13.1827 1689 91.6791 841.826 447.459
1047 0 136.214 13.2732 1808 89.0431 841.755 444.331
1048 0 141.248 13.0975 1850 89.1297 842.064 441.436
1049 0 146.292 13.9721 2044 86.91 842.728 437.469
1050 1 78.1723 11.5642 904 90.9104 842.917 472.335
1051 0 81.3029 11.6232 945 88.9598 842.459 472.127
1052 0 83.1246 12.4392 1034 86.3308 842.745 471.29
1053 0 86.3371 12.1153 1046 85.9656 842.886 471.485
1054 0 89.2429 12.494 1115 88.4206 843.133 469.374
1055 0 93.1908 11.8467 1104 91.4764 843.52 468.902
1056 0 95.1651 12.6097 1200 90.4908 843.261 465.337
1057 0 97.2064 11.8305 1150 91.4635 843.966 463.657
1058 0 100.231 12.1619 1219 92.3142 843.263 462.809
1059 0 103.173 12.0768 1246 92.7496 842.99 461.917
1060 0 108.243 12.3149 1333 91.4584 842.869 456.56
1061 0 108.177 12.2114 1321 92.6858 843.106 453.518
1062 0 113.193 12.5273 1418 90.5867 843.428 454.493
1063 1 60.135 10.7591 647 91.9737 842.615 480.073
1064 0 59.1628 11.1218 658 91.652 842.91 478.381
1065 0 63.1767 11.2383 710 88.3493 842.859 476.7
1066 0 66.1757 12.2704 812 86.2611 843.007 475.629
1067 0 65.2483 11.2034 731 91.7989 842.927 476.672
1068 0 67.1827 10.2854 691 95.3661 843.282 476.192
1069 0 71.1241 11.5994 825 92.0448 843.167 474.891
1070 0 71.1499 10.4427 743 95.1911 843.324 472.367
1071 0 78.0921 11.7169 915 91.0284 843.597 472.729
1072 0 80.1964 11.0105 883 92.9128 843.326 471.76
1073 0 80.157 11.203 898 94.4878 843.826 468.664
1074 0 86.1806 11.3947 982 91.8259 843.311 467.629
1075 0 87.1874 11.8595 1034 90.9816 843.446 467.674
1076 0 89.2143 11.209 1000 92.717 843.082 464.869
1077 0 92.2266 11.9488 1102 92.1779 843.397 462.439
1078 0 94.2105 11.8458 1116 92.2563 842.345 461.15
1079 0 96.085 12.0622 1159 92.6074 842.304 458.389
1080 0 101.187 12.1261 1227 92.1793 843.243 456.808
1081 0 104.097 12.1233 1262 91.9461 843.625 453.819
1082 0 108.23 12.1408 1314 91.9505 842.89 451.9
1083 0 112.127 12.0934 1356 92.0531 843.447 449.127
1084 0 115.095 12.4332 1431 91.9168 842.7 445.659
1085 0 118.136 12.6718 1497 91.6733 842.795 445.331
1086 0 124.158 12.7419 1582 92.323 842.551 443.82
1087 1 64.0871 9.56511 613 91.739 842.044 475.077
1088 0 65.0754 10.8797 708 90.6186 842.494 472.287
1089 0 68.0962 11.1313 758 100.47 842.049 473.765
1090 0 69.0796 10.7847 745 102.026 842.517 471.087
1091 0 74.0793 11.6497 863 100.305 842.433 470.591
1092 0 76.0931 11.9853 912 99.3805 842.396 470.603
1093 0 76.1228 12.0463 917 97.7514 842.928 469.413
1094 0 79.0903 11.5817 916 98.9836 842.326 469.316
1095 0 81.0815 11.4083 925 100.234 842.293 468.252
1096 0 85.0256 11.1613 949 99.9737 841.868 465.649
1097 0 88.057 12.0377 1060 98.0849 842.279 464.571
1098 0 90.0742 11.5016 1036 99.9093 842.228 461.721
1099 0 91.0852 11.352 1034 99.5551 843.293 461.92
1100 0 95.0643 11.4659 1090 98.145 843.964 460.663
1101 0 101.083 11.2877 1141 96.4575 843.353 459.089
1102 0 105.129 11.6333 1223 95.2584 844.456 455.637
1103 0 107.099 10.9992 1178 96.4584 843.703 453.049
1104 0 111.12 10.6822 1187 96.0295 843.382 451.017
1105 1 124.104 8.09808 1005 99.7343 842.613 450.724
1106 1 113.141 7.93701 898 101.311 842.905 450.94
1107 1 139.136 10.1412 1411 93.5103 843.285 445.219
1108 0 148.359 11.5665 1716 88.6871 842.698 450.749
1109 1 86.1809 9.38723 809 75.2052 843.455 486.388
1110 0 88.1127 10.0326 884 76.5792 843.355 485.469
1111 0 91.3007 9.9123 905 77.5072 843.562 482.253
1112 0 91.0853 10.9458 997 88.8445 841.858 477.348
1113 0 96.1596 11.5121 1107 87.2204 841.359 476.643
1114 0 98.1465 11.6764 1146 87.4023 841.887 475.89
1115 0 100.145 11.2936 1131 88.9929 842.34 473.51
1116 0 102.119 11.6726 1192 89.4513 841.96 470.75
1117 0 104.107 11.7667 1225 90.4196 841.962 468.764
1118 0 104.097 12.1234 1262 90.2021 841.96 467.838
1119 0 106.085 12.1507 1289 91.3173 842.574 462.28
1120 0 109.131 11.9947 1309 91.7945 842.31 460.058
1121 0 116.091 11.8011 1370 91.3927 842.975 461.783
1122 0 117.088 12.2985 1440 91.6542 843.159 456.604
1123 0 120.097 12.057 1448 92.0628 842.006 455.819
1124 0 125.151 12.2652 1535 92.8143 842.701 452.393
1125 0 128.097 12.2017 1563 93.5918 841.725 451.361
1126 0 135.062 12.0685 1630 93.581 842.603 448.708
1127 1 72.042 8.93923 644 93.2391 843.866 481.306
1128 0 75.064 10.1247 760 92.8947 844.043 481.343
1129 0 85.2073 10.1987 869 89.6559 844.669 482.945
1130 0 84.0928 10.3457 870 87.4724 843.813 485.456
1131 0 86.0872 10.2222 880 89.4023 844.615 484.367
1132 0 90.1127 10.4758 944 89.7447 845.094 482.669
1133 0 94.1265 10.4328 982 90.0998 844.224 481.993
1134 0 96.2096 11.0696 1065 90.6714 844.541 479.589
1135 0 98.1081 10.2846 1009 94.6591 843.826 477.522
1136 0 100.129 10.1569 1017 96.1583 843.674 476.531
1137 0 102.103 10.0781 1029 96.4082 843.396 475.535
1138 0 105.192 10.6472 1120 96.6679 843.154 471.562
1139 0 108.14 10.6344 1150 97.0487 842.683 470.019
1140 0 110.074 10.184 1121 97.9822 843.582 469.983
1141 0 113.137 10.2795 1163 97.454 843.591 468.159
1142 0 117.155 10.3538 1213 97.5845 842.866 464.657
1143 0 118.138 10.0222 1184 99.2998 843.529 461.73
1144 0 121.153 10.4001 1260 99.0825 842.729 459.117
1145 0 119.124 10.2246 1218 101.154 842.722 456.516
1146 0 126.126 9.82352 1239 100.502 842.525 455.257
1147 0 132.126 10.2781 1358 100.002 843.068 453.932
1148 0 134.114 9.69323 1300 101.993 842.585 452.93
1149 0 144.146 9.91354 1429 100.671 842.192 455.623
1150 0 150.225 10.2912 1546 87.6391 842.098 452.312
1151 0 154.214 10.3104 1590 89.1019 841.769 451.472
1152 0 158.308 10.5174 1665 89.7586 841.813 446.92
1153 0 161.188 10.3047 1661 88.6285 842.137 445.567
1154 1 95.0736 10.0449 955 78.7728 843.616 480.448
1155 0 96.073 9.73218 935 80.8877 843.006 477.521
1156 0 97.0868 9.25976 899 82.9021 843.121 477.486
1157 0 101.047 9.91617 1002 82.3962 843.135 475.933
1158 0 103.078 10.5551 1088 82.7886 842.926 476.543
1159 0 106.073 10.276 1090 84.2229 842.881 475.812
1160 0 108.106 10.7209 1159 84.9629 842.394 473.001
1161 0 111.075 10.1733 1130 87.3451 842.412 469.012
1162 0 113.117 10.3344 1169 88.1454 842.508 468.849
1163 0 116.126 10.4541 1214 88.9465 841.913 467.004
1164 0 116.121 10.3082 1197 89.2314 841.495 464.067
1165 0 122.19 10.4427 1276 88.9295 841.679 463.614
1166 0 125.137 11.0359 1381 87.4287 841.285 462.728
1167 0 128.09 10.1647 1302 89.5737 842.754 459.401
1168 0 133.176 10.8428 1444 89.732 842.039 452.884
1169 0 140.131 11.6748 1636 91.4248 841.285 455.901
1170 0 143.252 12.7886 1832 93.3084 840.747 454.23
1171 1 74.1439 8.83417 655 83.9099 840.838 477.742
1172 0 74.096 9.64964 715 83.6979 841.15 472.515
1173 0 81.1353 9.7738 793 83.2963 840.907 477.66
1174 0 83.0937 9.85634 819 75.9341 841.98 474.758
1175 0 85.1313 9.9141 844 76.4396 841.829 472.118
1176 0 88.1304 11.4376 1008 74.627 842.133 471.793
1177 0 90.0928 10.467 943 77.7879 842.344 469.196
1178 0 93.1217 10.4165 970 78.4814 841.192 470.448
1179 0 95.1286 10.3965 989 81.2659 841.775 466.493
1180 0 98.1071 9.70368 952 83.3971 841.329 463.141
1181 0 101.199 10.3163 1044 83.9377 841.977 460.647
1182 0 102.107 9.66634 987 86.1307 841.257 460.254
1183 0 108.285 9.74279 1055 88.7924 841.143 459.381
1184 0 110.131 9.84285 1084 88.7758 841.949 456.592
1185 0 115.189 9.76656 1125 89.3884 841.297 459.272
1186 0 118.17 10.341 1222 91.0491 841.911 457.034
1187 1 73.2048 9.99934 732 93.4426 841.283 492.665
1188 0 74.2051 10.6192 788 92.4099 842.283 490.344
1189 0 70.1122 9.95547 698 95.3424 840.791 483.603
1190 0 70.1492 10.3066 723 93.7414 841.433 480.941
1191 0 79.1288 11.7277 928 89.2694 841.614 483.239
1192 0 83.0902 12.1555 1010 87.7228 841.425 487.664
1193 0 83.1066 12.1771 1012 88.418 841.711 486.327
1194 0 88.1212 12.131 1069 87.9757 841.276 485.644
1195 0 88.1287 11.835 1043 90.1735 841.057 483.547
1196 0 91.146 12.0905 1102 89.5871 841.549 480.985
1197 0 93.0953 12.3207 1147 88.136 841.578 478.69
1198 0 97.0859 12.0512 1170 89.4607 841.306 477.655
1199 0 99.1217 11.5313 1143 88.8635 842.002 476.919
1200 0 102.202 12.1524 1242 87.7246 842.1 475.031
1201 0 103.148 11.3623 1172 90.2927 841.722 474.835
1202 0 105.134 11.3569 1194 89.6918 841.871 473.352
1203 0 110.177 11.2092 1235 87.8291 841.629 472.518
1204 0 111.097 11.2064 1245 89.0948 841.446 468.943
1205 0 116.122 11.0143 1279 89.8217 841.99 466.162
1206 1 61.0222 9.79971 598 88.0619 842.064 494.149
1207 0 63.049 10.468 660 87.4818 842.771 493.78
1208 0 65.0857 11.0009 716 88.0126 842.133 492.306
1209 0 67.1656 9.2607 622 73.6752 840.698 492.524
1210 0 67.078 10.8381 727 80.608 840.323 492.506
1211 0 71.0954 9.91625 705 72.5759 840.877 490.965
1212 0 71.0652 9.20281 654 70.1024 840.946 485.865
1213 0 71.0433 9.51533 676 71.3698 841.117 486.506
1214 0 75.0879 9.82848 738 71.2846 840.533 486.963
1215 0 79.0444 10.6649 843 72.0724 840.893 488.051
1216 0 82.0847 11.013 904 71.3573 840.506 486.265
1217 0 83.0955 9.96444 828 73.4589 840.99 484.605
1218 0 82.105 9.74362 800 76.5012 841.971 484.532
1219 0 84.1747 8.815 742 77.8639 841.418 484.239
1220 0 86.0562 9.0987 783 78.5045 840.742 482.079
1221 0 88.0494 8.34759 735 79.5673 841.816 481.098
1222 0 85.0776 7.95744 677 99.6529 842.854 479.18
1223 0 95.1131 8.77902 835 79.697 841.295 476.095
1224 1 52.0254 8.14987 424 76.3608 840.769 500.616
1225 0 52.0447 7.24377 377 77.6976 840.735 500.928
1226 0 54.0675 8.21196 444 75.8919 841.173 496.615
1227 0 58.0133 8.73937 507 75.6529 841.012 497.712
1228 0 55.1179 8.78118 484 77.1446 841.44 495.787
1229 0 61.1171 9.84995 602 75.4817 841.49 494.326
1230 0 62.0569 10.0875 626 69.7748 842.398 489.187
1231 0 68.0842 11.1186 757 68.3831 841.663 492.399
1232 0 68.0527 10.536 717 70.6974 841.854 490.792
1233 0 70.1207 11.2663 790 70.1342 841.727 488.385
1234 0 73.1428 11.0469 808 70.8923 841.59 489.397
1235 0 75.1186 10.1839 765 73.3137 841.413 487.044
1236 0 78.0807 11.1935 874 72.0767 841.273 487.098
1237 0 80.1034 10.8235 867 73.8547 841.773 486.394
1238 0 79.0426 10.8802 860 75.8733 841.901 483.302
1239 0 83.059 11.0163 915 76.3377 842.486 484.436
1240 0 86.068 11.8511 1020 80.85 843.353 488.157
1241 0 88.0883 11.4885 1012 82.0642 841.856 488.009
1242 0 91.0956 11.4605 1044 82.9799 841.736 485.337
1243 0 93.1143 11.792 1098 82.969 842.773 485.546
1244 0 94.1335 11.0906 1044 85.499 842.117 483.184
1245 0 98.057 11.7279 1150 84.6574 842.853 481.208
1246 0 100.049 12.1941 1220 84.4344 842.118 480.685
1247 0 102.293 11.819 1209 82.335 841.912 473.73
1248 0 108.067 12.1684 1315 86.3316 842.676 475.23
1249 0 111.104 12.7538 1417 85.2421 842.973 474.34
1250 0 112.101 11.8464 1328 85.7508 842.428 467.882
1251 0 117.068 11.9332 1397 84.3901 842.642 467.744
1252 1 67.0583 11.229 753 83.8194 842.78 497.372
1253 0 69.0565 11.4689 792 81.3801 842.606 493.779
1254 0 70.1461 12.1176 850 83.3141 843.041 492.899
1255 0 73.0827 12.0411 880 81.8727 842.658 492.418
1256 0 76.1177 11.2195 854 80.6639 842.142 489.877
1257 0 77.1418 11.8613 915 82.9311 842.781 490.964
1258 0 81.0977 11.9855 972 83.0257 842.575 489.117
1259 0 83.129 11.7769 979 84.8386 841.503 489.026
1260 0 87.0934 12.5727 1095 84.3169 842.3 488.119
1261 0 87.0981 12.4802 1087 86.9991 841.542 486.303
1262 0 90.098 12.2533 1104 87.7917 842.005 483.969
1263 0 93.1481 12.0883 1126 91.9689 841.973 482.912
1264 0 96.112 12.6727 1218 97.2726 842.012 483.222
1265 0 98.2272 12.5627 1234 97.0397 841.811 480.578
1266 0 100.12 12.505 1252 97.2636 841.62 479.747
1267 0 102.185 12.0859 1235 98.5854 841.982 475.935
1268 0 107.172 12.186 1306 97.5674 842.047 473.783
1269 0 110.214 11.8497 1306 98.6922 841.875 471.913
1270 0 113.149 12.0372 1362 97.6461 842.551 470.442
1271 0 116.235 11.993 1394 97.1191 842.615 468.247
1272 1 63.1529 10.2767 649 88.4129 842.206 495.3
1273 0 65.1807 10.8314 706 90.398 842.592 495.814
1274 0 67.0585 11.2439 754 93.134 841.698 494.02
1275 0 69.0577 11.9321 824 87.6784 841.663 495.227
1276 0 73.0667 12.2491 895 87.3564 841.653 494.727
1277 0 75.1109 12.5015 939 89.0927 841.571 491.271
1278 0 76.0756 11.8829 904 92.1681 841.607 491.782
1279 0 79.0497 10.9551 866 94.7159 842.671 489.625
1280 0 84.1111 12.1744 1024 91.8369 842.309 485.015
1281 0 85.1966 11.3033 963 95.054 842.064 482.067
1282 0 89.1938 11.447 1021 94.6895 842.241 482.294
1283 0 91.1776 11.0882 1011 96.6657 842.747 482.065
1284 0 92.1328 11.0818 1021 98.2184 842.779 479.847
1285 0 96.2024 11.559 1112 96.5198 842.332 479.385
1286 0 99.2803 11.946 1186 95.1602 842.899 479.019
1287 0 102.158 11.4136 1166 97.9305 842.788 475.774
1288 0 101.09 12.4641 1260 104.633 843.094 476.117
1289 0 108.13 11.9948 1297 97.3601 843.082 472.984
1290 0 111.145 11.6875 1299 98.2333 843.707 470.751
1291 0 114.153 12.2117 1394 97.0588 843.413 468.274
1292 0 118.161 11.5943 1370 97.8066 843.161 467.786
1293 1 62.07 10.1337 629 88.0509 842.819 496.261
1294 0 63.0886 10.3188 651 88.702 842.863 496.077
1295 0 66.0948 11.2263 742 87.7561 842.186 495.418
1296 0 68.067 11.0186 750 94.3467 841.409 492.885
1297 0 71.0463 11.6121 825 92.1042 842.295 491.276
1298 0 74.0486 11.8436 877 90.6876 841.631 491.21
1299 0 76.0537 11.3604 864 89.2847 842.046 488.914
1300 0 79.1367 11.4485 906 89.6137 842.73 488.426
1301 0 82.0644 11.3326 930 89.2742 842.097 487.314
1302 0 84.0758 11.4777 965 88.7969 842.873 487.083
1303 0 85.1022 10.928 930 90.1129 842.429 484.123
1304 0 89.054 10.9596 976 89.5051 842.972 483.843
1305 0 92.0821 12.326 1135 86.2044 842.683 483.358
1306 0 94.0731 11.2891 1062 88.549 843.206 480.501
1307 0 97.0727 11.6202 1128 87.8582 842.945 481.004
1308 0 99.0745 12.3442 1223 88.5012 841.944 476.43
1309 0 101.077 11.3478 1147 89.9834 841.921 477.642
1310 0 106.062 12.0967 1283 88.4451 842.427 476.659
1311 0 109.124 12.1147 1322 89.879 843.166 473.779
1312 1 54.0644 10.2655 555 85.0649 841.396 503.13
1313 0 57.0558 11.0243 629 83.0954 841.987 501.943
1314 0 60.1263 11.426 687 83.2198 841.611 499.585
1315 0 60.0691 11.7531 706 83.9717 842.282 499.176
1316 0 65.0973 12.2432 797 81.6386 841.24 498.556
1317 0 65.0966 12.228 796 83.7751 842.126 497.5
1318 0 66.0795 11.7434 776 87.0052 841.447 497.793
1319 0 68.0319 11.4799 781 87.5493 841.725 496.997
1320 0 71.0489 12.3155 875 86.9977 841.677 495.785
1321 0 72.0906 12.8588 927 70.7929 842.452 494.214
1322 0 76.0645 12.5814 957 87.883 841.758 493.752
1323 0 78.0353 12.1996 952 89.7017 840.951 491.19
1324 0 82.061 11.9423 980 89.1306 841.666 490.189
1325 0 83.0917 12.0349 1000 89.822 841.665 489.562
1326 0 87.0915 12.0678 1051 90.8934 841.716 486.985
1327 0 89.0519 12.3973 1104 90.4239 843.771 487.332
1328 0 92.0744 12.1858 1122 92.836 842.756 485.742
1329 0 94.0708 12.5969 1185 93.3595 842.161 483.73
1330 0 98.0786 12.5817 1234 94.6921 841.835 483.059
1331 0 101.085 12.6626 1280 94.3758 841.102 479.551
1332 0 104.048 12.5615 1307 94.1875 841.841 477.621
1333 0 107.169 12.6902 1360 94.6228 841.46 477.615
1334 0 108.108 12.2563 1325 96.0483 841.588 475.519
1335 0 115.085 12.3908 1426 93.9236 841.249 474.782
1336 0 119.106 12.5854 1499 92.8459 841.997 472.434
1337 0 123.038 12.6628 1558 92.0513 841.828 472.848
1338 1 65.0389 11.9467 777 89.5547 841.337 500.299
1339 0 69.1227 12.4416 860 97.5558 841.505 495.063
1340 0 70.0389 12.2503 858 100.122 840.825 496.8
1341 0 74.076 12.6222 935 98.9166 840.86 495.56
1342 0 73.0818 11.8634 867 89.09 841.023 496.224
1343 0 75.0947 12.1713 914 88.5908 841.395 494.256
1344 0 77.1149 11.4375 882 90.9694 841.289 495.227
1345 0 80.0833 12.2123 978 89.8374 841.497 493.161
1346 0 83.1856 12.2016 1015 89.73 841.338 490.102
1347 0 87.1204 12.0293 1048 91.0344 840.731 488.867
1348 0 88.2045 11.564 1020 94.0157 841.455 486.058
1349 0 92.1722 12.8889 1188 91.8737 841.199 485.934
1350 0 96.1339 12.6802 1219 95.9967 840.669 482.475
1351 0 98.2437 12.9881 1276 95.9122 841.35 480.754
1352 0 101.173 12.0586 1220 96.9926 841.057 480.489
1353 1 51.0969 10.5877 541 91.841 841.316 505.965
1354 0 53.1257 11.9151 633 89.0363 841.125 505.834
1355 0 52.0499 11.4121 594 91.9899 841.168 504.453
1356 0 56.0703 11.4321 641 87.869 841.822 505.037
1357 0 58.061 11.8496 688 86.8576 841.052 504.554
1358 0 60.0744 12.2348 735 87.2313 842.099 503.241
1359 0 62.1813 11.6273 723 87.9212 841.62 502.147
1360 0 64.2386 11.9554 768 86.8047 840.982 500.63
1361 0 66.1943 11.859 785 87.4599 840.87 499.945
1362 0 67.2054 11.7699 791 87.1277 841.57 499.536
1363 0 68.1057 11.3353 772 86.7604 841.671 499.415
1364 0 71.2097 11.754 837 85.4695 841.606 497.308
1365 0 73.0772 12.0558 881 85.2611 842.135 494.902
1366 0 76.179 11.788 898 85.0768 841.826 495.327
1367 0 78.067 12.3868 967 85.2751 841.736 492.777
1368 0 81.1949 12.1806 989 85.5521 841.096 493.1
1369 0 82.2043 11.9337 981 87.5341 841.517 489.637
1370 0 86.1208 12.0993 1042 97.7735 840.917 487.973
1371 0 86.1645 11.5013 991 100.348 841.194 487.856
1372 0 90.1503 12.2684 1106 98.3065 841.535 486.983
1373 0 93.1376 12.2722 1143 98.1759 841.479 485.697
1374 0 97.2191 11.829 1150 99.3009 841.354 484.017
1375 0 99.1709 11.7575 1166 99.7513 841.107 480.808
1376 0 101.141 11.9832 1212 99.3754 840.515 478.531
1377 0 103.086 11.6019 1196 95.3796 840.796 475.978
1378 0 106.136 12.4745 1324 95.8202 840.681 476.394
1379 0 105.227 11.8126 1243 96.6814 841.196 475.553
1380 0 107.194 11.3999 1222 101.353 840.424 474.597
1381 1 52.136 9.05324 472 98.7458 840.102 504.453
1382 0 54.1555 9.98975 541 99.2847 840.087 501.654
1383 0 59.2053 10.5734 626 94.9984 840.101 501.986
1384 0 59.1904 10.7957 639 92.8905 840.772 501.213
1385 0 63.1971 11.4404 723 89.2172 840.86 499.314
1386 0 64.2683 11.1252 715 88.3119 840.329 499.357
1387 0 69.2094 11.3857 788 85.6548 839.671 498.862
1388 0 70.1652 11.4017 800 85.535 839.838 497.17
1389 0 70.2891 11.9506 840 86.719 839.4 495.086
1390 0 74.2289 11.3029 839 88.7151 839.423 494.242
1391 0 77.3471 12.2823 950 88.1789 839.374 492.025
1392 0 79.2413 11.7489 931 90.8625 840.447 491.956
1393 0 82.318 11.6864 962 91.6538 840.248 490.929
1394 0 82.2333 11.8687 976 94.1311 840.178 489.095
1395 0 86.2564 12.9266 1115 91.4404 839.863 489.727
1396 0 88.1533 12.4783 1100 93.8373 839.41 487.237
1397 0 91.1349 12.476 1137 94.7212 839.751 485.815
1398 0 93.3076 12.2498 1143 97.3657 839.232 484.907
1399 0 93.2052 12.5959 1174 98.7325 839.474 483.339
1400 0 97.2547 12.1742 1184 100.142 839.057 481.994
1401 0 100.241 12.3802 1241 100.782 839.523 481.332
1402 0 101.258 12.3151 1247 103.326 839.465 481.18
1403 0 103.186 12.6471 1305 104.143 839.663 479.895
1404 0 105.163 12.105 1273 107.789 839.685 477.185
1405 0 109.203 12.6553 1382 107.859 840.148 476.219
1406 0 113.232 12.5847 1425 109.169 839.775 473.316
1407 0 118.323 12.5927 1490 109.644 839.679 473.178
1408 0 119.331 12.4947 1491 111.795 839.322 470.241
1409 0 124.403 12.3149 1532 112.174 839.794 469.173
1410 0 127.226 11.9866 1525 115.044 839.912 467.271
1411 0 130.247 12.4993 1628 113.928 839.525 464.928
1412 0 135.243 12.4368 1682 115.008 840.496 463.272
1413 0 140.24 12.607 1768 115.618 839.965 461.598
1414 0 142.225 12.3677 1759 117.033 840.28 460.91
1415 0 147.29 12.4313 1831 117.201 841.176 457.593
1416 0 152.177 12.5117 1904 118.159 840.322 454.826
1417 0 156.198 12.2281 1910 119.088 840.927 453.246
1418 1 81.0653 11.3612 921 117.252 840.858 486.207
1419 0 83.0468 12.5712 1044 112.896 841.378 480.706
1420 0 85.0332 12.5833 1070 114.006 841.57 476.85
1421 0 86.0751 12.4891 1075 114.51 841.154 476.957
1422 0 91.063 12.8043 1166 113.633 840.764 475.449
1423 0 94.0657 13.161 1238 112.979 840.779 472.198
1424 0 96.0882 13.2066 1269 112.884 841.261 471.382
1425 0 98.1048 12.1707 1194 118.07 840.848 469.71
1426 0 103.125 12.0921 1247 114.23 841.61 478.528
1427 0 107.116 12.5378 1343 113.539 841.337 468.263
1428 0 106.154 12.3405 1310 116.042 841.066 465.314
1429 0 112.276 12.2644 1377 114.884 840.326 465.031
1430 0 116.235 12.3629 1437 115.085 841.12 463.527
1431 1 64.0888 10.0798 646 106.068 841.638 490.61
1432 0 63.113 10.3465 653 105.983 840.746 488.85
1433 0 68.1035 11.5119 784 103.742 841.77 493.061
1434 0 71.1261 11.3601 808 103.923 841.041 491.569
1435 0 74.1707 12.3768 918 101.624 840.898 492.092
1436 0 77.0976 12.5944 971 103.792 840.988 493.592
1437 0 82.1592 12.4027 1019 102.459 841.602 491.958
1438 0 85.1077 12.3021 1047 104.134 841.435 490.121
1439 0 87.1494 12.2892 1071 103.643 841.574 488.454
1440 0 89.1384 12.2618 1093 105.038 841.326 487.127
1441 0 94.1562 12.6598 1192 103.553 841.02 485.885
1442 0 95.2422 12.064 1149 104.18 841.745 484.406
1443 0 99.1206 11.9955 1189 102.493 842.142 483.4
1444 0 101.167 12.1483 1229 102.251 841.757 481.196
1445 0 104.237 12.1454 1266 102.91 840.979 478.34
1446 0 105.15 11.8307 1244 103.756 841.12 477.776
1447 1 56.0735 10.0226 562 94.0267 842.32 503.721
1448 0 57.1366 10.7112 612 91.1879 841.783 502.379
1449 0 61.0675 11.692 714 89.1401 842.217 502.392
1450 0 63.0972 12.0291 759 88.6008 841.996 501.117
1451 0 63.0986 12.1397 766 91.1828 841.415 499.847
1452 0 65.1218 12.3768 806 91.531 842.713 499.19
1453 0 67.0944 12.3259 827 92.9492 842.335 497.369
1454 0 68.0473 12.6236 859 90.3586 842.299 497.107
1455 0 67.1013 11.4305 767 96.3103 841.495 499.434
1456 0 69.1429 11.1074 768 94.6224 841.254 497.703
1457 0 70.0891 10.772 755 96.4252 841.397 497.013
1458 0 72.0817 10.7239 773 96.4386 841.59 494.648
1459 0 75.0945 10.8929 818 94.8961 841.057 495.372
1460 0 78.157 11.5153 900 94.99 841.281 493.001
1461 0 80.1472 11.3042 906 95.9592 841.501 493.265
1462 0 82.2268 11.1156 914 96.279 841.688 491.465
1463 0 85.1096 11.0211 938 97.8849 841.18 491.442
1464 0 89.1348 11.8023 1052 96.1759 841.068 488.549
1465 0 90.1258 11.4396 1031 97.3608 841.697 486.103
1466 0 93.1237 11.8445 1103 96.641 840.519 485.763
1467 0 94.1048 12.2736 1155 97.0511 840.79 483.059
1468 0 98.1277 11.9436 1172 96.8746 840.616 483.4
1469 0 99.1807 11.4337 1134 97.9436 841.278 481.86
1470 0 105.131 11.6997 1230 95.2626 841.832 480.237
1471 0 105.083 11.4291 1201 97.0325 840.723 479.47
1472 0 111.144 11.7505 1306 94.7021 842.008 475.945
1473 0 114.084 11.4828 1310 94.6847 841.176 474.405
1474 1 50.0693 10.1459 508 96.7579 842.74 502.88
1475 0 48.037 10.4503 502 97.1275 840.739 501.072
1476 0 52.0224 10.6493 554 94.1968 841.771 499.733
1477 0 52.1864 10.8841 568 96.2201 839.824 498.736
1478 0 52.0358 10.8387 564 92.3262 840.761 502.213
1479 0 51.0282 11.0331 563 93.9361 840.458 501.65
1480 0 56.0486 10.4909 588 94.1922 840.956 500.731
1481 0 55.0177 11.0873 610 93.9934 840.78 499.059
1482 0 59.0658 10.9539 647 90.9304 842.399 498.767
1483 0 59.106 10.8449 641 94.9766 841.8 499.47
1484 0 61.0458 11.4996 702 94.49 842.715 497.101
1485 0 67.0598 12.6603 849 90.5984 841.643 497.59
1486 0 69.0458 12.5858 869 91.4902 841.733 497.083
1487 0 69.121 12.3118 851 93.8578 841.313 494.859
1488 0 70.0745 12.3155 863 95.4589 841.207 493.881
1489 0 74.0832 12.4995 926 94.6458 841.761 492.743
1490 0 74.0373 13.2366 980 92.3439 841.819 490.599
1491 0 77.0828 12.1558 937 93.0704 841.379 488.964
1492 0 79.0811 12.8349 1015 93.7163 841.672 487.249
1493 0 82.125 12.6149 1036 94.5145 841.921 483.586
1494 0 86.0685 13.4428 1157 90.6154 841.141 475.744
1495 0 87.0747 13.4367 1170 90.4846 841.437 473.956
1496 0 91.1143 13.0276 1187 90.4035 841.196 471.772
1497 0 92.1263 13.3295 1228 91.0831 841.273 471.506
1498 0 94.0513 13.7053 1289 91.1474 840.752 469.895
1499 0 96.1079 12.4652 1198 95.7028 841.556 468.527
1500 0 100.089 12.5788 1259 94.4313 841.433 468.475
1501 0 101.085 12.722 1286 94.6757 841.895 467.054
1502 0 103.056 12.6146 1300 94.8954 841.883 464.415
1503 0 108.084 12.9899 1404 93.1952 841.175 463.68
1504 0 111.061 12.5517 1394 94.6126 841.44 460.56
1505 0 113.113 12.8897 1458 93.8121 840.825 459.28
1506 0 118.124 12.5377 1481 93.2444 841.151 456.474
1507 0 119.105 12.1238 1444 95.0568 840.684 453.319
1508 0 124.128 12.3582 1534 94.0052 840.739 452.14
1509 0 128.134 12.1982 1563 94.2694 841.316 449.138
1510 0 132.121 12.0117 1587 95.0964 841.816 448.411
1511 0 137.085 12.1749 1669 93.9676 841.276 448.33
1512 1 73.0826 9.1814 671 92.1684 841.097 476.043
1513 0 75.0955 10.9061 819 89.2137 841.09 476.239
1514 0 78.1103 11.0869 866 88.6559 841.293 475.864
1515 0 85.0869 11.9525 1017 88.1455 841.713 477.923
1516 0 87.0523 12.1651 1059 86.3381 841.164 483.947
1517 0 91.1044 12.3155 1122 86.5731 841.309 480.637
1518 0 93.1041 12.3303 1148 87.5531 840.943 478.616
1519 0 96.0963 12.1024 1163 88.4936 840.935 478.888
1520 0 102.083 13.44 1372 86.5153 840.89 476.547
1521 0 103.104 13.3069 1372 87.6975 840.853 476.06
1522 0 107.161 13.2044 1415 87.9491 840.983 475.057
1523 0 110.098 13.4789 1484 88.4057 841.123 473.026
1524 0 115.124 13.7938 1588 87.8942 840.643 470.534
1525 0 118.13 13.4851 1593 88.5857 841.625 470.168
1526 0 122.166 13.7026 1674 89.5448 841.427 467.876
1527 0 127.188 13.5783 1727 90.3503 841.878 464.166
1528 0 130.198 13.4871 1756 91.4305 841.702 460.4
1529 0 136.091 13.4983 1837 87.3163 841.641 461.264
1530 0 140.142 13.8931 1947 86.7786 841.229 457.541
1531 0 144.246 13.7127 1978 87.9019 841.204 456.286
1532 0 148.12 13.6578 2023 89.3559 842.31 453.532
1533 0 153.232 13.6133 2086 90.4132 841.848 448.076
1534 0 155.17 13.5077 2096 91.7371 841.556 444.262
1535 0 160.108 13.4909 2160 92.9222 841.214 444.888
1536 0 167.175 13.7221 2294 93.5449 842.858 441.707
1537 0 170.155 13.7169 2334 94.3239 842.506 438.828
1538 0 177.15 14.0784 2494 93.9471 842.709 436.172
1539 0 183.221 13.7539 2520 96.0242 842.772 432.288
1540 0 187.147 13.8233 2587 96.913 842.55 430.015
1541 0 193.124 14.4053 2782 96.0539 841.673 426.589
1542 0 200.187 14.6563 2934 96.6316 841.937 424.715
1543 0 204.189 14.2613 2912 98.4801 841.909 422.371
1544 0 211.198 13.788 2912 100.789 841.885 417.78
1545 0 219.131 14.092 3088 100.649 841.58 417.201
1546 0 227.158 14.2192 3230 100.28 841.071 414.508
1547 0 237.353 15.0872 3581 98.4228 841.945 407.087
1548 0 245.334 13.4796 3307 104.404 841.63 407.063
1549 1 190.127 13.3437 2537 104.503 841.562 426.75
1550 0 197.229 13.7809 2718 104.304 841.309 420.711
1551 0 201.192 12.5353 2522 108.848 841.43 417.339
1552 0 209.304 13.0432 2730 107.927 841.708 415.286
1553 0 215.236 12.7442 2743 110.003 841.308 410.024
1554 0 224.215 13.3399 2991 109.673 840.951 405.311
1555 0 231.339 13.0069 3009 110.964 840.513 402.212
1556 0 241.325 13.4798 3253 110.231 840.728 396.792
1557 0 250.263 13.1701 3296 113.179 840.909 391.449
1558 1 55.0363 10.7747 593 90.9393 841.669 499.578
1559 0 56.0235 11.4238 640 93.5609 842.142 498.48
1560 0 59.0493 12.5488 741 89.444 842.123 499.633
1561 0 60.1447 11.9711 720 93.4931 840.35 497.076
1562 0 61.1209 11.3218 692 95.6228 841.171 495.607
1563 0 65.1411 12.3885 807 92.8612 840.953 495.44
1564 0 66.1497 12.5473 830 92.247 841.299 494.165
1565 0 67.0775 11.9414 801 93.9838 840.357 493.092
1566 0 70.0959 12.4258 871 92.4845 840.479 493.488
1567 0 70.0937 11.6416 816 85.0417 841.81 494.322
1568 0 74.1448 12.2463 908 83.5463 841.548 492.871
1569 0 75.0978 11.3585 853 86.524 841.225 491.877
1570 0 78.1673 11.4882 898 86.2996 841.346 489.785
1571 0 80.0775 11.901 953 85.3778 840.695 488.921
1572 0 83.0861 11.0849 921 86.5277 841.22 489.25
1573 0 86.1021 11.9742 1031 85.5034 841.597 487.333
1574 0 88.1432 11.8217 1042 84.5787 841.335 484.206
1575 0 91.1375 11.0163 1004 87.6524 841.251 483.93
1576 0 95.1547 12.1591 1157 78.0346 840.895 475.455
1577 0 98.1238 10.6906 1049 80.3527 841.901 475.897
1578 0 98.1238 10.7415 1054 124.927 843.896 475.899
1579 0 105.147 11.8216 1243 82.0788 841.057 473.78
1580 0 107.09 11.8965 1274 87.5557 840.456 475.76
1581 0 111.112 12.2759 1364 83.6034 840.99 475.103
1582 0 116.098 12.6962 1474 80.616 841.103 470.932
1583 1 59.1071 13.061 772 80.8808 840.812 498.706
1584 0 62.0863 13.4329 834 82.3249 841.109 498.306
1585 0 62.0734 13.1457 816 83.9314 841.141 497.148
1586 0 63.0595 13.4635 849 78.9494 842.372 496.979
1587 0 66.1272 13.3682 884 78.6324 842.126 496.376
1588 0 67.0905 13.7426 922 78.3503 841.211 495.075
1589 0 68.0943 14.0247 955 79.112 841.471 493.427
1590 0 72.1271 13.1019 945 83.2561 841.178 491.224
1591 0 72.0574 13.8223 996 82.5753 841.286 489.479
1592 0 74.0532 14.2465 1055 81.9782 840.915 489.292
1593 0 78.0579 14.4252 1126 89.3499 842.054 483.234
1594 0 78.0533 14.0161 1094 82.3931 841.574 480.848
1595 0 81.0481 14.2261 1153 81.9315 841.825 478.159
1596 0 84.05 13.9679 1174 82.7956 841.463 477.463
1597 0 83.0578 13.015 1081 87.8631 841.07 477.954
1598 0 86.1177 13.6441 1175 85.9209 841.635 476.078
1599 0 88.0643 13.4674 1186 86.9587 841.831 475.036
1600 0 92.0655 13.1645 1212 86.745 841.297 474.646
1601 0 93.1068 13.2966 1238 86.5662 840.883 474.347
1602 0 97.0518 13.4361 1304 86.4003 840.933 472.418
1603 0 98.0819 12.877 1263 88.1473 840.599 472.755
1604 0 103.055 13.5559 1397 88.0458 840.432 469.563
1605 0 107.073 13.4394 1439 86.4649 840.618 469.923
1606 1 48.0318 12.2002 586 91.6365 840.855 495.526
1607 0 51.0483 13.0661 667 88.2039 840.786 496.513
1608 0 52.0527 13.5056 703 88.7667 841.195 494.866
1609 0 57.0694 13.5624 774 86.2765 840.636 494.15
1610 0 56.037 13.848 776 87.2436 840.625 493.041
1611 0 61.0504 14.2997 873 84.1478 840.372 492.001
1612 0 61.0483 13.9889 854 86.0433 839.652 490.514
1613 0 63.0475 14.1639 893 85.5588 839.848 487.793
1614 0 68.045 14.2847 972 83.429 840.042 488.402
1615 0 70.0284 15.0653 1055 82.0474 840.526 485.163
1616 0 72.0655 14.8199 1068 82.8867 841.508 485.126
1617 0 72.1248 14.4333 1041 85.4131 840.701 483.504
1618 0 77.0699 15.194 1171 91.3783 840.212 484.489
1619 0 77.0407 14.4988 1117 86.4566 840.563 483.209
1620 0 80.0281 14.5699 1166 86.6724 840.322 479.256
1621 0 83.035 14.7649 1226 86.394 840.211 478.808
1622 0 86.0601 15.2916 1316 85.7082 840.384 478.422
1623 0 86.0911 14.9493 1287 89.181 840.353 478.026
1624 0 90.0776 15.4755 1394 88.4778 841.265 475.508
1625 0 92.0812 15.1605 1396 90.6884 840.338 473.857
1626 0 96.0847 14.6954 1412 91.8399 840.683 474.057
1627 0 98.0953 15.3728 1508 91.5504 840.288 472.379
1628 0 101.097 15.0647 1523 93.0794 840.706 470.859
1629 0 105.096 15.0529 1582 93.6884 840.14 471.522
1630 0 108.03 14.9865 1619 94.3755 840.372 471.804
1631 0 108.031 14.9864 1619 163.28 841.353 471.931
1632 0 115.129 14.4187 1660 97.506 840.746 466.439
1633 0 121.066 14.6862 1778 96.5664 840.418 465.65
1634 0 121.079 14.2882 1730 99.3127 841.179 463.096
1635 0 127.064 14.9295 1897 96.2662 840.159 461.492
1636 0 131.076 14.5259 1904 98.6644 841.103 458.285
1637 0 135.059 14.6232 1975 98.9833 840.577 456.188
1638 0 139.083 14.4733 2013 99.7327 839.648 455.344
1639 0 145.167 14.6521 2127 99.511 840.22 452.929
1640 0 147.111 14.4721 2129 100.26 840.368 450.034
1641 0 152.125 14.6524 2229 100.252 840.235 445.855
1642 0 157.079 14.6932 2308 100.023 840.396 444.383
1643 0 160.115 14.2835 2287 101.988 841.337 441.899
1644 0 167.141 14.7121 2459 100.163 840.723 441.921
1645 0 173.166 14.6103 2530 100.474 841.126 438.262
1646 0 180.109 14.9299 2689 99.6779 841.246 436.161
1647 0 188.177 14.7414 2774 100.952 840.999 431.101
1648 0 193.13 15.0935 2915 101.327 841.337 427.474
1649 0 198.312 15.0117 2977 102.657 840.568 424.877
1650 0 207.127 15.5122 3213 102.201 840.857 423.1
1651 0 216.202 15.7122 3397 101.171 841.031 420.359
1652 0 221.256 15.2312 3370 102.928 841.407 415.572
1653 0 229.254 15.0881 3459 102.214 841.256 413.454
1654 0 236.346 15.198 3592 102.193 841.535 408.129
1655 0 245.231 15.4181 3781 101.579 841.189 406.315
1656 1 298.308 8.76947 2616 110.459 840.893 427.558
1657 0 298.322 9.5132 2838 108.858 840.795 424.336
1658 1 75.1531 12.3348 927 96.0227 841.131 488.768
1659 0 78.1826 12.6627 990 96.5505 841.56 488.052
1660 0 82.1074 13.0804 1074 95.2942 840.466 486.607
1661 0 84.1019 13.1032 1102 96.51 841.403 483.879
1662 0 88.1701 13.3379 1176 95.5723 840.848 481.332
1663 0 91.0941 12.6133 1149 96.9634 840.972 478.206
1664 0 94.2567 12.0628 1137 99.365 840.422 474.13
1665 0 101.15 13.0301 1318 95.8642 841.319 473.526
1666 0 104.323 12.5475 1309 97.3591 840.826 470.532
1667 0 108.173 13.1826 1426 96.6318 840.529 469.281
1668 1 47.1214 10.4836 494 78.5688 840.411 501.745
1669 0 51.0571 10.3609 529 77.0529 840.068 500.671
1670 0 52.1333 9.9936 521 85.8503 839.541 499.628
1671 0 54.102 10.6096 574 84.4756 839.747 497.761
1672 0 54.1755 10.0599 545 85.989 840.05 498.112
1673 0 58.1218 10.3748 603 84.9022 840.423 496.949
1674 0 60.1657 10.1719 612 84.9755 839.972 497.199
1675 0 59.104 10.067 595 85.7647 840.099 495.718
1676 0 61.1026 9.80318 599 87.1369 839.873 494.025
1677 0 63.0603 9.65742 609 86.7767 840.094 494.782
1678 0 64.1119 9.07788 582 88.5069 840.055 493.625
1679 0 66.1404 9.99389 661 88.4584 840.619 492.442
1680 0 69.0869 10.0743 696 88.8736 840.589 490.75
1681 0 69.2116 9.18921 636 91.7877 839.981 489.23
1682 1 33.0144 7.96622 263 81.5894 841.555 509.335
1683 0 31.0409 7.11963 221 82.9548 841.023 508.81
1684 0 36.0196 6.71856 242 82.9421 840.554 509.05
1685 0 34.0095 5.70429 194 85.0103 839.907 507.438
1686 0 37.0524 7.9347 294 83.0646 841.061 506.912
1687 0 36.0441 6.07589 219 83.3014 841.333 507.479
1688 0 39.0493 6.93995 271 83.9188 840.524 505.915
1689 0 43.0144 7.78809 335 82.1075 841.161 505.131
1690 0 44.0504 7.55952 333 81.8018 840.769 505.408
1691 0 47.0484 7.05657 332 82.2018 841.16 504.154
1692 0 48.0564 8.26113 397 81.8237 841.403 502.431
1693 0 49.0227 8.60825 422 80.8768 841.111 500.443
1694 0 47.0768 7.94446 374 83.6738 840.332 500.709
1695 0 51.0566 7.65817 391 83.6215 840.483 500.358
1696 0 52.1305 7.55795 394 84.0051 839.584 495.764
1697 0 54.0812 7.91402 428 84.8154 840.386 495.117
1698 0 56.0605 8.79407 493 83.5314 839.669 494.6
1699 0 59.1001 7.90185 467 86.8779 839.717 489.557
1700 0 51.0406 7.19036 367 90.6839 840.041 484.035
1701 0 61.0557 7.3048 446 86.7691 840.852 485.664
1702 0 57.0439 7.20497 411 88.1898 840.255 483.781
1703 0 52.0416 5.13051 267 93.1311 839.749 478.007
1704 0 61.1102 7.16738 438 87.9338 840.084 478.384
1705 0 52.0647 9.2193 480 84.7542 841.081 474.858
1706 0 51.0464 8.09067 413 87.1622 840.259 474.167
1707 1 0 0 0 -nan -nan -nan
1708 1 50.0692 7.07021 354 87.1723 841.051 473.5
1709 0 53.0725 6.68897 355 87.262 841.952 473.18
1710 0 40.0577 3.84446 154 94.487 841.247 468.701
1711 1 88.092 9.41062 829 77.5573 841.341 477.028
1712 0 85.0986 9.55362 813 103.01 841.369 476.486
1713 0 90.1752 9.2154 831 80.1962 841.501 474.196
1714 0 91.1203 9.52587 868 79.8859 842.114 473.855
1715 0 95.1252 9.34558 889 80.3543 841.443 472.439
1716 1 30.0689 5.48739 165 70.6848 841.612 505.382
1717 0 36.1305 5.8953 213 69.9484 841.08 506.197
1718 0 36.1225 6.36723 230 70.0913 841.544 503.526
1719 0 38.162 6.86546 262 69.2252 840.756 503.214
1720 0 38.11 8.0294 306 70.3301 841.683 501.859
1721 0 35.0443 7.73308 271 71.9114 841.808 498.114
1722 0 38.0311 8.07235 307 67.101 841.254 496.994
1723 0 37.0305 7.39931 274 65.8832 841.015 493.934
1724 0 47.0972 8.96019 422 64.2986 840.777 499.284
1725 0 48.0979 8.96089 431 65.703 839.998 500.316
1726 0 53.0587 10.8747 577 66.6239 840.333 501.229
1727 0 52.1038 10.1336 528 68.7178 839.953 500.231
1728 0 54.0934 9.81636 531 69.7966 839.964 499.198
1729 0 56.0713 10.2726 576 70.1701 840.754 498.477
1730 0 59.071 10.7159 633 69.9131 840.434 496.992
1731 0 60.0378 11.4761 689 69.2656 840.348 497.138
1732 0 63.0649 11.5912 731 69.2873 840.259 496.337
1733 0 63.1301 10.4388 659 72.5432 841.147 495.296
1734 0 67.0834 11.7168 786 70.341 841.117 494.786
1735 0 68.0978 10.8961 742 72.903 840.674 492.689
1736 0 69.0647 11.1634 771 73.668 840.529 492.018
1737 0 70.0843 10.7157 751 74.1332 839.911 492.45
1738 0 75.1421 10.8727 817 73.5728 840.524 492.076
1739 0 77.2664 11.4021 881 76.8445 840.786 490.258
1740 0 78.1917 10.2313 800 79.5425 841.149 485.669
1741 1 42.0396 8.34927 351 74.1424 840.866 506.872
1742 0 40.0509 10.2869 412 73.335 841.388 506.869
1743 0 44.0515 10.3288 455 70.7385 840.833 506.684
1744 0 44.0497 10.6471 469 70.5501 840.591 506.13
1745 0 47.048 10.3299 486 70.6626 839.444 504.13
1746 0 44.059 8.76098 386 65.9845 841.08 506.231
1747 0 43.0056 8.34774 359 67.6574 841.061 507.897
1748 0 47.0211 8.33668 392 66.7934 840.523 504.997
1749 0 46.0383 9.20972 424 65.816 841.087 507.047
1750 0 45.0419 8.43658 380 66.9921 840.984 505.018
1751 0 49.0249 8.56707 420 66.2143 840.9 505.314
1752 0 49.0232 8.77136 430 66.9209 840.97 504.237
1753 0 53.1066 9.3397 496 66.7016 840.625 502.704
1754 0 55.0551 9.5904 528 66.8239 840.235 502.979
1755 0 55.0174 9.56062 526 67.5171 840.99 502.021
1756 0 57.1269 9.36511 535 66.7308 841.129 501.824
1757 0 57.0521 9.62278 549 66.9581 841.39 499.332
1758 0 59.0554 9.33022 551 66.4156 840.062 500.474
1759 0 61.1077 10.1133 618 65.7184 840.146 497.934
1760 0 63.1643 9.59402 606 66.0264 840.475 497.183
1761 0 65.3048 9.03455 590 66.7678 841.288 495.083
1762 0 66.2202 9.31739 617 66.3225 840.447 490.914
1763 0 68.3336 9.38045 641 66.3978 840.588 490.783
1764 0 73.2656 9.93646 728 66.1538 840.97 488.691
1765 0 75.1903 10.3737 780 66.6718 841.385 486.591
1766 0 79.2079 10.7312 850 67.1694 841.167 483.709
1767 0 80.4364 10.903 877 69.3044 841.796 482.448
1768 0 85.3028 11.8167 1008 72.4117 842.006 480.713
1769 0 85.2939 11.9117 1016 73.8622 841.686 479.311
1770 0 89.2694 11.9862 1070 74.5505 841.122 477.364
1771 0 92.3986 11.8075 1091 74.8616 840.901 477.837
1772 0 94.3195 11.6625 1100 76.7036 841.451 474.944
1773 0 98.2927 11.7506 1155 77.1593 841.182 474.759
1774 0 101.406 12.8197 1300 76.9585 841.405 473.932
1775 0 104.291 12.3597 1289 78.2739 841.005 472.351
1776 0 105.54 12.3555 1304 79.3052 841.594 471.408
1777 1 56.221 11.5437 649 77.0431 840.903 496.305
1778 0 56.1271 11.6699 655 79.0779 841.195 495.882
1779 0 59.2384 11.8167 700 81.1857 841.604 494.381
1780 0 63.3202 13.2185 837 77.5794 841.93 496.823
1781 0 64.3504 13.9704 899 77.564 841.769 494.856
1782 0 66.1874 13.492 893 79.2352 842.245 493.122
1783 0 69.2109 14.333 992 78.4073 841.94 492.565
1784 0 70.1549 13.1709 924 82.0844 841.893 492.175
1785 0 73.1886 14.2509 1043 80.9252 842.062 489.851
1786 0 75.2173 14.3717 1081 80.8807 842.094 490.983
1787 0 79.207 14.6578 1161 81.4315 841.223 488.662
1788 0 81.2171 13.9749 1135 84.0247 841.231 488.281
1789 0 83.21 13.7003 1140 86.1877 841.325 487.087
1790 0 86.1072 14.029 1208 86.2591 841.123 486.123
1791 0 89.2155 14.3137 1277 86.1081 841.515 485.497
1792 0 90.172 14.2616 1286 88.0303 842.474 483.648
1793 0 90.172 14.2949 1289 161.881 843.482 483.72
1794 0 97.1357 14.0216 1362 88.8319 841.18 482.947
1795 0 100.178 14.7238 1475 87.6441 841.138 480.46
1796 0 104.219 14.5367 1515 87.536 840.614 478.18
1797 1 53.0288 13.2947 705 91.3489 840.119 503.326
1798 0 54.0281 13.4189 725 91.8028 840.364 501.818
1799 0 56.0365 14.0623 788 90.1307 840.618 500.632
1800 0 57.0986 14.2035 811 90.524 839.191 501.155
1801 0 61.0274 14.9277 911 86.9813 840.827 500.875
1802 0 62.1291 13.7939 857 89.7153 840.361 499.744
1803 0 64.1 14.3994 923 88.286 840.96 498.26
1804 0 67.028 15.0534 1009 86.1724 839.969 496.421
1805 0 69.022 15.1836 1048 85.6708 840.256 495.975
1806 0 73.1048 15.2794 1117 85.1262 840.01 493.929
1807 0 73.0425 15.046 1099 86.9354 840.453 493.869
1808 0 77.0302 15.4874 1193 85.9195 839.314 491.904
1809 0 80.0374 15.3178 1226 85.9927 839.85 489.446
1810 0 82.0625 15.7563 1293 85.6257 839.683 489.647
1811 0 83.1184 15.0508 1251 87.5652 840.209 488.113
1812 0 87.0654 14.9887 1305 87.9586 839.221 487.438
1813 0 88.0586 15.149 1334 88.566 840.455 485.22
1814 0 92.0603 15.7288 1448 87.1347 840.298 484.274
1815 0 93.079 15.3311 1427 88.5564 840.197 483.2
1816 0 98.1265 15.0418 1476 88.0061 840.732 480.928
1817 0 101.102 15.5784 1575 87.2584 839.959 480.133
1818 0 104.123 15.9235 1658 85.6176 840.132 477.301
1819 0 109.044 15.6176 1703 85.3071 839.674 475.954
1820 1 56.0158 13.1927 739 96.3248 840.374 499.387
1821 0 58.0326 13.8715 805 94.518 840.431 497.857
1822 0 63.022 14.3601 905 91.9149 839.686 495.757
1823 0 63.0374 14.3724 906 92.8002 840.166 494.898
1824 0 65.0344 14.6999 956 92.3682 840.551 493.46
1825 0 68.0558 14.4147 981 92.7951 841.06 492.055
1826 0 73.0699 14.9446 1092 91.2335 840.527 490.959
1827 0 75.1243 15.2148 1143 91.9912 841.084 489.423
1828 0 76.0457 15.2408 1159 93.6462 840.71 487.205
1829 0 79.0395 15.1064 1194 94.1457 841.096 486.252
1830 0 82.0533 14.6612 1203 95.7415 840.536 485.133
1831 0 85.101 15.1232 1287 95.4258 841.107 483.838
1832 0 87.0627 15.529 1352 95.7441 840.667 481.246
1833 0 89.0486 14.9244 1329 98.1956 840.618 480.925
1834 0 95.1082 16.15 1536 93.8418 840.886 478.536
1835 0 97.0655 15.2886 1484 96.6759 841.08 477.683
1836 0 97.0621 15.3098 1486 101.045 840.91 474.624
1837 0 101.08 15.3245 1549 100.705 840.661 473.547
1838 0 103.149 15.2013 1568 101.145 841.701 470.747
1839 0 105.122 14.6115 1536 103.993 841.393 467.004
1840 0 109.162 14.7763 1613 103.833 840.715 465.326
1841 0 114.121 15.0542 1718 102.639 841.229 462.197
1842 0 118.115 15.0362 1776 98.5422 840.575 460.769
1843 0 122.16 15.2177 1859 97.5928 840.118 459.161
1844 0 127.083 15.9187 2023 95.388 840.287 456.44
1845 0 131.109 15.4299 2023 96.9343 840.785 453.245
1846 0 135.121 15.1124 2042 96.8369 840.834 451.414
1847 0 141.221 15.5572 2197 94.8871 840.665 449.779
1848 0 143.125 15.6926 2246 95.0672 840.103 447.268
1849 0 150.164 15.3898 2311 94.5586 840.816 444.886
1850 0 153.242 15.159 2323 95.8532 841.02 440.43
1851 0 156.197 14.8787 2324 97.0559 841.692 437.197
1852 0 162.132 14.8213 2403 96.3766 840.772 433.674
1853 1 82.1024 13.0082 1068 97.0749 841.497 469.713
1854 0 87.1691 13.8237 1205 94.7054 841.118 468.387
1855 0 89.1385 13.7651 1227 96.5868 841.37 465.439
1856 0 93.075 14.1391 1316 94.9331 840.707 464.467
1857 0 94.0915 13.827 1301 96.711 841.536 460.199
1858 0 95.1252 14.0131 1333 96.7104 841.668 459.177
1859 0 100.215 13.6208 1365 97.5663 840.945 455.876
1860 0 104.279 13.6077 1419 97.9204 841.936 454.312
1861 0 108.135 13.7328 1485 98.0646 841.319 452.293
1862 0 114.185 14.3627 1640 96.8409 841.93 449.674
1863 0 117.153 14.1952 1663 97.8605 840.796 447.856
1864 0 123.117 13.6049 1675 99.7122 841.105 444.035
1865 0 124.101 13.5052 1676 102.266 841.771 441.806
1866 0 126.121 13.5029 1703 103.642 841.482 439.685
1867 0 130.195 13.4798 1755 104.903 841.194 438.493
1868 0 136.196 14.4057 1962 103.13 841.476 436.291
1869 0 140.237 14.2331 1996 104.3 841.531 436.764
1870 0 145.213 14.2893 2075 104.72 840.855 431.501
1871 0 151.125 14.2862 2159 104.834 841.161 430.037
1872 0 154.19 13.8011 2128 106.386 841.129 424.275
1873 0 160.163 14.3916 2305 104.818 840.796 419.294
1874 0 162.175 14.2007 2303 106.279 840.935 416.042
1875 0 167.158 14.0705 2352 106.403 840.929 411.741
1876 0 176.142 14.4543 2546 104.713 840.861 411.093
1877 1 106.085 7.00384 743 100.76 841.066 450.458
1878 0 112.146 7.88258 884 99.9423 841.339 455.621
1879 0 117.066 9.74668 1141 98.1157 841.915 454.094
1880 0 119.162 10.6242 1266 97.9897 841.466 451.788
1881 0 122.131 10.0875 1232 98.1396 841.52 449.583
1882 0 128.193 10.0161 1284 98.8964 841.391 447.638
1883 0 134.176 10.1583 1363 98.1409 842.291 445.725
1884 0 139.262 9.85908 1373 98.7291 841.749 443.143
1885 1 78.1557 8.21438 642 85.5343 842.142 475.288
1886 0 82.0935 7.68636 631 87.1379 842.724 474.217
1887 0 83.1042 8.91652 741 86.1269 842.058 472.3
1888 0 83.1042 8.91652 741 120.547 842.055 472.022
1889 0 88.0942 8.71794 768 89.1107 841.822 467.786
1890 0 91.0597 8.23636 750 89.452 841.568 469.395
1891 0 95.0489 9.13215 868 88.5403 841.268 469.464
1892 0 96.0563 8.37009 804 92.5112 841.368 463.695
1893 0 99.0682 8.92314 884 92.017 841.992 463.437
1894 0 99.0495 8.59166 851 92.3361 841.072 462.025
1895 0 102.1 8.68753 887 93.2244 841.214 458.59
1896 0 106.094 7.68188 815 95.3436 840.832 456.852
1897 0 108.091 8.53907 923 95.0845 841.204 457.038
1898 0 110.067 7.90427 870 96.8724 840.694 453.862
1899 0 115.129 8.43404 971 94.484 841.407 451.81
1900 0 116.07 5.09177 591 94.5161 841.665 440.873
1901 0 123.102 5.26394 648 93.8102 840.832 438.858
1902 0 126.098 7.59727 958 96.0157 842.205 449.327
1903 0 130.176 8.08903 1053 96.1985 842.06 445.867
1904 1 73.043 8.37862 612 90.1667 842.261 475.395
1905 0 77.0476 8.94253 689 88.7605 842.007 475.441
1906 1 36.0201 4.27539 154 82.6299 841.838 499.506
1907 0 37.0599 6.58394 244 79.2295 840.844 498.012
1908 0 36.0322 5.46734 197 80.4264 840.574 496.716
1909 0 35.0603 4.44948 156 78.2692 840.558 494.801
1910 0 38.0063 5.15704 196 77.9592 840.974 496.321
1911 0 39.0165 5.6899 222 75.5405 841.315 497.365
1912 0 39.022 6.63728 259 82.5869 840.587 494.073
1913 0 50.0517 7.65208 383 73.8225 840.577 496.906
1914 0 49.021 6.87461 337 72.4956 839.323 496.579
1915 0 50.0347 7.6347 382 73.0366 839.128 495.241
1916 0 54.059 8.02826 434 72.6797 838.382 495.357
1917 0 50.0553 6.63266 332 76.1265 839.084 497.651
1918 0 51.0179 6.86034 350 76.3171 839.4 495.68
1919 0 53.0243 8.16607 433 75.0416 838.434 494.739
1920 0 54.0333 7.69896 416 75.5072 839.478 494.784
1921 0 56.0734 7.38319 414 76.7657 838.58 494.901
1922 0 61.0589 8.30345 507 75.0907 838.927 493.032
1923 0 62.0792 8.69856 540 74.6574 838.3 495.348
1924 0 66.1173 9.43777 624 73.1346 839.17 491.032
1925 0 66.0881 9.32089 616 74.4075 838.651 491.724
1926 0 69.0662 9.44022 652 73.1043 838.633 491.517
1927 0 73.0541 10.6907 781 70.379 839.2 492.056
1928 0 75.0964 10.9459 822 70.7762 839.212 490.393
1929 0 76.1267 10.7847 821 70.9013 838.989 489.257
1930 0 79.0938 11.6191 919 69.3341 838.692 486.887
1931 0 80.1639 11.3517 910 69.9165 838.896 486.411
1932 0 82.1702 11.1841 919 70.2187 839.024 484.795
1933 0 87.1308 12.1427 1058 69.0331 838.785 483.522
1934 0 87.1195 11.3293 987 70.9615 839.304 483.13
1935 0 89.0969 11.4482 1020 71.0373 839.179 480.566
1936 0 95.1086 11.3344 1078 71.6234 838.382 479.066
1937 0 96.101 12.3828 1190 70.3193 838.198 479.64
1938 0 100.121 12.2752 1229 70.751 838.644 476.705
1939 0 104.072 11.9532 1244 71.7468 838.815 475.178
1940 0 106.118 12.0527 1279 73.2033 839.133 474.754
1941 1 56.0867 10.2163 573 77.0925 837.949 500.393
1942 0 57.072 9.98739 570 78.479 838.272 498.611
1943 0 58.0374 9.5628 555 79.5441 839.231 496.286
1944 0 63.0816 11.2711 711 82.0211 840.641 495.551
1945 0 57.0343 9.39785 536 72.3881 840.004 487.993
1946 0 58.1296 8.67028 504 71.8492 840.081 489.252
1947 0 60.0786 8.905 535 71.5215 839.963 487.847
1948 0 67.0676 9.18476 616 69.0714 839.308 490.88
1949 0 67.1402 8.89184 597 70.5193 838.682 491.295
1950 0 68.1134 9.27865 632 71.4383 838.846 486.747
1951 0 71.1262 9.64482 686 70.4475 838.615 487.166
1952 0 75.1038 10.0794 757 70.8441 839.003 486.219
1953 0 76.1336 10.8887 829 76.4077 838.91 490.966
1954 0 80.1081 11.11 890 76.1596 839.264 490.438
1955 0 82.0567 11.7845 967 76 838.928 488.569
1956 0 85.0637 11.8029 1004 76.4552 838.952 486.708
1957 0 87.0772 11.6334 1013 77.5489 838.56 484.089
1958 0 90.2185 11.8158 1066 77.6173 839.244 484.495
1959 0 92.0871 12.0972 1114 77.9228 838.559 482.086
1960 0 95.0663 12.0337 1144 78.458 839.048 481.686
1961 0 96.1091 11.9552 1149 79.6127 838.327 479.5
1962 0 101.164 11.8224 1196 79.1363 838.619 477.982
1963 0 103.071 12.5836 1297 78.0948 838.097 477.278
1964 0 108.099 12.1001 1308 78.6552 838.906 475.138
1965 0 108.085 12.3421 1334 79.6334 838.282 473.404
1966 0 113.088 12.3533 1397 87.9835 838.343 470.576
1967 0 114.146 11.5641 1320 88.4735 838.289 469.064
1968 0 118.241 11.7726 1392 82.6552 839.186 464.412
1969 0 125.105 11.6222 1454 85.5681 839.407 464.091
1970 1 69.103 9.63779 666 77.0811 840.553 493.823
1971 0 70.0307 10.0956 707 76.5177 839.539 491.727
1972 0 75.1239 11.3812 855 80.2012 839.633 490.963
1973 0 78.0837 12.0384 940 84.3457 839.726 488.418
1974 0 80.1676 11.7379 941 84.8842 839.487 488.938
1975 0 83.1034 12.2739 1020 83.5167 840.188 486.552
1976 0 85.1226 12.0415 1025 83.681 839.714 486.149
1977 0 87.1108 11.9503 1041 82.5994 840.399 484.356
1978 0 90.1488 12.191 1099 81.475 839.531 482.58
1979 0 92.135 12.2755 1131 81.8028 840.371 480.141
1980 0 93.172 12.0852 1126 80.6936 839.591 478.461
1981 0 98.0787 11.8374 1161 79.975 839.934 477.342
1982 0 101.063 11.3989 1152 80.4288 839.626 475.652
1983 0 103.156 11.2355 1159 81.5971 839.416 473.534
1984 0 107.123 10.8007 1157 81.4598 840.095 472.515
1985 1 60.0428 9.47657 569 83.9561 839.872 495.404
1986 0 60.0815 10.2694 617 82.0097 839.279 493.365
1987 0 59.0406 10.7214 633 80.2859 839.749 489.31
1988 0 62.1304 10.7677 669 79.7175 839.049 487.936
1989 0 68.1537 11.6061 791 82.689 839.58 490.922
1990 0 73.1648 11.891 870 80.9356 839.718 490.784
1991 0 75.0452 11.3132 849 80.338 837.999 489.538
1992 0 79.0652 10.8897 861 81.3833 837.293 488.268
1993 0 80.165 11.2268 900 83.6144 839.29 486.053
1994 0 84.2428 11.8942 1002 80.6457 839.702 485.394
1995 0 87.1842 11.9173 1039 81.3619 839.166 485.89
1996 0 87.1662 12.0574 1051 82.1437 838.875 482.551
1997 0 91.2771 11.9417 1090 82.5211 838.888 480.285
1998 0 95.242 11.4865 1094 82.7002 839.999 480.035
1999 0 99.3157 12.1834 1210 80.1578 839.476 479.795
2000 0 102.21 11.7601 1202 82.0191 838.953 478.788
2001 0 103.272 11.6682 1205 83.1004 839.265 475.055
2002 0 107.177 11.3271 1214 84.2578 839.124 475.031
2003 1 55.0725 10.6224 585 80.5128 840.156 501.426
2004 0 56.106 9.85634 553 82.8047 839.91 499.555
2005 0 57.103 11.0152 629 79.992 840.267 497.87
2006 0 59.0295 11.2825 666 76.494 839.968 498.486
2007 0 62.0958 11.9332 741 79.996 839.601 496.321
2008 0 62.0581 11.9404 741 80.5547 839.826 496.702
2009 0 64.0473 10.9919 704 82.1264 840.007 496.359
2010 0 67.0734 10.7047 718 82.8928 839.85 494.843
2011 0 70.0566 11.6335 815 81.7068 840.512 493.324
2012 0 70.0781 11.3017 792 83.9912 839.364 491.862
2013 0 73.1028 11.518 842 83.5487 839.404 490.354
2014 0 76.1488 11.819 900 83.4033 839.35 489.212
2015 0 76.1978 12.1788 928 83.3815 839.56 487.453
2016 0 79.1577 12.1024 958 84.4019 839.091 485.367
2017 0 82.2009 11.8125 971 85.9856 839.356 485.134
2018 0 83.2572 11.8308 985 87.2254 838.602 484.475
2019 0 84.1092 11.711 985 82.9066 839.564 486.241
2020 0 88.1037 12.2923 1083 83.7673 838.826 482.635
2021 0 91.1401 11.6634 1063 84.1881 839.009 482.356
2022 0 94.1214 12.2608 1154 84.0225 839.14 479.781
2023 0 94.0778 11.9263 1122 86.3708 839.028 478.726
2024 1 50.0666 10.5659 529 86.4064 839.52 500.996
2025 0 50.1134 10.3765 520 82.5538 838.231 499.123
2026 0 52.1425 11.2768 588 82.3061 838.073 499.037
2027 0 54.0182 13.0326 704 81.4219 836.77 497.158
2028 0 56.0216 11.6919 655 85.942 837.224 496.73
2029 0 55.0518 10.6082 584 83.9281 837.209 500.209
2030 0 58.1036 10.7394 624 83.6218 837.508 499.534
2031 0 60.0993 11.1815 672 83.9524 837.442 497.509
2032 0 62.2274 11.6026 722 83.3753 837.751 497.326
2033 0 65.1742 12.3208 803 83.3225 837.369 494.77
2034 0 67.2387 11.5856 779 85.8357 838.113 494.558
2035 0 69.1019 11.881 821 86.7759 838.021 492.722
2036 0 71.1935 11.6303 828 89.2331 837.723 492.69
2037 0 71.0743 11.9171 847 89.8394 838.707 489.617
2038 0 74.1651 11.5014 853 89.0703 838.925 490.37
2039 0 76.1398 11.8335 901 88.828 838.486 488.54
2040 0 79.1206 12.5757 995 88.0663 838.659 487.192
2041 0 82.1528 12.282 1009 89.4995 838.51 485.402
2042 0 83.081 11.9763 995 91.6131 838.562 483.823
2043 0 84.1009 11.6765 982 92.6039 838.684 481.459
2044 0 86.1175 11.0314 950 93.659 838.313 480.493
2045 0 89.0858 11.5956 1033 92.1404 839.4 475.901
2046 0 93.1397 11.8102 1100 91.1718 838.522 474.302
2047 1 46.0467 10.4025 479 86.6242 838.344 495.253
2048 0 44.0427 9.9903 440 87.5432 838.507 489.902
2049 0 49.0764 11.6145 570 85.1719 838.781 490.553
2050 0 54.0474 10.2503 554 78.5975 839.386 501.395
2051 0 56.0625 10.6845 599 78.1369 839.142 499.743
2052 0 58.0256 10.5298 611 77.5303 839.646 499.769
2053 0 59.0372 10.1461 599 79.7229 838.613 498.609
2054 0 63.0164 11.1082 700 77.2414 839.076 497.824
2055 0 62.0849 10.9689 681 78.2056 839.266 496.57
2056 0 65.1028 10.3221 672 79.9747 840.039 495.923
2057 0 68.0588 11.0199 750 79.064 839.781 493.795
2058 0 70.0477 10.9069 764 80.106 840.119 491.929
2059 0 72.0594 11.3795 820 79.4878 839.868 490.748
2060 0 75.1083 10.6247 798 80.5501 840.495 491.622
2061 0 79.0702 11.4582 906 79.8797 839.538 488.781
2062 0 82.1054 12.082 992 79.124 839.224 487.27
2063 0 85.1154 12.16 1035 79.5372 839.297 484.293
2064 0 89.075 11.9787 1067 79.9147 839.525 484.112
2065 0 92.0686 12.2191 1125 79.608 839.501 483.257
2066 1 49.0832 11.0425 542 88.6125 840.09 503.378
2067 0 46.0319 10.1234 466 81.6674 839.206 494.403
2068 0 48.0158 10.4757 503 70.7555 839.479 494.429
2069 0 47.0303 9.71713 457 73.3895 838.39 494.335
2070 0 50.0506 9.67021 484 72.7727 839.455 495.023
2071 0 51.0425 10.1484 518 71.7606 838.89 492.143
2072 0 52.0416 10.3571 539 72.0705 838.827 492.911
2073 0 55.0851 10.1842 561 72.4207 838.98 490.155
2074 0 56.0358 10.0828 565 72.6319 838.696 487.92
2075 0 60.0486 10.2084 613 72.0734 838.426 488.715
2076 0 63.0373 10.4541 659 72.4036 838.727 489.775
2077 0 66.0932 11.2568 744 71.578 838.246 488.368
2078 0 69.0652 10.5263 727 73.2503 838.997 486.984
2079 0 71.05 10.4434 742 74.0728 838.22 486.648
2080 0 74.1617 10.9895 815 74.1423 838.589 484.752
2081 0 78.1016 10.3839 811 75.5919 838.329 484.326
2082 0 82.0935 10.4759 860 76.093 838.68 484.054
2083 1 41.0334 10.2843 422 78.0379 839.469 506.296
2084 0 43.0168 10.1356 436 79.7569 837.163 507.392
2085 0 45.0102 11.2641 507 75.9487 838.832 506.491
2086 0 46.0575 11.5942 534 80.7846 839.208 506.421
2087 0 46.0575 11.5508 532 135.889 839.216 506.474
2088 0 48.0242 12.0981 581 82.3081 839.594 504.098
2089 0 48.038 12.0946 581 83.5783 839.842 503.158
2090 0 51.0321 11.9533 610 83.1754 840.149 503.066
2091 0 52.053 12.4104 646 82.5433 839.859 502.683
2092 0 53.0241 12.2208 648 83.4491 839.875 500.816
2093 0 55.0232 12.1403 668 83.3323 839.229 500.425
2094 0 55.0784 11.3656 626 82.2859 839.059 500.348
2095 0 57.0708 11.8449 676 80.6642 839.101 499.204
2096 0 58.1386 11.1114 646 82.5635 840.016 498.396
2097 0 60.1243 11.6592 701 81.0271 838.709 496.571
2098 0 64.0647 11.863 760 75.2934 839.545 495.779
2099 0 66.0557 12.5046 826 73.9552 838.835 493.354
2100 0 67.0417 11.6644 782 75.7864 839.352 493.57
2101 0 69.1693 11.2189 776 89.6134 838.579 491.244
2102 0 73.0976 11.8472 866 88.8129 838.918 490.26
2103 0 74.0896 11.7425 870 90.3759 839.602 490.051
2104 0 77.123 12.318 950 89.3968 839.5 487.357
2105 0 77.1929 11.9052 919 91.9989 839.183 487.06
2106 0 79.1151 12.1595 962 91.104 838.737 485.46
2107 0 83.1573 12.3741 1029 93.3771 838.924 484.447
2108 0 84.1494 12.9294 1088 94.5368 838.54 482.547
2109 0 89.2315 12.8094 1143 93.6885 838.516 482.207
2110 1 46.1013 11.1494 514 93.6751 839.85 504.28
2111 0 46.0881 10.328 476 98.6408 839.941 502.553
2112 0 48.072 11.4412 550 95.5745 840.027 501.847
2113 0 51.1349 12.2812 628 92.2962 839.256 499.726
2114 0 52.1148 12.3765 645 85.6837 839.189 500.949
2115 0 52.0593 12.0248 626 83.778 839.409 497.794
2116 0 55.0554 12.2967 677 83.4623 837.787 498.43
2117 0 57.0302 12.4846 712 84.1503 839.24 499.011
2118 0 57.0302 12.432 709 125.831 840.231 498.987
2119 0 58.048 12.5586 729 85.6914 838.342 498.243
2120 0 60.0257 12.5946 756 85.5847 838.114 496.261
2121 0 62.0289 12.5264 777 84.6422 838.907 494.072
2122 0 64.0356 12.8522 823 84.712 839.064 493.803
2123 0 67.0554 12.6761 850 84.4941 838.912 492.469
2124 0 66.0349 12.6448 835 86.4587 838.317 492.283
2125 0 69.0452 12.2094 843 86.3737 838.138 490.565
2126 0 74.0413 12.6011 933 84.3344 839.251 488.976
2127 0 74.0358 12.1428 899 87.6552 839.237 489.216
2128 0 76.0968 11.919 907 87.3914 839.75 487.628
2129 0 79.1228 11.5264 912 87.4298 839.243 487.298
2130 0 82.0623 11.7837 967 86.2172 840.095 485.249
2131 1 44.036 10.6277 468 87.3526 839.169 504.216
2132 0 46.0117 10.3887 478 87.408 839.605 503.96
2133 0 46.0174 11.3435 522 85.9291 839.515 502.247
2134 0 47.0569 11.858 558 83.6541 839.912 501.891
2135 0 50.0696 12.5026 626 81.5032 840.492 501.008
2136 0 47.1237 11.0348 520 85.7942 839.39 500.91
2137 0 47.0721 10.6645 502 86.3785 839.918 501.315
2138 0 51.0464 11.6952 597 83.4271 839.742 501.013
2139 0 52.0254 10.937 569 85.2935 839.135 499.499
2140 0 54.073 10.7262 580 85.6293 839.533 498.966
2141 0 54.0465 10.528 569 87.0615 838.963 497.659
2142 0 56.0785 11.9475 670 84.3075 839.024 496.898
2143 0 58.0667 11.5901 673 83.9777 838.99 496.944
2144 0 62.0455 12.4103 770 81.0779 839.37 495.426
2145 0 64.0966 12.5124 802 80.5374 839.04 494.355
2146 0 66.1056 11.648 770 82.4208 838.932 493.649
2147 0 67.1058 11.8768 797 83.1844 838.353 492.402
2148 0 70.1148 11.4384 802 79.8441 838.608 492.143
2149 0 71.1062 11.6867 831 80.4489 838.949 490.591
2150 0 73.1025 12.0652 882 80.0533 839.69 488.774
2151 0 75.1253 12.2063 917 79.9368 839.608 488.36
2152 0 78.0911 12.1525 949 80.8462 838.844 487.036
2153 0 82.1923 12.1666 1000 80.478 839.204 486.675
2154 0 83.15 11.7619 978 77.636 840.309 484.699
2155 0 85.0646 11.65 991 82.3552 839.049 484.069
2156 0 89.1313 11.8701 1058 79.2486 839.902 482.225
2157 0 91.086 12.1094 1103 82.0136 839.769 481
2158 0 95.1092 11.797 1122 81.5196 839.334 481.393
2159 0 98.085 11.0516 1084 83.7454 840.384 478.723
2160 1 51.033 10.8361 553 85.0362 840.226 500.568
2161 0 53.1451 11.1017 590 84.2458 839.802 499.058
2162 0 55.1069 12.4304 685 83.0788 839.126 497.931
2163 0 56.1516 12.0566 677 91.5332 838.969 496.622
2164 0 58.0437 12.8352 745 93.4872 839.149 496.17
2165 0 60.0641 13.2692 797 93.453 840.286 495.856
2166 0 61.1153 12.9918 794 93.5327 839.865 495.097
2167 0 64.0866 13.0292 835 93.2982 840.289 494.23
2168 0 66.134 13.2458 876 93.5285 840.187 493.296
2169 0 65.0972 12.6273 822 92.062 840.54 495.28
2170 0 66.0496 12.6723 837 92.9701 839.999 491.421
2171 0 69.0685 12.5238 865 93.2971 839.857 492.177
2172 0 72.078 13.3605 963 91.1713 839.854 489.615
2173 0 72.0458 13.1861 950 93.5874 840.26 487.865
2174 0 76.0499 12.8337 976 94.8566 840.505 486.768
2175 0 76.0986 12.9437 985 96.0366 840.418 487.217
2176 0 79.0639 12.3697 978 97.1646 840.108 487.552
2177 0 83.0616 13.7127 1139 93.5294 840.668 484.675
2178 0 86.0783 13.9408 1200 92.825 840.129 484.275
2179 0 86.0948 12.9741 1117 95.4261 841.423 482.884
2180 0 89.0556 13.5982 1211 94.256 840.638 481.409
2181 0 92.0747 13.7714 1268 93.8935 840.398 478.956
2182 0 96.0602 13.2625 1274 94.3242 840.721 477
2183 0 100.092 13.5675 1358 92.9396 841.874 476.102
2184 0 101.077 12.7823 1292 95.4412 841.27 475.214
2185 0 104.099 12.9396 1347 93.3408 840.959 473.045
2186 0 107.116 13.0793 1401 92.0414 840.924 469.577
2187 0 110.139 12.339 1359 89.3076 841.395 464.152
2188 0 112.184 12.5686 1410 88.673 841.623 462.504
2189 0 117.129 12.7125 1489 88.4271 841.23 462.255
2190 0 120.112 11.3311 1361 91.8597 841.459 458.794
2191 0 125.094 12.1749 1523 89.4156 840.948 455.511
2192 0 128.073 12.0244 1540 89.9032 840.992 453.086
2193 1 70.0733 9.34736 655 83.2595 841.108 487.653
2194 0 73.0442 9.93919 726 83.7231 840.946 485.944
2195 0 75.0352 11.0748 831 83.775 841.638 484.89
2196 0 80.0381 12.1567 973 86.4008 841.617 486.802
2197 0 80.0341 12.0824 967 89.0641 840.916 485.049
2198 0 83.0392 12.187 1012 91.5069 841.279 483.504
2199 0 87.0811 13.0109 1133 90.7608 841.358 483.244
2200 0 89.0718 12.8323 1143 92.9475 841.214 482.782
2201 0 91.0356 13.0169 1185 93.5063 841.359 480.141
2202 0 94.0479 13.1422 1236 94.4296 841.273 478.874
2203 0 98.05 13.0546 1280 95.3453 840.412 477.718
2204 0 99.0379 13.0455 1292 97.5844 840.538 476.625
2205 0 104.08 13.48 1403 96.4106 841.519 476.517
2206 0 105.036 13.5478 1423 97.9311 840.49 474.954
2207 0 106.051 13.239 1404 98.7144 840.57 471.784
2208 0 112.054 13.6809 1533 96.437 839.96 470.142
2209 0 113.082 13.9456 1577 95.8998 840.339 468.885
2210 0 117.087 13.8957 1627 94.4739 841.023 466.297
2211 0 118.072 13.5171 1596 95.089 840.878 461.466
2212 0 124.116 13.1973 1638 94.9725 840.696 459.851
2213 0 128.077 13.4294 1720 94.482 840.314 457.744
2214 0 132.18 13.6556 1805 94.5961 840.788 455.796
2215 0 134.162 13.7445 1844 95.5591 839.761 452.498
2216 0 139.142 13.842 1926 95.0514 839.742 451.102
2217 0 143.117 13.5344 1937 96.221 839.846 448.61
2218 0 149.107 13.1986 1968 97.1662 839.465 444.317
2219 0 155.164 14.6233 2269 92.7801 840.506 442.041
2220 0 155.112 13.4097 2080 98.3654 839.787 439.412
2221 0 161.093 13.3277 2147 99.1621 840.124 439.075
2222 0 164.072 12.6347 2073 101.112 839.666 435.577
2223 0 171.094 12.7942 2189 100.796 839.918 434.514
2224 0 176.112 13.2416 2332 100.467 840.195 431.279
2225 0 184.103 12.9493 2384 101.451 840.032 428.412
2226 0 191.121 12.9865 2482 102.143 838.518 428.347
2227 1 94.0462 12.1004 1138 90.5193 838.685 480.909
2228 0 97.0708 12.4239 1206 89.665 839.341 479.156
2229 0 100.061 12.1726 1218 89.0566 839.095 477.814
2230 0 104.11 12.1794 1268 89.0938 838.778 475.552
2231 0 108.091 12.767 1380 87.4558 838.965 473.832
2232 0 112.229 13.0447 1464 86.5178 839.175 471.762
2233 0 114.112 11.6027 1324 89.6624 838.814 470.227
2234 0 120.093 12.1739 1462 88.5096 839.739 467.479
2235 0 125.103 12.0701 1510 87.6212 839.62 467.413
2236 1 66.0614 10.9746 725 90.829 839.204 498.208
2237 0 67.0913 11.8346 794 90.8791 838.607 495.395
2238 0 70.0583 11.6332 815 84.3767 838.971 495.674
2239 0 74.0665 12.2727 909 82.6557 838.442 493.822
2240 0 77.0502 12.3815 954 92.4329 837.939 492.855
2241 0 80.1226 12.381 992 92.2208 838.066 491.371
2242 0 82.0931 12.4493 1022 92.2427 839.015 490.191
2243 0 83.151 12.1345 1009 94.0396 839.034 489.04
2244 0 85.1345 12.1102 1031 94.0359 838.978 488.121
2245 0 89.1309 11.7468 1047 93.2149 838.982 486.372
2246 0 90.1615 12.6662 1142 91.5342 839.652 484.769
2247 0 93.2277 12.1101 1129 92.4349 839.397 482.65
2248 0 95.1471 11.7713 1120 93.8929 839.844 482.049
2249 0 97.1809 11.8953 1156 92.6929 840.16 480.858
2250 0 99.1012 11.7052 1160 92.6647 839.404 479.578
2251 0 103.181 11.4749 1184 92.1292 839.738 474.902
2252 0 106.179 11.5936 1231 89.1942 839 476.567
2253 0 107.167 11.2908 1210 90.8207 839.454 474.411
2254 0 111.173 10.5511 1173 92.5891 839.362 470.343
2255 0 114.12 10.8132 1234 92.9149 839.966 469.813
2256 0 121.179 11.4624 1389 92.4032 839.312 465.973
2257 0 125.179 11.7671 1473 93.0808 839.872 467.988
2258 1 70.0976 10.9134 765 93.9281 840.165 494.39
2259 0 72.1128 11.8703 856 92.1378 839.202 492.561
2260 0 74.0854 12.0806 895 97.7587 840.179 491.915
2261 0 78.216 12.6445 989 96.4692 840.515 491.054
2262 0 78.1819 12.5349 980 98.6112 839.837 490.56
2263 0 80.1288 12.3052 986 100.142 840.402 489.588
2264 0 86.1869 13.3083 1147 97.3609 839.596 488.156
2265 0 88.2781 13.095 1156 99.2206 838.969 485.299
2266 0 88.166 13.0436 1150 98.1583 839.497 486.179
2267 0 89.1838 12.592 1123 100.637 839.72 486.126
2268 0 93.0988 13.1688 1226 97.7871 839.377 484.037
2269 0 94.1363 13.3105 1253 98.8188 840.526 483.211
2270 0 99.1904 13.2271 1312 98.3567 839.745 481.442
2271 0 101.165 13.3544 1351 98.5759 839.863 479.959
2272 0 104.13 13.0798 1362 99.1916 839.82 478.173
2273 0 108.14 13.5935 1470 97.1041 840.368 475.788
2274 0 111.132 12.7416 1416 99.1617 839.27 474.566
2275 0 115.239 13.2768 1530 96.7752 839.674 474.039
2276 0 120.143 13.0179 1564 97.3951 839.444 470.96
2277 1 62.0916 12.9647 805 96.9466 839.589 498.72
2278 0 63.0433 12.3249 777 99.4003 840.987 498.226
2279 0 65.0158 13.2122 859 96.1094 840.151 497.987
2280 0 66.0286 13.6456 901 92.0244 839.635 498.17
2281 0 69.0182 13.6631 943 91.4539 839.839 495.899
2282 0 70.0384 13.5497 949 92.0474 840.258 495.548
2283 0 71.0636 13.0165 925 94.1232 839.961 493.282
2284 0 74.0258 13.117 971 92.7302 840.611 493.052
2285 0 77.0418 13.4992 1040 91.4038 840.73 493.494
2286 0 80.0781 13.3869 1072 91.8302 839.529 490.017
2287 0 83.104 13.453 1118 90.9598 839.519 490.4
2288 0 85.1027 13.4778 1147 92.0549 839.887 482.611
2289 0 88.0871 13.7932 1215 91.0658 839.777 482.437
2290 0 88.0744 13.6476 1202 92.0682 839.791 481.207
2291 0 92.0395 13.4833 1241 92.6753 839.806 483.589
2292 0 96.0917 13.5183 1299 92.1162 839.547 481.923
2293 0 98.0457 13.2591 1300 93.1692 839.356 476.526
2294 0 103.082 13.6493 1407 91.0732 839.736 478.991
2295 0 107.138 13.3379 1429 91.0245 839.685 478.671
2296 0 109.131 13.6533 1490 90.4859 839.222 472.086
2297 1 51.0458 11.2056 572 93.2797 839.425 503.283
2298 0 53.0348 12.4258 659 91.8194 838.651 502.278
2300 0 54.0654 12.4109 671 92.2504 839.505 499.672
2301 0 59.0759 12.9156 763 84.7497 840.062 500.168
2302 0 61.0666 13.428 820 82.9122 839.922 499.012
2303 0 62.0384 12.9436 803 84.1457 840.776 496.775
2304 0 65.0284 13.5172 879 82.1695 839.99 495.725
2305 0 69.0264 14.4872 1000 79.107 840.588 495.937
2306 0 72.1218 13.907 1003 82.2871 839.38 494.48
2307 0 76.0392 14.361 1092 81.5137 839.849 492.042
2308 0 79.0856 14.1366 1118 81.8623 840.013 489.188
2309 0 81.0457 14.2265 1153 82.2368 840.426 486.637
2310 0 82.0717 13.8537 1137 84.2454 840.656 484.5
2311 0 85.0516 14.0033 1191 83.9563 840.379 482.427
2312 0 88.0652 13.8307 1218 84.6938 840.413 481.897
2313 0 90.0698 13.3896 1206 86.3284 840.037 479.515
2314 0 95.0691 13.0011 1236 86.3131 839.697 477.308
2315 1 47.0647 11.4523 539 86.551 840.052 499.601
2316 0 48.0926 12.2472 589 85.2547 839.659 498.825
2317 0 51.0046 11.9597 610 85.4508 839.61 498.007
2318 0 53.0911 12.1301 644 83.9162 839.43 496.902
2319 0 53.1142 12.6332 671 84.5261 838.857 496.243
2320 0 56.0252 12.1909 683 82.6545 839.463 501.066
2321 0 57.0655 12.3893 707 83.1202 838.642 499.46
2322 0 59.088 12.1683 719 83.9541 838.291 497.836
2323 0 63.0367 12.7227 802 82.2244 838.217 495.778
2324 0 63.0947 12.6794 800 83.5238 838.519 494.7
2325 0 65.0374 12.3621 804 84.2463 839.117 491.79
2326 0 70.048 12.6913 889 82.8605 838.81 489.015
2327 0 70.0542 12.3761 867 84.3137 839.368 488.245
2328 0 74.129 12.5727 932 83.3487 838.81 484.723
2329 0 72.0621 12.2395 882 86.1553 839.288 483.348
2330 0 78.1092 12.3417 964 86.4627 839.85 480.738
2331 0 79.0631 12.5722 994 85.7726 840.157 476.179
2332 0 82.07 12.7452 1046 85.6788 840.197 475.347
2333 0 84.1643 12.5825 1059 86.4835 839.721 476.55
2334 0 87.089 12.4356 1083 86.8587 840.024 474.671
2335 0 91.1223 12.357 1126 86.7691 840.116 473.869
2336 0 91.0616 12.5959 1147 88.2459 841.034 471.345
2337 0 95.1163 12.6266 1201 88.4296 840.449 470.59
2338 0 99.1018 12.8958 1278 87.4648 840.427 469.621
2339 0 102.116 12.6327 1290 88.2806 841.195 468.071
2340 0 106.104 12.3652 1312 88.8026 841.795 465.133
2341 0 111.084 12.8551 1428 87.9804 841.295 463.871
2342 0 114.111 12.1461 1386 89.6407 841.346 463.238
2343 0 119.091 12.8557 1531 88.5441 841.274 460.594
2344 0 124.175 12.9333 1606 87.7061 841.516 457.888
2345 0 128.062 12.3612 1583 89.4574 841.118 456.926
2346 0 133.144 12.7456 1697 88.6246 841.182 454.328
2347 1 71.1249 10.6573 758 92.1755 840.363 485.776
2348 0 77.0795 12.5714 969 87.9659 840.551 486.595
2349 0 81.1517 13.3824 1086 88.326 839.501 488.144
2350 0 86.2081 13.6298 1175 88.4111 839.563 487.207
2351 0 88.1668 13.6673 1205 89.1552 839.002 486.757
2352 0 89.2014 13.9236 1242 89.1965 839.42 483.899
2353 0 92.1069 13.9295 1283 89.2299 838.935 483.872
2354 0 96.2132 14.0417 1351 88.8453 838.161 483.303
2355 0 97.1237 13.6424 1325 90.6136 839.04 481.485
2356 0 102.131 13.9331 1423 89.2157 838.77 480.994
2357 0 104.046 13.6094 1416 89.9887 838.479 480.594
2358 0 109.13 13.8092 1507 89.2561 838.285 480.583
2359 0 112.144 13.7948 1547 89.9813 838.153 476.61
2360 0 117.148 13.5555 1588 89.5592 838.631 475.458
2361 0 122.099 13.661 1668 87.8477 838.107 474.071
2362 0 126.127 13.1931 1664 87.8936 838.043 469.969
2363 1 68.0436 10.1993 694 86.268 837.314 500.549
2364 0 71.1046 11.2932 803 84.863 837.623 500.227
2365 0 73.0781 11.4809 839 85.2026 837.178 497.802
2366 0 77.1076 12.4372 959 84.683 837.233 497.008
2367 0 79.0561 13.0034 1028 86.1352 836.485 496.096
2368 0 83.1308 12.6427 1051 86.8601 836.754 494.832
2369 0 86.1988 12.3784 1067 88.8285 837.369 492.535
2370 0 88.1054 12.6553 1115 89.078 836.886 490.135
2371 0 91.1685 12.7347 1161 89.7511 837.466 489.351
2372 0 96.0671 12.9701 1246 89.4454 836.884 488.168
2373 0 98.0547 12.901 1265 90.887 837.01 485.861
2374 0 101.118 12.9749 1312 91.1875 837.144 484.64
2375 0 102.079 12.6372 1290 93.2271 837.216 483.146
2376 0 106.117 12.9386 1373 92.6468 837.402 480.567
2377 0 111.159 12.4056 1379 93.678 837.539 477.775
2378 0 114.16 12.4387 1420 93.7465 837.062 474.954
2379 0 119.085 12.7976 1524 94.0426 837.497 472.001
2380 0 123.126 12.1014 1490 95.2295 837.262 468.761
2381 1 67.1683 11.4637 770 86.6792 837.326 497.614
2382 0 69.1919 11.4898 795 91.0503 836.497 494.376
2383 0 71.1185 12.4018 882 91.9751 836.943 492.422
2384 0 74.1046 12.2664 909 93.615 836.579 489.442
2385 0 78.1038 13.0595 1020 91.051 837.045 489.066
2386 0 80.1763 12.3353 989 92.7492 837.416 488.074
2387 0 83.2879 12.6309 1052 92.326 837.42 488.234
2388 0 84.3003 12.2894 1036 94.5782 837.463 485.73
2389 0 89.2837 13.1155 1171 92.1904 837.426 485.598
2390 0 91.2752 12.917 1179 93.6344 837.796 483.447
2391 0 94.2265 13.648 1286 91.7216 838.519 482.241
2392 0 96.1618 12.8637 1237 96.3153 837.945 479.281
2393 0 102.331 13.2902 1360 95.2831 837.757 477.461
2394 0 105.182 12.8349 1350 96.7933 838.124 476.466
2395 0 110.184 12.8603 1417 97.5575 838.204 473.834
2396 0 110.259 12.1714 1342 100.314 837.758 474.434
2397 0 115.114 12.4399 1432 100.377 837.412 473.79
2398 1 57.0571 12.3736 706 103.585 837.385 498.582
2399 0 59.0819 13.1851 779 101.782 838.555 495.676
2400 0 61.1157 13.2699 811 101.811 837.993 493.625
2401 0 62.0683 13.3885 831 102.721 838.046 490.419
2403 0 67.1149 13.7674 924 99.0357 837.727 491.404
2404 0 68.0169 13.8201 940 94.7404 838.292 493.77
2405 0 70.0614 13.8164 968 95.1581 838.409 493
2406 0 70.0669 13.4157 940 98.7351 838.833 486.787
2407 0 73.0769 13.6569 998 97.8707 838.476 485.348
2408 0 76.1032 14.3883 1095 95.3416 839.233 484.933
2409 0 81.079 13.8754 1125 95.7547 839.196 483.081
2410 0 82.1492 14.218 1168 95.4632 838.562 481.162
2411 0 83.0714 13.687 1137 96.6403 839.288 480.129
2412 0 86.1607 13.4748 1161 96.1826 838.56 478.786
2413 0 87.0263 13.4672 1172 95.5956 838.683 478.578
2414 0 91.1106 13.1269 1196 96.1212 838.949 476.773
2415 0 92.1324 12.9488 1193 97.6312 839.452 474.515
2416 0 95.0835 13.4408 1278 95.9429 838.772 475.329
2417 0 99.0509 12.9327 1281 96.587 839.337 474.503
2418 0 100.091 12.8483 1286 97.4191 839.377 472.872
2419 1 56.0632 12.3075 690 97.2145 840.232 494.668
2420 0 58.0732 12.7942 743 95.3688 839.277 494.18
2421 0 58.0216 13.3399 774 90.8501 839.655 498.061
2422 0 60.0517 12.9555 778 91.7506 839.365 498.134
2423 0 63.0584 12.9562 817 92.2999 839.499 496.628
2424 0 64.157 13.2799 852 92.4437 839.299 495.633
2425 0 66.0904 13.3605 883 92.6116 839.52 493.7
2426 0 68.1014 13.3478 909 93.2695 839.463 490.821
2427 0 69.1073 13.0377 901 93.7924 839.553 490.311
2428 0 72.0982 13.3845 965 92.829 839.395 488.74
2429 0 73.0312 12.926 944 94.0837 839.59 488.075
2430 0 75.1416 13.0953 984 94.4096 840.052 485.397
2431 0 77.0861 13.3098 1026 94.8041 839.466 483.08
2432 0 81.0557 13.4475 1090 94.0477 840.113 482.664
2433 0 82.0953 12.9971 1067 95.0487 838.874 482.595
2434 0 84.0848 13.3912 1126 94.6332 839.523 482.191
2435 0 86.1772 13.1589 1134 96.6517 838.968 478.265
2436 0 90.1135 13.2056 1190 97.1613 839.048 474.588
2437 0 92.1422 12.8497 1184 98.4696 838.372 472.545
2438 0 95.0714 13.5162 1285 97.1767 839.044 471.683
2439 0 100.072 12.7408 1275 98.811 838.32 469.21
2440 1 48.0067 10.8526 521 94.4933 838.983 495.23
2441 0 50.0634 11.6252 582 92.4674 839.881 496.155
2442 0 56.0626 12.0223 674 94.3398 839.033 495.153
2443 0 54.028 12.2899 664 90.8193 839.203 492.069
2444 0 57.0856 11.7017 668 89.9102 838.266 497.96
2445 0 58.087 12.1025 703 89.1607 838.502 495.772
2446 0 61.0642 12.3313 753 89.2669 838.24 495.015
2447 0 63.0325 12.1366 765 89.4235 838.685 493.241
2448 0 66.0345 12.2512 809 89.5216 838.834 490.627
2449 0 69.0602 12.6411 873 88.63 838.784 490.36
2450 0 72.0248 12.1208 873 90.0206 838 490.423
2451 0 73.0702 12.5222 915 90.2076 838.805 487.776
2452 0 76.071 12.2254 930 90.672 838.411 483.727
2453 0 78.0729 12.9751 1013 89.6584 839.265 482.832
2454 0 81.0477 13.5476 1098 88.7559 838.926 482.098
2455 0 82.0991 12.9478 1063 91.0612 838.861 480.632
2456 0 85.1367 13.3433 1136 90.3231 838.704 479.533
2457 0 90.0871 13.5757 1223 88.7972 839.388 478.576
2458 0 93.1006 13.3511 1243 89.5446 838.23 476.675
2459 0 96.1061 13.8597 1332 89.1336 838.702 474.595
2460 0 99.1089 13.692 1357 90.5556 839.119 473.105
2461 0 103.137 13.3415 1376 91.1468 838.091 471.678
2462 0 105.106 13.5768 1427 92.3132 839.219 468.378
2463 0 109.077 13.6692 1491 92.2059 838.478 467.29
2464 0 115.201 13.4635 1551 92.6989 838.805 465.692
2465 1 65.0328 11.2097 729 89.8601 837.964 492.547
2466 0 68.0613 11.7835 802 90.2968 839.542 490.5
2467 0 71.0974 12.7994 910 89.6648 839.2 491.657
2468 0 72.0863 12.7347 918 86.8388 838.206 494.481
2469 0 74.0748 12.1499 900 89.0589 838.039 492.517
2470 0 76.0765 12.5269 953 88.66 838.545 492.868
2471 0 79.0724 12.7099 1005 88.5891 837.9 490.894
2472 0 81.0994 12.6635 1027 90.0263 838.4 487.904
2473 0 84.2122 12.7772 1076 89.8996 838.176 487.143
2474 0 85.0936 12.8917 1097 90.979 838.486 484.469
2475 0 89.1129 12.804 1141 91.7774 837.822 483.477
2476 0 91.1339 12.8383 1170 92.2598 838.607 479.768
2477 0 93.177 12.7714 1190 93.6387 838.944 479.69
2478 0 96.1256 12.6397 1215 95.1268 838.157 477.616
2479 0 100.148 12.7612 1278 94.892 838.758 476.62
2480 0 104.088 12.9602 1349 95.43 838.185 473.956
2481 0 109.178 13.0337 1423 95.0794 839.233 473.029
2482 0 111.144 12.7672 1419 97.9922 838.452 468.191
2483 0 120.129 14.268 1714 92.0309 838.897 468.481
2484 1 62.0888 12.5949 782 86.7826 839.467 498.48
2485 0 64.1048 12.7292 816 87.8799 839.839 497.517
2486 0 68.1022 13.2742 904 85.4204 839.616 498.728
2487 0 68.0877 12.2489 834 85.7314 839.727 499.468
2488 0 70.0354 11.6513 816 87.0319 839.357 497.999
2489 0 72.1005 12.5797 907 84.8026 839.869 496.828
2490 0 75.1699 13.0105 978 83.7843 839.866 496.633
2491 0 76.0919 12.3141 937 86.6371 839.794 494.506
2492 0 78.1082 11.8297 924 88.1818 840.049 494.619
2493 0 82.0659 12.6849 1041 87.0596 839.575 493.365
2494 0 84.1503 13.155 1107 87.2159 839.089 488.903
2495 0 86.0489 12.981 1117 88.3259 839.554 488.045
2496 0 88.0463 12.5389 1104 89.9275 838.813 486.368
2497 0 93.0485 13.3371 1241 87.1781 839.506 486.668
2498 0 95.0901 13.0298 1239 89.3608 839.482 483.979
2499 0 97.0847 13.0505 1267 90.2115 838.804 480.674
2500 0 100.078 12.7101 1272 90.2162 839.866 481.256
2501 0 103.05 12.6055 1299 90.8391 839.832 478.362
2502 0 107.208 12.8069 1373 91.2425 839.955 476.752
2503 0 110.159 12.128 1336 92.0868 839.98 476.646
2504 0 116.314 12.9133 1502 90.3122 839.923 471.621
2505 1 66.1021 12.0722 798 90.485 839.233 495.927
2506 0 67.125 12.5736 844 89.378 838.981 494.59
2507 0 72.0892 13.5388 976 85.3832 838.599 494.919
2508 0 72.1465 13.1261 947 83.4361 838.795 493.984
2509 0 75.1896 13.579 1021 82.856 838.665 491.535
2510 0 77.1341 13.3534 1030 84.834 837.95 489.683
2511 0 82.1256 13.7959 1133 84.271 838.6 487.357
2512 0 81.1996 12.1552 987 90.3283 838.922 489.127
2513 0 84.1901 12.4718 1050 89.519 839.17 488.429
2514 0 87.1795 12.1244 1057 91.4806 839.06 486.915
2515 0 91.2244 12.7269 1161 89.4944 838.784 483.83
2516 0 94.1997 12.4629 1174 90.1397 838.986 482.727
2517 0 98.2819 12.4947 1228 89.9544 839.016 480.185
2518 0 100.153 11.9816 1200 91.8458 839.315 478.982
2519 1 52.1623 12.557 655 95.2794 838.099 498.472
2520 0 52.078 12.6925 661 94.9743 838.354 498.753
2521 0 55.1106 13.2642 731 93.4514 838.555 497.486
2522 0 56.0877 13.6037 763 91.8873 839.229 495.121
2523 0 58.1182 12.7499 741 93.8138 838.302 494.668
2524 0 61.1132 13.745 840 90.619 837.708 492.962
2525 0 61.1442 13.7217 839 91.174 837.067 491.928
2526 0 65.1141 13.3304 868 91.1152 837.229 489.385
2527 0 66.0985 13.6312 901 90.9589 837.932 490.163
2528 0 68.0485 13.1671 896 92.6138 838.603 490.166
2529 0 70.0875 13.2406 928 93.4903 837.745 487.943
2530 0 74.334 13.7488 1022 90.5362 838.616 487.194
2531 0 77.0944 13.7624 1061 91.3855 838.095 484.713
2532 0 78.1462 13.4619 1052 91.7253 838.227 481.837
2533 0 79.1122 13.5251 1070 92.9542 837.343 480.763
2534 0 82.1628 14.1305 1161 90.8053 838.137 480.46
2535 0 84.1067 13.1381 1105 93.21 837.601 477.796
2536 0 87.1825 13.0531 1138 93.884 837.92 476.455
2537 0 90.2553 13.0962 1182 92.6083 837.817 474.96
2538 0 92.185 13.9285 1284 91.9089 838.28 473.057
2539 0 95.11 13.7104 1304 91.0276 837.62 470.505
2540 0 99.1216 13.4784 1336 91.9319 837.738 469.823
2541 0 100.159 12.8096 1283 93.339 838.094 469.295
2542 0 103.166 12.572 1297 93.3331 838.89 467.658
2543 1 51.0442 11.97 611 99.748 838.355 489.908
2544 0 57.0201 12.3991 707 96.1259 838.016 489.88
2545 0 60.0945 12.7299 765 94.4967 838.494 488.139
2546 0 60.0476 13.6558 820 93.0451 838.396 486.018
2547 0 62.0099 12.5464 778 93.2468 838.503 484.066
2548 0 62.0542 12.3279 765 94.1346 838.382 484.379
2549 0 67.0316 13.0237 873 91.6942 837.755 481.991
2550 0 66.0126 13.2399 874 93.127 838.387 480.134
2551 0 67.0584 12.7948 858 93.9044 838.309 481.113
2552 0 72.0305 12.9251 931 93.3641 838.627 477.862
2553 0 77.0366 13.565 1045 89.7761 839.739 478.994
2554 0 81.0423 14.005 1135 88.5181 840.565 478.137
2555 0 82.0774 13.2558 1088 90.386 840.771 475.998
2556 0 85.0702 12.6014 1072 93.4179 840.261 475.362
2557 0 88.0478 13.5154 1190 92.942 840.192 473.776
2558 0 90.0929 13.6415 1229 92.8666 839.124 470.902
2559 0 94.0501 12.6422 1189 94.3827 839.164 472.252
2560 0 98.117 12.7297 1249 93.3731 838.303 468.827
2561 0 97.0888 12.6379 1227 95.9902 839.256 464.467
2562 0 100.124 12.6543 1267 96.2865 838.548 464.529
2563 0 103.077 12.5053 1289 97.1893 838.69 461.652
2564 0 105.03 12.6821 1332 97.1134 838.1 460.14
2565 0 111.077 12.2168 1357 96.6374 838.509 457.001
2566 0 117.074 12.7185 1489 94.8838 838.206 454.537
2567 0 121.123 13.0612 1582 94.1207 838.793 453.21
2568 0 124.111 12.8755 1598 95.383 837.898 450.385
2569 0 131.093 13.5705 1779 93.0124 838.183 447.119
2570 0 134.102 13.0796 1754 94.504 838.288 445.758
2571 0 141.127 13.7181 1936 93.0558 838.363 442.542
2572 0 145.175 13.7834 2001 92.982 838.797 439.041
2573 0 153.062 13.5174 2069 92.5515 839.62 437.833
2574 0 157.156 13.3243 2094 93.2192 839.237 436.852
2575 0 159.086 13.2193 2103 94.6776 839.53 432.342
2576 0 166.077 13.1024 2176 95.4839 838.574 427.844
2577 1 176.109 13.7983 2430 93.3601 839.26 430.173
2578 0 182.114 13.6783 2491 95.173 838.153 425.831
2579 0 189.075 13.931 2634 94.2107 839.519 425.306
2580 0 195.19 14.0529 2743 94.6661 839.102 423.303
2581 0 198.108 13.3463 2644 96.8249 839.237 416.946
2582 0 204.211 13.0355 2662 96.9643 840.584 413.785
2583 0 212.21 13.0201 2763 98.3243 839.794 407.049
2584 0 215.175 13.259 2853 97.4213 839.997 401.969
2585 1 66.1054 7.86623 520 78.9346 839.527 484.073
2586 0 71.0199 9.25093 657 80.6378 840.431 484.37
2587 0 76.0417 11.7041 890 81.4214 840.274 487.926
2588 0 77.0622 11.2377 866 79.3106 839.434 487.206
2589 0 82.1024 11.6318 955 78.3476 840.132 484.459
2590 0 84.0702 10.8481 912 80.6546 840.16 482.866
2591 0 87.092 10.9654 955 80.3194 839.729 481.335
2592 0 92.107 10.8787 1002 80.4202 840.608 481.094
2593 0 92.0932 10.4785 965 81.3606 840.206 478.655
2594 0 98.0739 11.5525 1133 79.2154 840.391 476.079
2595 0 101.161 11.7337 1187 78.5998 839.446 474.985
2596 0 104.172 11.2794 1175 79.8945 839.3 472.1
2597 0 108.123 11.2002 1211 81.1082 840.184 469.099
2598 1 59.0762 9.81783 580 79.2552 840.107 496.784
2599 0 61.112 10.0144 612 81.6765 840.605 494.873
2600 0 62.1034 9.99946 621 77.0209 839.617 493.939
2601 0 66.109 10.6037 701 76.3352 838.866 494.332
2602 0 67.0932 10.791 724 76.2624 839.243 490.925
2603 0 70.078 10.5311 738 75.9079 839.114 489.672
2604 0 73.196 9.52238 697 89.7805 839.541 490.116
2605 0 75.1695 10.7756 810 87.6593 840.059 487.123
2606 0 77.1736 11.0141 850 87.5341 839.776 485.866
2607 0 79.1651 10.2823 814 90.3403 840.058 485.743
2608 0 82.1561 11.4051 937 88.7492 839.394 484.539
2609 0 83.1149 10.8645 903 90.7962 840.248 484.053
2610 0 86.1343 10.7855 929 90.6685 840.092 481.556
2611 0 89.1863 11.1004 990 90.1232 839.579 482.379
2612 0 89.1345 10.7478 958 92.1868 839.173 480.461
2613 1 49.0775 8.86353 435 87.1402 839.085 500.867
2614 0 53.0798 9.15603 486 89.7942 838.333 499.907
2615 0 53.0296 9.44755 501 85.9222 838.936 500.389
2616 0 54.0865 9.6697 523 86.1491 838.168 499.304
2617 0 55.1414 10.2282 564 83.0213 838.922 498.78
2618 0 57.1002 10.6304 607 80.8171 838.776 497.807
2619 0 58.0913 10.4319 606 78.7162 839.52 496.85
2620 0 61.1397 11.1221 680 77.7824 839.316 496.465
2621 0 62.1094 10.9806 682 78.371 839.738 496.268
2622 0 62.1462 11.0707 688 78.3169 839.481 495.836
2623 0 65.11 11.1657 727 78.8459 840.073 493.79
2624 0 67.0909 10.8211 726 79.9146 839.382 492.14
2625 0 68.1158 11.0694 754 81.7997 839.365 491.71
2626 0 69.0789 11.6533 805 80.1677 839.578 490.725
2627 0 73.1778 11.6702 854 88.1897 839.619 488.835
2628 0 77.1878 12.0226 928 90.5054 838.915 489.019
2629 0 77.171 11.5717 893 92.6103 838.905 487.835
2630 0 80.119 11.9822 960 91.1521 838.671 487.395
2631 0 81.1897 11.0482 897 92.9877 838.817 485.788
2632 0 85.2047 11.9594 1019 89.7409 839 485.021
2633 0 88.1091 11.7695 1037 89.6577 840.015 483.636
2634 0 92.1223 12.4508 1147 87.5876 839.609 482.366
2635 1 50.0557 10.5682 529 85.4972 839.045 502.384
2636 0 53.043 11.0288 585 81.8222 839.54 502.581
2637 0 53.0863 10.9068 579 82.4128 840.527 502.283
2638 0 56.1259 11.5633 649 81.6148 840.102 500.182
2639 0 55.0856 10.8014 595 82.5681 840.928 499.121
2640 0 58.0483 11.3354 658 80.1884 840.284 498.143
2641 0 59.0317 11.2651 665 81.1278 839.71 496.824
2642 0 62.0309 12.3164 764 78.2186 839.74 495.533
2643 0 64.0201 11.6682 747 79.328 839.104 494.663
2644 0 63.0226 11.7894 743 79.8506 839.221 494.334
2645 0 66.0574 11.7171 774 79.2067 838.72 494.743
2646 0 69.0581 11.7872 814 78.0663 839.173 493.372
2647 0 71.0508 11.7099 832 78.9543 839.025 493.192
2648 0 71.0388 11.8527 842 78.3955 839.621 491.538
2649 0 75.089 11.2666 846 78.5154 838.805 491.513
2650 0 78.0684 12.425 970 75.7165 838.703 488.971
2651 0 81.0597 11.7814 955 77.4105 839.808 488.426
2652 0 83.0942 11.8179 982 77.8605 839.543 486.77
2653 0 84.0554 11.9326 1003 77.9432 840.464 485.161
2654 0 87.1075 12.5707 1095 78.3772 839.955 483.908
2655 0 91.1094 12.8088 1167 78.5981 839.044 482.284
2656 0 90.1857 12.2525 1105 82.4805 838.991 480.421
2657 0 95.1332 12.4037 1180 89.5246 839.326 479.461
2658 0 98.1566 12.7347 1250 89.4256 839.238 477.554
2659 0 98.2454 12.3568 1214 89.874 839.156 476.07
2660 0 102.157 12.843 1312 89.311 839.119 475.462
2661 0 104.168 12.7006 1323 90.3023 838.87 474.355
2662 0 109.25 12.5126 1367 89.594 839.566 473.448
2663 0 112.168 12.5704 1410 89.4773 839.249 470.188
2664 1 59.04 9.99322 590 86.717 838.795 498.481
2665 0 63.0508 10.8008 681 83.2247 839.974 497.07
2666 0 62.1128 10.5131 653 77.0597 839.404 490.141
2667 0 65.0343 10.6559 693 76.5426 839.683 488.489
2668 0 66.0269 10.9804 725 75.5366 837.912 493.051
2669 0 68.0453 11.0515 752 75.6702 838.367 492.949
2670 0 68.0567 10.1974 694 77.4971 839.353 493.473
2671 0 73.0147 10.9704 801 75.2971 839.499 493.18
2672 0 76.0507 10.5719 804 76.1393 840.272 490.415
2673 0 77.0714 10.7173 826 76.5085 840.352 489.309
2674 0 82.1689 11.2573 925 75.5027 840.685 487.561
2675 0 83.0732 11.6403 967 76.0589 840.473 485.719
2676 0 86.0905 12.301 1059 75.3966 839.652 485.128
2677 0 89.1127 11.4574 1021 77.3124 840.809 480.344
2678 0 92.1361 11.4613 1056 77.4053 839.885 479.139
2679 0 95.078 11.8219 1124 78.5489 840.52 478.66
2680 0 98.0793 12.2044 1197 77.7302 839.185 475.645
2681 1 52.0187 10.1118 526 77.2528 839.905 503.977
2682 0 53.0508 10.1978 541 77.7449 839.699 503.061
2683 0 55.0332 11.1751 615 76.1561 839.613 501.831
2684 0 55.13 11.2643 621 77.0064 839.264 501.936
2685 0 56.1036 12.2274 686 80.3863 838.965 495.717
2686 0 59.1048 12.4186 734 81.6512 838.618 496.537
2687 0 60.0509 12.6393 759 83.6759 837.723 496.951
2688 0 64.2019 13.5198 868 80.621 838.143 496.238
2689 0 64.0726 12.9697 831 81.9868 837.481 495.472
2690 0 67.1082 13.5155 907 80.4454 837.716 494.868
2691 0 70.1393 13.074 917 81.3686 838.184 493.456
2692 0 72.1515 13.4439 970 81.367 838.082 492.478
2693 0 74.1722 13.0912 971 82.4356 839.163 491.696
2694 0 75.1321 13.1369 987 83.0892 838.942 490.985
2695 0 78.177 13.7253 1073 81.1006 838.421 488.877
2696 0 81.1032 13.7356 1114 81.9066 838.149 488.132
2697 0 84.0954 14.3409 1206 81.1476 838.883 487.192
2698 0 86.0817 13.5453 1166 83.0557 838.779 486.512
2699 0 89.1722 14.13 1260 82.3873 838.76 483.789
2700 0 90.1056 13.3843 1206 83.1998 839.208 483.155
2701 0 94.077 13.2976 1251 83.3533 839.118 480.917
2702 0 94.1572 13.0314 1227 85.6121 838.09 480.356
2703 0 99.1088 13.3187 1320 82.9765 838.837 478.79
2704 0 101.089 13.4535 1360 82.9515 838.3 476.569
2705 0 102.105 12.5949 1286 87.7628 838.102 476.177
2706 0 105.103 12.5877 1323 89.3998 838.477 472.769
2707 1 59.1305 11.7537 695 92.1108 838.672 494.416
2708 0 59.1358 12.4121 734 87.7629 838.905 491.587
2709 0 60.15 11.6043 698 81.9527 838.54 488.807
2710 0 60.1161 10.7459 646 85.596 839.353 491.062
2711 0 63.1413 11.8306 747 82.6439 839.416 491.054
2712 0 65.0951 11.7981 768 83.6263 839.064 489.695
2713 0 68.0672 11.8266 805 79.1056 838.96 492.022
2714 0 70.0715 12.1733 853 80.1102 839.514 491.487
2715 0 72.0779 12.1674 877 81.0604 839.115 491.966
2716 0 75.1065 12.8617 966 80.1739 839.362 490.201
2717 0 76.117 12.691 966 81.0756 838.787 488.582
2718 0 79.155 12.7471 1009 82.553 838.627 488.165
2719 0 82.1209 12.4085 1019 85.0157 838.822 486.805
2720 0 84.0776 13.1188 1103 84.5449 838.767 484.888
2721 0 87.1505 12.7825 1114 86.4668 838.084 484.017
2722 0 91.0348 13.4015 1220 86.4254 838.973 482.216
2723 0 92.1535 12.9784 1196 89.0644 838.479 480.976
2724 0 95.102 13.27 1262 90.5761 838.589 477.849
2725 0 97.1115 13.1498 1277 93.6515 838.628 476.324
2726 0 101.124 13.0038 1315 94.343 839.487 474.719
2727 0 105.23 13.2567 1395 93.7763 838.951 473.363
2728 0 109.17 13.2729 1449 96.2636 839.05 472.651
2729 0 113.15 13.2125 1495 96.1779 838.165 469.744
2730 1 59.1529 10.7349 635 95.8504 839.614 496.024
2731 0 63.0941 12.1881 769 95.9701 839.49 491.169
2732 0 64.0689 11.6125 744 91.6452 839.55 491.181
2733 0 67.1489 12.3159 827 89.8222 839.352 489.709
2734 0 69.2238 12.2646 849 90.702 839.515 490.517
2735 0 73.1228 12.8414 939 89.9776 839.867 488.719
2736 0 74.1586 12.8778 955 91.7372 839.142 488.321
2737 0 79.0895 12.8083 1013 90.8045 839.051 487.696
2738 0 80.075 13.4124 1074 92.0726 838.762 486.667
2739 0 82.0566 12.991 1066 96.8199 839.434 483.823
2740 0 84.1353 13.6566 1149 99.4386 838.829 484.394
2741 0 87.1313 14.2429 1241 98.3328 839.304 483.922
2742 0 90.074 14.044 1265 99.6798 839.488 482.662
2743 0 92.0795 13.9662 1286 101.428 838.428 479.75
2744 0 95.1109 13.9626 1328 101.319 839.362 479.77
2745 0 97.1893 13.7875 1340 103.387 839.14 475.902
2746 0 100.119 13.5839 1360 103.639 839.597 475.173
2747 0 103.119 13.945 1438 102.98 838.809 475.064
2748 0 107.085 14.5211 1555 101.721 839.069 473.134
2749 0 109.123 14.2316 1553 102.584 839.757 473.003
2750 1 58.0514 11.9894 696 99.0417 839.769 499.027
2751 0 60.0168 12.2299 734 97.8202 839.631 497.931
2752 0 64.036 13.1801 844 94.9194 839.723 497.07
2753 0 64.0705 13.0325 835 97.3629 839.948 495.94
2754 0 66.0865 13.1948 872 97.3681 840.678 494.541
2755 0 69.0324 13.7182 947 98.208 840.144 492.649
2756 0 73.1114 12.8297 938 100.449 839.651 491.367
2757 0 75.0114 12.9047 968 101.128 839.578 489.314
2758 0 75.0114 12.9714 973 149.925 838.554 489.284
2759 0 81.0357 13.6606 1107 99.3523 839.925 488.198
2760 0 83.0566 13.0393 1083 99.4312 839.754 487.223
2761 0 85.1995 13.4743 1148 98.2012 839.331 484.112
2762 0 88.1215 13.9353 1228 97.9748 839.63 479.875
2763 0 90.1634 13.7195 1237 97.4382 839.197 480.432
2764 0 94.1708 13.3056 1253 97.5427 839.87 478.207
2765 0 95.2092 13.4966 1285 98.3012 839.339 475.757
2766 0 98.2277 14.0795 1383 96.7896 839.134 475.784
2767 0 101.392 13.6303 1382 98.521 838.717 473.524
2768 0 106.365 13.3691 1422 99.4761 839.218 473.2
2769 0 110.405 13.215 1459 100.552 839.523 472.145
2770 0 113.385 13.4585 1526 99.7929 839.36 470.506
2771 0 118.333 13.7155 1623 100.652 838.881 467.855
2772 1 58.2849 12.1472 708 98.1794 839.424 499.531
2773 0 59.2992 13.1536 780 105.681 839.31 498.133
2774 0 62.2884 13.4696 839 106.617 839.936 498.162
2775 0 64.3073 13.7776 886 106.35 839.06 496.551
2776 0 64.2798 13.6124 875 108.759 839.149 495.902
2777 0 67.2169 13.5829 913 109.076 839.223 495.17
2778 0 70.3368 14.4448 1016 111.336 839.329 495.819
2779 0 74.123 14.341 1063 106.943 839.586 491.551
2780 0 73.156 12.9996 951 112.271 838.57 492.32
2781 0 77.2181 14.1677 1094 109.588 838.509 490.94
2782 0 79.2328 14.0851 1116 111 838.657 489.737
2783 0 80.3379 13.6673 1098 113.262 839.733 488.658
2784 0 84.159 14.3776 1210 114.044 839.266 486.331
2785 0 87.1904 14.3135 1248 111.288 839.099 485.611
2786 0 88.2106 14.9415 1318 110.446 839.445 486.104
2787 0 91.1791 14.9925 1367 110.757 839.709 483.067
2788 0 94.1607 14.4222 1358 111.902 839.087 482.532
2789 0 95.125 14.8016 1408 112.451 839.447 481.116
2790 0 99.1733 14.8125 1469 111.714 838.867 479.05
2791 0 101.108 15.0334 1520 112.144 839.538 476.631
2792 0 102.081 14.7432 1505 113.629 839.046 475.141
2793 0 107.13 14.7017 1575 114.241 839.698 472.572
2794 0 111.181 14.6338 1627 114.788 839.128 471.402
2795 0 114.104 15.1266 1726 114.352 839.683 468.94
2796 0 118.201 14.9914 1772 115.436 839.717 466.946
2797 0 121.077 14.7096 1781 115.538 839.305 464.823
2798 0 126.096 14.2431 1796 112.824 839.641 463.406
2799 0 129.137 14.0626 1816 113.449 839.341 460.774
2800 1 67.0423 13.3349 894 110.216 839.557 493.879
2801 0 68.0303 13.935 948 109.149 838.908 493.494
2802 0 70.0398 14.2348 997 108.917 839.71 493.456
2803 0 71.0512 13.6803 972 107.454 839.112 493.226
2804 0 73.0598 14.1528 1034 105.972 838.323 490.403
2805 0 76.0927 14.7977 1126 102.922 838.908 490.182
2806 0 76.0444 14.4784 1101 105.924 838.92 489.806
2807 0 80.0426 13.9926 1120 106.979 839.025 488.805
2808 0 80.0504 14.0786 1127 107.72 838.589 486.651
2809 0 83.0784 14.1072 1172 107.602 839.288 486.574
2810 0 86.0706 13.9769 1203 108.234 838.442 485.071
2811 0 90.0834 13.8316 1246 106.891 838.701 484.047
2812 0 94.076 13.8824 1306 107.878 838.602 479.985
2813 0 97.0224 13.8937 1348 108.177 838.379 478.719
2814 0 99.0579 14.5269 1439 106.832 838.622 479.726
2815 0 102.061 14.0015 1429 110.3 839.243 476.335
2816 0 106.123 13.899 1475 110.982 839.383 474.085
2817 0 110.084 14.0348 1545 112.253 838.793 471.886
2818 1 45.0228 13.1489 592 116.507 838.41 502.645
2819 0 47.0124 13.6134 640 115.978 838.272 501.945
2820 0 48.0309 13.1998 634 117.465 838.431 500.662
2821 0 49.0201 13.8923 681 115.499 838.081 500.117
2822 0 52.0773 14.0752 733 113.502 838.346 498.252
2823 0 51.148 13.764 704 110.723 837.997 497.435
2824 0 52.0581 13.1776 686 111.864 838.567 497.214
2825 0 54.017 14.0697 760 110.926 838.683 496.762
2826 0 56.204 14.5185 816 109.447 838.336 495.456
2827 0 57.1036 14.64 836 110.9 838.316 493.663
2828 0 58.1512 14.0324 816 113.224 838.136 492.897
2829 0 60.0723 13.9166 836 113.462 838.114 490.366
2830 0 61.0918 14.601 892 110.316 838.604 490.034
2831 0 65.15 14.1826 924 108.986 837.831 489.003
2832 0 68.2346 14.1277 964 108.471 838.362 487.555
2833 0 70.1875 14.2333 999 107.061 838.819 486.431
2834 0 72.096 14.2449 1027 108.075 838.054 485.021
2835 0 75.1553 14.3436 1078 107.293 838.073 484.13
2836 0 75.1035 13.9541 1048 110.531 837.835 482.711
2837 0 80.2729 13.8154 1109 109.374 838.436 482.61
2838 0 82.0552 14.0515 1153 107.55 838.266 479.927
2839 0 88.1858 14.3674 1267 104.451 837.961 480.199
2840 0 92.1392 13.7944 1271 105.4 838.05 477.461
2841 1 45.1342 12.1859 550 112.905 837.649 499.413
2842 0 48.1158 12.2413 589 110.499 837.893 498.706
2843 0 49.1395 13.248 651 107.786 837.671 498.742
2844 0 48.0755 13.146 632 110.017 838.408 498.116
2845 0 51.0674 13.1003 669 109.244 838.039 497.774
2846 0 52.1749 13.1289 685 108.918 837.921 497.654
2847 0 55.1492 12.8198 707 108.315 838.008 497.113
2848 0 56.0902 12.5869 706 110.487 838.711 495.643
2849 0 59.0864 12.9471 765 109.478 838.284 493.797
2850 0 61.1721 13.4538 823 107.782 838.841 492.245
2851 0 62.1388 13.4055 833 109.038 838.12 491.487
2852 0 64.1401 13.0495 837 109.674 838.591 489.903
2853 0 68.1517 13.1912 899 107.083 838.914 489.657
2854 0 69.1065 13.197 912 108.262 838.354 488.117
2855 0 72.2221 13.3339 963 107.639 838.233 486.464
2856 0 74.1168 13.1009 971 108.281 838.909 484.246
2857 0 77.1055 13.8512 1068 104.16 838.672 484.487
2858 0 78.0382 12.9424 1010 107.834 839.128 483.909
2859 0 80.1157 13.5554 1086 105.366 839.667 480.627
2860 0 83.1836 13.0675 1087 105.408 839.579 481.775
2861 0 87.1809 13.363 1165 103.809 839.845 480.422
2862 0 86.0637 12.8161 1103 107.488 839.171 477.593
2863 0 90.1242 13.315 1200 104.733 839.861 476.982
2864 0 95.0858 13.451 1279 104.622 839.491 474.508
2865 0 96.2231 13.1673 1267 106.429 839.181 472.861
2866 0 100.135 13.372 1339 105.769 838.674 469.957
2867 0 104.09 13.594 1415 104.444 838.633 467.785
2868 0 106.062 12.8887 1367 108.121 838.404 465.282
2869 0 110.151 13.0548 1438 108.512 838.702 462.43
2870 0 114.093 13.5591 1547 106.661 838.605 461.771
2871 0 116.172 12.9377 1503 109.803 838.992 459.939
2872 0 123.173 13.7612 1695 106.562 838.798 459.014
2873 0 126.197 13.6058 1717 107.858 838.362 457.22
2874 0 128.086 13.0303 1669 111.14 838.703 454.682
2875 0 134.185 13.8391 1857 109.643 837.839 454.079
2876 0 138.131 14.1243 1951 111.144 837.92 452.393
2877 0 144.12 13.9814 2015 111.253 838.608 452.178
2878 0 145.106 13.8244 2006 114.395 838.708 449.348
2879 0 149.137 13.9938 2087 115.763 838.259 447.926
2880 0 153.128 14.0536 2152 115.924 838.737 447.714
2881 0 157.134 14.1153 2218 117.296 837.674 445.157
2882 0 161.097 14.8854 2398 116.883 838.249 443.428
2883 0 165.082 14.9744 2472 117.533 838.755 442.218
2884 0 168.113 14.9245 2509 118.603 838.751 440.132
2885 0 174.19 14.3866 2506 122.033 838.052 436.866
2886 0 179.29 14.2953 2563 124.6 839.112 433.459
2887 0 185.288 14.2265 2636 128.037 838.827 431.214
2888 0 193.339 14.8806 2877 127.39 838.563 427.07
2889 1 43.0467 7.61964 328 92.2866 838.412 506.698
2890 0 44.0773 8.41703 371 91.6415 838.86 505.89
2891 0 45.1677 9.05515 409 89.8533 838.504 504.729
2892 0 44.0467 8.94505 394 87.0634 838.581 503.429
2893 0 45.038 8.79257 396 89.0177 838.985 504.323
2894 0 44.0628 9.48646 418 93.0096 839.474 502.859
2895 0 44.0357 9.44687 416 98.976 839.231 504.233
2896 0 43.0359 9.10867 392 95.227 839.181 503.375
2897 0 44.0784 8.21265 362 98.163 839.05 503.384
2898 0 45.0437 8.21425 370 98.3649 839 503.27
2899 0 45.0125 7.93114 357 98.2017 839.389 504.255
2900 0 45.0169 7.50828 338 99.6331 839.37 501.55
2901 0 45.0573 7.7013 347 97 839.363 501.637
2902 0 49.0068 7.46835 366 95.1858 839.101 502.552
2903 0 49.0303 7.7503 380 92.9158 838.529 500.397
2904 1 10.0006 2.59984 26 83.3846 838.808 518.308
2905 0 15.0032 3.59923 54 79.2778 839.315 517.407
2906 0 14.0071 3.49822 49 77.9796 839.347 515.776
2907 0 16.0135 5.49535 88 75.375 839.25 516.477
2908 0 17.0038 5.29292 90 76.9667 839.489 516.822
2909 0 16.0035 5.93621 95 73.5474 837.01 517.474
2910 0 16.049 6.10629 98 74.8367 836.684 516.724
2911 0 18.0032 6.11001 110 76.2182 836.564 515.873
2912 0 17.0596 6.5066 111 79.1351 837.288 516.946
2913 0 15.0066 7.26347 109 78.6697 836.615 517.037
2914 0 19.0038 7.05122 134 71.2313 837.918 518.627
2915 1 0 0 0 -nan -nan -nan
2916 1 19.0273 7.20018 137 73.4234 838.095 518.847
2917 0 19.0078 7.26018 138 75.8188 836.913 519.652
2918 0 20.0016 8.19933 164 75.1585 837.25 518.787
2919 0 16.0085 7.80836 125 80.872 836.784 520.008
2920 0 19.0024 8.15686 155 79.0645 836.948 519.155
2921 0 20.0081 7.04714 141 81.6454 836.617 518.213
2922 0 18.0243 7.87827 142 82.5845 836.852 519.106
2923 0 19.0069 8.15494 155 82.1936 836.252 520.187
2924 0 19.016 7.15187 136 86.4632 837.478 519.118
2925 0 20.0187 7.54297 151 88.3775 837.139 519.517
2926 0 17.0075 8.64324 147 90.7211 837.667 519.844
2927 0 18.0645 8.1375 147 91.1837 837.592 519.735
2928 0 21.072 7.21336 152 89.125 837.684 519.158
2929 0 20.1321 7.74882 156 88.8013 837.917 518.904
2930 0 21.025 7.94294 167 89.497 838.234 519.473
2931 0 21.1191 8.19163 173 89.2543 837.74 519.046
2932 0 16.0171 7.80418 125 102.52 837.024 520.544
2933 0 15.0142 7.45962 112 103.33 836.652 521.304
2934 0 14.0016 8.35617 117 104.205 837.162 520.692
2935 0 15.0124 6.66117 100 103.96 836.92 522.58
2936 0 14.0046 6.92629 97 103.227 837.835 520.856
2937 0 12.0144 6.6587 80 104.738 838.025 521.7
2938 0 13.046 7.20527 94 105.16 837.649 521.106
2939 0 14.0237 8.41431 118 99.3136 837.508 520.805
2940 0 13.0095 6.30306 82 101.902 837.707 520.732
2941 0 13.003 7.07529 92 100.554 837.685 520.489
2942 0 15.0543 7.10759 107 98.7103 838.112 520.832
2943 0 14.0413 7.54914 106 97.9717 837.462 521.764
2944 0 12.0024 7.58184 91 100.187 837.857 521.341
2945 0 13.0133 7.30025 95 98.4737 837.99 520.8
2946 0 13.018 5.68442 74 96.7973 838.095 520.541
2947 0 12.0041 6.99763 84 96.25 838.06 519.5
2948 0 14.0102 7.13767 100 94.67 837.91 520.05
2949 0 14.0014 6.21366 87 94.6322 837.851 520.552
2950 0 15.0244 6.92209 104 92.0962 838.038 519.654
2951 0 14.0099 6.42401 90 92.5778 837.5 519.644
2952 0 16.0015 6.37439 102 91.5392 836.422 520.392
2953 0 15.0272 6.58803 99 87.7778 837.071 519.02
2954 0 0 0 0 -nan -nan -nan
2955 1 17.0283 6.51856 111 86.4955 837.351 519.523
2956 0 15.0446 5.78282 87 86.4713 837.517 518.632
2957 0 14.0388 4.70125 66 89.3939 837.864 520.152
2958 0 15.0586 4.98054 75 87.1067 837 519.907
2959 0 16.0179 6.61758 106 82.5849 837.17 519.585
2960 0 16.02 6.05494 97 85.5979 837.165 519.268
2961 0 16.0057 6.74761 108 82.1574 837.074 521.167
2962 0 15.017 7.39163 111 80.6937 836.73 520.333
2963 0 15.0373 6.18464 93 82.3333 837.978 518.989
2964 1 0 0 2.122e-313 -nan 2.01443e-307 1.69845e-313
2965 1 14.0144 4.42402 62 80.9516 837.581 518.71
2966 0 0 0 0 -nan -nan -nan
2967 1 16.0389 7.23242 116 76.5086 838.474 520.043
2968 0 15.0232 6.05729 91 78.6264 837.956 519.868
2969 1 0 0 0 -nan -nan -nan
2970 0 0 0 0 -nan -nan -nan
2971 1 16.0209 5.68009 91 77.4835 839.352 519.835
2972 0 13.0036 4.46029 58 78.1552 837.983 519.638
2973 0 13.0112 2.22886 29 78 838.448 519.552
2974 0 0 0 0 -nan -nan -nan
2975 0 0 0 0 -nan -nan -nan
2976 0 14.0679 5.68671 80 73.0125 838.562 517.675
2977 1 67.186 11.8626 797 118.378 838.661 476.236
2978 0 64.1323 12.3183 790 120.697 838.147 474.695
2979 0 67.1533 12.5534 843 118.954 838.821 472.764
2980 0 69.0847 12.6077 871 118.634 838.115 472.242
2981 0 77.1637 12.0912 933 116.779 838.626 472.464
2982 0 74.1382 12.76 946 117.863 838.586 469.555
2983 0 76.1538 13.0657 995 116.969 839.523 467.151
2984 0 87.1864 13.0296 1136 112.13 839.463 467.647
2985 1 36.0483 9.7924 353 121.779 840.079 486.649
2986 0 37.0233 9.9667 369 123.222 839.426 485.347
2987 0 38.0204 10.547 401 121.204 840.182 482.671
2988 0 41.0171 11.1173 456 117.785 840.07 480.919
2989 0 43.1459 11.2409 485 120.885 838.058 484.324
2990 0 44.1091 11.3128 499 120.399 838.79 484.168
2991 0 44.0804 11.3202 499 121.373 837.794 483.385
