time division length width area intensity CMx CMy
3109 0 111.164 13.1607 1463 101.144 837.753 450.987
3110 0 115.149 12.8702 1482 102.626 838.643 448.2
3111 1 60.0893 11.2666 677 97.7932 837.708 476.056
3112 0 61.0832 11.8036 721 98.8183 838.191 474.348
3113 0 63.0872 11.492 725 100.705 837.614 473.218
3114 0 63.1197 11.6762 737 103.555 839.187 468.391
3115 0 64.1591 12.204 783 92.5428 837.992 473.65
3116 0 67.1313 11.619 780 92.4833 838.2 472.037
3117 0 68.1215 12.1988 831 92.9555 837.744 470.576
3118 0 71.1397 11.4282 813 94.2768 837.403 469.279
3119 0 75.0971 12.3573 928 90.7209 837.76 468.788
3120 0 76.1521 12.5276 954 90.7725 837.424 466.211
3121 0 79.1941 12.2484 970 90.7186 838.013 465.45
3122 0 80.1806 11.9979 962 92.0312 838.202 463.561
3123 0 81.1533 11.7678 955 91.9571 838.431 463.174
3124 0 86.2194 12.0507 1039 90.8296 838.639 460.73
3125 0 88.2026 12.1992 1076 89.6859 838.471 461.389
3126 0 89.22 12.0825 1078 91.2393 838.518 459.303
3127 0 91.2098 11.3146 1032 93.7296 839.114 458.729
3128 0 96.2823 11.082 1067 92.4724 838.677 457.579
3129 0 98.2868 11.5784 1138 92.0852 838.472 453.888
3130 0 101.184 10.9405 1107 94.1599 838.615 453.023
3131 1 55.0785 10.2399 564 89.8936 839.028 475.335
3132 0 55.121 10.8307 597 90.1742 839.037 473.786
3133 0 59.1045 11.3866 673 85.9019 839.906 476.559
3134 0 60.0916 11.6489 700 84.7543 839.583 476.001
3135 0 62.1023 11.8192 734 84.0913 839.582 474.681
3136 0 63.1935 11.6468 736 84.7622 838.815 473.463
3137 0 64.1348 11.6006 744 83.9019 838.888 473.247
3138 0 67.0611 11.3031 758 83.938 838.565 469.237
3139 0 69.0799 11.3637 785 83.6777 839.494 468.176
3140 0 71.1054 11.5462 821 82.4592 839.471 468.352
3141 0 73.0837 11.521 842 83.0202 839.76 466.037
3142 0 77.1533 12.0021 926 82.3931 839.627 466.408
3143 0 78.2135 11.5198 901 93.8036 839.146 465.374
3144 0 82.2389 11.3572 934 94.1799 838.888 462.984
3145 0 83.1516 11.3528 944 93.2616 839.018 462.479
3146 0 85.1885 11.3161 964 92.1608 838.827 461.698
3147 0 88.2607 11.4207 1008 91.4048 838.886 459.727
3148 0 91.2252 11.4661 1046 91.5048 838.817 458.304
3149 1 48.1978 9.37802 452 87.5487 839.392 479.365
3150 0 50.0933 10.1011 506 86.836 839.593 477.419
3151 0 52.1261 10.9158 569 83.2777 839.466 475.71
3152 0 52.2392 10.6433 556 85.3201 840.137 476.518
3153 0 53.1961 11.0534 588 83.0153 840.126 476.845
3154 0 55.2384 10.8077 597 84.0436 840.362 474.854
3155 0 57.1936 10.8404 620 83.9145 839.29 474.863
3156 0 59.1511 10.4309 617 83.4246 839.846 473.326
3157 0 60.2116 10.6458 641 82.3775 839.395 472.176
3158 0 60.144 10.9238 657 82.3744 840.396 471.478
3159 0 60.1908 10.6162 639 83.723 840.336 471.674
3160 0 64.1765 11.1256 714 80.8081 840.001 470.62
3161 0 66.0946 10.2429 677 82.6307 839.681 470.155
3162 0 68.1537 10.8872 742 81.5903 840.156 468.516
3163 0 68.1151 10.2914 701 83.4879 840.529 467.141
3164 0 71.1725 11.4089 812 82.3682 839.665 467.034
3165 0 73.1196 11.1872 818 82.1601 840.116 465.329
3166 0 75.0986 11.2386 844 82.9076 839.827 463.94
3167 0 76.1955 11.2605 858 83.7226 840.39 463.336
3168 0 79.14 11.0564 875 84.6446 839.259 462.008
3169 0 80.1247 11.2699 903 85.6611 839.32 459.889
3170 0 84.112 11.342 954 87.1059 840.26 457.947
3171 0 87.1243 11.7304 1022 86.2241 839.29 458.501
3172 0 90.1661 11.5897 1045 80.2354 840.216 458.249
3173 0 92.1052 11.2914 1040 83.1952 839.059 455.266
3174 0 93.1604 10.9274 1018 85.2407 839.412 454.851
3175 0 96.0694 11.2835 1084 85.4197 838.737 448.781
3176 0 99.0919 10.8889 1079 87.0139 839.418 449.024
3177 0 101.181 10.8024 1093 87.4117 839.372 449.777
3178 1 55.0214 11.4137 628 81.9506 839.404 474
3179 0 55.1212 10.8125 596 82.3909 836.97 474.478
3180 0 57.0815 11.5274 658 80.535 837.688 474.453
3181 0 56.0844 10.9478 614 83.9853 836.971 473.021
3182 0 59.0944 11.287 667 83.3238 837.379 470.145
3183 0 60.0914 10.6338 639 85.6964 837.371 474.105
3184 0 60.0681 9.83883 591 87.3486 837.712 471.765
3185 0 63.0788 10.2412 646 86.8483 837.224 472.907
3186 0 66.0856 10.5621 698 86.8424 837.741 472.102
3187 0 69.0762 10.5101 726 86.9325 837.875 470.24
3188 0 71.112 10.8842 774 86.7209 837.916 467.349
3189 0 71.0872 10.7474 764 87.7932 837.86 465.933
3190 0 76.1184 10.9303 832 86.9375 837.788 464.722
3191 0 80.0894 12.0241 963 83.6096 837.34 464.101
3192 0 84.1515 11.919 1003 83.983 838.325 462.576
3193 0 87.0643 12.2094 1063 84.0903 838.026 462.377
3194 1 49.0543 10.7228 526 86.6635 837.281 480.409
3195 0 46.0737 10.7002 493 89.1968 836.828 480.061
3196 0 50.1098 10.8761 545 86.4477 837.679 478.822
3197 0 51.1734 11.6076 594 84.6414 838.237 477.976
3198 0 52.0937 12.132 632 83.4589 837.562 477.1
3199 0 52.0452 11.8935 619 85.4103 836.88 476.215
3200 0 56.0814 11.9113 668 84.2814 837.895 475.377
3201 0 54.0688 10.8195 585 89.3282 837.569 476.121
3202 0 55.0575 11.0975 611 88.6465 837.386 475.822
3203 0 57.0621 11.1808 638 88.7147 838.094 475.937
3204 0 59.0293 11.3672 671 88.0641 837.678 474.736
3205 0 61.0488 11.155 681 88.5066 837.154 473.267
3206 0 64.0487 11.2258 719 87.1794 837.36 472.601
3207 0 62.1108 11.2863 701 89.1213 837.399 471.331
3208 0 64.1305 11.1803 717 89.5481 837.399 470.582
3209 0 67.0852 11.7313 787 85.5375 838.511 471.065
3210 0 70.1163 11.8375 830 85.4205 837.64 469.271
3211 0 71.0743 11.3262 805 87.036 836.593 468.682
3212 0 72.0494 11.8807 856 86.1776 837.521 465.728
3213 0 72.0638 10.7405 774 89.3682 838.417 466.273
3214 0 75.1108 11.3299 851 88.3843 837.942 465.348
3215 0 78.0572 11.5428 901 87.131 837.39 463.048
3216 0 79.0584 11.4852 908 88.4681 837.8 463.485
3217 0 81.12 10.8358 879 90.6075 838.146 460.338
3218 0 82.0873 11.5243 946 89.1512 838.375 460.576
3219 0 85.0846 11.5885 986 88.1815 837.375 459.727
3220 0 89.1144 11.7489 1047 87.5005 838.554 457.318
3221 0 92.14 11.7647 1084 87.7684 838.31 456.481
3222 0 96.1327 11.3281 1089 89.0101 838.84 455.582
3223 0 98.1278 11.2914 1108 89.9747 838.601 453.229
3224 1 51.0751 10.7489 549 88.3989 838.151 476.709
3225 0 55.1181 11.0127 607 86.6853 837.816 475.567
3226 0 54.0944 11.4614 620 89.4806 838.281 474.594
3227 0 55.0376 11.0652 609 93.0312 837.954 470.903
3228 0 59.0279 12.2315 722 89.7313 838.349 469.781
3229 0 59.0827 11.6278 687 89.2009 837.533 472.365
3230 0 58.1361 10.5958 616 85.6688 838.765 474.127
3231 0 60.1237 10.5948 637 86.6436 838.265 473.03
3232 0 63.0651 11.0521 697 85.2037 838.472 471.311
3233 0 64.1386 10.5085 674 86.5697 839 471.795
3234 0 68.0784 11.2517 766 85.2663 838.121 470.185
3235 0 68.1081 10.7183 730 87.4521 838.281 469.547
3236 0 71.0682 11.3131 804 85.7376 837.277 468.637
3237 0 74.0993 11.3631 842 86.6829 838.033 467.646
3238 0 77.0594 11.5236 888 86.5462 838.152 465.901
3239 0 78.1246 10.7009 836 88.5347 838.215 464.295
3240 0 80.1046 10.5612 846 88.8357 837.727 462.313
3241 0 84.0985 11.0822 932 87.7479 837.88 461.431
3242 0 86.123 11.1468 960 88.5125 837.676 459.546
3243 0 86.1246 11.1234 958 138.955 837.66 459.51
3244 1 49.0763 10.9829 539 87.9963 838.217 477.349
3245 0 49.1085 11.3626 558 87.1075 838.633 476.742
3246 0 50.1974 12.0126 603 86.7794 837.977 475.582
3247 0 52.1078 11.8792 619 84.748 837.645 475.735
3248 0 53.108 11.7873 626 85.3163 837.791 476.781
3249 0 56.1453 12.2717 689 83.8316 838.119 475.681
3250 0 56.146 12.0935 679 85.2666 838.24 473.918
3251 0 57.1174 12.0279 687 85.6841 838.614 472.932
3252 0 59.1027 12.842 759 85.0079 838.057 471.843
3253 0 59.0815 11.4757 678 88.649 837.136 472.655
3254 0 59.0894 11.3387 670 89.4985 838.479 471.303
3255 0 62.131 11.4275 710 88.9225 838.19 470.008
3256 0 64.1381 11.2414 721 88.7212 837.402 470.602
3257 0 66.0735 11.1845 739 87.9269 837.222 470.874
3258 0 67.1166 11.264 756 89.6085 837.708 468.439
3259 0 69.1158 10.779 745 90.102 837.544 468.356
3260 0 69.1932 10.449 723 90.935 837.913 466.213
3261 0 74.1375 10.6694 791 91.8217 838.539 464.632
3262 0 77.1379 11.8878 917 90.1832 837.571 462.814
3263 0 80.1297 12.4922 1001 88.1508 838.27 461.71
3264 0 82.1027 11.7658 966 91.0963 838.976 462.788
3265 0 85.0983 12.1036 1030 90.8029 839.421 460.229
3266 0 87.1316 11.5917 1010 92.0852 838.906 458.922
3267 0 91.1412 11.8278 1078 92.0594 838.548 455.519
3268 1 49.0782 10.8806 534 88.2772 837.933 476.391
3269 0 50.0596 10.7272 537 89.2067 838.121 475.102
3270 0 51.0575 11.5556 590 87.0051 837.627 475.158
3271 0 54.0404 12.2501 662 84.6767 837.551 474.314
3272 0 57.1523 12.6504 723 83.5629 838.537 474.32
3273 0 58.137 12.7457 741 84.0931 839.05 472.497
3274 0 56.0593 12.3976 695 86.3165 838.125 471.499
3275 0 59.0907 12.2693 725 86.5462 839.241 470.606
3276 0 60.1209 12.8741 774 86.7003 838.461 470.04
3277 0 63.0834 12.7767 806 86.5918 838.236 468.64
3278 0 64.1011 12.6519 811 87.3526 838.758 467.388
3279 0 65.1055 12.8407 836 87.1244 838.524 467.246
3280 0 69.0835 13.9686 965 84.5078 838.256 466.43
3281 0 69.0632 12.9591 895 87.4838 838.874 465.515
3282 0 71.1136 13.5417 963 86.6947 839.236 464.252
3283 0 74.0629 13.7721 1020 85.9892 838.926 462.484
3284 0 76.0788 13.5386 1030 86.5049 839.134 461.693
3285 0 77.0941 13.4511 1037 88.1032 839.143 460.152
3286 0 79.0851 12.7963 1012 90.1986 838.996 459.546
3287 0 81.0896 13.6639 1108 89.2229 839.37 457.94
3288 0 84.1328 13.6451 1148 90.8754 839.683 456.92
3289 0 87.1026 13.7194 1195 91.0845 838.917 455.558
3290 0 91.1261 13.6404 1243 91.354 838.93 454.878
3291 0 91.0802 13.296 1211 93.1032 839.287 452.618
3292 0 96.1058 13.7036 1317 92.3341 838.396 451.817
3293 0 99.1261 14.3756 1425 91.3677 838.893 449.664
3294 0 99.0448 13.6605 1353 95.5063 838.104 448.911
3295 0 102.103 13.692 1398 97.2718 838.986 445.924
3296 0 106.05 13.5596 1438 97.0445 837.777 446.278
3297 0 109.087 13.5489 1478 96.8708 837.982 445.988
3298 0 110.1 13.5967 1497 97.6032 838.82 444.007
3299 0 112.083 13.267 1487 99.6301 838.192 441.03
3300 0 117.061 13.4802 1578 98.4601 838.472 441.714
3301 0 121.109 14.202 1720 95.8605 838.077 439.549
3302 0 123.179 13.8092 1701 99.1423 838.52 436.038
3303 0 129.242 14.0976 1822 97.9786 838.502 434.739
3304 0 130.161 14.3438 1867 99.3953 838.613 433.274
3305 0 134.139 14.2016 1905 100.872 838.642 430.833
3306 0 140.184 14.3739 2015 100.561 838.857 429.448
3307 0 145.178 15.2434 2213 98.7298 838.659 425.467
3308 0 150.125 14.7411 2213 98.812 838.662 425.164
3309 0 153.147 14.3261 2194 101.01 838.206 422.258
3310 0 157.264 14.5679 2291 100.567 839.211 417.197
3311 0 163.174 14.5612 2376 99.165 838.891 417.659
3312 0 166.148 13.8671 2304 100.641 839.354 414.733
3313 0 174.18 14.6113 2545 95.725 838.598 411.171
3314 0 178.209 13.8713 2472 96.4102 838.415 409.732
3315 0 184.237 14.0471 2588 96.085 838.368 406.959
3316 0 190.253 13.9551 2655 96.7122 838.266 403.912
3317 0 195.353 14.2869 2791 95.8033 838.35 402.464
3318 0 200.297 14.5334 2911 95.7125 838.419 399.376
3319 0 208.257 14.4005 2999 95.4668 838.066 395.578
3320 0 216.315 15.1122 3269 92.9018 838.891 391.384
3321 0 222.301 14.7683 3283 95.7045 838.694 389.232
3322 1 169.289 12.393 2098 95.9276 838.217 413.49
3323 0 176.225 13.1083 2310 94.4091 838.662 410.883
3324 0 180.205 13.2016 2379 93.718 838.221 406.742
3325 0 186.244 12.9454 2411 95.5496 837.596 403.309
3326 0 190.163 13.1046 2492 96.2336 838.179 400.119
3327 0 199.213 13.1517 2620 96.066 838.24 397.319
3328 0 205.299 13.4243 2756 95.5218 837.965 392.831
3329 0 213.25 13.2989 2836 95.5138 838.735 393.509
3330 0 220.25 13.4029 2952 95.604 838.231 389.95
3331 0 226.194 13.0994 2963 96.813 838.604 384.557
3332 0 234.281 13.5222 3168 95.4801 838.26 380.391
3333 0 240.259 13.2565 3185 98.729 838.352 377.746
3334 0 248.258 13.6229 3382 97.2697 838.297 373.929
3335 1 79.0922 8.61021 681 86.3392 837.693 465.066
3336 0 79.1528 8.84366 700 87.4929 838.127 463.549
3337 0 78.1077 9.34607 730 87.589 838.393 461.675
3338 0 79.1126 10.3902 822 87.1277 838.232 460.318
3339 0 79.1222 10.6165 840 87.1524 837.91 460.442
3340 0 81.0565 11.2761 914 85.8315 837.429 455.532
3341 0 83.0436 11.3555 943 85.7222 838.347 452.486
3342 0 84.0375 10.7333 902 78.9834 838.206 447.445
3343 0 87.0747 10.313 898 79.3675 839.027 447.227
3344 0 91.2014 10.2191 932 81.2167 838.891 446.481
3345 0 96.1036 10.5095 1010 82.3099 838.521 452.281
3346 0 98.107 10.7026 1050 82.3181 837.905 449.47
3347 0 97.1295 10.3264 1003 82.318 838.443 449.015
3348 1 53.0829 9.796 520 80.6308 837.75 469.983
3349 0 55.1437 9.41177 519 80.6686 837.672 470.94
3350 0 58.0948 10.9993 639 79.1502 838.224 470.723
3351 0 60.1633 11.1197 669 79.9895 838.028 468.25
3352 0 61.1281 10.9769 671 88.4739 838.28 467.07
3353 0 63.1101 10.8699 686 89.9257 837.742 465.706
3354 0 67.1359 12.0353 808 87.0285 838.7 463.429
3355 0 67.1509 12.0326 808 89.3973 838.602 462.671
3356 0 69.1057 11.9961 829 90.4946 838.825 461.896
3357 0 71.081 12.1692 865 90.0936 838.232 461.635
3358 0 73.1324 12.3748 905 91.3381 838.569 460.905
3359 0 76.1192 12.06 918 92.1449 838.551 459.846
3360 0 75.0972 11.3719 854 91.8548 838.486 460.479
3361 0 81.0626 12.2745 995 87.6643 837.323 460.235
3362 0 82.0749 12.4642 1023 89.6207 838.048 458.43
3363 0 84.2032 12.4698 1050 88.1457 838.494 459.929
3364 0 86.2142 12.3529 1065 90.1455 838.477 457.403
3365 0 89.2678 12.9274 1154 95.188 838.116 453.692
3366 0 95.2271 12.9165 1230 94.5301 837.844 453.68
3367 1 50.2513 10.4077 523 91.4723 838.457 474.742
3368 0 51.0589 10.5369 538 84.5613 837.442 475.833
3369 0 53.0825 11.4539 608 85.6957 838.053 473.173
3370 0 56.0516 11.5608 648 86.9768 837.13 472.674
3371 0 58.0304 12.0799 701 85.4009 837.512 471.866
3372 0 57.1339 12.1119 692 87.4234 837 472.751
3373 0 58.0668 11.7623 683 87.1142 836.893 471.602
3374 0 61.0797 12.5574 767 84.8892 837.593 471.256
3375 0 63.1307 12.3712 781 87.3649 837.684 470.638
3376 0 63.0888 12.6013 795 87.2818 837.538 470.703
3377 0 64.0763 12.2822 787 88.906 836.991 469.54
3378 0 67.1166 12.9923 872 86.8257 837.377 467.244
3379 0 70.0592 12.8463 900 86.2378 837.12 466.602
3380 0 70.0944 12.7685 895 87.7989 837.327 465.358
3381 0 72.0552 13.2815 957 86.8527 837.167 461.155
3382 0 74.0832 13.3904 992 87.3085 837.296 461.824
3383 0 77.057 12.9125 995 88.4492 837.204 459.622
3384 0 78.0893 13.0748 1021 88.9863 838.129 456.236
3385 0 80.0571 12.8783 1031 89.8632 839.077 456.447
3386 0 84.0884 12.8198 1078 88.8024 838.181 453.698
3387 0 87.0872 13.1707 1147 89.68 837.46 451.788
3388 0 86.0764 12.1869 1049 92.9828 837.277 452.557
3389 0 89.101 11.9864 1068 93.5243 837.163 450.574
3390 0 92.0545 11.8517 1091 93.1155 837.01 450.028
3391 0 95.0898 11.9887 1140 92.086 837.554 447.262
3392 1 52.0687 9.48747 494 91.9757 836.545 468.674
3393 0 50.0072 9.83859 492 87.9695 837.171 465.248
3394 0 52.0256 9.68753 504 87.4643 836.974 465.143
3395 0 55.1289 10.9199 602 83.7841 837.138 472.093
3396 0 57.0551 10.8141 617 83.2723 836.256 473.071
3397 0 57.0576 10.7085 611 84.2962 836.354 472.48
3398 0 61.0921 11.6054 709 82.1707 836.683 470.606
3399 0 63.0691 10.7025 675 84.2385 837.416 470.444
3400 0 63.0998 10.5706 667 84.5607 836.547 470.145
3401 0 66.0764 11.2597 744 84.0578 836.776 467.059
3402 0 69.0848 11.2036 774 82.9806 837.128 466.727
3403 0 71.0974 11.3788 809 83.5661 837.424 464.613
3404 0 72.1141 11.0797 799 84.01 836.705 463.39
3405 0 75.0708 11.669 876 82.9498 837.584 463.463
3406 0 79.0328 11.3877 900 82.5689 837.126 460.838
3407 0 80.0308 11.3581 909 83.6007 837.296 460.268
3408 0 82.0892 11.524 946 83.4186 836.933 459.328
3409 0 85.0661 11.638 990 83.0768 837.616 457.558
3410 0 88.1242 11.5859 1021 83.5926 837.316 455.645
3411 0 90.085 10.8342 976 86.1742 837.596 453.789
3412 1 51.0234 10.505 536 86.181 837.118 474.524
3413 0 53.0319 11.4082 605 83.5025 836.82 474.263
3414 0 53.0601 10.1771 540 87.1741 837.556 473.463
3415 0 55.1023 11.4877 633 87.6919 836.96 473.547
3416 0 55.0628 11.7502 647 87.2396 836.992 473.431
3417 0 57.155 11.5476 660 89.2712 838.897 473.655
3418 0 59.1842 11.5571 684 89.4196 837.76 474.471
3419 0 59.1417 11.6838 691 89.6715 837.278 474.957
3420 0 61.25 12.1633 745 88.5611 837.85 473.522
3421 0 64.23 11.9726 769 89.1391 836.806 472.919
3422 0 66.1444 12.6995 840 87.5238 837.605 471.649
3423 0 66.1636 12.3935 820 90.8366 837.467 470.655
3424 0 69.2058 12.8891 892 90.0684 837.564 468.821
3425 0 72.1212 13.2693 957 89.8913 836.492 468.233
3426 0 72.2266 13.4576 972 90.6934 836.659 467.435
3427 0 75.1396 13.628 1024 90.9658 837.407 466.805
3428 0 78.1885 13.6849 1070 90.4757 836.341 464.604
3429 0 80.2017 13.8775 1113 89.947 836.861 464.606
3430 0 82.2498 13.5198 1112 90.3966 836.354 463.118
3431 0 85.1655 13.6205 1160 89.9759 836.434 461.423
3432 0 86.1906 13.7486 1185 91.0608 836.916 459.357
3433 0 90.2035 13.8686 1251 91.2286 836.862 458.954
3434 0 91.155 13.7897 1257 91.0143 836.543 458.974
3435 0 96.255 13.6201 1311 90.3562 836.67 457.244
3436 0 98.1128 12.7302 1249 89.8607 836.564 456.235
3437 0 100.2 11.9461 1197 85.8989 836.248 454.802
3438 1 53.1657 9.78074 520 81.9173 835.946 478.377
3439 0 56.1589 10.3278 580 80.7034 836.597 476.448
3440 0 55.0923 10.8727 599 81.1252 837.11 475.613
3441 0 58.1046 12.1333 705 78.0397 837.02 472.997
3442 0 60.1304 11.6247 699 78.8827 836.783 472.808
3443 0 61.1535 11.7082 716 80.4134 837.275 471.282
3444 0 63.1063 12.2809 775 80.0077 836.903 470.92
3445 0 66.1397 11.8386 783 81.1213 837.338 468.278
3446 0 67.1029 11.46 769 85.5384 837.166 466.602
3447 0 68.1152 11.4071 777 85.8842 837.429 466.306
3448 0 70.1325 11.3499 796 87.1256 837.04 464.848
3449 0 74.0895 12.08 895 86.3978 838.439 462.495
3450 0 76.1256 11.0475 841 88.6362 836.91 462.465
3451 0 79.0519 11.6 917 89.1625 837.267 461.161
3452 0 80.0944 11.5988 929 90.422 836.811 459.736
3453 0 85.2044 11.8421 1009 89.7939 837.174 459.392
3454 0 86.1783 11.3022 974 93.0257 837.69 458.343
3455 0 89.1714 11.3153 1009 94.1972 837.724 456.489
3456 0 93.2311 12.2813 1145 93.9956 837.633 454.042
3457 1 48.1699 11.5632 557 94.5099 838.418 475.429
3458 0 45.1139 10.5511 476 98.6113 838.866 472.847
3459 0 48.1443 10.9878 529 96.7543 838.289 475.539
3460 0 48.0841 11.4591 551 92.4882 836.65 474.67
3461 0 48.0818 10.8565 522 94.818 837.51 474.444
3462 0 51.1057 11.3686 581 91.8589 837.781 474.633
3463 0 51.0822 10.4537 534 96.2135 838.468 473.423
3464 0 52.1538 10.6033 553 96.3165 837.145 472.371
3465 0 53.1025 10.8846 578 96.2197 837.054 473.573
3466 0 54.0647 11.0978 600 96.8667 838.11 472.252
3467 0 57.1524 11.1631 638 96.1317 838.199 472.486
3468 0 60.1966 10.8976 656 96.3506 838.059 471.718
3469 0 61.1806 11.0002 673 97.0238 838.526 468.715
3470 0 64.2042 11.993 770 94.9688 837.518 468.166
3471 0 68.1174 12.0821 823 93.514 838.541 467.196
3472 0 69.1713 11.5944 802 96.884 837.804 465.862
3473 0 71.1907 12.3471 879 96.0262 838.595 465.578
3474 0 73.207 12.0753 884 98.2873 838.501 462.429
3475 0 75.2075 11.7276 882 100.265 837.488 461.58
3476 0 78.182 12.3302 964 99.4595 837.499 459.935
3477 0 79.1456 12.5465 993 101.426 837.959 457.12
3478 0 82.1547 12.3791 1017 101.468 837.909 455.013
3479 0 85.2229 12.4849 1064 101.164 838.693 453.941
3480 1 44.0962 10.7492 474 100.276 838.914 472.905
3481 0 45.1039 10.5756 477 101.237 839.042 471.918
3482 0 48.157 11.6909 563 99.2789 838.81 470.675
3483 0 49.1106 11.8712 583 94.7324 839.439 473.319
3484 0 50.0906 11.4592 574 98.2561 838.493 475.618
3485 0 48.1084 10.601 510 103.647 838.902 473.678
3486 0 52.1103 10.8424 565 102.29 838.591 472.193
3487 0 53.146 11.252 598 102.018 838.642 471.977
3488 0 53.1312 11.0481 587 103.56 838.772 472.371
3489 0 57.1586 11.5118 658 101.717 837.69 471.342
3490 0 58.1007 12.3234 716 99.3324 838.68 469.536
3491 0 59.149 11.7838 697 101.079 838.831 469.234
3492 0 62.1127 11.9943 745 100.875 838.396 467.518
3493 0 62.1272 11.6374 723 101.842 838.188 468.036
3494 0 63.0711 11.9706 755 101.232 837.836 467.581
3495 0 66.085 12.4537 823 100.94 838.468 465.654
3496 0 70.1356 12.3475 866 99.4654 838.005 465.15
3497 0 68.1211 12.7567 869 100.871 837.954 464.174
3498 0 72.161 12.4998 902 100.5 837.621 461.429
3499 0 74.0928 12.8487 952 101.702 837.738 460.254
3500 0 76.142 12.7131 968 102.219 838.016 459.197
3501 0 81.1039 13.7971 1119 101.53 838.002 458.205
3502 0 81.1253 13.3867 1086 103.359 837.919 458.41
3503 0 81.0942 13.3795 1085 104.138 838.466 457.033
3504 0 84.0698 13.7386 1155 102.628 838.599 455.595
3505 0 88.1162 14.0156 1235 101.392 839.117 455.14
3506 0 87.0612 13.6685 1190 104.587 838.507 455.777
3507 0 92.1049 14.1252 1301 101.084 839.205 455.127
3508 0 93.0434 13.4561 1252 105.357 838.688 452.903
3509 0 95.085 13.4511 1279 105.432 838.46 450.567
3510 0 100.039 13.9946 1400 103.114 838.736 448.431
3511 0 103.068 13.4863 1390 104.656 838.63 446.283
3512 0 106.059 13.6151 1444 104.337 838.339 444.677
3513 0 108.051 13.6324 1473 105.119 839.514 442.098
3514 0 110.022 11.9794 1318 110.177 839.064 439.747
3515 0 112.039 12.2725 1375 110.093 839.152 438.57
3516 0 115.087 12.547 1444 110.879 838.974 435.959
3517 0 120.068 12.7178 1527 109.788 838.111 435.921
3518 0 123.069 12.5458 1544 112.506 838.42 428.937
3519 0 127.066 12.5761 1598 112.312 838.193 429.203
3520 0 131.079 12.5955 1651 112.661 838.004 425.855
3521 0 135.075 13.1335 1774 110.675 838.38 424.748
3522 0 141.069 13.6529 1926 109.461 838.465 421.954
3523 0 145.11 13.4932 1958 110.805 838.024 419.422
3524 0 149.08 13.7242 2046 110.824 838.329 415.883
3525 0 156.141 14.2435 2224 108.897 837.788 412.466
3526 0 161.12 14.1695 2283 108.486 837.558 409.974
3527 0 166.185 13.8701 2305 111.567 837.851 405.434
3528 0 170.177 13.9913 2381 110.427 837.779 401.725
3529 0 176.108 13.9687 2460 111.179 837.743 397.491
3530 0 181.154 14.0544 2546 111.216 837.718 393.48
3531 0 187.142 14.5504 2723 110.357 837.972 391.126
3532 0 196.142 15.0707 2956 108.5 838.008 390.968
3533 0 198.177 14.2802 2830 112.95 838.5 387.272
3534 1 210.244 14.1169 2968 108.335 838.469 384.056
3535 0 216.193 13.8071 2985 109.446 838.018 378.258
3536 0 224.165 13.6774 3066 108.411 838.344 371.496
3537 1 47.0309 8.86651 417 76.5851 840.002 468.695
3538 0 47.0531 9.52115 448 78.4353 838.79 469.489
3539 0 51.0609 11.0261 563 80.4316 838.007 473.81
3540 0 51.0965 11.1358 569 81.1265 837.898 473.982
3541 0 55.0329 12.3744 681 76.5521 837.558 471.787
3542 0 54.0818 10.8539 587 77.4208 838.727 470.02
3543 0 58.1358 11.3355 659 79.7557 838.748 472.668
3544 0 60.0644 11.6209 698 78.5974 838.486 469.107
3545 0 61.0773 11.4281 698 79.7278 838.817 470.585
3546 0 63.0953 11.1736 705 79.2298 839.628 469.255
3547 0 65.0553 11.6516 758 78.8351 839.793 467.202
3548 0 67.1164 11.7259 787 78.6582 839.506 465.698
3549 0 69.0628 11.9746 827 78.7751 839.58 464.838
3550 0 68.1174 11.4361 779 81.7407 840.045 463.73
3551 0 75.0484 10.9796 824 80.9563 839.587 461.398
3552 0 74.076 10.8132 801 81.6717 839.453 460.788
3553 0 77.0828 11.4163 880 80.2375 839.145 458.511
3554 0 81.06 11.584 939 79.4207 839.315 456.872
3555 0 80.0666 10.7036 857 81.4294 839.889 455.555
3556 0 84.1262 11.2569 947 88.5607 840.091 453.011
3557 0 89.0819 11.0348 983 87.3937 839.221 451.184
3558 1 49.0205 9.73062 477 86.7673 839.901 471.264
3559 0 52.0355 10.8964 567 81.2046 839.058 470.57
3560 0 54.145 10.7304 581 79.9484 840.301 469.511
3561 0 53.1317 10.4457 555 76.4396 840.438 465.231
3562 0 52.1369 9.85865 514 79.037 840.255 458.399
3563 0 58.0824 10.5884 615 74.8537 839.662 460.81
3564 0 58.0294 10.3568 601 75.7454 840.106 460.306
3565 0 59.1101 9.33851 552 80.2464 840.322 465.864
3566 0 61.0723 10.2174 624 78.8718 841.226 464.699
3567 0 64.0275 10.0426 643 80.7869 839.717 461.953
3568 0 64.1171 9.77898 627 81.1515 840.086 461.678
3569 0 68.0366 10.465 712 79.6194 840.854 459.309
3570 0 67.0328 9.68182 649 81.5716 841.18 457.374
3571 0 71.0477 10.3311 734 79.6785 840.41 456.541
3572 0 72.0578 9.78382 705 80.3121 841.376 454.452
3573 0 75.042 10.7406 806 77.5112 841.675 451.722
3574 0 79.0856 11.2031 886 76.2517 842.073 454.02
3575 0 80.0494 11.2556 901 76.9179 841.81 452.599
3576 0 85.0889 11.8582 1009 75.4172 841.905 451.404
3577 0 89.1678 12.0896 1078 75.6994 842.018 449.588
3578 0 90.1095 11.9299 1075 77.9907 842.353 448.322
3579 0 93.1138 11.9316 1111 77.9694 841.93 446.695
3580 0 96.0628 12.0858 1161 77.9664 841.876 447.132
3581 0 97.0984 12.0084 1166 78.6089 842.695 445.761
3582 0 101.173 12.2266 1237 78.4276 841.606 445.188
3583 0 105.152 12.5912 1324 77.6375 842.139 442.031
3584 0 107.192 12.389 1328 77.8321 842.163 441.179
3585 0 110.13 13.257 1460 77.4062 841.975 439.755
3586 0 112.1 12.1856 1366 79.5168 842.589 437.07
3587 0 117.087 12.5377 1468 78.9189 841.622 435.135
3588 0 119.165 12.7303 1517 78.6289 842.269 436.769
3589 0 122.068 12.19 1488 80.4516 841.739 433.794
3590 0 125.134 12.3708 1548 80.6621 842.215 432.487
3591 0 129.159 12.8834 1664 79.4123 842.355 429.476
3592 0 132.143 11.6994 1546 82.0349 842.034 429.56
3593 0 138.208 12.4956 1727 80.2501 842.752 428.679
3594 0 144.182 12.5051 1803 81.1503 842.054 424.022
3595 0 148.125 12.5908 1865 81.615 842.488 422.529
3596 0 152.214 12.535 1908 82.4775 842.553 421.411
3597 0 156.148 12.4177 1939 82.8896 842.583 420.108
3598 0 162.185 12.8557 2085 82.5362 842.187 415.573
3599 0 166.25 11.7534 1954 85.0072 842.702 413.207
3600 0 172.279 12.3114 2121 84.8119 842.156 408.395
3601 0 176.228 11.8597 2090 86.6057 842.535 405.524
3602 0 184.254 12.8084 2360 85.7131 842.422 403.335
3603 0 188.367 12.3429 2325 86.5273 842.372 400.01
3604 0 195.332 12.855 2511 85.6033 843.018 398.915
3605 0 201.326 12.4872 2514 86.5581 842.275 393.967
3606 0 209.419 13.399 2806 84.9444 842.691 393.504
3607 0 215.344 13.2207 2847 86.8033 842.33 391.547
3608 0 219.293 13.1514 2884 88.2892 842.057 386.124
3609 0 225.292 13.4403 3028 88.5931 841.77 382.632
3610 0 233.263 12.8181 2990 91.0599 842.049 379.639
3611 0 242.339 13.4687 3264 90.118 841.261 377.34
3612 0 244.24 11.8695 2899 92.6068 841.856 368.464
3613 0 253.252 12.8094 3244 91.0737 841.083 362.466
3614 1 269.21 18.2014 4900 78.4959 841.233 345.711
3615 0 276.191 16.8833 4663 83.1666 840.364 343.196
3616 0 281.231 15.0659 4237 89.645 841.057 346.776
3617 0 289.317 13.8395 4004 92.1818 840.728 342.801
3618 0 299.273 13.2889 3977 93.0973 839.626 347.632
3619 0 310.346 16.2496 5043 85.7371 840.001 333.624
3620 0 319.343 15.7699 5036 88.0786 839.231 326.168
3621 0 331.491 15.7983 5237 90.4012 839.19 318.812
3622 0 340.415 15.39 5239 92.5995 838.931 315.47
3623 0 354.634 16.4959 5850 89.2079 839.171 308.858
3624 0 365.579 16.0704 5875 92.0172 838.674 304.052
3625 0 376.73 16.0991 6065 91.2544 838.32 296.038
3626 0 386.58 16.5865 6412 91.7052 838.768 279.305
3627 0 397.678 16.6064 6604 91.1181 838.073 284.72
3628 0 388.506 17.5725 6827 90.7177 839.126 278.604
3630 0 375.451 16.7159 6276 93.905 839.741 273.793
3631 0 378.598 15.4782 5860 95.5822 839.823 283.9
3632 0 387.292 14.7847 5726 99.5044 839.473 281.804
3633 0 393.971 15.5925 6143 96.5532 838.151 275.045
3634 0 396.87 16.3933 6506 95.3703 838.245 275.273
3635 0 395.937 15.9142 6301 95.9322 838.027 275.111
3636 0 396.903 16.2508 6450 96.6682 838.885 274.611
3637 0 396.209 15.1435 6000 100.326 838.42 270.926
