time division length width area intensity CMx CMy
0 0 67.0285 13.636 914 147.953 475.789 487.326
1 0 69.0463 13.6575 943 138.034 476.082 485.493
2 0 70.1939 13.7619 966 135.016 476.547 485.479
3 0 72.0204 13.3157 959 134.857 476 484.993
4 0 74.0335 13.2643 982 133.616 476.112 481.886
5 0 77.0761 14.064 1084 127.787 475.962 481.603
6 0 80.0381 13.9184 1114 126.715 476.297 479.382
7 0 81.0245 14.0575 1139 125.86 476.301 479.458
8 0 82.071 14.061 1154 124.637 476.302 477.864
9 0 86.0997 14.2393 1226 121.354 476.235 476.184
10 0 87.1092 14.0858 1227 119.454 477.214 474.979
11 0 90.0544 13.6362 1228 119.748 475.674 473.629
12 0 93.0531 13.5944 1265 118.389 475.846 473.144
13 0 97.0663 14.2995 1388 115.066 475.208 469.749
14 0 99.0668 13.506 1338 116.626 474.628 468.652
15 0 101.062 13.0118 1315 116.249 475.103 467.182
16 0 105.106 12.9393 1360 114.777 474.931 465.462
17 0 111.03 14.0413 1559 108.929 473.845 465.827
18 1 55.0213 12.7405 701 107.514 474.733 493.949
19 0 59.0832 13.6587 807 105.532 473.843 493.388
20 0 62.029 14.6061 906 104.539 474.232 492.951
21 0 64.053 14.6285 937 103.931 473.841 492.066
22 0 65.0458 15.2047 989 102.353 475.128 490.653
23 0 65.0222 14.9334 971 104.418 474.364 489.278
24 0 68.0496 15.2683 1039 102.505 474.52 489.755
25 0 72.1009 14.8958 1074 101.416 473.836 488.063
26 0 74.0782 15.3891 1140 99.6561 474.389 487.494
27 0 77.0718 15.1806 1170 100.215 474.043 485.171
28 0 79.0443 15.4976 1225 99.0702 473.864 483.038
29 0 80.0959 15.1319 1212 100.385 474.198 482.488
30 0 84.0238 15.8408 1331 97.3449 475.208 481.686
31 0 85.0794 15.3034 1302 98.3909 474.485 480.548
32 0 88.104 15.6066 1375 97.0284 474.476 479.606
33 0 90.082 14.9863 1350 98.5444 474.619 476.852
34 0 93.0748 14.6656 1365 99.2396 473.542 476.538
35 0 96.0946 14.6418 1407 99.0057 473.974 474.817
36 0 99.0585 14.6075 1447 98.1935 473.515 472.956
37 0 104.057 15.3281 1595 95.0915 474.01 470.403
38 0 109.098 15.7382 1717 93.615 473.749 469.191
39 0 111.053 15.1999 1688 95.8477 473.804 466.393
40 0 118.05 15.6882 1852 93.8769 473.75 463.902
41 1 61.0679 12.1995 745 94.8027 474.439 492.651
42 0 63.0637 12.194 769 95.6528 474.25 491.779
43 0 65.0361 13.8231 899 93.7909 473.19 489.013
44 0 69.0214 14.0536 970 91.2814 473.933 487.687
45 0 71.052 14.0742 1000 92.288 473.383 486.845
46 0 72.0734 14.18 1022 92.5959 473.619 486.385
47 0 76.0537 13.6482 1038 92.2023 472.926 485.172
48 0 78.1196 14.273 1115 93.2996 473.599 482.117
49 0 80.1488 13.5248 1084 94.6771 472.983 482.907
50 0 83.1664 14.0201 1166 93.7101 473.524 481.184
51 0 84.1449 14.166 1192 93.6745 473.679 481.638
52 0 88.1893 14.0153 1236 93.8835 473.519 479.002
53 0 88.0946 13.9963 1233 94.9716 472.874 477.062
54 0 92.088 14.1169 1300 94.2154 473.508 475.658
55 0 96.0821 14.5084 1394 92.5438 473.602 472.36
56 0 98.1018 13.9855 1372 93.5452 473.002 471.363
57 0 102.162 14.291 1460 92.0432 473.017 468.725
58 0 106.205 14.3591 1525 91.7502 473.33 467.649
59 0 109.202 14.0748 1537 92.0547 472.342 465.941
60 1 59.0567 12.3102 727 87.0193 472.597 493.505
61 0 62.0446 12.5555 779 86.9679 473.042 491.688
62 0 63.1018 12.9315 816 85.9142 472.799 490.277
63 0 65.1479 12.7709 832 85.6623 472.695 489.254
64 0 66.1376 13.5778 898 85.2528 473.084 488.947
65 0 71.1093 13.4863 959 84.8019 472.854 488.878
66 0 72.0982 13.3013 959 85.6715 472.515 487.221
67 0 74.1965 13.0195 966 86.8478 472.231 485.583
68 0 76.1593 13.1435 1001 86.7233 472.714 484.542
69 0 81.1677 13.1703 1069 84.5426 473.344 482.489
70 0 82.1089 13.6891 1124 83.9226 473.89 480.381
71 0 86.1828 13.1813 1136 84.3856 473.369 480.719
72 0 88.254 13.3932 1182 84.225 473.439 479.221
73 0 91.1559 13.1752 1201 85.01 473.41 476.128
74 0 94.1445 13.543 1275 84.3773 473.58 475.411
75 0 98.1527 12.3991 1217 84.9491 473.772 472.965
76 0 100.123 12.3848 1240 84.0169 473.394 472.268
77 0 106.084 12.0753 1281 83.6854 473.238 468.673
78 1 52.0896 10.6739 556 74.3525 473.928 498.101
79 0 54.0423 10.5288 569 73.9701 473.696 496.504
80 0 55.0957 10.999 606 72.3828 474.167 495.959
81 0 56.0566 11.203 628 72.172 473.777 496.709
82 0 58.0862 11.2075 651 72.1567 473.957 495.395
83 0 61.0494 11.073 676 72.3417 473.509 493.109
84 0 62.0183 10.6259 659 72.4219 474.023 492.243
85 0 65.0495 10.5458 686 72.984 473.923 492.074
86 0 67.0773 10.9128 732 72.3525 473.982 491.266
87 0 68.0672 10.5631 719 73.3032 474.239 488.399
88 0 73.0626 11.7297 857 71.0432 474.693 488.9
89 0 75.0514 11.5521 867 71.767 474.742 486.616
90 0 78.0414 12.4934 975 70.5856 474.366 486.682
91 0 79.0509 11.5875 916 72.9662 474.136 485.881
92 0 83.0472 12.1497 1009 72.8603 474.732 482.743
93 0 84.1171 12.1973 1026 74.1374 474.124 481.481
94 0 87.1073 11.5949 1010 76.2129 474.052 480.397
95 1 44.0297 9.65258 425 76.9224 473.656 502.558
96 0 44.0239 10.3353 455 76.7451 473.866 501.178
97 0 45.0933 10.6668 481 77.6736 473.557 501.227
98 0 48.0462 11.4265 549 76.4062 473.982 500.82
99 0 50.101 12.375 620 73.9129 474.111 499.924
100 0 49.0385 12.1333 595 76.8185 473.38 499.825
101 0 52.036 12.2415 637 75.5039 473.962 498.039
102 0 52.0948 12.0741 629 77.7377 472.827 497.679
103 0 52.0232 11.7447 611 80.5385 473.264 497.722
104 0 53.0713 12.0027 637 79.8226 472.797 497.491
105 0 55.0473 11.7354 646 81.1563 473.283 496.158
106 0 56.1101 11.9586 671 82.2399 472.514 495.402
107 0 59.0341 12.2133 721 81.4452 473.216 494.893
108 0 60.0734 12.6845 762 81.9961 472.636 494.471
109 0 61.0577 12.0869 738 84.1057 473.215 493.695
110 0 64.0735 13.1724 844 80.9964 473.265 491.986
111 0 65.0517 12.1749 792 82.8308 472.601 489.136
112 0 69.0306 12.9218 892 82.5303 472.858 489.902
113 0 71.1393 13.1011 932 82.9882 472.914 487.018
114 0 74.0621 13.7317 1017 80.7384 472.707 488.777
115 0 77.08 14.0633 1084 79.2712 472.47 485.744
116 0 77.0311 13.6958 1055 81.2616 472.303 485.546
117 0 80.0508 14.2285 1139 80.1765 472.256 484.973
118 0 85.1016 14.3593 1222 79.1015 472.955 482.171
119 0 88.1324 14.1946 1251 80.2614 473.602 480.01
120 0 90.0505 14.403 1297 80.6423 473.365 478.408
121 0 92.1019 14.2125 1309 81.5264 472.966 478.715
122 0 95.0562 13.6656 1299 82.6074 473.093 476.492
123 1 52.0242 12.4173 646 84.2446 472.924 498.519
124 0 53.0796 12.453 661 82.9939 472.912 496.569
125 0 55.0808 13.1806 726 84.3333 472.955 496.773
126 0 52.1183 12.1263 632 83.2453 472.848 499.047
127 0 54.025 12.4017 670 82.203 472.504 497.831
128 0 57.0332 13.0626 745 80.5114 473.166 496.366
129 0 58.0433 12.4562 723 82.0263 473.214 495.397
130 0 60.0638 12.3535 742 82.9663 473.29 492.642
131 0 63.0595 12.7657 805 80.8385 472.344 492.723
132 0 65.0532 12.2515 797 81.5483 472.158 492.179
133 0 67.0487 13.2143 886 79.8623 472.183 489.242
134 0 70.106 13.4511 943 79.5981 471.784 490.369
135 0 73.0646 13.4265 981 79.2977 472.838 488.376
136 0 77.0432 13.8624 1068 78.8652 472.809 486.822
137 0 80.0443 13.2427 1060 80.5387 472.75 486.008
138 0 83.051 14.1239 1173 83.5217 473.105 483.655
139 0 84.0538 12.8489 1080 87.3093 473.309 482.569
140 0 85.041 14.4519 1229 85.6558 471.799 481.059
141 0 88.0404 12.7555 1123 88.9288 471.995 481.68
142 0 91.0522 13.2342 1205 87.3701 472.266 479.74
143 0 94.1361 13.2255 1245 86.5984 471.718 476.844
144 1 49.0231 11.7904 578 83.372 471.427 500.412
145 0 51.0636 12.1221 619 82.2456 472.724 499.561
146 0 52.0265 12.2053 635 83.063 473.488 500.208
147 0 50.0215 12.0748 604 82.9536 472.478 500.386
148 0 51.0265 12.0134 613 83.8352 472.023 499.101
149 0 53.0253 12.0131 637 83.9027 472.347 497.546
150 0 56.0321 11.7968 661 83.3011 472.05 497.46
151 0 58.086 12.602 732 81.8921 472.359 496.958
152 0 59.0663 12.9516 765 79.9712 471.722 497.174
153 0 61.0208 12.6842 774 81.5982 472.384 495.425
154 0 64.0369 12.321 789 83.4474 472.163 494.553
155 0 65.0257 13.0871 851 82.4313 472.633 493.123
156 0 68.0739 13.1915 898 83.333 472.935 492.651
157 0 71.0567 12.6097 896 85.0826 472.756 490.665
158 0 71.0502 12.4701 886 86.8205 471.914 490.769
159 0 74.1192 12.6283 936 86.5267 472.197 488.29
160 0 77.0261 13.7096 1056 84.4451 472.747 486.848
161 0 80.0874 13.273 1063 84.731 471.751 484.783
162 0 83.1113 13.3676 1111 83.8992 471.734 483.705
163 0 87.0837 13.0679 1138 83.8717 471.835 483.501
164 0 87.2378 12.2653 1070 84.3336 472.064 482.145
165 0 91.0813 12.5822 1146 83.7888 472.032 480.127
166 0 94.1021 13.2622 1248 83.0441 472.498 476.591
167 1 48.0299 11.8051 567 86.8713 471.912 498.762
168 0 50.0394 12.5101 626 86.3291 472.289 498.251
169 0 53.0615 12.4572 661 87.8684 472.672 496.823
170 0 51.0692 12.8649 657 82.3349 472.018 498.137
171 0 52.0455 11.9511 622 83.9325 472.058 499.196
172 0 53.0497 11.9133 632 85.5332 471.657 497.028
173 0 55.0629 11.841 652 84.3773 471.985 496.679
174 0 56.0685 11.4681 643 86.2737 471.796 496.095
175 0 58.0656 12.3653 718 83.5292 472.116 494.414
176 0 60.0344 12.2596 736 83.428 472.655 494.971
177 0 61.0531 12.0715 737 84.0054 472.441 493.166
178 0 63.046 12.5464 791 82.9532 472.226 491.876
179 0 67.0826 12.4921 838 81.463 472.307 491.587
180 0 67.0333 11.8449 794 83.1902 472.304 490.496
181 0 69.0648 11.7281 810 81.9123 471.741 489.356
182 0 73.0749 12.7951 935 79.1807 471.303 490.447
183 0 75.0361 12.1408 911 81.0966 471.906 489.042
184 0 76.0261 12.1011 920 82.0739 472.861 486.29
185 0 79.0739 12.6211 998 81.4649 471.267 485.401
186 0 80.1204 13.0928 1049 82.7636 472.384 484.784
187 0 83.0761 12.964 1077 82.8691 471.846 484.899
188 0 86.0709 12.8034 1102 84.6379 472.327 481.494
189 0 90.096 13.0527 1176 83.8886 472.628 479.858
190 0 90.1183 12.184 1098 85.8652 472.514 478.102
191 0 95.0643 12.4547 1184 84.3995 472.785 477.42
192 0 98.1096 12.9243 1268 82.761 472.195 476.24
193 1 52.0185 11.9957 624 86.1955 472.194 497.204
194 0 54.0987 12.8839 697 85.4146 471.967 495.654
195 0 54.0536 12.0991 654 81.6636 472.101 496.291
196 0 54.0337 11.7334 634 83.4006 471.839 496.715
197 0 55.0261 11.5763 637 84.0235 471.893 495.86
198 0 58.0752 12.2772 713 82.7994 471.997 495.743
199 0 59.0239 12.1646 718 84.9554 471.738 495.188
200 0 61.0636 11.6436 711 85.2982 472.013 495.297
201 0 65.045 12.7758 831 83.9675 472.327 492.347
202 0 67.0592 12.8543 862 109.683 472.701 490.863
203 0 69.0368 12.7758 882 111.66 471.72 489.414
204 0 72.0421 13.3672 963 112.72 472.048 488.291
205 0 75.0444 13.9118 1044 117.319 471.762 487.539
206 0 75.1317 13.1769 990 121.681 472.325 486.447
207 0 80.0614 13.04 1044 120.799 471.437 485.913
208 0 82.1596 13.559 1114 119.418 471.729 483.918
209 0 84.1644 13.5806 1143 119.309 471.86 482.57
210 0 86.2241 13.7549 1186 120.314 472.191 481.541
211 0 89.1732 13.7037 1222 121.15 471.891 480.76
212 0 91.1298 13.0254 1187 122.914 471.38 479.175
213 0 95.1572 13.3043 1266 121.157 471.822 477.128
214 0 96.1357 12.836 1234 122.105 471.649 475.859
215 0 101.137 14.0996 1426 115.473 471.352 472.607
216 0 104.134 13.521 1408 115.793 471.34 473.308
217 0 106.072 13.8208 1466 114.5 472.074 472.048
218 1 58.0591 12.2806 713 116.027 471.613 495.167
219 0 59.1116 12.1973 721 117.687 471.144 494.377
220 0 61.101 12.5203 765 114.742 470.936 493.536
221 0 61.1358 12.1696 744 115.856 470.995 490.941
222 0 64.0755 12.3916 794 108.942 471.082 490.105
223 0 66.0284 13.5699 896 112.722 471.336 490.789
224 0 66.0948 12.4518 823 106.552 471.433 491.492
225 0 68.0668 12.5465 854 109.169 470.765 490.119
226 0 70.0305 12.7659 894 109.261 470.898 489.641
227 0 71.0979 13.0524 928 110.048 471.081 488.291
228 0 74.0319 13.0214 964 111.172 471.118 486.758
229 0 77.0954 13.386 1032 107.192 471.296 487.571
230 0 79.038 13.2974 1051 108.987 470.756 484.621
231 0 82.0584 12.8689 1056 108.496 471.197 483.973
232 0 83.0404 12.6083 1047 109.768 471.976 482.776
233 0 86.0429 13.5398 1165 108.381 471.493 481.045
234 0 89.0727 13.3262 1187 107.55 471.182 478.682
235 0 91.0732 12.5064 1139 109.176 471.374 479.194
236 0 93.097 12.6212 1175 109.271 471.202 476.117
237 0 98.1533 13.6929 1344 110.425 471.127 473.366
238 0 101.113 13.2129 1336 111.765 471.022 473.058
239 0 106.229 13.0096 1382 106.094 471.808 470.515
240 1 56.1109 11.0139 618 106.9 471.544 494.063
241 0 57.1694 10.7575 615 107.533 471.255 492.946
242 0 57.1276 10.8704 621 109.683 470.208 489.702
243 0 61.0925 10.836 662 108.048 470.627 488.597
244 0 60.0625 11.4214 686 101.789 470.856 493.297
245 0 62.1132 11.6239 722 100.566 470.996 493.683
246 0 66.133 12.1573 804 96.6704 471.051 492.305
247 0 66.1428 10.7948 714 101.889 470.713 492.427
248 0 67.1535 10.7664 723 104.835 470.823 491.407
249 0 71.1809 11.5199 820 102.254 470.949 488.759
250 0 74.021 10.8888 806 93.861 471.385 488.033
251 0 75.1242 10.8487 815 93.7656 471.22 486.707
252 0 78.1092 11.1639 872 92.4599 470.911 487.523
253 0 82.0564 11.6749 958 91.4165 471.227 486.265
254 0 85.1306 11.7232 998 89.8036 471.066 483.625
255 0 87.051 11.6369 1013 91.3731 470.678 481.688
256 0 90.1782 11.2222 1012 92.0237 471.053 480.033
257 0 92.0921 10.989 1012 90.9298 471.051 480.858
258 1 48.011 10.6434 511 88.9765 470.975 500.724
259 0 49.0129 10.5074 515 88.6835 471.184 499.796
260 0 51.0179 11.7018 597 86.6767 471.461 499.415
261 0 52.0123 11.132 579 87.5009 471.028 499.04
262 0 51.0388 11.1092 567 88.6614 470.838 498.783
263 0 53.0283 11.409 605 92.9008 471.863 497.917
264 0 54.0369 11.4736 620 93.4839 471.694 497.842
265 0 57.0433 11.5701 660 92.2348 472.097 496.729
266 0 59.0869 12.1854 720 92.0514 472.354 495.496
267 0 61.0115 12.3583 754 91.2533 471.663 494.716
268 0 62.0158 11.4809 712 95.8848 471.15 495.18
269 0 64.0215 11.7773 754 95.9854 471.101 492.459
270 0 65.065 11.2042 729 97.4348 471.503 492.34
271 0 68.0525 11.8144 804 95.643 471.439 490.801
272 0 70.0803 11.7294 822 94.3869 471.675 490.315
273 0 74.0724 11.9073 882 93.1497 471.993 488.745
274 0 75.0539 11.3785 854 94.7424 472.78 487.897
275 0 79.0706 12.8113 1013 91.1214 471.409 486.692
276 0 82.0717 12.221 1003 92.9531 470.354 485.307
277 0 83.1358 11.5233 958 95.5219 471.216 485.983
278 1 43.098 11.207 483 97.7081 471.58 502.284
279 0 46.0573 11.5074 530 97.7528 471.292 502.604
280 0 47.0401 11.841 557 97.6212 471.607 502.093
281 0 47.0694 11.6424 548 101.195 471.122 499.19
282 0 50.0721 11.8429 593 97.3997 469.504 500.582
283 0 50.0211 12.0349 602 97.8256 470.043 500.078
284 0 52.0156 12.3425 642 97.0327 469.584 499.766
285 0 53.0216 12.2026 647 98.4482 469.552 497.397
286 0 56.0162 12.3536 692 96.8006 470.441 496.175
287 0 56.0101 12.4442 697 97.1248 469.938 496.03
288 0 58.042 12.422 721 96.9085 470.341 495.448
289 0 61.04 12.1232 740 96.3595 470.492 493.341
290 0 60.0331 12.3598 742 98.0593 470.333 493.061
291 0 62.0252 12.0435 747 97.6881 469.529 492.756
292 0 65.0448 12.2838 799 96.199 470.279 492.37
293 0 64.0434 11.9294 764 97.2461 469.671 490.635
294 0 68.0355 12.2289 832 96.2644 469.892 490.508
295 0 69.056 12.2365 845 95.871 469.607 488.605
296 0 71.0372 12.416 882 94.7744 470.054 488.133
297 0 75.0742 12.2013 916 91.119 470.95 487.771
298 0 75.0704 12.1353 911 91.315 470.384 486.131
299 0 78.094 12.0752 943 89.6288 470.224 485.366
300 0 81.0509 11.8074 957 89.3939 469.89 483.873
301 1 40.0067 10.1733 407 84.887 469.403 504.425
302 0 41.0406 9.64899 396 85.4192 469.727 502.649
303 0 43.0331 11.2704 485 76.5649 471.396 503.177
304 0 42.0307 10.7778 453 80.2384 470.762 502.212
305 0 40.0512 9.46288 379 83.3483 470.749 503.71
306 0 41.0245 10.0672 413 80.1477 470.828 503.654
307 0 43.0382 9.94465 428 79.6285 470.535 502.904
308 0 45.0098 10.5088 473 78.074 470.474 502.099
309 0 46.0216 10.8862 501 76.7166 470.475 503.112
310 0 48.02 11.4536 550 75.2109 470.533 501.984
311 0 49.0474 10.8059 530 77.2019 470.172 501.708
312 0 48.0417 10.9488 526 77.9259 470.253 501.015
313 0 50.0983 11.0383 553 79.8119 470 500.175
314 0 53.0949 11.1122 590 78.6203 470.092 499.907
315 0 56.0914 11.4278 641 78.5772 470.501 499.119
316 0 54.0549 10.9148 590 82.0627 470.39 498.183
317 0 59.039 11.8396 699 79.6266 470.478 496.897
318 0 60.0341 12.2264 734 77.936 469.474 496.515
319 0 62.0639 11.8104 733 80.6016 470.351 496.445
320 0 63.0411 12.0715 761 81.339 470.431 495.983
321 0 67.0432 12.4099 832 80.4399 469.983 494.53
322 0 67.0403 12.1569 815 83.3706 469.762 494.009
323 0 72.1132 12.314 888 82.0203 470.13 492.099
324 0 73.0685 12.8099 936 81.2543 470.482 492.331
325 0 75.1566 12.2411 920 82.9946 470.776 491.41
326 0 77.0715 12.7674 984 85.7165 471.093 489.413
327 0 81.1746 12.8735 1045 84.5952 470.789 489.693
328 0 83.1289 12.8836 1071 84.3707 470.214 487.957
329 0 86.2133 13.1302 1132 83.4479 469.669 487.448
330 0 88.1064 13.2113 1164 84.7354 469.953 484.887
331 0 91.0649 13.43 1223 84.7236 469.689 483.989
332 0 94.084 13.3285 1254 84.5486 468.911 481.376
333 1 50.059 10.8672 544 91.0349 469.741 503.744
334 0 53.0561 11.7046 621 88.8293 469.736 503.449
335 0 53.0899 11.6218 617 91.2091 469.634 502.003
336 0 53.0225 12.391 657 90.6469 469.347 500.257
337 0 56.0855 11.9639 671 89.8733 469.511 499.879
338 0 57.0547 12.8649 734 87.936 468.876 498.921
339 0 59.0357 12.8228 757 87.6962 468.597 497.844
340 0 61.0204 12.504 763 88.8427 468.24 497.948
341 0 63.0364 12.6911 800 87.4912 468.816 497.808
342 0 65.041 12.1769 792 88.9457 468.376 496.236
343 0 67.0501 12.7517 855 87.3696 468.191 494.475
344 0 68.0188 12.6877 863 88.6234 468.116 493.286
345 0 71.0239 12.6859 901 88.4284 468.11 493.777
346 0 74.0378 12.4261 920 90.0033 468.242 492.1
347 0 74.0463 12.4787 924 90.8983 467.979 490.416
348 0 78.0442 12.6723 989 90.0303 467.396 489.027
349 0 80.0209 13.1216 1050 90.0448 468.175 487.237
350 0 83.045 12.716 1056 90.5578 468.161 487.201
351 0 85.0489 12.8514 1093 88.4392 468.2 486.473
352 0 88.0518 12.6176 1111 89.1845 467.729 483.417
353 1 42.02 9.51927 400 90.875 467.558 505.778
354 0 43.0309 10.6435 458 88.4323 468.716 505.686
355 0 45.0414 11.0121 496 88.75 467.373 505.31
356 0 45.0231 11.2831 508 89.2579 466.967 505.565
357 0 47.0844 11.2776 531 89.1318 467.492 503.84
358 0 45.0202 10.7285 483 81.0559 468.387 504.696
359 0 49.0764 11.207 550 78.0273 468.773 504.249
360 0 50.0287 11.0337 552 77.2101 468.312 503.614
361 0 50.0496 11.1889 560 77.1643 468.846 502.875
362 0 52.0284 10.8402 564 75.4823 468.161 502.906
363 0 52.025 10.9755 571 75.1208 468.692 501.595
364 0 52.0266 10.9367 569 105.258 468.699 501.508
365 0 55.0409 10.5921 583 76.5232 467.935 500.611
366 0 55.0554 10.444 575 78.0522 467.981 500.628
367 0 58.0356 11.424 663 76.4691 468.256 500.258
368 0 60.0311 11.2275 674 77.7997 468.409 497.237
369 0 62.0595 11.1506 692 78.948 468.779 497.373
370 0 62.0653 11.214 696 100.158 469.759 497.455
371 0 65.0586 10.821 704 79.6449 468.256 493.561
372 0 65.0369 10.5786 688 81.6032 469.142 492.253
373 0 67.0773 10.7041 718 83.1448 468.965 493.389
374 0 69.0322 10.6907 738 84.0976 468.808 492.866
375 0 73.1342 10.9661 802 94.8454 468.835 490.91
376 0 77.1351 12.3031 949 90.2055 468.591 490.568
377 0 78.1024 12.1635 950 90.4842 469.474 490.043
378 1 40.0175 9.92066 397 89.7909 468.3 509.098
379 0 39.0478 9.50118 371 90.7143 469.302 509.437
380 0 41.0161 10.8982 447 89.9776 468.846 507.792
381 0 43.0185 10.6233 457 89.9234 468.84 507.521
382 0 45.0165 10.796 486 89 468.516 506.846
383 0 44.0173 11.132 490 91.751 468.408 505.388
384 0 47.0232 11.8665 558 90.3799 468.357 503.681
385 0 48.0356 11.7829 566 82.4276 469.799 503.765
386 0 49.0447 11.3366 556 85.0827 469.881 503.705
387 0 50.0779 11.6219 582 83.4983 470.129 503.033
388 0 52.0238 12.4558 648 80.7793 470.341 502.432
389 0 51.0405 11.6182 593 83.0118 469.845 500.786
390 0 55.0573 11.7514 647 82.4065 470.406 499.321
391 0 56.0817 12.4105 696 78.9353 469.652 498.766
392 0 57.0361 11.8872 678 80.5383 469.673 498.332
393 0 58.0428 11.9567 694 80.366 469.863 498.604
394 0 60.0726 11.9356 717 81.3347 469.509 496.676
395 0 62.0479 11.7973 732 82.9822 469.501 495.508
396 0 62.0415 11.3634 705 85.4284 469.512 495.692
397 0 67.0224 12.0258 806 81.7754 469.395 493.938
398 0 66.0403 11.5838 765 82.7869 469.648 492.303
399 0 69.0516 11.5276 796 81.7035 469.709 492.139
400 0 72.062 11.615 837 80.5711 469.425 489.731
401 0 73.0289 11.4475 836 80.8445 469.494 488.616
402 0 77.0546 11.1739 861 79.3693 470.354 487.434
403 0 79.1224 11.2231 888 78.1239 470.527 485.769
404 0 79.0587 12.6994 1004 82.3446 470.414 483.983
405 0 83.0717 10.834 900 78.6467 470.208 485.211
406 0 87.0618 11.3942 992 77.0494 469.827 482.936
407 0 89.0976 11.7961 1051 76.4329 469.902 482.763
408 0 91.0922 11.6036 1057 76.351 469.763 482.061
409 0 94.1458 11.3653 1070 76.6757 469.764 479.714
410 0 97.1214 11.3672 1104 76.7554 469.996 476.576
411 0 99.0973 11.0498 1095 77.7434 471.136 476.632
412 0 102.081 10.5406 1076 78.592 470.214 475.266
413 0 105.064 10.8124 1136 77.2333 469.776 473.444
414 0 109.091 10.6608 1163 76.9123 469.675 471.991
415 0 113.061 11.056 1250 75.6152 469.394 469.635
416 0 116.086 11.0091 1278 76.205 469.764 466.179
417 1 54.0462 9.39936 508 84.9488 470.201 497.252
418 0 55.0295 9.504 523 84.7591 469.74 496.01
419 0 59.0391 10.7725 636 82.3113 470.371 495
420 0 58.0276 10.9948 638 82.4514 470.047 493.262
421 0 59.0506 11.3801 672 82.6176 469.451 491.969
422 0 63.0331 11.0259 695 83.7612 469.522 491.289
423 0 63.0478 11.5627 729 83.952 469.461 490.289
424 0 65.0403 11.4544 745 85.1691 469.57 489.144
425 0 69.0183 10.9971 759 85.502 469.796 486.656
426 0 67.0241 11.384 763 84.9895 469.97 486.596
427 0 72.0961 11.2905 814 87.0491 469.887 485.004
428 0 75.0584 11.2046 841 87.6576 469.222 484.065
429 0 76.0201 10.7735 819 89.1819 468.581 482.777
430 0 79.0462 11.0948 877 88.3991 469.131 481.04
431 0 81.0378 10.9085 884 88.8575 469.1 480.686
432 0 83.0203 11.1419 925 88.4259 468.455 477.994
433 0 86.0526 11.0165 948 88.6561 469.487 477.498
434 0 88.0775 10.6157 935 88.8866 469.846 477.086
435 0 92.1053 10.7594 991 88.4349 469.582 474.331
436 0 92.0682 10.6877 984 88.9573 469.542 473.342
437 0 95.0669 11.0028 1046 87.3566 470.039 472.087
438 0 99.0769 10.1234 1003 87.8953 470.295 468.667
439 1 48.022 8.0588 387 86.8605 470.558 495.191
440 0 52.0267 8.14967 424 85.9717 470.486 492.703
441 0 55.0911 9.4026 518 85.056 470.548 490.84
442 0 55.1418 9.08566 501 78.8263 469.277 492.567
443 1 33.0088 6.42254 212 81.217 468.354 503.321
444 0 29.0514 6.84994 199 80.809 468.729 504.588
445 0 34.0173 6.90826 235 79.9447 468.298 502.698
446 0 32.0134 6.93459 222 78.8874 468.806 504.626
447 0 30.0063 5.33221 160 81.525 467.569 504.656
448 0 41.0236 4.97275 204 82.4265 468.672 501.662
449 0 33.0175 5.84538 193 82.399 467.705 504.368
450 1 77.0965 12.2444 944 68.4301 468.924 488.368
451 0 76.0744 9.76676 743 73.5653 468.186 489.336
452 0 80.0605 10.9292 875 71.8777 468.617 486.736
453 0 82.1003 11.218 921 71.9522 468.828 485.309
454 0 83.1136 11.2376 934 72.6788 469.584 484.997
455 0 85.1043 10.5518 898 74.9722 468.84 482.841
456 0 88.0982 10.3975 916 76.1146 469.617 482.25
457 1 48.0803 9.7961 471 78.2569 469.202 500.635
458 0 49.0652 10.4555 513 77.3528 469.673 497.864
459 0 48.1011 10.0621 484 76.4587 469.298 495.69
460 0 51.1385 10.8138 553 79.6383 469.656 495.966
461 0 54.1142 11.716 634 80.5521 470.3 497.648
462 0 56.0941 12.3364 692 80.2283 469.876 496.717
463 0 56.0941 12.3008 690 150.283 468.875 496.687
464 0 58.1259 12.1804 708 79.8164 470.316 494.619
465 0 61.1186 12.5821 769 79.3628 470.157 494.485
466 0 62.1403 11.989 745 81.3544 470.009 493.868
467 0 64.1178 12.6642 812 78.4532 469.866 493.986
468 0 65.0758 12.1704 792 80.0341 470.33 492.822
469 0 67.0803 12.8055 859 78.9977 469.646 490.97
470 0 69.0782 12.8405 887 78.9278 469.673 491.287
471 0 72.1117 12.966 935 78.3626 468.678 489.235
472 0 69.1212 11.733 811 75.0123 468.681 489.871
473 0 70.0712 11.2314 787 75.7548 469.638 489.825
474 0 75.0339 11.3149 849 72.1343 469.543 488.054
475 0 77.1062 11.4777 885 72.5345 469.464 487.609
476 0 80.0518 11.5675 926 70.0065 468.908 485.008
477 0 82.0573 11.1629 916 70.0207 468.522 484.201
478 0 84.0485 11.0531 929 70.4101 468.98 484.117
479 0 86.1395 10.8777 937 70.4013 469.239 482.883
480 0 89.0915 11.7183 1044 70.5728 468.591 479.094
481 0 90.0677 10.7253 966 71.9286 468.734 479.678
482 0 95.0451 11.2368 1068 71.6199 468.989 478.354
483 0 96.0877 10.9379 1051 74.0809 468.296 478.956
484 0 99.1093 11.6134 1151 75.3475 468.344 476.042
485 0 100.087 10.5508 1056 77.4735 468.612 473.927
486 0 105.072 11.0019 1156 77.9282 469.229 473.763
487 0 107.187 11.6898 1253 76.4765 469.294 470.546
488 1 59.1964 11.3351 671 80.3219 468.735 492.694
489 0 62.0845 11.6132 721 79.6685 468.248 491.307
490 0 64.081 12.0473 772 79.0816 468.553 491.422
491 0 66.0989 12.209 807 69.1177 469.4 492.368
492 0 65.0881 10.6778 695 71.0475 468.75 494.247
493 0 69.1059 10.9976 760 70.4987 469.43 492.274
494 0 69.0926 11.3471 784 70.8661 469.038 490.693
495 0 74.0581 10.5593 782 70.2852 469.407 491.223
496 0 75.1062 10.9978 826 71.3317 469.64 487.903
497 0 78.0755 11.1559 871 71.5155 469.886 487.413
498 0 81.0491 10.9563 888 72.3727 469.401 487.277
499 0 82.0653 10.5891 869 73.7181 469.483 485.394
500 0 87.0762 10.933 952 73.6282 469.3 482.253
501 0 89.0382 11.321 1008 73.871 469.46 481.282
502 0 93.0725 11.0344 1027 75.3603 469.281 478.719
503 0 97.1213 11.6452 1131 75.0309 469.89 476.817
504 0 100.108 11.4177 1143 76.4147 469.138 477.398
505 1 50.0685 10.0263 502 77.739 469.221 500.12
506 0 53.0229 11.1084 589 77.1952 469.353 499.024
507 0 56.0531 10.829 607 77.4596 469.023 498.456
508 0 57.0735 10.8807 621 77.1948 468.663 499.626
509 0 56.065 11.5758 649 77.9877 469.361 496.576
510 0 58.0577 11.4714 666 78.3363 468.509 495.952
511 0 61.0559 12.1364 741 77.6815 467.339 496.849
512 0 62.1126 12.0748 750 81.232 467.447 496.247
513 0 64.0662 12.2998 788 81.6523 467.033 494.515
514 0 65.0959 11.8901 774 83.1693 467.304 495.226
515 0 67.0751 11.3902 764 84.5524 467.327 494.546
516 0 70.0673 11.7458 823 84.5346 466.465 493.609
517 0 72.0669 12.2386 882 84.9048 466.45 493.108
518 0 74.0878 11.7968 874 87.2483 466.745 491.882
519 0 75.1057 11.9831 900 88.5056 466.92 490.86
520 0 78.1013 12.4966 976 89.0768 467.235 489.221
521 0 80.0635 12.5026 1001 90.0959 466.682 488.665
522 0 81.1092 11.614 942 92.2272 467.24 489.093
523 0 86.123 12.0177 1035 92.6783 467.447 487.722
524 0 88.1247 11.8015 1040 94.8038 467.085 485.67
525 0 88.1413 11.2547 992 95.0796 466.969 485.412
526 0 92.1473 11.9591 1102 95.1842 467.056 482.181
527 0 92.1274 11.4515 1055 97.2493 467.849 481.941
528 0 95.1409 11.0678 1053 98.4473 467.417 481.701
529 0 98.1687 11.3478 1114 97.4165 466.894 479.47
530 0 103.228 12.5934 1300 93.14 466.993 480.455
531 0 104.164 12.4419 1296 93.1466 466.755 477.321
532 0 108.119 11.885 1285 94.5455 466.615 476.468
533 0 110.255 12.2806 1354 93.5643 465.751 473.1
534 0 111.226 11.5261 1282 94.2746 466.448 471.933
535 0 116.15 11.1408 1294 93.2357 466.108 472.689
536 1 63.0798 10.241 646 94.4303 466.505 494.868
537 0 64.0901 10.532 675 93.6207 466.161 493.563
538 0 68.171 11.0164 751 89.1358 466.766 494.197
539 0 70.1761 11.0294 774 90.9548 466.691 492.965
540 0 73.1243 12.9506 947 87.9937 466.733 494.19
541 0 74.2458 12.9166 959 90.6674 466.711 492.648
542 0 74.2458 12.8223 952 156.107 465.701 492.628
543 0 78.1517 12.1175 947 93.8691 467.055 491.503
544 0 81.2617 12.5151 1017 91.9931 466.054 490.58
545 0 83.1213 12.4276 1033 92.3727 466.931 490.218
546 0 85.1074 12.9953 1106 90.519 466.792 488.408
547 0 87.1464 12.4159 1082 91.268 466.454 486.937
548 0 90.0964 12.5865 1134 91.0688 467.043 485.862
549 0 93.1289 12.1982 1136 91.4833 467.324 483.053
550 0 95.152 11.8442 1127 91.9814 467.499 482.507
551 0 99.1486 12.1837 1208 90.9189 468.012 481.517
552 0 101.102 12.0472 1218 92.3342 467.324 479.194
553 0 103.1 11.9011 1227 92.3977 468.295 477.186
554 1 54.0564 10.8405 586 85.273 468.848 504.771
555 0 56.035 11.1359 624 85.3462 468.755 503.728
556 0 57.047 11.4993 656 86.2302 468.224 502.241
557 0 54.1683 9.95047 539 77.7866 468.141 497.816
558 0 56.0144 11.1578 625 77.9168 467.862 503.832
559 0 58.0799 11.1743 649 78.8891 467.968 503.545
560 0 59.0325 11.3158 668 78.9446 467.749 502.278
561 0 61.122 10.9944 672 79.7961 468.744 500.717
562 0 61.0646 11.1521 681 79.047 468.376 500.463
563 0 66.1405 11.6872 773 78.1048 467.974 498.831
564 0 67.1038 11.9963 805 78.0621 468.357 496.785
565 0 68.0504 11.0947 755 81.453 468.025 497.96
566 0 69.1495 11.3233 783 82.295 467.922 495.817
567 0 73.1402 11.2934 826 81.8305 467.418 493.185
568 0 76.0567 11.1627 849 81.0554 467.933 494.165
569 0 77.093 11.3629 876 80.8128 466.705 494.364
570 0 79.1086 11.44 905 82.0343 466.486 491.906
571 0 82.0902 12.0112 986 81.7475 466.563 491.278
572 0 84.0795 11.5962 975 83.2964 466.323 491.827
573 0 84.0354 11.0073 925 85.9459 466.212 490.301
574 0 88.0229 11.2584 991 85.4662 466.17 489.24
575 0 90.0535 11.8374 1066 86.1032 466.664 486.662
576 0 91.0591 10.9929 1001 87.1349 466.961 486.442
577 0 95.128 11.4057 1085 86.3097 466.829 484.453
578 0 99.0951 11.5747 1147 86.8561 466.49 485.104
579 0 102.058 11.3464 1158 87.8929 466.706 482.118
580 0 107.115 11.763 1260 87.0722 466.258 476.048
581 0 107.116 11.8096 1265 123.792 467.256 476.123
582 1 57.0077 10.9283 623 88.0995 466.189 502.955
583 0 60.0125 11.081 665 87.7068 466.51 501.275
584 0 60.0618 11.8212 710 85.8183 467.358 499.094
585 0 64.0577 12.2702 786 84.2697 467.34 500.448
586 0 63.032 12.2636 773 85.5472 467.287 499.947
587 0 67.047 12.2451 821 84.5408 467.007 500.442
588 0 68.0544 12.7104 865 82.9861 467.135 498.227
589 0 70.0348 13.0078 911 83.6784 467.097 499.361
590 0 68.0269 11.7748 801 89.7953 466.453 499.045
591 0 71.0382 11.5853 823 89.5371 466.363 499.069
592 0 73.0901 11.9305 872 88.6514 466.88 498.517
593 0 74.043 11.6689 864 90.3808 466.549 496.77
594 0 76.0253 12.2591 932 89.9399 467.061 493.794
595 0 80.0903 11.6618 934 91.1702 465.531 492.819
596 0 83.092 12.1311 1008 89.2996 466.561 491.83
597 0 83.0912 11.9868 996 89.1295 465.654 490.866
598 0 84.0995 11.4507 963 91.6511 465.53 490.092
599 0 88.0387 12.0288 1059 91.0954 465.534 488.519
600 0 91.0304 12.1498 1106 91.5814 465.451 486.096
601 0 94.047 11.9196 1121 91.7734 465.434 485.461
602 1 50.022 10.3555 518 94.4247 465.751 506.077
603 0 51.0186 10.8588 554 93.2004 465.818 505.69
604 0 54.0394 12.2318 661 87.5885 465.006 504.731
605 0 56.0888 12.1236 680 87.3838 465.793 504.588
606 0 54.0095 11.3313 612 89.2827 466.314 505.134
607 0 56.0323 11.2614 631 89.2726 466.513 503.908
608 0 57.0218 11.0835 632 90.2896 466.34 503.229
609 0 59.0215 11.5382 681 87.859 465.698 503.094
610 0 62.0277 11.7528 729 85.8573 466.79 502.945
611 0 62.0194 11.5448 716 88.852 466.767 501.916
612 0 66.0503 11.5972 766 87.8094 466.565 501.178
613 0 67.1659 12.5361 842 87.7518 465.561 500.105
614 0 70.0954 12.055 845 88.9728 465.472 499.512
615 0 71.056 12.2298 869 90.7284 465.999 495.976
616 0 75.0995 12.3569 928 89.625 465.54 495.556
617 0 77.1746 12.0506 930 91.3774 466.161 493.825
618 0 79.081 11.8613 938 92.0192 465.527 492.065
619 0 80.0745 12.0013 961 91.9969 465.205 490.933
620 0 83.0606 12.6414 1050 90.701 465.772 489.389
621 0 84.1624 12.0719 1016 90.0049 465.848 487.634
622 0 85.0734 12.5421 1067 88.0366 465.6 485.604
623 0 89.1655 11.9777 1068 88.9017 466.052 484.404
624 0 91.1167 11.5566 1053 92.6733 464.783 481.44
625 0 92.0694 11.3936 1049 91.6301 466.443 482.287
626 0 94.0762 11.4482 1077 91.5859 466.764 480.934
627 0 98.0798 11.7048 1148 91.4312 466.856 478.226
628 0 99.034 11.4304 1132 91.6051 466.052 475.894
629 0 98.0752 11.379 1116 93.3118 466.187 471.78
630 0 104.074 11.2708 1173 97.4655 466.518 470.194
631 0 108.119 11.5984 1254 97.3987 466.022 467.902
632 0 111.13 11.572 1286 96.2667 466.128 462.788
633 0 116.239 11.4505 1331 95.8002 467.593 463.373
634 0 119.249 11.6144 1385 96.1841 467.264 458.109
635 0 123.137 11.5887 1427 96.7673 467.649 454.633
636 1 66.1418 10.0693 666 94.2252 467.65 482.036
637 0 65.1505 10.8978 710 94.2408 468.086 479.754
638 0 73.0884 12.7243 930 90.4086 467.434 492.962
639 0 75.1074 12.4755 937 90.4109 468.069 492.232
640 0 74.1064 11.7129 868 93.7408 467.457 490.798
641 0 77.1429 11.8741 916 92.8177 467.614 490.289
642 0 78.1645 11.5014 899 94.6963 469.007 489.526
643 0 82.1032 11.7291 963 93.1153 468.233 487.322
644 0 83.0925 11.9505 993 92.8701 468.398 486.012
645 0 86.1119 11.4154 983 93.3113 468.511 485.251
646 0 87.0875 11.2531 980 93.9214 468.652 481.796
647 0 90.1043 11.6865 1053 91.9506 468.444 480.406
648 0 94.1588 11.9691 1127 92.008 468.235 478.484
649 0 95.0507 11.7832 1120 92.8848 468.893 477.046
650 0 99.1162 11.7741 1167 93.2956 468.137 473.895
651 0 102.075 11.8736 1212 93.7021 468.487 473.837
652 0 105.072 12.382 1301 93.4573 468.057 472.551
653 0 107.088 11.5792 1240 94.1847 468.604 470.561
654 0 111.163 12.3242 1370 90.6876 468.109 457.777
655 1 56.0999 9.32265 523 86.4857 468.071 485.396
656 0 61.0755 10.6589 651 87.6528 467.994 493.482
657 0 62.0352 10.4779 650 89.0554 467.697 497.294
658 0 65.0927 10.6924 696 86.8305 467.175 497.705
659 0 67.0293 11.5024 771 84.6355 467.263 496.348
660 0 67.0293 11.4726 769 141.047 467.246 496.313
661 0 70.0855 11.0579 775 84.8284 467.596 493.524
662 0 71.075 10.7633 765 87.8954 467.727 491.948
663 0 74.0635 11.0581 819 87.4799 467.277 491.36
664 0 77.0624 11.3544 875 86.9394 467.77 487.539
665 0 78.0142 11.1005 866 89.7529 468.596 486.05
666 0 82.1296 11.0192 905 88.1017 469.263 487.484
667 0 82.079 10.1853 836 90.5024 469.767 485.093
668 0 86.1024 10.9289 941 87.5037 470.479 481.401
669 0 87.0703 11.2897 983 86.8586 468.955 478.864
670 1 50.0602 9.36872 469 83.9595 469.235 499.433
671 0 52.0551 10.4889 546 88.4011 469.194 500.088
672 0 54.0779 11.0766 599 86.6444 469.229 500.21
673 0 52.0328 10.9162 568 83.7359 467.474 501.741
674 0 54.0337 10.8266 585 84.7675 467.354 501.243
675 0 54.042 10.7509 581 84.8072 466.948 500.966
676 0 56.0772 10.539 591 86.4552 467.729 500.365
677 0 57.063 11.1281 635 86.7386 467.321 498.868
678 0 58.0949 11.3091 657 84.9178 467.228 499.207
679 0 57.0433 11.167 637 83.6107 467.447 499.425
680 0 61.071 10.9053 666 85.53 466.556 498.2
681 0 61.0565 11.1045 678 85.8289 467.381 497.187
682 0 64.0964 11.7791 755 84.6265 467.188 496.445
683 0 65.1865 11.0452 720 86.2167 467.456 495.818
684 0 69.1773 11.6368 805 85.3019 467.103 495.293
685 0 68.1659 10.9439 746 86.7547 467.426 495.382
686 0 71.0569 11.4697 815 86.9202 468.212 492.485
687 0 73.0743 11.0846 810 87.3198 468.411 492.426
688 0 74.0769 10.7726 798 88.0539 467.613 491.071
689 0 77.049 11.019 849 88.5371 467.446 489.882
690 0 80.0309 11.3956 912 87.3991 467.25 488.252
691 0 84.0789 11.739 987 86.6657 467.687 486.299
692 0 87.116 11.4445 997 88.7131 467.888 484.428
693 0 88.1612 12.307 1085 88.8645 467.564 482.066
694 0 90.1224 11.5066 1037 92.2488 467.09 480.814
695 0 94.0535 11.0256 1037 93.0964 467.169 479.135
696 1 50.0506 10.4294 522 88.7088 466.994 502.247
697 0 49.1601 10.8828 535 89.0393 467.52 499.092
698 0 55.1043 12.2677 676 91.5089 466.857 503.467
699 0 55.0754 11.5296 635 95.5638 466.268 502.907
700 0 57.0536 12.0939 690 93.6174 467.37 501.83
701 0 58.0437 11.8531 688 94.9288 466.826 501.823
702 0 58.0593 11.8844 690 95.9145 468.051 502.43
703 0 60.0851 11.2341 675 98.0607 467.628 500.959
704 0 63.0521 11.9108 751 96.032 467.981 500.967
705 0 66.1003 11.9818 792 93.4848 468.317 500.866
706 0 65.0451 12.1762 792 95.2096 467.687 498.46
707 0 67.1278 12.0814 811 92.7546 466.538 497.001
708 0 70.0791 11.5298 808 97.0408 467.283 496.74
709 0 72.0979 12.1779 878 95.5239 466.727 496.745
710 0 72.1193 11.8138 852 98.0646 467.327 497.055
711 0 72.1276 11.0083 794 100.743 467.131 495.884
712 0 75.1177 11.3156 850 98.7341 466.774 495.027
713 0 79.1414 11.5995 918 96.2146 465.913 492.887
714 0 79.1639 10.9646 868 97.6774 466.721 493.577
715 0 82.1013 11.4736 942 99.4735 467.447 491.924
716 0 86.1392 11.5395 994 100.513 466.934 491.64
717 0 89.1101 11.0425 984 99.3526 466.784 487.911
718 1 47.0344 10.4817 493 89.7546 465.592 509.554
719 0 46.0426 10.6858 492 94.8028 468.331 509.297
720 0 48.0706 11.067 532 94.5282 467.774 508.645
721 0 51.0422 11.4807 586 91.4369 465.974 507.232
722 0 52.0439 11.9514 622 93.6994 467.064 506.227
723 0 54.0179 11.7924 637 95.7535 465.556 506.146
724 0 54.0313 11.4748 620 96.6839 466.406 504.831
725 0 55.037 12.1918 671 94.5753 466.151 504.891
726 0 57.0747 11.7565 671 93.8957 466.991 503.972
727 0 60.0109 12.5811 755 90.8954 466.021 504.605
728 0 61.0706 12.7721 780 90.9513 465.894 503.449
729 0 63.0314 12.8983 813 90.3887 465.961 501.159
730 0 62.0317 12.3324 765 159.258 466.905 500.476
731 0 65.0292 12.456 810 93.4654 465.944 500.621
732 0 69.0549 12.8304 886 91.7111 465.532 500.806
733 0 70.1267 12.7341 893 91.2732 466.368 500.367
734 0 71.0956 12.8559 914 91.7823 466.566 498.239
735 0 73.1689 12.7377 932 93.485 465.813 498.397
736 0 75.068 13.2547 995 93.4482 466.734 494.169
737 0 76.118 12.8747 980 93.9765 465.792 493.462
738 0 78.2284 13.3967 1048 92.7948 466.089 492.325
739 0 81.1402 13.6677 1109 91.7574 466.193 492.097
740 0 83.2019 13.281 1105 92.0054 466.696 490.85
741 0 86.1901 13.5282 1166 94.0292 465.681 487.034
742 0 88.1724 13.5984 1199 95.0142 465.948 485.85
743 0 89.276 13.4639 1202 96.8952 466.514 484.499
744 0 94.2115 13.268 1250 97.1216 466.75 482.295
745 1 49.0085 10.5492 517 93.4778 466.723 507.379
746 0 51.0429 11.4218 583 93.5609 467.561 505.952
747 0 51.0339 11.3846 581 92.7126 466.895 503.862
748 0 54.0593 11.7464 635 97.6961 467.761 504.409
749 0 57.0415 12.5172 714 98.2241 467.269 503.616
750 0 57.0998 12.8197 732 98.8716 467.246 502.04
751 0 60.0817 12.7659 767 98.3351 466.922 501.986
752 0 57.0955 11.507 657 96.0274 466.339 501.954
753 0 59.0265 12.2996 726 94.6736 466.236 501.574
754 0 62.077 12.0335 747 92.1633 466.574 501.386
755 0 64.0633 11.9101 763 92.7064 466.263 499.332
756 0 66.0491 12.2485 809 90.3486 466.465 498.429
757 0 66.0471 12.3851 818 92.0293 467.529 497.584
758 0 70.0975 11.8407 830 94.5554 466.716 497.081
759 0 72.0686 12.4465 897 93.1527 467.425 495.784
760 0 73.1183 12.0763 883 93.5595 466.691 495.709
761 0 76.0327 12.5735 956 90.2238 466.518 493.816
762 0 78.043 12.0062 937 92.2327 467.624 491.735
763 0 80.0838 11.8251 947 92.3474 466.857 492.602
764 0 82.0813 12.0369 988 92.8026 467.605 489.613
765 0 84.103 11.9496 1005 95.0249 466.967 489.172
766 0 87.0682 12.3926 1079 94.1677 467.674 489.447
767 0 90.1326 12.526 1129 94.0709 466.574 487.299
768 1 50.0262 11.454 573 98.0506 467.024 505.22
769 0 53.0426 11.3117 600 97.705 467.607 505.287
770 0 53.0174 11.9395 633 95.1927 466.283 502.712
771 0 55.0594 12.8044 705 97.2879 468.084 502.576
772 0 57.0432 12.5168 714 99.7745 468.501 502.287
773 0 57.0492 12.6557 722 100.298 467.266 501.512
774 0 56.0145 11.5327 646 94.4907 467.672 503.102
775 0 59.0413 11.7714 695 94.2173 467.958 502.145
776 0 58.0463 11.8526 688 93.968 467.449 501.724
777 0 63.0274 11.7727 742 92.9811 467.751 501.035
778 0 65.051 12.298 800 92.615 468.62 499.298
779 0 65.0408 12.2846 799 144.398 469.637 499.28
780 0 68.0517 13.0489 888 93.0113 468.392 497.986
781 0 69.0817 12.2464 846 94.039 467.488 497.872
782 0 72.0546 12.7126 916 94.0841 468.65 496.007
783 0 76.0802 12.96 986 93.3022 468.491 493.407
784 0 78.0876 13.408 1047 92.9733 468.603 493.652
785 0 78.0876 13.3952 1046 149.68 468.61 493.663
786 0 82.1257 12.5661 1032 94.1589 468.679 490.267
787 0 85.1567 12.2245 1041 93.341 469.523 487.969
788 1 41.0708 11.2489 462 92.1082 468.21 508.433
789 0 44.0657 11.2332 495 89.1697 468.889 508.582
790 0 43.079 11.2352 484 89.2417 468.583 507.562
791 0 46.0842 11.7394 541 91.098 468.434 506.508
792 0 46.0258 11.2546 518 93.0232 468.867 507.994
793 0 47.0522 11.3703 535 93.7327 469.062 506.391
794 0 47.0229 12.143 571 93.683 468.911 506.315
795 0 48.026 11.5771 556 94.9892 469.583 504.131
796 0 51.0545 11.7913 602 93.7209 468.92 503.643
797 0 52.0415 12.1249 631 91.0349 469.588 503.84
798 0 52.0622 11.6975 609 93.1987 469.082 503.722
799 0 55.0466 11.7537 647 95.6321 469.023 503.386
800 0 56.0405 12.2411 686 94.6079 468.586 502.794
801 0 59.0587 12.6654 748 93.4746 468.5 501.556
802 0 61.0855 12.0159 734 94.3556 468.704 501.424
803 0 62.0343 12.8155 795 92.2918 467.867 500.792
804 0 65.0836 12.7989 833 92.2773 468.768 499.905
805 0 66.0432 12.3707 817 92.7148 468.92 499.436
806 0 67.0452 12.3946 831 93.2575 468.278 498.645
807 0 72.1042 13.6331 983 88.2503 467.565 498.411
808 0 74.0496 13.1398 973 89.7287 466.984 496.605
809 0 76.0358 12.9544 985 90.7015 467.858 496.306
810 0 77.0381 12.7599 983 90.4385 467.326 495.254
811 0 77.0747 12.8187 988 90.4089 467.238 494.517
812 0 80.0381 12.8439 1028 90.3045 467.179 494.274
813 0 82.1185 12.4211 1020 91.3431 467.308 492.932
814 0 86.1054 13.2977 1145 90.2996 468.316 492.21
815 0 87.1473 12.9092 1125 93.864 467.998 490.435
816 0 89.2191 12.7887 1141 92.695 467.748 490.168
817 0 93.1185 12.6291 1176 94.4226 467.229 486.963
818 0 95.1809 12.8912 1227 94.0546 467.299 487.601
819 0 99.18 13.3192 1321 91.9894 467.867 480.969
820 0 100.179 12.4677 1249 93.47 467.202 477.592
821 0 104.228 12.5877 1312 92.3293 466.868 475.87
822 0 109.234 13.2376 1446 88.4661 466.907 476.248
823 0 113.257 13.0323 1476 88.0467 467.183 473.214
824 0 118.409 13.048 1545 86.6945 466.664 470.909
825 0 124.095 13.8603 1720 84.2273 467.693 466.279
826 0 128.1 13.5519 1736 85.1434 467.559 463.63
827 0 129.095 12.9827 1676 86.5382 467.427 461.391
828 0 134.102 13.1169 1759 85.4326 467.629 458.324
829 0 140.134 13.4871 1890 84.3233 467.422 457.967
830 0 143.112 13.2413 1895 84.7557 467.491 457.177
831 0 148.186 13.4831 1998 83.8504 467.103 455.372
832 1 73.0649 10.7576 786 82.1565 467.847 491.257
833 0 75.1272 11.1278 836 81.6734 467.273 494.481
834 0 78.0885 11.09 866 81.9307 467.673 494.237
835 0 81.0742 11.4093 925 81.1427 467.618 494.149
836 0 81.0742 11.4956 932 136.381 467.618 494.138
837 0 85.2154 10.7844 919 80.6017 468.116 490.802
838 0 86.0977 11.2663 970 80.5278 468.11 488.392
839 0 86.1731 9.86387 850 82.0565 466.874 488.842
840 0 86.0833 10.4898 903 79.7553 467.239 490.609
841 0 94.1122 11.1675 1051 80.4995 466.96 486.304
842 0 94.1276 11.58 1090 83.0193 467.193 486.729
843 0 98.1052 10.8251 1062 81.1149 466.616 482.417
844 0 101.127 11.2137 1134 80.4824 466.994 483.238
845 0 104.094 11.5377 1201 78.8684 467.037 481.992
846 0 107.094 10.8783 1165 80.1459 466.28 480.759
847 0 106.172 9.84251 1045 81.7435 466.618 482.407
848 0 108.179 10.6582 1153 80.4857 466.781 480.818
849 0 116.161 10.4166 1210 79.838 466.969 474.467
850 0 120.137 11.1955 1345 78.7465 466.462 472.092
851 0 122.17 10.8046 1320 80.4295 466.739 470.321
852 0 125.224 11.5872 1451 79.6175 466.708 470.62
853 0 130.277 12.0282 1567 79.4257 466.461 465.769
854 0 133.23 11.559 1540 80.1792 465.897 468.389
855 0 137.279 11.1233 1527 81.131 466.069 465.85
856 0 141.264 11.5528 1632 80.3578 465.746 464.85
857 0 146.241 11.7751 1722 81.4466 466.081 461.077
858 0 151.178 11.3244 1712 83.6834 465.676 456.987
859 0 154.281 11.5958 1789 83.7188 466.075 458.71
860 0 159.199 11.451 1823 85.0422 466.222 454.809
861 0 163.265 11.2333 1834 85.6101 465.243 454.178
862 0 170.264 12.1341 2066 85.1607 466.393 452.921
863 0 173.216 11.9792 2075 86.9619 467.246 448.025
864 0 178.222 12.0299 2144 87.847 466.58 446.243
865 0 185.272 12.3062 2280 88.1373 466.054 445.921
866 0 190.196 11.9035 2264 87.4647 466.91 443.439
867 0 195.212 12.238 2389 87.9456 466.971 440.645
868 0 199.218 11.8162 2354 90.39 467.069 433.509
869 0 351.488 15.221 5350 91.7325 466.019 347.993
870 0 364.611 15.6825 5718 90.6408 465.928 338.818
871 0 375.54 14.6962 5519 93.2658 466.085 333.178
872 1 282.356 8.96739 2532 93.4949 466.835 419.072
873 0 284.405 8.23826 2343 93.4571 466.268 429.631
874 1 48.1352 11.6131 559 87.4383 466.279 503.809
875 0 51.231 11.7702 603 88.2769 466.504 475.862
876 0 57.1068 14.2365 813 81.7454 466.506 479.058
877 0 55.1334 12.7872 705 88.8496 465.984 481.135
878 0 60.1052 14.5245 873 83.3494 466.164 488.739
879 0 60.1126 13.1919 793 88.4351 466.459 490.844
880 0 61.1987 12.7944 783 90.7318 465.829 496.594
881 0 58.0869 10.7081 622 90.7749 466.375 502.73
882 0 61.1366 11.7278 717 89.3752 465.992 500.411
883 0 71.1294 10.024 713 90.0603 466.443 501.217
884 0 68.1172 13.1832 898 85.049 466.507 495.881
885 0 70.1354 15.6269 1096 77.0821 465.642 492.194
886 0 71.0995 15.3025 1088 78.7408 466.418 492.628
887 0 71.0995 15.3025 1088 158.586 466.418 492.628
888 0 77.1408 15.2967 1180 78.472 466.608 491.561
889 0 79.1285 15.7465 1246 78.2207 466.596 491.363
890 0 79.1285 15.7465 1246 156.096 466.597 491.315
891 0 83.1183 15.3516 1276 79.1309 466.703 487.4
892 0 85.097 15.8877 1352 77.997 466.374 485.578
893 0 88.1298 15.4318 1360 78.8419 467.005 482.315
894 0 91.1834 15.3427 1399 79.6962 466.737 477.979
895 1 50.1022 12.9336 648 88.5494 466.472 497.668
896 0 51.1088 12.9136 660 89.1985 466.156 498.603
897 0 50.1013 12.9538 649 89.5223 467.425 495.319
898 0 53.1384 13.3425 709 92.2736 467.054 502.039
899 0 53.0552 14.1174 749 91.8385 466.889 501.939
900 0 54.1004 13.6598 739 93.5129 468.118 501.801
901 0 57.0418 13.4112 765 94.3386 467.847 501.187
902 0 56.1205 13.6314 765 95.1333 467.987 501.827
903 0 59.1029 13.7049 810 95.1864 466.956 499.951
904 0 61.1978 14.3142 876 94.7705 467.381 497.832
905 0 63.1877 13.7843 871 94.9104 467.408 496.536
906 0 64.1128 13.679 877 94.9065 467.314 495.571
907 0 65.1346 14.3242 933 93.8553 467.093 494.989
908 0 67.0907 13.9811 938 94.0416 467.354 494.955
909 0 69.0735 14.2891 987 92.0061 468.468 492.874
910 0 70.0957 14.1806 994 92.2103 467.642 490.937
911 0 73.1796 14.116 1033 92.0378 467.937 491.596
912 0 75.1615 14.0631 1057 92.3879 466.773 490.979
913 0 76.1847 14.3205 1091 91.6123 466.971 488.913
914 0 80.2304 14.3586 1152 91.4106 466.885 488.153
915 0 82.1222 14.0888 1157 91.1348 467.45 487.113
916 0 86.1483 14.2661 1229 90.7795 467.056 485.836
917 1 46.1652 12.2603 566 94.6837 467.058 504.385
918 0 47.1126 13.4783 635 91.074 466.803 503.159
919 0 49.0806 12.9787 637 87.6593 467.204 502.495
920 0 49.0849 13.0183 639 90.446 466.282 502.241
921 0 52.0379 13.7208 714 85.5756 467.268 501.448
922 0 52.0379 13.74 715 160.993 468.256 501.453
923 0 51.0185 12.9757 662 86.8399 467.02 502.225
924 0 53.024 13.0695 693 86.1371 466.696 502.883
925 0 54.0159 13.1628 711 87.5359 466.346 501.952
926 0 56.0282 13.1362 736 87.9565 466.734 501.372
927 0 56.053 13.2196 741 89.4453 466.34 502.099
928 0 60.0296 13.2601 796 89.3128 466.054 500.636
929 0 61.1395 13.6573 835 88.7281 466.977 500.326
930 0 63.0669 13.1606 830 91.5952 466.117 500.049
931 0 64.0644 13.5332 867 93.5663 465.709 497.957
932 0 66.1415 13.4258 888 94.6926 465.295 496.644
933 0 69.0458 14.1356 976 93.0564 464.713 494.474
934 0 71.056 14.1016 1002 94.6886 464.922 493.922
935 0 72.0819 13.443 969 98.6161 465.319 492.359
936 0 77.0857 14.1531 1091 95.8818 464.691 491.871
937 0 78.1543 14.1899 1109 97.6501 464.857 490.296
938 0 79.0978 14.3114 1132 98.4867 464.663 489.407
939 0 81.1124 14.1162 1145 100.616 464.691 487.428
940 0 83.0966 14.1161 1173 101.429 464.641 486.978
941 0 85.0727 13.8 1174 101.918 464.279 486.482
942 0 88.0693 14.0685 1239 101.731 463.936 484.821
943 0 89.095 13.9065 1239 103.051 463.777 483.168
944 0 91.1431 13.8244 1260 104.179 463.818 481.572
945 0 94.0851 14.5932 1373 102.14 464.31 481.162
946 0 96.0748 13.2085 1269 106.986 463.933 479.738
947 0 100.092 14.137 1415 103.948 464.277 477.442
948 0 100.042 13.7742 1378 104.123 464.633 476.748
949 0 102.105 13.6526 1394 105.531 464.527 474.962
950 0 108.226 13.592 1471 105.268 464.46 470.948
951 0 112.089 13.7926 1546 111.757 465.129 472.166
952 0 117.057 13.5234 1583 110.92 465.155 469.894
953 1 60.0526 13.1218 788 113.174 465.994 494.458
954 0 63.0566 13.6227 859 109.094 465.307 493.289
955 0 64.0622 13.284 851 107.9 466.021 491.61
956 0 64.0428 13.7877 883 97.6116 465.857 490.266
957 0 67.0937 13.1756 884 98.2025 465.975 490.655
958 0 66.0697 13.0771 864 100.957 466.001 488.428
959 0 69.1037 13.3423 922 100.282 465.841 487.623
960 0 72.0412 13.5756 978 99.3303 466.588 486.881
961 0 72.0961 12.9965 937 101.936 465.447 486.297
962 0 76.0199 13.3518 1015 99.7369 465.698 484.21
963 0 79.1151 13.2465 1048 99.1536 466.309 483.658
964 0 80.1126 13.1565 1054 100.801 466.028 483.639
965 0 83.1422 12.8575 1069 101.348 466.298 482.819
966 0 87.1862 13.1672 1148 99.9364 466.731 480.745
967 0 88.1281 13.3782 1179 99.7252 466.05 481.941
968 0 93.1138 13.1882 1228 99.1401 466.327 479.286
969 0 96.0999 12.4038 1192 100.013 466.404 475.732
970 1 51.1474 12.1414 621 103.512 465.976 496.177
971 0 53.1434 12.9649 689 99.5399 466.472 494.959
972 0 53.0333 13.3501 708 100.394 466.333 494.453
973 0 53.0369 12.7647 677 103.827 466.929 494.731
974 0 56.0989 12.5671 705 103.123 467.067 493.19
975 0 56.0466 12.561 704 104.759 466.646 491.797
976 0 58.088 12.6876 737 102.94 467.217 491.554
977 0 60.0922 12.5141 752 105.402 467.46 488.33
978 0 62.1226 12.6202 784 105.235 467.922 489.254
979 0 66.139 12.6552 837 113.628 468.007 487.465
980 0 66.0658 12.9719 857 114.723 468.149 487.821
981 0 69.0537 13.0188 899 114.895 468.287 485.836
982 0 71.1007 13.0097 925 106.105 468.667 485.658
983 0 74.0641 13.3398 988 105.898 467.692 484.667
984 0 74.1328 12.6395 937 110.366 467.732 483.578
985 0 80.0823 13.1864 1056 107.045 467.818 483.908
986 0 81.1762 12.8486 1043 108.943 467.016 482.636
987 0 83.1642 13.2389 1101 108.921 468.282 482.968
988 0 85.1777 13.4073 1142 109.011 467.638 481.249
989 0 88.1289 13.4235 1183 108.815 467.307 481.816
990 0 89.1667 13.043 1163 110.47 466.451 479.138
991 0 93.162 13.074 1218 108.504 467.456 477.574
992 0 96.1782 13.4438 1293 108.647 467.029 471.295
993 1 52.068 9.8525 513 108.998 467.324 491.429
994 0 54.0652 11.2642 609 106.149 466.961 490.225
995 0 56.0824 11.5188 646 105.656 467.509 489.376
996 0 57.0284 11.503 656 105.212 466.986 487.646
997 0 60.0929 12.7802 768 107.18 467.371 498.09
998 0 61.0538 12.6773 774 108.792 467.284 496.43
999 0 64.0799 12.2659 786 107.595 467.508 493.426
1000 0 67.0617 12.3916 831 105.497 467.499 492.124
1001 0 68.074 12.6627 862 105.049 467.391 488.689
1002 0 69.1275 13.1062 906 105.541 467.226 487.246
1003 0 70.1455 12.7735 896 107.386 467.237 485.518
1004 0 72.0872 12.7346 918 108.208 467.602 484.122
1005 0 73.1045 12.4343 909 109.787 468.791 482.653
1006 0 78.0652 12.6305 986 107.001 467.955 482.766
1007 0 80.1157 12.7191 1019 108.363 468.555 480.637
1008 0 81.078 12.8025 1038 108.671 468.332 481.256
1009 0 84.1027 12.4372 1046 109.273 468.187 478.187
1010 0 87.0936 12.4808 1087 109.632 467.862 477.567
1011 0 89.1037 12.3901 1104 109.422 468.046 477.346
1012 0 91.0513 13.0146 1185 106.736 468.127 468.308
1013 0 93.0493 12.0689 1123 108.691 468.358 466.65
1014 1 48.032 8.18204 393 94.2748 468.005 496.018
1015 0 48.0331 9.26444 445 91.4921 467.897 497.553
1016 0 54.0477 11.0643 598 98.3194 467.751 501.849
1017 0 55.0126 12.1063 666 95.8288 468.341 503.212
1018 0 56.0325 11.4041 639 92.867 469.092 503.307
1019 0 56.0817 11.5724 649 95.208 468.838 501.792
1020 0 58.0349 11.7516 682 93.9839 468.994 500.745
1021 0 60.0202 11.3628 682 93.563 468.377 500.157
1022 0 59.0141 11.7091 691 93.0029 468.098 499.333
1023 0 63.0328 11.3433 715 92.6378 468.818 498.064
1024 0 63.0387 11.1995 706 92.6969 469.425 496.49
1025 0 66.0429 12.0679 797 90.7152 468.344 496.103
1026 0 65.0339 11.0865 721 93.0139 468.689 495.24
1027 0 67.0452 11.2163 752 92.5239 468.378 494.33
1028 0 69.0285 12.053 832 89.5998 467.995 493.968
1029 0 70.1706 11.415 801 91.3733 467.512 493.124
1030 0 72.0594 11.435 824 90.8483 467.524 490.362
1031 0 74.078 10.9209 809 91.7379 467.828 489.989
1032 0 77.0436 11.5779 892 90.6435 467.872 487.821
1033 0 76.0889 10.882 828 92.8394 467.38 487.243
1034 0 81.0363 11.5751 938 91.5373 467.579 484.903
1035 0 83.0458 11.1144 923 91.3424 467.204 484.712
1036 0 82.0394 10.5193 863 92.3592 467.565 483.586
1037 0 83.0746 9.95491 827 93.7545 468.093 482.152
1038 0 87.0519 10.6948 931 91.9119 467.554 480.726
1039 0 90.0665 10.9475 986 91.8489 467.595 478.998
1040 0 92.0566 10.3849 956 94.2406 467.366 478.091
1041 0 94.0959 10.7231 1009 94.3885 467.549 475.312
1042 0 98.0635 11.2376 1102 92.4664 467.407 475.904
1043 0 99.0663 10.5081 1041 94.3766 467.646 474.148
1044 0 101.112 10.2164 1033 95.7357 467.828 472.55
1045 0 106.165 10.3989 1104 95.8524 467.263 467.172
1046 0 108.141 9.62632 1041 95.342 466.979 465.081
1047 0 115.076 11.1144 1279 92.4543 466.754 464.91
1048 1 63.1096 9.45973 597 90.7253 467.075 493.37
1049 0 67.0987 9.97039 669 90.6502 467.592 493.263
1050 0 67.0791 9.61551 645 92.0512 467.462 491.451
1051 0 70.042 9.59424 672 90.0104 467.101 490.018
1052 0 72.1058 10.2766 741 98.8097 467.614 490.761
1053 0 75.1199 9.89086 743 99.0633 467.795 489.676
1054 0 77.072 10.328 796 102.074 468.143 488.234
1055 0 80.0339 9.85833 789 104.076 468.654 484.959
1056 0 83.0578 10.6673 886 102.65 468.351 483.205
1057 0 87.0674 9.70513 845 102.904 469.039 483.388
1058 0 91.0853 11.9448 1088 97.2031 468.401 483.013
1059 0 93.1236 11.082 1032 98.2529 468.298 483.639
1060 0 95.0473 10.9209 1038 98.1243 468.106 478.137
1061 0 98.0639 10.4626 1026 99.0146 468.301 476.537
1062 0 100.144 10.8643 1088 97.9632 468.366 478.635
1063 0 103.158 11.7974 1217 98.2514 467.584 476.371
1064 0 105.141 11.3752 1196 100.802 467.912 473.98
1065 0 110.141 10.9768 1209 97.8164 467.627 474.883
1066 0 113.11 10.4588 1183 96.3542 467.736 472.872
1067 1 57.0365 9.87088 563 86.8259 467.913 501.847
1068 0 59.0597 10.701 632 84.0712 467.93 502.676
1069 0 60.0666 10.3219 620 86.121 467.913 500.053
1070 0 62.0742 11.1479 692 85.2977 468.068 499.303
1071 0 65.0404 11.1469 725 85.9669 468.592 498.823
1072 0 66.1115 11.889 786 94.3511 468.79 497.51
1073 0 68.0494 11.4329 778 90.2134 469.086 499.638
1074 0 69.0472 12.1511 839 89.615 468.549 498.948
1075 0 70.1538 11.0472 775 93.6684 468.787 497.738
1076 0 71.0313 11.1782 794 94.8577 468.262 496.771
1077 0 72.1169 11.4814 828 96.3901 468.577 497.289
1078 0 76.0582 11.5569 879 96.438 467.562 494.736
1079 0 77.1079 12.087 932 96.794 467.533 494.989
1080 0 80.1135 11.3963 913 99.954 468.468 494.287
1081 0 80.0973 11.6733 935 101.483 468.851 491.161
1082 0 84.1483 12.0145 1011 100.847 468.073 489.206
1083 0 87.0939 11.8263 1030 102.025 468.432 488.868
1084 0 88.0707 12.0017 1057 102.783 467.765 488.868
1085 0 91.0699 11.4198 1040 102.726 467.856 486.609
1086 0 94.1344 11.5473 1087 104.074 467.626 484.309
1087 0 94.1521 11.8425 1115 102.807 467.359 485.049
1088 0 99.1561 11.4869 1139 102.038 467.743 483.105
1089 0 102.091 11.9697 1222 115.338 467.324 481.697
1090 0 103.098 11.1932 1154 119.17 467.823 480.51
1091 0 108.158 11.8253 1279 117.127 467.728 477.1
1092 1 60.0873 10.6345 639 114.67 467.947 501.703
1093 0 61.0516 10.5157 642 112.182 467.998 500.59
1094 0 64.0413 11.3833 729 109.679 467.584 499.834
1095 0 64.0483 11.9441 765 112.025 466.97 499.059
1096 0 65.0327 11.9478 777 114.838 467.345 499.691
1097 0 66.0478 11.3857 752 116.328 467.057 498.219
1098 0 68.0304 11.3185 770 114.961 467.221 498.477
1099 0 72.0562 11.8935 857 112.264 468.187 498.725
1100 0 74.0471 11.8573 878 111.282 468.826 497.237
1101 0 76.046 11.5983 882 110.074 468.188 496.069
1102 0 77.0324 11.0213 849 110.59 469.125 496.26
1103 0 80.0927 11.7364 940 108.144 468.341 493.748
1104 0 81.0607 11.8677 962 107.734 468.255 494.029
1105 0 85.0848 11.7295 998 108.085 467.449 491.581
1106 0 87.0777 11.3002 984 107.45 467.754 490.189
1107 0 90.0524 11.3823 1025 105.48 467.854 489.297
1108 0 91.0748 11.6388 1060 105.789 467.286 486.367
1109 0 93.0931 10.8708 1012 106.722 467.578 486.521
1110 0 96.0972 11.2803 1084 105.767 467.524 483.77
1111 0 102.135 11.3086 1155 104.13 467.76 483.771
1112 0 105.107 11.5406 1213 102.046 467.36 482.641
1113 0 107.093 11.7561 1259 101.707 466.908 480.481
1114 1 57.0172 11.2598 642 102.271 466.991 505.34
1115 0 61.0665 11.3483 693 100.163 467.495 504.104
1116 0 63.0528 11.7362 740 100.393 467.189 502.785
1117 0 63.0881 11.7455 741 101.756 466.957 502.379
1118 0 66.0795 11.8948 786 100.785 466.987 501.345
1119 0 67.1024 12.5629 843 98.879 467.456 498.179
1120 0 71.1262 12.8645 915 96.5355 467.163 498.583
1121 0 72.0866 12.2492 883 100.054 467.818 497.781
1122 0 71.0896 11.2956 803 105.262 467.902 498.704
1123 0 75.1687 11.9997 902 103.691 466.911 497.611
1124 0 76.0814 11.8163 899 106.683 467.565 496.142
1125 0 78.1111 11.4196 892 109.407 466.697 495.383
1126 0 79.1414 11.4479 906 110.245 467.449 493.312
1127 0 82.086 10.9641 900 112.017 466.832 493.031
1128 0 83.1648 11.2067 932 112.131 466.938 492.065
1129 0 86.0934 10.7674 927 113.442 467.565 491.78
1130 0 90.1545 11.4026 1028 112.383 467.123 488.293
1131 0 92.0875 11.1742 1029 114.283 467.826 488.34
1132 0 94.1315 11.5158 1084 114.943 468.33 485.061
1133 0 98.0615 10.9625 1075 115.717 467.753 484.336
1134 0 100.071 11.4318 1144 114.434 467.978 482.858
1135 0 103.142 11.683 1205 114.921 468.054 480.661
1136 0 105.162 12.029 1265 115.633 467.851 480.587
1137 0 108.154 12.4822 1350 113.35 467.618 478.302
1138 0 114.215 12.564 1435 112.819 467.217 475.644
1139 1 60.2138 10.4129 627 120.662 466.541 501.249
1140 0 62.2481 10.1369 631 120.653 467.287 500.434
1141 0 64.0655 10.7702 690 106.346 467.436 499.73
1142 0 65.0781 11.6936 761 105.059 466.606 500.214
1143 0 67.0537 11.5132 772 110.087 466.944 497.547
1144 0 70.0514 12.034 843 107.365 467.147 498.098
1145 0 72.0816 12.5275 903 106.305 467.076 496.091
1146 0 72.0164 12.3444 889 110.685 466.836 497.004
1147 0 75.0326 12.3147 924 110.225 467.409 496.474
1148 0 75.0295 12.1419 911 112.537 466.55 494.965
1149 0 76.0893 11.6442 886 113.98 466.301 494.694
1150 0 78.0513 11.6462 909 99.637 466.409 493.396
1151 0 81.1069 11.5896 940 99.8511 466.467 492.418
1152 0 82.0708 11.3439 931 100.849 466.212 492.133
1153 0 84.067 11.1578 938 102.152 467.326 489.701
1154 0 87.1509 11.3826 992 102.412 467.515 488.952
1155 0 89.0276 11.1651 994 102.983 466.842 486.452
1156 0 93.1346 11.1452 1038 103.088 467.078 485.351
1157 0 94.0962 11.1269 1047 102.952 467.149 485.368
1158 0 98.0592 11.748 1152 101.116 466.845 483.359
1159 0 100.062 10.9033 1091 103.181 466.839 483.138
1160 0 105.124 12.0524 1267 99.9369 466.438 481.986
1161 0 106.056 11.7485 1246 101.7 466.589 481.848
1162 0 109.166 11.8627 1295 101.137 466.732 479.666
1163 0 111.076 11.5147 1279 101.946 466.367 478.202
1164 0 114.115 11.5761 1321 101.406 466.554 477.169
1165 0 119.071 12.1021 1441 100.334 466.592 474.134
1166 0 122.093 12.2857 1500 100.162 466.573 471.337
1167 0 128.195 11.7166 1502 99.9581 467.004 469.353
1168 0 130.178 11.4997 1497 99.1296 465.987 469.09
1169 0 137.072 11.5924 1589 96.511 466.111 464.577
1170 0 141.103 11.2117 1582 97.1618 465.837 464.224
1171 0 148.234 11.7787 1746 95.6237 465.869 460.185
1172 1 86.1286 10.7165 923 97.8191 466.703 491.389
1173 0 89.1131 12.198 1087 95.0837 465.691 490.615
1174 0 92.0906 12.5529 1156 98.1488 465.839 488.389
1175 0 94.0733 12.7241 1197 93.883 466.41 486.952
1176 0 98.0911 12.6719 1243 94.2068 466.432 485.434
1177 0 100.076 12.5805 1259 95.5838 466.369 484.617
1178 0 104.182 12.8909 1343 94.9114 465.487 480.809
1179 0 108.243 12.6475 1369 96.8503 466.679 477.898
1180 0 113.134 13.3381 1509 97.9245 466.165 476.411
1181 0 115.207 12.994 1497 96.5077 466.933 475.364
1182 0 118.21 11.9195 1409 99.6274 466.346 473.825
1183 0 124.311 12.8468 1597 95.3406 466.152 470.698
1184 1 66.1252 10.9036 721 92.8141 467.516 498.252
1185 0 68.2139 10.6576 727 91.5488 466.776 494.937
1186 0 72.1332 11.659 841 96.9893 467.49 497.742
1187 0 76.087 12.052 917 94.5463 465.781 496.677
1188 0 79.078 12.2284 967 93.5067 466.706 494.977
1189 0 81.1052 11.7378 952 94.9317 465.733 494.661
1190 0 83.1022 12.1056 1006 93.7584 466.776 493.377
1191 0 86.0836 11.7792 1014 95.8176 466.524 490.435
1192 0 89.1026 12.4463 1109 93.5365 466.307 491.192
1193 0 92.2122 11.6145 1071 95.6461 467.22 488.588
1194 0 94.1327 11.8025 1111 95.0306 466.558 487.571
1195 0 98.1907 12.048 1183 94.4176 466.238 484.469
1196 0 101.143 12.2599 1240 93.7992 466.872 482.515
1197 0 104.14 11.811 1230 94.7228 466.346 482.207
1198 0 106.135 11.3346 1203 97.7207 466.294 479.136
1199 0 110.115 12.0783 1330 94.5489 466.157 478.76
1200 0 112.105 11.5784 1298 96.094 466.378 478.062
1201 0 115.136 11.7774 1356 96.177 465.933 476.662
1202 1 63.0561 11.1488 703 93.1607 466.853 500.765
1203 0 65.0865 11.0776 721 89.9445 465.474 499.827
1204 0 68.0931 11.4402 779 85.3941 464.949 499.461
1205 0 68.0323 10.9654 746 85.3512 465.229 498.737
1206 0 68.1229 11.993 817 87.0942 465.786 498.054
1207 0 69.0163 12.0406 831 89.207 466.591 498.625
1208 0 71.1121 11.6998 832 89.2452 465.635 499.828
1209 0 73.1335 11.4858 840 90.3833 466.349 498.448
1210 0 79.0839 11.9873 948 90.3861 465.696 495.914
1211 0 76.0438 11.3093 860 92.264 466.208 496.073
1212 0 78.1101 11.0869 866 93.4169 466.174 496.129
1213 0 81.113 11.7367 952 92.8739 466.379 492.702
1214 0 85.1809 11.8336 1008 92.8155 465.61 493.222
1215 0 86.2187 11.4244 985 94.4223 466.219 491.035
1216 0 90.0591 11.8478 1067 91.9175 465.806 491.96
1217 0 93.1681 11.3021 1053 92.8936 466.207 490.479
1218 0 97.1105 11.4921 1116 92.3441 466.366 488.024
1219 0 98.1487 10.8101 1061 94.5052 465.907 487.964
1220 0 102.172 11.1674 1141 93.5513 465.732 484.215
1221 1 55.0812 10.9838 605 94.8066 466.896 505.299
1222 0 55.0812 10.8567 598 130.813 466.898 505.381
1223 0 57.1648 10.391 594 99.1178 465.258 502.557
1224 0 57.063 9.63847 550 86.2109 466.235 505.075
1225 0 59.0449 10.3481 611 84.9853 466.7 504.964
1226 0 61.1393 10.3861 635 84.2693 467.03 503.82
1227 0 61.0649 9.64547 589 84.8387 466.097 504.231
1228 0 63.0576 9.6737 610 84.7115 467.298 502.251
1229 0 65.0713 9.3436 608 86.1151 467.243 501.827
1230 0 67.0593 10.1999 684 83.8699 467.715 500.408
1231 0 68.06 10.285 700 84.5429 466.626 499.444
1232 0 73.0769 10.5505 771 82.511 466.807 497.73
1233 0 74.0925 11.1212 824 81.9175 466.513 495.001
1234 0 76.104 10.9981 837 82.3333 466.28 495.053
1235 0 78.1035 10.883 850 82.9224 466.242 494.052
1236 0 82.1027 10.5478 866 82.7564 466.048 492.96
1237 0 85.1319 11.5585 984 81.6646 466.561 489.3
1238 0 89.128 11.7696 1049 81.408 466.446 488.641
1239 0 92.1973 11.714 1080 83.225 467.216 487.072
1240 0 95.1028 11.4928 1093 85.978 467.761 484.645
1241 0 99.1164 11.3099 1121 84.3595 466.738 484.281
1242 0 100.167 11.1614 1118 85.4123 466.123 480.142
1243 1 52.1295 9.74496 508 79.4134 466.876 506.661
1244 0 54.1479 10.3605 561 77.2531 466.241 506.811
1245 0 55.0304 10.4669 576 76.9392 467.453 505.373
1246 0 57.1176 10.5922 605 76.8959 466.729 503.929
1247 0 60.0601 12.1545 730 75.4301 466.578 502.918
1248 0 58.2136 10.6676 621 78.1868 467.124 504.841
1249 0 59.1064 10.5234 622 79.1833 467.31 502.476
1250 0 61.1032 10.6541 651 79.0338 466.816 501.73
1251 0 62.1365 10.6057 659 79.6388 467.017 500.448
1252 0 65.1049 11.013 717 78.5649 467.17 498.778
1253 0 67.0927 11.4618 769 78.1092 467.187 498.255
1254 0 71.124 11.965 851 77.3549 467.368 497.522
1255 0 73.0911 12.0535 881 77.6697 468.253 496.754
1256 0 76.107 12.4036 944 78.8538 467.603 495.516
1257 0 78.077 12.3852 967 78.4736 468.247 495.532
1258 0 81.1136 12.4517 1010 78.101 468.053 493.175
1259 0 81.1299 12.0547 978 80.3466 466.772 493.623
1260 0 84.1945 11.8773 1000 80.959 467.748 491.215
1261 0 85.0868 11.741 999 81.4494 466.921 491.02
1262 0 90.1375 12.5697 1133 79.3919 466.974 489.079
1263 0 93.2557 12.6963 1184 80.1698 466.444 486.05
1264 0 94.2567 12.4447 1173 81.8014 466.532 483.35
1265 0 96.2122 12.514 1204 81.8405 466.166 480.175
1266 0 101.24 13.2754 1344 79.9301 465.959 481.264
1267 0 101.263 12.3836 1254 83.0271 466.246 478.909
1268 0 106.163 13.0836 1389 80.9107 466.369 477.737
1269 1 55.1614 10.3696 572 84.1678 465.745 503.185
1270 0 59.2056 11.5192 682 81.4413 466.422 502.356
1271 0 61.1318 11.9087 728 80.4272 466.574 501.018
1272 0 61.1817 12.0134 735 82.9946 466.09 500.022
1273 0 65.1164 12.9921 846 86.2376 467.037 501.543
1274 0 68.1308 13.2539 903 89.8494 466.539 498.733
1275 0 70.0899 12.6124 884 90.5781 466.447 499.051
1276 0 72.095 12.7332 918 90.5163 466.297 496.959
1277 0 72.146 12.9598 935 91.5968 466.234 495.835
1278 0 76.1228 12.9527 986 91.6318 466.198 494.798
1279 0 79.0459 13.3214 1053 91.264 467.079 493.34
1280 0 83.1666 13.2385 1101 91.6512 466.45 491.104
1281 0 84.0799 13.2374 1113 92.8778 466.116 489.161
1282 0 86.054 13.201 1136 93.6576 466.316 489.783
1283 0 89.1037 13.5011 1203 93.2328 466.767 490.408
1284 0 91.1172 12.7528 1162 96.2134 466.854 486.669
1285 0 95.0624 13.0756 1243 94.3009 466.451 485.916
1286 0 97.1525 13.2987 1292 93.887 466.982 483.918
1287 0 101.108 14.0444 1420 92.0662 466.899 483.118
1288 0 101.085 15.2743 1544 89.5142 467.21 484.648
1289 0 107.115 13.7982 1478 92.751 467.16 481.631
1290 0 111.141 13.6044 1512 92.7626 467.917 479.603
1291 0 113.082 13.6096 1539 92.5068 467.596 476.618
1292 0 117.144 13.7694 1613 92.5133 467.565 475.457
1293 0 119.132 13.8082 1645 93.3921 467.535 473.271
1294 0 122.147 13.4428 1642 94.553 467.456 472.644
1295 0 125.131 13.346 1670 95.297 467.117 468.395
1296 0 131.161 14.0362 1841 92.7382 466.649 468.631
1297 0 135.162 13.924 1882 92.6344 467.481 466.831
1298 0 138.116 13.8 1906 92.4612 466.939 465.419
1299 0 142.08 13.5627 1927 92.465 467.083 463.743
1300 0 147.123 13.8252 2034 93.1111 467.638 458.697
1301 0 151.143 13.7354 2076 94.1618 466.841 458.188
1302 0 153.13 13.5702 2078 93.9018 467.407 453.718
1303 0 160.15 13.1127 2100 94.8038 466.773 449.885
1304 0 166.188 13.22 2197 94.7396 467.597 451.926
1305 1 95.0352 13.3529 1269 91.5784 467.913 485.974
1306 0 96.0691 12.9906 1248 91.4848 468.234 483.239
1307 0 98.1021 13.1801 1293 93.8113 468.09 482.183
1308 0 100.066 12.5418 1255 89.4781 466.729 483.417
1309 0 102.09 12.6947 1296 89.3233 466.581 482.755
1310 0 106.069 12.3316 1308 89.7882 467.097 482.453
1311 0 111.069 12.6588 1406 89.5647 467.436 479.264
1312 0 113.118 12.7124 1438 89.283 466.318 478.753
1313 0 116.17 12.6711 1472 89.373 466.537 477.1
1314 0 120.131 12.0535 1448 89.2403 466.915 473.126
1315 0 125.077 13.0239 1629 85.2818 467.7 471.089
1316 0 129.096 12.4249 1604 86.0748 466.688 467.541
1317 0 132.125 12.2006 1612 86.1948 467.441 465.566
1318 0 136.119 11.9895 1632 87.5999 466.71 464.547
1319 1 80.0965 11.8857 952 88.0053 466.238 494.145
1320 0 78.0772 10.8739 849 87.8033 466.163 489.633
1321 0 85.1068 13.6652 1163 72.8315 467.522 491.195
1322 0 86.0394 12.9011 1110 88.4964 466.477 489.733
1323 0 91.0339 12.2152 1112 89.2518 465.862 488.237
1324 0 94.0702 12.8734 1211 87.052 466.424 487.602
1325 0 94.0207 12.4334 1169 87.8768 466.419 486.628
1326 0 99.1665 12.3227 1222 87.8543 466.41 483.651
1327 0 100.104 12.2472 1226 86.2529 468.737 484.126
1328 0 105.098 12.7786 1343 85.2383 467.607 482.631
1329 0 105.132 11.3666 1195 87.7782 466.948 481.722
1330 0 107.124 11.8368 1268 87.5047 466.598 478.132
1331 0 112.065 11.8235 1325 86.1894 465.823 476.756
1332 0 115.124 11.9523 1376 85.5029 466.407 476.492
1333 0 118.126 11.6485 1376 84.9041 466.116 475.352
1334 1 66.0721 10.761 711 81.4304 466.129 500.343
1335 0 68.1048 11.5557 787 80.5909 465.323 499.06
1336 0 69.0161 12.4753 861 76.4181 466.122 498.699
1337 0 72.1032 11.8164 852 83.9354 466.504 497.148
1338 0 75.123 12.7524 958 82.1983 466.103 496.241
1339 0 76.1757 12.2611 934 84.4101 465.166 495.177
1340 0 81.1511 12.6308 1025 83.9122 465.694 494.147
1341 0 83.1364 11.3909 947 83.8226 466.59 493.077
1342 0 84.167 11.7861 992 83.2752 466.048 493.216
1343 0 88.1071 12.4621 1098 81.7313 466.292 489.866
1344 0 90.1359 11.6047 1046 83.5937 466.242 489.469
1345 0 92.1617 11.9138 1098 82.4007 466.377 491.344
1346 0 95.1077 11.6815 1111 74.7516 466.283 488.109
1347 0 96.0823 10.8032 1038 77.8979 465.564 486.384
1348 1 54.0725 10.6709 577 77.7106 466.315 508.175
1349 0 55.0845 10.3114 568 79.5475 465.912 507.002
1350 0 55.0432 10.628 585 79.2479 465.397 506.077
1351 0 58.1246 11.3205 658 78.6976 465.989 505.277
1352 0 59.0886 12.1512 718 77.2535 465.714 504.393
1353 0 60.1398 12.5541 755 76.8437 465.632 504
1354 0 62.0456 12.9905 806 75.3189 465.567 504.118
1355 0 63.2209 12.1795 770 78.3325 466.288 505.039
1356 0 67.1767 11.8642 797 77.9674 466.029 504.123
1357 0 69.2742 13.0063 901 75.616 465.506 502.213
1358 0 69.1542 12.5661 869 77.6122 466.428 501.663
1359 0 71.0914 12.2237 869 77.58 466.071 500.871
1360 0 73.1841 12.5984 922 75.9165 465.433 498.834
1361 0 77.1888 12.9682 1001 75.5015 465.571 497.647
1362 0 77.1526 12.3521 953 77.2581 466.174 497.96
1363 0 78.2108 12.3896 969 79.0361 465.938 498.415
1364 0 80.1812 12.3595 991 78.8244 466.025 497.022
1365 0 83.2105 12.21 1016 79.9685 466.574 493.952
1366 0 87.2517 12.7104 1109 83.2876 466.309 491.038
1367 0 91.2826 12.8283 1171 81.7805 466.329 488.98
1368 0 94.2377 12.7974 1206 81.4022 465.811 486.703
1369 0 96.2578 12.5288 1206 81.4527 466.342 486.453
1370 0 97.2726 12.4187 1208 81.5919 465.748 483.236
1371 0 100.132 12.9929 1301 79.6426 465.655 484.762
1372 1 55.0764 10.6398 586 78.9744 466.128 509.276
1373 0 56.1004 10.8199 607 80.3427 465.928 505.539
1374 0 56.0834 11.6255 652 81.362 465.828 503.699
1375 0 57.085 12.5077 714 80.4678 465.838 505.78
1376 0 60.1496 12.153 731 80.1313 465.456 504.588
1377 0 63.0422 12.3885 781 79.4289 465.52 503.734
1378 0 62.0677 12.5186 777 82.2291 465.523 503.99
1379 0 64.0633 12.8623 824 79.9842 466.017 503.493
1380 0 63.0654 12.6218 796 84.8216 465.299 503.803
1381 0 65.0315 12.7938 832 86.5433 465.245 503.605
1382 0 63.0568 12.4967 788 89.9734 465.232 503.129
1383 0 65.0156 13.1353 854 82.9098 465.235 504.326
1384 0 67.0561 12.661 849 82.0188 465.998 504.014
1385 0 69.0116 12.6066 870 80.0276 465.997 502.121
1386 0 70.0382 11.4937 805 80.1789 465.537 503.098
1387 0 71.0607 12.4541 885 77.7232 464.932 502.246
1388 0 75.0394 12.1403 911 77.3008 465.158 499.251
1389 0 79.098 12.7184 1006 74.6451 464.591 498.878
1390 0 77.1206 12.5258 966 76.4348 464.765 497.514
1391 0 82.1436 12.1129 995 78.0211 464.839 495.675
1392 0 83.1191 12.7648 1061 78.9189 465.813 497
1393 0 84.1035 12.5203 1053 82.056 465.613 493.969
1394 0 87.1008 12.8931 1123 83.8272 465.479 493.879
1395 0 89.089 12.6727 1129 86.0673 465.192 491.5
1396 0 94.178 13.5594 1277 86.0446 464.673 490.529
1397 0 96.1533 13.3225 1281 89.1007 465.004 488.784
1398 0 97.0992 13.5943 1320 90.422 464.436 486.967
1399 0 99.113 13.308 1319 92.4594 464.724 486.874
1400 1 51.1224 11.7757 602 92.0515 463.844 511.64
1401 0 55.0893 12.2891 677 94.3501 464.29 509.585
1402 0 56.0825 12.9987 729 95.1536 464.237 508.786
1403 0 54.0202 12.2362 661 99.7716 464.67 510.933
1404 0 58.0626 12.5037 726 99.646 464.671 509.161
1405 0 58.0292 13.2692 770 101.801 465.095 508.09
1406 0 60.0199 13.129 788 103.211 464.654 507.563
1407 0 61.022 13.0117 794 106.495 464.491 506.971
1408 0 63.0678 13.0019 820 108.099 464.166 505.411
1409 0 64.0605 13.4248 860 109.386 464.602 504.655
1410 0 65.0462 13.6826 890 110.827 464.754 504.41
1411 0 68.0322 13.817 940 110.145 464.39 503.83
1412 0 71.0593 14.0165 996 110.892 465.406 502.686
1413 0 73.0235 13.7216 1002 113.141 464.848 501.14
1414 0 74.049 13.3155 986 115.471 465.231 500.488
1415 0 76.0571 13.5293 1029 115.867 466.153 498.914
1416 0 79.063 13.3438 1055 116.787 465.213 497.982
1417 0 81.1241 13.9293 1130 125.235 465.617 497.627
1418 0 84.0782 13.654 1148 126.161 465.255 495.143
1419 0 87.1041 13.9029 1211 124.088 465.846 493.484
1420 0 89.0458 14.0265 1249 124.37 465.905 493.006
1421 0 91.1202 13.6084 1240 124.081 465.496 492.001
1422 0 97.0923 14.4296 1401 118.221 465.186 491.592
1423 1 48.071 12.2527 589 116.576 465.192 512.89
1424 0 52.039 12.1832 634 116.573 465.67 511.831
1425 0 52.0444 12.7199 662 115.622 465.489 511.083
1426 0 56.0312 13.5103 757 110.746 465.859 509.742
1427 0 55.0523 14.0412 773 121.298 466.106 508.948
1428 0 56.0455 13.7567 771 122.328 465.978 507.573
1429 0 58.1169 14.0407 816 119.64 465.36 507.944
1430 0 60.0569 13.6204 818 120.956 466.133 506.861
1431 0 63.0678 14.2386 898 116.83 466.409 506.206
1432 0 65.0642 14.0169 912 115.221 465.582 504.894
1433 0 65.0508 13.2973 865 115.557 466.474 505.304
1434 0 67.0369 13.4553 902 114.213 465.588 503.58
1435 0 70.0202 14.1959 994 110.41 465.413 502.666
1436 0 69.0137 13.4031 925 112.717 465.618 501.024
1437 0 73.0112 13.8198 1009 108.572 465.531 499.972
1438 0 74.0351 13.6692 1012 109.502 465.446 499.126
1439 0 75.0116 13.9045 1043 108.586 465.633 497.945
1440 0 78.0351 13.8143 1078 107.654 465.193 498.177
1441 0 79.0447 14.0047 1107 107.406 464.999 496.437
1442 0 80.0741 13.2627 1062 109.593 465.622 495.153
1443 0 81.0269 13.1561 1066 108.386 466.076 494.734
1444 0 83.0365 13.2954 1104 106.969 465.662 492.433
1445 0 86.0943 13.8917 1196 105.303 464.884 490.314
1446 0 88.051 14.2417 1254 104.175 464.946 489.833
1447 0 89.1671 13.3121 1187 106.059 465.813 489.494
1448 0 91.0832 12.8674 1172 106.364 465.25 487.105
1449 0 92.1047 13.6801 1260 104.325 465.862 486.657
1450 0 96.118 13.5771 1305 103.151 465.623 486.188
1451 0 98.0761 13.5711 1331 101.85 465.014 484.604
1452 0 102.116 13.1908 1347 102.239 466.108 481.803
1453 0 103.115 13.0145 1342 101.885 465.876 481.223
1454 0 107.136 13.1328 1407 100.574 465.873 479.913
1455 0 111.095 13.4749 1497 99.1797 465.049 478.927
1456 0 113.167 12.7334 1441 99.3352 465.081 476.412
1457 1 57.0504 12.1296 692 94.6301 465.199 505.181
1458 0 58.0666 11.7968 685 96.5416 465.496 503.956
1459 0 60.1075 12.9268 777 96.1905 464.907 502.949
1460 0 61.0635 12.3969 757 97.1598 465.089 501.674
1461 0 65.0708 13.4008 872 94.4622 465.31 500.991
1462 0 67.0893 13.1317 881 94.3451 465.522 499.073
1463 0 68.0484 13.5639 923 94.6457 464.836 496.893
1464 0 70.064 13.7303 962 94.4002 464.796 496.35
1465 0 72.0482 13.4493 969 94.6388 465.538 495.017
1466 0 75.0776 14.0788 1057 92.6272 464.325 493.466
1467 0 76.0663 13.2779 1010 94.705 464.69 493.191
1468 0 79.2089 13.4328 1064 94.4408 464.573 491.323
1469 0 80.1819 13.6315 1093 93.6478 465.285 491.403
1470 0 84.1664 13.8179 1163 92.546 465.565 490.137
1471 0 86.2253 13.6967 1181 93.37 464.728 489.184
1472 0 87.1114 13.9132 1212 92.8366 465.865 486.79
1473 0 91.1873 13.0281 1188 93.8906 465.062 487.016
1474 0 96.0858 13.8938 1335 91.197 466.225 484.918
1475 0 97.1919 13.6637 1328 91.6114 465.51 482.9
1476 0 99.1379 13.4459 1333 92.2986 465.482 481.182
1477 0 103.166 14.0259 1447 90.4133 465.017 481.192
1478 1 50.121 12.1306 608 95.8717 465.255 505.354
1479 0 53.0978 12.2792 652 96.2408 465.143 503.922
1480 0 54.0757 12.6859 686 96.1647 465.552 503.402
1481 0 56.1131 13.3302 748 95.4973 465.473 501.57
1482 0 57.0596 13.8977 793 95.4124 466.011 500.139
1483 0 57.0594 13.9504 796 136.884 466.982 500.127
1484 0 62.0607 14.2925 887 95.4092 466.177 499.38
1485 0 63.1653 14.0267 886 97.0937 465.466 497.318
1486 0 65.0923 13.5193 880 99.308 465.45 497.061
1487 0 66.1267 13.9883 925 98.7816 465.166 495.904
1488 0 67.1212 13.7065 920 100.078 464.993 495.732
1489 0 70.094 13.4676 944 100.699 465.287 495.189
1490 0 74.1113 14.5322 1077 96.7976 465.436 494.448
1491 0 76.0766 14.2094 1081 98.371 464.892 494.307
1492 0 79.2061 14.6958 1164 97.317 465.198 493.075
1493 0 81.0946 15.0688 1222 96.3478 465.425 490.486
1494 0 83.1236 15.1942 1263 96.1116 464.941 489.38
1495 0 84.1279 14.9415 1257 96.564 465.26 488.213
1496 0 88.1571 15.0073 1323 94.8949 465.333 488.136
1497 0 91.1304 14.9566 1363 95.4497 465.45 487.095
1498 0 93.1267 15.291 1424 94.4621 465.052 485.568
1499 0 94.1418 14.8499 1398 96.6552 465.75 484.322
1500 0 97.0828 14.843 1441 97.0049 465.622 483.596
1501 0 101.132 15.3562 1553 95.7109 466.164 480.572
1502 0 102.118 15.0903 1541 97.6372 466.276 478.286
1503 0 108.108 15.3643 1661 96.7369 465.49 476.806
1504 0 110.068 15.2815 1682 98.478 465.788 474.624
1505 0 113.177 15.1886 1719 99.3944 465.319 472.446
1506 0 116.162 14.4368 1677 101.017 465.753 471.606
1507 0 121.145 14.7757 1790 100.581 465.075 468.615
1508 0 125.142 14.8871 1863 101.054 465.23 468.008
1509 0 129.112 15.4904 2000 99.924 465.687 466.856
1510 0 132.096 15.3071 2022 101.299 466.173 465.054
1511 0 136.096 15.3348 2087 101.613 465.625 463.375
1512 0 141.166 15.4286 2178 102 465.709 460.916
1513 0 148.185 15.7303 2331 100.648 465.638 458.891
1514 0 153.061 15.876 2430 99.7523 465.888 457.213
1515 0 157.181 16.1025 2531 98.8811 466.083 455.461
1516 1 81.0633 13.2119 1071 109.446 465.132 489.585
1517 0 85.0549 13.3561 1136 110.49 465.191 487.013
1518 0 87.071 13.8508 1206 109.827 465.029 486.574
1519 0 91.0807 14.1084 1285 109.174 465.033 485.741
1520 0 92.1034 14.1037 1299 110.707 465.432 483.476
1521 0 96.1155 14.4618 1390 108.411 465.413 482.486
1522 0 99.119 14.6894 1456 108.305 465.573 479.314
1523 0 104.062 14.1935 1477 107.716 465.723 478.026
1524 0 105.097 13.8825 1459 109.676 465.26 475.691
1525 0 109.15 14.1182 1541 109.246 466.129 473.849
1526 0 114.162 14.0414 1603 109.646 465.883 473.259
1527 0 117.141 14.7173 1724 108.265 466.46 472.112
1528 0 119.101 13.9042 1656 111.65 466.337 471.183
1529 0 122.227 14.0968 1723 111.99 466.479 469.171
1530 0 126.149 13.9042 1754 111.953 466.211 466.595
1531 0 130.166 13.7593 1791 112.159 465.92 465.567
1532 0 135.113 14.0252 1895 111.716 467.047 463.051
1533 0 140.157 13.9272 1952 110.922 466.659 460.485
1534 0 142.203 13.537 1925 109.295 466.464 453.437
1535 0 141.09 12.935 1825 110.892 466.102 446.813
1536 1 77.0647 9.4466 728 101.522 467.118 477.272
1537 0 85.0894 10.107 860 99.9837 466.522 480.474
1538 0 89.1137 11.5358 1028 103.305 466.641 482.213
1539 0 94.0653 11.981 1127 103.791 466.569 480.577
1540 0 94.0631 10.3441 973 97.186 466.585 482.207
1541 0 96.0513 10.0779 968 96.8802 466.236 480.832
1542 0 100.079 10.8215 1083 96.1496 466.569 479.296
1543 0 101.078 9.98237 1009 97.3528 466.895 478.591
1544 0 106.068 10.5687 1121 96.3622 467.082 477.844
1545 0 108.067 9.97525 1078 98.3794 466.577 477.512
1546 0 113.113 10.8387 1226 97.2039 466.067 474.655
1547 0 115.061 10.5683 1216 99.9145 466.825 473.184
1548 0 118.065 10.8584 1282 100.532 466.525 470.746
1549 0 123.14 11.2311 1383 99.2574 466.603 469.253
1550 0 126.051 11.0034 1387 99.0555 466.332 467.815
1551 0 131.119 11.2493 1475 100.527 465.85 466.151
1552 0 135.115 11.7381 1586 102.995 466.059 465.284
1553 0 141.175 12.5093 1766 102.249 465.767 461.03
1554 0 144.174 11.8676 1711 104.632 465.354 458.96
1555 0 148.138 11.6445 1725 106.645 465.064 456.718
1556 0 153.276 11.6457 1785 107.425 465.393 452.122
1557 0 160.162 12.2938 1969 106.544 465.66 449.566
1558 0 162.125 11.6207 1884 109.83 465.652 445.947
1559 0 170.22 12.5132 2130 108.515 466.039 444.178
1560 0 173.133 12.0601 2088 111.386 466.148 440.677
1561 0 178.178 12.2518 2183 110.753 465.364 437.252
1562 0 183.203 12.1723 2230 110.53 466.507 433.372
1563 0 190.148 12.1432 2309 108.679 466.154 430.709
1564 0 196.186 11.3056 2218 107.449 466.695 428.577
1565 0 202.131 11.7003 2365 104.921 465.85 422.143
1566 0 208.19 11.5808 2411 105.688 466.006 417.781
1567 1 46.0501 8.03472 370 79.1514 467.138 507.605
1568 0 48.0331 8.72316 419 77.3652 467.255 506.871
1569 0 49.0364 8.4427 414 77.8116 466.628 504.879
1570 0 47.0125 8.16803 384 79.9766 466.807 506.451
1571 0 48.0282 8.18269 393 80.2137 466.206 507.802
1572 0 48.0557 7.17916 345 80.8783 466.455 507.499
1573 0 52.0053 7.13389 371 79.9407 466.647 507.383
1574 0 54.023 7.10808 384 80.1354 466.326 505.792
1575 0 58.0184 8.22153 477 77.6918 466.122 503.627
1576 0 59.0692 7.60125 449 78.5056 465.615 503.296
1577 0 59.074 8.2439 487 77.4127 466.657 502.536
1578 0 61.0774 7.908 483 104.468 467.667 502.648
1579 0 66.055 8.20528 542 77.7638 465.884 497.072
1580 0 67.0777 8.39325 563 77.9059 465.76 497.041
1581 0 70.0538 8.77897 615 76.8976 466.085 496.164
1582 0 70.1161 7.91544 555 79.0775 466.043 493.798
1583 0 72.0618 8.09028 583 78.1338 465.76 495.688
1584 0 76.0525 8.24431 627 78.7799 466.231 494.392
1585 1 40.0441 9.76423 391 77.8465 466.361 509.821
1586 0 39.0832 8.92967 349 82.3181 466.819 508.418
1587 0 42.0972 9.02673 380 80.3316 467.274 507.361
1588 0 41.1519 10.2304 421 78.9525 466.045 507.817
1589 0 45.1053 10.0653 454 79.174 465.414 506.588
1590 0 46.0792 10.1998 470 79.9106 465.285 506.723
1591 0 47.1122 10.5281 496 79.9556 464.702 506.304
1592 0 49.0614 11.2308 551 79.3358 464.363 506.096
1593 0 51.0618 11.6917 597 79.5561 465.238 505.003
1594 0 50.0801 11.4217 572 81.6521 465.336 504.906
1595 0 54.0577 12.9306 699 77.0229 465.263 506.91
1596 0 55.0663 12.4759 687 79.7118 464.994 505.17
1597 0 56.0785 12.5895 706 81.1501 464.633 503.915
1598 0 56.0267 12.9938 728 81.3846 465.249 502.795
1599 0 60.0705 13.2178 794 80.2922 465.38 503.155
1600 0 60.0599 12.7373 765 82.3072 464.855 501.112
1601 0 59.0815 11.9835 708 85.9379 464.493 503.701
1602 0 61.0684 12.6088 770 86.5091 464.691 500.91
1603 0 61.1119 11.9617 731 88.1081 464.193 502.679
1604 0 62.0884 12.611 783 87.47 464.107 501.954
1605 0 62.0971 12.1584 755 89.4715 464.434 500.033
1606 0 67.1418 12.8534 863 86.3743 464.647 498.225
1607 0 67.0993 12.9063 866 85.8753 464.711 499.23
1608 0 70.1124 12.6369 886 86.4153 465.205 498.193
1609 0 74.1128 12.5484 930 84.8183 464.58 497.328
1610 0 72.0782 11.9176 859 87.9965 464.468 497.934
1611 0 75.1171 12.4472 935 87.631 464.544 495.98
1612 0 76.1611 12.5392 955 87.8 463.714 492.619
1613 0 79.1726 12.5927 997 87.2618 463.895 490.644
1614 0 82.0984 12.5946 1034 86.3298 464.313 489.037
1615 0 86.1214 12.8191 1104 85.0942 464.715 485.807
1616 0 86.1841 12.4965 1077 87.0687 465.647 483.61
1617 0 90.17 12.6539 1141 85.2401 464.986 484.171
1618 0 94.1394 13.4269 1264 88.2516 464.496 480.399
1619 0 96.1684 12.9252 1243 87.2824 465.01 478.234
1620 1 51.0375 10.6392 543 86.0534 464.188 498.635
1621 0 52.09 11.0002 573 86.5375 464 498.504
1622 0 53.0387 11.369 603 86.7579 464.096 498.343
1623 0 57.2583 12.1205 694 87.9337 464.759 501.199
1624 0 59.1287 12.9717 767 86.6493 465.66 499.698
1625 0 59.0497 12.5996 744 90.4409 465.448 499.423
1626 0 62.0537 11.9896 744 91.2554 465.496 498.13
1627 0 64.0366 12.7271 815 87.8049 465.155 499.011
1628 0 65.1567 12.5083 815 88.5006 465.589 497.253
1629 0 68.1895 12.3919 845 87.9846 465.002 495.968
1630 0 69.1125 12.7039 878 87.6993 465.116 494.823
1631 0 69.1125 12.7329 880 147.734 464.131 494.769
1632 0 73.2161 12.7431 933 87.3398 465.456 492.767
1633 0 73.2216 13.0016 952 86.9086 465.112 491.358
1634 0 74.198 12.4262 922 88.2581 465.866 490.594
1635 0 77.236 13.1674 1017 85.5782 464.772 488.904
1636 0 82.2501 13.1185 1079 83.6886 465.676 488.701
1637 0 83.2554 13.3925 1115 84.1417 465.079 485.502
1638 0 86.2809 12.9461 1117 85.2856 464.209 484.288
1639 0 87.3952 13.1129 1146 85.6222 464.768 483.734
1640 0 89.3706 13.0468 1166 86.717 464.867 480.318
1641 0 93.2853 12.6386 1179 86.8745 464.874 475.37
1642 0 97.4207 12.5846 1226 86.6746 464.911 478.489
1643 0 98.1735 12.6714 1244 86.0772 465.86 478.305
1644 0 100.257 12.837 1287 86.8221 465.255 477.684
1645 0 103.103 12.3275 1271 87.7797 465.535 475.136
1646 0 107.143 12.1333 1300 88.7992 465.476 475.542
1647 0 112.193 12.6657 1421 87.8445 464.987 472.724
1648 0 113.13 12.437 1407 89.4094 465.494 473.996
1649 0 119.142 13.0936 1560 87.7596 464.692 470.197
1650 0 122.086 12.8024 1563 89.7249 465.203 469.581
1651 0 124.124 12.1894 1513 91.7006 465.365 467.558
1652 0 131.159 12.7555 1673 90.6892 465.742 465.059
1653 1 69.1209 12.1526 840 92.0929 465.404 491.325
1654 0 71.0588 12.6937 902 91.0809 465.978 490.152
1655 0 70.0697 12.9442 907 89.8842 466.047 494.054
1656 0 74.0887 12.7955 948 90.1825 465.669 492.924
1657 0 72.1422 12.1427 876 93.0251 465.736 491.131
1658 0 77.1556 11.8721 916 92.2828 465.806 489.881
1659 0 79.1421 11.9153 943 94.0732 466.126 487.101
1660 0 80.1738 12.186 977 94.9724 465.035 483.851
1661 0 84.097 12.7591 1073 93.6421 465.974 482.979
1662 0 86.1418 12.3866 1067 96.7067 465.431 478.989
1663 0 88.121 12.0289 1060 97.9896 465.419 478.412
1664 0 92.1401 13.0888 1206 95.6625 464.935 475.767
1665 0 97.1268 12.7565 1239 96.8467 465.715 474.081
1666 0 100.152 12.8905 1291 96.6778 465.324 472.508
1667 1 40.1219 10.5678 424 101.267 465.182 499.651
1668 0 44.1016 11.0653 488 99.709 464.297 503.703
1669 0 46.0915 12.3667 570 95.4807 463.805 503.423
1670 0 46.0639 11.9834 552 100.187 463.752 505.902
1671 0 47.0778 12.0014 565 100.363 463.929 505.973
1672 0 48.143 12.1513 585 100.186 464.354 504.971
1673 0 49.0478 12.7223 624 98.6522 464.912 503.29
1674 0 51.1214 12.1867 623 99.0369 464.438 504.568
1675 0 51.109 11.9548 611 100.481 464.543 503.812
1676 0 53.0321 12.2567 650 97.5862 464.286 502.091
1677 0 54.006 12.5171 676 97.7263 465.167 500.212
1678 0 55.0255 12.4306 684 96.7749 465.156 500.143
1679 0 57.0917 12.9091 737 95.673 465.225 499.91
1680 0 60.0569 12.4715 749 95.8625 465.338 497.916
1681 0 61.0295 12.8135 782 95.1061 464.698 497.004
1682 0 62.0956 12.8189 796 95.495 465.852 495.863
1683 0 66.0878 13.7242 907 90.7751 465.378 492.851
1684 0 66.1374 13.8046 913 91.6013 464.991 491.129
1685 0 68.1227 12.8738 877 94.0775 464.3 491.723
1686 0 70.0777 12.7715 895 93.4581 465.457 489.153
1687 0 71.1296 12.7092 904 93.865 465.767 488.563
1688 0 73.1787 12.3397 903 93.8649 465.069 484.223
1689 0 76.072 12.3961 943 92.0774 465.659 484.704
1690 0 78.0671 12.1562 949 93.1149 465.45 482.952
1691 0 81.0642 12.6443 1025 92.6371 465.767 481.021
1692 0 84.0994 12.1761 1024 92.6426 466.1 480.594
1693 0 86.0619 12.4213 1069 92.3442 465.813 478.732
1694 1 47.0432 10.501 494 91.253 465.362 497.289
1695 0 48.0387 11.3867 547 90.1737 465.83 499.768
1696 0 50.0504 10.7691 539 87.0111 464.564 495.829
1697 0 53.035 11.0305 585 80.0513 465.769 501.227
1698 0 56.0239 12.2805 688 83.218 464.869 504.08
1699 0 57.0279 12.0467 687 83.9607 465.076 503.537
1700 0 58.0618 11.9183 692 85.6965 465.824 502.126
1701 0 60.013 12.514 751 84.0759 466.513 501.519
1702 0 59.0678 11.7153 692 87.5723 465.944 500.319
1703 0 64.044 12.7881 819 83.9658 465.716 499.258
1704 0 64.0698 12.9546 830 85.1699 465.918 498.352
1705 0 66.0612 12.3976 819 87.3065 466.823 497.073
1706 0 67.06 12.4963 838 91.5811 465.975 495.896
1707 0 68.0579 12.9743 883 90.2254 465.966 495.234
1708 0 70.0383 12.7502 893 90.3505 465.86 494.54
1709 0 73.077 13.2737 970 88.9485 466.372 493.412
1710 0 73.0387 12.6508 924 91.9329 465.767 492.686
1711 0 77.0909 13.5684 1046 88.3614 465.886 491.094
1712 0 81.1405 13.2363 1074 89.1993 466.14 489.474
1713 0 81.1086 13.5004 1095 89.989 466.018 488.427
1714 0 84.1348 13.0861 1101 90.5886 466.747 486.368
1715 0 88.0644 13.2176 1164 89.9132 466.072 485.232
1716 0 90.0764 12.8113 1154 90.701 466.257 483.777
1717 0 93.1542 13.2576 1235 89.2972 465.879 483.064
1718 0 95.3004 12.9695 1236 89.9862 466.096 480.511
1719 0 98.2864 13.1961 1297 89.3207 465.403 478.347
1720 0 101.342 13.035 1321 90.2763 465.939 477.487
1721 0 104.274 12.822 1337 92.4518 465.82 476.011
1722 1 53.1082 10.2997 547 87.7916 465.903 500.77
1723 0 57.1157 10.9952 628 83.8312 465.325 499.871
1724 0 58.2055 11.8374 689 82.6473 465.665 498.144
1725 0 59.0786 11.0869 655 76.2779 464.711 499.569
1726 0 60.1236 10.5616 635 76.0709 465.266 500.364
1727 0 60.0656 10.6051 637 76.0361 464.936 499.818
1728 0 63.1255 10.8039 682 75.5337 464.943 498.906
1729 0 65.0903 10.2627 668 77.268 465.728 496.641
1730 0 69.0581 10.817 747 76.4471 465.293 493.928
1731 0 70.0573 10.8054 757 76.5786 465.202 494.042
1732 0 75.0291 11.0757 831 75.7786 465.001 493.924
1733 0 77.0625 11.6659 899 75.3537 465.953 491.257
1734 0 80.089 11.6121 930 76.1398 465.877 491.749
1735 0 81.0453 11.0555 896 77.8426 465.328 488.107
1736 0 84.0557 11.6232 977 78.1402 465.385 488.149
1737 0 85.0467 10.9352 930 80.1957 464.957 487.194
1738 0 89.0742 11.9563 1065 79.8291 465.471 485.744
1739 0 92.1193 12.473 1149 80.8703 465.635 483.338
1740 0 97.1574 12.4952 1214 82.1499 465.946 482.801
1741 0 98.1655 12.9883 1275 81.8839 466.129 480.531
1742 0 101.082 11.8518 1198 84.2771 466.508 479.839
1743 0 105.204 12.528 1318 82.6533 465.819 475.924
1744 0 108.186 12.1827 1318 82.9636 465.869 475.322
1745 0 113.106 11.7765 1332 82.9535 464.881 473.511
1746 1 62.0248 9.91538 615 78.2081 465.541 500.668
1747 0 63.0129 11.1882 705 80.034 465.265 498.38
1748 0 66.0556 11.2935 746 83.1448 465.744 496.332
1749 0 69.0332 12.5881 869 85.7031 464.862 494.414
1750 0 72.0688 11.6972 843 86.4662 464.839 493.737
1751 0 74.0872 11.7699 872 87.2248 464.856 491.601
1752 0 76.0694 12.0548 917 86.2923 465.213 490.427
1753 0 78.0465 11.7494 917 86.6816 465.229 490.647
1754 0 80.0506 11.5427 924 87.4535 464.903 490.409
1755 0 82.0906 11.6457 956 86.7333 465.786 487.706
1756 0 85.0589 11.733 998 85.6784 466.091 488.432
1757 0 87.0617 12.428 1082 85.6303 466.587 485.253
1758 0 90.0864 11.6666 1051 86.8116 465.259 485.011
1759 0 92.1352 11.6568 1074 85.96 465.164 483.689
1760 0 99.0963 12.4223 1231 82.87 465.601 481.8
1761 0 100.113 11.8167 1183 83.9265 466.205 480.266
1762 0 102.084 11.9804 1223 83.0564 465.37 476.24
1763 0 105.067 11.5545 1214 83.3311 465.325 475.371
1764 1 51.0484 10.539 538 77.7212 465.697 502.937
1765 0 54.0685 10.9121 590 75.0186 465.558 501.986
1766 0 54.0659 11.1715 604 75.245 465.334 502.137
1767 0 57.034 11.0285 629 75.5628 466.304 500.768
1768 0 58.043 11.8016 685 74.1562 466.534 499.838
1769 0 59.089 10.7804 637 76.5149 466.386 498.355
1770 0 62.069 11.5194 715 75.4713 465.842 498.179
1771 0 64.0464 11.882 761 74.8055 465.633 496.854
1772 0 66.0232 12.2987 812 74.4704 466.111 497.107
1773 0 66.0322 11.8276 781 77.37 465.864 495.502
1774 0 69.0747 12.0305 831 77.8002 465.798 494.325
1775 0 70.0371 12.1222 849 79.1461 465.457 495.274
1776 0 73.1001 12.9412 946 78.222 466.081 493.998
1777 0 74.0425 12.1822 902 82.1851 464.968 492.206
1778 0 74.0352 12.4535 922 83.9338 465.408 491.41
1779 0 78.0415 13.1084 1023 82.2913 465.758 492.585
1780 0 80.0554 12.8286 1027 84.1753 466.1 491.177
1781 0 83.0819 13.1798 1095 84.1872 465.905 489.228
1782 0 85.0758 12.7416 1084 85.7196 466.453 486.987
1783 0 88.0898 13.1116 1155 86.0494 466.039 487.283
1784 0 90.0432 12.7716 1150 87.8626 465.975 485.21
1785 0 92.0392 13.7876 1269 86.316 466.094 483.638
1786 0 94.0374 12.8459 1208 89.6159 466.042 483.138
1787 1 50.0211 11.915 596 87.6879 465.55 504.727
1788 0 51.0456 11.5779 591 89.8782 465.541 504.81
1789 0 52.0354 11.9342 621 92.1643 465.361 503.984
1790 0 54.0221 12.5504 678 93.1224 464.876 503.597
1791 0 53.042 12.7635 677 95.1905 465.746 503.062
1792 0 55.0456 12.9166 711 94.4655 466.705 501.879
1793 0 55.0443 12.8987 710 150.585 467.714 501.901
1794 0 59.0392 13.2116 780 93.2962 465.595 499.923
1795 0 62.1505 13.4512 836 91.6208 465.542 500.467
1796 0 65.0944 13.2884 865 91.5376 465.276 498.186
1797 0 66.1415 12.8361 849 92.7515 464.656 496.723
1798 0 69.0754 13.6662 944 89.3835 464.967 496.003
1799 0 70.1213 13.7048 961 89.3528 465.215 494.498
1800 0 72.0977 13.5233 975 92.1815 463.309 495.242
1801 0 72.0509 13.5876 979 93.4454 464.634 494.398
1802 0 75.0281 13.1151 984 93.6341 464.331 495.227
1803 0 75.0331 12.901 968 94.6064 464.993 494.083
1804 0 78.0547 13.0678 1020 93.4422 464.053 493.295
1805 0 82.0444 13.3464 1095 92.1954 464.321 491.719
1806 0 83.0985 13.2253 1099 92.6251 464.188 491.492
1807 0 87.055 13.4283 1169 91.9786 464.468 490.477
1808 0 88.0686 12.547 1105 94.8643 463.623 488.245
1809 0 93.0423 13.0478 1214 93.9226 464.327 486.658
1810 0 95.0639 13.9064 1322 93.4418 464.446 484.71
1811 0 98.0482 13.167 1291 94.8474 464.892 483.467
1812 1 52.0355 11.6843 608 97.8109 463.4 506.692
1813 0 50.0478 11.549 578 97.3114 464.567 505.405
1814 0 54.0783 11.9271 645 88.4512 464.885 502.884
1815 0 53.0096 12.0733 640 94.1609 464.145 506.03
1816 0 55.1102 12.1393 669 95.8401 464.882 504.045
1817 0 58.0948 13.1165 762 93.1627 463.828 504.02
1818 0 60.0665 12.6194 758 93.7441 464.017 503.152
1819 0 62.081 12.4515 773 95.9987 463.894 501.06
1820 0 65.0839 12.3686 805 96.1106 464.596 500.794
1821 0 66.0544 12.4746 824 96.5413 464.365 499.836
1822 0 68.1079 11.8929 810 98.5914 463.532 498.917
1823 0 72.0778 12.9166 931 96.043 464.246 497.441
1824 0 74.1032 12.5231 928 97.3664 464.606 496.699
1825 0 74.1217 12.8168 950 97.7368 465.229 494.385
1826 0 77.0979 12.9575 999 98.5455 464.584 494.376
1827 0 80.0762 13.1 1049 97.4204 465.419 492.451
1828 0 80.0506 12.617 1010 101.116 465.123 492.042
1829 0 85.0367 13.2061 1123 99.4711 465.482 490.754
1830 0 87.0619 13.0367 1135 101.181 464.694 491.199
1831 0 90.0536 13.5031 1216 101.572 465.377 488.454
1832 0 92.0743 13.7063 1262 102.467 465.603 486.805
1833 0 94.1003 13.4325 1264 104.421 465.589 486.888
1834 0 97.0496 13.4261 1303 104.812 465.804 484.538
1835 0 99.1411 13.2337 1312 106.37 465.992 482.507
1836 0 104.059 13.2329 1377 110.545 465.779 479.922
1837 0 106.109 13.4391 1426 111.471 465.522 479.477
1838 0 109.138 13.3501 1457 112.256 466.539 479.426
1839 0 115.102 13.9094 1601 110.666 466.022 476.772
1840 0 115.134 13.8273 1592 113.254 465.59 475.457
1841 0 118.146 13.9658 1650 115.205 465.793 472.882
1842 0 123.116 14.0923 1735 111.222 465.22 471.46
1843 0 128.11 14.066 1802 112.052 464.771 468.383
1844 0 131.156 14.0673 1845 112.688 464.771 467.482
1845 0 135.119 14.4095 1947 111.66 465.722 464.175
1846 0 139.132 13.807 1921 114.49 465.583 461.554
1847 0 143.169 14.2 2033 115.294 465.176 461.719
1848 0 146.147 13.808 2018 118.033 464.649 459.554
1849 0 151.219 14.1914 2146 117.289 465.315 457.863
1850 0 153.217 13.6735 2095 121.993 465.534 455.045
1851 0 158.167 14.314 2264 120.591 466.101 452.364
1852 0 163.171 14.1569 2310 122.013 465.189 449.095
1853 0 168.249 14.3834 2420 121.719 465.726 447.404
1854 0 170.154 13.9051 2366 124.485 465.374 442.648
1855 0 175.148 13.9197 2438 125.794 465.757 440.95
1856 0 180.124 14.3679 2588 125.401 464.925 440.818
1857 0 184.201 13.9793 2575 128.474 465.879 436.276
1858 0 186.161 13.9825 2603 130.423 466.06 433.42
1859 0 193.138 14.3162 2765 128.802 465.561 430.525
1860 0 198.166 14.3869 2851 129.35 465.908 429.294
1861 0 201.264 14.4139 2901 131.052 465.289 423.473
1862 0 206.193 14.1179 2911 132.127 465.876 422.05
1863 0 213.251 14.3352 3057 130.176 464.688 419.186
1864 0 216.228 13.9066 3007 133.273 465.062 416.41
1865 0 221.261 14.5574 3221 130.703 465.569 415.556
1866 0 225.406 14.1433 3188 133.267 465.382 412.758
1867 0 231.233 14.2627 3298 132.325 465.122 408.378
1868 0 237.267 15.1475 3594 129.459 465.466 403.035
1869 0 242.288 15.3 3707 128.527 465.499 400.519
1870 0 248.324 14.8435 3686 127.791 464.821 399.267
1871 0 253.301 15.2348 3859 126.93 465.186 396.579
1872 1 45.0249 9.57249 431 100.645 466.209 502.086
1873 0 45.0454 8.99094 405 103.077 465.486 500.837
1874 0 47.2218 10.9272 516 113.318 465.328 502.839
1875 0 49.1587 11.6561 573 115.803 465.515 502.639
1876 0 50.1552 11.7037 587 116.676 465.356 503.719
1877 0 49.2045 11.7672 579 120.933 465.007 499.677
1878 0 49.1815 11.8947 585 122.986 465.484 499.094
1879 0 52.0285 12.8199 667 118.405 467.202 499.57
1880 0 53.032 13.3693 709 116.502 466.955 499.045
1881 0 54.1654 13.5326 733 116.053 464.795 500.602
1882 0 53.1455 12.0236 639 124.174 465.399 501.684
1883 0 52.0487 12.5267 652 124.975 465.687 502.221
1884 0 51.0551 11.9283 609 128.356 464.992 501.742
1885 0 51.1201 12.5195 640 127.159 465.173 501.558
1886 0 48.073 11.8362 569 123.566 466.236 504.267
1887 0 49.0458 11.9276 585 121.932 465.46 503.826
1888 0 49.0436 12.0505 591 147.293 465.472 503.706
1889 0 50.0324 12.4919 625 121.771 464.872 504.168
1890 0 50.0565 12.4459 623 121.339 465.106 505.035
1891 0 49.0388 11.5623 567 125.459 465.023 505.374
1892 0 50.0425 11.5502 578 126.083 464.908 506.021
1893 0 47.0872 12.1052 570 126.279 465.928 506.389
1894 0 50.0159 12.436 622 123.878 464.805 505.371
1895 0 48.0186 12.0995 581 127.215 465.492 506.133
1896 0 50.0962 11.8771 595 125.183 465.276 506.75
1897 0 49.0416 11.6432 571 125.977 465.296 506.023
1898 0 48.0534 11.9242 573 124.949 464.745 506.363
1899 0 50.0267 12.2335 612 122.325 465.044 505.618
