time division length width area intensity CMx CMy
2307 0 65.1065 12.6716 825 82.12 460.258 331.978
2308 0 66.1649 12.8316 849 82.3675 459.789 330.339
2309 0 69.1147 12.9206 893 81.916 459.751 329.895
2310 0 69.139 12.9594 896 82.9676 459.799 330.304
2311 0 70.0723 12.2302 857 85.846 460.127 329.046
2312 0 72.1102 12.467 899 85.9666 460.399 325.369
2313 0 73.0934 12.2857 898 86.7862 459.55 326.153
2314 0 74.1562 12.4467 923 87.4951 459.02 323.132
2315 0 79.1188 12.1842 964 89.2645 459.495 322.308
2316 0 80.1168 12.644 1013 88.079 460.581 321.644
2317 0 81.1148 12.7474 1034 88.7592 461.052 320.775
2318 0 88.1228 11.8131 1041 90.0903 460.429 319.01
2319 0 85.1424 12.4028 1056 90.3466 460.151 316.129
2320 0 84.1493 11.0637 931 93.6133 460.057 315.924
2321 0 89.0412 11.7024 1042 87.4539 459.912 313.805
2322 0 92.1317 11.5161 1061 88.0745 459.861 313.169
2323 0 93.0905 11.0323 1027 90.0944 459.802 311.368
2324 1 51.0611 9.43966 482 85.0021 459.67 333.481
2325 0 52.0379 9.22404 480 86.6437 459.16 331.39
2326 0 54.0902 10.5195 569 86.6591 459.439 329.982
2327 0 52.0287 10.8594 565 89.108 460.11 327.88
2328 0 56.0513 10.9899 616 88.5373 461.552 325.451
2329 0 56.0138 10.3367 579 90.7185 461.28 325.297
2330 0 58.0408 10.5099 610 90.3098 461.01 324.192
2331 0 60.0602 10.7725 647 90.0077 461.015 321.068
2332 0 61.0303 10.2408 625 92.128 462.022 320.456
2333 0 61.0838 9.95354 608 93.9539 461.482 319.842
2334 0 64.094 10.0165 642 93.7897 461.35 319.298
2335 0 65.0387 10.932 711 93.1828 462.056 317.793
2336 0 68.0361 10.5385 717 94.5607 461.314 319.558
2337 0 74.0407 12.6417 936 87.312 460.608 319.345
2338 0 78.0934 12.9845 1014 87.0957 460.549 319.634
2339 0 81.0466 12.7828 1036 87.1293 460.643 318.391
2340 0 83.1132 12.6334 1050 87.879 461.253 317.38
2341 0 84.116 13.101 1102 88.0608 460.95 316.001
2342 0 86.0969 12.9273 1113 87.3396 461.474 314.354
2343 0 91.0599 13.1562 1198 87.4741 460.85 315.048
2344 0 94.0797 13.3716 1258 87.7122 460.787 313.692
2345 0 96.0373 12.8908 1238 89.3788 460.944 313.091
2346 1 48.0261 10.2028 490 89.0469 461.788 336.149
2347 0 50.0553 10.4684 524 87.4218 461.557 335.498
2348 0 49.0247 10.7089 525 86.7638 460.682 335.24
2349 0 52.0366 11.3766 592 86.9949 460.941 334.355
2350 0 53.0729 11.8893 631 87.4422 460.978 335.273
2351 0 55.1094 11.8673 654 86.4648 460.375 335.453
2352 0 56.0389 11.7062 656 87.2363 459.434 334.739
2353 0 58.0103 12.3254 715 86.435 460.88 335.136
2354 0 58.064 11.8834 690 88.4449 458.849 333.096
2355 0 59.0677 11.9355 705 88.973 458.949 333.304
2356 0 63.0618 11.8455 747 89.2892 458.596 332.914
2357 0 63.063 12.6064 795 88.7459 458.852 331.223
2358 0 65.0883 11.8915 774 90.5426 458.965 331.428
2359 0 66.0471 12.5214 827 90.5514 458.395 330.757
2360 0 69.075 12.7398 880 90.8273 458.923 330.882
2361 0 73.065 13.1937 964 89.2562 458.616 331.518
2362 0 77.1197 12.513 965 91.3824 458.545 329.777
2363 0 78.0917 13.7659 1075 89.1721 458.09 327.936
2364 0 81.0652 13.9271 1129 89.8122 457.996 327.048
2365 0 80.1108 13.4689 1079 93.0834 457.891 326.057
2366 0 85.064 13.6486 1161 91.9457 457.916 324.363
2367 0 85.0794 13.5403 1152 94.4349 457.275 322.27
2368 0 88.0687 13.7393 1210 94.0521 457.475 322.051
2369 0 90.0687 13.5008 1216 95.1258 459.152 320.59
2370 0 92.1302 13.4049 1235 95.7061 457.415 317.703
2371 0 94.082 13.6477 1284 96.2391 456.987 316.347
2372 0 96.0939 14.1736 1362 95.0169 456.311 315.316
2373 0 99.0901 14.2698 1414 94.4236 456.406 312.576
2374 0 103.062 14.2827 1472 94.2398 456.535 311.806
2375 0 105.11 14.2898 1502 94.9734 456.781 311.301
2376 0 109.105 14.5731 1590 94.1006 456.932 308.707
2377 0 112.104 14.2367 1596 95.6303 457.312 306.581
2378 0 114.081 13.9462 1591 96.0886 457.357 304.707
2379 0 119.192 14.2123 1694 95.6434 457.418 303.474
2380 0 124.194 14.5498 1807 94.9568 457.191 300.688
2381 0 128.127 14.1344 1811 96.9437 456.446 296.914
2382 0 131.22 16.3314 2143 90.3826 456.672 292.128
2383 0 134.092 15.4296 2069 93.7327 456.988 291.826
2384 0 138.119 15.4577 2135 96.2187 457.259 289.364
2385 0 144.12 16.0074 2307 94.5804 456.289 285.839
2386 0 147.084 15.7869 2322 96.432 457.605 283.705
2387 0 153.14 16.5078 2528 94.8892 457.812 280.297
2388 0 159.178 15.6555 2492 96.0995 457.714 276.904
2389 1 80.027 11.5336 923 96.3489 457.662 319.875
2390 0 81.0382 11.945 968 99.3192 456.849 318.443
2391 0 85.0416 12.6526 1076 98.3857 458.108 317.653
2392 0 86.0521 12.9457 1114 99.3375 458.306 316.102
2393 0 88.088 13.0665 1151 99.8401 458.369 313.775
2394 0 92.1305 13.3723 1232 98.4756 458.709 312.896
2395 0 93.113 12.909 1202 100.717 459.039 310.885
2396 0 98.0457 13.6263 1336 98.3623 458.922 309.763
2397 0 99.1131 13.1365 1302 99.2389 459.336 308.147
2398 0 104.109 13.4955 1405 97.6185 458.557 306.862
2399 0 109.11 14.6 1593 90.8167 458.141 300.963
2400 0 115.073 15.7379 1811 86.2424 458.951 297.456
2401 0 117.09 14.2369 1667 92.4337 458.713 298.017
2402 1 63.0345 10.7084 675 90.1333 459.04 327.51
2403 0 64.0286 11.3074 724 91.0138 457.983 326.43
2404 0 65.0737 11.6944 761 94.7779 458.813 324.75
2405 0 70.0991 12.6392 886 92.0169 459.296 326.585
2406 0 70.1476 12.0318 844 95.1445 459.7 325.192
2407 0 72.1088 12.0651 870 95.2253 459.339 323.782
2408 0 73.1404 12.018 879 95.8532 459.759 322.94
2409 0 76.1011 12.7068 967 94.0238 460.153 322.027
2410 0 80.1062 12.9828 1040 93.7423 460.052 320.56
2411 0 82.1127 13.0065 1068 94.515 461.077 319.624
2412 0 85.1003 13.2667 1129 93.3986 460.26 318.87
2413 0 87.1374 13.6451 1189 93.6569 460.087 316.542
2414 0 90.0965 13.2747 1196 94.25 459.788 316.613
2415 0 92.1567 13.1407 1211 96.5054 460.103 311.571
2416 0 95.1304 12.9612 1233 96.9002 460.193 310.296
2417 0 99.1136 12.8237 1271 96.8293 460.01 310.305
2418 1 50.0335 10.7328 537 89.0503 459.696 335.173
2419 0 51.0524 11.3021 577 89.4593 461.305 334.818
2420 0 52.0674 11.4083 594 93.6684 460.547 336.3
2421 0 55.116 11.5756 638 92.3009 460.978 337.187
2422 0 56.0382 11.9383 669 91.2108 460.83 335.595
2423 0 58.0528 11.8513 688 91.5334 460.728 332.741
2424 0 60.1331 11.9568 719 91.6189 460.3 332.833
2425 0 62.0388 12.331 765 90.5137 461.012 331.871
2426 0 65.0702 12.6018 820 89.1085 460.26 328.206
2427 0 66.0217 12.5413 828 89.8841 460.51 327.926
2428 0 67.1247 11.8585 796 92.9786 459.945 325.27
2429 0 70.051 12.6479 886 90.5068 459.184 324.862
2430 0 73.0724 12.3576 903 91.3034 460.1 324.591
2431 0 74.1715 12.0936 897 93.0557 460.566 322.712
2432 0 75.1728 12.3316 927 93.068 460.717 321.505
2433 0 80.0785 11.9633 958 93.2255 460.365 321.493
2434 0 81.2955 11.7104 952 94.3561 460.319 320.086
2435 0 84.1766 11.3927 959 94.83 460.348 318.295
2436 0 85.2088 12.264 1045 93.8947 459.183 318.146
2437 0 90.0833 11.8557 1068 93.6667 459.272 316.776
2438 0 92.0676 11.7305 1080 95.6685 459.286 314.407
2439 1 49.034 9.8299 482 87.5311 459.892 337.533
2440 0 49.0441 10.6231 521 87.6161 459.641 337.96
2441 0 53.0172 12.7317 675 93.3185 461.124 335.836
2442 0 51.0264 12.2094 623 94.9486 459.995 335.557
2443 0 54.057 11.8578 641 95.5913 459.983 334.763
2444 0 56.0418 11.9018 667 94.6552 461.04 335.799
2445 0 61.0233 11.3235 691 93.9826 460.375 334.781
2446 0 62.0206 12.8667 798 91.7444 460.365 333.85
2447 0 63.0469 12.9586 817 91.9743 459.914 332.95
2448 0 63.0731 13.0801 825 92.9042 460.007 332.073
2449 0 66.0481 12.718 840 94.1464 460.133 331.233
2450 0 68.0856 13.4537 916 93.9279 460.444 329.463
2451 0 67.0687 13.1954 885 95.2542 460.353 329.721
2452 0 72.0735 13.4446 969 94.4324 459.774 328.216
2453 0 73.0621 13.7007 1001 94.5495 460.394 327.262
2454 0 76.0852 13.7609 1047 94.1079 459.388 326.629
2455 0 79.0861 13.1502 1040 96.0365 459.947 325.101
2456 0 82.0817 14.1444 1161 93.1283 460.115 324.213
2457 0 84.0516 14.0509 1181 93.9026 459.986 323.077
2458 0 88.0712 13.614 1199 94.6489 460.24 321.658
2459 0 89.0808 14.2343 1268 94.6972 460.467 321.215
2460 0 92.0837 14.0742 1296 95.1481 460.366 319.761
2461 0 95.058 13.8547 1317 95.2779 460.358 317.374
2462 1 52.0518 10.9506 570 92.8193 459.704 339.718
2463 0 53.0183 11.9393 633 90.9179 460.447 337.477
2464 0 56.0305 11.6187 651 90.5776 460.386 336.754
2465 0 56.058 12.3087 690 88.7333 460.07 335.719
2466 0 58.1328 13.1767 766 91.9674 459.291 335.188
2467 0 58.1097 12.2183 710 94.1761 459.314 335.587
2468 0 61.1869 12.47 763 92.2647 459.244 334.489
2469 0 62.1744 12.5293 779 92.5315 459.856 334.497
2470 0 65.1137 12.6087 821 92.8222 459.633 334.772
2471 0 68.1007 12.4228 846 94.1915 459.734 331.924
2472 0 69.162 12.449 861 93.2102 459.692 333.098
2473 0 73.1136 12.7199 930 91.7312 459.79 330.871
2474 0 74.1744 12.5111 928 92.3093 459.616 329.789
2475 0 78.1743 12.3314 964 93.0685 459.922 328.15
2476 0 79.1442 12.4962 989 95.3225 459.884 326.916
2477 0 82.1202 12.8105 1052 92.3669 460.06 326.95
2478 0 85.2075 12.3463 1052 92.6388 459.739 327.375
2479 0 91.1235 13.586 1238 98.6914 459.196 321.222
2480 1 47.0824 12.064 568 95.2095 459.176 343.771
2481 0 48.1222 12.3228 593 94.1433 460.049 342.43
2482 0 48.0242 12.0564 579 90.7271 460.491 341.311
2483 0 48.0522 12.1118 582 94 460.95 340.206
2484 0 49.1037 11.2822 554 93.8718 461.522 340.199
2485 0 49.1037 11.3637 558 165.471 461.545 339.962
2486 0 54.0454 11.4718 620 92.8484 461.345 338.811
2487 0 54.0328 11.6411 629 93.2242 461.566 338.216
2488 0 56.1219 12.2769 689 91.6081 461.171 337.907
2489 0 57.1094 12.1521 694 92.4971 460.919 337.062
2490 0 61.073 11.6746 713 92.1669 460.67 336.123
2491 0 59.0909 11.9477 706 93.6969 460.833 335.691
2492 0 62.1011 12.2542 761 93.7569 460.908 333.836
2493 0 64.0537 12.2241 783 94.7356 460.134 333.949
2494 0 65.1151 12.9002 840 94.019 459.649 331.325
2495 0 71.0708 11.9318 848 95.2182 459.555 331.456
2496 0 71.0867 13.5187 961 94.6067 459.674 330.129
2497 0 75.1213 13.5381 1017 98.0846 459.914 329.262
2498 0 77.091 14.5931 1125 96.4862 460.376 327.748
2499 0 80.1702 14.6064 1171 96.2365 460.594 325.875
2500 0 82.0736 13.8169 1134 98.0758 459.959 325.444
2501 0 84.064 13.9655 1174 96.2351 459.928 324.925
2502 0 87.0675 12.6339 1100 94.6755 459.393 324.124
2503 1 45.1629 12.1117 547 98.2413 459.81 344.492
2504 0 47.1701 12.6987 599 94.1686 460.534 342.048
2505 0 45.0591 11.8733 535 96.0131 459.637 343.011
2506 0 48.0551 11.7573 565 92.6354 460.002 344.501
2507 0 48.0488 11.2386 540 96.0537 459.156 343.241
2508 0 51.0727 12.0221 614 92.1026 460.13 342.485
2509 0 51.1142 12.4036 634 92.6735 460.104 340.71
2510 0 52.0744 11.9829 624 93.008 459.763 340.484
2511 0 54.0777 12.2786 664 92.9608 459.432 338.604
2512 0 57.0593 12.8638 734 89.8542 459.454 338.992
2513 0 56.0561 11.7739 660 92.9303 459.903 337.586
2514 0 58.0324 11.7521 682 92.3152 459.302 337.93
2515 0 59.0408 12.0764 713 91.8457 459.062 335.198
2516 0 60.041 12.3915 744 91.3172 459.003 334.062
2517 0 63.0284 12.5658 792 89.9318 459.689 332.542
2518 0 67.0633 12.4062 832 89.5613 459.47 330.875
2519 0 67.0344 12.2922 824 91.1444 459.258 328.805
2520 0 71.0859 12.6326 898 88.8218 459.599 329.414
2521 0 74.0495 13.1264 972 87.4095 459.153 327.505
2522 0 75.0572 12.6837 952 89.0158 459.404 325.95
2523 0 75.0483 12.6852 952 158.737 460.415 325.859
2524 1 41.0165 11.8001 484 85.8802 459.649 341.645
2525 0 42.0108 12.2349 514 87.4689 459.321 341.609
2526 0 45.0198 12.0836 544 86.3842 458.244 339.835
2527 0 46.059 11.2464 518 88.9402 458.575 341.743
2528 0 46.0291 12.7093 585 86.7316 459.552 340.28
2529 0 49.0074 13.0797 641 85.9329 460.089 339.07
2530 0 50.0409 12.9494 648 86.8966 459.528 337.56
2531 0 50.0094 12.2977 615 89.8146 458.956 337.377
2532 0 54.0217 12.6616 684 87.7836 458.909 335.623
2533 0 54.0726 13.2045 714 87.8389 458.148 336.517
2534 0 56.0381 13.5444 759 87.585 457.997 333.278
2535 0 57.0343 12.8519 733 90.2769 457.726 331.583
2536 0 59.0617 13.3928 791 89.9633 457.655 333.286
2537 0 62.0225 13.5435 840 88.4905 459.157 332.245
2538 0 64.054 14.2848 915 88.7585 458.805 330.627
2539 0 65.0165 13.6581 888 90.3806 458.481 328.67
2540 0 66.0723 13.8939 918 90.7658 458.411 328.749
2541 0 70.0788 14.2554 999 88.9019 458.847 327.567
2542 0 71.0947 14.1783 1008 89.4732 458.562 327.367
2543 0 74.0114 14.1195 1045 90.5493 459.502 326.482
2544 0 76.0467 14.3333 1090 90.667 459.04 324.887
2545 0 79.0561 14.9135 1179 88.8957 459.059 323.087
2546 0 82.1171 14.8447 1219 89.0336 458.856 322.759
2547 0 86.0983 14.6112 1258 88.8927 459.46 319.629
2548 0 87.102 14.661 1277 83.5255 459.578 320.305
2549 1 48.0377 12.8024 615 87.9463 459.846 337.506
2550 0 49.0239 14.2788 700 92.2929 458.89 336.619
2551 0 48.0192 13.7028 658 88.0395 458.895 338.032
2552 0 49.053 13.0879 642 90.2991 459.498 337.192
2553 0 52.0378 13.5671 706 90.2465 459.708 336.749
2554 0 53.0392 13.424 712 92.0787 460.334 335.739
2555 0 56.0215 14.1374 792 88.947 460.456 335.246
2556 0 55.0846 13.561 747 94.751 460.805 334.604
2557 0 58.0843 13.7559 799 93.9324 459.866 334.329
2558 0 60.0848 14.4629 869 92.0863 459.497 332.214
2559 0 63.0443 14.1171 890 92.1573 459.962 330.722
2560 0 63.048 14.5128 915 92.3257 459.373 328.038
2561 0 67.077 14.7592 990 91.2939 459.051 327.525
2562 0 70.0809 15.2253 1067 90.4742 459.612 327.647
2563 0 71.0375 15.2736 1085 92.1069 459.314 326.119
2564 0 74.0505 15.0303 1113 92.1285 459.429 324.715
2565 0 75.0588 15.5611 1168 91.4204 459.404 323.292
2566 0 78.102 15.006 1172 92.3643 459.255 321.887
2567 0 79.0464 15.2695 1207 92.8036 459.31 320.973
2568 0 82.0317 15.0673 1236 93.3139 459.417 319.059
2569 0 85.0564 15.6132 1328 92.2583 460.038 318.991
2570 0 88.0568 15.8988 1400 91.5357 459.937 317.521
2571 0 91.0352 16.3453 1488 90.9039 459.947 317.216
2572 0 95.0772 16.1553 1536 89.5423 459.762 315.904
2573 0 98.0564 15.9092 1560 89.9532 459.416 315.018
2574 0 100.06 15.3408 1535 90.8866 459.636 313.921
2575 0 103.034 14.8494 1530 90.2386 459.486 312.292
2576 0 108.053 15.224 1645 89.0395 459.221 309.179
2577 0 111.123 14.4974 1611 93.2886 459.571 307.602
2578 0 111.074 16.0073 1778 88.9117 459.721 307.078
2579 1 55.0519 15.5126 854 90.8665 459.451 332.895
2580 0 57.034 15.2015 867 92.6851 459.61 332.038
2581 0 61.0151 15.6355 954 89.2264 460.082 332.198
2582 0 63.0911 16.7853 1059 88.7923 458.942 329.319
2583 0 64.0695 16.0919 1031 90.6372 459.713 327.624
2584 0 68.0343 16.3447 1112 88.9101 460.553 327.234
2585 0 70.038 15.6915 1099 91.5496 460.426 321.537
2586 0 70.0582 15.2588 1069 95.5781 460.876 321.613
2587 0 73.0477 16.2497 1187 93.1154 460.707 321.126
2588 0 76.0866 16.5601 1260 93.354 460.715 321.304
2589 0 79.0663 16.4798 1303 94.2625 460.226 320.646
2590 0 79.0356 16.1067 1273 96.4595 460.213 320.715
2591 0 82.1128 15.771 1295 97.1127 460.003 320.154
2592 0 86.0495 16.6997 1437 94.5372 459.883 319.553
2593 0 86.0474 15.689 1350 98.8963 460.159 318.693
2594 0 90.1155 16.2014 1460 96.6 460.8 319.234
2595 0 94.0737 15.7324 1480 97.6628 460.153 316.307
2596 0 98.2204 16.1983 1591 96.8661 459.975 313.666
2597 1 48.0264 12.514 601 105.097 460.845 335.577
2598 0 51.0183 13.407 684 103.766 460.475 333.604
2599 0 53.0484 14.1569 751 102.981 460.41 333.567
2600 0 53.0116 14.5817 773 104.671 460.902 333.137
2601 0 57.0844 14.8727 849 103.597 460.835 332.269
2602 0 60.0539 14.87 893 103.613 460.119 331.401
2603 0 59.0383 15.0919 891 175.019 459.1 331.346
2604 0 62.0538 15.0353 933 104.995 461.12 330.683
2605 0 64.0624 15.1415 970 104.067 460.456 329.798
2606 0 67.0841 15.175 1018 105.02 460.417 327.177
2607 0 69.1845 15.278 1057 104.763 461.215 327.052
2608 0 72.1054 15.8379 1142 103.532 460.615 325.269
2609 0 74.1489 15.5498 1153 104.97 460.584 324.65
2610 0 77.1515 15.3983 1188 103.936 460.231 323.563
2611 0 78.0758 15.3312 1197 104.915 460.68 322.571
2612 0 81.1101 15.4851 1256 103.779 460.449 324.359
2613 0 84.1701 16.0389 1350 100.858 460.055 325.624
2614 0 86.1767 15.1085 1302 103.548 460.127 324.161
2615 0 90.1657 15.7931 1424 99.1938 460.924 323.504
2616 0 92.1924 16.292 1502 98.6079 460.968 321.609
2617 0 96.1705 15.2438 1466 100.244 460.682 318.862
2618 0 98.054 15.0529 1476 100.963 460.166 318.963
2619 1 56.0328 12.8675 721 102.969 460.394 338.183
2620 0 58.0972 13.4602 782 102.765 460.379 338.717
2621 0 60.0614 14.352 862 102.727 460.843 334.936
2622 0 60.0628 13.6024 817 101.668 460.849 336.289
2623 0 64.1575 15.2593 979 99.5526 460.388 332.137
2624 0 65.1182 14.6349 953 100.718 460.289 334.149
2625 0 67.1143 15.1235 1015 100.319 460.671 335.668
2626 0 70.1157 14.69 1030 102.128 460.276 332.427
2627 0 71.1231 14.6085 1039 103.82 460.698 329.942
2628 0 74.12 14.8948 1104 102.75 460.535 332.257
2629 0 76.0878 14.6804 1117 105.801 460.774 330.012
2630 0 80.0481 14.9035 1193 106.348 460.883 327.759
2631 0 82.1848 15.4043 1266 104.368 460.641 328.761
2632 0 85.2205 15.1959 1295 106.236 460.082 324.65
2633 0 88.1111 15.0265 1324 105.622 459.69 323.055
2634 0 92.1369 15.8351 1459 101.869 460.633 322.842
2635 0 95.1283 15.0744 1434 103.543 459.957 321.046
2636 0 99.1476 16.5813 1644 97.0262 459.929 318.56
2637 0 101.076 14.8404 1500 102.079 460.365 320.191
2638 1 52.1029 12.8016 667 100.939 461.076 345.285
2639 0 55.1003 14.2105 783 96.848 460.959 343.757
2640 0 56.1435 14.1245 793 97.7062 461.035 341.673
2641 0 59.1406 13.9667 826 100.46 460.994 340.173
2642 0 58.1707 14.3543 835 100.82 460.353 339.872
2643 0 63.1581 14.1233 892 99.1233 460.4 338.821
2644 0 63.2419 14.3259 906 101.033 460.742 337.497
2645 0 64.2023 14.4543 928 99.8933 460.525 338.117
2646 0 67.2548 14.8094 996 100.19 459.519 337.38
2647 0 68.2437 14.6534 1000 101.787 459.749 337.28
2648 0 70.1662 14.0238 984 103.37 460.86 336.519
2649 0 72.2319 14.5227 1049 101.113 460.789 335.297
2650 0 74.2323 14.3065 1062 101.212 460.526 335.3
2651 0 78.2149 14.4985 1134 99.2099 460.361 333.255
2652 0 82.2418 15.1504 1246 96.1549 460.377 332.556
2653 0 83.2107 14.3611 1195 98.5992 460.218 330.389
2654 0 85.1649 15.1353 1289 96.225 460.984 331.185
2655 0 88.1845 14.6171 1289 97.5206 460.787 328.672
2656 0 90.2553 14.88 1343 95.7587 460.391 327.086
2657 0 93.1675 15.0804 1405 94.052 461.563 326.352
2658 0 97.1029 14.6751 1425 95.407 461.331 324.39
2659 1 48.144 13.4181 646 97.8916 461.291 347.774
2660 0 52.0824 13.5747 707 95.454 460.908 347.347
2661 0 52.0798 13.8249 720 96.9139 460.599 345.853
2662 0 54.0975 14.4184 780 95.3333 460.942 344.406
2663 0 58.1303 15.276 888 93.2218 461.543 343.07
2664 0 58.1267 14.4856 842 96.1675 461.558 343.008
2665 0 60.1488 14.78 889 97.0787 461.616 341.425
2666 0 60.1488 14.7966 890 159.665 461.61 341.318
2667 0 65.1928 14.971 976 98.458 461.118 337.724
2668 0 67.1588 15.6048 1048 97.6756 460.897 336.491
2669 0 70.1009 15.4777 1085 98.4166 461.276 338.155
2670 0 72.1013 15.9082 1147 99.129 460.841 337.075
2671 0 73.1535 15.4743 1132 102.188 461.49 336.52
2672 0 75.1626 15.6594 1177 101.763 461.604 335.607
2673 0 78.1767 15.5929 1219 102.773 461.64 334.288
2674 0 85.1804 13.7238 1169 107.041 461.041 334.732
2675 0 84.1109 15.646 1316 105.512 460.825 331.227
2676 0 87.1671 16.0955 1403 103.802 460.593 330.943
2677 0 89.1528 16.3988 1462 103.812 460.308 329.932
2678 0 93.1535 16.2635 1515 103.191 460.524 329.165
2679 0 94.1651 15.9082 1498 106.955 461.178 326.425
2680 0 97.1505 15.7796 1533 106.992 460.681 324.804
2681 0 100.209 16.5455 1658 105.19 460.005 325.718
2682 0 105.217 16.0335 1687 107.609 459.649 324.464
2683 0 107.196 15.6629 1679 109.378 459.824 323.48
2684 0 111.215 16.0769 1788 108.464 459.777 320.356
2685 0 114.314 15.1862 1736 110.737 459.856 320.766
2686 0 120.207 15.2154 1829 110.276 459.914 318.748
2687 1 64.2556 14.8781 956 115.983 460.467 343.055
2688 0 63.1838 14.8772 940 118.836 460.323 342.601
2689 0 68.2123 14.5722 994 117.14 460.497 340.48
2690 0 70.1593 14.5811 1023 119.887 459.689 339.759
2691 0 70.2286 15.2502 1071 119.937 459.97 338.992
2692 0 73.2275 15.2129 1114 120.863 459.723 337.768
2693 0 78.2498 15.3994 1205 119.683 460.12 336.329
2694 0 82.2097 17.1269 1408 113.034 460.488 334.946
2695 0 84.2375 15.9668 1345 116.882 460.515 335.288
2696 0 84.2354 15.7179 1324 120.779 460.2 333
2697 0 85.143 15.7735 1343 122.367 459.954 332.313
2698 0 88.1909 15.8293 1396 122.527 460.859 330.893
2699 0 90.2221 16.3707 1477 120.339 460.312 330.342
2700 0 91.1637 15.4447 1408 123.442 460.379 329.809
2701 0 96.2136 16.2659 1565 119.898 460.242 328.441
2702 0 99.2116 15.724 1560 121.685 460.035 326.887
2703 0 102.239 16.706 1708 116.91 459.753 325.45
2704 0 104.179 16.3468 1703 119.019 460.415 321.207
2705 0 109.149 16.3722 1787 118.351 460.185 320.632
2706 1 123.17 11.7885 1452 130.355 459.662 320.578
2707 0 124.15 20.4028 2533 100.715 459.576 309.861
2708 0 127.259 20.3757 2593 102.308 460.863 309.159
2709 0 126.147 20.9755 2646 103.016 460.062 305.792
2710 0 125.147 18.3784 2300 115.198 460.487 308.096
2711 0 126.244 15.9216 2010 124.007 459.953 309.785
2712 0 131.26 16.8673 2214 121.31 459.297 304.665
2713 0 135.146 16.5746 2240 122.532 459.542 303.544
2714 0 141.262 17.2021 2430 119.184 459.701 300.379
2715 0 144.191 16.4365 2370 123.246 459.368 296.079
2716 0 150.205 16.5973 2493 121.511 459.427 293.261
2717 0 156.17 16.4564 2570 121.785 460.919 292.294
2718 0 160.265 16.9407 2715 120.631 459.511 289.092
2719 0 165.221 15.8333 2616 125.234 459.868 286.994
2720 0 172.197 16.2953 2806 123.238 460.155 283.345
2721 0 178.249 15.9945 2851 122.875 460.148 276.991
2722 0 184.418 15.2426 2811 125.818 459.549 273.303
2723 1 104.233 9.73779 1015 115.861 460.28 319.871
2724 0 106.232 9.96876 1059 117.703 460.701 316.5
2725 0 108.176 10.0947 1092 117.56 460.338 315.712
2726 0 112.179 9.76117 1095 118.533 460.485 311.71
2727 0 116.174 10.0797 1171 118.192 460.652 308.525
2728 0 122.166 10.0028 1222 116.651 460.876 308.282
2729 0 124.242 9.24004 1148 119.341 460.586 304.745
2730 0 129.197 10.2712 1327 116.32 459.742 304.99
2731 0 133.219 9.12035 1215 120.382 459.949 299.105
2732 0 141.166 9.78991 1382 118.779 459.289 296.681
2733 0 144.215 9.81864 1416 118.225 459.757 291.816
2734 0 154.111 14.2429 2195 101.168 458.892 285.205
2735 0 159.153 14.0682 2239 102.336 459.683 283.74
2736 1 86.1182 9.16182 789 88.9075 459.165 328.782
2737 0 91.1877 10.0233 914 86.2505 459.197 327.649
2738 0 89.289 10.1468 906 85.3124 459.827 326.167
2739 0 92.1826 9.71984 896 85.9565 460.169 322.858
2740 0 94.2226 9.80657 924 85.7002 459.903 322.303
2741 0 100.196 10.5194 1054 82.1214 459.236 320.449
2742 0 102.131 10.6921 1092 82.7161 459.642 320.223
2743 0 104.194 10.3941 1083 84.0157 459.617 316.653
2744 0 109.185 10.1388 1107 93.5456 458.675 314.24
2745 0 113.199 10.3357 1170 92.7598 459.237 309.78
2746 0 117.219 10.5273 1234 91.3282 460.086 304.869
2747 0 121.279 9.43277 1144 91.8645 459.8 309
2748 0 126.343 9.87784 1248 91.8502 459.355 304.879
2749 0 128.568 11.5659 1487 94.4775 460.853 301.11
2750 0 129.493 11.321 1466 95.8677 460.874 302.595
2751 0 133.429 10.8672 1450 97.1152 460.85 301.241
2752 0 137.522 11.3437 1560 96.7006 461.048 301.456
2753 0 138.451 10.0324 1389 93.6379 461.397 302.381
2754 1 56.2942 8.47335 477 85.3396 461.354 343.382
2755 0 59.34 8.76306 520 84.7558 462.435 342.429
2756 0 59.34 8.84732 525 115.97 463.413 342.524
2757 0 59.1893 8.27852 490 85.8388 462.537 341.755
2758 0 63.2574 9.34278 591 82.0068 462.049 342.325
2759 0 66.2908 9.88071 655 82.3115 461.649 340.296
2760 0 69.1998 9.37865 649 82.3097 461.171 339.877
2761 0 71.254 9.62754 686 82.8338 461.56 339.548
2762 0 73.2892 10.4108 763 82.3041 461.282 338.755
2763 0 74.2051 8.96165 665 84.3549 461.089 339.125
2764 0 76.3071 10.1825 777 83.3604 460.799 334.384
2765 0 79.3198 11.1322 883 80.7022 461.185 335.21
2766 0 83.3394 10.4512 871 81.0459 460.497 332.932
2767 1 46.2319 10.0796 466 78.0086 461.639 349.041
2768 0 45.291 10.6202 481 78.2516 462.137 349.424
2769 0 47.3185 11.1162 526 76.3403 461.447 350.943
2770 0 49.3249 11.921 588 71.6003 461.782 351.626
2771 0 49.1291 10.4622 514 76.6362 461.519 350.891
2772 0 49.1696 10.2096 502 76.8825 461.739 351.735
2773 0 48.1783 10.4404 503 77.4334 461.606 350.433
2774 0 52.1608 10.3143 538 76.3104 461.455 350.961
2775 0 51.1585 10.2427 524 76.8989 461.714 350.96
2776 0 54.1307 10.0867 546 77.1886 461.383 349.189
2777 0 54.1084 10.7747 583 76.271 461.225 348.973
2778 0 57.081 10.8793 621 75.4799 460.997 349.084
2779 0 58.1267 10.3051 599 76.5342 461.773 347.563
2780 0 58.0738 11.0032 639 77.0188 461.593 346.601
2781 0 62.0948 11.3214 703 74.8378 461.083 345.387
2782 0 62.1431 11.2643 700 75.62 461.274 343.543
2783 0 62.1071 11.2065 696 75.8261 460.957 342.843
2784 0 66.1245 11.8413 783 72.8161 460.245 343.138
2785 0 67.0818 11.8214 793 72.2383 460.652 343.454
2786 0 69.1234 11.154 771 73.7743 460.298 342.84
2787 0 72.1044 11.7607 848 72.7653 460.149 340.601
2788 0 73.2097 12.3754 906 72.2748 460.471 339.942
2789 0 76.163 11.6067 884 73.8247 460.538 339.343
2790 0 76.144 11.4782 874 74.6487 460.538 338.216
2791 0 78.1535 11.7333 917 75.289 459.692 333.394
2792 0 82.1494 12.0634 991 75.0505 460.475 333.326
2793 0 84.2122 11.566 974 76.5595 459.486 332.263
2794 1 46.1145 11.1895 516 75.3527 460.014 350.888
2795 0 47.1047 11.5275 543 74.7293 459.998 350.424
2796 0 50.1022 12.3547 619 72.8821 460.236 348.473
2797 0 48.1926 12.1595 586 75.6092 459.408 349.119
2798 0 51.2245 12.2402 627 73.9777 459.456 348.837
2799 0 50.215 12.8846 647 74.0124 459.719 347.232
2800 0 52.1557 13.7856 719 70.1196 459.905 348.615
2801 0 50.1547 10.7667 540 75.2926 459.6 349.52
2802 0 54.0822 10.9093 590 74.8915 459.376 348.007
2803 0 54.1457 11.1181 602 74.4136 459.721 348.561
2804 0 56.0597 12.6116 707 73.5969 459.18 347.636
2805 0 58.123 12.7488 741 73.4588 458.332 347.534
2806 0 60.1417 12.7532 767 74.7953 459.051 346.185
2807 0 59.0936 12.624 746 76.1729 459.422 345.428
2808 0 64.1611 13.1856 846 73.5 459.96 345.048
2809 0 65.1654 13.1512 857 72.5508 459.158 345.426
2810 0 67.048 13.2293 887 74.2627 458.627 343.247
2811 0 68.2004 12.8592 877 72.3409 458.884 344.242
2812 0 69.1239 12.6584 875 74.6183 458.899 341.629
2813 0 72.1746 12.9408 934 75.5268 459.268 340.8
2814 0 74.17 13.3612 991 76.2947 459.023 341.639
2815 0 75.2172 12.9492 974 77.384 459.178 341.979
2816 0 80.2891 13.8873 1115 75.322 459.494 339.69
2817 0 80.2491 13.7945 1107 77.0018 459.266 338.425
2818 0 79.0991 13.2618 1049 79.062 459.166 336.806
2819 0 86.2046 13.8276 1192 76.6384 459.202 335.549
2820 0 86.1828 13.2509 1142 79.3424 459.572 332.222
2821 0 90.1963 13.2267 1193 78.5893 459.686 331.965
2822 0 89.0928 13.4803 1201 80.2631 459.853 329.1
2823 0 93.2613 13.6391 1272 79.7814 459.167 327.944
2824 0 97.0727 14.0822 1367 78.0841 458.604 326.743
2825 0 99.146 13.6465 1353 79.4982 459.243 326.064
2826 0 102.098 13.252 1353 80.0754 459.611 323.696
2827 0 103.138 13.9522 1439 79.3794 459.044 321.589
2828 0 105.063 15.3337 1611 72.9125 458.538 316.446
2829 0 110.104 15.9031 1751 71.0919 458.881 314.444
2830 0 113.103 16.2683 1840 70.6304 458.911 312.448
2831 0 116.098 16.1415 1874 66.2551 458.931 310.71
2832 0 119.077 15.2674 1818 74.3168 458.999 310.769
2833 0 121.115 15.8445 1919 74.2329 458.619 309.035
2834 0 127.19 15.9761 2032 74.2096 458.645 306.73
2835 0 130.136 15.3532 1998 73.4304 458.36 302.835
2836 1 60.122 11.0941 667 74.5382 458.462 340.159
2837 0 64.1186 12.087 775 73.3974 458.618 338.063
2838 0 63.1351 11.7367 741 75.3131 458.879 337.64
2839 0 66.0966 11.9825 792 75.9066 458.475 336.479
2840 0 70.1178 12.5075 877 74.9339 459.437 335.208
2841 0 73.1076 13.3912 979 79.713 458.67 337.68
2842 0 75.0733 13.5601 1018 79.0226 458.743 335.986
2843 0 78.0919 14.0604 1098 76.9317 458.468 334.846
2844 0 80.0803 13.1618 1054 79.4706 459.007 333.25
2845 0 79.1119 12.5013 989 77.3407 458.617 334.761
2846 0 84.0413 12.6842 1066 77.4418 459.068 331.048
2847 0 85.0309 13.1482 1118 76.4526 459.163 331.238
2848 0 89.075 13.5504 1207 75.2684 459.277 330.205
2849 0 90.0392 13.6052 1225 76.12 459.313 329.063
2850 0 100.061 16.7897 1680 66.5357 460.06 320.693
2851 0 97.0954 16.87 1638 67.9908 459.777 321.183
2852 0 96.0919 12.6129 1212 78.4505 458.971 324.223
2853 0 104.096 13.8814 1445 74.1958 458.711 322.964
2854 0 104.143 13.8463 1442 76.7129 459.258 319.935
2855 0 108.18 13.8103 1494 77.1466 458.784 318.606
2856 0 112.134 13.9743 1567 76.9209 458.769 315.881
2857 0 115.246 13.597 1567 77.8934 458.091 315.065
2858 0 120.17 13.6889 1645 77.9653 458.712 313.446
2859 1 134.188 17.7288 2379 66.0231 460.033 303.069
2860 0 136.119 18.4911 2517 65.8876 459.057 301.28
2861 0 136.154 15.8423 2157 71.8674 460.002 299.37
2862 0 138.185 14.1839 1960 76.2648 460.429 300.393
2863 0 137.183 13.3253 1828 78.9825 460.257 298.704
2864 0 142.218 15.3778 2187 73.7293 459.283 293.453
2865 0 148.213 15.8892 2355 73.3227 458.955 291.841
2866 0 151.202 15.3834 2326 74.9243 458.4 289.957
2867 0 156.13 15.9803 2495 74.713 459.166 284.043
2868 0 159.219 15.1301 2409 77.9452 459.357 284.589
2869 0 165.283 15.3918 2544 77.8954 459.311 280.872
2870 0 171.267 16.267 2786 77.2929 458.742 278.483
2871 0 176.222 15.5769 2745 80.5727 459.47 277.123
2872 0 182.175 15.2655 2781 82.2463 459.293 272.225
2873 0 188.295 16.2246 3055 80.1918 459.074 268.528
2874 0 194.362 15.1264 2940 84.1656 459.226 267.208
2875 0 201.272 15.6157 3143 83.0897 458.878 264.122
2876 0 211.255 16.1179 3405 82.5932 458.362 260.398
2877 0 218.268 16.0033 3493 82.5958 458.397 254.799
2878 0 226.261 15.6854 3549 83.4503 458.865 253.495
2879 0 233.278 15.5051 3617 85.6986 458.651 238
2880 0 167.49 15.2248 2550 92.1184 459.11 190.491
2881 0 175.866 15.9951 2813 90.5923 459.546 190.249
2882 1 117.176 8.11602 951 69.6583 459.993 339.102
2883 0 113.148 9.20914 1042 69.5931 459.215 337.278
2884 0 110.074 10.4838 1154 67.9827 459.769 335.685
2885 0 110.073 10.0479 1106 71.1754 458.273 335.86
2886 0 103.185 12.0657 1245 69.09 457.066 334.785
2887 0 109.14 11.2608 1229 71.7177 457.985 333.926
2888 0 103.091 11.7275 1209 74.2564 458.819 333.093
2889 0 101.191 13.8154 1398 62.407 458.839 326.95
2890 0 110.065 11.5932 1276 67.4287 458.047 329.739
2891 1 99.1194 13.9428 1382 64.5441 458.549 324.804
2892 0 99.1829 15.6479 1552 64.2436 458.434 325.005
2893 0 93.1271 18.1687 1692 65.5786 458.435 321.991
2894 0 83.1097 13.1754 1095 84.4804 458.005 327.456
2895 1 44.0189 11.5178 507 76.3294 460.168 350.481
2896 0 43.0985 10.4876 452 84.615 459.816 349.507
2897 0 43.0351 11.7811 507 83.0039 460.321 351.844
2898 0 45.0727 11.4703 517 85.4004 459.333 350.625
2899 0 46.1193 11.3402 523 85.6119 458.822 348.033
2900 0 46.0557 11.5078 530 84.1604 459.472 348.113
2901 0 48.0401 11.6569 560 80.8982 458.95 346.434
2902 0 51.1546 12.1201 620 79.0113 459.218 347.148
2903 0 50.1279 11.2313 563 81.3428 458.629 346.099
2904 0 50.1792 11.2796 566 81.9081 458.235 346.216
2905 0 53.1129 10.8825 578 81.5242 458.41 346.746
2906 0 54.1097 11.144 603 82.4975 458.9 344.522
2907 0 57.1179 12.1503 694 80.6484 459.246 344.066
2908 0 58.1542 12.0198 699 82.8841 458.611 344.465
2909 0 59.0464 12.414 733 82.4884 459.667 342.502
2910 0 60.0183 13.046 783 83.5696 460.22 343.129
2911 0 62.0211 12.6892 787 87.1233 460.02 341.983
2912 0 63.0578 12.4489 785 89.7516 459.485 341.409
2913 0 66.1265 12.6878 839 88.6567 459.051 341.737
2914 0 66.0561 13.0495 862 88.9281 459.821 341.7
2915 0 69.0875 13.2006 912 90.4145 460.068 340.804
2916 0 69.1062 13.6457 943 91.2757 459.753 339.875
2917 0 70.0434 13.4774 944 92.1419 459.607 339.603
2918 0 73.11 13.9789 1022 92.0538 459.481 338.241
2919 0 72.1245 13.1578 949 96.3709 459.638 337.487
2920 0 74.0459 12.5598 930 88.2548 459.198 338.822
2921 0 75.0957 12.1844 915 90.7683 458.869 336.785
2922 0 76.0899 11.4864 874 92.6796 458.551 337.2
2923 0 80.0518 12.342 988 90.9605 458.175 336.404
2924 0 81.1344 11.9924 973 94.1603 458.599 336.086
2925 0 82.1642 12.1464 998 98.4148 458.206 332.708
2926 0 86.1808 12.3926 1068 98.882 458.159 332.257
2927 0 89.1199 12.6795 1130 99.6168 458.08 330.347
2928 1 50.1224 12.27 615 100.239 458.98 349.535
2929 0 52.1076 12.4358 648 100.316 457.995 349.06
2930 0 50.1656 12.5385 629 107.409 458.827 347.908
2931 0 53.2152 11.9515 636 108.863 458.748 346.98
2932 0 54.1185 11.5672 626 111.022 459.163 345.323
2933 0 56.175 11.571 650 110.654 458.7 345.531
2934 0 57.205 12.1493 695 110.209 459.255 344.19
2935 0 59.1465 12.0379 712 112.921 457.729 344.299
2936 0 61.1352 13.0858 800 110.594 457.788 342.764
2937 0 63.0933 13.4563 849 108.24 457.801 343.27
2938 0 64.1259 14.0817 903 107.661 459.025 342.79
2939 0 64.1012 12.7767 819 113.447 458.116 340.967
2940 0 67.1104 13.1574 883 113.009 458.283 339.691
2941 0 68.0883 13.1888 898 114.05 458.998 338.677
2942 0 70.0848 12.97 909 115.871 458.473 338.325
2943 0 72.1169 13.4781 972 115.366 458.609 338.439
2944 0 72.1076 13.4799 972 118.063 458.633 336.608
2945 0 77.11 13.8763 1070 115.351 458.702 335.237
2946 0 79.0686 14.2534 1127 115.007 459.312 333.905
2947 0 82.0904 14.7155 1208 113.356 459.297 333.688
2948 0 84.0944 14.8167 1246 114.071 459.096 331.178
2949 0 88.1 14.9943 1321 104.745 459.4 331.232
2950 0 87.0622 14.5413 1266 107.66 458.724 330.99
2951 0 93.0701 15.0317 1399 105.432 459.074 328.859
2952 0 94.1191 14.6304 1377 110.187 459.97 328.724
2953 0 97.1233 14.6721 1425 110.644 459.771 326.235
2954 0 100.161 14.9759 1500 110.275 460.234 325.361
2955 0 101.153 14.5819 1475 112.281 459.706 323.519
2956 0 106.068 13.7365 1457 120.852 459.323 321.848
2957 1 56.0947 12.675 711 120.384 459.466 345.982
2958 0 58.0427 12.6459 734 114.952 459.681 340.702
2959 0 59.1444 13.2895 786 117.429 459.22 342.628
2960 0 59.0585 12.6654 748 111.274 459.388 343.981
2961 0 61.0846 12.4909 763 111.717 458.92 342.761
2962 0 63.1163 12.3423 779 112.652 459.109 341.992
2963 0 66.0951 12.8754 851 109.296 459.541 342.409
2964 0 67.1716 12.4457 836 110.895 459.214 340.852
2965 0 70.0955 12.5543 880 109.48 459.502 340.374
2966 0 72.1187 12.9509 934 107.708 459.167 340.817
2967 0 72.1098 13.5627 978 106.236 458.913 339.217
2968 0 77.1179 13.1746 1016 106.305 459.617 337.763
2969 0 80.1447 13.1762 1056 106.837 459.781 335.009
2970 0 84.0588 14.585 1226 108.124 459.542 331.919
2971 0 85.0915 14.22 1210 108.823 459.942 331.558
2972 0 88.0768 14.4533 1273 107.032 459.765 329.013
2973 0 91.0823 13.9325 1269 108.029 460.11 328.039
2974 0 93.106 14.5748 1357 105.117 459.713 326.417
2975 0 95.1147 14.0567 1337 104.604 460.286 325.592
2976 0 99.126 14.1638 1404 103.417 459.652 322.429
2977 0 102.123 14.1398 1444 102.776 458.944 322.802
2978 0 105.131 13.9826 1470 102.74 459.133 320.398
2979 0 109.13 14.5697 1590 100.468 458.682 319.519
2980 1 60.0942 12.3972 745 98.8 459.349 343.875
2981 0 61.0563 11.9234 728 98.1951 459.746 343.552
2982 0 64.034 13.5241 866 99.2841 459.233 339.418
2983 0 64.0528 13.3484 855 95.5006 459.407 340.554
2984 0 68.0513 13.5633 923 93.3965 459.013 338.606
2985 0 71.0824 13.5758 965 92.342 459.664 338.383
2986 0 72.0692 13.3899 965 94.6964 459.466 336.094
2987 0 76.064 13.0811 995 94.0382 459.38 333.836
2988 0 77.062 13.1323 1012 95.919 459.299 332.71
2989 0 80.1028 13.5576 1086 93.6179 459.279 332.169
2990 0 83.0709 14.0001 1163 94.3508 459.19 330.914
2991 0 87.1103 14.2233 1239 92.9048 459.178 329.667
2992 0 89.1121 14.5435 1296 96.1682 459.184 327.264
2993 0 92.0726 13.7826 1269 95.5422 458.423 326.054
2994 0 95.0846 13.9875 1330 94.8053 458.518 325.206
2995 0 95.0846 14.0086 1332 157.764 459.518 325.223
2996 0 100.153 13.779 1380 94.6993 459.201 320.782
2997 0 102.205 13.8643 1417 94.091 459.706 318.426
2998 0 106.11 13.8065 1465 92.4894 459.939 317.425
2999 0 110.19 12.905 1422 92.1955 459.757 317.255
3000 1 55.1237 11.2474 620 88.6113 460.256 340.826
3001 0 58.04 11.5955 673 85.5007 459.942 334.571
3002 0 58.035 11.7515 682 85.2243 459.833 331.74
3003 0 62.0578 12.7623 792 86.1275 459.163 334.413
3004 0 65.1454 13.9073 906 81.9547 459.935 335.993
3005 0 67.0858 14.1013 946 80.7865 458.873 334.831
3006 0 67.0352 13.2468 888 76.6374 459.87 333.983
3007 0 71.073 13.0289 926 76.2462 459.126 334.47
3008 0 73.0503 13.2101 965 76.4124 458.909 332.807
3009 0 75.0307 13.3145 999 77.4264 458.481 330.925
3010 0 77.0479 13.8875 1070 76.1617 459.209 329.866
3011 0 81.0225 13.8974 1126 76.6847 458.627 329.006
3012 0 81.0387 13.8329 1121 78.4318 459.006 327.465
3013 0 87.0846 14.1816 1235 76.9976 459.128 326.447
3014 0 88.0674 14.4548 1273 76.9749 459.036 324.215
3015 0 90.043 14.1266 1272 77.1855 458.831 325.362
3016 0 92.0727 13.8803 1278 78.9296 458.841 323.376
3017 0 96.0546 13.6797 1314 80.8988 458.8 320.275
3018 0 97.0627 14.2382 1382 78.9696 459.035 318.179
3019 0 101.085 14.4532 1461 79.1745 459.036 319.114
3020 0 103.118 13.7609 1419 81.2671 458.888 316.304
3021 0 108.255 15.3157 1658 83.3758 459.421 315.743
3022 0 112.139 15.6502 1755 83.5789 459.341 311.944
3023 1 59.1086 12.2825 726 84.5289 460.004 338.788
3024 0 61.0863 13.1617 804 86.1567 459.308 336.886
3025 0 65.1179 14.0668 916 83.857 460.074 335.552
3026 0 66.0579 13.6093 899 86.6496 459.967 335.754
3027 0 69.0609 14.2628 985 86.2061 459.672 333.425
3028 0 72.0953 14.1341 1019 84.9598 459.634 333.905
3029 0 74.0754 14.5932 1081 85.8853 460.127 332.128
3030 0 76.0575 14.2129 1081 86.7743 460.406 332.282
3031 0 78.1347 14.0015 1094 87.5658 460.417 331.221
3032 0 80.1345 13.8517 1110 87.8288 460.164 330.419
3033 0 82.1619 12.9257 1062 84.8136 460.39 329.936
3034 0 84.0677 13.4534 1131 88.4624 460.565 326.302
3035 0 86.1601 12.8366 1106 91.9177 460.345 325.787
3036 0 91.1958 13.2243 1206 87.4677 459.717 327.934
3037 0 94.1728 12.8806 1213 88.3965 460.022 327.858
3038 1 50.082 12.0402 603 86.5141 459.683 346.498
3039 0 53.1027 12.8054 680 83.8176 459.287 340.515
3040 0 52.0996 13.2247 689 84.1626 459.196 340.904
3041 0 55.0466 12.8437 707 85.0835 459.73 339.136
3042 0 56.0478 13.0424 731 85.3406 459.594 337.803
3043 0 58.1091 13.2337 769 85.9883 459.653 337.906
3044 0 58.0611 12.9174 750 87.2747 459.335 336.928
3045 0 59.0563 13.1569 777 86.2162 459.543 337.273
3046 0 63.0517 13.1479 829 85.2207 459.331 336.435
3047 0 66.0356 13.6744 903 83.9147 459.979 336.604
3048 0 66.0324 13.8568 915 85.9005 460.189 335.845
3049 0 68.0708 13.9414 949 85.8577 459.131 333.855
3050 0 70.0535 13.4754 944 87.91 459.264 331.619
3051 0 72.0426 13.839 997 90.002 459.526 330.703
3052 0 74.0429 13.9919 1036 90.5405 458.673 329.537
3053 0 78.0322 13.9173 1086 89.9751 459.611 330.264
3054 0 81.0203 14.5889 1182 88.6997 459.439 329.514
3055 0 82.0312 14.4457 1185 91.1578 459.213 327.127
3056 0 86.0526 14.1193 1215 93.8584 459.558 325.193
3057 0 88.0414 14.1184 1243 94.35 459.882 324.434
3058 0 92.0935 14.3984 1326 93.3582 459.512 322.602
3059 0 95.0582 14.4753 1376 94.3031 459.446 321.203
3060 1 48.0808 11.8966 572 99.2483 459.439 343.08
3061 0 50.0596 12.1256 607 95.8105 459.473 338.988
3062 0 50.0748 12.8408 643 92.9891 459.933 341.222
3063 0 50.0503 13.0469 653 94.7596 460.727 340.974
3064 0 53.0609 13.1547 698 94.7178 460.351 340.936
3065 0 55.0954 13.4857 743 93.432 459.76 340.729
3066 0 55.0468 12.9344 712 97.0997 460.549 338.067
3067 0 55.0468 12.9889 715 167.014 460.558 338.052
3068 0 59.0421 13.4311 793 96.5889 460.131 337.434
3069 0 60.0507 13.7217 824 96.5328 460.737 336.874
3070 0 63.0742 14.2055 896 96.6897 460.066 335.251
3071 0 64.0842 14.2157 911 98.5445 460.18 334.576
3072 0 66.0954 13.9798 924 98.6786 460.056 333.802
3073 0 68.1247 14.1212 962 100.208 459.845 332.411
3074 0 72.1365 14.1815 1023 100.005 459.377 331.129
3075 0 74.1654 14.198 1053 100.611 459.48 331.425
3076 0 76.0557 14.016 1066 102.028 459.141 330.212
3077 0 78.0607 14.271 1114 103.597 460.03 328.097
3078 0 82.0521 14.8686 1220 100.879 460.793 328.466
3079 0 83.0993 14.0916 1171 105.382 459.991 326.802
3080 0 84.0697 14.9995 1261 106.055 459.807 325.216
3081 0 87.1195 14.3137 1247 107.855 459.567 326.319
3082 0 87.1172 14.3485 1250 172.511 458.575 326.213
3083 0 95.1214 14.287 1359 106.077 459.183 322.428
3084 1 49.059 12.7194 624 108.779 459.763 342.872
3085 0 52.0385 12.7021 661 105.593 460.383 341.658
3086 0 54.0402 13.786 745 105.281 460.882 340.554
3087 0 55.0526 14.023 772 104.591 460.33 339.892
3088 0 57.0618 13.4941 770 108.623 460.466 339.406
3089 0 59.0699 14.1358 835 106.826 459.889 338.108
3090 0 61.0457 13.6455 833 108.365 460.583 338.924
3091 0 63.1308 13.0998 827 109.868 460.157 338.583
3092 0 63.0122 13.1244 827 112.409 460.474 338.432
3093 0 66.0585 14.3963 951 107.794 460.292 335.901
3094 0 68.0635 14.2514 970 109.244 460.31 334.459
3095 0 70.0451 14.3479 1005 109.172 460.486 334.3
3096 0 73.0338 14.5138 1060 109.661 460.95 333.171
3097 0 75.0566 13.5631 1018 112.509 461.235 334.051
3098 0 75.0566 13.5365 1016 180.876 462.244 333.852
3099 0 79.0265 14.628 1156 108.928 459.584 329.285
3100 0 82.0653 14.8053 1215 108.893 460.44 327.729
3101 0 83.0662 14.7232 1223 110.861 459.803 327.581
3102 0 85.0609 15.2832 1300 110.333 459.488 325.982
3103 0 87.0871 15.5936 1358 110.687 459.428 324.804
3104 0 91.0726 15.2735 1391 110.965 459.763 322.784
3105 0 92.0905 15.0939 1390 112.39 459.841 321.924
3106 0 95.0655 15.1264 1438 112.358 459.446 320.292
3107 0 100.027 15.4859 1549 108.961 459.666 319.447
3108 0 103.081 14.8815 1534 110.166 460.325 317.938
3109 1 56.0705 12.4843 700 111.106 459.823 340.436
3110 0 58.0676 13.1915 766 106.932 459.803 340.151
3111 0 60.0512 13.1055 787 106.835 459.407 337.851
3112 0 61.0415 14.269 871 105.037 459.276 337.278
3113 0 63.0181 13.8849 875 106.176 459.593 337.178
3114 0 65.0472 13.8054 898 105.695 459.696 337.269
3115 0 66.0322 14.3718 949 104.528 460.067 336.844
3116 0 69.0428 14.4838 1000 104.616 459.724 335.616
3117 0 70.0738 14.2136 996 105.403 460.218 334.118
3118 0 72.0583 13.8915 1001 105.925 459.482 332.119
3119 0 76.0253 14.6925 1117 102.847 459.475 330.372
3120 0 76.0183 13.5625 1031 107.598 459.12 329.429
3121 0 80.0191 14.884 1191 103.065 459.101 328.634
3122 0 84.0908 14.6508 1232 103.582 459.154 325.989
3123 0 85.0714 15.2107 1294 102.03 459.623 326.161
3124 0 88.1087 14.868 1310 102.815 459.384 324.277
3125 0 90.0828 15.0195 1353 102.038 459.582 323.77
3126 0 92.0828 14.8888 1371 102.43 460.292 323.511
3127 0 95.0336 15.0052 1426 101.489 459.876 321.675
3128 0 99.0561 15.2742 1513 99.8982 459.881 318.725
3129 0 104.135 14.8174 1543 99.9326 459.208 318.584
3130 0 108.117 14.9098 1612 101.431 459.535 316.552
3131 0 111.103 15.5532 1728 99.3113 459.649 315.321
3132 1 61.0827 13.0806 799 102.168 460.015 337.866
3133 0 61.0815 12.8517 785 102.74 459.614 337.427
3134 0 65.1029 13.3481 869 102.165 460.136 337.338
3135 0 68.0556 14.4441 983 99.9247 459.753 334.338
3136 0 70.0709 14.6423 1026 99.8041 460.086 334.341
3138 0 72.0518 13.9067 1002 102.437 460.217 333.337
3139 0 74.0541 14.3139 1060 103.709 459.824 333.707
3140 0 76.0443 14.1628 1077 105.306 459.79 332.959
3141 0 79.0616 14.7733 1168 105.71 459.795 329.092
3142 0 80.0701 14.5872 1168 107.948 460.306 328.354
3143 0 84.0738 14.7846 1243 108.865 459.817 326.514
3144 0 89.073 14.8754 1325 108.816 460.026 324.042
3145 0 91.0851 14.9421 1361 110.054 459.664 322.622
3146 0 95.0737 15.0515 1431 108.69 459.748 322.418
3147 0 97.0973 14.7481 1432 105.152 459.552 320.025
3148 0 99.0551 14.6787 1454 107.369 459.717 319.927
3149 0 103.081 14.6389 1509 106.632 459.455 319.672
3150 0 107.184 13.7987 1479 109.089 459.737 319.667
3151 0 110.106 13.8866 1529 108.425 459.318 318.487
3152 1 58.0256 13.8904 806 105.963 460.247 339.485
3153 0 59.0671 13.4254 793 107.463 459.764 338.941
3154 0 62.0537 14.2941 887 105.515 459.989 336.806
3155 0 63.0508 13.5605 855 108.834 459.829 336.556
3156 0 65.0522 14.3423 933 107.459 460.258 335.565
3157 0 65.0522 14.4038 937 176.429 460.264 335.545
3158 0 68.0593 13.9437 949 105.777 459.954 334.838
3159 0 70.0486 14.0474 984 105.2 459.98 333.706
3160 0 73.082 14.2443 1041 104.635 459.36 332.809
3161 0 74.0629 14.2851 1058 107.081 459.664 330.793
3162 0 77.0778 14.0248 1081 107.271 459.455 330.858
3163 0 79.0842 14.63 1157 106.482 459.714 328.761
3164 0 81.0688 14.3458 1163 108.669 459.348 327.485
3165 0 83.0663 15.0001 1246 108.051 459.313 326.726
3166 0 85.0767 14.9395 1271 107.34 459.503 325.825
3167 0 89.1247 14.9005 1328 107.5 459.495 324.29
3168 0 91.1087 14.6967 1339 108.042 459.632 323.848
3169 0 93.0833 14.9543 1392 110.458 459.885 322.125
3170 0 96.046 15.5967 1498 108.652 459.553 319.718
3171 0 100.05 15.2524 1526 107.138 459.713 318.906
3172 0 102.085 15.35 1567 105.059 459.761 317.276
3173 0 107.057 15.2255 1630 105.086 459.633 313.966
3174 0 110.096 14.8507 1635 105.605 459.576 312.719
3175 1 57.0251 12.4331 709 107.669 459.714 337.739
3176 0 62.0619 13.1643 817 102.759 459.076 338.293
3177 0 64.0483 13.2868 851 103.296 459.639 336.475
3178 0 64.0476 13.5993 871 104.41 459.463 334.016
3179 0 67.1054 13.68 918 105.183 459.586 333.68
3180 0 69.0283 13.6611 943 104.941 459.561 332.8
3181 0 72.0345 13.9655 1006 105.247 459.796 331.229
3182 0 74.078 13.8233 1024 105.924 459.221 330.143
3183 0 76.1412 13.7114 1044 106.412 460.252 329.888
3184 0 80.0887 14.1718 1135 104.761 459.479 327.056
3185 0 81.075 13.2593 1075 107.631 459.22 326.131
3186 0 84.1093 13.9461 1173 106.371 458.997 325.51
3187 0 87.1727 13.5708 1183 106.841 460.174 324.483
3188 0 89.0621 13.6758 1218 105.523 459.577 324.017
3189 0 92.2143 13.4903 1244 106.338 459.805 321.27
3190 0 96.1156 13.2549 1274 105.535 459.162 320.718
3191 0 97.1179 12.8504 1248 106.369 459.494 318.964
3192 1 54.0553 11.3032 611 101.987 459.393 341.586
3193 0 55.0506 12.2433 674 99.5964 460.101 338.223
3194 0 56.0325 12.4035 695 98.7396 459.858 337.344
3195 0 59.0899 11.5756 684 99.5351 459.681 337.174
3196 0 62.0449 11.9913 744 96.8078 459.352 336.06
3197 0 60.0311 11.7273 704 97.8608 460.287 334.405
3198 0 62.051 11.6839 725 99.0938 460.237 335.157
3199 0 66.0204 12.072 797 97.7064 459.319 332.317
3200 0 70.033 12.694 889 95.1327 459.892 331.703
3201 0 71.0507 12.4559 885 97.365 459.653 330.299
3202 0 73.1182 12.514 915 97.9585 459.859 328.964
3203 0 78.064 13.3736 1044 95.0469 459.681 328.553
3204 0 78.0533 12.5683 981 97.4393 460.629 326.036
3205 0 82.0393 12.4209 1019 97.2463 460.292 324.879
3206 0 84.0601 12.7885 1075 96.9126 459.423 323.472
3207 0 88.0987 13.4281 1183 98.1454 459.382 322.128
3208 0 90.1503 13.0893 1180 100.34 459.539 320.102
3209 0 94.0774 13.4889 1269 97.7132 460.306 319.18
3210 0 97.0961 13.8111 1341 95.6987 460.128 316.8
3211 0 98.1065 13.4344 1318 96.2451 459.057 317.714
3212 0 102.084 13.2831 1356 96.073 458.645 314.979
3213 0 105.102 13.3584 1404 97.9131 459.556 312.751
3214 0 109.115 13.1421 1434 96.537 460.155 311.049
3215 0 109.115 13.0505 1424 154.824 461.152 311.046
3216 1 61.0938 12.6363 772 89.1904 460.387 338.22
3217 0 66.065 12.3061 813 89.0394 460.185 335.541
3218 0 67.0437 12.1563 815 93.411 459.771 334.707
3219 0 68.019 12.3054 837 93.3059 460.656 334.634
3220 0 72.0541 12.9625 934 91.2216 460.043 332.414
3221 0 74.0392 12.9661 960 92.1604 459.628 331.106
3222 0 75.087 12.2924 923 94.0834 460 329.398
3223 0 80.0421 12.7683 1022 91.8493 460.091 329.339
3224 0 80.0639 12.9022 1033 93.6486 459.868 326.64
3225 0 84.0649 13.3825 1125 90.7511 459.277 325.234
3226 0 87.1809 13.4892 1176 90.2491 458.895 325.476
3227 0 89.0999 13.0977 1167 91.2699 459.041 324.196
3228 0 91.0914 13.3383 1215 91.079 459.052 321.272
3229 0 94.0628 12.8744 1211 92.5161 458.941 318.991
3230 0 97.0911 12.9672 1259 91.4805 459.442 319.141
3231 0 100.102 13.0866 1310 91.2214 459.144 316.521
3232 0 105.103 13.0538 1372 90.4213 459.378 314.652
3233 0 106.119 12.6838 1346 91.2533 459.168 313.525
3234 0 109.149 12.4325 1357 91.9934 458.452 312.556
3235 0 112.093 12.1506 1362 92.8421 458.576 312.123
3236 0 118.131 13.5189 1597 90.3331 458.644 306.457
3237 0 121.081 13.0574 1581 92.172 459.027 307.515
3238 0 123.126 12.9217 1591 92.4299 458.48 306.226
3239 1 69.1175 11.4732 793 85.4439 458.95 333.409
3240 0 71.0547 13.1589 935 88.1722 459.545 331.829
3241 0 74.0774 12.9054 956 88.113 459.603 329.38
3242 0 78.0907 12.8312 1002 87.1946 459.293 328.021
3243 0 78.0953 12.7921 999 88.8639 460.316 326.838
3244 0 82.0842 13.3278 1094 87.7678 459.808 325.656
3245 0 85.0496 13.3099 1132 87.8154 460.258 325.534
3246 0 88.0362 13.3241 1173 89.1014 459.85 323.455
3247 0 90.0417 13.1161 1181 89.6528 459.438 322.63
3248 0 93.0863 13.6755 1273 87.3252 459.642 321.981
3249 0 97.0592 13.5278 1313 87.9071 459.711 319.027
3250 0 99.0697 13.7378 1361 87.108 459.227 317.885
3251 0 103.092 14.2203 1466 85.3492 459.805 316.669
3252 0 106.233 13.5457 1439 85.6164 460.072 314.146
3253 0 108.167 13.2202 1430 86.121 459.42 313.085
3254 0 111.07 13.379 1486 85.9367 458.421 310.767
3255 0 115.15 13.5562 1561 85.9334 459.495 311.043
3256 1 63.0534 11.2444 709 83.4217 459.47 336.391
3257 0 66.1202 12.0992 800 86.6813 459.798 334.006
3258 0 68.0829 13.3073 906 85.1987 458.895 333.475
3259 0 67.1161 12.8881 865 89.5988 459.603 331.14
3260 0 71.1135 13.6964 974 88.4363 460.036 331.387
3261 0 72.0867 13.4699 971 89.1215 459.743 331.181
3262 0 76.0904 13.9965 1065 88.6808 459.698 329.469
3263 0 78.2021 13.35 1044 90.6044 459.012 327.791
3264 0 79.1183 14.3203 1133 88.9921 459.342 329.226
3265 0 80.167 13.8336 1109 91.8142 459.318 327.955
3266 0 83.1543 14.4551 1202 91.3677 459.798 326.259
3267 0 86.1666 14.8085 1276 89.7892 459.495 325.364
3268 0 89.1599 14.3899 1283 90.3539 459.118 325.03
3269 0 92.1667 14.4195 1329 92.3649 458.997 322.507
3270 0 95.1521 15.5961 1484 91.4286 459.751 320.98
3271 0 98.1782 14.3922 1413 92.2505 459.24 319.764
3272 0 100.134 14.2409 1426 92.5947 459.494 319.547
3273 0 104.074 14.8933 1550 90.0568 459.717 316.299
3274 1 57.0616 12.3901 707 89.3451 460.658 340.041
3275 0 59.0338 12.8232 757 89.8058 459.721 339.371
3276 0 60.0877 13.2307 795 87.5585 460.39 339.727
3277 0 63.0314 13.8978 876 86.5034 460.709 337.368
3278 0 65.0559 14.5567 947 89.1827 460.128 336.47
3279 0 67.0938 14.8449 996 89.49 460.092 336.394
3280 0 70.0288 14.951 1047 88.7058 460.915 335.226
3281 0 72.0658 15.0141 1082 87.8216 460.992 334.427
3282 0 74.0772 15.0924 1118 87.9687 460.993 332.777
3283 0 74.0772 15.1059 1119 170.12 461.968 332.7
3284 0 78.063 14.6933 1147 87.6391 460.433 330.558
3285 0 79.0989 15.1456 1198 86.722 459.036 330.259
3286 0 80.0648 14.2759 1143 89.4759 459.699 328.464
3287 0 85.1198 14.6852 1250 86.2272 459.208 326.993
3288 0 86.1177 14.9795 1290 85.9419 459.764 325.667
3289 0 87.1306 14.4725 1261 87.5226 459.915 324.463
3290 0 91.0791 14.8991 1357 85.6087 460.668 323.408
3291 0 93.0408 14.843 1381 85.4062 459.904 321.19
3292 0 94.0655 15.0108 1412 86.8031 459.724 321.171
3293 0 99.106 15.5894 1545 84.0777 459.471 318.707
3294 0 99.0628 13.9306 1380 88.3616 459.687 319.675
3295 0 99.0628 13.9608 1383 156.088 459.659 319.71
3296 0 106.094 14.3458 1522 86.1991 459.993 317.491
3297 0 109.051 14.3235 1562 85.669 460.343 313.633
3298 0 114.119 13.9065 1587 85.736 460.302 310.056
3299 1 62.0728 12.5176 777 87.3887 460.492 334.139
3300 0 64.0453 12.741 816 88.2782 460.276 332.525
3301 0 67.026 13.4575 902 86.1075 460.275 334.164
3302 0 69.0533 13.6851 945 86.7799 459.396 331.438
3303 0 71.0695 13.3953 952 87.0263 459.3 331.533
3304 0 73.0536 13.2232 966 88.3116 459.226 331.039
3305 0 75.086 14.3169 1075 87.1693 459.249 329.967
3306 0 79.0877 14.2374 1126 87.9902 460.004 328.173
3307 0 80.0603 14.0644 1126 89.3694 459.877 325.968
3308 0 82.1197 13.8091 1134 89.866 459.92 327.133
3309 0 86.0881 14.7988 1274 87.6766 460.333 326.914
3310 0 88.0697 14.6589 1291 88.0054 459.282 322.215
3311 0 89.0645 15.3821 1370 87.4088 459.669 324.269
3312 0 94.0968 15.0483 1416 87.1617 460.431 323.121
3313 0 98.041 14.7183 1443 87.1386 460.289 320.842
3314 0 98.1176 15.2062 1492 87.1361 459.767 320.456
3315 0 103.125 15.612 1610 85.3112 460.288 318.616
3316 0 105.157 15.5577 1636 85.706 460.026 315.15
3317 0 110.074 14.9899 1650 86.2927 459.499 313.108
3318 0 114.133 15.0176 1714 86.5088 460.31 312.31
3319 0 118.185 15.0781 1782 85.0208 460.167 309.4
3320 0 122.089 15.4559 1887 83.248 460.415 307.118
3321 1 63.0997 12.6625 799 86.1502 460.564 335.227
3322 0 66.048 13.2782 877 85.268 460.513 333.147
3323 0 69.1628 14.2707 987 83.3232 460.118 333.042
3324 0 73.0595 16.1239 1178 73.2937 459.795 332.823
3325 0 72.1941 14.9735 1081 83.4209 459.65 330.989
3326 0 75.0733 14.1995 1066 83.8649 459.925 328.912
3327 0 76.0838 13.656 1039 86.9163 460.771 328.203
3328 0 80.1485 14.6478 1174 84.9915 460.118 326.662
3329 0 82.1608 14.6907 1207 85.6893 460.812 329.048
3330 0 84.1154 14.2661 1200 87.2617 460.528 327.964
3331 0 88.1403 14.8173 1306 86.0176 460.038 326.829
3332 0 89.193 15.5169 1384 85.6597 459.535 323.988
3333 0 90.2196 14.6421 1321 89.6472 460.98 323.911
3334 0 93.1337 15.0858 1405 88.3587 460.249 322.52
3335 0 95.1172 15.0551 1432 88.581 459.99 321.897
3336 0 99.1189 14.4069 1428 90.0371 460.104 320.935
3337 0 100.109 14.704 1472 90.2283 460.336 321.543
3338 0 106.216 15.1107 1605 88.8131 460.032 320.812
3339 1 117.125 19.2614 2256 76.2513 460.082 313.276
3340 0 117.098 18.7365 2194 79.139 460.022 311.598
3341 0 119.12 19.9044 2371 76.0797 460.134 308.366
3342 0 119.196 17.5593 2093 83.0057 460.062 311.008
3343 0 124.198 17.609 2187 84.2867 460.156 309.238
3344 1 68.0547 13.2394 901 93.4284 460.497 337.6
3345 0 68.1164 13.4035 913 92.3034 460.17 334.906
3346 0 72.164 13.9405 1006 90.0119 460.093 333.546
3347 0 74.0207 14.8337 1098 90.5118 460.046 332.511
3348 0 76.0762 14.5906 1110 90.9937 460.769 331.391
3349 0 76.0762 14.6432 1114 176.917 461.74 331.399
3350 0 82.1443 15.0102 1233 94.0024 459.307 328.912
3351 0 83.1057 15.1013 1255 94.1992 459.184 326.087
3352 0 87.0727 18.3065 1594 79.8551 459.611 328.205
3353 0 88.1243 15.2852 1347 93.4907 459.665 324.7
3354 0 92.0921 16.212 1493 90.7053 459.44 321.703
3355 0 94.1612 15.6009 1469 91.6167 459.333 320.953
3356 0 97.0813 15.4304 1498 91.6415 459.51 320.594
3357 0 101.059 15.1693 1533 90.3046 459.079 319.08
3358 0 104.151 15.6408 1629 89.0184 459.534 317.898
3359 0 107.157 14.8007 1586 90.7636 458.885 316.729
3360 1 58.0496 13.3334 774 90.5233 459.619 343.137
3361 0 61.0673 13.7717 841 90.3757 459.442 340.319
3362 0 62.0247 14.1557 878 90.8736 458.926 339.284
3363 0 66.0834 14.7541 975 87.3344 459.03 336.898
3364 0 67.1334 14.8957 1000 87.42 458.893 336.325
3365 0 68.0476 14.7544 1004 89.6604 458.57 335.271
3366 0 69.0564 13.8148 954 92.0891 459.211 335.717
3367 0 73.0824 15.0652 1101 88.9746 459.576 334.55
3368 0 76.0535 14.7791 1124 90.5027 459.309 334.835
3369 0 78.1026 15.0699 1177 89.0306 459.083 334.385
3370 0 79.0798 14.7193 1164 92.1856 459.931 332.119
3371 0 80.1381 14.5 1162 94.3408 459.64 332.724
3372 0 84.0587 15.0847 1268 92.7484 459.644 328.907
3373 0 88.0529 15.8768 1398 90.9235 459.68 325.479
3374 0 90.0728 15.5319 1399 93.1051 458.766 324.472
3375 0 92.0479 14.9596 1377 95.7872 459.365 322.809
3376 0 96.06 15.5215 1491 94.1945 458.927 323.343
3377 0 97.0844 15.1415 1470 97.0837 458.833 322.988
3378 0 100.069 15.7891 1580 94.8171 459.302 322.972
3379 0 103.087 14.7836 1524 97.7375 460.005 320.169
3380 0 108.08 15.0629 1628 94.3145 459.02 313.289
3381 1 53.0794 11.6806 620 90.7323 460.323 339.587
3382 0 56.0324 13.171 738 90.0054 459.575 340.515
3383 0 59.0871 12.8793 761 92.184 460.087 337.989
3384 0 61.0963 13.225 808 95.8577 459.391 336.311
3385 0 64.0814 13.951 894 94.123 460.536 337.923
3386 0 66.1137 13.4768 891 94.6566 460.405 335.896
3387 0 69.0744 14.1586 978 92.9939 460.202 336.246
3388 0 71.0784 14.1956 1009 93.893 459.763 335.796
3389 0 71.0552 13.4825 958 96.4896 459.406 332.934
3390 0 75.1273 13.8299 1039 94.6083 459.696 331.87
3391 0 78.1102 13.2633 1036 95.4749 459.554 332.159
3392 0 79.1156 13.8279 1094 95.319 458.925 329.738
3393 0 82.0698 14.707 1207 93.7291 459.494 327.934
3394 0 84.0564 14.0025 1177 96.2778 458.867 327.61
3395 0 87.0888 13.9398 1214 95.2199 459.119 328.77
3396 0 90.0634 13.9679 1258 94.6431 459.137 328.137
3397 0 91.1252 14.2002 1294 95.027 459.134 326.319
3398 0 94.0609 13.9165 1309 94.6921 458.732 326.784
3399 0 99.0488 13.9628 1383 94.6616 458.972 324.343
3400 0 101.175 14.3217 1449 94.3299 458.894 322.187
3401 0 105.041 14.4038 1513 94.2868 458.519 319.367
3402 0 107.068 14.1686 1517 95.3685 458.693 319.072
3403 0 110.085 14.1981 1563 94.5157 458.031 319.389
3404 0 115.066 14.0354 1615 94.808 458.405 316.62
3405 0 119.071 14.4535 1721 94.9808 458.149 317.2
3406 0 121.098 17.044 2064 81.6764 457.927 312.175
3407 0 127.048 14.5693 1851 94.4889 458.855 309.921
3408 0 128.092 13.5762 1739 97.5969 458.761 309.819
3409 0 134.096 14.2584 1912 94.9948 459.003 306.558
3410 0 139.113 14.5781 2028 94.6415 458.603 307.685
3411 0 143.143 14.3633 2056 94.856 459.411 305.951
3412 0 149.166 16.9543 2529 88.6754 458.758 297.56
3413 0 151.153 14.0718 2127 96.7123 459.078 299.086
3414 0 154.152 13.5646 2091 97.9555 458.017 299.129
3415 0 160.275 13.6515 2188 97.596 458.646 295.033
3416 0 170.238 16.0129 2726 90.416 457.682 284.596
3417 0 171.205 13.8898 2378 94.7717 458.612 288.365
3418 0 177.232 14.2751 2530 94.2182 458.487 287.042
3419 0 183.224 14.3485 2629 94.6097 458.114 282.809
3420 1 99.127 12.8623 1275 87.8957 458.675 328.839
3421 0 103.151 12.9422 1335 86.7064 458.792 327.515
3422 0 105.142 13.7338 1444 87.7825 457.488 322.162
3423 0 109.121 13.3154 1453 91.161 457.295 318.625
3424 0 110.123 13.4031 1476 90.4648 457.948 320.254
3425 0 114.128 13.0292 1487 85.7512 458.26 320.353
3426 0 119.095 13.6026 1620 84.5599 457.017 320.803
3427 0 121.111 12.9138 1564 86.5486 456.953 315.687
3428 0 128.06 13.9466 1786 84.8399 456.33 314.702
3429 0 133.058 14.6854 1954 83.8009 456.781 303.514
3430 0 136.125 13.517 1840 86.9609 457.032 306.287
3431 0 146.124 16.4997 2411 80.9511 456.508 296.474
3432 0 150.101 17.0152 2554 81.0497 457.351 294.221
3433 0 152.082 16.8002 2555 81.373 457.141 296.332
3434 0 157.105 16.5686 2603 82.3119 457.13 292.185
3435 0 163.122 17.1712 2801 82.2485 457.112 286.4
3436 0 167.302 16.7302 2799 83.896 457.101 285.948
3437 0 173.136 16.5477 2865 84.2391 458 282.128
3438 0 179.219 16.9346 3035 83.4699 457.968 280.378
3439 0 184.194 17.3241 3191 82.927 457.385 278.067
3440 0 190.197 16.036 3050 85.1669 457.712 274.919
3441 0 196.186 16.7749 3291 83.8924 457.891 270.614
3442 0 201.278 17.1703 3456 83.5735 457.942 265.935
3443 0 206.284 17.2336 3555 84.6895 458.04 264.04
3444 0 213.222 16.9025 3604 85.0827 458.413 261.71
3445 0 221.309 16.7955 3717 86.2125 458.243 261.295
3446 0 228.198 15.7977 3605 89.2505 457.391 251.371
3447 0 238.259 16.7255 3985 84.6934 457.51 244.924
3448 0 246.246 16.3292 4021 86.906 457.121 242.276
3449 1 77.1333 11.7329 905 83.5215 457.545 336.042
3450 0 78.075 12.2831 959 83.0553 457.521 327.223
3451 0 80.1887 12.1214 972 87.8724 458.742 315.792
3452 0 87.0598 15.5181 1351 81.0385 457.973 323.919
3453 0 87.0543 12.8541 1119 88.6702 456.975 326.559
3454 0 90.18 12.719 1147 88.9756 458.237 328.23
3455 0 93.1342 12.9813 1209 88.66 459.227 328.036
3456 1 107.133 18.3509 1966 71.2594 458.847 313.301
3457 0 107.107 17.2912 1852 75.0724 458.154 311.962
3458 0 106.087 14.441 1532 82.5457 457.762 312.796
3459 0 108.092 14.6912 1588 82.7777 457.965 312.382
3460 1 118.173 17.4321 2060 73.2694 458.129 304.797
3461 0 119.137 17.2155 2051 75.0712 458.917 302.766
3462 1 62.0864 11.178 694 80.1311 459.012 335.98
3463 0 64.1015 11.7002 750 79.1653 458.755 331.549
3464 0 66.1369 11.9298 789 80.4335 458.739 332.361
3465 0 68.0823 11.868 808 80.6782 458.875 335.418
3466 0 69.0927 11.2602 778 77.8792 459.081 336.857
3467 0 72.0917 11.4299 824 76.9842 459.294 337.038
3468 0 74.1629 11.5826 859 77.17 459.071 335.007
3469 0 75.0702 13.0278 978 82.1718 458.564 332.171
3470 0 79.17 12.6184 999 83.011 459.179 331.227
3471 0 81.0667 13.014 1055 82.1033 459.573 329.62
3472 0 82.1291 12.5047 1027 84.5141 459.66 329.994
3473 0 87.2478 13.135 1146 83.486 459.963 329.051
3474 0 88.0745 13.6703 1204 86.5905 458.84 324.845
3475 0 92.164 14.1487 1304 86.0245 458.126 323.932
3476 0 93.1221 13.5306 1260 87.3071 458.489 322.052
3477 0 95.0543 14.0656 1337 88.1631 458.289 320.131
3478 0 98.1467 13.0825 1284 86.028 458.942 320.958
3479 0 102.11 12.7509 1302 83.8172 459.235 319.023
3480 0 105.113 13.1667 1384 85.0759 459.315 317.507
3481 0 108.142 13.5562 1466 85.6119 459.65 316.709
3482 1 60.1948 12.0774 727 87.0069 459.664 339.624
3483 0 60.107 11.6625 701 90.0899 460.308 338.857
3484 0 63.0572 12.9406 816 87.652 460.44 337.539
3485 0 64.0788 13.4678 863 86.9502 460.501 334.269
3486 0 66.1461 12.4119 821 90.5761 460.501 334.468
3487 0 66.1073 13.5537 896 90.019 460.635 333.9
3488 0 71.1217 13.6386 970 88.9515 460.898 332.823
3489 0 71.1809 13.2901 946 91.0349 460.785 332.411
3490 0 73.1764 13.6383 998 91.491 459.722 331.231
3491 0 78.1028 14.148 1105 89.771 459.379 330.014
3492 0 80.3613 13.9495 1121 90.5807 459.06 328.888
3493 0 81.2194 14.1592 1150 92.053 459.151 327.943
3494 0 86.2161 14.3941 1241 90.6978 459.215 326.763
3495 0 87.1557 14.3766 1253 92.0112 459.002 324.981
3496 0 90.2428 13.4526 1214 91.7158 458.738 327.719
3497 0 92.2047 13.6436 1258 91.0143 459.017 329.124
3498 0 95.1903 13.6463 1299 90.9369 458.791 322.352
3499 0 99.111 14.0146 1389 89.6839 459.118 320.392
3500 0 100.1 13.3167 1333 92.006 458.883 321.102
3501 0 104.177 13.3907 1395 93.3957 458.848 320.28
3502 1 57.129 11.2902 645 95.5364 459.102 344.059
3503 0 60.0879 12.6981 763 92.2831 458.471 342.51
3504 0 63.0841 13.0461 823 94.6731 459.278 340.637
3505 0 62.1161 13.5875 844 94.9277 459.249 343.519
3506 0 64.144 14.0153 899 93.3793 459.334 341.808
3507 0 66.1517 14.1644 937 93.1259 459.666 341.289
3508 0 68.1616 13.2626 904 97.8241 459.098 339.463
3509 0 71.182 14.3295 1020 94.3833 459.419 339.071
3510 0 73.094 14.8029 1082 94.4307 459.223 338.245
3511 0 76.2145 14.8003 1128 94.1463 459.327 337.755
3512 0 76.1513 14.3399 1092 96.5183 459.232 337.136
3513 0 78.1571 14.2533 1114 96.9219 458.554 335.767
3514 0 79.0315 13.2099 1044 95.0785 458.604 336.369
3515 0 81.1122 13.5861 1102 95.5717 458.849 335.335
3516 0 84.039 13.5889 1142 97.1848 459.047 332.563
3517 0 87.1251 14.462 1260 94.427 459.131 332.622
3518 0 90.0744 14.8433 1337 94.1473 459.31 332.809
3519 0 94.0618 17.4779 1644 84.219 459.141 333.012
3520 0 95.0735 14.1995 1350 97.6563 458.957 330.235
3521 0 99.1123 14.8821 1475 94.9708 458.754 328.081
3522 0 100.082 14.5081 1452 96.5344 458.491 326.795
3523 0 105.074 14.2661 1499 94.523 458.348 324.548
3524 1 55.0524 12.8786 709 100.46 458.616 344.886
3525 0 57.1191 13.7432 785 93.9962 458.404 345.112
3526 0 58.2273 14.6323 852 91.1984 458.303 344.415
3527 0 58.0204 12.4267 721 97.2635 458.322 343.732
3528 0 60.0874 12.7647 767 95.7588 458.421 343.159
3529 0 61.1182 13.5148 826 94.3414 458.462 341.179
3530 0 65.0612 13.5565 882 93.2914 458.679 338.96
3531 0 66.0905 13.3151 880 96.2136 458.443 339.001
3532 0 69.0342 13.3412 921 95.9262 458.529 337.409
3533 0 69.0345 13.4281 927 99.6526 458.586 336.697
3534 0 72.077 14.207 1024 97.7549 458.994 335.506
3535 0 75.0454 13.9915 1050 98.3648 459.137 333.531
3536 0 77.0396 13.5774 1046 100.079 459.526 332.858
3537 0 81.0205 14.4778 1173 99.5405 459.792 329.82
3538 0 82.035 14.957 1227 100.155 460.218 328.711
3539 0 84.0265 15.0191 1262 100.681 460.599 329.013
3540 0 88.0336 15.6077 1374 101.312 460.177 328.027
3541 0 87.0707 14.471 1260 109.294 459.346 327.871
3542 0 91.0246 15.4244 1404 105.956 459.059 326.823
3543 0 89.1073 16.2613 1449 109.086 459.676 326.416
3544 0 92.0422 15.3299 1411 111.899 459.457 323.68
3545 0 92.0689 15.5536 1432 114.104 459.861 324.982
3546 0 94.0647 15.2129 1431 114.745 460.199 324.553
3547 0 96.1099 15.3574 1476 114.661 460.612 322.578
3548 0 107.082 20.1901 2162 93.0518 460.313 314.415
3549 0 100.161 15.6748 1570 113.647 459.739 319.304
3550 0 106.103 15.9844 1696 110.902 460.225 317.685
3551 0 107.07 15.2704 1635 114.077 460.931 316.609
3552 0 107.055 16.739 1792 115.13 460.781 315.527
3553 0 107.084 15.9407 1707 123.832 461.043 314.155
3554 0 110.04 15.4035 1695 125.652 460.589 314.481
3555 0 109.081 16.1714 1764 125.693 460.069 313.657
3556 0 114.099 15.3201 1748 127.461 460.165 311.305
3557 0 119.11 15.0197 1789 127.108 460.208 309.902
3558 0 121.133 14.4305 1748 131.697 460.507 308.818
3559 0 126.129 14.612 1843 128.28 460.316 309.01
3560 0 131.089 14.8068 1941 126.722 460.451 307.357
3561 0 136.098 14.5483 1980 126.425 460.697 304.617
3562 0 141.214 15.303 2161 124.248 460.462 298.898
3563 1 81.1191 10.8852 883 131.156 460.819 329.562
3564 0 83.1406 12.557 1044 125.353 462.057 328.762
3565 0 87.1512 13.2872 1158 122.283 461.404 326.427
3566 0 88.1316 13.7068 1208 121.705 461.882 323.704
3567 0 91.3097 14.3358 1309 119.875 461.519 321.059
3568 0 93.1718 14.6826 1368 120.296 460.838 318.615
3569 0 98.1391 14.4183 1415 119.376 461.327 317.853
3570 0 105.11 16.2401 1707 111.997 461.197 314.48
3571 0 104.092 14.6889 1529 118.205 462.104 314.293
3572 0 108.074 14.5918 1577 117.223 461.417 313.535
3573 0 113.097 14.7927 1673 115.732 462.405 310.129
3574 0 116.218 15.1267 1758 116.469 462.228 307.627
3575 0 121.097 14.6659 1776 117.937 462.705 303.499
3576 0 124.108 14.4713 1796 119.134 462.374 302.043
3577 0 127.123 13.9786 1777 121.975 462.185 302.516
3578 1 71.0487 11.5977 824 118.975 462.738 331.121
3579 0 74.0523 11.897 881 118.741 463.28 330.103
3580 0 77.0683 12.4305 958 115.741 462.977 327.463
3581 0 81.0959 13.1943 1070 112.041 463.28 325.851
3582 0 82.057 13.2713 1089 112.979 463.403 324.176
3583 0 85.0485 13.4041 1140 112.763 463.498 322.31
3584 0 87.0614 12.9564 1128 114.418 463.12 320.689
3585 0 91.0177 13.5468 1233 111.88 462.514 318.24
3586 0 94.1087 13.2825 1250 114.85 463.798 315.808
3587 0 97.1335 13.6101 1322 114.197 463.598 318.339
3588 0 98.1142 13.9531 1369 113.121 463.107 318.879
3589 0 101.113 13.7173 1387 113.727 463.144 318.379
3590 0 103.077 13.553 1397 114.211 463.492 317.415
3591 0 106.069 13.7647 1460 112.649 463.231 315.699
3592 0 108.1 13.9501 1508 112.859 463.926 315.385
3593 0 112.05 13.7528 1541 113.393 463.328 313.063
3594 0 117.043 14.1999 1662 111.117 463.25 310.865
3595 0 121.098 13.7739 1668 112.039 462.952 309.809
3596 0 124.102 14.1658 1758 111.268 463.801 307.619
3597 0 128.092 16.0197 2052 103.78 463.561 303.161
3598 0 135.05 19.1336 2584 92.0275 463.692 297.816
3599 0 135.136 13.8675 1874 111.561 463.483 299.409
3600 0 140.15 13.8994 1948 111.474 463.914 298.116
3601 0 143.113 14.1147 2020 112.04 464.176 296.345
3602 0 141.055 12.5483 1770 118.458 463.417 297.997
3603 0 152.071 14.0789 2141 111.941 463.021 291.641
3604 0 160.125 14.6011 2338 110.434 462.618 289.105
3605 0 163.099 13.9118 2269 114.156 462.846 284.561
3606 0 170.171 15.7959 2688 108.045 462.38 280.839
3607 0 180.167 17.9389 3232 98.3645 462.299 269.653
3608 0 179.158 16.4547 2948 105.157 462.016 268.128
3609 0 184.15 15.3679 2830 110.241 461.762 269.039
3610 0 187.121 15.7919 2955 109.965 461.43 265.851
3611 0 193.18 15.7987 3052 108.267 461.255 265.667
3612 0 201.161 15.2565 3069 109.221 461.535 261.096
3613 0 208.238 15.5015 3228 107.423 461.494 258.118
3614 0 216.256 15.6065 3375 107.23 461.041 255.017
3615 0 223.184 15.346 3425 107.621 460.869 249.915
3616 0 230.217 15.1422 3486 109.066 460.653 244.991
3617 0 241.388 15.85 3826 105.521 461.172 239.505
3618 1 60.0928 8.45359 508 81.5472 462.724 341.222
3619 0 63.1792 9.24355 584 80.8356 462.207 339.918
3620 0 65.1015 9.35462 609 90.7537 460.181 339.626
3621 0 66.0817 9.29153 614 94.2818 459.993 336.489
3622 0 68.051 9.19898 626 93.3466 460.647 337.123
3623 0 72.1364 9.01071 650 93.4046 459.86 336.418
3624 0 73.1026 9.01473 659 93.5994 459.589 335.564
3625 0 76.123 11.8887 905 86.0431 459.91 328.032
3626 0 77.0815 10.7289 827 93.1511 460.125 324.781
3627 0 77.0474 9.85108 759 93.8366 459.906 325.046
3628 0 81.0518 10.3884 842 91.0463 459.689 327.445
3629 0 81.043 10.2908 834 93.4173 460.201 325.314
3630 0 87.0998 11.1826 974 89.5257 459.798 327.478
3631 1 98.1005 15.4026 1511 75.9921 459.821 318.956
3632 0 99.0683 14.808 1467 78.4254 459.48 319.504
3633 1 54.0275 8.31058 449 82.3831 460.457 343.234
3634 0 56.0942 9.10968 511 80.4481 460.1 343.977
3635 0 57.1518 9.50101 543 81.5948 458.891 342.639
3636 0 58.1395 10.0276 583 81.9039 458.539 343.966
3637 0 59.0452 10.3819 613 81.4633 460.409 346.091
3638 0 60.0462 9.59261 576 83.3559 458.439 339.872
3639 0 60.0458 9.00978 541 84.6654 458.787 341.534
3640 0 68.0892 10.1485 691 79.4949 458.793 340.632
3641 0 68.0724 9.71025 661 81.4796 459.204 338.351
3642 0 70.0565 11.0625 775 78.6942 459.133 337.8
3643 0 71.0519 11.0905 788 79.6142 459.283 334.977
3644 0 74.0856 11.9321 884 77.655 458.888 334.664
3645 0 76.0933 11.8407 901 79.1398 458.949 333.537
3646 0 79.0772 12.2033 965 79.0114 459.246 333.617
3647 0 80.0575 11.779 943 81.3425 459.717 332.404
3648 0 82.0964 11.5596 949 81.6913 459.589 332.574
3649 0 84.138 12.2299 1029 80.2692 459.804 328.174
3650 0 86.0614 12.1541 1046 80.8002 459.95 328.188
3651 0 88.1923 11.9852 1057 81.5714 460.19 325.276
3652 0 90.1113 11.5413 1040 82.8423 459.951 325.084
3653 0 90.1322 11.5053 1037 84.4185 460.286 324.94
3654 0 97.165 11.6812 1135 84.5568 459.943 323.039
3655 0 100.189 12.1471 1217 87.3525 460.373 320.399
3656 0 102.156 12.1971 1246 87.264 461.308 319.002
3657 0 105.18 12.046 1267 89.247 461.571 316.601
3658 0 109.182 12.6211 1378 89.0893 461.497 314.964
3659 0 111.126 12.7063 1412 91.0092 461.521 312.572
3660 0 115.16 13.2598 1527 90.313 461.36 310.134
3661 0 117.123 12.6107 1477 93.1889 461.23 308.733
3662 0 120.213 12.9188 1553 92.387 461.873 307.958
3663 0 123.224 13.5119 1665 91.3291 462.469 303.86
3664 0 129.121 15.2493 1969 84.7176 461.863 299.755
3665 0 131.059 13.8258 1812 86.7478 462.694 301.868
3666 1 76.0666 9.75461 742 88.3639 462.992 329.636
3667 0 78.0408 10.3151 805 87.4124 463.111 329.078
3668 0 82.0794 11.2208 921 85.2519 463.581 328.339
3669 0 82.0792 11.3183 929 86.4316 463.069 327.042
3670 0 84.0881 11.595 975 84.8985 461.926 326
3671 0 85.0667 11.1795 951 87.0242 462.62 324.628
3672 0 89.1127 11.4686 1022 84.4423 462.125 324.943
3673 0 90.0826 10.8123 974 85.5791 461.497 324.811
3674 0 94.079 11.0864 1043 85.9549 461.756 322.116
3675 0 97.1378 11.705 1137 83.5365 461.474 322.297
3676 0 97.1174 11.8001 1146 83.9476 462.031 320.21
3677 0 100.115 11.8564 1187 85.3741 462.305 316.883
3678 0 103.064 12.0993 1247 84.0449 461.93 315.655
3679 0 107.146 12.1516 1302 83.328 461.727 316.616
3680 0 109.141 12.351 1348 83.3361 461.409 313.19
3681 0 111.07 11.7314 1303 85.4198 460.668 310.523
3682 0 116.106 11.9718 1390 84.5338 460.508 310.78
3683 0 119.174 12.1503 1448 84.991 460.67 310.587
3684 1 67.0979 10.3878 697 79.5079 460.984 336.806
3685 0 67.1383 9.96451 669 83.9552 460.978 333.492
3686 0 72.1669 10.06 726 80.5854 460.844 332.007
3687 0 71.149 10.3023 733 81.9536 459.772 331.843
3688 0 73.0547 11.4024 833 81.1212 460.982 330.915
3689 0 73.0521 11.3618 830 138.17 461.976 330.837
3690 0 78.0764 11.8858 928 80.4494 460.249 328.713
3691 0 80.0998 11.0862 888 83.4448 459.876 329.669
3692 0 84.0615 13.2879 1117 77.9642 460.575 327.378
3693 0 87.0523 13.3943 1166 84.6938 459.413 328.068
3694 0 87.0284 13.6163 1185 85.3443 459.79 327.362
3695 0 89.0599 13.9232 1240 84.3629 459.697 326.217
3696 0 90.106 13.2067 1190 86.4958 460.699 327.398
3697 0 89.1971 12.3883 1105 87.371 461.006 326.943
3698 0 93.0814 13.0853 1218 88.3686 459.904 326.176
3699 0 93.1093 13.4573 1253 86.8955 460.513 324.948
3700 0 96.0575 12.7424 1224 90.2704 459.822 323.778
3701 0 99.0813 13.3527 1323 86.9841 460.41 324.262
3702 0 100.058 13.0024 1301 87.4566 460.37 322.414
3703 0 103.046 13.0815 1348 86.2901 460.87 321.939
3704 1 55.0489 10.0638 554 81.8032 459.704 346.292
3705 0 57.0587 10.9712 626 79.0879 460.235 346.181
3706 0 57.062 12.2148 697 80.1865 460.209 344.234
3707 0 60.0875 11.7828 708 81.596 459.831 344.833
3708 0 62.1274 11.5891 720 78.9 460.094 344.383
3709 0 63.1365 12.4017 783 79.5453 460.226 342.307
3710 0 66.1397 11.5513 764 81.3351 460.319 343.25
3711 0 69.1602 11.9867 829 81.8854 460.165 342.039
3712 0 68.1553 13.1464 896 82.4241 459.625 339.568
3713 0 72.1212 13.6992 988 81.2632 460.032 340.213
3714 0 73.1078 13.0766 956 84.6768 460.452 337.581
3715 0 74.0449 13.4783 998 84.2224 459.357 336.439
3716 0 75.084 12.5326 941 86.5696 459.114 335.369
3717 0 79.0498 13.1816 1042 85.2246 459.101 333.902
3718 0 82.0753 14.7182 1208 84.6722 459.303 332.614
3719 0 83.0692 14.7106 1222 85.7733 459.437 331.635
3720 0 83.0649 13.9409 1158 88.981 459.939 330.378
3721 0 88.0637 14.921 1314 85.5046 459.356 329.744
3722 0 88.067 13.2286 1165 85.4043 459.567 329.021
3723 0 91.0766 13.8565 1262 86.0317 459.873 327.779
3724 0 93.0838 14.3849 1339 88.6983 459.435 325.689
3725 0 94.0522 14.7046 1383 89.1309 459.732 323.46
3726 0 97.1206 13.1795 1280 87.0117 459.206 323.847
3727 0 101.048 15.2502 1541 84.1408 458.859 322.292
3728 0 103.094 14.1618 1460 88.5459 458.743 318.577
3729 0 105.137 14.0008 1472 89.1168 458.476 318.865
3730 0 106.073 12.925 1371 90.4996 459.54 318.454
3731 0 110.062 13.5014 1486 89.7544 458.694 316.772
3732 0 114.098 13.4183 1531 90.4807 458.706 314.865
3733 0 117.173 13.4928 1581 90.5509 459.132 313.674
3734 0 121.099 13.46 1630 91.754 458.913 310.096
3735 0 124.142 13.7907 1712 92.0905 459.439 310.329
3736 0 129.078 13.7824 1779 92.1967 458.964 308.6
3737 0 132.179 13.2245 1748 93.7065 458.911 308.41
3738 0 139.155 15.9103 2214 83.0587 458.355 308.361
3739 0 142.202 14.0715 2001 92.3338 458.008 304.019
3740 0 143.138 13.6931 1960 95.5311 458.642 298.873
3741 0 148.149 14.6204 2166 93.3813 458.474 295.298
3742 0 155.125 16.7929 2605 86.5332 458.544 292.734
3743 0 157.124 16.3501 2569 89.4052 458.534 289.039
3744 0 164.211 16.5458 2717 88.2834 459.066 288.111
3745 0 169.131 16.1295 2728 89.3171 458.582 283.904
3746 0 175.154 16.4541 2882 88.2085 458.694 280.319
3747 0 180.2 16.465 2967 87.4095 458.908 277.592
3748 1 82.0945 11.6451 956 91.9571 459.336 327.924
3749 0 86.112 12.7625 1099 89.6524 459.816 325.763
3750 0 88.0825 13.1922 1162 88.3313 460.15 324.163
3751 0 88.1046 12.8484 1132 89.9611 459.392 322.538
3752 0 93.1155 13.0053 1211 88.981 459.571 321.029
3753 0 96.0849 13.4777 1295 87.8232 459.582 318.169
3754 0 99.1368 13.7487 1363 85.2025 460.032 317.479
3755 0 103.097 14.1906 1463 84.3301 459.702 315.121
3756 1 126.438 18.0009 2276 67.7245 460.276 304.169
3757 0 127.165 16.7892 2135 71.4998 460.775 304.991
3758 0 130.112 18.6531 2427 68.7157 460.449 301.178
3759 0 131.519 18.925 2489 69.8839 460.262 300.959
3760 0 122.25 16.4663 2013 79.0298 460.638 307.197
3761 0 125.202 15.2393 1908 80.2945 460.67 302.713
3762 1 58.0812 9.29732 540 79.7148 460.028 339.702
3763 0 57.141 10.1678 581 79.191 459.979 338.985
3764 0 61.1783 10.5593 646 77.435 460.955 334.802
3765 0 63.1161 11.0273 696 75.2141 460.269 336.042
3766 0 65.078 11.6168 756 74.5463 460.382 334.69
3767 0 67.0603 11.4971 771 75.6796 460.598 333.621
3768 0 67.0356 11.1583 748 76.0976 461.04 334.671
3769 0 68.0546 11.5202 784 76.7232 460.838 332.577
3770 0 74.0168 11.4974 851 75.4712 460.699 333.624
3771 0 74.0417 11.7501 870 77.508 460.916 331.269
3772 0 76.0586 12.188 927 77.0324 460.93 330.64
3773 0 77.0553 11.7189 903 78.0786 459.92 329.022
3774 0 81.0831 12.074 979 76.715 460.782 328.275
3775 0 82.0869 12.036 988 76.4383 460.924 326.638
3776 0 85.033 12.2658 1043 76.5964 460.711 327.225
3777 0 85.0421 11.8765 1010 78.6505 460.689 323.685
3778 0 92.0489 14.0577 1294 77.4683 460.593 324.15
3779 0 94.0317 13.2083 1242 82.4686 460.662 321.545
3780 0 98.0731 13.5511 1329 78.243 460.08 319.981
3781 1 57.0281 11.6259 663 79.46 460.742 338.544
3782 0 58.0717 11.3825 661 81.6823 460.43 339.309
3783 0 58.0398 10.8719 631 79.7417 460.116 340.022
3784 0 59.0269 11.2999 667 77.4663 459.792 338.298
3785 0 61.0545 11.7436 717 80.0572 460.268 337.604
3786 0 64.0694 11.8778 761 80.544 460.076 336.622
3787 0 64.0933 11.8421 759 82.1094 460.846 337.42
3788 0 66.0696 11.1398 736 84.466 460.629 336.823
3789 0 64.059 11.4582 734 86.7725 460.381 334.556
3790 0 67.0854 11.1202 746 86.5724 460.126 333.336
3791 0 71.0879 11.535 820 85.3207 460.072 332.389
3792 0 72.138 11.5057 830 85.5289 460.724 331.941
3793 0 71.0975 11.5194 819 86.5421 460.188 328.487
3794 0 78.0903 12.3447 964 83.3641 460.939 328.955
3795 0 80.143 13.3262 1068 82.1798 461.487 327.36
3796 0 82.1502 12.4893 1026 82.8704 460.917 327.574
3797 0 85.0394 12.9352 1100 82.6782 460.591 326.594
3798 0 87.1657 12.9065 1125 82.7876 460.324 326.316
3799 0 87.1016 12.6634 1103 84.0435 461.173 324.409
3800 0 90.1154 12.5839 1134 83.7108 459.956 322.783
3801 0 95.0964 13.2602 1261 81.5321 460.597 320.672
3802 0 97.0981 12.6985 1233 82.6861 459.745 318.01
3803 0 99.0777 13.6459 1352 81.7256 459.72 316.328
3804 0 101.11 12.3529 1249 87.6141 461.199 315.386
3805 0 105.112 12.6056 1325 86.96 462.842 313.776
3806 0 108.118 12.8285 1387 86.7585 462.547 313.646
3807 0 113.172 12.5207 1417 86.7488 463.615 311.841
3808 1 63.0584 10.4665 660 82.6848 462.695 337.27
3809 0 65.0367 11.5781 753 82.4768 462.222 336.71
3810 0 66.0693 11.0793 732 85.6175 462.026 333.411
3811 0 67.0436 11.4552 768 87.8776 461.674 332.607
3812 0 71.0453 12.3161 875 86.0023 462.175 332.619
3813 0 73.0231 11.5991 847 88.3861 462.503 333.315
3814 0 77.0349 11.8388 912 87.0822 462.364 330.962
3815 0 79.1179 12.1338 960 86.4427 461.949 330.556
3816 0 83.0664 12.3395 1025 85.6751 461.873 328.643
3817 0 84.0423 11.637 978 88.3834 462.262 327.127
3818 0 89.0705 13.0908 1166 85.4322 461.352 325.858
3819 0 92.1531 14.3348 1321 83.648 462.049 323.827
3820 0 94.1282 14.034 1321 85.3164 461.479 321.771
3821 0 97.1257 13.1994 1282 86.1154 461.226 321.671
3822 0 100.107 13.8652 1388 86.3545 461.424 319.772
3823 0 102.192 12.9561 1324 89.3225 461.154 316.658
3824 0 106.106 13.7221 1456 88.0124 461.697 316.297
3825 0 110.153 14.2982 1575 86.9416 461.613 315.198
3826 0 113.154 13.6628 1546 87.8279 460.994 313.744
3827 0 117.155 14.0327 1644 86.2001 460.159 311.994
3828 0 120.109 13.9706 1678 87.5971 461.038 311.06
3829 0 123.307 13.2353 1632 89.152 461.435 308.159
3830 0 124.237 13.3455 1658 88.2455 460.894 308.598
3831 1 72.0703 10.8228 780 86.0718 460.781 332.414
3832 0 76.1764 11.946 910 85.333 461.131 329.625
3833 0 79.1183 14.333 1134 84.3959 461.596 329.419
3834 0 79.0797 13.1133 1037 85.405 460.52 328.582
3835 0 82.1171 13.907 1142 85.472 461.16 328.665
3836 0 83.0609 13.6286 1132 86.7995 460.666 326.559
3837 0 88.1255 13.6737 1205 86.1419 460.928 325.771
3838 0 91.0542 14.0795 1282 85.929 460.846 324.451
3839 0 91.0982 13.7873 1256 87.6728 460.993 321.972
3840 0 96.1562 14.0813 1354 85.9697 461.009 321.547
3841 0 100.163 14.3466 1437 84.3911 461.121 320.143
3842 0 101.144 14.0592 1422 86.6955 460.072 318.656
3843 0 103.175 13.763 1420 89.2176 460.91 318.873
3844 0 105.185 13.6806 1439 89.5288 461.505 316.014
3845 0 108.212 14.1112 1527 88.6477 460.819 314.838
3846 0 112.243 13.4618 1511 89.681 461.144 314.248
3847 0 238.338 15.7004 3742 85.7154 459.866 248.446
3848 0 251.579 12.6521 3183 85.323 460.632 248.837
3849 0 123.245 16.528 2037 78.568 460.341 304.405
3850 0 128.235 16.7115 2143 77.9897 460.943 303.723
3851 0 132.207 15.7329 2080 80.1688 461.523 300.669
3852 0 137.279 15.6543 2149 79.3192 460.186 298.112
3853 1 78.2068 11.5591 904 80.8429 461.178 330.852
