time division length width area intensity CMx CMy
0 0 65.0194 14.3342 932 140.63 473.678 489.133
1 0 68.0203 14.084 958 137.52 473.882 488.069
2 0 70.0366 14.4781 1014 133.124 474.238 487.967
3 0 70.0252 14.7376 1032 127.68 473.518 486.853
4 0 71.0351 14.3872 1022 131.497 474.045 485.199
5 0 74.0371 14.979 1109 123.441 474.16 485.26
6 0 75.059 14.6818 1102 125.219 473.677 484.805
7 0 77.0149 14.205 1094 125.129 474.494 484.983
8 0 79.0284 14.8301 1172 121.362 474.398 483.798
9 0 81.0724 14.6782 1190 118.909 474.276 483.071
10 0 83.051 14.2443 1183 121.225 473.97 482.882
11 0 86.0977 14.6926 1265 117.013 473.621 480.365
12 0 87.0323 15.2587 1328 113.975 474.423 480.633
13 0 90.0508 14.9249 1344 113.205 473.906 478.594
14 0 93.0271 14.9526 1391 110.986 473.698 477.383
15 0 95.0518 15.4442 1468 107.787 473.439 476.148
16 0 97.0781 15.3176 1487 107.169 474.26 476.3
17 0 99.0701 15.1509 1501 107.507 473.141 474.042
18 0 103.05 14.2844 1472 107.513 473.085 472.746
19 0 105.044 14.5082 1524 104.555 472.829 471.606
20 0 109.079 14.5308 1585 103.97 472.868 471.004
21 0 111.105 14.7518 1639 102.92 472.215 469.12
22 1 57.056 11.9707 683 104.492 472.53 496.972
23 0 58.02 12.4957 725 102.319 472.788 495.948
24 0 59.0192 12.1825 719 103.388 472.808 496.046
25 0 62.0323 12.5096 776 101.316 473.425 494.701
26 0 61.078 12.5577 767 101.966 472.987 494.082
27 0 66.1035 13.4789 891 98.6947 472.046 491.361
28 0 68.0756 13.8229 941 98.8289 471.563 489.332
29 0 71.1231 13.5961 967 99.5398 470.982 487.367
30 0 70.1166 13.777 966 173.108 470.979 487.355
31 0 75.0534 14.2698 1071 101.772 472.971 486.344
32 0 78.0582 14.4123 1125 100.107 472.587 485.725
33 0 81.0674 14.3584 1164 98.6967 472.346 483.963
34 0 82.1042 14.372 1180 98.0881 472.098 484.016
35 0 84.044 14.8732 1250 95.236 472.866 482.657
36 0 89.1064 14.6005 1301 94.3198 472.852 481.486
37 0 90.1253 13.8585 1249 95.2706 472.311 479.13
38 0 92.1216 13.9598 1286 94.0871 471.605 477.194
39 0 96.2043 14.1158 1358 91.7364 471.364 476.06
40 0 99.135 14.4954 1437 89.357 471.216 474.806
41 0 101.21 14.3168 1449 89.0069 471.366 473.222
42 0 105.227 14.2834 1503 89.4864 471.925 470.752
43 0 109.17 14.1614 1546 89.5783 471.268 470.22
44 0 111.248 14.1936 1579 90.1051 471.35 467.088
45 0 114.256 13.4785 1540 93.0903 471.281 466.549
46 0 119.195 14.5475 1734 91.308 471.434 465.031
47 0 122.127 14.3785 1756 93.488 471.662 462.46
48 0 126.192 14.8345 1872 93.4038 471.695 460.175
49 0 127.23 13.9904 1780 98.2039 470.515 457.107
50 0 132.19 14.0479 1857 96.4566 470.41 455.024
51 0 136.086 14.0866 1917 96.1982 470.756 446.761
52 0 140.073 13.9998 1961 95.925 470.922 440.947
53 0 146.084 13.8893 2029 96.2489 471.2 439.85
54 1 79.0389 12.5634 993 99.719 471.066 474.904
55 0 80.0386 13.2561 1061 101.291 471.738 478.025
56 0 83.0363 13.199 1096 101.739 471.588 475.869
57 0 85.0749 13.2119 1124 102.819 471.159 475.205
58 0 89.0907 13.6378 1215 102.009 471.889 474.313
59 0 91.0669 13.3968 1220 101.896 471.855 473.236
60 0 95.0881 13.5558 1289 100.189 471.264 474.753
61 0 97.0991 13.4914 1310 100.963 471.186 473.13
62 0 102.118 13.9545 1425 100.229 471.496 468.489
63 0 103.158 13.6877 1412 99.3909 471.467 467.3
64 0 110.155 14.2163 1566 97.394 471.723 464.981
65 0 112.245 14.504 1628 96.0172 472.478 466.296
66 0 115.102 14.3438 1651 97.2302 471.976 464.914
67 0 120.23 14.8798 1789 95.6993 471.782 463.326
68 0 124.169 14.0696 1747 96.5186 471.205 461.828
69 0 127.158 14.4859 1842 93.1716 471.306 461.263
70 0 130.404 14.3247 1868 93.0128 471.069 458.892
71 0 134.335 14.181 1905 92.9291 471.201 457.181
72 0 138.201 13.806 1908 93.3852 471.149 454.741
73 0 143.374 14.0541 2015 91.3618 471.421 451.716
74 0 149.335 14.2097 2122 90.3209 471.189 448.45
75 0 152.188 13.871 2111 92.2402 471.693 445.289
76 0 157.331 13.7862 2169 91.6058 471.424 443.862
77 0 160.409 13.3347 2139 91.3506 471.653 440.218
78 0 167.311 13.3763 2238 90.8686 472.085 437.968
79 0 173.216 13.3706 2316 90.2452 471.737 432.858
80 1 107.12 10.8663 1164 84.0739 472.377 467.994
81 0 110.15 11.5479 1272 83.6211 472.323 465.07
82 0 114.111 11.9182 1360 82.5566 471.593 463.857
83 0 119.067 12.4131 1478 80.9729 470.731 460.782
84 0 122.139 12.3711 1511 81.7763 471.49 458.639
85 0 129.129 13.258 1712 86.1326 471.231 456.187
86 0 132.246 12.7641 1688 86.9656 471.687 453.479
87 0 136.224 12.3326 1680 88.1286 471.583 450.355
88 0 140.155 12.4291 1742 87.57 471.889 446.966
89 0 145.199 12.3968 1800 86.1878 471.086 444.452
90 0 147.192 12.3376 1816 85.9945 472.692 442.341
91 0 152.201 12.2536 1865 85.734 472.145 441.743
92 0 156.307 12.3603 1932 85.4824 472.01 435.561
93 0 161.305 11.9711 1931 85.3578 471.578 433.004
94 0 164.254 11.7196 1925 86.1299 471.615 430.655
95 0 172.222 12.362 2129 84.6599 471.569 427.612
96 0 179.358 12.6005 2260 83.1438 471.243 427.467
97 0 183.459 13.0492 2394 80.6462 470.514 425.418
98 0 189.469 12.6195 2391 83.6964 470.411 421.977
99 0 196.425 13.3537 2623 82.8231 470.663 417.027
100 0 203.347 13.0221 2648 83.5835 470.83 415.945
101 0 209.369 13.0822 2739 83.3165 471.439 412.802
102 0 215.425 13.3736 2881 83.6182 470.862 406.588
103 0 222.428 13.2987 2958 82.7143 470.988 404.905
104 0 229.204 13.1891 3023 84.6335 470.67 399.388
105 0 235.233 13.0126 3061 85.8063 471.527 396.354
106 0 244.378 13.7001 3348 84.6595 471.566 392.14
107 0 249.391 13.2964 3316 86.8619 470.947 386.967
108 0 257.319 12.9334 3328 88.32 470.31 382.097
109 0 268.536 13.8715 3725 86.4682 469.507 377.22
110 1 207.507 11.8309 2455 86.1947 470.83 412.903
111 0 214.48 12.1224 2600 88.9277 471.099 405.118
112 0 222.478 12.8687 2863 87.2431 470.617 403.757
113 0 223.421 12.6174 2819 89.4207 470.274 397.421
114 0 232.58 13.3632 3108 88 470.873 392.482
115 1 242.435 13.2654 3216 88.2649 470.531 388.051
116 0 247.531 12.9277 3200 89.9797 470.456 385.088
117 0 256.497 13.3062 3413 89.2986 470.834 379.289
118 0 265.481 12.8446 3410 90.2302 469.733 374.863
119 0 276.385 12.848 3551 90.6117 469.923 366.685
120 0 276.468 9.80945 2712 94.3827 469.385 378.06
121 1 66.0403 9.78191 646 72.7879 471.068 481.121
122 0 71.0591 10.1183 719 69.1725 472.268 486.94
123 0 71.2236 8.63478 615 69.7594 472.176 487.353
124 0 74.1556 9.91159 735 70.2599 472.351 484.199
125 0 77.1123 10.5042 810 70.8296 472.242 484.377
126 0 80.1283 10.2086 818 72.4046 470.95 484.287
127 0 80.1004 10.4993 841 74.6718 470.497 480.875
128 0 83.144 10.2713 854 76.1042 470.68 480.814
129 0 88.0768 10.4454 920 74.7152 472.065 476.117
130 0 91.2052 11.2713 1028 74.6518 470.508 475.163
131 0 90.1487 10.5603 952 78.0189 471.753 474.472
132 0 95.2748 11.1152 1059 76.611 470.487 470.982
133 0 96.3678 10.3665 999 78.7257 470.573 471.397
134 0 100.129 10.8361 1085 77.6387 470.128 470.896
135 0 102.132 10.5843 1081 78.7336 470.052 469.59
136 0 107.35 11.1691 1199 79.2769 470.174 465.822
137 0 109.262 11.6325 1271 78.6381 470.375 462.983
138 0 111.154 11.0208 1225 80.7265 470.647 465.701
139 0 113.08 11.231 1270 80.5323 470.872 463.654
140 0 122.089 12.2042 1490 76.849 471.285 460.856
141 0 125.134 12.1789 1524 77.7572 470.416 460.101
142 0 129.118 13.0579 1686 77.1756 471.769 458.259
143 0 131.17 12.2894 1612 80.1886 471.441 455.332
144 0 135.126 12.0406 1627 80.3884 471.344 454.704
145 0 141.2 13.1728 1860 79.1124 470.058 449.419
146 0 145.131 12.5748 1825 79.4849 470.728 449.101
147 0 146.151 12.0834 1766 80.9592 470.995 447.52
148 0 151.175 12.5484 1897 78.9826 470.302 443.332
149 0 154.234 12.0855 1864 79.639 470.244 441.731
150 0 156.134 11.6822 1824 80.9008 470.332 436.764
151 0 163.227 12.6021 2057 78.8347 470.413 434.99
152 0 167.256 12.1431 2031 80.2477 470.347 432.304
153 0 173.186 12.3624 2141 78.1784 469.466 429.495
154 0 178.177 12.6728 2258 77.3711 468.845 425.862
155 0 182.141 11.9633 2179 78.1225 468.932 426.238
156 0 189.165 11.8257 2237 77.5838 469.529 421.202
157 0 195.122 12.4589 2431 78.0847 470.007 417.343
158 0 200.139 12.5163 2505 78.1892 470.103 416.812
159 0 205.272 12.0133 2466 80.2538 470.331 411.982
160 0 213.183 13.1108 2795 78.4479 469.994 406.603
161 0 218.199 12.3236 2689 79.2674 469.668 404.614
162 0 220.189 12.3666 2723 78.0577 468.596 407.012
163 0 222.2 11.7597 2613 76.9388 469.063 408.218
164 0 217.128 10.2566 2227 79.6592 468.197 409.03
165 0 221.184 10.2991 2278 74.9513 468.683 414.179
166 1 183.148 12.4872 2287 77.1469 468.522 423.362
167 0 186.148 11.8401 2204 76.9356 469.639 416.288
168 0 193.227 12.5966 2434 74.8431 469.071 412.241
169 0 200.238 13.0095 2605 77.3624 469.81 420.942
170 0 206.17 13.1978 2721 77.3741 469.102 417.491
171 0 212.185 12.8897 2735 78.1126 469.565 413.099
172 0 220.243 13.1082 2887 77.9972 468.946 409.402
173 0 227.324 12.8011 2910 78.0567 469.106 403.607
174 0 234.199 13.0658 3060 77.9363 468.878 400.724
175 0 242.258 13.1141 3177 77.9308 468.635 395.167
176 0 248.285 12.7313 3161 79.528 469.458 396.065
177 0 257.296 13.0744 3364 79.2488 469.153 391.092
178 0 265.229 12.9963 3447 80.4166 469.433 389.253
179 0 270.333 12.9433 3499 82.1315 469.263 380.111
180 1 307.393 9.75623 2999 83.1977 469.089 392.078
181 0 306.39 20.2357 6200 64.7726 468.486 342.981
182 0 310.516 19.532 6065 67.9365 468.766 342.985
183 0 311.422 17.3944 5417 74.9444 468.235 346.207
184 0 318.384 16.1911 5155 78.038 468.933 347.297
185 0 322.418 13.4515 4337 85.2492 468.496 347.519
186 0 326.479 14.4542 4719 83.2153 468.543 333.883
187 0 335.334 15.1789 5090 82.153 468.616 325.951
188 0 345.292 15.303 5284 81.4148 468.563 321.889
189 0 357.338 15.1005 5396 83.0745 468.817 310.21
190 0 365.31 14.8504 5425 83.4955 468.694 305.79
191 1 160.14 10.878 1742 73.7899 469.55 421.37
192 0 160.146 10.5716 1693 75.4276 469.795 419.911
193 0 167.175 11.3294 1894 75.5697 468.733 415.268
194 0 168.246 11.8457 1993 76.43 468.955 410.109
195 0 174.232 11.301 1969 77.451 468.625 407.953
196 0 180.215 10.7927 1945 80.9049 468.555 398.221
197 0 188.321 11.0928 2089 78.7003 468.547 403.124
198 0 192.244 9.53474 1833 82.7981 468.47 401.555
199 1 27.0176 3.92336 106 59.4434 470.792 505.943
200 0 25.0096 3.75856 94 58.7872 471.234 501.67
201 0 15.0042 2.26604 34 55.7941 470.882 496.912
202 1 38.0553 3.75769 143 75.6504 471.021 486.559
203 0 237.273 14.6962 3487 92.3705 469.041 384.881
204 0 243.295 14.8462 3612 93.8117 469.959 378.795
205 0 249.364 14.5971 3640 95.2294 469.812 376.572
206 0 255.318 14.4761 3696 96.8212 469.317 370.594
207 0 265.301 14.8623 3943 95.351 468.329 370.51
208 0 272.395 15.0553 4101 94.7608 468.521 371.992
209 0 279.376 14.7793 4129 94.5217 468.629 364.904
210 0 290.429 16.3035 4735 89.8562 468.132 359.639
211 0 298.325 14.635 4366 96.6901 468.521 359.74
212 0 307.287 14.794 4546 97.6885 467.925 352.332
213 1 81.0408 9.2546 750 79.2493 467.977 479.783
214 0 82.1306 8.66912 712 79.941 467.226 474.055
215 0 86.1161 10.1607 875 79.1349 468.197 477.96
216 0 86.0478 10.4477 899 81.515 468.397 477.791
217 0 90.0667 9.93708 895 91.2179 470.065 475.713
218 0 94.1158 10.2746 967 89.484 470.064 473.674
219 0 98.1239 9.03959 887 92.0462 470.397 474.13
220 0 99.1054 10.6251 1053 90.2374 470.195 470.789
221 0 101.11 11.1661 1129 90.0062 469.665 470.979
222 0 104.077 11.2513 1171 90.9607 469.972 468.17
223 0 103.116 10.4154 1074 95.067 470.202 468.058
224 0 107.067 11.8056 1264 92.5364 470.174 466.289
225 0 110.105 11.6616 1284 93.4595 469.885 466.502
226 0 112.102 11.8285 1326 94.3228 469.577 464.658
227 0 114.172 11.2549 1285 96.2809 469.317 461.267
228 0 119.113 12.081 1439 95.2745 469.664 459.421
229 0 120.085 11.9415 1434 95.5049 469.187 459.699
230 0 124.179 12.7316 1581 93.3978 469.528 456.142
231 0 122.1 11.0565 1350 93.5859 469.241 457.937
232 0 126.107 10.951 1381 91.8733 469.364 457.225
233 1 73.0543 9.55454 698 91.7421 469.249 486.288
234 0 74.1722 10.1116 750 89.4267 469.905 482.311
235 0 76.1008 10.7358 817 90.175 469.881 484.756
236 0 79.046 10.943 865 90.2347 469.497 483.42
237 0 79.2278 11.7383 930 90.7613 468.796 480.646
238 0 81.1782 11.407 926 91.9136 469.014 479.64
239 0 83.2519 11.7235 976 91.6588 468.476 479.601
240 0 84.1918 11.1294 937 93.8847 468.493 477.651
241 0 87.1611 11.278 983 93.7375 468.709 476.417
242 0 87.1736 10.8749 948 95.7416 468.925 475.245
243 0 89.1393 11.6671 1040 94.1192 468.178 474.167
244 0 96.2156 12.9189 1243 90.0829 468.984 475.298
245 0 98.2036 12.7897 1256 91.1473 468.495 474.777
246 0 101.371 12.9623 1314 90.4756 468.634 473.268
247 0 103.331 12.7648 1319 91.0341 468.409 472.756
248 0 106.303 12.5114 1330 91.8436 467.986 470.757
249 0 108.428 12.7919 1387 91.757 467.396 467.619
250 0 111.496 12.987 1448 90.6816 468.041 464.851
251 0 115.436 13.1154 1514 88.8712 468.196 461.374
252 1 61.3543 10.6268 652 84.1411 468.587 491.026
253 0 62.0364 10.3971 645 71.5349 468.005 493.608
254 0 62.0476 9.97621 619 74.0969 469.402 490.653
255 0 63.0694 10.4171 657 71.1994 470.565 490.513
256 0 66.0953 10.8026 714 69.3529 468.518 489.31
257 0 65.1068 11.7653 766 72.6084 468.621 488.651
258 0 65.166 10.619 692 75.3642 468.172 489.325
259 0 67.0419 11.2169 752 74.4907 467.942 486.61
260 0 70.0634 11.3611 796 74.0817 467.362 485.142
261 0 69.0815 10.2632 709 78.0677 468.384 484.685
262 0 72.0514 11.0616 797 76.9072 467.991 482.213
263 0 75.1267 11.4473 860 76.1942 467.817 481.073
264 0 75.1557 11.1901 841 77.6338 468.101 480.195
265 0 77.1309 11.1888 863 78.4229 468.622 479.097
266 0 80.0935 11.3367 908 78.9152 468.046 478.6
267 0 81.0692 11.9528 969 78.6811 468.298 475.032
268 0 84.0737 11.3829 957 80.4232 467.737 475.308
269 0 85.0991 10.9167 929 81.071 468.062 475.199
270 0 88.0719 11.4225 1006 80.8549 467.776 473.326
271 0 90.0826 10.779 971 81.723 467.746 471.772
272 0 93.1031 11.0415 1028 82.2948 466.93 468.254
273 1 51.1052 9.64676 493 80.9554 466.844 491.684
274 0 48.0603 9.44647 454 80.3722 467.269 483.148
275 0 50.0556 10.2286 512 78.7227 467.732 481.146
276 0 54.1361 10.1411 549 81.0073 468.071 488.024
277 0 56.1718 11.0732 622 79.4518 468.349 486.412
278 0 57.2024 10.8737 622 79.8264 468.4 486.323
279 0 58.1936 11.1009 646 79.517 467.621 485.582
280 0 62.1847 10.9352 680 80.2309 467.747 485.081
281 0 63.214 10.7255 678 81.4956 467.462 483.352
282 0 63.2067 11.6602 737 81.7775 467.601 482.544
283 0 69.1857 11.6064 803 80.3998 467.25 482.9
284 0 71.2024 11.9518 851 80.262 467.915 483.313
285 0 74.1583 12.1632 902 81.3359 468.019 481.336
286 0 77.0848 12.5836 970 80.2567 467.356 481.636
287 0 79.1447 12.4961 989 82.7543 467.048 479.571
288 0 80.0781 12.0008 961 84.5359 466.774 478.865
289 0 83.0927 12.7207 1057 82.4428 466.888 476.03
290 1 40.1721 10.1563 408 84.8064 467.877 494.564
291 0 41.087 10.3196 424 84.0684 467.578 495.561
292 0 43.1083 10.7172 462 84.3182 467.641 493.465
293 0 43.1372 11.1968 483 83.4886 468.006 487.393
294 0 47.0509 11.732 552 84.2736 467.002 496.031
295 0 49.1504 11.3529 558 88.5233 467.115 494.97
296 0 52.086 11.577 603 87.9585 466.864 495.332
297 0 53.0998 11.9209 633 87.3523 466.389 494.779
298 0 54.1997 11.7528 637 87.832 467.286 494.956
299 0 56.1702 11.9993 674 87.2404 467.68 494.59
300 0 54.2109 11.5106 624 90.1122 467.449 494.63
301 0 56.1331 12.0428 676 87.6583 467.661 493.712
302 0 60.1226 12.541 754 86.3621 467.102 493.431
303 0 62.1551 12.2757 763 87.0564 467.051 492.467
304 0 61.1931 12.2073 747 88.3159 467.803 490.815
305 0 62.2218 11.7001 728 89.7143 467.232 489.908
306 0 65.1955 12.7923 834 87.4952 467.578 490.472
307 0 67.1521 12.5238 841 89.0297 467.478 489.742
308 0 69.2424 12.9689 898 87.8575 467.35 488.862
309 0 71.1465 12.8327 913 88.6725 467.343 489.376
310 0 72.1479 13.5694 979 87.7824 467.533 488.149
311 0 74.1839 13.0487 968 90.1157 468.783 487.288
312 0 76.1541 13.0525 994 91.3612 467.4 486.523
313 0 79.2849 12.8019 1015 92.5478 468.144 484.707
314 0 80.0324 12.6449 1012 89.7905 468.669 485.081
315 0 83.0428 13.1378 1091 90.1137 468.94 484.599
316 0 87.0469 13.464 1172 88.802 468.56 484.152
317 0 88.0632 13.0134 1146 84.2382 469.273 483.561
318 0 91.0578 12.7282 1159 91.4987 468.664 481.279
319 0 94.055 13.1306 1235 89.9733 468.887 481.329
320 1 48.0919 10.7918 519 83.4432 468.191 503.069
321 0 50.0851 11.4006 571 83.1191 467.602 503.14
322 0 50.0582 11.6464 583 87.9365 467.501 502.561
323 0 50.0971 12.0167 602 85.7326 466.912 502.336
324 0 52.0562 12.7939 666 83.2673 467.718 502.677
325 0 53.0914 12.7139 675 84.3585 467.56 502.184
326 0 53.0242 12.5414 665 86.0135 467.341 501.835
327 0 56.0326 12.689 711 85.7314 467.54 501.046
328 0 56.0828 12.2676 688 87.891 467.472 500.849
329 0 59.0511 12.8363 758 85.1689 467.488 499.259
330 0 60.0102 12.2146 733 89.663 466.962 499.993
331 0 63.0736 12.4299 784 90.5523 467.135 497.105
332 0 63.0737 12.9214 815 90.7926 466.513 496.536
333 0 65.0865 12.2913 800 92.8975 466.111 495.79
334 0 66.0836 13.2711 877 92.6249 465.854 495.273
335 0 70.1423 12.9594 909 94.8647 466.016 493.708
336 0 71.0736 13.5071 960 93.9885 466.181 492.442
337 0 74.1001 13.3333 988 94.414 466.662 491.279
338 0 74.041 12.7902 947 98.1151 466.205 489.45
339 0 77.0943 13.4381 1036 97.1178 465.517 488.623
340 0 81.0858 13.5659 1100 96.51 464.726 489.228
341 0 81.0432 12.6229 1023 101.51 465.866 488.202
342 0 83.0776 13.2527 1101 98.8865 465.279 487.44
343 0 85.0594 12.5912 1071 101.918 465.069 486.767
344 0 88.0481 13.6971 1206 100.774 465.41 486.127
345 0 91.0419 13.8398 1260 101.75 464.878 482.717
346 0 95.0492 13.8981 1321 104.557 465.039 481.011
347 0 97.1458 14.0716 1367 101.975 464.599 479.307
348 0 101.254 14.0735 1425 101.484 463.771 475.335
349 0 104.235 13.3448 1391 104.318 463.985 474.5
350 1 54.1487 11.7454 636 100.808 464.346 498.945
351 0 56.147 11.7014 657 100.814 464.344 497.83
352 0 60.056 12.2219 734 102.172 465.339 499.241
353 0 62.0324 12.3 763 106.976 465.182 498.4
354 0 63.0144 12.9018 813 102.08 465.22 497.814
355 0 66.0349 13.4474 888 109.462 465.673 495.215
356 0 69.0251 12.7924 883 113.699 464.844 494.829
357 0 72.0529 12.8239 924 108.473 465.188 494.669
358 0 72.0344 12.8411 925 111.281 464.888 491.827
359 0 74.0652 13.0291 965 111.356 465.689 491.344
360 0 77.0823 13.4661 1038 110.339 465.652 490.2
361 0 80.0354 12.6569 1013 112.794 465.561 489.799
362 0 81.0943 12.8122 1039 109.115 465.489 487.773
363 0 83.1441 13.3022 1106 100.413 465.766 488.621
364 0 85.1039 12.4554 1060 107.347 466.093 485.877
365 0 89.0413 12.7132 1132 107.68 466.459 484.84
366 0 91.0953 13.0413 1188 107.773 466.056 482.679
367 0 93.1073 12.448 1159 109 465.8 481.569
368 0 97.1728 12.1433 1180 109.255 465.669 475.049
369 0 100.181 11.8286 1185 110.563 465.532 476.753
370 0 103.197 13.072 1349 107.637 465.563 471.34
371 0 105.305 12.725 1340 108.121 465.575 470.362
372 0 109.262 12.6577 1383 106.53 465.181 470.239
373 1 59.2131 11.6528 690 100.903 465.587 496.532
374 0 60.1928 11.945 719 99.2281 466.446 494.031
375 0 65.0675 12.3871 806 97.3722 467.002 494.226
376 0 66.119 13.1732 871 95.8174 466.652 494.683
377 0 69.1015 13.4585 930 93.9839 466.794 493.598
378 0 70.2013 13.1194 921 96.5418 467.07 492.54
379 0 71.0537 13.1731 936 96.2842 466.775 491.203
380 0 74.1433 12.6782 940 99.0862 466.76 488.628
381 0 77.2788 13.0825 1011 97.7982 466.482 487.446
382 0 78.1569 12.4621 974 101.414 466.977 486.979
383 0 81.1503 12.8527 1043 101.218 466.88 485.242
384 0 83.0914 13.094 1088 99.1774 467.048 484.072
385 0 87.1125 12.6848 1105 98.9783 466.504 483.462
386 0 90.2933 12.7584 1152 98.7726 466.838 481.087
387 0 94.2019 12.9084 1216 96.8635 466.114 481.102
388 1 50.0886 11.4797 575 91.4365 466.91 504.195
389 0 50.1085 12.2135 612 93.1536 466.949 501.601
390 0 52.0643 12.4461 648 92.0478 467.139 501.576
391 0 52.0552 12.4099 646 91.421 466.949 500.384
392 0 54.0556 12.3022 665 90.8541 467.251 500.203
393 0 57.1002 11.6987 668 105.054 466.478 496.816
394 0 59.0532 12.1247 716 102.306 466.744 496.677
395 0 60.0645 11.6375 699 102.894 466.605 496.209
396 0 59.0926 12.015 710 102.368 466.777 494.794
397 0 62.1082 11.7859 732 100.937 466.255 493.432
398 0 65.0796 11.3553 739 99.4506 467.315 492.376
399 0 67.0517 12.0802 810 96.1728 467.486 492.447
400 0 69.1026 11.4757 793 96.1312 467.509 489.909
401 0 70.1055 11.497 806 95.8449 467.104 488.747
402 0 73.2808 12.5544 920 94.0152 466.925 485.338
403 0 75.2448 11.4294 860 95.6872 466.776 484.16
404 0 78.2262 11.7224 917 94.4798 467.569 484.517
405 0 82.3748 12.1882 1004 92.6624 467.279 482.959
406 0 84.2013 11.2231 945 94.8265 466.921 480.411
407 1 46.4305 10.6826 496 89.5907 466.978 500.613
408 0 45.2699 10.6693 483 90.7764 467.089 500.977
409 0 48.2466 10.9852 530 90.1038 466.675 498.606
410 0 50.1985 11.2354 564 88.3511 466.417 497.807
411 0 52.2384 11.6964 611 88.8445 465.753 497.005
412 0 53.0609 11.9485 634 86.3517 466.699 498.498
413 0 53.0709 11.5317 612 88.8971 466.815 496.794
414 0 56.2014 11.8324 665 90.5158 466.779 496.242
415 0 58.1493 12.3647 719 89.0848 466.997 494.978
416 0 61.1211 12.3525 755 87.5285 466.211 493.517
417 0 62.0981 12.5125 777 86.2728 466.687 492.346
418 0 65.0926 11.4145 743 87.2302 466.816 491.997
419 0 66.0975 11.483 759 87.5929 466.194 490.34
420 0 69.1295 11.124 769 86.9818 466.384 488.685
421 0 71.1293 11.5424 821 85.4263 466.671 488.555
422 0 74.1088 11.2132 831 85.083 466.211 488.105
423 0 77.1714 12.0511 930 83.2237 466.947 486.77
424 0 79.1575 12.0266 952 84.1302 466.263 484.89
425 0 81.1612 11.9146 967 84.6815 465.951 482.994
426 0 82.2981 11.7378 966 86.3002 466.146 482.542
427 0 86.2293 11.7246 1011 87.8071 465.908 481.686
428 1 45.1015 10.2436 462 83.8377 465.682 503.535
429 0 46.0395 10.2086 470 84.1021 465.553 503.117
430 0 48.127 10.6593 513 84.2944 465.558 501.559
431 0 51.0796 11.5506 590 82.0237 467.376 495.97
432 0 51.1135 11.8168 604 85.7566 466.313 498.022
433 0 53.0219 11.2972 599 95.3806 465.906 498.27
434 0 55.0577 12.1691 670 94.903 465.696 496.04
435 0 57.0699 12.1605 694 94.085 465.856 495.926
436 0 60.0258 11.8116 709 94.7729 465.757 495.471
437 0 59.0211 11.7585 694 85.8501 465.85 496.682
438 0 59.0515 11.0751 654 87.5076 465.838 494.446
439 0 62.0841 11.5811 719 86.8081 465.414 492.747
440 0 67.2227 11.752 790 84.4557 465.776 490.735
441 0 69.0817 11.7976 815 83.4429 466.73 491.264
442 0 71.0703 12.1148 861 83.1777 467.603 488.374
443 0 75.0871 12.0527 905 82.2133 466.907 487.643
444 0 76.0682 12.1601 925 82.7005 466.321 486.935
445 0 79.0687 12.0149 950 84.5853 466.259 484.893
446 0 81.1285 11.9563 970 84.0619 466.39 485.142
447 0 86.048 12.586 1083 82.6491 466.843 481.951
448 1 46.0186 10.9086 502 81.498 466.793 501.974
449 0 46.0384 10.6867 492 74.8516 466.555 500.99
450 0 49.0254 11.5042 564 77.6206 466.652 501.278
451 0 51.0264 11.6606 595 76.7798 467.044 500.076
452 0 51.0431 12.127 619 82.6704 466.729 499.876
453 0 54.0497 13.2286 715 79.6559 466.294 499.986
454 0 55.0229 12.8856 709 81.4796 466.293 497.489
455 0 56.045 12.7398 714 82.8109 467.228 497.557
456 0 59.0302 12.3835 731 81.7319 467.086 497.484
457 0 59.043 12.1268 716 81.5894 467.032 496.613
458 0 62.1384 12.9228 803 79.7634 466.554 494.898
459 0 62.0318 12.8966 800 80.2288 466.649 494.728
460 0 63.0717 12.8742 812 80.6515 466.808 492.988
461 0 66.0981 12.4058 820 80.8512 466.682 490.827
462 0 68.1229 12.5802 857 80.0175 466.459 490.256
463 0 71.1843 12.8259 913 79.2355 466.225 489.308
464 0 72.1377 12.9613 935 80.9326 466.958 487.767
465 0 75.1878 13.5793 1021 79.5749 466.51 487.585
466 0 77.1242 13.0309 1005 81.6239 467.093 486.051
467 0 80.1599 13.0863 1049 81.4824 466.919 485.599
468 0 84.1344 13.0981 1102 81.451 465.954 482.664
469 0 86.2373 13.2077 1139 81.7954 467.06 480.625
470 0 86.1918 12.5186 1079 83.4235 467.31 480.29
471 0 89.0925 12.0549 1074 85.6862 466.468 476.825
472 0 92.1397 12.3942 1142 85.4685 465.49 476.662
473 0 96.1166 12.5473 1206 86.3076 466.649 473.649
474 1 50.1194 10.0759 505 92.7426 465.739 494.832
475 0 53.0971 11.4319 607 89.2471 466.593 493.736
476 0 53.0958 11.0366 586 90.058 466.288 494.66
477 0 57.044 11.9206 680 89.875 466.875 495.846
478 0 57.0581 11.5321 658 81.0167 466.74 498.012
479 0 57.068 10.8292 618 82.3107 466.83 496.638
480 0 58.045 11.0604 642 81.8738 466.589 495.592
481 0 60.1415 11.3565 683 82.1537 465.84 494.867
482 0 62.083 11.0336 685 84.0423 466.171 493.543
483 0 64.0532 11.0689 709 83.2158 466.021 493.96
484 0 66.1188 11.0407 730 84.1151 466.588 491.995
485 0 69.1734 11.5507 799 83.2503 466.466 491.414
486 0 70.1399 11.4485 803 84.5679 466.584 489.306
487 0 74.1314 12.0327 892 83.778 467.166 488.842
488 0 75.0943 11.8251 888 85.17 467.126 487.803
489 0 79.1586 12.0644 955 84.5613 467.401 487.169
490 0 80.1495 12.2272 980 88.6776 466.404 485.254
491 0 82.2287 11.9423 982 89.4491 466.559 483.391
492 0 84.1192 10.9844 924 92.6342 466.501 479.581
493 0 89.1922 11.2454 1003 93.1795 467.153 477.498
494 0 93.156 12.1517 1132 90.3834 466.989 478.103
495 1 50.1733 10.4239 523 93.5124 466.489 501.174
496 0 51.0632 11.3193 578 91.9204 465.962 499.737
497 0 55.0303 11.848 652 91.2561 466.876 498.773
498 0 55.0654 12.4761 687 97.7991 466.693 497.967
499 0 59.0245 11.8934 702 97.933 467.137 496.454
500 0 60.039 11.8423 711 99.0928 465.11 496.647
501 0 61.0076 11.9985 732 99.25 464.398 496.228
502 0 62.03 12.3489 766 98.1697 464.398 495.292
503 0 65.0497 12.3752 805 96.9975 464.65 495.291
504 0 67.0431 12.3652 829 95.8649 464.473 494.269
505 0 67.0595 12.1981 818 96.5599 464.358 492.873
506 0 69.0874 12.5493 867 94.3472 464.723 491.76
507 0 69.0806 12.5216 865 94.8393 464.474 491.355
508 0 76.1015 13.4031 1020 90.9686 464.342 488.067
509 0 76.0758 12.803 974 92.7957 464.437 487.817
510 0 80.1 13.0462 1045 91.1397 465.512 486.054
511 0 82.2013 12.9073 1061 90.5683 464.412 485.734
512 0 85.1089 12.7014 1081 91.42 464.53 485.233
513 0 87.1539 13.1492 1146 91.4101 464.147 483.091
514 1 48.0471 11.0308 530 92.7943 464.109 502.821
515 0 49.0656 12.2489 601 90.4559 464.912 502.193
516 0 50.0686 12.2432 613 90.2773 465.419 500.997
517 0 51.0246 12.0726 616 89.9643 464.175 501.474
518 0 54.0114 12.4048 670 87.6537 464.204 500.794
519 0 55.0309 12.9564 713 87.8359 464.199 500.523
520 0 56.0344 12.1175 679 90.3343 464.387 499.43
521 0 57.0143 12.3653 705 90.4312 463.647 498.623
522 0 59.0096 12.6081 744 89.0995 463.884 497.685
523 0 62.0195 12.5767 780 88.05 463.941 497.731
524 0 62.017 12.3676 767 89.0782 464.185 496.657
525 0 64.022 11.8553 759 89.3491 464.76 496.299
526 0 67.006 12.178 816 89.8542 464.158 494.533
527 0 67.0229 12.2048 818 91.7885 464.386 492.89
528 0 70.0901 11.9988 841 93.2889 464.634 491.883
529 0 71.1042 12.5872 895 92.2413 464.56 491.066
530 0 74.0864 12.283 910 92.878 464.019 490.568
531 0 78.1611 12.9348 1011 91.365 463.887 490.238
532 0 78.0635 12.5795 982 94.6222 464.694 489.107
533 0 82.1266 13.2113 1085 93.4645 464.382 488.395
534 0 83.0546 12.7386 1058 96.2259 465.335 485.858
535 0 86.0521 12.8759 1108 97.1733 465.321 485.073
536 0 88.1001 12.9058 1137 98.6174 465.264 483.685
537 0 91.0389 12.1816 1109 101.75 464.665 482.102
538 0 94.0671 12.9588 1219 99.9524 464.35 481.945
539 0 97.0447 13.0146 1263 100.979 464.439 480.261
540 0 99.0652 13.1227 1300 101.235 464.412 478.512
541 1 52.0246 11.2447 585 102.785 464.968 502.838
542 0 52.0355 11.3192 589 98.8761 465.268 502.552
543 0 56.0185 12.2638 687 92.5779 465.064 501.338
544 0 58.0206 13.409 778 89.7558 464.765 501.03
545 0 59.043 12.0759 713 93.9846 464.118 501.126
546 0 63.0408 13.293 838 90.148 464.45 500.221
547 0 63.1011 13.0743 825 92.48 464.725 498.856
548 0 66.0314 13.0544 862 91.9223 464.552 497.538
549 0 68.0626 13.4729 917 91.3239 463.848 496.931
550 0 71.0387 13.2745 943 91.5281 464.075 494.371
551 0 72.0704 13.4591 970 91.8825 464.557 493.676
552 0 76.0932 13.6017 1035 91.971 464.912 492.23
553 0 78.0818 13.8317 1080 91.1083 464.151 491.992
554 0 80.0875 13.5352 1084 92.4686 464.693 491.553
555 0 81.0652 13.6803 1109 94.468 464.508 490.092
556 0 85.0875 13.9974 1191 94.0865 465.228 487.6
557 0 87.0571 13.5428 1179 95.1416 464.562 488.547
558 0 89.0831 13.6726 1218 96.2767 464.056 485.486
559 0 91.0353 14.1374 1287 96.5012 463.194 485.319
560 0 95.088 13.5874 1292 98.2949 463.785 483.981
561 0 98.1677 13.6603 1341 99.7688 463.825 481.638
562 0 101.146 13.6337 1379 103.085 463.888 480.013
563 0 105.123 13.8694 1458 111.53 463.786 478.503
564 0 107.159 13.9886 1499 110.973 463.756 476.53
565 0 111.099 14.3566 1595 110.114 463.9 476.096
566 0 114.086 14.4277 1646 109.071 463.541 472.631
567 0 116.072 13.6726 1587 112.387 464.083 470.199
568 0 121.142 13.8763 1681 111.785 463.309 469.036
569 0 126.088 13.6809 1725 110.913 463.514 466.561
570 1 66.0647 11.1557 737 111.091 462.902 495.92
571 0 64.1431 11.1002 712 106.596 464.136 491.545
572 0 71.0713 12.4664 886 109.512 462.858 494.597
573 0 74.0522 13.2204 979 106.324 464.146 494.04
574 0 76.1493 12.7775 973 107.374 463.958 493.354
575 0 77.0865 13.0632 1007 108.998 462.93 492.508
576 0 80.0514 13.0791 1047 109.323 463.152 491.276
577 0 82.0481 13.8212 1134 109.289 463.238 489.138
578 0 84.0921 12.962 1090 112.942 463.513 489.52
579 0 87.0636 12.8527 1119 113.219 463.088 487.99
580 0 89.0398 12.9043 1149 112.561 463.769 487.317
581 0 92.0864 13.1724 1213 112.209 464.035 485.52
582 0 94.0536 12.9607 1219 111.049 464.397 483.797
583 0 97.0978 12.6985 1233 111.426 463.388 480.547
584 0 100.042 13.3245 1333 110.782 463.935 480.374
585 0 103.1 13.2687 1368 109.667 463.167 478.48
586 0 107.062 12.8804 1379 110.212 463.242 477.088
587 0 112.136 12.4313 1394 107.93 463.357 474.785
588 0 112.132 12.414 1392 151.307 465.366 474.636
589 1 63.1759 10.7478 679 99.8365 462.418 500.692
590 0 65.155 11.204 730 104.04 463.097 498.337
591 0 68.198 12.4784 851 103.155 463.372 496.412
592 0 69.1299 12.6429 874 109.842 463.235 496.629
593 0 72.1586 12.8606 928 110.056 463.003 495.212
594 0 73.1024 12.886 942 110.55 462.886 493.729
595 0 75.1417 12.8291 964 108.086 463.475 492.689
596 0 77.1424 13.2353 1021 106.909 462.214 490.669
597 0 80.1455 13.226 1060 107.399 463.117 489.708
598 0 83.0274 12.4055 1030 100.85 463.885 489.851
599 0 85.0796 12.3296 1049 100.12 463.289 489.116
600 0 86.0547 12.5734 1082 99.9575 463.724 488.542
601 0 88.0681 12.2178 1076 101.467 463.716 486.941
602 0 93.1385 13.131 1223 100.099 464.02 484.604
603 0 96.0325 12.4645 1197 100.368 463.672 484.221
604 0 97.1638 12.7723 1241 102.615 463.613 481.981
605 0 100.09 12.3789 1239 103.003 463.127 480.427
606 0 102.113 12.3197 1258 102.402 462.397 479.829
607 0 106.185 11.8096 1254 101.518 462.972 476.443
608 1 60.0183 9.78035 587 97.7104 463.167 501.54
609 0 62.1327 10.6063 659 96.308 463.111 500.973
610 0 62.0427 10.3961 645 98.3194 463.081 498.316
611 0 63.1285 11.342 716 96.6299 463.402 497.383
612 0 64.0573 11.5365 739 99.5129 462.133 497.825
613 0 69.0494 11.3976 787 104.047 461.86 497.175
614 0 70.0236 11.8389 829 103.543 461.571 495.796
615 0 71.0466 12.0203 854 103.381 461.27 493.951
616 0 74.0518 12.1942 903 103.567 461.338 492.534
617 0 78.0996 12.9706 1013 99.9714 462.161 491.459
618 0 80.1078 12.4457 997 102.16 462.4 488.513
619 0 82.1516 12.0265 988 103.309 462.666 487.723
620 0 84.3012 12.4198 1047 100.798 462.295 487.071
621 0 86.1439 12.0148 1035 102.356 462.433 483.865
622 0 90.1324 12.4262 1120 100.399 462.302 482.984
623 0 91.135 12.3224 1123 101.554 461.695 481.213
624 0 94.1612 11.7033 1102 99.5544 462.103 480.235
625 0 98.1665 12.3056 1208 96.5629 461.934 478.619
626 0 101.175 11.92 1206 96.9793 462.289 476.032
627 0 104.195 12.2751 1279 97.9007 462.038 475.231
628 0 108.155 12.3897 1340 97.6007 462.054 473.706
629 1 57.0666 10.146 579 95.6442 462.211 500.147
630 0 58.0914 10.3285 600 86.7467 465.065 497.75
631 0 60.0433 10.8255 650 83.3769 464.386 497.849
632 0 61.054 9.90927 605 85.114 463.79 496.569
633 0 65.0918 11.5376 751 80.8242 463.988 494.889
634 0 65.0726 10.3269 672 84.0923 465.107 494.754
635 0 70.0455 11.4497 802 80.4327 464.736 491.898
636 0 70.0512 10.7064 750 82.1053 464.62 493.143
637 0 73.1966 11.4213 836 82.311 465.078 490.384
638 0 73.0514 10.828 791 83.1403 465.746 490.564
639 0 76.1068 11.0765 843 84.0771 465.521 489.434
640 0 79.0486 12.0053 949 82.7945 464.839 486.618
641 0 83.088 12.0114 998 81.7194 464.6 489.233
642 0 86.0387 11.6575 1003 82.4397 465.046 486.568
643 0 87.0756 11.4728 999 83.5025 464.701 486.379
644 0 89.0505 11.252 1002 84.512 464.456 482.89
645 0 92.0557 11.895 1095 83.4402 464.09 483.519
646 0 95.1473 11.004 1047 86.2636 464.85 481.612
647 0 99.0794 11.0416 1094 87.2112 465.641 479.48
648 1 54.027 10.7724 582 83.4656 465.631 502.627
649 0 55.0863 10.3292 569 85.1775 465.336 502.422
650 0 57.126 11.4659 655 83.3359 464.692 499.243
651 0 60.0605 11.7382 705 92.095 463.23 498.064
652 0 61.0194 11.6684 712 90.0983 463.657 498.787
653 0 60.042 10.9423 657 86.4201 464.39 499.081
654 0 62.0687 11.0684 687 86.4891 464.314 497.201
655 0 66.0943 11.5441 763 81.5937 465.257 496.229
656 0 66.0778 11.1384 736 82.3818 465.966 496.048
657 0 69.1238 10.908 754 82.8899 465.778 494.163
658 0 72.1419 11.6992 844 80.731 465.493 493.775
659 0 73.0658 11.8387 865 81.4312 465.76 492.118
660 0 77.1348 11.7068 903 83.2614 465.535 490.703
661 0 79.1003 11.9595 946 81.6998 465.682 489.429
662 0 81.2257 11.2403 913 84.0066 465.976 488.205
663 0 83.1436 11.9312 992 83.5192 466.138 486.291
664 0 86.2282 11.945 1030 85.8359 465.409 483.606
665 0 88.1646 11.5466 1018 87.942 465.226 482.855
666 0 89.2579 11.1139 992 88.1522 465.629 482.024
667 0 93.1695 10.7224 999 88.4084 464.993 479.818
668 0 96.1582 11.4291 1099 86.8544 465.164 478.168
669 0 100.136 11.5243 1154 86.1421 465.362 477.731
670 0 101.217 10.9961 1113 88.1141 465.518 475.485
671 0 101.176 11.1786 1131 88.2484 465.852 474.138
672 0 106.201 10.9321 1161 88.5314 465.812 471.55
673 0 110.124 10.9695 1208 88.6167 465.228 471.671
674 0 112.298 11.3448 1274 88.7072 464.814 468.722
675 0 117.462 11.8166 1388 90.0555 464.065 465.613
676 0 119.337 11.2287 1340 90.1246 464.522 464.324
677 1 61.3007 10.2772 630 90.3286 464.625 491.63
678 0 66.4994 11.3685 756 85.0119 464.832 489.89
679 0 67.3789 10.953 738 87.5705 464.69 490.148
680 0 67.1097 12.1145 813 86.5572 465.724 489.697
681 0 71.1066 11.982 852 85.7406 465.309 487.513
682 0 72.1288 11.937 861 86.029 465.936 487.333
683 0 73.0457 11.8145 863 87.3349 465.762 485.871
684 0 77.1196 12.0592 930 86.0763 466.022 484.844
685 0 79.0735 12.1533 961 85.8335 465.837 483.192
686 0 81.0776 11.6432 944 86.5922 465.461 481.257
687 0 82.1609 12.0374 989 86.4783 466.808 480.287
688 0 84.062 11.9198 1002 86.7675 465.802 479.497
689 0 86.2171 11.9466 1030 86.7398 466.081 477.751
690 0 89.2446 12.3257 1100 86.3791 465.769 475.853
691 0 92.1608 12.4348 1146 86.2679 465.299 474.002
692 0 92.1438 12.0355 1109 87.8882 465.94 470.463
693 0 98.1394 11.8913 1167 87.0994 465.728 468.374
694 0 100.108 11.5875 1160 88.3905 465.659 465.425
695 0 102.143 11.8951 1215 88.093 465.828 461.927
696 0 99.1774 10.9702 1088 91.1948 465.574 460.353
697 0 107.11 11.1474 1194 89.5553 465.238 458.688
698 1 60.1507 11.1221 669 88.2407 463.568 495.892
699 0 63.0815 11.287 712 86.566 463.003 495.146
700 0 66.0864 11.6968 773 85.1953 462.483 493.904
701 0 66.0883 11.0458 730 87.3466 463.477 494.697
702 0 66.0947 10.6816 706 89.2989 463.426 494.46
703 0 70.0498 11.4062 799 88.5232 463.594 491.641
704 0 73.1256 11.9657 875 87.7703 463.113 492.645
705 0 74.093 11.2426 833 91.3421 463.803 492.688
706 0 77.0612 12.3279 950 90.1263 463.805 489.123
707 0 78.0798 12.0646 942 92.8832 463.721 489.948
708 0 80.1658 11.8754 952 94.7542 463.506 488.911
709 0 83.1363 11.7999 981 95.5831 463.623 488.599
710 0 85.15 12.249 1043 92.6012 463.389 487.069
711 0 88.1075 12.2351 1078 92.5946 463.297 485.385
712 0 90.1558 11.7574 1060 94.6274 462.937 484.153
713 0 94.1585 12.2665 1155 93.4641 462.91 482.543
714 0 96.1352 12.2952 1182 94.1523 463.579 483.333
715 0 97.1278 12.1901 1184 95.5507 464.03 481.914
716 0 99.1165 11.2897 1119 97.1171 463.475 479.962
717 0 103.139 11.9548 1233 96.4071 463.672 475.935
718 0 104.151 11.5697 1205 97.7012 464.407 473.078
719 0 109.173 11.981 1308 95.6766 464.4 474.41
720 0 114.267 11.8495 1354 94.9668 464.859 470.683
721 0 114.267 11.8494 1354 95.3796 464.689 466.556
722 0 118.142 11.7317 1386 96.8636 464.169 462.973
723 0 119.3 11.2154 1338 96.701 464.327 457.114
724 1 66.1271 9.87492 653 89.3139 464.342 490.896
725 0 69.0872 10.5808 731 83.409 464.903 492.149
726 0 71.0523 10.9919 781 81.3547 464.602 489.876
727 0 73.1517 10.9088 798 84.6278 463.916 498.074
728 0 76.1405 10.5857 806 86.5806 463.215 494.607
729 0 78.1331 10.0982 789 88.2915 463.262 492.129
730 0 80.2316 11.1552 895 85.619 463.392 491.798
731 0 81.0739 10.5953 859 88.9243 463.458 491.115
732 0 87.1914 10.2762 896 87.298 463.523 489.109
733 0 88.0908 10.58 932 86.9034 462.863 488.586
734 0 92.1956 11.4214 1053 84.8443 463.121 486.8
735 0 97.142 10.778 1047 87.0277 463.52 485.624
736 0 98.1981 11.3037 1110 86.6766 463.632 482.355
737 1 54.0886 10.4458 565 85.4637 463.359 504.292
738 0 53.0728 9.42103 500 84.784 463.314 502.262
739 0 57.022 10.6801 609 87.7504 464.634 500.765
740 0 59.1156 11.3168 669 84.3124 463.794 498.83
741 0 61.1563 11.6096 710 84.5493 462.996 498.092
742 0 61.0919 11.9165 728 84.7198 462.673 497.277
743 0 65.082 11.9081 775 85.6671 462.188 496.43
744 0 67.1174 12.426 834 84.2158 463.436 494.994
745 0 68.0703 11.6203 791 86.0329 463.248 494.951
746 0 70.072 11.902 834 85.5815 464.357 493.57
747 0 73.0559 11.8539 866 85.1016 464.385 493.796
748 0 76.0365 12.5861 957 83.8861 464.063 492.86
749 0 76.0497 12.2551 932 81.4292 464.179 489.85
750 0 79.0262 11.5911 916 83.441 464.801 488.145
751 0 81.0976 11.9979 973 83.1028 464.322 487.01
752 0 84.1027 12.4728 1049 86.2517 463.478 484.952
753 0 87.1498 12.7711 1113 85.3863 464.064 485.72
754 0 90.1034 12.9296 1165 85.6 464.026 484.468
755 0 92.1019 12.4645 1148 85.3815 464.399 482.882
756 0 94.0564 12.4074 1167 84.2913 464.229 480.292
757 0 97.0619 12.2602 1190 86.9378 464.066 479.009
758 0 100.058 12.5728 1258 88.155 464.795 478.86
759 1 53.0341 10.333 548 92.3029 465.016 502.166
760 0 54.0226 11.6248 628 88.1035 464.725 502.306
761 0 56.1347 12.0959 679 88.352 464.047 499.25
762 0 58.0549 12.0231 698 87.7478 465.33 499.434
763 0 59.0909 11.5585 683 87.8902 465.274 500.138
764 0 62.0957 12.5935 782 86.0882 465.074 498.124
765 0 63.0869 12.4115 783 88.1303 464.769 497.935
766 0 66.0699 12.9106 853 87.2767 465.2 496.057
767 0 67.0678 12.8974 865 88.3156 464.973 495.512
768 0 71.0851 12.6046 896 90.4196 464.859 495.163
769 0 71.0603 12.4824 887 92.7508 465.324 495.284
770 0 72.0707 12.4461 897 93.8149 466.116 493.805
771 0 76.1632 12.4338 947 93.7973 465.247 491.652
772 0 77.1094 12.7222 981 92.1937 465.497 490.767
773 0 79.0751 11.9633 946 94.3658 465.543 492.215
774 0 82.1389 12.2475 1006 94.0855 464.995 489.588
775 0 85.1431 13.0839 1114 92.8025 464.784 486.393
776 0 88.147 13.0237 1148 91.993 466.328 484.24
777 0 90.1464 12.6794 1143 92.692 466.043 482.514
778 0 94.1504 13.1173 1235 91.7765 465.746 481.619
779 0 96.0795 12.3856 1190 92.674 465.712 481.042
780 0 100.119 13.354 1337 90.7614 465.503 480.401
781 0 102.106 12.6731 1294 90.949 465.359 477.657
782 0 106.101 12.9594 1375 90.8065 465.041 477.95
783 1 58.0814 11.8454 688 93.9288 465.244 499.384
784 0 60.0749 12.0516 724 91.5829 465.068 499.202
785 0 64.081 12.3437 791 91.536 465.252 495.804
786 0 62.0736 11.6475 723 93.3859 465.484 497.591
787 0 65.048 11.7759 766 92.9804 465.8 495.997
788 0 66.0353 11.7059 773 91.4321 465.849 495.563
789 0 70.0413 11.2791 790 93.043 465.281 494.254
790 0 73.0535 11.9775 875 91.2137 465.063 492.549
791 0 75.0717 11.6022 871 93.0918 465.17 492.346
792 0 78.052 11.5436 901 93.0488 464.88 488.678
793 0 80.0246 11.8963 952 92.2952 465.079 489.671
794 0 81.0525 11.5851 939 94.1619 465.201 490.858
795 0 83.0369 12.1151 1006 94.3588 465.697 487.531
796 0 87.0147 12.7565 1110 94.2739 465.928 487.396
797 0 89.0621 12.3622 1101 95.1889 466.401 486.054
798 0 91.0594 12.8488 1170 93.6402 466.091 485.361
799 0 95.1101 12.6064 1199 95.0442 465.726 482.715
800 0 99.083 13.3827 1326 93.2383 466.036 483.341
801 0 99.0708 12.8696 1275 97.3404 465.831 480.926
802 0 100.065 12.9116 1292 99.8584 465.37 480.579
803 0 102.096 13.0661 1334 100.078 465.169 480.424
804 0 108.044 13.513 1460 100.543 464.829 479.837
805 0 110.069 13.0645 1438 104.047 464.509 476.876
806 0 112.078 13.0266 1460 105.769 465.554 475.379
807 0 114.088 12.6394 1442 107.734 465.006 474.558
808 0 119.156 13.1676 1569 106.683 464.668 472.38
809 0 125.061 13.2975 1663 106.366 464.273 473.22
810 0 127.05 13.3569 1697 108.027 464.765 469.184
811 0 131.15 13.4427 1763 107.225 464.551 468.883
812 0 136.085 13.9471 1898 105.855 464.739 467.948
813 0 139.12 13.2404 1842 108.313 464.326 464.84
814 0 143.091 13.1245 1878 108.015 463.546 462.384
815 0 148.152 13.2094 1957 105.65 463.565 461.596
816 0 152.183 12.7478 1940 106.157 464.548 460.843
817 0 157.158 13.6423 2144 104.2 464.257 456.385
818 0 161.153 12.7829 2060 107.103 464.22 455.49
819 0 167.178 13.4408 2247 105.622 464.8 451.17
820 0 171.124 13.0665 2236 107.108 464.72 448.835
821 0 178.132 13.4844 2402 107.355 463.697 445.651
822 0 181.138 13.4594 2438 108.625 463.41 445.917
823 0 188.137 12.7301 2395 108.251 463.524 438.878
824 0 198.119 14.1279 2799 103.534 463.772 432.781
825 0 203.23 13.6249 2769 104.779 463.584 428.629
826 0 209.214 13.9904 2927 107.714 463.798 427.712
827 1 154.316 12.3189 1901 112.84 463.532 454.401
828 0 161.238 13.8987 2241 108.915 464.497 452.568
829 0 167.185 13.7452 2298 101.538 464.075 448.537
830 0 172.228 12.9073 2223 107.06 464.373 445.25
831 0 177.199 13.1095 2323 108.931 463.742 443.43
832 0 181.161 12.6517 2292 109.89 464.229 440.712
833 0 188.2 13.3687 2516 108.049 463.245 436.619
834 0 194.215 13.2688 2577 108.993 463.85 435.091
835 0 200.208 12.2123 2445 111.382 464.139 426.931
836 0 208.236 13.5663 2825 106.696 463.505 427.133
837 0 214.268 13.7818 2953 104.724 463.503 421.775
838 0 216.266 12.8129 2771 108.047 464.142 417.551
839 1 56.1252 11.3674 638 92.8715 463.213 502.411
840 0 57.164 11.3708 650 96.1415 462.386 500.949
841 0 60.1487 12.5023 752 93.6184 462.032 500.616
842 0 62.0678 11.9225 740 101.312 462.527 499.935
843 0 64.0272 12.2917 787 100.878 461.75 498.565
844 0 64.0448 12.1477 778 101.406 462.514 496.902
845 0 67.0442 12.887 864 99.5475 461.729 496.066
846 0 67.084 12.9241 867 100.284 461.401 494.694
847 0 70.0868 13.0838 917 100.125 461.308 493.413
848 0 71.0511 13.9055 988 98.7773 461.739 491.786
849 0 72.0717 13.2646 956 101.246 462.16 490.304
850 0 75.0391 13.3397 1001 101.549 462.045 489.622
851 0 76.0369 13.2699 1009 100.708 462.786 490.388
852 0 77.0599 13.2624 1022 101.707 463.304 489.627
853 0 78.0681 12.7325 994 92.6026 462.946 491.423
854 0 80.0623 13.2397 1060 91.5349 462.699 489.903
855 0 81.0686 12.4463 1009 94.4727 462.537 487.436
856 0 83.0855 12.8422 1067 94.3936 462.624 485.931
857 0 86.1342 12.6082 1086 96.0774 462.423 484.83
858 0 90.119 12.6388 1139 97.3775 463.1 484.005
859 0 93.0789 12.484 1162 99.0688 463.105 484.028
860 0 95.1746 12.3562 1176 100.433 463.757 482.575
861 0 97.07 12.5167 1215 101.867 463.586 480.691
862 0 99.0723 12.8189 1270 103.696 463.246 478.568
863 0 103.047 12.8194 1321 105.829 463.864 476.925
864 0 105.053 12.8982 1355 106.447 462.821 475.504
865 0 109.062 13.5978 1483 104.187 462.521 475.05
866 0 109.132 13.0301 1422 97.1554 462.778 474.018
867 0 119.102 14.6849 1749 98.9874 463.367 465.11
868 1 131.219 18.2367 2393 84.1341 463.338 455.704
869 0 133.106 16.8287 2240 88.8853 463.339 456.614
870 0 136.281 17.4786 2382 90.5206 463.278 453.111
871 1 69.1226 10.1559 702 95.7365 463.772 485.319
872 0 70.0912 9.74445 683 97.7511 462.351 486.697
873 0 74.0458 11.4254 846 102.173 463.115 487.834
874 0 76.097 11.9453 909 100.69 462.333 488.016
875 0 80.0743 11.3894 912 102.013 462.03 488.046
876 0 84.0622 11.8008 992 101.804 461.635 485.74
877 0 86.0958 12.0679 1039 103.104 462.386 485.285
878 0 89.1273 12.5214 1116 101.611 462.087 484.099
879 0 92.1336 13.2959 1225 99.0922 461.952 484.086
880 0 93.1323 13.003 1211 102.514 461.604 479.44
881 0 95.1366 13.591 1293 100.747 461.721 480.196
882 0 99.1216 13.0849 1297 102.271 462.473 480.107
883 0 102.104 13.7898 1408 101.082 462.722 478.79
884 0 105.135 13.6205 1432 102.127 463.142 476.92
885 0 107.153 13.1961 1414 105.561 463.732 472.765
886 0 108.204 13.4931 1460 105.603 462.679 471.282
887 0 113.155 13.4771 1525 104.561 462.575 470.59
888 0 115.222 12.758 1470 105.165 462.535 469.073
889 0 120.15 12.8756 1547 99.457 463.873 468.314
890 0 125.277 13.0032 1629 98.3284 462.709 466.557
891 1 73.1103 10.7509 786 95.0585 463.178 487.406
892 0 75.086 11.4136 857 92.6581 463.148 488.723
893 0 76.0526 11.6893 889 96.9573 464.366 488.664
894 0 80.0849 12.1496 973 92.9178 463.872 487.115
895 0 82.1108 12.5684 1032 90.7984 463.766 487.032
896 0 83.1233 12.4394 1034 93.4033 462.948 484.843
897 0 86.1543 12.524 1079 90.5598 463.448 482.564
898 0 88.1671 12.7258 1122 94.5437 464.615 482.276
899 0 92.1447 12.5455 1156 95.1125 464.635 479.619
900 0 96.1078 13.1103 1260 93.346 464.479 478.482
901 0 97.0831 12.7005 1233 94.1922 463.658 475.54
902 0 102.08 13.1955 1347 92.2472 464.47 476.211
903 0 103.235 12.9898 1341 93.0194 464.769 473.875
904 0 106.106 12.987 1378 92.77 464.79 472.826
905 0 107.095 12.3816 1326 95.0483 464.835 469.044
906 0 111.166 13.3853 1488 92.5054 464.028 468.313
907 0 114.115 12.6714 1446 94.6722 463.465 464.56
908 0 117.159 13.2043 1547 91.4176 464.242 463.45
909 0 120.149 12.7674 1534 91.0248 464.901 459.544
910 0 127.193 13.2633 1687 93.6011 464.767 459.732
911 0 130.121 13.6873 1781 88.0404 464.971 458.318
912 0 134.197 13.3237 1788 89.0632 465.096 457.1
913 0 139.148 13.712 1908 87.0886 465.071 455.608
914 0 143.157 13.2302 1894 89.199 464.116 451.584
915 0 148.199 14.0419 2081 86.1422 464.076 450.098
916 0 151.215 13.5238 2045 87.2005 464.133 447.979
917 0 159.234 14.8838 2370 88.1962 463.73 447.107
918 0 161.229 14.8236 2390 94.1904 463.985 445.158
919 0 167.206 15.1729 2537 94.6188 464.042 441.66
920 0 173.206 14.9475 2589 92.5604 462.553 438.858
921 0 177.239 14.912 2643 92.342 462.524 438.878
922 0 181.255 15.1168 2740 91.6347 463.832 435.951
923 0 188.257 15.1229 2847 91.1907 462.984 432.471
924 0 190.199 15.0737 2867 94.4161 462.193 428.545
925 0 195.188 14.9445 2917 95.4635 462.628 424.053
926 0 200.149 14.8989 2982 98.3789 462.445 416.804
927 0 205.184 14.7672 3030 98.534 463.061 411.354
928 0 212.206 15.2823 3243 98.1264 462.233 409.444
929 0 218.246 15.2992 3339 98.882 461.177 406.49
930 0 224.252 15.5004 3476 98.9649 461.853 402.7
931 1 51.0401 8.77741 448 74.4308 463.46 498.022
932 0 52.0273 10.4368 543 78.7146 461.593 503.781
933 0 53.0669 10.8731 577 80.0121 461.969 505.258
934 0 56.0279 11.1552 625 79.616 461.669 504.346
935 0 57.0503 11.4285 652 80.2224 461.681 502.873
936 0 58.1916 11.5309 671 80.6349 461.438 503.395
937 0 58.0977 10.3274 600 85.3983 460.732 505.253
938 0 59.1643 10.006 592 86.8514 460.726 504.103
939 0 61.0337 10.9284 667 85.3388 461.379 503.373
940 0 64.0674 10.6763 684 85.0366 462.389 503.81
941 0 64.1035 10.4986 673 87.6924 461.978 502.462
942 0 64.0344 10.2601 657 89.0609 461.519 503.148
943 0 69.0284 11.4735 792 87.6616 461.824 500.532
944 0 70.0458 10.95 767 89.5828 462.059 500.035
945 0 74.0409 11.102 822 89.2251 461.81 500.533
946 0 76.0432 11.5329 877 89.4219 461.448 497.974
947 0 76.0419 12.0328 915 89.7585 461.603 495.372
948 0 81.0518 11.869 962 90.0135 460.852 492.877
949 0 83.0523 11.8359 983 90.4964 462.484 492.874
950 0 84.0391 12.4466 1046 89.9522 462.801 489.597
951 0 88.0876 12.4081 1093 96.398 461.846 491
952 0 91.1057 11.9092 1085 96.3834 462.377 492.063
953 0 94.0666 11.4387 1076 99.1877 463.555 488.746
954 0 96.0657 11.8044 1134 97.6887 463.018 486.829
955 0 101.133 12.7654 1291 99.1232 462.443 484.667
956 0 102.186 12.3109 1258 98.6367 462.202 479.689
957 1 57.0881 11.526 658 94.041 462.307 504.564
958 0 59.0985 11.2862 667 86.2219 462.582 503.801
959 0 59.1306 11.1279 658 86.0532 461.898 503.052
960 0 62.105 12.028 747 82.9826 462.747 501.384
961 0 64.0559 12.7389 816 82.5956 462.822 501.043
962 0 66.0927 13.1633 870 78.469 463.024 499.008
963 0 67.0995 12.6529 849 80.1248 462.912 498.933
964 0 69.1313 13.3225 921 78.8295 462.188 500.372
965 0 69.1473 12.9434 895 79.7687 463.511 497.574
966 0 69.0867 12.4916 863 83.8505 462.855 495.189
967 0 71.0378 12.796 909 84.5556 463.48 497.311
968 0 74.031 12.4407 921 85.5907 462.926 495.916
969 0 77.0805 13.2718 1023 83.1075 463.295 492.153
970 0 77.0356 12.6046 971 85.0165 463.326 491.568
971 0 82.115 12.3485 1014 78.7446 463.476 486.042
972 0 85.0716 12.4718 1061 78.9953 462.727 485.578
973 0 86.0467 12.284 1057 79.9612 463.07 483.334
974 0 85.0977 12.0332 1024 83.1943 463.642 483.701
975 0 90.0829 11.9556 1077 82.7465 463.413 481.597
976 0 90.0595 10.9039 982 85.6405 463.677 480.894
977 0 95.0809 12.1055 1151 90.0061 464.014 483.984
978 0 101.043 13.9347 1408 77.419 464.028 479.954
979 0 105.092 14.0639 1478 84.7165 465.227 478.979
980 0 107.052 13.5915 1455 84.3856 464.169 480.042
981 1 63.0511 12.133 765 87.8837 464.748 501.094
982 0 66.0669 13.1079 866 77.1189 464.883 500.337
983 0 67.0523 13.4373 901 80.3718 465.01 500.973
984 0 68.2083 13.664 932 85.0075 464.663 496.09
985 0 70.0519 12.5621 880 84.4682 464.376 498.434
986 0 71.0795 12.7885 909 82.6293 464.256 496.408
987 0 74.05 12.7617 945 81.8963 463.876 495.713
988 0 74.0874 12.9307 958 82.5762 464.137 493.783
989 0 79.0464 13.3466 1055 82.7118 463.611 493.034
990 0 81.1057 13.5132 1096 81.3102 463.652 490.443
991 0 83.1179 13.5109 1123 82.9012 463.301 489.817
992 0 85.0462 13.3574 1136 84.3556 463.352 488.066
993 0 88.1182 13.4932 1189 84.8789 464.054 486.467
994 0 92.0494 13.2646 1221 90.8124 464.001 483.443
995 0 94.0938 13.3484 1256 90.1943 463.709 483.584
996 0 99.1373 13.557 1344 89.3021 463.826 480.913
997 0 101.126 13.3695 1352 89.9859 464.504 479.839
998 0 104.095 13.3148 1386 90.9567 464.004 479.283
999 0 105.096 13.0261 1369 92.0957 463.153 477.25
1000 0 110.103 13.0605 1438 91.5591 463.789 473.821
1001 0 115.14 13.0103 1498 91.1889 463.723 473.212
1002 0 117.09 13.4854 1579 90.5757 464.186 471.079
1003 0 120.15 13.1086 1575 91.6273 464.321 469.733
1004 0 125.154 13 1627 91.5224 464.594 468.875
1005 0 128.062 13.2905 1702 91.3948 465.354 465.31
1006 0 133.117 13.552 1804 90.6668 465.529 463.92
1007 0 134.168 13.0135 1746 97.2308 466.102 462.81
1008 0 140.258 12.7052 1782 93.3502 465.907 460.747
1009 0 147.39 13.2845 1958 92.7125 465.132 454.841
1010 1 76.2687 12.2068 931 92.7175 464.8 490.336
1011 0 79.3068 12.2562 972 93.0237 464.829 488.274
1012 0 82.3162 12.7314 1048 94.0935 464.165 487.007
1013 0 85.2094 12.7686 1088 92.1618 463.53 484.398
1014 0 89.1454 13.5285 1206 91.3532 464.422 483.512
1015 0 93.3599 13.4105 1252 89.9529 463.581 484.051
1016 0 95.2562 13.4479 1281 94.5277 464.02 481.907
1017 0 99.1948 13.8314 1372 94.5685 463.704 481.508
1018 0 102.397 13.4671 1379 97.5678 465.745 479.192
1019 0 107.402 13.7149 1473 96.3612 464.845 478.51
1020 1 48.1104 12.3466 594 94.5808 464.428 506.84
1021 0 48.2314 11.901 574 96.7509 465.246 506.483
1022 0 49.1208 11.5226 566 99.0371 464.894 506.292
1023 0 53.184 12.1841 648 99.2562 464.951 504.389
1024 0 55.2177 12.9125 713 94.2525 464.767 501.819
1025 0 58.1485 12.9668 754 93.7958 464.332 500.964
1026 0 60.0529 13.1051 787 103.48 463.939 499.039
1027 0 64.17 13.2772 852 102.719 463.964 499.079
1028 0 64.1284 12.8336 823 105.537 463.439 498.18
1029 0 67.1071 13.0091 873 104.515 464.502 497.077
1030 0 69.124 12.9767 897 105.483 463.362 495.668
1031 0 70.0847 13.2411 928 106.041 464.204 495.334
1032 0 73.0846 13.0534 954 106.89 464.054 493.527
1033 0 74.1103 13.2505 982 106.898 463.946 494.415
1034 0 77.1288 13.2506 1022 107.226 464.542 492.415
1035 0 78.08 12.7561 996 109.142 464.014 490.367
1036 0 80.1105 13.0944 1049 107.387 463.45 489.886
1037 0 83.0837 13.4804 1120 105.241 464.067 487.777
1038 0 85.1067 13.0189 1108 106.987 464.023 486.369
1039 0 89.1528 13.6058 1213 106.023 463.128 485.276
1040 0 92.1045 13.5715 1250 105.144 464.421 485.222
1041 0 94.186 13.0699 1231 107.323 464.124 481.831
1042 1 49.0143 11.262 552 107.812 464.248 504.013
1043 0 51.1232 11.4821 587 107.089 464.329 501.586
1044 0 53.0903 11.9419 634 105.921 464.73 499.957
1045 0 55.0501 12.3706 681 106.586 464.86 498.587
1046 0 57.0903 12.9619 740 104.208 464.591 498.786
1047 0 57.0849 13.1559 751 105.184 464.499 496.703
1048 0 59.0976 13.3339 788 104.874 463.82 497.391
1049 0 61.0459 12.8592 785 105.885 464.262 495.962
1050 0 64.0734 13.0319 835 103.737 464.454 495.259
1051 0 66.0812 13.3623 883 101.668 464.758 494.129
1052 0 67.0425 13.7226 920 101.755 464.552 494.735
1053 0 68.0909 13.3204 907 103.181 464.39 493.198
1054 0 71.089 13.9684 993 108.811 465.139 491.101
1055 0 75.123 13.6177 1023 113.127 465.677 487.804
1056 0 75.0586 13.9358 1046 109.329 465.042 486.879
1057 0 77.0799 14.1801 1093 106.725 465.183 484.739
1058 0 78.0766 14.473 1130 105.342 465.161 484.13
1059 0 81.0824 13.5541 1099 107.125 464.653 483.107
1060 0 84.1549 14.2357 1198 105.926 464.064 480.516
1061 0 85.1166 13.7106 1167 108.771 464.272 478.579
1062 0 87.1052 14.2586 1242 105.829 464.596 478.568
1063 0 89.1471 13.775 1228 108.145 464.572 479.805
1064 0 90.1405 13.7008 1235 108.454 465.424 477.555
1065 0 93.1059 13.2752 1236 108.837 464.733 476.512
1066 0 97.1953 13.6426 1326 107.326 464.324 474.477
1067 0 100.115 13.7442 1376 106.161 464.621 472.521
1068 0 100.117 13.9936 1401 106.065 464.225 470.85
1069 0 102.162 13.9778 1428 104.871 464.778 469.072
1070 0 107.131 13.3388 1429 104.884 464.196 469.426
1071 0 112.091 13.6407 1529 104.101 464.221 465.945
1072 0 116.166 13.9112 1616 103.647 464.726 464.58
1073 0 119.177 14.4239 1719 103.406 464.724 462.971
1074 0 123.318 13.8099 1703 104.75 464.479 459.887
1075 0 128.198 14.5322 1863 103.217 464.735 459.707
1076 0 132.185 14.4494 1910 102.874 464.788 456.229
1077 0 138.343 14.8399 2053 104.947 464.718 454.757
1078 0 142.087 14.9768 2128 104.712 464.262 451.813
1079 1 75.125 12.6589 951 105.543 463.402 485.518
1080 0 79.2172 13.2295 1048 105.237 463.515 482.433
1081 0 83.1444 14.1441 1176 100.927 463.932 482.033
1082 0 83.1821 13.3683 1112 104.574 463.67 479.802
1083 0 86.1296 14.0254 1208 103.05 464.184 478.814
1084 0 87.196 13.9112 1213 103.564 463.815 476.56
1085 0 91.2039 14.0235 1279 100.887 463.976 476.491
1086 0 92.1225 13.5038 1244 106.285 464.579 474.25
1087 0 96.2311 13.8936 1337 102.82 463.939 473.823
1088 0 99.2296 13.5141 1341 104.135 463.661 470.629
1089 0 105.206 14.6285 1539 114.828 463.789 470.007
1090 0 108.145 13.8795 1501 119.231 464.169 468.528
1091 0 108.145 13.8148 1494 168.637 465.158 468.492
1092 0 116.2 14.5267 1688 122.424 463.838 463.737
1093 0 123.154 14.7051 1811 123.018 464.123 460.291
1094 1 52.0582 11.1606 581 111.923 464.831 496.871
1095 0 52.2155 11.9122 622 112.65 464.686 495.022
1096 0 54.0908 12.2017 660 110.88 464.638 495.314
1097 0 57.127 12.6035 720 109.044 464.438 493.628
1098 0 55.1307 11.8264 652 108.572 464.704 493.436
1099 0 57.1402 11.7431 671 109.648 465.705 494.268
1100 0 59.2328 11.8853 704 108.717 465.273 493.06
1101 0 60.1203 11.8429 712 110.743 465.081 490.844
1102 0 63.0974 12.2034 770 109.536 464.547 490.21
1103 0 66.2252 12.3065 815 113.133 464.986 489.496
1104 0 71.2539 12.3642 881 110.533 464.201 489
1105 0 73.3024 12.0869 886 113.543 464.723 488.277
1106 0 74.2634 11.7151 870 115.915 464.388 486.795
1107 0 77.1739 11.8434 914 116.5 464.504 483.535
1108 0 80.1964 11.5342 925 117.411 464.461 482.838
1109 0 83.2147 11.4643 954 117.193 463.935 482.298
1110 1 48.3231 11.7335 567 115.069 463.806 498.586
1111 0 50.1446 11.8058 592 113.215 463.72 497.654
1112 0 52.3037 12.0642 631 114.074 463.941 497.044
1113 0 53.2947 12.3464 658 113.941 464.336 496.553
1114 0 51.3136 11.459 588 117.18 464.325 500.668
1115 0 54.3093 12.3367 670 114.461 464.703 499.952
1116 0 53.2369 11.8339 630 118.033 465.235 498.313
1117 0 55.404 12.0569 668 116.311 464.259 495.991
1118 0 56.3369 11.7862 664 117.428 464.111 494.535
1119 0 59.185 11.8442 701 116.856 464.12 492.74
1120 0 59.1598 11.2746 667 119.781 463.882 492
1121 0 63.3145 12.3668 783 115.033 464.401 492.266
1122 0 63.3242 11.3385 718 118.451 465.18 491.111
1123 0 66.3112 12.185 808 116.103 464.713 488.58
1124 0 67.3136 11.9144 802 118.682 465.01 489.269
1125 0 71.3174 11.9746 854 117.349 464.557 488.001
1126 0 71.2424 11.7486 837 117.785 465.289 489.168
1127 0 74.2725 11.8079 877 118.678 464.472 485.596
1128 0 77.2577 12.1541 939 117.094 463.579 484.223
1129 0 80.25 12.1745 977 115.216 464.017 483.79
1130 0 81.2721 12.292 999 113.89 463.398 482.33
1131 0 85.4301 12.1386 1037 113.458 463.488 480.921
1132 0 89.1579 12.8087 1142 110.61 464.405 478.198
1133 0 90.2591 12.73 1149 112.278 463.89 477.276
1134 0 93.2822 12.7248 1187 111.752 464.01 475.85
1135 0 97.2624 12.821 1247 112.406 464.062 474.072
1136 0 102.301 12.9617 1326 109.158 464.415 473.583
1137 0 105.3 13.077 1377 108.782 463.968 470.68
1138 0 109.249 12.6226 1379 108.835 464.761 468.275
1139 1 60.1863 11.8133 711 111.159 464.38 491.314
1140 0 62.0782 12.3715 768 109.656 463.858 490.19
1141 0 63.1768 13.2644 838 106.464 463.409 489.296
1142 0 66.1398 13.1842 872 106.268 463.302 488.101
1143 0 67.1262 13.3927 899 105.395 463.363 486.651
1144 0 71.1695 13.4327 956 106.644 463.602 485.771
1145 0 69.1887 12.4731 863 112.139 463.353 486.583
1146 0 72.2303 12.5017 903 110.328 463.441 486.605
1147 0 75.0973 12.6769 952 110.297 463.085 483.916
1148 0 76.1927 12.3896 944 111.124 463.512 482.551
1149 0 79.1552 12.8229 1015 109.205 463.359 481.237
1150 0 81.1714 12.5783 1021 96.8296 463.383 481.709
1151 0 84.0829 12.7612 1073 97.1249 462.981 478.359
1152 0 86.1274 12.1796 1049 97.2326 462.409 478.354
1153 0 88.1402 12.2305 1078 97.4063 462.151 476.055
1154 0 91.149 12.3644 1127 94.8456 463.148 474.497
1155 0 94.1329 12.5886 1185 94.8211 463.065 472.185
1156 0 94.1376 11.8869 1119 96.9687 462.699 469.07
1157 0 99.2063 12.479 1238 94.0073 463.453 467.529
1158 0 104.131 13.0029 1354 92.2216 463.547 465.908
1159 0 108.142 13.4083 1450 91.4766 463.917 462.794
1160 0 105.077 12.2767 1290 94.3411 463.274 462.289
1161 1 56.0668 12.1819 683 101.212 462.483 484.138
1162 0 64.1017 12.5894 807 94.8042 462.291 485.558
1163 0 63.1186 12.8171 809 95.9617 462.607 483.299
1164 0 67.1938 13.4685 905 93.4343 462.265 483.672
1165 0 67.1586 13.3713 898 94.1459 462.412 482.095
1166 0 66.2474 12.2269 810 101.121 462.028 481.774
1167 0 69.0782 12.3194 851 101.653 462.88 480.552
1168 0 71.1599 13.1816 938 98.629 462.993 480.364
1169 0 73.081 12.3835 905 103.269 462.946 477.777
1170 0 76.1611 12.3554 941 103.665 463.097 478.717
1171 0 78.1776 12.6891 992 103.81 463.125 477.407
1172 0 78.1825 12.829 1003 104.484 462.816 477.705
1173 0 88.1698 13.2131 1165 101.398 462.554 479.163
1174 0 85.1251 13.0044 1107 110.197 462.271 474.262
1175 0 85.1443 12.1323 1033 109.837 462.038 472.826
1176 0 87.1532 12.7362 1110 108.258 462.18 471.166
1177 0 91.1425 12.453 1135 109.27 463.133 470.97
1178 0 95.2194 12.487 1189 107.926 462.942 471.495
1179 0 99.2369 13.9162 1381 103.586 462.961 468.19
1180 0 105.175 13.6249 1433 102.957 463.175 468.735
1181 0 107.161 13.3258 1428 104.505 463.186 466.362
1182 0 108.197 12.3849 1340 109.087 463.77 465.216
1183 0 108.12 11.9219 1289 112.356 463.067 461.474
1184 0 114.105 12.839 1465 108.172 462.814 462.796
1185 0 118.116 12.8941 1523 107.987 462.936 461.062
1186 0 122.079 12.1724 1486 110.605 463.29 460.66
1187 0 126.092 13.1015 1652 107.202 463.442 459.096
1188 0 131.224 12.8635 1688 108.443 463.194 455.88
1189 0 136.063 13.4423 1829 106.974 463.348 455.206
1190 0 138.112 12.7143 1756 110.356 462.88 452.596
1191 0 143.149 12.6651 1813 111.18 464.048 452.215
1192 0 151.086 13.264 2004 110.927 463.498 448.696
1193 0 153.076 13.0589 1999 113.191 463.884 447.104
1194 0 159.131 13.4292 2137 112.804 463.058 446.891
1195 0 164.146 13.7682 2260 112.158 462.636 444.294
1196 0 168.256 13.2595 2231 114.698 462.952 440.521
1197 0 173.194 13.6783 2369 113.983 463.322 438.767
1198 0 177.198 13.4821 2389 115.999 462.853 436.126
1199 0 182.165 12.851 2341 118.38 462.844 433.17
1200 0 191.234 13.4495 2572 116.084 462.605 429.686
1201 1 100.095 10.0005 1001 104.851 463.125 474.73
1202 0 104.069 10.5507 1098 103.546 462.636 474.15
1203 0 109.053 11.1597 1217 101.641 462.518 472.832
1204 0 113.123 10.8555 1228 102.678 462.255 469.833
1205 0 116.099 11.1715 1297 101.873 462.305 469.49
1206 0 119.09 11.3612 1353 101.865 461.618 465.407
1207 0 124.105 11.4017 1415 102.036 462.743 463.779
1208 0 128.077 11.1417 1427 101.233 462.694 462.983
1209 0 133.078 10.5878 1409 104.681 462.782 460.637
1210 0 135.175 10.1868 1377 106.258 462.724 457.603
1211 0 140.132 11.1038 1556 104.654 462.351 453.182
1212 0 144.107 10.52 1516 104.693 462.902 452.054
1213 0 149.226 10.6616 1591 104.637 463.321 450.635
1214 0 152.167 10.0153 1524 106.719 462.745 447.944
1215 0 158.18 9.91906 1569 105.996 462.704 443.728
1216 0 161.157 10.5797 1705 104.209 463.11 440.92
1217 0 167.2 9.64115 1612 105.769 462.883 439.761
1218 0 173.115 10.2186 1769 103.647 462.908 437.35
1219 0 181.19 10.3759 1880 102.897 462.961 434.312
1220 0 185.286 10.5297 1951 102.485 462.768 430.697
1221 1 138.21 9.37702 1296 95.8434 463.009 457.775
1222 0 139.161 9.20516 1281 96.7463 463.504 452.258
1223 0 147.201 10.1358 1492 93.6186 463.146 449.956
1224 0 154.225 10.6014 1635 91.5199 462.669 446.804
1225 0 157.236 7.87351 1238 98.7973 461.964 433.985
1226 0 161.174 7.09791 1144 102.995 462.099 421.942
1227 0 167.169 7.61504 1273 101.61 462.304 423.68
1228 0 169.214 7.61168 1288 102.231 462.177 420.075
1229 0 171.188 8.13725 1393 104.49 462.184 413.038
1230 0 171.183 4.63831 794 114.519 461.86 398.645
1231 0 183.23 8.23555 1509 104.327 462.61 408.225
1232 0 189.151 7.86674 1488 105.862 462.349 397.142
1233 0 195.212 8.939 1745 101.708 462.879 401.552
1234 0 203.168 8.89903 1808 101.957 462.949 401.433
1235 1 170.064 3.78681 644 98.0062 462.065 439.463
1236 0 172.181 5.66845 976 95.6598 462.165 437.995
1237 0 172.15 8.08598 1392 94.5618 462.54 431.127
1238 0 174.333 9.38433 1636 93.1351 462.582 427.471
1239 0 179.264 9.38282 1682 94.9019 462.495 425.408
1240 0 185.278 10.1469 1880 94.692 462.34 420.497
1241 0 190.318 10.1199 1926 95.5576 463.029 420.565
1242 0 193.254 10.4371 2017 96.9678 463.269 416.18
1243 0 201.214 11.1871 2251 96.4243 462.966 411.225
1244 0 205.186 10.6781 2191 100.065 463.896 408.335
1245 0 215.32 11.1184 2394 100.243 464.719 408.195
1246 0 218.295 10.9989 2401 103.01 463.864 404.858
1247 1 231.333 15.0303 3477 90.7581 462.592 388.158
1248 0 233.358 12.9501 3022 99.1909 462.619 388.194
1249 0 239.596 11.6697 2796 104.055 462.647 395.382
1250 0 249.704 11.9621 2987 105.598 463.091 395.032
1251 0 255.371 11.8338 3022 110.68 463.046 394.704
1252 0 263.379 11.5271 3036 111.239 463.462 388.41
1253 0 266.353 11.3872 3033 108.709 464.161 384.696
1254 0 276.474 12.1314 3354 105.967 464.151 381.317
1255 0 281.418 10.8486 3053 110.697 463.303 376.339
1256 1 305.562 17.0767 5218 88.1115 463.401 349.148
1257 0 299.564 10.5654 3165 107.43 462.941 369.224
1258 0 308.454 11.3534 3502 108.236 463.053 364.332
1259 0 315.67 10.9418 3454 109.759 462.721 360.43
1260 1 269.557 11.0997 2992 104.184 463.436 390.34
1261 0 278.44 11.8015 3286 102.553 463.071 385.38
1262 0 285.659 12.3644 3532 100.547 462.819 382.995
1263 0 292.578 12.3147 3603 101.526 463.041 374.601
1264 0 300.605 11.417 3432 104.34 462.986 373.018
1265 0 310.831 11.6848 3632 103.47 463.717 367.189
1266 0 319.989 14.1286 4521 96.5578 462.652 355.364
1267 1 93.1469 9.32935 869 81.2394 463.883 484.046
1268 0 95.2174 9.02146 859 81.7171 463.6 484.141
1269 0 98.1566 10.2387 1005 80.4667 463.061 480.597
1270 0 102.223 10.2032 1043 81.0134 463.367 480.045
1271 0 103.186 9.42954 973 82.6547 464.272 477.089
1272 0 107.209 10.2976 1104 80.9248 463.741 476.881
1273 0 112.204 11.4969 1290 78.7977 464.167 472.417
1274 0 111.13 10.2493 1139 82.7779 464.673 469.414
1275 0 117.488 12.6907 1491 75.436 464.821 457.797
1276 0 124.386 14.2219 1769 72.8739 464.827 466.309
1277 0 126.347 14.7451 1863 73.0317 464.66 463.352
1278 0 129.404 13.655 1767 77.6638 463.411 460.538
1279 0 133.352 14.0531 1874 77.7567 463.426 459.029
1280 0 136.405 14.3323 1955 77.5345 463.491 456.903
1281 0 139.548 14.375 2006 77.9168 463.123 453.846
1282 0 142.471 14.038 2000 77.488 463.902 452.526
1283 0 145.363 13.5935 1976 79.2657 464.018 452.419
1284 0 149.464 14.0502 2100 82.43 464.001 451.15
1285 0 154.526 15.5507 2403 78.8464 464.307 447.256
1286 0 159.467 15.326 2444 79.0556 464.197 445.849
1287 0 161.506 14.7363 2380 81.7345 463.981 444.404
1288 0 166.431 15.2375 2536 81.3659 463.87 443.112
1289 0 171.428 15.0383 2578 80.9449 463.671 442.847
1290 0 176.473 14.9541 2639 80.0746 463.806 437.695
1291 1 134.395 10.5138 1413 86.3199 464.29 466.292
1292 0 139.474 11.3928 1589 84.8118 464.7 460.367
1293 0 143.518 11.7825 1691 86.7315 464.436 454.605
1294 0 147.399 12.5645 1852 89.6447 464.556 448.751
1295 0 150.297 12.3023 1849 91.0638 464.536 446.06
1296 0 155.301 12.0927 1878 91.6384 464.757 444.101
1297 0 159.32 12.2521 1952 91.1865 463.741 441.074
1298 0 165.344 12.4044 2051 89.3008 465.006 440.412
1299 0 164.26 11.9992 1971 90.2288 465.2 438.526
1300 0 171.338 11.988 2054 87.8184 464.799 438.341
1301 0 177.314 12.1366 2152 87.7082 463.781 435.007
1302 0 179.303 12.2753 2201 88.652 464.601 428.446
1303 0 182.17 11.9998 2186 88.5389 464.403 425.058
1304 0 187.21 12.0773 2261 89 464.145 421.927
1305 0 194.205 11.8844 2308 89.2344 464.254 421.36
1306 0 199.144 12.7295 2535 87.6678 464.235 416.664
1307 1 148.168 11.406 1690 88.574 464.745 443.19
1308 0 152.121 12.0562 1834 88.9002 464.166 439.317
1309 0 160.128 12.4776 1998 87.1957 463.999 438.51
1310 0 158.187 11.5938 1834 91.0605 463.437 434.519
1311 0 164.159 12.0493 1978 90 463.742 432.921
1312 0 169.152 12.2316 2069 89.3084 463.419 432.192
1313 0 175.14 12.333 2160 89.0963 463.509 427.062
1314 0 180.207 11.903 2145 90.1576 463.5 425.428
1315 0 184.28 11.6507 2147 91.1337 463.268 423.178
1316 0 191.198 12.0869 2311 90.3116 462.948 418.518
1317 0 198.149 12.4402 2465 89.8673 462.856 414.085
1318 0 204.181 12.8072 2615 89.1866 463.004 413.365
1319 0 207.238 12.0296 2493 90.9342 463.096 408.702
1320 0 214.243 12.2011 2614 89.8688 463.528 406.373
1321 0 220.237 12.591 2773 88.7577 463.278 403.02
1322 0 228.155 12.4827 2848 88.1991 463.276 402.306
1323 0 235.259 12.8114 3014 88.856 463.296 397.045
1324 0 240.278 12.8726 3093 88.2069 464.72 393.255
1325 0 247.25 13.1487 3251 87.8376 463.518 389.616
1326 1 194.279 12.3276 2395 88.8125 463.849 415.739
1327 0 201.273 12.5749 2531 88.2944 465.359 415.393
1328 0 210.205 12.5449 2637 90.0042 463.751 417.556
1329 0 216.224 12.4824 2699 89.6936 462.327 418.843
1330 0 220.307 11.947 2632 93.0255 463.057 408.536
1331 0 228.284 12.5983 2876 90.4103 463.487 406.291
1332 0 234.297 12.6421 2962 92.4838 462.958 395.402
1333 0 241.276 12.8857 3109 92.7179 463.455 392.874
1334 0 247.247 12.7524 3153 94.8735 463.37 391.993
1335 0 255.263 12.822 3273 95.1818 463.024 389.892
1336 0 265.371 12.7859 3393 95.2874 462.411 380.337
1337 1 62.116 8.51632 529 71.9149 463.563 485.535
1338 0 70.1835 10.7575 755 76.4874 461.977 491.744
1339 0 73.0473 11.3214 827 75.6215 464.277 495.799
1340 0 72.1778 10.1416 732 72.1257 462.552 495.21
1341 0 75.0261 10.1964 765 72.4797 461.58 493.358
1342 0 76.0142 10.7743 819 73.3333 462.503 493.332
1343 0 79.0523 11.1951 885 72.522 462.739 492.599
1344 0 81.0679 11.8543 961 72.2175 462.271 492.148
1345 0 84.1698 10.5263 886 85.7799 462.041 489.668
1346 0 86.1076 11.4392 985 83.0579 462.048 489
1347 0 88.0906 11.8514 1044 83.3056 461.802 486.959
1348 0 88.0946 11.6693 1028 85.0681 461.41 485.753
1349 0 96.1422 16.1532 1553 70.5299 461.896 470.48
1350 0 100.038 14.7944 1480 75.4993 462.346 476.407
1351 0 98.294 11.3944 1120 86.8464 462.083 480.485
1352 0 101.26 12.0186 1217 86.3763 462.742 480.164
1353 0 98.1993 10.7944 1060 86.0821 461.795 482.258
1354 0 100.181 11.0999 1112 86.1412 461.625 481.274
1355 0 103.238 10.5388 1088 87.7491 461.571 477.966
1356 1 55.2918 9.27805 513 84.1111 462.285 492.505
1357 0 55.1597 9.7535 538 83.5409 462.504 491.892
1358 0 63.19 11.3942 720 87.1056 462.382 500.565
1359 0 66.1913 11.2553 745 87.8765 462.142 499.007
1360 0 65.1442 12.0195 783 86.9706 462.249 499.037
1361 0 68.2123 12.3585 843 86.503 462.062 499.839
1362 0 69.1258 11.6599 806 88.361 461.454 498.53
1363 0 70.1303 12.4197 871 87.4696 461.676 497.09
1364 0 73.0293 12.3101 899 86.8587 461.554 496.206
1365 0 74.0787 12.1357 899 88.6785 461.492 496.362
1366 0 75.0358 12.6206 947 87.9271 460.601 496.497
1367 0 79.0978 13.3 1052 86.9278 460.712 494.719
1368 0 79.0985 12.4023 981 89.8063 460.917 494.436
1369 0 82.1793 12.923 1062 88.2439 460.732 493.236
1370 0 84.1451 13.4767 1134 87.082 460.963 491.292
1371 0 85.1104 13.2416 1127 88.9272 460.54 491.305
1372 0 87.1826 12.6975 1107 90.3089 461.639 488.893
1373 0 89.207 12.499 1115 91.3856 461.961 487.913
1374 0 92.0996 13.442 1238 89.7351 461.56 487.644
1375 0 92.1268 13.2426 1220 91.373 461.44 485.163
1376 0 96.2331 13.3634 1286 90.6159 461.442 482.668
1377 0 98.1473 13.0416 1280 86.3461 461.85 481.189
1378 0 100.174 13.4566 1348 87.6543 461.479 480.735
1379 0 99.1594 13.1304 1302 88.4969 461.754 479.774
1380 0 97.0965 12.6472 1228 90.7492 461.273 483.744
1381 0 100.201 12.3153 1234 93.8233 461.062 484.217
1382 0 99.1039 12.4516 1234 94.6564 461.033 484.104
1383 0 100.125 12.0549 1207 94.8144 461.136 483.464
1384 0 106.147 13.3212 1414 88.8678 461.116 480.386
1385 0 109.096 13.6577 1490 86.094 461.55 477.741
1386 0 109.106 12.4649 1360 87.8559 461.521 482.734
1387 0 111.153 12.2354 1360 86.5765 461.394 482.301
1388 0 116.18 13.0659 1518 83.9177 461.669 479.233
1389 0 116.18 13.152 1528 167.419 461.677 479.245
1390 0 122.212 12.9938 1588 82.5756 460.264 475.326
1391 0 124.163 12.8863 1600 82.7094 460.772 474.27
1392 0 128.097 12.7247 1630 83.6982 460.623 470.048
1393 0 130.137 12.9556 1686 84.0492 461.209 466.652
1394 0 133.17 13.1336 1749 85.1978 460.974 464.69
1395 0 136.134 13.1415 1789 85.4824 461.731 463.576
1396 0 138.258 12.3465 1707 88.6714 461.607 457.729
1397 0 142.245 12.7948 1820 88.7374 461.494 457.531
1398 0 145.109 12.4596 1808 90.781 461.74 454.9
1399 0 149.188 12.6954 1894 91.5818 461.542 453.505
1400 0 152.245 12.7295 1938 93.6398 461.544 449.689
1401 0 156.196 12.8941 2014 94.7031 460.939 447.615
1402 0 161.128 13.1138 2113 95.2778 460.972 445.757
1403 0 164.198 12.6615 2079 97.3362 461.084 445.912
1404 0 169.149 13.0713 2211 97.0072 461.356 443.516
1405 0 171.155 12.6494 2165 98.5977 461.118 440.274
1406 0 175.164 12.9935 2276 99.696 461.526 439.12
1407 0 181.202 12.9469 2346 100.222 462.216 436.283
1408 0 186.166 12.548 2336 100.976 461.795 433.139
1409 0 192.166 13.327 2561 98.3588 462.334 431.157
1410 0 196.264 12.8959 2531 99.9008 462.182 429.09
1411 0 202.24 13.2614 2682 98.3684 461.136 425.075
1412 0 208.184 13.1422 2736 98.371 461.342 423.111
1413 1 47.0091 8.59408 404 81.2178 462.748 508.458
1414 0 50.0603 9.60841 481 80.6071 462.432 508.699
1415 0 54.0569 11.5434 624 78.8125 462.481 507.42
1416 0 52.011 10.767 560 78.5107 461.918 507.745
1417 0 55.1093 10.1616 560 80.2536 463.011 507.277
1418 0 56.0571 10.2574 575 80.0244 462.388 507.713
1419 0 56.0457 10.7591 603 80.4992 462.168 505.76
1420 0 57.087 9.14393 522 83.5632 462.069 504.464
1421 0 60.0677 9.48929 570 82.9614 462.116 504.842
1422 0 60.0953 8.85261 532 84.8327 462.562 504.342
1423 0 63.1069 10.4268 658 83.1125 462.225 501.337
1424 0 67.0305 9.92086 665 84.2271 461.78 502.424
1425 0 69.0555 11.107 767 82.854 461.864 500.728
1426 0 71.1073 10.3084 733 84.6535 461.703 500.584
1427 0 72.082 9.90538 714 86.7885 461.636 500.021
1428 0 76.2288 10.5078 801 86.7665 462.378 496.541
1429 0 77.0923 10.6625 822 87.9343 462.482 496.173
1430 0 81.1159 11.3295 919 89.0174 462.399 492.646
1431 0 84.0552 11.3616 955 90.5717 463.119 493.336
1432 0 87.0428 10.9946 957 93.5005 462.935 490.802
1433 0 92.1459 10.8198 997 93.4744 461.687 488.744
1434 1 52.0418 10.1265 527 86.4402 462.839 508.368
1435 0 54.0682 9.8949 535 86.1495 462.394 506.875
1436 0 54.0469 10.4909 567 86.6984 461.695 501.714
1437 0 58.1861 10.5867 616 84.3685 461.862 503.513
1438 0 61.1137 11.0941 678 86.208 462.755 502.779
1439 0 61.1483 11.3167 692 86.4032 462.736 502.215
1440 0 63.09 11.2221 708 87.3941 462.881 501.777
1441 0 63.0758 11.2722 711 89.4205 463.443 499.505
1442 0 66.0295 11.1162 734 90.0763 462.954 498.094
1443 0 69.0315 12.4581 860 86.0709 463.813 498.695
1444 0 70.0167 11.6115 813 88.9422 463.461 497.24
1445 0 71.052 11.8505 842 88.7363 463.046 496.994
1446 0 74.1016 11.9161 883 90.8086 462.844 495.75
1447 0 75.0586 11.8174 887 92.2954 463.284 494.14
1448 0 78.0573 12.8367 1002 90.3403 463.512 493.333
1449 0 80.0879 13.0607 1046 91.3107 462.777 493.745
1450 0 80.0222 12.9464 1036 93.1004 463.318 492.907
1451 0 82.1225 12.8101 1052 94.3831 462.915 491.564
1452 0 83.1713 12.324 1025 96.2654 462.354 489.38
1453 0 88.1618 12.6812 1118 95.1646 462.808 488.153
1454 0 89.2721 12.109 1081 97.9778 463.737 487.265
1455 0 92.1549 12.5441 1156 97.2491 462.745 487.156
1456 0 93.149 12.9363 1205 97.7602 461.763 483.521
1457 0 96.118 12.6927 1220 98.4697 462.582 485.624
1458 0 100.13 13.1429 1316 96.9065 463.272 482.642
1459 0 103.088 13.0277 1343 97.7357 463.168 482.371
1460 0 107.155 12.9439 1387 96.964 462.593 481.02
1461 0 109.172 13.2818 1450 97.6069 462.908 477.445
1462 0 111.14 11.9758 1331 100.836 462.733 477.168
1463 0 115.212 12.4206 1431 99.7589 462.871 474.027
1464 0 117.101 13.0486 1528 98.5936 462.997 473.587
1465 0 119.11 12.7194 1515 99.1307 462.965 472.391
1466 0 122.191 12.3086 1504 100.236 463.227 468.99
1467 0 127.101 13.1235 1668 97.214 462.343 468.659
1468 0 131.124 13.2012 1731 96.0485 462.153 467.659
1469 0 135.168 13.5387 1830 95.4825 462.493 463.795
1470 0 138.199 12.6773 1752 97.5491 462.768 460.841
1471 0 143.247 12.7891 1832 96.6692 462.407 459.119
1472 0 148.263 12.9432 1919 95.9369 462.423 454.51
1473 0 153.217 13.1513 2015 95.473 462.683 449.845
1474 0 159.351 14.3269 2283 91.83 462.88 450.313
1475 0 164.34 13.6789 2248 93.4524 462.906 444.299
1476 0 169.301 14.1051 2388 92.1516 463.346 441.969
1477 0 174.286 13.4836 2350 94.2817 462.633 439.04
1478 0 180.32 14.4244 2601 90.7985 462.511 437.82
1479 0 186.283 14.0968 2626 91.8572 462.107 433.085
1480 0 190.467 14.0865 2683 92.0786 461.583 428.663
1481 1 105.14 11.3657 1195 85.5113 462.221 476.069
1482 0 109.29 12.0871 1321 85.7502 461.458 474.022
1483 0 113.123 12.3317 1395 90.1871 461.619 474.363
1484 0 115.23 12.6617 1459 89.926 461.51 470.321
1485 0 120.144 12.4684 1498 89.9179 461.308 466.826
1486 0 123.228 12.3348 1520 91.2303 461.324 463.139
1487 0 125.26 12.2225 1531 91.4219 461.924 462.524
1488 0 130.313 12.5927 1641 90.6697 461.654 462.441
1489 0 134.135 12.4203 1666 91.6008 461.984 458.421
1490 0 139.173 12.8832 1793 91.5672 461.598 457.693
1491 0 144.169 12.3119 1775 93.1825 462.057 453.912
1492 0 149.187 12.7625 1904 93.48 461.63 450.954
1493 1 87.1846 11.642 1015 85.4956 461.568 483.827
1494 0 90.1849 11.6871 1054 86.0446 461.422 481.676
1495 0 93.0791 12.4195 1156 87.9542 462.075 485.603
1496 0 97.1145 12.892 1252 86.75 462.249 484.122
1497 0 101.13 12.7955 1294 87.5394 462.972 483.065
1498 0 100.114 10.9974 1101 93.1226 463.065 475.535
1499 0 103.133 10.9761 1132 92.9435 462.803 473.064
1500 0 111.152 12.7033 1412 88.7224 462.52 475.85
1501 0 113.124 12.8178 1450 89.04 463.158 472.421
1502 0 115.101 12.6236 1453 90.1583 463.652 471.205
1503 0 122.115 12.2917 1501 89.5416 463.326 470.197
1504 0 124.213 11.6332 1445 91.5038 463.333 467.871
1505 0 129.22 12.0337 1555 89.9955 463.447 465.3
1506 0 133.231 12.7598 1700 87.5806 463.165 463.646
1507 0 137.142 12.4032 1701 88.6149 462.513 462.323
1508 1 76.0534 11.1764 850 84.5459 461.512 491.438
1509 0 79.0902 11.5691 915 88.812 461.769 491.082
1510 0 81.0691 12.0391 976 86.0932 462.132 488.982
1511 0 86.0703 11.8624 1021 89.4515 462.199 487.118
1512 0 89.059 12.1942 1086 87.4088 462.074 485.739
1513 0 90.092 12.1764 1097 88.8204 461.822 484.251
1514 0 94.0658 12.0554 1134 86.3801 462.549 483.491
1515 0 98.06 12.3802 1214 86.7512 463.279 483.186
1516 0 99.041 12.1061 1199 88.9875 463.996 481.659
1517 0 102.056 12.16 1241 89.7712 463.841 479.495
1518 0 106.081 12.6319 1340 89.4313 463.734 478.722
1519 0 108.091 12.5265 1354 89.7038 462.84 478.005
1520 0 110.043 12.5042 1376 91.5865 462.336 474.659
1521 0 113.092 12.7595 1443 91.6154 462.731 473.441
1522 0 116.1 12.6615 1470 92.5517 462.428 472.147
1523 0 120.12 12.604 1514 93.5192 462.536 471.725
1524 0 123.099 13.2576 1632 93.3254 463.684 470.667
1525 0 126.096 12.9267 1630 95.4178 463.466 468.201
1526 0 128.244 14.7844 1896 88.4304 462.675 467.056
1527 1 71.1395 12.3419 878 90.5068 462.614 495.339
1528 0 71.1381 12.3984 882 93.7744 462.602 494.797
1529 0 73.1277 13.4696 985 95.8985 462.368 493.695
1530 0 74.0764 13.5401 1003 96.3689 463.507 493.044
1531 0 78.0588 14.0023 1093 94.9058 463.591 491.462
1532 0 80.0469 13.9293 1115 95.4072 463.333 491.147
1533 0 80.0558 13.6905 1096 96.9909 462.662 491.131
1534 0 85.0749 14.1052 1200 94.9117 462.768 487.93
1535 0 85.0998 13.9601 1188 97.718 462.26 486.352
1536 0 87.0345 13.2706 1155 100.514 462.142 485.132
1537 0 89.0875 13.7954 1229 98.9862 462.575 483.461
1538 0 93.0804 14.1061 1313 98.1097 462.044 482.638
1539 0 95.0843 13.9876 1330 99.1902 462.774 480.077
1540 0 96.0824 14.0817 1353 98.5322 462.31 477.785
1541 0 98.0574 13.6553 1339 99.1426 463.069 476.83
1542 0 102.172 13.3598 1365 99.8791 462.571 476.933
1543 0 106.132 14.7929 1570 94.9962 463.396 472.427
1544 0 108.125 14.8347 1604 96.154 462.489 466.874
1545 0 111.053 14.7587 1639 96.0812 462.403 466.438
1546 0 112.084 12.5977 1412 99.8336 462.272 468.472
1547 0 119.121 13.2807 1582 96.9058 462.129 465.793
1548 0 123.118 13.0362 1605 98.1975 462.496 462.588
1549 0 124.117 13.0119 1615 98.7077 461.708 455.52
1550 0 129.192 13.2438 1711 96.9445 461.989 453.792
1551 0 133.097 13.2084 1758 98.6792 461.885 452.511
1552 1 74.053 11.4242 846 95.8605 461.813 481.875
1553 0 78.0642 12.7715 997 92.9137 462.266 481.496
1554 0 79.0759 13.114 1037 92.8621 462.675 478.211
1555 0 87.0573 15.0705 1312 89.2713 462.518 483.143
1556 0 86.0996 13.7167 1181 92.547 462.79 484.213
1557 0 89.0908 13.5929 1211 92.7572 462.885 483.593
1558 0 91.0803 13.7132 1249 92.6773 463.111 481.636
1559 0 93.077 14.1711 1319 92.5262 463.051 478.242
1560 0 96.1032 13.2254 1271 94.5342 462.747 477.737
1561 0 99.1118 13.2779 1316 93.0524 462.552 471.656
1562 0 99.1219 12.984 1287 93.798 462.8 468.233
1563 0 102.075 13.4803 1376 92.774 463.046 466.914
1564 0 105.071 13.3529 1403 92.3443 462.717 464.392
1565 0 106.037 12.7502 1352 93.4786 463.001 462.254
1566 0 111.156 13.1797 1465 91.744 462.516 460.146
1567 0 115.153 13.2693 1528 91.5399 462.668 457.76
1568 0 118.133 12.706 1501 93.3664 463.11 455.262
1569 0 126.056 13.494 1701 93.3275 462.862 460.153
1570 0 134.139 13.8141 1853 92.4468 461.79 459.12
1571 0 138.059 13.0524 1802 94.4057 461.98 457.275
1572 0 143.178 13.822 1979 93.6908 462.445 456.204
1573 1 79.034 11.1598 882 92.2188 463.295 487.864
1574 0 81.0297 11.107 900 90.7256 463.028 485.849
1575 0 83.0743 11.3754 945 87.7037 462.048 477.799
1576 0 89.0729 12.5964 1122 89.8289 462.062 481.008
1577 0 91.1028 12.9524 1180 89.2161 461.569 479.992
1578 0 94.0826 12.7654 1201 90.1482 462.522 479.619
1579 0 96.1356 12.2639 1179 92.4716 462.257 477.098
1580 0 101.171 12.9978 1315 91.3772 461.853 475.586
1581 0 103.098 13.0749 1348 94.7344 462.53 473.165
1582 0 107.173 13.7068 1469 91.7788 462.266 472.651
1583 0 108.171 13.0164 1408 94.5447 462.512 470.556
1584 0 114.219 13.693 1564 92.8497 462.28 468.607
1585 0 117.21 13.3947 1570 93.9707 462.146 466.137
1586 0 119.274 13.0959 1562 95.902 462.142 462.328
1587 0 123.152 13.6498 1681 95.8269 462.695 459.391
1588 0 127.165 13.8639 1763 94.7629 463.571 459.752
1589 0 132.238 13.3925 1771 95.6369 462.777 458.056
1590 0 137.174 13.5229 1855 96.0404 463.009 455.669
1591 0 142.346 14.1978 2021 94.4453 463.073 453.24
1592 0 145.19 13.5478 1967 96.8358 462.347 449.296
1593 0 148.166 13.4916 1999 97.7234 461.929 447.686
1594 0 152.255 13.3855 2038 99.4195 462.239 447.735
1595 0 157.165 13.3554 2099 99.5222 461.998 443.821
1596 0 162.136 13.7724 2233 98.4107 462.123 442.253
1597 0 168.224 13.5355 2277 101.47 461.401 437.755
1598 0 174.286 13.9827 2437 100.853 461.227 434.754
1599 0 179.261 14.1247 2532 101.299 461.993 432.94
1600 0 181.295 13.6076 2467 104.183 462.204 430.923
1601 0 186.296 14.0797 2623 105.099 461.764 423.876
1602 0 193.265 14.5448 2811 103.838 462.077 421.912
1603 0 199.306 14.2796 2846 103.22 461.988 421.924
1604 0 203.369 13.714 2789 105.556 461.175 418.58
1605 0 212.363 14.6023 3101 102.399 461.381 416.357
1606 0 217.332 13.9464 3031 104.181 461.243 411.752
1607 0 224.214 14.1116 3164 103.422 461.37 411.332
1608 0 230.208 13.9526 3212 103.905 461.633 407.97
1609 0 238.294 14.1967 3383 103.842 461.859 402.572
1610 0 246.426 14.0002 3450 105.403 461.525 395.923
1611 1 51.0815 11.2957 577 95.2184 461.704 497.317
1612 0 50.18 11.1399 559 97.5349 461.41 494.361
1613 0 54.1498 11.9483 647 96.3199 461.334 492.808
1614 0 56.1844 11.4267 642 97.3801 461.808 494
1615 0 56.135 11.3476 637 97.5212 461.082 493.237
1616 0 59.1728 11.6777 691 97.9146 461.825 493.566
1617 0 61.2542 11.9012 729 97.8724 461.551 492.527
1618 0 61.1766 11.7692 720 100.753 461.762 489.374
1619 0 61.2232 11.9236 730 101.293 461.911 488.247
1620 0 65.1773 11.5838 755 101.136 462.07 485.362
1621 0 64.1498 12.7982 821 99.6663 461.722 485.231
1622 0 72.1465 13.334 962 95.3857 461.831 482.06
1623 0 78.1936 14.8989 1165 87.7931 461.648 478.305
1624 0 84.3098 15.1465 1277 84.2193 461.081 477.598
1625 0 79.1918 14.7616 1169 90.2181 461.369 477.962
1626 0 82.1878 15.3794 1264 88.212 461.761 476.05
1627 0 83.1462 12.9411 1076 96.1561 461.927 476.993
1628 0 93.2335 15.5095 1446 84.4454 461.954 470.249
1629 0 94.2294 15.77 1486 86.2564 461.888 469.363
1630 0 93.2468 13.7592 1283 94.5433 461.825 471.972
1631 0 92.2454 12.2066 1126 100.93 461.64 473.369
1632 0 98.2731 14.9787 1472 90.3084 460.804 471.257
1633 0 101.379 15.1806 1539 93.2658 460.755 467.994
1634 1 61.1769 11.573 708 92.411 460.53 490.979
1635 0 62.2789 12.2835 765 95.515 460.748 491.03
1636 0 64.173 12.1391 779 90.6431 460.389 492.318
1637 0 66.2393 11.9717 793 90.8626 461.169 491.74
1638 0 68.2032 11.9936 818 91.522 462.142 491.989
1639 0 69.1908 12.5017 865 91.5295 461.029 491.446
1640 0 69.1754 12.7068 879 92.3766 461.881 489.438
1641 0 71.235 12.3816 882 93.4773 461.696 488.633
1642 0 72.2045 12.5892 909 93.4852 461.013 487.881
1643 0 73.1472 12.6321 924 93.5963 461.136 487.609
1644 0 77.3287 13.4232 1038 90.9509 461.799 487.158
1645 0 77.2562 12.698 981 93.4964 461.924 486.971
1646 0 78.1285 12.8506 1004 94.1683 462.308 484.662
1647 0 81.1611 13.7135 1113 92.9524 462.234 481.87
1648 0 83.2202 13.3381 1110 94.527 462.697 481.542
1649 0 84.1261 12.8616 1082 96.4945 462.786 482.426
1650 0 86.1985 13.1441 1133 96.6805 462.347 480.053
1651 0 88.1214 13.0388 1149 97.0592 461.493 479.049
1652 0 91.1724 13.1728 1201 97.1499 461.691 476.142
1653 0 95.2036 12.9932 1237 98.2466 461.556 473.74
1654 0 97.1371 13.4449 1306 96.3461 462.027 471.987
1655 0 102.2 13.2876 1358 95.9904 461.666 470.873
1656 0 103.173 13.7148 1415 96.3484 461.007 470.006
1657 0 106.117 13.7678 1461 96.4736 461.704 468.485
1658 0 108.287 13.6489 1478 98.0244 461.582 466.087
1659 0 113.175 13.678 1548 97.8495 462.158 466.935
1660 0 115.103 13.8832 1598 97.2265 462.322 463.298
1661 0 119.083 13.31 1585 97.0984 461.629 461.411
1662 1 66.0721 11.7447 776 95.5361 461.943 485.982
1663 0 69.1109 12.1399 839 93.7771 461.834 486.833
1664 0 70.099 12.4538 873 94.5304 462.05 484.956
1665 0 70.0373 12.8646 901 93.8313 462.203 487.23
1666 0 75.1159 12.301 924 93.5801 462.223 486.776
1667 0 74.0884 12.836 951 93.7476 462.129 483.843
1668 0 75.0879 13.0114 977 93.2149 462.323 480.946
1669 0 80.0626 13.1522 1053 92.5005 462.217 478.944
1670 0 81.1537 13.0247 1057 93.6764 462.741 478.645
1671 0 83.1515 13.289 1105 92.705 462.689 477.138
1672 0 84.08 13.4991 1135 93.7894 462.182 474.338
1673 0 87.1247 13.1995 1150 93.6591 462.56 473.297
1674 0 92.1028 13.1483 1211 93.1792 461.675 472.37
1675 0 94.1709 13.8472 1304 91.2515 461.769 471.025
1676 0 98.0955 13.3747 1312 91.8521 461.69 470.462
1677 0 100.088 13.648 1366 91.59 462.053 468.919
1678 0 101.172 13.1459 1330 92.3188 462.661 467.102
1679 0 105.178 13.5295 1423 91.3865 462.205 465.216
1680 0 108.101 13.7093 1482 90.2794 461.7 462.911
1681 0 111.115 13.6975 1522 89.4231 461.836 460.501
1682 0 114.08 13.85 1580 88.188 461.273 458.641
1683 0 119.149 13.9321 1660 87.053 461.992 455.447
1684 0 122.082 13.5646 1656 88.0042 462.507 454.836
1685 0 125.096 13.7575 1721 87.71 462.049 453.522
1686 0 130.145 14.2764 1858 85.2029 461.913 452.228
1687 0 134.191 13.3317 1789 87.1168 462.432 450.099
1688 0 139.129 13.8145 1922 85.872 462.59 449.594
1689 0 143.202 13.5194 1936 86.3926 462.514 448.72
1690 0 146.2 13.7277 2007 86.0598 462.294 446.995
1691 0 151.18 13.7188 2074 85.742 462.047 444.307
1692 0 157.15 14.3111 2249 84.1841 462.681 441.919
1693 0 161.139 14.3417 2311 84.2999 463.292 440.474
1694 0 168.267 15.0356 2530 82.2901 462.54 437.115
1695 0 172.166 14.3408 2469 84.0158 462.379 436.511
1696 0 174.315 14.0951 2457 85.4912 462.792 432.665
1697 0 181.318 14.2292 2580 85.1306 463.381 429.225
1698 0 184.238 13.9928 2578 85.3937 463.06 425.773
1699 0 193.249 14.4115 2785 84.2513 463.202 425.312
1700 0 200.294 14.3888 2882 83.7065 463.085 422.724
1701 0 208.344 15.2296 3173 81.6366 462.756 414.787
1702 0 217.424 15.1869 3302 82.0279 463.182 415.17
1703 1 228.395 16.6247 3797 79.0158 463.491 402.978
1704 1 166.269 13.5263 2249 85.5825 462.775 441.801
1705 0 171.224 13.2867 2275 87.0532 462.8 440.469
1706 0 174.338 12.7454 2222 89.5914 463.382 436.801
1707 0 181.321 12.8887 2337 89.3226 462.611 435.417
1708 0 189.311 13.1424 2488 88.0426 462.443 430.014
1709 0 195.301 13.3179 2601 88.8731 462.006 425.875
1710 0 204.438 13.7205 2805 87.7476 462.2 424.044
1711 0 209.318 13.5965 2846 88.1616 462.492 420.482
1712 1 61.1044 9.6065 587 76.5298 462.634 493.797
1713 0 65.1891 11.7351 765 76.4288 462.284 496.412
1714 0 69.07 12.234 845 80.5373 463.408 496.756
1715 0 70.0466 12.6344 885 80.1085 462.953 494.844
1716 0 70.0466 12.6773 888 146.054 461.934 494.795
1717 0 73.0879 12.6697 926 80.2797 462.284 493.132
1718 0 74.0798 12.3516 915 80.8044 462.2 492.936
1719 0 78.1991 12.3403 965 80.7212 462.194 491.566
1720 0 78.1179 12.0459 941 81.8172 461.62 490.604
1721 0 81.3238 12.481 1015 80.8966 462.135 489.209
1722 0 83.1745 12.4678 1037 80.8833 461.393 486.769
1723 0 84.2106 13.1337 1106 80.4801 461.879 485.445
1724 0 86.2335 12.1067 1044 82.7519 462.239 483.618
1725 0 91.3069 12.6496 1155 80.2173 462.403 482.271
1726 0 91.1576 12.4619 1136 81.2333 461.496 478.908
1727 0 96.2787 12.2041 1175 80.9106 460.852 477.677
1728 0 96.1369 11.7229 1127 83.15 461.669 476.83
1729 0 99.2148 12.0647 1197 83.02 461.928 472.782
1730 0 102.261 11.5783 1184 84.1841 461.959 469.7
1731 0 104.153 11.8575 1235 84.3287 461.556 468.061
1732 0 109.154 12.7343 1390 82.2374 461.654 467.001
1733 0 109.14 12.0671 1317 84.5885 462.25 463.061
1734 1 130.196 16.3446 2128 68.7613 462.311 448.994
1735 0 134.32 17.3467 2330 68.2013 462.162 448.836
1736 0 131.233 15.8649 2082 74.4923 461.921 449.635
1737 0 129.149 15.1221 1953 77.8356 463.149 447.005
1738 0 123.388 11.3382 1399 88.4353 462.6 451.734
1739 1 67.1281 9.65318 648 86.6991 462.475 480.724
1740 0 68.1146 10.7613 733 84.7858 461.385 481.383
1741 0 75.0381 10.1682 763 85.3919 463.891 481.893
1742 0 78.0211 9.98448 779 85.3748 462.992 480.516
1743 0 85.0261 11.3259 963 83.9211 463.765 484.053
1744 0 88.1106 11.1451 982 84.1212 463.467 482.763
1745 0 91.0999 12.0198 1095 81.9096 463.745 481.827
1746 0 94.0827 12.3508 1162 81.5852 463.252 479.035
1747 0 98.109 11.9867 1176 82.0204 463.429 478.886
1748 0 99.138 12.064 1196 82.6656 463.555 476.452
1749 0 99.1963 10.9782 1089 83.6162 463.943 479.229
1750 0 103.219 10.9573 1131 85.1892 463.072 475.395
1751 0 103.416 10.2499 1060 86.3528 462.209 471.628
1752 0 108.267 10.391 1125 86.3396 462.231 467.388
1753 0 109.292 9.95494 1088 86.1654 462.598 466.589
1754 0 112.253 10.2269 1148 86.4538 462.05 464.246
1755 0 112.235 10.0236 1125 88.6373 462.444 456.463
1756 0 120.314 10.9879 1322 85.7519 462.517 461.642
1757 0 126.411 10.893 1377 85.3718 463.517 461.475
1758 0 128.381 11.0997 1425 87.0547 463.065 456.684
1759 0 132.357 11.1819 1480 86.7318 462.864 455.664
1760 0 137.439 11.3432 1559 86.0423 463.014 457.171
1761 0 143.387 11.3121 1622 87.0462 463.309 452.986
1762 0 149.482 12.7373 1904 85.0294 462.944 451.654
1763 1 86.4032 10.8561 938 83.0394 462.565 481.485
1764 0 87.2659 11.1269 971 85.9052 462.265 482.187
1765 0 91.3156 12.3966 1132 82.0998 462.884 477.268
1766 0 94.1393 12.2478 1153 81.1882 463.428 481.514
1767 0 94.0974 11.4881 1081 83.8649 463.449 479.124
1768 0 100.098 11.9083 1192 82.7248 463.026 477.793
1769 0 102.099 12.7719 1304 81.2485 463.086 475.97
1770 0 105.116 12.1485 1277 83.3594 462.989 474.283
1771 0 109.162 12.257 1338 82.3543 462.646 472.127
1772 0 111.139 12.1649 1352 83.1087 462.491 471.805
1773 0 116.249 11.8624 1379 82.9239 462.751 467.988
1774 0 118.22 12.4175 1468 83.0354 462.655 466.888
1775 0 121.172 12.5029 1515 84.0112 462.395 464.954
1776 0 126.359 12.8839 1628 82.734 462.263 466.512
1777 0 127.288 12.5699 1600 83.7994 462.15 463.506
1778 0 132.229 12.5161 1655 84.8471 462.332 458.417
1779 0 136.165 12.3233 1678 85.2324 462.046 455.786
1780 0 142.145 12.6491 1798 83.5161 462.125 455.094
1781 0 146.35 12.3335 1805 84.4249 461.801 449.52
1782 0 151.214 12.975 1962 83.3665 462.056 448.359
1783 0 156.219 13.1994 2062 83.2541 462.281 446.584
1784 0 161.337 13.3199 2149 83.2154 462.054 443.109
1785 0 165.383 13.0061 2151 83.6197 462.562 441.12
1786 0 173.4 14.2791 2476 80.1393 462.236 441.231
1787 1 98.1677 11.4192 1121 78.4514 462.351 480.134
1788 0 103.171 12.0674 1245 74.7213 462.965 477.337
1789 0 105.065 12.5732 1321 78.863 462.66 474.97
1790 0 109.215 11.7566 1284 80.5101 461.886 472.852
1791 0 111.277 12.1139 1348 80.5415 461.124 472.076
1792 0 110.309 11.4406 1262 81.9065 461.894 473.001
1793 0 118.231 11.4437 1353 82.5307 461.526 468.477
1794 0 121.367 11.9637 1452 81.343 461.809 468.036
1795 0 124.312 11.8331 1471 82.777 462.003 464.577
1796 0 124.345 11.6209 1445 82.9446 462.096 465.947
1797 0 133.242 11.6705 1555 82.9814 462.301 461.592
1798 0 138.213 12.4446 1720 81.1523 462.246 461.101
1799 1 75.0941 10.8797 817 75.88 461.798 491.625
1800 0 77.2003 10.272 793 75.3934 461.744 486.783
1801 0 82.182 11.6205 955 73.2974 459.985 488.485
1802 0 83.1892 11.8405 985 74.8873 460.832 488.89
1803 0 86.113 12.5533 1081 73.7974 461.071 487.906
1804 0 88.0996 12.0772 1064 75.6908 461.588 485.227
1805 0 89.0998 11.8855 1059 76.796 461.602 484.602
1806 0 94.1029 12.5288 1179 76.307 461.291 483.672
1807 0 98.1052 12.507 1227 77.3879 462.005 482.942
1808 0 100.128 12.1644 1218 78.5443 462.258 481.533
1809 0 101.191 11.9082 1205 80.8149 461.901 478.944
1810 0 104.115 12.0443 1254 81.6659 461.366 477.693
1811 0 107.125 11.706 1254 82.6906 461.394 476.861
1812 0 111.12 11.8611 1318 83.5228 461.398 472.787
1813 0 114.116 12.4347 1419 82.0592 461.578 472.752
1814 0 117.156 12.0523 1412 82.9483 461.753 471.102
1815 0 120.213 11.6044 1395 85.172 461.628 466.637
1816 0 122.2 11.694 1429 86.9132 462.106 466.668
1817 0 126.238 12.0091 1516 86.9156 462.129 465.505
1818 0 131.23 12.3524 1621 85.8939 462.508 460.833
1819 0 133.359 12.89 1719 87.6539 462.531 456.607
1820 1 80.2068 10.5353 845 82.5763 462.615 487.515
1821 0 83.2582 11.3022 941 80.4857 463.613 484.942
1822 0 86.3244 12.1055 1045 78.7828 462.478 483.648
1823 0 89.3897 11.7128 1047 80.1423 462.379 483.107
1824 0 90.354 12.6724 1145 79.6515 461.969 481.074
1825 0 95.3459 12.4494 1187 80.7178 462.158 481.554
1826 0 97.3056 12.2295 1190 81.6143 462.09 480.611
1827 0 99.3954 12.2742 1220 82.1312 462.216 478.855
1828 0 103.291 12.1308 1253 90.9968 461.438 474.353
1829 0 104.428 12.2764 1282 91.6256 461.846 473.193
1830 0 108.276 11.9232 1291 93.8226 461.482 471.94
1831 0 112.253 12.7836 1435 91.9303 461.776 470.544
1832 0 114.277 12.4171 1419 93.5779 461.956 468.443
1833 0 118.357 12.2089 1445 93.6858 461.792 466.649
1834 0 123.407 12.4223 1533 92.4977 461.817 466.594
1835 0 124.504 12.4494 1550 93.6968 461.302 463.137
1836 0 129.38 12.243 1584 96.2677 461.931 463.721
1837 0 129.414 12.3403 1597 99.0081 461.559 458.55
1838 0 135.386 12.7488 1726 97.2103 461.835 456.671
1839 0 139.408 12.8902 1797 96.9432 461.997 455.089
1840 0 140.458 12.6159 1772 98.8234 461.569 450.824
1841 0 145.429 13.2367 1925 97.2883 461.586 449.858
1842 0 149.533 12.7263 1903 94.9937 462.102 447.99
1843 0 153.253 13.3309 2043 94.0808 462.231 445.088
1844 0 157.43 12.7993 2015 94.8953 461.856 442.927
1845 0 160.448 13.2193 2121 94.3395 461.418 442.241
1846 0 164.16 13.1579 2160 90.5861 461.92 439.664
1847 0 168.152 12.9942 2185 91.324 461.915 439.424
1848 0 173.113 13.2804 2299 90.9478 461.615 437.279
1849 0 178.217 12.8719 2294 92.4128 461.868 433.054
1850 0 183.133 13.2254 2422 92.6251 461.917 429.882
1851 0 187.201 13.6431 2554 91.1801 462.402 426.986
1852 0 190.122 12.3342 2345 94.6759 462.165 419.252
1853 0 198.323 13.2763 2633 93.5507 461.89 419.306
1854 0 205.308 13.8962 2853 92.9162 463.04 417.285
1855 0 211.268 13.4285 2837 93.411 462.836 414.44
1856 0 216.371 12.9176 2795 95.0225 462.639 408.194
1857 0 224.281 13.1844 2957 93.7217 462.565 407.426
1858 0 228.234 12.7676 2914 94.4657 462.397 402.524
1859 0 238.236 12.6094 3004 94.3991 462.313 402.939
1860 0 247.299 12.8226 3171 93.1823 461.24 396.152
1861 0 254.484 12.4801 3176 93.9383 462.018 397.81
1862 0 263.443 13.0996 3451 92.6392 461.676 393.844
1863 0 273.408 12.7356 3482 93.2671 461.846 385.464
1864 0 283.459 13.6528 3870 91.0318 461.619 379.02
1865 0 292.395 13.28 3883 92.555 462.081 377.016
1866 1 225.313 12.4671 2809 94.172 462.468 404.896
1867 0 233.302 12.8803 3005 93.199 462.229 400.685
1868 0 242.458 13.7385 3331 91.3467 462.332 397.899
1869 0 250.324 13.8541 3468 91.7088 462.089 392.294
1870 0 258.321 14.1142 3646 90.9364 461.99 386.94
1871 0 265.4 12.9503 3437 94.3276 462.439 386.287
1872 0 271.351 12.4267 3372 95.8737 462.185 381.974
1873 1 208.223 11.5789 2411 92.6284 462.024 415.365
1874 0 215.297 11.6862 2516 92.0612 462.24 413.687
1875 0 222.364 12.7673 2839 91.1578 462.761 404.609
1876 0 230.29 12.7144 2928 91.7247 462.624 403.057
1877 0 235.357 12.3302 2902 93.3215 462.77 398.202
1878 0 240.313 12.3214 2961 94.4083 463.016 396.171
1879 0 249.383 12.3104 3070 94.2059 462.005 394.801
1880 0 260.296 12.8853 3354 94.1652 462.467 388.07
1881 0 268.302 12.8028 3435 95.4905 462.674 381.857
1882 0 276.506 12.8135 3543 96.5797 462.51 376.362
1883 0 287.675 13.331 3835 96.5072 462.174 373.233
1884 0 296.619 13.3336 3955 97.2311 462.954 369.533
1885 0 296.619 13.3741 3967 152.691 463.95 369.569
1886 0 377.092 22.944 8652 66.0332 462.607 321.314
1887 0 377.803 23.2502 8784 67.8693 462.48 320.258
1888 1 326.483 11.4187 3728 101.623 462.241 374.868
1889 0 343.405 15.9666 5483 94.8306 461.872 345.721
1890 0 355.412 16.8565 5991 92.8072 461.413 339.098
1891 0 365.469 16.1053 5886 96.3067 461.781 332.977
1892 0 374.523 15.4757 5796 100.443 461.13 331.355
1893 0 384.506 15.2091 5848 101.323 462.033 323.753
1894 0 396.557 15.9145 6311 101.104 461.818 314.103
1895 0 408.849 16.0671 6569 100.412 461.104 304.477
1896 0 420.675 15.6534 6585 102.836 460.808 297.863
1897 0 405.185 14.6723 5945 107.467 461.937 283.373
1898 1 205.134 10.3835 2130 98.6653 461.311 395.801
1899 0 213.212 11.716 2498 97.4388 461.171 403.873
1900 0 219.264 11.7347 2573 100.581 461.26 408.895
1901 0 228.264 10.8602 2479 98.9004 461.507 399.734
1902 0 235.343 14.4725 3406 86.9765 461.42 397.842
1903 0 242.197 14.7194 3565 87.5262 461.794 393.158
1904 0 250.391 15.324 3837 89.2075 461.598 392.359
1905 0 256.358 15.6383 4009 90.3218 461.417 386.336
1906 0 264.317 15.2695 4036 92.8377 462.054 383.931
1907 0 273.229 15.1667 4144 92.9464 461.06 377.787
1908 1 61.0271 7.68511 469 70.5011 461.424 497.812
1909 0 66.0417 9.97855 659 67.4901 461.794 496.287
1910 0 67.0201 10.3849 696 67.8534 462.138 495.71
1911 0 67.1005 10.0446 674 75.9436 463.043 496.596
1912 0 67.0234 10.5784 709 75.6968 463.103 496.207
1913 0 68.1003 10.558 719 77.5744 463.202 495.7
1914 0 69.0693 10.294 711 79.7806 463.75 495.456
1915 0 71.0203 11.025 783 79.3142 463.605 495.051
1916 0 71.0539 11.5968 824 79.0279 463.851 495.211
1917 0 71.0989 10.9284 777 83.6242 461.865 494.417
1918 0 71.0826 12.0423 856 81.5222 461.833 493.402
1919 0 73.0709 11.7968 862 82.8596 461.896 495.58
1920 0 72.059 11.1298 802 85.182 460.909 495.792
1921 0 69.125 10.3725 717 92.3822 461.954 496.718
1922 0 70.0553 10.4917 735 91.985 461.507 497.382
1923 0 72.0756 10.5029 757 92.1361 462.223 497.375
1924 0 72.0541 10.4644 754 92.1406 461.325 497.618
1925 0 73.1633 11.9732 876 85.7215 462.906 497.032
1926 0 72.0854 11.6112 837 88.1828 462.435 496.41
1927 0 73.1101 11.5989 848 89.2488 463.328 495.695
1928 0 75.1196 12.5001 939 86.8403 461.364 496.169
1929 0 73.1518 11.4556 838 90.7375 461.265 496.425
1930 0 74.0915 11.7557 871 89.6808 461.784 497.109
1931 0 72.0862 11.4585 826 92.8801 461.544 497.373
1932 0 72.0519 11.6305 838 91.9033 460.979 497.674
1933 0 74.1149 11.6171 861 91.4297 460.934 497.069
1934 0 74.039 10.8051 800 93.1375 461.168 496.435
1935 0 75.0898 11.1733 839 91.6508 461.642 497.197
1936 0 75.0345 12.0745 906 88.5828 461.858 495.747
1937 0 74.0709 11.0435 818 91.3912 461.653 496.253
1938 0 74.1368 11.5192 854 89.2365 462.492 497.03
1939 0 74.0394 10.9536 811 89.1726 462.255 497.672
1940 0 74.0958 11.2827 836 87.7835 462.432 497.452
1941 0 74.1636 10.4903 778 89.7108 462.292 496.168
1942 0 73.1394 10.5415 771 89.8833 462.165 497.383
1943 0 72.1471 10.4509 754 89.5902 462.549 497.064
1944 0 73.095 10.1922 745 89.1302 463.118 498.379
1945 0 74.0856 10.4609 775 87.3897 462.055 497.946
1946 0 72.0476 10.4792 755 87.8662 461.94 497.881
1947 0 73.1247 9.95559 728 87.022 462.506 498.57
1948 0 73.1282 9.92777 726 86.9972 463.077 497.697
1949 0 72.0706 9.17156 661 87.4418 462.841 497.853
1950 0 73.0842 9.82429 718 85.766 462.344 495.702
1951 0 73.025 9.66792 706 89.289 462.528 493.626
1952 0 71.0454 9.37429 666 86.5375 462.018 495.39
1953 0 71.0514 9.30312 661 85.9531 462.035 496.428
1954 0 71.0959 9.00193 640 84.2406 461.892 498.862
1955 0 72.0919 9.29369 670 83.1836 462.103 497.449
1956 0 72.1574 9.09124 656 82.8598 462.529 498.337
1957 0 69.0573 8.38434 579 83.5475 462.157 496.922
1958 0 72.1208 9.02652 651 81.6513 461.619 495.708
1959 0 70.0449 8.55166 599 81.8063 461.28 496.105
1960 0 70.0547 7.62262 534 82.2772 461.451 499.247
1961 0 72.0531 8.00799 577 80.8856 462.073 497.237
1962 0 70.067 8.5775 601 80.7072 462.007 496.368
1963 0 70.0272 7.43997 521 80.3877 462.234 498.489
1964 0 70.0393 7.8099 547 79.5704 461.729 497.245
1965 0 70.0571 8.75 613 78.075 462.007 495.478
1966 0 70.0831 7.74795 543 78.477 462.011 496.858
1967 0 70.1245 6.91627 485 78.4577 461.664 496.054
