time division length width area intensity CMx CMy
0 0 65.0655 15.615 1016 176.769 247.719 491.579
1 0 65.0713 15.9364 1037 160.285 248.836 490.662
2 0 67.0456 15.7206 1054 159.025 248.807 490.292
3 0 69.0629 16.2171 1120 153.997 248.331 490.349
4 0 70.0314 16.1356 1130 153.805 248.743 488.04
5 0 72.0545 16.2238 1169 149.381 248.802 488.334
6 0 73.0345 16.6086 1213 146.866 248.442 487.134
7 0 76.0235 16.1792 1230 144.655 249.228 487.442
8 0 79.0619 15.7092 1242 143.932 248.96 485.738
9 0 81.0647 16.7274 1356 137.746 248.857 484.758
10 0 84.0905 16.3871 1378 138.34 248.494 483.556
11 0 86.073 16.1723 1392 135.948 248.139 481.503
12 0 89.1244 16.3928 1461 133.409 249.083 481.322
13 0 91.1914 15.791 1440 134.14 248.597 479.173
14 0 96.0909 16.807 1615 127.518 248.289 477.438
15 0 99.1128 15.9414 1580 128.53 248 475.746
16 1 56.0465 13.9527 782 132.123 248.504 497.022
17 0 57.0517 14.1275 806 130.263 247.463 495.672
18 0 60.0698 15.2156 914 124.852 247.505 494.6
19 0 62.0183 15.5277 963 121.979 247.291 493.438
20 0 65.0467 15.1737 987 121.737 247.316 492.737
21 0 66.0863 15.2225 1006 122.289 246.727 491.004
22 0 70.1129 14.7334 1033 120.562 246.957 490.538
23 0 72.0885 15.4532 1114 117.822 247.171 488.663
24 0 73.0767 14.6695 1072 120.877 247.391 488.185
25 0 76.0481 15.3587 1168 118.055 248.063 486.37
26 0 78.0397 14.8899 1162 118.974 247.64 484.974
27 0 82.0355 15.0667 1236 116.332 247.208 483.674
28 0 84.0337 14.7917 1243 117.066 246.747 483.064
29 0 88.0818 15.2813 1346 114.267 246.134 480.889
30 0 91.0822 14.7779 1346 115.622 246.52 480.027
31 0 92.0659 14.6743 1351 116.288 247.468 477.567
32 0 97.0986 15.2319 1479 114.11 246.968 478.167
33 0 100.077 15.1883 1520 114.243 246.815 474.709
34 0 103.081 14.9494 1541 115.006 246.534 472.86
35 0 107.063 15.4021 1649 112.993 247.227 472.677
36 0 111.091 15.1768 1686 113.792 247.248 470.665
37 0 114.128 15.0883 1722 113.798 246.701 467.515
38 0 120.166 15.6034 1875 111.732 246.205 465.175
39 0 122.192 14.9437 1826 113.64 246.166 463.919
40 0 126.136 15.0868 1903 112.683 246.066 462.702
41 0 131.051 15.5969 2044 110.414 246.053 460.175
42 0 134.118 15.2776 2049 112.331 246.568 457.911
43 0 142.125 16.1267 2292 108.597 246.098 456.261
44 0 146.056 16.165 2361 108.318 246.082 452.611
45 0 152.086 15.8331 2408 110.028 245.918 450.558
46 0 156.124 15.6734 2447 111.205 246.061 449.082
47 0 161.083 15.1412 2439 112.382 246.244 445.439
48 0 169.116 15.6047 2639 109.199 246.299 442.154
49 0 175.193 16.0566 2813 107.83 245.226 440.317
50 0 180.125 15.1673 2732 111.138 245.178 435.204
51 1 95.0194 13.5972 1292 108.023 245.365 480.271
52 0 96.0844 13.9981 1345 107.989 245.56 477.126
53 0 102.063 14.1481 1444 106.136 245.701 475.925
54 0 105.056 14.0306 1474 105.518 245.586 474.463
55 0 109.081 13.5403 1477 106.301 246.33 472.175
56 0 113.07 13.5403 1531 104.408 246.266 467.815
57 0 117.161 12.7944 1499 103.658 245.921 466.568
58 0 123.085 13.381 1647 101.058 246.676 464.16
59 0 127.067 13.3394 1695 101.485 246.827 463.235
60 0 134.097 13.9078 1865 101.808 246.208 460.817
61 1 70.0388 12.6644 887 101.303 246.308 490.339
62 0 73.1401 12.7427 932 103.273 246.538 489.046
63 0 77.0336 13.0592 1006 100.961 246.524 487.792
64 0 80.104 13.6572 1094 99.0302 246.702 485.133
65 0 83.0504 13.3052 1105 97.6941 247.529 486.206
66 0 86.1146 13.5517 1167 97.0763 247.028 485.395
67 0 89.124 13.0941 1167 98.3085 246.793 483.174
68 0 92.1652 13.9315 1284 95.6332 246.276 481.303
69 0 93.1107 13.7149 1277 95.9319 246.348 478.818
70 0 97.0861 13.9567 1355 94.4074 246.134 478.115
71 0 99.1576 13.3928 1328 95.5595 245.994 476.608
72 0 103.299 13.0979 1353 95.0761 245.922 475.172
73 0 106.246 13.0735 1389 93.8431 246.205 472.272
74 0 109.243 12.6415 1381 94.0261 245.936 470.693
75 0 113.186 13.2084 1495 93.8174 246.393 467.782
76 0 118.403 13.5048 1599 91.9675 246.091 466.502
77 0 124.362 12.8897 1603 92.0362 246.334 464.53
78 1 68.1467 10.9323 745 88.702 246.749 492.591
79 0 71.1414 12.0745 859 85.1059 246.556 491.794
80 0 74.0579 12.1526 900 85.5189 246.813 490.37
81 0 77.0863 12.5314 966 84.7122 246.8 489.17
82 0 79.0748 12.8612 1017 85.2743 247.009 486.95
83 0 81.0866 12.4682 1011 86.7043 246.204 484.039
84 0 83.1214 12.199 1014 88.1499 246.774 484.058
85 0 86.0704 12.5363 1079 90.5134 246.589 482.606
86 0 90.1016 13.2073 1190 88.2756 246.888 480.939
87 0 90.1642 12.5771 1134 95.015 247.068 479.09
88 0 94.1103 12.3897 1166 93.9563 247.222 477.007
89 0 98.3573 12.2919 1209 93.7113 246.042 474.225
90 0 102.429 12.5941 1290 92.6581 247.567 472.6
91 0 104.392 12.9416 1351 91.4641 246.998 471.075
92 0 109.374 13.1475 1438 90.4812 246.889 468.898
93 0 111.151 12.3615 1374 92.4563 246.752 468.857
94 1 55.0417 11.1552 614 82.3876 246.989 497.63
95 0 58.0291 11.1323 646 81.6966 246.404 497.418
96 0 60.0389 11.2927 678 82.1165 246.147 495.397
97 0 62.0862 11.7095 727 78.1403 245.523 496.113
98 0 64.0801 11.8602 760 81.8711 245.355 493.725
99 0 65.1147 11.6871 761 83.2799 245.689 491.95
100 0 69.1035 10.969 758 84.8865 245.931 491.526
101 0 72.1362 11.9773 864 83.4745 246.409 489.819
102 0 74.124 11.7776 873 84.1249 245.974 487.433
103 0 78.1312 12.2742 959 82.5495 246.024 486.37
104 0 80.1147 12.2075 978 86.3732 245.646 484.6
105 0 81.0571 11.8435 960 87.9302 246.18 483.883
106 0 83.0792 12.0849 1004 88.1265 246.493 483.985
107 0 86.1063 11.8574 1021 88.6856 246.349 481.032
108 0 91.1327 12.8713 1173 85.7272 245.966 480.003
109 0 94.0814 12.8825 1212 84.7005 245.054 479.406
110 0 94.1304 12.2808 1156 86.0216 246.231 477.492
111 0 99.1459 11.5991 1150 85.8904 246.514 473.983
112 0 102.259 11.4122 1167 85.2588 245.949 474.458
113 0 105.347 11.372 1198 84.7613 245.652 473.073
114 0 110.209 11.9318 1315 82.4943 246.305 471.11
115 1 55.2146 10.0517 555 81.3423 245.144 496.537
116 0 57.3314 10.4306 598 80.9314 245.309 494.957
117 0 59.3171 10.0477 596 81.6963 245.802 494.25
118 0 62.2781 10.6619 664 79.3012 244.595 493.548
119 0 65.2523 11.2027 731 78.5568 244.876 492.599
120 0 67.2974 11.3526 764 77.7408 244.508 490.798
121 0 70.3015 11.8063 830 83.0494 245.423 488.669
122 0 70.0636 11.5895 812 72.1392 245.521 490.631
123 0 74.1354 11.0878 822 72.9428 245.625 488.123
124 0 74.1648 10.6654 791 74.3451 246.008 488.154
125 0 78.1162 11.6109 907 72.3583 245.626 486.461
126 0 78.1178 10.9194 853 74.4373 244.322 486.069
127 0 82.0772 11.7694 966 73.5466 244.006 483.62
128 0 85.0902 11.858 1009 74.5114 244.051 481.726
129 0 88.091 11.7492 1035 74.9353 244.898 480.804
130 0 90.1099 10.5982 955 76.9424 243.86 480.173
131 0 92.1595 11.6537 1074 75.2588 245.09 479.324
132 0 96.1689 11.3654 1093 75.5014 244.535 477.207
133 0 97.1349 10.9641 1065 76.7653 244.621 474.098
134 0 103.149 11.7596 1213 76.042 244.974 474.048
135 0 105.101 11.7696 1237 76.1892 244.823 472.832
136 1 56.1032 10.2846 577 76.2513 243.903 496.971
137 0 58.1088 10.7901 627 75.1069 244.131 495.732
138 0 60.1384 11.407 686 74.3149 243.854 495.394
139 0 61.0295 11.945 729 73.4636 243.997 493.462
140 0 61.0929 11.1306 680 74.3485 244.432 497.212
141 0 63.0914 11.3962 719 77.3505 245.527 495.371
142 0 64.152 11.7377 753 80.3958 246.619 495.001
143 0 65.0651 11.112 723 81.4882 246.505 493.838
144 0 69.0656 12.6981 877 78.2429 246.1 491.213
145 0 69.0647 11.5833 800 82.18 245.659 491.814
146 0 73.0547 12.0868 883 81.0204 245.618 490.332
147 0 75.1049 12.0898 908 81.7225 245.961 489.512
148 0 76.0775 12.4873 950 81.5968 246.052 487.826
149 0 78.0707 11.8995 929 82.4575 245.849 487.946
150 0 82.0584 12.552 1030 81.233 246.014 487.347
151 0 85.1421 12.4733 1062 81.8635 245.849 485.096
152 0 87.1813 12.56 1095 83.0776 245.882 482.411
153 0 90.0911 12.9203 1164 82.299 244.905 480.172
154 0 91.1454 12.7269 1160 83.4474 244.314 479.9
155 0 96.1017 13.0695 1256 82.6616 244.426 477.57
156 0 97.0998 12.6365 1227 84.4385 244.793 478.909
157 0 101.179 12.7398 1289 83.3421 245.43 474.752
158 0 105.155 12.9618 1363 84.5297 244.996 473.663
159 0 108.086 12.9897 1404 84.9872 245.1 471.381
160 0 109.165 12.5773 1373 87.0881 244.739 469.713
161 0 113.238 12.6283 1430 85.0594 244.404 468.097
162 0 118.143 12.2563 1448 86.1609 243.611 466.318
163 1 61.1074 11.0298 674 76.9273 244.117 494.22
164 0 62.1032 11.5292 716 79.2291 243.764 491.325
165 0 65.0812 12.9991 846 83.1206 244.307 492.253
166 0 66.0505 12.5661 830 76.459 243.606 492.034
167 0 67.1868 12.1899 819 78.2161 244.609 492.098
168 0 68.1665 12.0147 819 79.0818 244.181 492.33
169 0 70.097 12.069 846 79.6253 244.689 490.664
170 0 73.1893 12.3379 903 79.8826 244.245 489.525
171 0 76.1825 12.8245 977 79.6981 244.756 487.005
172 0 77.2369 12.0409 930 81.957 244.224 488.028
173 0 82.1151 13.0061 1068 80.5684 244.547 484.826
174 0 84.1901 12.3768 1042 82.3407 244.192 485.098
175 0 87.1515 12.5299 1092 81.9139 243.988 481.659
176 0 90.2264 12.6571 1142 81.789 244.85 479.608
177 0 93.1976 13.3587 1245 80.0378 244.713 478.71
178 0 95.2554 11.9573 1139 83.626 244.983 476.65
179 0 97.2188 12.261 1192 83.6527 244.742 475.007
180 0 99.2992 12.991 1290 86.1271 244.157 474.783
181 0 104.235 13.7669 1435 83.0941 244.2 472.856
182 0 106.286 13.0685 1389 85.4989 243.924 470.297
183 0 110.236 13.2262 1458 84.9232 243.537 470.466
184 0 112.197 12.5582 1409 86.2881 244.364 468.11
185 0 115.113 12.4747 1436 87.374 243.789 466.779
186 0 122.109 12.8491 1569 85.3595 243.913 463.959
187 1 65.0831 11.1242 724 86.5138 244.036 492.583
188 0 67.2484 11.4501 770 82.8208 244.325 489.126
189 0 70.1817 11.6555 818 84.8949 244.38 487.769
190 0 71.0299 11.7415 834 75.5456 245.007 488.583
191 0 71.0453 10.6693 758 78.6438 244.776 487.195
192 0 75.0705 11.3626 853 77.354 244.683 487.657
193 0 78.0763 11.6168 907 77.9548 243.985 484.816
194 0 82.0746 11.9525 981 79.0815 244.254 482.705
195 0 84.1108 12.329 1037 80.6644 244.176 480.841
196 0 87.1513 12.1857 1062 83.2976 244.183 479.096
197 0 91.2032 12.5215 1142 82.0473 243.863 478.357
198 0 95.2228 12.9276 1231 82.4102 243.772 475.283
199 0 96.444 12.8054 1235 83.3652 244.18 472.36
200 0 99.4631 12.3362 1227 84.3056 244.479 470.281
201 0 101.379 12.0833 1225 84.5682 244.384 469.491
202 0 104.388 11.9171 1244 108.692 244.876 467.653
203 1 55.0953 10.1098 557 96.7163 244.253 496.643
204 0 57.1149 10.5577 603 95.7114 245.237 495.988
205 0 57.0865 10.3527 591 97.934 244.733 496.222
206 0 59.0804 10.6804 631 98.1664 244.418 495.502
207 0 62.0905 10.839 673 98.3061 243.487 494.947
208 0 64.1402 10.9292 701 98.6562 243.705 493.767
209 0 66.1245 11.191 740 95.527 243.77 492.591
210 0 68.1 11.4684 781 95.5557 243.49 489.467
211 0 70.0728 11.2026 785 98.0331 244.144 489.395
212 0 71.2043 11.4178 813 98.5609 244.187 486.111
213 0 75.3367 10.9907 828 97.0072 244.733 484.033
214 0 78.3366 11.1442 873 96.9645 244.659 482.105
215 0 80.3254 11.192 899 96.2414 243.842 481.164
216 0 82.2844 10.7554 885 97.5119 244.214 481.101
217 0 85.3604 10.8716 928 96.6412 244.323 479.542
218 0 87.2653 11.0353 963 94.7373 244.25 478.505
219 0 92.3261 11.037 1019 93.1737 244.453 477.112
220 0 93.3292 10.9933 1026 94.5058 244.28 474.566
221 0 96.2355 10.6613 1026 94.6306 243.838 473.679
222 0 97.2185 10.5741 1028 96.3794 244.142 471.75
223 1 52.1439 9.01352 470 90.9681 244.702 494.2
224 0 54.2034 9.64884 523 88.7189 245.017 494.91
225 0 58.153 10.266 597 86.8023 244.705 492.729
226 0 59.1436 10.3308 611 86.6088 244.1 492.223
227 0 60.0772 10.8527 652 86.2822 241.902 493.914
228 0 60.0542 11.3398 681 92.7137 242.979 493.038
229 0 62.0558 12.1181 752 89.3949 242.258 492.295
230 0 64.075 11.7362 752 90.5665 242.898 491.621
231 0 67.1446 11.8997 799 90.2553 242.398 490.06
232 0 69.0653 11.9307 824 90.3956 242.353 489.354
233 0 69.107 12.0827 835 92.0419 242.77 488.927
234 0 71.0477 11.9497 849 91.7373 242.81 486.631
235 0 74.0587 12.4226 920 91.1337 242.335 486.762
236 0 76.0723 12.659 963 91.298 241.91 486.927
237 0 77.1227 12.8367 990 92.1859 241.879 484.082
238 0 79.0889 12.9474 1024 91.8086 242.188 484.772
239 0 79.0859 11.8985 941 96.7354 241.628 484.963
240 0 82.0658 11.6248 954 97.4214 241.811 483.302
241 0 84.0675 11.9309 1003 96.6849 242.071 482.332
242 0 86.1183 12.0532 1038 97.8497 242.446 479.139
243 0 88.0798 11.9437 1052 97.3108 241.738 478.111
244 0 91.1196 11.655 1062 98.7787 242.295 476.051
245 0 95.0362 11.9323 1134 97.8095 242.2 476.298
246 1 49.0274 9.97401 489 96.7403 244.301 499.217
247 0 53.0069 11.0174 584 90.161 244.146 499.103
248 0 53.0196 11.128 590 90.6017 243.988 498.417
249 0 55.0166 11.6328 640 91.1891 240.767 498.414
250 0 58.0618 11.7117 680 89.3853 241.454 497.734
251 0 57.0394 11.7287 669 89.8296 241.662 497.602
252 0 58.0172 11.8413 687 89.7103 241.786 497.674
253 0 59.0715 11.9685 707 89.8996 241.583 495.563
254 0 61.0259 12.0277 734 87.6962 241.525 495.515
255 0 61.0467 11.6796 713 89.8766 242.76 493.32
256 0 62.0418 11.734 728 89.0659 242.364 492.838
257 0 64.0239 11.9487 765 87.8523 242.792 492.375
258 0 65.0313 11.6867 760 88.1487 242.626 491.887
259 0 65.0672 11.4343 744 89.1116 242.523 489.392
260 0 67.0637 12.0035 805 88.3155 241.92 490.396
261 0 69.062 12.0182 830 89.4602 242.98 489.489
262 0 69.0524 12.3964 856 90.0257 242.59 488.155
263 0 73.2112 12.4161 909 89.5864 243.051 487.244
264 0 76.1398 12.5821 958 88.3497 243.288 486.343
265 0 77.1212 12.3831 955 89.4534 243.784 485.323
266 0 79.1997 12.7905 1013 89.3504 243.07 484.417
267 0 82.1609 12.6216 1037 89.3963 243.189 483.759
268 0 83.127 12.4869 1038 91.8382 242.889 483.371
269 0 85.2089 12.6982 1082 91.9556 243.081 482.416
270 0 86.1953 12.1932 1051 94.8306 242.792 480.775
271 0 90.1725 12.1767 1098 95.4171 242.686 479.914
272 0 92.1176 11.887 1095 96.6667 241.899 479.199
273 0 96.0925 12.4047 1192 95.0914 242.796 476.316
274 1 51.034 10.7379 548 92.5018 242.135 498.692
275 0 54.0175 11.1816 604 89.851 242.69 497.924
276 0 56.0439 12.4724 699 82.6123 243.923 498.658
277 0 57.0425 11.9385 681 85.0073 244.195 497.068
278 0 56.0906 11.945 670 84.994 243.985 496.709
279 0 57.0234 11.9074 679 85.6981 243.1 496.163
280 0 59.0199 11.8943 702 86.3348 243.211 494.973
281 0 62.0478 11.7812 731 85.5923 243.059 495.494
282 0 63.0897 11.8244 746 86.122 242.079 493.434
283 0 65.0467 12.5295 815 85.7092 241.763 492.823
284 0 67.0788 11.9561 802 86.9302 242.818 491.259
285 0 68.0572 12.3719 842 87.481 242.716 490.708
286 0 68.0504 12.2115 831 88.3418 243.018 489.844
287 0 71.057 12.5814 894 87.6465 242.918 489.171
288 0 72.0786 12.3893 893 88.8824 242.699 487.99
289 0 73.1874 11.532 844 90.8685 242.399 485.632
290 0 78.1425 12.9891 1015 88.2079 243.343 484.685
291 0 79.1041 12.6669 1002 90.7026 243.207 484.013
292 0 79.0933 12.2261 967 94.4023 243.349 483.294
293 0 82.0564 12.6498 1038 93.5809 243.742 481.667
294 0 85.0682 12.872 1095 93.1854 243.059 481.036
295 0 87.0858 13.1709 1147 93.6321 242.806 479.894
296 0 89.0738 12.6075 1123 95.9457 242.52 477.92
297 0 92.1127 13.1035 1207 95.1085 241.637 477.013
298 0 95.109 13.2585 1261 96.2189 242.506 476.901
299 0 97.2811 13.1269 1277 97.307 242.767 475.462
300 0 99.1644 12.6658 1256 101.111 242.508 473.396
301 0 105.194 12.8239 1349 100.674 242.675 471.119
302 0 108.254 12.7847 1384 101.092 242.088 469.111
303 0 110.314 12.7273 1404 101.958 242.156 466.835
304 0 113.497 12.7492 1447 101.37 242.812 464.206
305 0 115.242 12.3913 1428 102.613 242.321 462.438
306 0 118.244 12.2713 1451 103.755 242.771 459.034
307 1 59.3024 10.6235 630 101.097 242.351 492.275
308 0 59.2713 10.3929 616 101.183 242.187 491.92
309 0 63.2521 10.2447 648 101.901 242.265 492.23
310 0 66.3767 10.3048 684 102.314 242.455 489.009
311 0 71.372 12.1056 864 99.89 243.544 489.073
312 0 71.4333 12.5712 898 101.396 242.08 488.163
313 0 73.2884 12.7305 933 103.662 242.561 486.15
314 0 73.2151 12.8116 938 104.696 242.52 482.4
315 0 72.0513 12.6021 908 103.196 243.09 488.954
316 0 72.0321 12.3834 892 105.511 242.917 487.962
317 0 75.0441 12.4727 936 104.908 243.838 486.608
318 0 78.0675 12.5789 982 104.787 243.201 486.651
319 0 80.0933 12.9099 1034 106.386 242.715 484.959
320 0 81.1358 13.274 1077 107.657 243.266 485.852
321 0 84.1988 13.1593 1108 109.174 242.313 483.917
322 0 87.1045 13.0074 1133 109.807 242.445 483.66
323 0 88.1563 12.9543 1142 108.975 242.096 483.45
324 0 93.0896 12.9123 1202 108.319 242.053 480.43
325 0 95.107 13.3534 1270 109.402 241.708 478.548
326 0 99.0864 13.5942 1347 109.46 241.55 479.216
327 0 102.112 13.3873 1367 111.721 241.745 477.764
328 0 105.109 13.6144 1431 112.268 241.786 474.8
329 0 110.13 13.7383 1513 109.371 241.61 472.318
330 1 58.0932 11.7226 681 118.84 240.941 493.173
331 0 59.0629 12.7999 756 117.606 241.243 490.501
332 0 62.0307 13.1064 813 118.654 241.257 491.555
333 0 65.044 12.6683 824 120.825 240.931 490.411
334 0 66.059 12.943 855 122.323 240.789 490.877
335 0 69.0685 12.6975 877 125.106 240.658 489.355
336 0 71.136 13.186 938 124.066 240.918 488.302
337 0 72.1023 13.2173 953 125.64 241.272 487.142
338 0 73.1004 13.5977 994 126.771 240.723 485.847
339 0 74.108 13.4803 999 128.105 240.016 485.188
340 0 78.0726 13.3081 1039 127.091 239.303 484.903
341 0 81.1052 13.5873 1102 125.391 240.392 483.274
342 0 83.1361 14.2177 1182 123.401 239.783 481.48
343 0 86.2319 13.916 1200 123.816 239.528 479.862
344 0 89.1969 13.8121 1232 124.322 239.601 479.841
345 0 89.173 13.9168 1241 124.568 239.233 477.669
346 0 92.2988 13.8788 1281 124.651 239.424 476.037
347 0 95.2494 13.9633 1330 121.762 239.248 475.129
348 0 99.3491 14.283 1419 119.941 238.957 473.479
349 0 100.364 14.3976 1445 120.192 239.12 471.177
350 0 99.3214 13.3909 1330 123.845 239.688 470.208
351 0 103.3 13.94 1440 121.256 239.577 467.424
352 0 110.388 13.67 1509 118.918 239.433 465.852
353 0 112.377 13.1788 1481 121.779 239.247 463.652
354 0 114.32 13.2522 1515 122.905 239.168 460.247
355 1 57.0716 11.5294 658 122.078 238.83 490.281
356 0 59.0994 12.4198 734 122.46 238.219 489.526
357 0 62.1249 11.8954 739 118.566 239.336 492.222
358 0 63.0648 12.6854 800 116.282 239.046 489.699
359 0 65.0498 12.575 818 116.839 239.735 489.685
360 0 67.0956 12.1617 816 116.891 239.775 489.511
361 0 69.0653 12.8284 886 116.05 239.62 487.72
362 0 69.0396 13.1519 908 108.867 239.485 488.576
363 0 71.0892 12.9696 922 101.709 239.63 489.01
364 0 70.0871 13.4547 943 105.459 239.949 485.756
365 0 75.0876 12.9049 969 106.131 240.497 484.752
366 0 76.1223 12.7164 968 107.92 240.03 482.344
367 0 77.0758 13.2986 1025 106.103 239.897 479.85
368 0 78.123 13.0051 1016 106.893 240.301 476.384
369 0 79.1426 12.686 1004 109.723 240.029 477.749
370 0 80.0789 12.8748 1031 108.688 239.953 475.634
371 0 84.1531 12.4773 1050 109.203 240.114 474.693
372 0 84.0614 12.7764 1074 108.775 239.569 474.185
373 0 87.0827 12.3446 1075 108.788 240.41 474.526
374 0 93.125 12.757 1188 104.87 241.198 471.195
375 0 94.0983 12.8801 1212 105.273 240.936 470.946
376 0 99.2021 12.5905 1249 104.46 240.627 470.279
377 0 100.106 12.297 1231 105.511 240.675 469
378 1 55.2008 11.0868 612 109.492 240.773 490.065
379 0 55.0957 12.3059 678 106.22 240.643 488.084
380 0 56.0542 12.4165 696 107.224 240.595 486.52
381 0 61.0485 12.744 778 102.335 240.357 490.839
382 0 63.0537 12.7986 807 103.228 240.969 490.854
383 0 63.0344 12.9453 816 105.208 241.017 489.592
384 0 66.0276 12.8431 848 105.575 241.21 486.963
385 0 66.0893 12.8463 849 106.688 240.797 485.878
386 0 68.0529 13.3426 908 106.818 240.959 485.466
387 0 69.0292 12.5744 868 110.955 240.288 484.662
388 0 70.0665 13.1447 921 107.881 241.077 482.241
389 0 68.0532 12.0053 817 116.071 241.235 481.789
390 0 76.1062 12.6402 962 112.982 241.322 476.388
391 0 76.0627 12.5291 953 114.71 240.945 476.65
392 0 77.0654 12.405 956 116.358 241.36 474.73
393 0 79.054 12.5357 991 115.915 241.255 472.986
394 0 83.0291 12.6823 1053 115.124 241.432 471.087
395 0 84.1193 12.1851 1025 116.443 241.412 471.792
396 0 85.1117 12.372 1053 116.274 241.459 469.304
397 0 91.089 12.8885 1174 112.164 240.762 469.079
398 0 92.0913 12.8894 1187 112.162 241.404 467.473
399 0 93.1355 12.5838 1172 113.788 241.68 464.513
400 0 97.0718 12.7328 1236 112.008 241.755 463.812
401 0 101.236 12.9499 1311 111.114 241.46 463.477
402 0 105.051 12.8223 1347 112.48 241.372 461.042
403 0 106.11 12.6661 1344 113.736 241.268 458.542
404 0 109.102 12.2729 1339 115.939 242.167 458.907
405 0 115.129 12.4122 1429 115.974 241.938 457.004
406 0 119.254 12.8214 1529 115.277 241.596 455.039
407 0 125.106 12.5094 1565 114.963 241.994 452.755
408 0 130.186 12.7971 1666 113.463 242.114 452.554
409 0 134.091 13.1404 1762 114.055 241.683 447.509
410 0 138.136 12.5673 1736 114.999 241.432 445.589
411 1 75.1344 10.6077 797 119.817 240.61 474.232
412 0 81.1667 11.6673 947 116.664 240.813 474.682
413 0 84.1732 12.498 1052 114.048 241.262 473.393
414 0 86.087 12.0808 1040 117.034 241.751 473.91
415 0 89.0766 12.4387 1108 115.107 242.046 473.163
416 0 92.0846 12.7709 1176 113.175 241.352 471.559
417 0 95.0915 13.2188 1257 109.531 240.776 472.123
418 0 98.0568 12.6967 1245 111.221 242.004 470.667
419 0 97.0584 12.4255 1206 113.774 241.407 468.077
420 0 101.091 12.4938 1263 111.413 241.597 465.478
421 0 103.219 12.6043 1301 110.51 241.183 463.623
422 0 105.111 12.796 1345 110.049 240.752 461.034
423 0 109.184 12.5109 1366 109.516 241.494 459.881
424 0 110.144 11.9843 1320 111.164 240.848 457.677
425 1 47.056 9.2018 433 94.9469 240.774 490.508
426 0 50.0794 9.04564 453 94.6181 241.049 490.572
427 0 57.0726 9.93472 567 99.739 239.554 497.977
428 0 58.0839 10.4504 607 98.6787 239.941 498.376
429 0 59.0973 11.2019 662 96.6571 239.879 495.517
430 0 62.1031 11.0139 684 95.5658 239.637 496.243
431 0 63.1057 11.4253 721 91.7295 240.049 495.125
432 0 66.1335 11.1441 737 91.2537 240.092 494.688
433 0 67.1302 11.4405 768 92.4258 240.708 493.482
434 0 68.1193 11.2156 764 93.1126 240.573 492.829
435 0 71.0808 11.2267 798 91.6805 240.644 491.986
436 0 70.091 10.7146 751 92.7523 240.459 491.699
437 0 75.0999 11.0653 831 90.349 239.606 490.526
438 0 75.1594 11.0831 833 89.9088 239.845 488.993
439 0 80.0779 11.339 908 87.9108 240.058 487.776
440 0 81.0321 11.082 898 87.1537 240.621 487.159
441 0 85.0674 10.5328 896 87.6641 240.51 485.472
442 0 88.0222 10.9063 960 86.3354 241.504 483.696
443 0 90.0463 11.061 996 86.6014 240.909 482.325
444 1 47.0658 8.88119 418 86.244 241.053 504.435
445 0 49.074 9.1087 447 87.2148 240.839 503.143
446 0 48.0477 8.86619 426 87.9319 241.239 503.3
447 0 51.0099 9.80201 500 84.944 241.606 501.516
448 0 52.0188 10.4001 541 86.4104 240.44 501.972
449 0 55.1175 10.9584 604 84.8411 241.538 499.985
450 0 54.0557 10.6002 573 86.4852 241.442 500.253
451 0 55.1508 10.4804 578 85.1782 241.789 499.104
452 0 58.1342 11.1638 649 84.5562 241.436 498.347
453 0 59.1291 11.3142 669 85.5396 241.039 498.024
454 0 60.0743 11.3859 684 86.2398 240.936 496.77
455 0 63.1693 10.9705 693 85.4921 241.691 497.225
456 0 63.117 10.8845 687 86.0859 241.731 496.114
457 0 64.053 9.78876 627 98.3014 240.963 495.341
458 0 66.2001 11.2386 744 95.9288 241.594 492.884
459 0 67.1329 10.5313 707 97.6436 241.46 493.024
460 0 68.2192 10.5689 721 97.9931 241.542 491.602
461 0 70.1769 10.502 737 97.1493 241.403 491.204
462 0 74.1572 11.0711 821 95.1096 241.35 491.346
463 0 72.2132 10.4136 752 96.8338 241.112 490.533
464 0 76.1542 10.9646 835 94.9269 241.772 488.654
465 0 74.0485 10.7902 799 96.0238 241.613 489.911
466 0 78.1632 10.7723 842 96.7423 242.311 488.778
467 0 78.2124 9.89613 774 99.3359 242.275 488.553
468 0 81.2029 9.91344 805 99.2137 241.196 488.296
469 0 84.3404 10.5169 887 99.3337 242.322 486.024
470 0 87.1331 11.3045 985 97.1503 242.566 485.535
471 0 90.1847 11.4432 1032 97.6831 241.75 483.878
472 0 93.1954 11.5564 1077 99.2851 240.755 481.009
473 0 96.3038 11.256 1084 101.495 241.131 477.643
474 0 97.3492 11.6693 1136 102.43 239.957 475.261
475 0 99.4171 11.2556 1119 103.771 241.395 476.164
476 0 101.319 11.6069 1176 103.219 240.79 475.429
477 1 55.2184 11.6266 642 102.354 240.419 495.927
478 0 57.2947 12.0081 688 101.685 240.413 494.135
479 0 59.3037 11.4495 679 101.611 240.542 493.513
480 0 63.3063 13.1267 831 98.9049 239.776 492.088
481 0 63.33 12.2848 778 98.0193 239.599 492.801
482 0 64.0385 11.9147 763 97.1193 240.751 495.169
483 0 68.0798 12.3385 840 103.486 240.129 492.685
484 0 70.1037 12.4387 872 102.131 240.198 491.131
485 0 72.0644 12.8357 925 100.381 241.062 490.036
486 0 74.1401 12.8136 950 99.52 241.154 489.953
487 0 74.0908 12.7546 945 100.178 241.676 490.129
488 0 76.0821 12.7757 972 99.5195 241.879 488.336
489 0 77.0853 12.5186 965 100.131 242.135 488.063
490 0 80.0576 12.4161 994 103.237 241.213 487.05
491 0 82.0626 12.4295 1020 102.762 241.37 486.616
492 0 84.1256 12.7429 1072 103.04 241.342 485.593
493 0 88.1264 12.709 1120 104.253 241.879 483.35
494 0 90.1228 12.4497 1122 105.025 241.717 481.993
495 1 51.0782 10.8657 555 101.355 240.829 502.589
496 0 50.0916 10.6405 533 105.355 240.173 500.741
497 0 54.1934 11.4405 620 105.398 240.647 500.669
498 0 54.1197 11.6409 630 109.854 240.74 498.26
499 0 53.042 11.5569 613 102.938 241.085 495.365
500 0 55.1305 11.1009 612 95.8807 239.98 497.94
501 0 58.0604 11.5742 672 100.769 239.708 500.774
502 0 57.0271 11.854 676 101.686 239.737 499.654
503 0 60.0273 11.828 710 100.5 239.768 499.08
504 0 62.0299 11.833 734 99.2248 240.06 498.676
505 0 63.0357 11.7394 740 100.235 239.922 496.93
506 0 64.0291 11.7759 754 100.005 240.271 496.192
507 0 66.0755 11.8198 781 100.855 239.885 495.061
508 0 68.0293 11.8184 804 102.787 239.84 493.266
509 0 72.0952 12.4835 900 99.9622 240.032 492.512
510 0 75.0376 12.2472 919 100.087 240.667 491.652
511 0 75.061 12.0302 903 102.27 239.738 491.781
512 0 77.0427 12.24 943 103.564 239.818 490.239
513 0 80.0538 12.2668 982 105.913 239.476 488.645
514 0 84.0312 12.7096 1068 104.322 240.117 488.843
515 0 85.0953 12.3744 1053 107.227 239.759 488.169
516 0 87.059 12.5892 1096 108.165 240.113 485.25
517 0 90.0678 12.535 1129 107.457 239.854 487.545
518 0 92.1289 12.6019 1161 105.847 239.898 487.084
519 0 94.0555 12.4714 1173 109.627 239.962 485.278
520 0 95.066 12.0548 1146 112.075 240.09 481.984
521 0 99.0737 12.6976 1258 109.007 239.583 481.662
522 0 102.1 12.6249 1289 108.981 240.016 480.738
523 0 107.086 12.5133 1340 108.563 240.098 478.569
524 1 59.033 11.4851 678 109.389 240.217 501.065
525 0 61.0159 12.0952 738 110.877 240.553 499.537
526 0 63.0236 12.4081 782 112.893 239.912 499.252
527 0 64.0148 11.7629 753 103.26 239.669 499.781
528 0 64.0393 12.0707 773 105.947 239.048 498.313
529 0 66.04 11.5082 760 104.85 239.079 498.334
530 0 69.0496 11.6583 805 102.912 238.532 497.852
531 0 70.0387 12.0648 845 103.02 238.303 496.389
532 0 73.0323 11.2142 819 103.977 239.214 495.756
533 0 75.0222 11.9298 895 101.382 238.925 494.297
534 0 78.0342 11.5847 904 99.7533 239.308 493.71
535 0 79.0337 11.7292 927 99.9256 239.036 492.381
536 0 84.061 11.8128 993 98.9053 238.958 491.037
537 0 83.0353 11.4048 947 102.245 238.352 488.359
538 0 85.0523 11.7457 999 99.5455 238.059 489.755
539 0 90.0512 12.4707 1123 96.634 238.16 488.29
540 0 92.0263 11.8662 1092 97.5614 238.101 487.295
541 0 94.0491 11.8874 1118 95.4311 238.788 485.482
542 0 97.086 11.7937 1145 94.8769 238.583 484.446
543 0 100.125 11.3458 1136 96.5678 238.315 482.91
544 0 102.122 11.8388 1209 95.3416 237.84 481.562
545 0 107.095 11.8307 1267 95.1223 238.364 481.556
546 0 110.142 12.502 1377 93.5897 238.492 478.201
547 1 66.0191 11.6633 770 91.8792 238.645 499.288
548 0 69.0615 12.1052 836 92.2488 238.258 496.913
549 0 71.0256 12.0097 853 91.2251 237.805 495.885
550 0 69.0151 9.8819 682 84.217 238.875 497.412
551 0 70.0612 10.5479 739 83.4263 239.263 496.648
552 0 73.0384 10.2549 749 83.8358 239.467 495.322
553 0 74.0678 10.5309 780 83.5782 238.726 493.882
554 0 77.0489 10.7594 829 83.0748 239.098 494.14
555 0 78.0582 10.4794 818 84.5782 238.736 493.427
556 0 83.0733 10.882 904 83.4281 239.522 491.744
557 0 87.12 10.9734 956 83.6454 238.996 489.453
558 0 91.0426 11.0498 1006 83.496 238.305 487.148
559 0 93.0538 11.1656 1039 83.795 237.781 484.896
560 0 95.0862 11.316 1076 84.4777 238.288 482.74
561 0 100.039 11.2656 1127 84.4463 238.401 481.997
562 0 102.05 11.3082 1154 85.3267 238.601 480.016
563 0 106.104 11.385 1208 85.5604 238.541 478.89
564 0 108.062 11.151 1205 85.1992 238.549 477.158
565 0 109.055 10.6827 1165 86.2678 238.805 475.568
566 0 113.056 10.278 1162 87.1566 238.279 472.195
567 0 119.069 11.4219 1360 89.3419 238.753 469.385
568 0 123.184 11.56 1424 84.5639 238.287 469.047
569 0 128.159 11.0098 1411 84.3175 238.794 467.746
570 0 134.136 11.9133 1598 89.5657 238.468 464.548
571 1 73.2654 10.2913 754 86.9032 238.842 495.101
572 0 76.053 11.0449 840 86.45 238.486 494.718
573 0 76.0637 10.8988 829 85.7949 239.872 492.986
574 0 78.0766 11.0661 864 92.3889 239.971 488.894
575 0 84.0713 11.7044 984 90.2856 238.821 490.809
576 0 87.0596 11.7735 1025 90.3551 238.946 488.369
577 0 88.0715 11.4225 1006 93.9125 238.722 486.783
578 0 90.0846 11.3893 1026 95.9006 238.78 485.551
579 0 91.1383 11.4332 1042 96.976 238.233 483.629
580 0 96.1456 12.0858 1162 94.3305 238.266 485.117
581 0 101.225 12.2697 1242 94.4155 239.088 484.097
582 0 103.182 12.2986 1269 94.7187 239.23 481.839
583 0 107.232 13.0372 1398 92.4113 237.861 480.779
584 0 108.229 12.5105 1354 95.3161 238.631 477.489
585 0 111.236 12.0824 1344 96.4256 237.927 476.512
586 0 113.283 11.9082 1349 98.2231 238.297 476.95
587 0 116.421 12.5063 1456 95.5495 238.434 474.864
588 0 116.419 12.4894 1454 149.389 239.444 474.893
589 1 64.154 11.1606 716 97.8841 238.613 502.697
590 0 64.1427 11.1782 717 101.861 239.059 499.764
591 0 65.0653 10.8814 708 91.4548 239.089 501.198
592 0 67.0567 11.1995 751 87.1025 238.29 499.61
593 0 70.0918 11.3423 795 87.6981 238.165 499.009
594 0 74.1465 12.1921 904 85.3584 238.305 496.827
595 0 74.0987 12.038 892 85.7085 238.601 494.889
596 0 75.2136 11.607 873 88.4868 237.288 495.314
597 0 78.1706 11.4749 897 90.7759 238.226 493.188
598 0 79.1658 11.1159 880 92.8591 238.811 491.715
599 0 80.1299 11.5188 923 93.3846 238.275 492.413
600 0 82.16 11.3315 931 94.956 238.619 490.677
601 0 86.1734 11.7438 1012 104.459 238.196 491.636
602 0 86.1972 11.9726 1032 107.229 238.797 491.673
603 0 87.21 11.7991 1029 109.051 238.81 491.157
604 0 89.2651 12.0092 1072 108.879 238.795 489.91
605 0 88.3242 11.7522 1038 112.811 238.258 490.068
606 0 87.2326 12.1056 1056 114.262 237.53 489.498
607 0 90.2367 12.0793 1090 112.157 238.093 489.184
608 0 90.3141 12.5119 1130 112.517 238.587 489.529
609 0 90.3241 12.3777 1118 113.581 238.332 488.612
610 0 91.3143 12.4953 1141 115.208 237.876 488.098
611 0 90.283 12.5827 1136 117.142 237.862 487.906
612 0 93.1997 12.7039 1184 105.45 237.329 488.807
613 0 91.1089 12.2052 1112 108.927 237.661 489.718
614 0 93.1578 12.4305 1158 109.187 237.252 488.01
615 0 92.0946 11.6945 1077 112.174 236.841 486.829
616 0 95.0666 11.7076 1113 111.696 237.221 486.479
617 1 133.073 12.3692 1646 117.074 235.79 287.838
618 1 106.104 13.8638 1471 121.153 235.901 262.916
619 0 109.168 13.8319 1510 126.247 236.054 263.327
620 0 113.198 15.6451 1771 115.414 237.091 355.835
621 0 115.265 15.6161 1800 116.939 237.189 353.338
622 0 118.225 14.7431 1743 119.561 236.972 351.424
623 0 124.235 15.8248 1966 114.943 236.32 350.453
624 1 66.2019 11.5858 767 126.27 236.512 380.489
625 0 67.183 11.357 763 126.68 236.4 380.398
626 0 72.1608 12.0426 869 122.962 236.8 378.436
627 0 72.1916 12.2452 884 126.397 236.587 378.149
628 0 74.1416 12.1389 900 124.779 236.743 376.869
629 0 78.1805 12.8549 1005 120.926 237.297 375.68
630 0 81.1856 13.7217 1114 124.151 238.535 376.371
631 0 80.163 12.8738 1032 128.264 238.009 375.657
632 0 83.1084 12.5258 1041 124.604 237.187 373.374
633 0 84.1459 12.2169 1028 127.905 237.108 373.127
634 0 87.194 12.0765 1053 128.321 238.245 372.535
635 0 88.1782 12.5655 1108 127.205 237.703 371.078
636 0 91.1854 11.855 1081 128.874 238.385 370.498
637 0 94.1416 12.1094 1140 129.575 238.201 369.674
638 0 98.157 12.0419 1182 127.242 238.697 368.448
639 0 101.134 12.4983 1264 128.566 239.08 367.088
640 0 104.131 12.7147 1324 125.475 238.271 365.792
641 0 106.135 12.9552 1375 124.765 238.032 365.087
642 0 108.105 12.7284 1376 130.972 239.02 364.605
643 0 112.068 12.7155 1425 128.304 238.794 361.584
644 0 113.08 12.5221 1416 126.208 238.42 358.469
645 0 118.099 12.7944 1511 122.54 238.009 357.848
646 0 120.142 13.2094 1587 123.739 238.781 356.04
647 0 126.1 13.1641 1660 122.868 239.414 354.979
648 1 63.0597 11.1482 703 122.11 239.708 386.7
649 0 65.0956 11.7366 764 118.538 240.682 385.795
650 0 67.0519 12.0951 811 113.307 239.905 383.091
651 0 68.0572 11.9164 811 121.096 238.965 381.599
652 0 71.0521 12.3008 874 117.585 239.127 381.379
653 0 71.113 12.1497 864 120.424 239.267 381.23
654 0 73.0814 12.0277 879 120.439 239.439 379.701
655 0 77.0569 11.9392 920 115.103 238.624 379.991
656 0 78.152 12.2454 957 113.109 239.435 379.445
657 0 79.1017 12.1489 961 115.089 239.36 377.657
658 0 80.0773 12.6628 1014 116.081 238.903 378.377
659 0 83.0783 12.9276 1074 118.791 238.953 379.126
660 0 87.0675 13.0244 1134 119.273 239.345 377.579
661 0 89.1231 13.1391 1171 117.398 239.518 374.495
662 0 93.1159 12.9838 1209 118.433 240.131 373.834
663 0 95.0939 13.0187 1238 118.44 240.125 375.921
664 0 97.0978 12.9766 1260 120.601 239.536 375.32
665 0 101.19 12.8669 1302 121.442 239.515 379.18
666 1 53.0173 11.053 586 119.606 240.701 404.452
667 0 54.0678 11.763 636 116.582 239.546 404.212
668 0 57.0561 12.0233 686 113.582 240.025 404.316
669 0 58.0085 12.2913 713 115.813 240.802 404.882
670 0 60.0641 12.3202 740 114.643 240.673 405.912
671 0 62.1024 12.4472 773 110.871 240.746 406.135
672 0 63.1871 11.6954 739 113.057 240.575 408.491
673 0 65.1222 12.4842 813 111.913 239.708 405.555
674 0 68.097 12.1738 829 109.996 239.413 407.11
675 0 67.1102 12.0846 811 109.291 239.339 416.592
676 0 70.144 12.0181 843 111.133 239.657 417.013
677 0 71.2128 12.0063 855 111.181 239.715 419.45
678 0 76.2375 12.6447 964 108.257 240.029 419.664
679 0 77.2191 12.5746 971 110.593 239.906 421.712
680 0 79.225 12.3698 980 111.543 239.939 421.6
681 0 81.2435 12.2102 992 112.914 239.609 422.944
682 0 85.233 12.3896 1056 113.076 240.098 421.568
683 0 88.2008 12.2448 1080 115.677 239.972 420.345
684 0 90.2882 12.7148 1148 116.179 240.239 418.64
685 0 93.1532 13.0216 1213 118.971 239.946 426.358
686 0 93.1358 13.024 1213 120.42 239.808 428.308
687 0 99.115 13.4793 1336 118.083 241.231 428.887
688 0 100.077 13.2498 1326 119.57 240.75 433.109
689 0 104.063 13.5591 1411 118.497 241.232 440.25
690 0 108.079 13.4623 1455 118.81 241.146 446.254
691 0 111.109 13.0773 1453 120.13 240.583 451.372
692 0 117.058 13.1047 1534 118.257 241.233 452.448
693 1 61.0342 12.026 734 121.956 241.516 480.725
694 0 63.058 12.0524 760 120.566 241.522 482.079
695 0 63.0448 12.5466 791 120.47 241.646 482.135
696 0 67.0771 11.8371 794 120.56 241.485 484.766
697 0 69.0714 12.3495 853 121.027 241.219 488.938
698 0 69.0603 12.728 879 121.142 240.942 490.544
699 0 73.0562 12.6478 924 118.922 240.076 493.492
700 0 76.0388 13.1117 997 116.872 239.111 493.251
701 0 77.066 13.5728 1046 115.122 240.114 494.691
702 0 80.0364 12.7317 1019 116.453 239.777 494.613
703 0 83.0337 13.2356 1099 114.504 240.127 492.899
704 0 84.0187 13.2113 1110 113.905 239.964 493.516
705 0 87.0588 12.4628 1085 116.364 240.702 491.773
706 0 88.0297 12.5299 1103 115.538 240.647 488.819
707 0 92.0473 12.9716 1194 114.224 240.696 489.058
708 0 94.0748 13.0428 1227 114.201 240.086 487.478
709 0 98.0454 13.2796 1302 113.068 239.838 486.345
710 0 99.0535 13.1848 1306 111.509 240.131 486.237
711 0 102.117 12.799 1307 114.461 239.791 482.061
712 0 105.195 12.263 1290 116.13 239.077 482.02
713 0 109.164 12.7057 1387 115.06 239.01 479.267
714 1 55.1612 10.6415 587 111.971 239.961 506.313
715 0 58.0824 12.0002 697 110.187 240.506 503.836
716 0 58.0659 11.9692 695 110.23 239.65 505.216
717 0 61.0939 12.0634 737 109.411 239.459 504.788
718 0 63.0389 11.9609 754 110.85 240.428 503.166
719 0 65.0182 12.5965 819 108.694 240.598 501.951
720 0 72.0571 15.3628 1107 94.2132 241.377 495.358
721 0 74.075 15.4168 1142 94.5 241.001 494.238
722 0 76.1321 15.0265 1144 96.021 240.424 494.593
723 0 74.0608 15.0147 1112 98.9514 240.574 494.084
724 0 78.088 14.394 1124 100.93 240.694 492.32
725 0 79.0573 13.9646 1104 102.132 240.745 493.644
726 0 79.141 13.3938 1060 106.175 240.216 492.408
727 0 82.1139 12.4218 1020 107.946 240.376 492.788
728 0 84.1409 12.3483 1039 108.669 239.508 492.549
729 0 85.1388 12.1919 1038 110.719 239.441 489.54
730 0 91.1812 12.9522 1181 105.647 239.625 490.346
731 0 91.0794 11.7041 1066 111.87 239.71 488.36
732 1 47.0299 10.7166 504 108.696 240.232 511.381
733 0 49.0357 10.4618 513 107.793 239.513 510.074
734 0 52.0143 11.1508 580 103.588 239.85 508.783
735 0 53.0816 11.5294 612 103.291 239.381 507.98
736 0 53.0175 11.2982 599 103.85 240.008 506.716
737 0 55.0646 11.3866 627 103.278 239.901 504.805
738 0 57.0402 11.939 681 100.483 239.72 503.902
739 0 58.03 11.9593 694 100.83 239.821 502.726
740 0 59.0216 11.7076 691 101.835 240.091 500.929
741 0 61.0165 11.9804 731 102.096 239.354 500.807
742 0 61.0277 12.7647 779 97.5071 239.053 500.782
743 0 59.0082 11.3374 669 104.522 238.602 499.555
744 0 59.0262 11.0968 655 105.485 239.831 500.337
745 1 74.0466 14.9771 1109 87.1605 239.487 492.252
746 0 75.0119 14.5977 1095 89.4831 240.474 492.17
747 0 76.0585 14.8964 1133 89.8897 240.367 490.749
748 0 76.1369 14.2375 1084 94.2814 239.922 490.037
749 0 76.1305 13.3718 1018 98.9224 239.708 490.028
750 0 79.1425 13.621 1078 98.6058 240.316 489.447
751 0 80.2393 12.8989 1035 102.258 239.907 489.7
752 0 83.1641 12.4092 1032 103.737 239.257 490.063
753 0 85.2253 12.3672 1054 105.338 239.655 489.516
754 0 88.1918 12.5635 1108 103.749 239.412 488.982
755 1 47.0081 10.2748 483 106.031 240.631 507.841
756 0 48.0213 9.93309 477 106.428 240.283 507.444
757 0 51.0466 11.1859 571 103.35 240.133 506.757
758 0 51.056 11.5168 588 103.978 240.529 505.519
759 0 52.0551 11.5647 602 106.618 240.49 503.342
760 0 53.0459 11.8199 627 105.386 240.979 503.9
761 0 56.0811 13.6945 768 98.9544 240.605 501.583
762 0 56.0939 13.1743 739 100.778 240.533 500.896
763 0 57.0495 11.9195 680 103.744 240.416 501.81
764 0 59.1033 11.9113 704 102.712 240.254 501.016
765 0 61.1029 12.1925 745 102.635 240.028 501.356
766 0 62.0822 12.8056 795 100.487 240.408 500.536
767 0 67.0922 14.3236 961 93.2789 240.078 496.481
768 0 72.1006 16.8514 1215 83.7572 239.774 493.771
769 0 76.1102 16.4498 1252 83.9944 240.2 491.95
770 0 76.2802 15.7053 1198 87.0292 240.971 492.335
771 0 74.2332 14.8451 1102 92.4673 239.993 491.504
772 0 77.2713 15.3226 1184 89.8454 240.177 490.439
773 0 76.3508 13.4511 1027 98.2113 240.123 490.217
774 0 77.3397 12.8653 995 100.573 239.705 489.782
775 0 80.245 12.9603 1040 100.792 239.427 487.231
776 0 80.2337 12.1021 971 103.262 240.874 487.947
777 0 83.3906 12.1836 1016 101.671 240.78 486.395
778 0 85.4125 12.4338 1062 101.573 240.432 486.262
779 0 89.3832 12.81 1145 99.8157 240.295 485.172
780 0 91.4163 12.1641 1112 102.051 240.138 485.282
781 1 46.1096 10.8654 501 99.0619 240.283 506.681
782 0 46.1 10.6724 492 101.378 240 506.569
783 0 49.0284 10.6265 521 100.731 240.361 505.159
784 0 50.0313 11.7127 586 98.0648 240.377 505.853
785 0 53.075 14.7527 783 88.7165 240.843 499.203
786 0 57.0932 14.6077 834 87.8381 240.879 491.518
787 0 58.0559 13.9693 811 90.6017 241.504 492.628
788 0 56.067 13.6979 768 92.1185 241.419 492.411
789 0 57.0667 12.1787 695 97.8432 240.96 491.416
790 0 58.0152 11.6693 677 98.7681 240.677 491.019
791 0 60.0397 11.2259 674 99.4822 240.792 493.944
792 0 62.0556 11.4413 710 97.338 240.755 493.373
793 0 64.0935 12.0761 774 93.6059 240.939 494.761
794 0 64.0603 12.0199 770 94.4519 240.977 494.878
795 0 73.1574 15.4461 1130 78.0451 241.451 488.352
796 0 71.103 13.8109 982 84.5336 241.612 489.268
797 0 74.1059 13.7641 1020 83.1608 241.906 488.922
798 0 76.1058 14.3616 1093 80.9268 241.495 488.382
799 0 76.1067 12.3905 943 86.1941 241.135 487.67
800 0 78.132 11.327 885 87.3537 241.427 488.661
801 0 81.1884 11.615 943 85.4146 241.302 488.528
802 0 83.1955 11.1545 928 85.6918 241.141 487.36
803 0 86.2554 10.6544 919 85.5811 240.773 486.653
804 1 44.0466 9.1494 403 82.5658 241.238 507.218
805 0 44.0385 10.0367 442 82.0385 241.133 505.785
806 0 45.0832 9.73755 439 82.8588 241.349 504.592
807 0 46.0386 10.3609 477 80.7484 241.581 506.161
808 0 49.0283 10.4225 511 79.8924 241.249 506.006
809 0 46.014 9.99696 460 83.8522 240.87 503.452
810 0 51.026 10.2693 524 81.5134 241.552 502.679
811 0 53.0358 10.0121 531 81.7024 240.889 502.463
812 0 50.0135 10.3572 518 83.7027 241.154 501.288
813 0 53.0284 10.0512 533 83.6004 240.66 500.711
814 1 65.0317 13.3935 871 68.3536 239.78 494.209
815 0 67.0415 13.3052 892 70.0886 239.698 495.003
816 0 66.0316 12.4183 820 74.8939 240.849 493.906
817 0 69.0201 14.5755 1006 71.4394 240.263 494.023
818 0 69.0349 12.8631 888 77.705 240.244 492.151
819 0 70.0654 13.5159 947 78.0137 241.013 489.663
820 0 71.0719 13.3949 952 81.4632 240.971 491.021
821 0 71.1086 12.6708 901 87.5683 240.03 487.818
822 0 69.0755 11.321 782 95.5115 239.834 487.496
823 0 72.1061 11.8159 852 96.3991 239.725 487.43
824 0 74.1227 11.7643 872 99.3131 239.888 488.586
825 0 79.0624 13.7486 1087 94.3947 239.499 492.067
826 0 81.0699 13.0258 1056 97.697 239.564 493.473
827 0 85.0431 13.8636 1179 96.9703 239.339 491.722
828 0 87.075 14.2176 1238 98.1107 240.202 490.727
829 0 89.0873 13.9638 1244 98.3931 239.55 490.082
830 0 91.0892 13.6899 1247 97.9006 239.872 490.5
831 0 93.0766 13.462 1253 101 239.326 488.657
832 0 98.1672 13.7724 1352 99.8846 239.519 486.917
833 0 100.188 13.9538 1398 100.981 238.464 485.603
834 0 102.217 13.755 1406 100.647 239.066 485.423
835 0 106.258 13.9283 1480 100.87 238.952 484.643
836 0 108.231 14.3027 1548 100.79 238.111 480.813
837 0 110.246 13.7783 1519 101.182 238.142 480.716
838 0 113.226 13.9279 1577 100.03 238.535 476.612
839 0 118.278 14.3814 1701 97.1293 237.811 474.717
840 1 65.1289 10.9782 715 98.5888 238.822 486.116
841 0 67.0921 11.596 778 96.8676 238.496 486.256
842 0 70.066 12.5596 880 95.358 238.885 486.09
843 0 71.0542 11.8501 842 97.1247 238.558 487.229
844 0 73.0423 12.13 886 93.8928 238.884 488.15
845 0 77.1093 12.3331 951 92.8181 238.063 488.568
846 0 77.0491 12.2519 944 93.2881 237.948 487.956
847 0 82.0903 12.9613 1064 90.4135 237.756 489.627
848 0 81.0694 11.632 943 95.438 238.171 488.567
849 0 86.1227 12.2151 1052 92.3394 238.269 487.484
850 0 88.16 12.6701 1117 91.6956 238.136 486.067
851 0 92.1747 12.5956 1161 90.6546 238.882 484.966
852 0 94.179 12.3064 1159 91.7299 238.458 483.661
853 0 97.2697 12.8406 1249 90.9199 238.003 481.951
854 0 99.1664 13.1496 1304 89.6012 237.755 483.202
855 0 101.211 12.4789 1263 91.8915 237.222 479.446
856 0 103.201 12.6064 1301 91.7563 237.399 477.806
857 0 108.222 12.0955 1309 92.903 237.269 476.094
858 0 110.242 12.3184 1358 93.7187 237.63 474.018
859 0 113.26 12.4493 1410 95.2539 237.486 473.064
860 0 117.419 12.1445 1426 95.6367 238.084 469.524
861 0 119.481 12.2948 1469 95.5037 237.952 467.666
862 0 123.33 12.7219 1569 95.3811 237.433 449.433
863 0 126.321 12.7769 1614 96.3513 238.198 447.221
864 0 129.355 12.7246 1646 96.1264 237.205 447.272
865 0 133.351 12.7783 1704 95.5241 236.877 446.085
866 0 137.354 13.1485 1806 89.0116 237.049 443.07
867 0 139.299 11.9814 1669 98.3625 237.294 444.107
868 0 144.331 11.827 1707 97.7211 237.194 441.578
869 0 148.31 12.0154 1782 96.2806 237.176 437.524
870 1 82.2355 10.2146 840 94.6429 237.285 468.357
871 0 88.2664 11.0121 972 92.5484 237.728 466.239
872 0 90.2115 12.116 1093 90.785 237.162 463.945
873 0 91.1376 12.2562 1117 92.4306 237.76 464.324
874 0 95.1381 12.1823 1159 93.7714 238.154 461.848
875 0 98.0749 12.7046 1246 93.0072 238.053 462.904
876 0 97.1277 11.9842 1164 97.8771 238.391 459.832
877 0 99.1333 11.2273 1113 100.607 239.025 460.615
878 0 104.211 12.0045 1251 98.9392 238.394 460.877
879 0 108.253 11.5747 1253 99.3528 238.022 462.187
880 0 112.188 12.2918 1379 98.3358 237.51 459.344
881 0 115.127 12.4819 1437 97.8984 237.521 458.439
882 0 117.182 11.6059 1360 101.083 238.274 459.196
883 1 61.1209 10.8964 666 100.423 238.814 483.935
884 0 64.2292 11.7548 755 98.3457 238.634 483.728
885 0 66.0942 11.8165 781 99.3252 239.658 486.312
886 0 67.1503 12.1816 818 100.243 238.984 491.703
887 0 68.2266 12.3559 843 99.3405 239.174 490.377
888 0 71.1526 14.2932 1017 93.6126 239.046 486.388
889 0 73.1652 13.8727 1015 94.4305 239.13 486.101
890 0 75.18 13.6606 1027 93.6514 238.741 487.229
891 0 76.1746 12.8652 980 95.6235 239.947 487.34
892 0 76.0884 12.7483 970 96.4825 239.886 487.571
893 0 77.1389 12.5877 971 97.4892 239.768 487.636
894 0 80.1152 12.6568 1014 95.8974 239.245 486.881
895 0 82.1065 12.6787 1041 95.658 239.04 485.497
896 0 85.0908 13.1977 1123 95.2369 238.108 485.593
897 0 87.1434 12.9212 1126 94.4867 238.324 483.899
898 0 88.1086 12.303 1084 96.0729 239.137 481.77
899 0 92.0942 12.4763 1149 94.9878 239.374 481.21
900 0 96.1293 11.9735 1151 95.51 239.751 479.1
901 0 98.0824 12.306 1207 95.5394 239 477.185
902 0 99.0689 12.2137 1210 96.976 239.618 474.374
903 0 102.157 12.2752 1254 96.8325 239.765 472.482
904 0 107.136 12.3394 1322 96.3949 239.744 472.661
905 0 108.096 12.4241 1343 97.7826 240.065 469.85
906 0 113.122 12.3318 1395 98.6065 239.879 451.953
907 0 114.181 12.3926 1415 100.069 239.714 449.47
908 0 119.091 12.4191 1479 98.9763 239.569 450.525
909 0 123.065 13.2369 1629 97.1639 239.745 452.621
910 0 126.144 13.0645 1648 98.199 239.365 451.274
911 0 130.212 13.8006 1797 96.3066 239.7 452.133
912 0 132.201 13.4038 1772 97.7692 239.817 450.976
913 0 136.238 13.0948 1784 97.3711 239.721 452.59
914 0 142.269 13.7275 1953 95.5576 238.829 453.295
915 0 147.21 13.3143 1960 95.6796 238.881 452.668
916 0 152.198 13.5678 2065 94.8174 238.888 448.47
917 0 156.168 13.3894 2091 94.7221 238.343 446.644
918 1 92.0736 10.4807 965 97.1358 238.969 480.007
919 0 95.0842 11.4425 1088 95.2923 239.526 480.067
920 0 101.124 12.6775 1282 90.8284 239.101 477.463
921 0 102.191 12.4766 1275 92.92 239.056 473.464
922 0 105.292 13.0115 1370 90.9168 239.962 471.912
923 0 111.361 13.0567 1454 89.7724 239.36 471.056
924 0 111.153 12.8741 1431 92.7526 238.365 468.512
925 0 116.266 13.581 1579 90.0728 238.723 468.287
926 0 120.224 13.2919 1598 91.7315 238.213 464.63
927 0 121.216 12.7294 1543 94.1348 239.013 464.897
928 0 126.202 13.1535 1660 92.1614 238.357 464.389
929 0 131.241 13.761 1806 90.2658 236.458 439.694
930 0 134.166 13.3939 1797 91.394 237.205 434.663
931 0 137.243 13.4725 1849 88.3202 237.345 434.913
932 0 139.276 12.6296 1759 88.672 236.984 435.846
933 0 143.274 12.1515 1741 88.8828 236.555 434.834
934 0 147.266 12.9833 1912 87.126 236.213 432.611
935 0 152.227 12.9215 1967 87.7605 236.884 430.078
936 0 156.231 12.8016 2000 87.411 236.887 429.236
937 0 161.24 12.7264 2052 87.769 236.103 427.082
938 0 164.278 12.771 2098 88.1249 236.05 428.367
939 0 171.226 13.6428 2336 85.7723 236.179 427.339
940 0 175.227 13.3826 2345 86.1232 236.466 421.83
941 0 182.273 13.6553 2489 84.9429 236.018 423.096
942 0 188.364 13.0226 2453 87.4729 235.754 418.109
943 0 194.385 12.9948 2526 88.9549 235.713 414.801
944 0 200.342 13.5019 2705 89.3006 235.935 413.526
945 0 207.252 13.4377 2785 90.7706 235.676 411.043
946 1 155.2 12.6676 1966 93.3138 235.597 435.981
947 0 161.257 13.339 2151 92.8159 235.764 433.242
948 0 165.2 13.8014 2280 93.7539 235.943 431.689
949 0 171.341 14.0363 2405 93.5414 237.083 428.925
950 0 176.243 13.2033 2327 97.6119 237.567 424.52
951 0 183.287 13.5907 2491 104.023 236.366 425.04
952 0 188.356 14.0267 2642 103.587 236.679 424.001
953 0 193.269 13.5355 2616 106.43 238.057 425.482
954 0 199.366 12.8357 2559 107.084 237.587 426.752
955 0 206.275 14.088 2906 105.887 237.022 425.097
956 0 213.258 13.4907 2877 97.194 236.92 426.781
957 0 219.3 13.9261 3054 97.0753 236.701 423.899
958 0 225.303 13.564 3056 98.9329 237.504 422.209
959 0 232.27 14.0741 3269 97.2111 236.693 423.162
960 0 234.287 13.6073 3188 99.3021 237.577 418.642
961 1 180.184 12.7647 2300 101.674 237.79 445.83
962 0 185.137 13.1416 2433 100.776 236.696 442.277
963 0 190.205 14.2688 2714 97.951 236.558 439.766
964 0 195.183 14.6119 2852 97.6238 236.392 436.893
965 0 201.213 15.2226 3063 95.7323 237.228 434.52
966 0 204.332 13.9577 2852 101.281 237.183 427.336
967 0 211.232 14.3539 3032 100 237.737 429.701
968 0 215.335 13.4813 2903 103.417 237.064 425.816
969 0 223.345 13.2217 2953 103.764 237.42 422.051
970 0 230.303 13.5039 3110 103.219 236.957 417.751
971 0 239.441 13.5566 3246 103.087 237.406 406.256
972 1 64.1809 10.8288 695 86.8259 237.347 482.239
973 0 65.2961 11.2258 733 85.5825 238.173 482.3
974 0 67.244 11.6144 781 86.7298 238.471 482.764
975 0 69.2239 12.7124 880 84.3523 237.812 481.49
976 0 71.057 13.3977 952 83.0032 239.784 483.291
977 0 73.0598 13.5232 988 82.4595 240.159 485.598
978 0 77.0735 14.5446 1121 78.4005 240.052 487.688
979 0 79.0642 13.4954 1067 89.2099 241.445 486.986
980 0 81.0739 13.4322 1089 89.8944 240.536 487.747
981 0 83.0573 13.593 1129 91.1541 240.831 488.044
982 0 84.0352 12.5305 1053 85.6667 241.014 488.018
983 0 84.0477 11.9218 1002 89.4192 240.903 488.312
984 0 90.1014 11.7978 1063 90.0216 240.332 488.584
985 1 46.0564 9.9009 456 90.8048 240.136 506.612
986 0 48.276 11.2893 545 86.7211 239.8 502.44
987 0 50.0391 11.4511 573 86.8621 240.209 504.122
988 0 50.0384 11.4112 571 88.8687 240.503 503.706
989 0 53.0223 11.8063 626 88.1677 239.653 505.109
990 0 53.0216 11.2596 597 89.3082 239.868 502.603
991 0 55.0241 11.704 644 88.9736 239.27 503.492
992 0 54.049 11.4896 621 91.8084 239.444 502.755
993 0 56.0188 11.4604 642 91.5467 240.011 502.229
994 0 62.0735 13.2907 825 83.9806 239.673 487.633
995 0 60.0704 11.7029 703 91.0782 239.275 485.401
996 0 62.0889 11.3869 707 92.819 239.454 491.16
997 0 60.058 12.0883 726 92.9435 240.287 497.803
998 0 64.0766 13.1561 843 88.7307 239.709 495.419
999 0 68.0564 14.8113 1008 83.002 238.766 493.174
1000 0 70.0652 13.7158 961 86.0312 239.491 491.978
1001 0 69.0903 13.1712 910 89.7769 239.398 492.152
1002 0 72.0997 13.5229 975 88.5262 239.895 491.193
1003 0 71.1364 12.3706 880 93.1182 239.944 491.391
1004 0 74.0886 12.0126 890 94.0146 240.131 489.696
1005 0 77.1514 12.2227 943 92.9629 240.845 488.441
1006 0 78.0909 13.0873 1022 90.7769 241.139 489.159
1007 0 80.1182 12.9683 1039 93.3378 241.625 486.957
1008 0 83.101 13.2971 1105 91.8299 241.436 486.966
1009 0 86.1509 13.6621 1177 91.1852 240.799 485.493
1010 0 86.1562 12.4889 1076 96.3996 240.316 483.856
1011 0 91.15 13.0225 1187 94.9259 240.2 481.979
1012 0 91.1685 12.8773 1174 97.1882 239.453 481.439
1013 0 96.1529 13.2601 1275 96.2353 238.631 477.715
1014 0 99.1439 12.8298 1272 97.669 239.403 476.509
1015 0 103.214 13.3897 1382 96.1013 238.601 474.897
1016 1 56.0541 10.8467 608 96.4095 239.273 499.684
1017 0 56.072 11.2177 629 97.0588 239.029 500.1
1018 0 58.0445 11.5256 669 95.7698 241.12 497.749
1019 0 61.0383 12.1727 743 94.0538 240.421 481.186
1020 0 63.012 12.3945 781 93.7183 240.448 481.557
1021 0 64.1116 12.0883 775 94.9613 241.435 485.499
1022 0 65.1042 12.5184 815 94.9583 241.114 485.682
1023 0 66.1678 12.4079 821 96.3082 241.028 484.086
1024 0 68.1513 12.3989 845 95.5491 240.837 482.914
1025 0 70.1797 12.867 903 94.0698 240.381 482.654
1026 0 71.1442 12.805 911 95.2108 239.969 483.724
1027 0 74.1333 12.464 924 96.2013 239.994 484.434
1028 0 76.1272 13.0308 992 95.8145 239.516 484.334
1029 0 77.1865 12.9427 999 95.9349 240.527 485.996
1030 0 81.2636 12.6133 1025 97.1434 239.226 485.302
1031 0 83.1672 13.2384 1101 95.7212 240.184 486.538
1032 0 85.2249 12.9892 1107 96.7642 239.872 486.904
1033 0 88.1651 12.8055 1129 98.1647 239.775 486.509
1034 0 90.1313 12.9034 1163 98.3525 240.296 487.184
1035 0 93.2108 12.9277 1205 99.0365 239.5 483.624
1036 0 93.139 12.3793 1153 101.757 238.814 482.83
1037 0 96.1349 12.0976 1163 101.8 239.378 480.837
1038 0 99.135 12.3569 1225 100.434 239.343 479.821
1039 0 104.105 12.5931 1311 99.4027 238.563 480.075
1040 0 106.118 12.4107 1317 100.251 239.809 477.725
1041 0 107.146 12.5437 1344 100.615 239.406 477.436
1042 0 109.138 12.443 1358 102.896 239.433 474.553
1043 0 113.134 12.6487 1431 102.004 238.695 475.938
1044 0 115.146 12.4972 1439 102.978 238.849 473.557
1045 0 118.169 12.2198 1444 103.904 239.082 472.294
1046 0 120.225 12.0607 1450 104.014 238.461 470.061
1047 0 125.154 12.4567 1559 102.211 238.505 468.736
1048 0 130.24 12.0009 1563 102.495 237.982 466.566
1049 0 134.211 12.3462 1657 102.625 238.47 455.783
1050 0 138.114 12.6055 1741 101.288 238.677 458.252
1051 0 143.254 12.4254 1780 101.503 238.985 455.421
1052 0 148.234 12.6489 1875 100.687 239.179 459.852
1053 1 83.1247 11.6452 968 100.443 239.972 489.783
1054 0 86.2315 12.0721 1041 106.781 240.733 486.792
1055 0 88.1888 12.4506 1098 107.326 241.719 483.549
1056 0 92.1366 12.3838 1141 109.175 240.672 481.625
1057 0 93.1693 12.8046 1193 109.272 240.725 479.267
1058 0 97.1671 12.5866 1223 110.096 240.747 478.423
1059 0 99.1433 13.0115 1290 109.698 240.438 478.357
1060 0 101.152 12.6444 1279 111.339 240.059 474.413
1061 0 105.202 12.3002 1294 112.786 240.171 470.733
1062 0 108.173 12.1657 1316 112.6 240.518 472.859
1063 0 111.238 12.0912 1345 113.335 240.528 471.179
1064 0 115.167 12.2691 1413 112.613 241.313 469.463
1065 0 116.154 12.2166 1419 112.18 240.634 467.716
1066 1 65.0775 10.7103 697 109.753 240.756 496.458
1067 0 69.0374 11.3996 787 109.352 240.87 496.776
1068 0 70.0734 11.545 809 110.37 240.392 491.834
1069 0 71.1425 12.229 870 108.39 240.905 490.633
1070 0 74.1089 13.0753 969 106.219 240.417 492.747
1071 0 76.0968 13.0229 991 107.749 240.491 490.519
1072 0 77.0987 12.5164 965 111.564 240.793 488.467
1073 0 80.0541 12.5915 1008 111.767 240.765 486.671
1074 0 84.1211 13.2904 1118 108.779 240.542 486.894
1075 0 85.0868 13.4098 1141 109.802 240.791 487.814
1076 0 86.1857 13.761 1186 108.591 240.778 487.228
1077 0 89.1121 13.4213 1196 112.426 240.72 485.356
1078 0 92.1714 13.3013 1226 112.837 240.119 483.754
1079 0 96.1324 13.4814 1296 112.779 239.619 483.054
1080 0 97.1125 12.8305 1246 116.815 239.69 481.343
1081 1 53.1401 11.1215 591 114.198 240.105 502.093
1082 0 54.1693 11.6302 630 114.79 240.041 501.33
1083 0 56.0972 11.1949 628 117.072 240.5 499.941
1084 0 58.1039 12.099 703 113.498 240.03 496.472
1085 0 61.1143 12.4848 763 111.893 240.253 483.512
1086 0 60.1344 12.788 769 115.423 240.679 483.629
1087 0 60.1025 13.294 799 113.915 239.999 482.487
1088 0 63.2171 13.0186 823 112.934 239.674 482.683
1089 0 66.095 12.9662 857 127.953 239.75 482.175
1090 0 68.1243 13.1965 899 126.131 240.218 483.172
1091 0 69.1612 12.507 865 130.379 239.975 481.857
1092 0 70.1986 12.2937 863 131.969 239.691 481.346
1093 0 73.2569 12.4493 912 131.084 240.068 480.749
1094 0 76.2286 13.0004 991 126.65 241.121 481.384
1095 0 77.1719 13.8781 1071 124.626 240.453 480.835
1096 0 79.2287 13.4421 1065 126.087 240.243 479.148
1097 0 81.255 13.6484 1109 125.176 239.939 477.028
1098 0 82.2676 13.9666 1149 126 240.028 474.7
1099 0 85.2283 13.7161 1169 125.882 240.991 476.957
1100 0 88.2461 13.5417 1195 125.066 240.779 475.229
1101 0 88.259 13.8343 1221 124.736 240.636 473.541
1102 0 92.3363 13.7974 1274 123.845 239.901 471.841
1103 0 92.3144 13.9956 1292 126.445 240.589 470.628
1104 0 96.3421 13.9088 1340 126.796 239.557 467.781
1105 0 99.2248 13.1923 1309 130.29 240.193 468.148
1106 0 102.297 14.2819 1461 126.552 239.867 467.362
1107 0 103.381 14.0355 1451 128.437 239.833 464.581
1108 0 105.467 14.3647 1515 127.958 239.811 463.933
1109 0 109.438 14.2912 1564 128.215 239.045 451.21
1110 0 114.423 14.3939 1647 125.872 239.137 450.512
1111 0 116.359 14.524 1690 124.65 238.966 447.518
1112 1 62.3448 11.9176 743 126.292 238.746 474.207
1113 0 63.23 11.6559 737 126.583 239.198 472.427
1114 0 66.3215 12.756 846 122.106 239.24 470.528
1115 0 65.2499 12.8889 841 123.234 239.64 469.859
1116 0 69.1636 12.4488 861 122.711 241.069 476.623
1117 0 72.2027 12.7558 921 120.586 240.1 479.971
1118 0 73.2098 12.3891 907 122.415 239.82 480.122
1119 0 74.1832 12.8601 954 121.877 239.938 479.792
1120 0 77.2069 12.46 962 122.95 239.691 477.849
1121 0 78.2659 12.7131 995 122.477 240.065 479.419
1122 0 79.2957 13.0146 1032 123.401 240.816 476.726
1123 0 83.2403 12.6982 1057 122.694 240.293 477.449
1124 0 85.2762 13.2393 1129 121.962 240.475 476.513
1125 0 85.4023 12.7631 1090 125.412 239.911 475.284
1126 0 90.3382 13.0952 1183 120.723 240.582 475.476
1127 0 92.3257 12.9866 1199 121.782 239.651 474.146
1128 0 94.3596 13.067 1233 122.148 238.781 472.865
1129 0 96.3534 12.4749 1202 123.339 239.117 472.314
1130 0 101.327 12.7804 1295 120.447 238.556 471.563
1131 0 102.353 12.5155 1281 121.856 238.671 469.847
1132 0 106.315 13.1025 1393 118.557 239.559 469.371
1133 0 110.248 12.8801 1420 117.807 239.02 468.917
1134 0 112.222 12.4664 1399 120 239.179 466.213
1135 0 117.264 12.7916 1500 120.153 239.401 463.991
1136 0 121.182 12.8236 1554 119.023 239.44 463.032
1137 0 125.187 12.3814 1550 119.935 238.957 462.177
1138 0 126.346 12.8932 1629 119.656 239.696 460.066
1139 0 132.295 13.5001 1786 115.434 239.536 460.917
1140 1 70.1567 13.2133 927 112.647 239.279 490.767
1141 0 71.2116 12.9333 921 114.183 238.779 489.488
1142 0 71.239 13.1389 936 115.02 238.632 489.408
1143 0 75.268 12.8209 965 116.076 238.472 488.078
1144 0 75.3065 13.2525 998 118.389 238.78 488.503
1145 0 79.2809 13.345 1058 118.189 238.575 488.724
1146 0 78.3616 12.7741 1001 121.546 238.492 489.185
1147 0 83.422 13.5336 1129 119.628 237.982 488.333
1148 0 85.4181 13.4046 1145 120.92 238.307 487.617
1149 0 87.3177 13.2161 1154 122.914 238.1 486.161
1150 0 89.4697 13.39 1198 109.482 238.159 485.186
1151 0 93.465 14.1015 1318 107.646 237.577 485.294
1152 0 96.5157 13.8838 1340 108.493 237.037 483.011
1153 0 99.5292 14.2571 1419 107.621 236.722 480.561
1154 0 100.507 13.7403 1381 109.857 237.66 478.77
1155 0 102.423 13.7566 1409 110.767 237.518 478.35
1156 0 105.532 13.3135 1405 112.784 237.257 476.493
1157 0 107.403 13.1374 1411 111.58 237.928 477.605
1158 0 111.453 13.4406 1498 110.983 237.993 476.287
1159 0 113.41 13.3057 1509 112.268 238.357 473.921
1160 0 116.467 13.214 1539 110.395 237.778 473.613
1161 0 118.59 13.7027 1625 109.9 237.101 471.864
1162 0 122.466 13.5466 1659 109.615 236.916 469.324
1163 0 126.43 13.9761 1767 107.315 237.238 468.55
1164 0 129.477 13.848 1793 107.416 236.87 465.548
1165 0 132.426 14.038 1859 106.039 237.01 464.636
1166 0 137.538 14.2433 1959 105.581 236.705 462.553
1167 0 139.581 13.9919 1953 106.967 237.671 461.042
1168 0 143.627 14.3079 2055 106.729 237.668 457.108
1169 0 149.617 14.3366 2145 105.86 237.686 456.617
1170 0 152.663 13.9261 2126 107.82 237.755 452.568
1171 0 158.489 14.2786 2263 106.547 237.703 449.799
1172 0 162.461 13.831 2247 108.389 237.399 448.182
1173 0 166.636 15.9029 2650 96.5257 237.073 448.74
1174 0 174.565 13.9833 2441 113.696 236.89 441.424
1175 0 178.541 14.2489 2544 108.7 236.623 440.594
1176 0 184.565 13.9355 2572 108.566 236.582 438.067
1177 1 101.469 11.8066 1198 106.218 237.764 480.216
1178 0 104.476 12.1655 1271 105.426 237.558 478.077
1179 0 106.425 12.3467 1314 106.328 237.47 475.01
1180 0 109.384 13.0184 1424 104.82 237.551 474.066
1181 0 112.528 12.8324 1444 105.285 237.401 473.689
1182 0 117.336 13.1673 1545 104.551 237.927 472.297
1183 0 121.405 12.9401 1571 105.391 237.25 470.137
1184 0 124.324 12.9419 1609 105.268 236.966 469.615
1185 0 127.35 12.9957 1655 105.385 237.06 466.795
1186 0 132.354 13.1465 1740 104.949 237.342 466.703
1188 0 135.401 12.8359 1738 105.594 237.527 464.376
1189 0 139.336 12.5022 1742 107.848 237.193 462.086
1190 1 75.337 11.0172 830 107.388 237.52 494.046
1191 0 78.2659 11.4993 900 107.827 236.987 491.731
1192 0 80.3355 12.4602 1001 105.477 238.094 489.778
1193 0 80.3472 11.7241 942 110.425 237.483 488.316
1194 0 87.4145 12.5494 1097 108.152 236.686 486.116
1195 0 89.2909 12.7113 1135 109.132 236.285 484.29
1196 0 92.336 12.6278 1166 109.178 236.564 483.498
1197 0 95.3695 13.2537 1264 107.469 236.913 482.142
1198 0 97.2906 13.1256 1277 109.067 236.43 481.921
1199 0 100.324 13.4066 1345 109.068 236.4 479.786
1200 0 100.34 12.8364 1288 112.628 236.28 478.603
1201 0 105.305 12.7249 1340 111.526 236.578 477.587
1202 0 108.336 12.5905 1364 112.506 236.474 475.772
1203 0 110.35 12.5782 1388 113.341 236.569 473.532
1204 0 115.237 12.7476 1469 113.315 236.276 471.285
1205 0 118.286 12.6896 1501 114.394 236.304 469.961
1206 0 123.261 13.0211 1605 112.571 235.515 468.647
1207 0 126.24 12.9594 1636 114.18 236.556 466.699
1208 0 128.314 12.8201 1645 115.167 236.565 466.692
1209 1 66.1732 10.9108 722 118.537 236.972 494.896
1210 0 70.2443 11.8301 831 116.174 237.331 492.862
1211 0 75.3095 12.2561 923 114.613 237.011 489.603
1212 0 77.366 12.4215 961 114.135 237.429 489.008
1213 0 80.2735 13.0803 1050 114.115 237.59 486.385
1214 0 80.3238 12.4496 1000 117.594 237.035 486.772
1215 0 83.3891 12.4237 1036 118.634 236.923 486.004
1216 0 86.3573 13.0157 1124 117.091 237.157 485.021
1217 0 88.3508 12.8465 1135 118.567 236.99 485.014
1218 0 91.3315 12.6791 1158 120.304 237.117 482.254
1219 0 93.312 12.8386 1198 121.174 237.073 482.676
1220 0 95.2581 12.5344 1194 123.245 236.946 481.166
1221 0 99.247 12.9979 1290 122.359 236.841 478.706
1222 0 102.2 12.9843 1327 122.515 237.113 477.972
1223 0 104.19 12.9187 1346 123.753 236.827 475.606
1224 0 109.195 13.1783 1439 121.769 236.259 474.301
1225 0 111.128 12.7961 1422 125.133 236.261 472.702
1226 0 115.127 12.9943 1496 123.892 236.564 470.519
1227 0 118.117 12.7163 1502 124.475 236.58 470.138
1228 0 121.159 12.4713 1511 124.861 236.432 468.2
1229 1 67.0577 9.7528 654 116.789 236.177 497.09
1230 0 68.1023 10.8954 742 116.094 236.472 495.265
1231 0 71.0609 11.1313 791 116.029 237.22 496.234
1232 0 74.1673 11.5145 854 113.129 237.861 496.064
1233 0 76.1369 11.9259 908 113.258 238.671 494.655
1234 0 77.0997 10.9339 843 116.575 238.593 495.13
1235 0 79.1239 11.6526 922 115.599 238.402 493.244
1236 0 81.1407 11.8067 958 114.617 238.157 492.939
1237 0 83.1081 11.5633 961 115.529 238.499 491.955
1238 0 84.0874 11.5951 975 116.307 238.359 489.235
1239 0 86.2065 11.5304 994 117.638 238.562 489.089
1240 0 89.1988 12.2872 1096 113.792 238.536 488.547
1241 0 92.1164 11.8111 1088 114.815 239.19 486.625
1242 0 92.1313 11.6898 1077 115.247 239.345 484.752
1243 0 95.1921 11.4505 1090 114.509 239.179 484.046
1244 0 98.1532 11.6145 1140 113.778 239.517 482.712
1245 0 99.1306 11.5202 1142 114.25 240.167 480.824
1246 0 104.121 11.842 1233 113.033 239.243 479.808
1247 0 104.052 11.3886 1185 114.619 238.049 478.909
1248 0 110.037 11.9414 1314 112.818 237.989 476.476
1249 0 111.077 11.5955 1288 113.828 237.583 474.578
1250 0 116.074 11.4409 1328 112.494 238.163 473.306
1251 0 119.068 11.9596 1424 114.229 238.333 472.869
1252 1 67.0634 9.75196 654 108.893 239.011 498.263
1253 0 68.0599 10.4026 708 108.448 239.852 497.213
1254 0 69.1184 10.822 748 110.77 240.314 496.092
1255 0 71.07 11.1439 792 107.948 239.249 495.111
1256 0 73.0945 11.2183 820 107.42 239.27 494.461
1257 0 76.1013 11.5898 882 104.897 238.851 494.33
1258 0 76.0737 11.0288 839 110.324 238.992 491.976
1259 0 79.0875 11.6074 918 107.597 238.603 492.759
1260 0 80.0866 11.2254 899 109.779 239.155 489.129
1261 0 83.0779 11.2425 934 108.791 238.88 488.383
1262 0 84.0546 11.1475 937 109.095 238.716 487.303
1263 0 85.0717 10.9555 932 109.85 239.116 486.496
1264 0 88.0723 10.7525 947 109.645 238.828 485.938
1265 0 90.1099 11.1308 1003 108.014 239.604 483.589
1266 0 92.0442 11.0599 1018 108.755 238.454 482.562
1267 0 93.0972 10.8274 1008 106.098 238.826 484.347
1268 0 96.1108 11.1018 1067 105.452 238.99 481.258
1269 0 97.1145 10.6369 1033 107.151 238.52 480.139
1270 0 100.066 10.3032 1031 107.334 238.683 480.548
1271 0 102.097 10.255 1047 105.964 239.587 478.189
1272 0 102.112 9.96942 1018 106.468 239.036 479.944
1273 0 108.163 10.5674 1143 106.166 239.122 477.392
1274 0 111.169 11.0283 1226 105.709 239.637 474.692
1275 0 112.232 10.0061 1123 108.167 239.648 473.265
1276 0 116.226 9.87728 1148 108.875 240.001 470.625
1277 1 64.1602 9.18015 589 103.737 240 496.244
1278 0 67.0951 10.2839 690 101.138 238.249 494.083
1279 0 68.0428 10.2142 695 103.488 238.371 494.835
1280 0 74.037 11.8049 874 98.3192 239.357 492.201
1281 0 74.0365 11.1026 822 101.223 238.923 491.332
1282 0 76.0617 11.2803 858 101.695 239.699 492.131
1283 0 78.0322 11.2518 878 102.761 239.885 490.263
1284 0 79.0314 10.8185 855 104.549 240.315 490.68
1285 0 84.0827 12.1428 1021 99.9843 240.413 489.461
1286 0 85.042 11.7707 1001 101.981 240.069 487.588
1287 0 88.0527 12.1177 1067 101.901 239.738 486.491
1288 0 88.0538 11.9245 1050 103.991 239.559 486.325
1289 0 90.084 12.233 1102 104.162 239.595 485.174
1290 0 93.0603 12.5295 1166 103.653 239.474 483.279
1291 0 95.1228 12.3209 1172 104.813 239.789 482.74
1292 0 99.1087 12.2492 1214 104.333 240.114 480.7
1293 0 100.087 11.8497 1186 105.902 239.851 480.932
1294 0 104.079 12.5098 1302 103.716 239.992 478.742
1295 0 107.153 12.1229 1299 103.58 239.701 478.41
1296 0 110.2 12.9673 1429 103.465 239.215 475.421
1297 0 112.136 12.7167 1426 104.396 238.211 473.48
1298 0 116.158 12.3538 1435 99.8843 239.72 475.658
1299 0 118.124 12.4614 1472 99.5516 239.946 474.809
1300 0 120.183 11.6157 1396 101.514 239.606 473.923
1301 1 70.2014 10.4841 736 101.904 238.817 497.043
1302 0 70.1133 11.2532 789 102.169 239.487 495.455
1303 0 74.1379 11.8023 875 99.4446 239.285 493.609
1304 0 75.1283 11.9928 901 100.103 239.462 493.627
1305 0 78.1272 12.1469 949 99.2687 239.581 492.698
1306 0 81.1525 11.5462 937 100.505 239.536 492.292
1307 0 81.2017 12.3766 1005 98.8796 239.686 491.194
1308 0 83.1931 12.0563 1003 101.567 238.968 490.498
1309 0 85.1984 12.0425 1026 100.906 238.986 488.7
1310 0 87.1979 12.076 1053 100.827 238.379 488.17
1311 0 91.2469 11.9237 1088 100.444 238.613 486.097
1312 0 90.2431 11.1477 1006 103.95 238.287 486.217
1313 0 95.2838 12.3106 1173 99.8022 238.087 485.652
1314 0 96.3082 11.5255 1110 100.138 238.012 482.966
1315 0 96.2605 10.9806 1057 101.227 237.812 479.685
1316 0 101.249 12.0298 1218 98.0337 237.445 478.453
1317 0 102.325 10.9651 1122 101.013 237.512 480.275
1318 0 104.361 11.2494 1174 101.799 237.722 473.606
1319 0 105.358 11.3802 1199 101.021 237.775 472.677
1320 0 106.259 10.7379 1141 103.684 238.33 471.571
1321 0 110.313 11.3767 1255 101.964 237.958 471.947
1322 0 114.345 11.3516 1298 101.855 238.031 472.227
1323 0 115.382 10.4956 1211 105.186 238.172 471.668
1324 0 121.279 11.9642 1451 100.062 239.316 471.396
1325 0 125.303 11.7555 1473 100.822 238.494 470.702
1326 0 127.257 12.0936 1539 99.5789 238.667 468.727
1327 0 129.292 11.8105 1527 101.861 239.648 466.13
1328 0 135.298 12.2618 1659 101.11 238.72 463.723
1329 0 137.338 11.8685 1630 103.936 237.361 462.01
1330 0 142.357 12.3844 1763 102.521 237.985 462.686
1331 0 146.364 12.5919 1843 102.536 238.556 459.536
1332 0 150.274 12.9031 1939 102.795 237.876 459.776
1333 0 154.287 12.7814 1972 104.88 238.394 457.284
1334 0 157.269 12.4627 1960 107.266 238.243 455.892
1335 0 160.281 12.8275 2056 106.294 237.796 454.239
1336 0 165.235 12.8604 2125 107.56 237.573 450.412
1337 0 170.286 12.8607 2190 107.617 238.438 448.404
1338 0 173.316 12.7974 2218 109.456 237.738 447.161
1339 0 178.273 12.7557 2274 110.86 238.115 444.17
1340 0 182.276 13.1175 2391 109.967 237.027 444.972
1341 0 186.288 12.6417 2355 112.903 237.382 440.644
1342 0 190.262 12.7298 2422 113.365 237.766 436.964
1343 0 194.184 12.4161 2411 113.966 237.889 439.83
1344 0 198.213 13.102 2597 113.264 237.407 437.873
1345 0 201.226 12.6674 2549 115.599 237.643 433.244
1346 0 210.203 13.6392 2867 111.907 237.844 431.078
1347 0 214.197 12.8714 2757 116.48 237.399 426.603
1348 0 221.182 13.3058 2943 113.485 237.384 424.478
1349 1 165.128 12.9597 2140 116.195 237.591 450.895
1350 0 171.132 13.4283 2298 115.717 238.34 448.43
1351 0 175.078 12.96 2269 116.725 237.728 447.015
1352 0 179.226 14.0381 2516 113.458 237.74 443.288
1353 0 186.192 14.5065 2701 110.444 237.267 442.491
1354 0 190.217 14.3467 2729 111.904 237.125 440.005
1355 0 194.264 13.7699 2675 116.037 236.911 436.418
1356 0 199.254 14.1427 2818 114.392 237.829 433.813
1357 0 205.36 14.4186 2961 114.627 237.918 430
1358 0 210.383 14.2264 2993 116.12 237.628 430.754
1359 0 216.339 14.6483 3169 115.454 237.614 427.314
1360 0 222.561 14.6297 3256 116.78 237.604 420.722
1361 1 168.47 11.7053 1972 125.966 237.441 449.429
1362 0 172.55 12.8368 2215 119.429 237.099 447.71
1363 0 176.433 12.6451 2231 118.059 237.521 443.844
1364 0 180.403 12.8102 2311 118.145 237.524 441.08
1365 0 186.572 13.2388 2470 117.73 237.329 438.487
1366 0 191.41 12.4549 2384 117.65 236.516 430.161
1367 0 194.202 12.5436 2436 116.957 236.648 423.838
1368 1 65.0434 9.50135 618 108.684 237.725 489.188
1369 0 67.037 10.3376 693 104.788 238.121 491.251
1370 0 68.0306 10.8481 738 103.934 238.157 490.352
1371 0 71.0893 11.4082 811 104.72 237.343 501.39
1372 0 71.0651 11.3276 805 105.724 238.47 499.775
1373 0 71.1703 10.777 767 108.982 237.771 499.215
1374 0 75.1101 11.3833 855 106.942 236.835 499.142
1375 0 77.1912 12.333 952 103.034 237.731 497.896
1376 0 77.127 11.708 903 106.266 237.701 495.535
1377 0 79.1711 11.6836 925 99.0768 236.671 496.235
1378 0 81.1581 12.3832 1005 99.7841 236.213 495.618
1379 0 80.1613 11.8262 948 100.588 236.763 496.149
1380 0 82.2021 11.5812 952 105.45 236.902 494.619
1381 0 80.1792 11.8485 950 109.551 236.855 494.399
1382 0 83.2137 12.546 1044 106.957 236.8 494.33
1383 0 85.1596 12.5646 1070 104.648 236.968 492.756
1384 0 88.1941 12.4385 1097 102.496 236.73 490.681
1385 0 90.2287 11.8809 1072 98.8106 237.308 487.455
1386 0 93.2819 11.6528 1087 98.5308 237.324 488.136
1387 0 92.3225 11.9472 1103 97.9356 237.073 486.841
1388 0 93.2249 10.4693 976 99.7223 237.552 483.172
1389 0 95.2517 10.8764 1036 98.0232 237.492 481.432
1390 0 97.1398 10.9842 1067 96.9147 236.059 482.655
1391 0 100.184 11.0297 1105 96.9602 236.588 480.274
1392 0 101.235 10.5497 1068 98.2266 236.314 482.554
1393 0 103.398 10.7642 1113 99.2516 236.421 481.314
1394 1 64.26 9.7728 628 101.129 235.841 501.933
1395 0 65.3402 11.0499 722 99.1828 236.641 500.866
1396 0 67.2902 10.3135 694 100.89 236.602 499.421
1397 0 67.277 10.9696 738 100.153 236.351 498.715
1398 0 68.3315 11.1222 760 101.105 236.73 498.374
1399 0 70.1235 11.4512 803 101.026 237.158 499.134
1400 0 70.0788 11.3301 794 103.426 235.917 501.384
1401 0 73.0422 11.1032 811 105.313 235.36 495.101
1402 0 75.1464 11.5508 868 104.204 235.347 496.321
1403 0 76.0706 11.91 906 105.27 235.704 492.898
1404 0 77.1001 11.4786 885 106.009 235.62 496.751
1405 0 80.1425 11.9662 959 104.92 235.319 494.616
1406 0 80.1786 11.8111 947 106.973 235.366 494.036
1407 0 83.0964 11.8898 988 106.71 236.425 494.247
1408 0 85.1542 12.448 1060 105.06 236.946 488.546
1409 0 87.1958 11.7781 1027 108.002 237.063 488.129
1410 0 89.1963 11.8054 1053 108.834 237.077 486.798
1411 0 90.2024 11.3412 1023 110.474 235.845 484.685
1412 0 94.2883 11.9633 1128 107.974 236.162 483.948
1413 0 94.062 10.8333 1019 109.976 237.385 480.206
1414 0 95.0919 10.8211 1029 110.116 237.582 477.124
1415 1 55.0726 10.0776 555 108.798 238.137 496.38
1416 0 59.0963 11.4559 677 102.939 237.691 496.917
1417 0 60.1122 11.9443 718 103.55 238.075 494.292
1418 0 60.0291 12.1275 728 103.353 238.57 492.034
1419 0 62.0891 12.4015 770 102.847 238.243 494.375
1420 0 64.0937 12.8406 823 101.628 238.44 493.107
1421 0 66.1253 12.6729 838 102.103 237.844 492.689
1422 0 65.0738 13.0467 849 102.047 238.501 490.909
1423 0 68.1566 13.0288 888 102.467 237.938 489.565
1424 0 70.1369 13.1742 924 102.404 237.531 489.058
1425 0 72.166 12.79 923 104.824 237.6 487.355
1426 0 72.1398 12.9609 935 104.673 237.507 486.787
1427 0 75.2323 13.1194 987 105.245 237.242 486.562
1428 0 76.1349 12.7931 974 106.85 237.973 485.677
1429 0 77.2564 13.1381 1015 106.863 237.954 486.38
1430 0 80.2621 13.5307 1086 106.436 238.029 486.41
1431 0 83.1283 13.401 1114 107.365 238.303 484.851
1432 0 85.2795 12.8519 1096 108.076 237.911 484.381
1433 0 86.1411 13.919 1199 107.072 237.394 483.618
1434 0 90.2259 13.3665 1206 107.642 237.722 484.643
1435 0 93.1897 13.2955 1239 107.317 237.514 484.223
1436 0 93.2612 13.8214 1289 109.342 237.398 482.258
1437 0 96.2192 13.6771 1316 108.676 237.225 483.454
1438 0 99.1359 13.7791 1366 110.755 238.085 481.737
1439 0 101.279 13.4875 1366 112.138 238.041 479.567
1440 0 104.246 13.8518 1444 111.476 238.096 478.895
1441 0 107.215 13.7574 1475 112.122 237.729 477.894
1442 0 108.19 14.0309 1518 112.686 237.372 474.764
1443 0 111.244 13.8794 1544 112.606 238.053 473.292
1444 1 62.2008 10.8037 672 114.571 238.013 499.235
1445 0 64.2118 11.4309 734 112.981 237.357 498.019
1446 0 64.4037 11.754 757 113.914 237.099 495.727
1447 0 66.3116 12.3659 820 111.95 237.611 495.613
1448 0 69.2775 12.7025 880 110.273 237.923 494.53
1449 0 71.3496 12.8522 917 109.692 237.164 491.025
1450 0 71.3101 12.6069 899 110.945 237.646 491.099
1451 0 75.3621 12.9906 979 108.762 237.184 490.625
1452 0 77.3849 13.6332 1055 107.359 236.764 490.139
1453 0 77.4728 13.1788 1021 109.784 237.189 487.976
1454 0 81.418 13.2035 1075 108.882 237.829 486.922
1455 0 83.4946 13.2344 1105 108.832 236.827 483.83
1456 0 85.369 12.8852 1100 110.417 235.825 481.916
1457 0 88.4601 12.9663 1147 112.071 236.664 481.862
1458 0 90.4128 13.2172 1195 111.017 237.223 485.514
1459 0 92.4475 13.4563 1244 110.571 237.138 484.306
1460 0 99.6615 13.6863 1364 106.233 236.607 483.282
1461 0 99.5284 13.0415 1298 109.951 236.943 481.723
1462 1 55.4354 11.2203 622 109.285 236.989 502.838
1463 0 57.2671 12.2933 704 104.834 237.284 500.244
1464 0 58.2275 12.1764 709 107.419 237.386 498.843
1465 0 61.2887 12.5145 767 106.973 237.575 498.638
1466 0 62.1933 12.3968 771 108.737 237.69 498.855
1467 0 65.3168 12.6614 827 106.671 236.728 497.82
1468 0 64.3318 12.6532 814 108.082 236.587 495.27
1469 0 68.3675 13.0179 890 105.289 236.794 495.976
1470 0 69.347 12.6321 876 107 237.145 495.734
1471 0 70.4643 13.3259 939 105.224 236.711 494.991
1472 0 74.3261 12.6739 942 105.923 236.743 493.684
1473 0 75.3694 13.6129 1026 103.662 237.052 492.795
1474 0 78.3623 13.2079 1035 104.709 237.227 491.217
1475 0 78.3418 13.0582 1023 105.429 237.184 491.527
1476 0 80.3226 12.9229 1038 106.374 237.616 488.823
1477 0 83.4533 12.9653 1082 106.537 237.007 488.138
1478 0 85.4536 13.1182 1121 105.713 237.016 485.631
1479 0 86.4416 13.165 1138 106.513 236.515 486.474
1480 0 91.4011 13.1727 1204 105.169 236.017 485.323
1481 0 94.3542 13.5129 1275 104.104 236.627 483.544
1482 0 96.363 13.1171 1264 105.632 235.869 483.703
1483 0 100.428 13.3926 1345 104.906 236.298 482.108
1484 0 102.329 13.6423 1396 103.971 236.204 480.445
1485 1 55.2755 10.4386 577 105.653 236.196 502.373
1486 0 56.156 11.2722 633 104.493 236.392 500.736
1487 0 59.1457 11.5478 683 102.353 237.426 498.802
1488 0 59.1288 11.7878 697 105.069 237.089 498.062
1489 0 61.1092 12.2567 749 103.503 237.267 498.949
1490 0 63.1233 12.5786 794 101.923 236.912 497.719
1491 0 62.1786 12.5606 781 103.602 237.315 496.151
1492 0 66.1485 13.001 860 102.38 236.751 494.186
1493 0 66.2103 13.1853 873 102.958 236.656 492.282
1494 0 70.1162 13.7486 964 100.399 236.75 488.685
1495 0 71.142 13.2833 945 102.923 236.411 486.924
1496 0 73.156 13.2867 972 103.448 236.524 480.586
1497 0 77.1872 13.6422 1053 102.349 237.248 481.01
1498 0 77.1445 13.6108 1050 104.643 237.369 477.783
1499 0 80.2145 13.3766 1073 105.551 237.007 476.473
1500 0 81.2658 13.6097 1106 105.661 236.713 476.237
1501 0 85.1884 14.2977 1218 103.276 237.392 473.626
1502 0 84.189 14.2774 1202 105.225 237.735 473.54
1503 0 86.2065 13.3053 1147 108.55 237.276 474.241
1504 0 88.1806 13.2455 1168 109.46 238.136 475.315
1505 0 90.1307 12.9701 1169 110.042 238.225 474.393
1506 0 94.1037 13.432 1264 107.728 237.734 473.598
1507 0 97.1026 13.9028 1350 106.992 237.029 471.571
1508 0 100.119 14.1731 1419 106.079 236.02 470.286
1509 0 101.107 14.3116 1447 107.04 236.312 469.065
1510 0 103.092 13.3861 1380 110.192 236.412 468.251
1511 0 105.1 13.0162 1368 112.368 237.083 467.367
1512 0 109.069 13.1018 1429 112.876 237.108 466.113
1513 0 114.098 13.4007 1529 111.615 236.678 465.752
1514 1 61.0786 10.2818 628 112.908 236.855 490.162
1515 0 63.1215 11.0897 700 110.13 237.256 489.683
1516 0 65.1301 11.4847 748 108.112 237.846 488.206
1517 0 66.0636 11.9884 792 108.162 238.045 485.683
1518 0 67.0916 12.6543 849 108.534 238.748 489.02
1519 0 70.0816 12.8422 900 108.089 237.827 488.634
1520 0 72.1446 13.1126 946 109.155 237.155 485.341
1521 0 74.0801 12.7025 941 110.272 237.692 486.667
1522 0 77.1005 12.8534 991 110.272 237.27 484.038
1523 0 78.0796 12.7562 996 111.192 237.396 483.112
1524 0 81.0964 13.4285 1089 109.471 238.484 481.701
1525 0 83.1262 13.293 1105 109.459 238.367 482.415
1526 0 83.0704 14.3734 1194 97.1122 238.085 482.038
1527 0 87.1005 13.1917 1149 110.756 238.26 480.203
1528 0 89.1313 13.654 1217 109.605 238.164 480.804
1529 0 91.1578 13.2079 1204 109.301 237.958 480.095
1530 0 94.1713 13.4011 1262 108.083 239.012 478.285
1531 0 96.1258 12.879 1238 110.668 239.38 477.634
1532 0 100.105 13.6556 1367 106.849 239.017 475.786
1533 0 103.145 13.4083 1383 106.647 238.748 473.95
1534 0 105.082 13.5133 1420 106.349 238.727 472.456
1535 0 108.112 13.6433 1475 105.598 237.912 470.12
1536 0 111.09 13.9077 1545 107.025 237.693 467.841
1537 1 62.0722 10.1173 628 110.911 238.594 493.807
1538 0 64.1698 10.7216 688 110.974 237.318 491.366
1539 0 65.1493 11.512 750 109.569 237.944 489.003
1540 0 67.1308 11.5744 777 109.035 238.358 488.631
1541 0 72.0565 11.6298 838 107.296 238.489 488.113
1542 0 72.1318 12.0197 867 108.02 237.912 486.278
1543 0 74.1721 12.0396 893 108.273 238.708 486.862
1544 0 75.1907 11.6637 877 110.645 237.9 485.545
1545 0 79.1396 12.3074 974 109.082 237.698 485.495
1546 0 80.1676 12.2868 985 109.445 237.488 484.648
1547 0 82.1821 12.5818 1034 108.275 237.372 484.787
1548 0 83.1098 12.0804 1004 111.976 237.718 481.988
1549 0 86.1407 12.1545 1047 111.141 237.07 479.614
1550 0 88.1476 12.3316 1087 110.559 237.374 479.546
1551 0 88.1684 12.9071 1138 106.884 237.41 474.554
1552 0 91.0403 13.3787 1218 103.759 237.392 472.498
1553 0 92.1288 13.2098 1217 105.337 237.742 471.929
1554 0 96.1082 12.8813 1238 105.759 238.01 470.604
1555 0 97.1043 12.2755 1192 110.004 238.276 472.133
1556 0 98.1205 11.7916 1157 110.64 238.356 472.934
1557 0 99.2098 11.4606 1137 111.166 238.467 468.045
1558 0 104.167 12.0768 1258 108.804 238.583 475.528
1559 0 107.144 11.6852 1252 109.974 238.112 478.932
1560 0 109.173 11.4314 1248 110.466 238.188 474.611
1561 1 65.1378 10.8386 706 107.839 237.164 496.286
1562 0 68.0825 11.1629 760 105.35 238.554 488.189
1563 0 69.1122 10.9966 760 106.514 238.895 482.076
1564 0 71.1432 11.4979 818 103.763 238.495 483.562
1565 0 75.0973 12.0377 904 100.582 238.429 482.419
1566 0 76.1156 12.4416 947 99.0993 237.952 483.286
1567 0 77.202 12.0204 928 101.018 238.291 482.22
1568 0 80.2129 12.2299 981 100.634 238.952 480.536
1569 0 82.1863 12.5447 1031 100.81 238.551 480.539
1570 0 85.161 12.3413 1051 101.99 237.621 478.071
1571 0 86.1435 12.8042 1103 101.342 237.617 476.595
1572 0 89.2338 12.4616 1112 100.572 237.946 477.097
1573 0 92.2334 12.3491 1139 99.8534 238.304 477.394
1574 0 93.2755 12.3076 1148 101.34 237.995 476.2
1575 0 96.1736 12.1655 1170 101.346 237.919 473.942
1576 0 99.2925 12.4682 1238 99.9564 237.794 471.754
1577 0 101.255 12.3056 1246 101.092 237.497 469.619
1578 0 105.316 12.6571 1333 103.681 237.388 467.874
1579 1 59.2001 10.8615 643 102.311 237.837 494.49
1580 0 60.3269 11.8355 714 102.031 237.363 493.294
1581 0 61.3574 11.4249 701 106.271 238.02 488.31
1582 0 61.2738 11.5384 707 106.41 237.785 488.018
1583 0 65.3174 11.6355 760 104.691 237.895 488.633
1584 0 67.3165 12.003 808 104.243 237.526 487.55
1585 0 68.3183 12.4857 853 103.066 237.049 488.1
1586 0 71.274 12.5852 897 102.61 237.043 489.153
1587 0 71.3794 12.8328 916 101.392 237.807 495.723
1588 0 73.4197 12.4081 911 102.599 238.424 491.769
1589 0 75.3082 12.3227 928 102.514 237.679 492.394
1590 0 76.3969 12.8016 978 102.438 238.024 490.651
1591 0 80.3985 11.9903 964 103.554 237.933 487.945
1592 0 82.334 12.6193 1039 102.654 237.15 487.188
1593 0 85.4006 12.8688 1099 102.279 236.755 485.654
1594 0 85.4494 12.5805 1075 104.942 237.061 485.998
1595 0 87.5011 12.9827 1136 103.864 236.742 484.611
1596 0 93.4606 13.2997 1243 100.403 236.813 484.697
1597 0 96.3679 13.9984 1349 99.9948 236.073 482.351
1598 0 98.4107 13.718 1350 100.395 235.87 481.22
1599 0 102.44 13.813 1415 99.412 236.665 480.234
1600 0 105.395 13.3498 1407 100.517 236.928 478.579
1601 0 108.365 13.713 1486 99.5734 236.455 476.31
1602 0 111.365 13.3075 1482 100.14 236.681 475.747
1603 0 113.299 13.2304 1499 99.3803 236.687 477.298
1604 0 117.296 13.5128 1585 99.1937 235.896 473.428
1605 0 119.274 13.1294 1566 99.477 236.067 472.773
1606 0 121.282 13.0028 1577 100.023 235.928 470.696
1607 0 127.241 13.219 1682 97.629 236.038 471.688
1608 0 128.206 13.4861 1729 98.0856 236.335 468.934
1609 0 133.301 13.5708 1809 97.199 236.682 467.08
1610 0 137.248 12.991 1783 98.8396 236.306 465.814
1611 0 139.276 13.1394 1830 99.188 236.71 464.468
1612 0 142.258 12.6953 1806 100.898 236.462 459.468
1613 0 147.251 14.1187 2079 98.0457 236.243 456.075
1614 0 150.181 13.7168 2060 99.5908 236.383 457.279
1615 0 156.228 13.2179 2065 100.32 235.887 447.374
1616 0 160.199 12.7717 2046 99.7439 236.701 441.507
1617 0 163.158 11.7432 1916 98.9442 236.615 421.487
1618 0 169.146 11.7473 1987 97.1122 236.723 417.488
1619 0 173.16 11.6597 2019 97.5136 236.53 414.156
1620 0 180.156 12.2061 2199 96.9941 236.637 410.38
1621 0 184.191 11.6673 2149 99.3434 236.141 411.824
1622 0 189.197 11.7867 2230 99.6789 236.173 411.917
1623 0 196.228 12.4396 2441 99.6022 235.73 406.926
1624 0 199.26 11.7686 2345 102.107 235.125 405.318
1625 0 202.239 11.4468 2315 102.388 235.312 409.54
1626 1 214.198 12.8153 2745 100.418 235.669 403.242
1627 0 220.226 12.5598 2766 101.609 235.98 406.759
1628 1 165.072 12.7217 2100 100.073 236.308 428.015
1629 0 169.1 12.7321 2153 101.523 236.416 428.098
1630 0 172.129 12.7288 2191 102.217 236.582 425.503
1631 0 177.053 12.3579 2188 104.532 236.515 422.873
1632 0 183.125 12.9529 2372 103.179 235.621 420.728
1633 0 190.094 12.8831 2449 103.686 235.676 421.209
1634 0 196.149 13.6121 2670 101.501 235.757 425.85
1635 0 203.187 13.9182 2828 101.212 235.865 421.477
1636 0 209.222 13.4116 2806 102.726 235.287 418.695
1637 0 216.344 13.5987 2942 103.29 236.217 414.177
1638 0 222.406 13.4439 2990 104.136 237.122 413.546
1639 0 232.342 13.7857 3203 103.888 235.803 409.374
1640 0 238.373 13.7306 3273 103.208 236.54 399.067
1641 1 60.1278 11.093 667 93.1679 237.634 482.697
1642 0 64.1732 11.469 736 93.1793 237.11 488.239
1643 0 65.1003 12.2119 795 92.805 237.13 493.933
1644 0 65.0451 12.2223 795 93.7006 237.834 495.799
1645 0 69.1125 12.4001 857 93.2415 237.841 495.946
1646 0 69.0871 12.4625 861 93.8037 238.131 497.141
1647 0 70.0749 11.873 832 95.6599 237.984 497.135
1648 0 72.2008 11.8281 854 96.1265 238.42 496.643
1649 0 74.2029 11.6842 867 96.6482 238.191 495.148
1650 0 79.1442 13.0395 1032 92.2326 237.841 489.783
1651 0 79.237 12.0146 952 96.1576 236.838 489.012
1652 0 83.2141 11.9932 998 95.7074 237.14 491
1653 0 84.164 12.8202 1079 95.126 236.766 490.593
1654 0 86.3329 12.3823 1069 97.4135 237.043 487.836
1655 0 90.2186 12.2591 1106 97.2423 236.599 486.628
1656 0 92.2303 12.3061 1135 97.5286 236.067 485.928
1657 0 94.1606 12.4043 1168 97.7954 236.745 484.039
1658 0 96.267 12.5484 1208 97.9603 236.56 483.269
1659 0 98.3032 12.4818 1227 99.1866 237.137 484.339
1660 0 102.201 12.9745 1326 97.2104 237.268 482.017
1661 0 103.183 12.1531 1254 99.5319 236.746 478.735
1662 0 106.276 12.571 1336 99.0494 236.665 475.335
1663 0 110.255 13.3418 1471 95.6506 236.502 475.62
1664 0 111.227 12.7217 1415 96.2799 236.876 470.235
1665 0 112.265 11.8915 1335 99.9221 236.796 474.268
1666 0 114.239 12.2112 1395 100.485 236.866 466.3
1667 0 119.309 12.5807 1501 99.5583 236.682 465.364
1668 0 121.458 12.2347 1486 101.319 236.762 465.803
1669 0 125.296 12.5463 1572 100.838 236.874 464.778
1670 0 127.368 12.6091 1606 102.198 237.275 465.56
1671 0 130.377 12.134 1582 103.825 237.137 465.095
1672 0 135.299 12.6831 1716 102.467 236.642 463.527
1673 0 138.387 11.8508 1640 104.45 237.075 458.83
1674 0 143.319 12.8176 1837 103.174 236.082 459.889
1675 0 147.485 12.9573 1911 102.318 235.985 454.471
1676 0 153.345 12.273 1882 106.256 235.981 446.238
1677 0 156.198 11.9784 1871 107.413 236.563 446.381
1678 1 92.2974 12.9148 1192 100.014 237.234 475.095
1679 0 93.1533 12.721 1185 101.535 236.749 474.745
1680 0 97.2589 13.0168 1266 99.6438 235.916 474.641
1681 0 99.2845 12.2577 1217 102.367 236.201 471.891
1682 0 100.146 11.5332 1155 104.816 235.79 468.853
1683 0 105.192 11.8165 1243 103.949 236.48 466.772
1684 0 109.211 12.0592 1317 103.398 236.973 466.388
1685 0 111.249 12.5574 1397 103.348 236.565 462.956
1686 0 115.246 12.4603 1436 103.354 236.37 461.167
1687 0 118.208 12.5288 1481 103.137 236.865 459.152
1688 0 121.161 12.4133 1504 104.017 237.143 458.103
1689 0 124.281 12.6085 1567 103.849 237.04 458.647
1690 0 127.306 12.6624 1612 104.352 236.777 456.289
1691 0 133.222 13.1435 1751 102.44 236.462 453.424
1692 0 133.166 12.3004 1638 106.406 236.987 455.039
1693 0 138.244 12.6298 1746 105.633 237.318 452.512
1694 0 142.213 13.2055 1878 104.599 236.552 449.978
1695 0 145.179 12.7773 1855 106.262 236.419 449.454
1696 0 153.238 13.2082 2024 104.651 236.95 450.798
1697 0 155.223 13.1939 2048 105.309 237.561 451.748
1698 0 161.28 13.3309 2150 104.442 237.535 449.062
1699 0 165.248 12.7627 2109 106.587 237.71 448.739
1700 1 94.1396 11.6848 1100 106.652 237.38 483.042
1701 0 99.0874 12.7766 1266 105.051 237.182 473.996
1702 0 103.081 13.0092 1341 102.914 237.938 474.01
1703 0 104.032 12.7749 1329 106.268 237.33 471.275
1704 0 106.061 13.1246 1392 103.328 237.397 472.029
1705 0 110.118 13.1405 1447 102.039 237.68 475.461
1706 0 113.058 13.1437 1486 102.365 238.332 471.353
1707 0 115.071 12.8877 1483 104.572 237.126 469.586
1708 0 119.156 12.9746 1546 103.539 237.186 470.105
1709 0 123.197 12.9386 1594 104.047 237.361 468.894
1710 0 125.271 12.948 1622 105.596 237.441 467.526
1711 0 130.272 13.4795 1756 106.018 237.515 464.283
1712 0 131.259 13.5915 1784 105.984 237.365 464.036
1713 0 136.187 13.3272 1815 107.11 237.354 461.356
1714 0 141.191 13.209 1865 106.154 237.742 460.004
1715 0 146.157 13.3144 1946 105.754 237.229 456.038
1716 1 80.1595 11.6518 934 106.111 237.394 488.503
1717 0 84.1238 12.0774 1016 105.374 237.252 487.237
1718 0 85.1113 12.2311 1041 105.904 237.814 485.138
1719 0 87.0661 12.7604 1111 104.841 238.296 483.33
1720 0 90.0556 12.7366 1147 105.36 238.119 483.591
1721 0 92.1063 13.1804 1214 105.048 238.646 482.459
1722 0 96.0651 13.5013 1297 102.851 237.856 481.163
1723 0 99.0913 13.1899 1307 104.397 238.287 480.102
1724 0 101.053 13.9332 1408 103.091 238.658 478.962
1725 0 104.08 13.7106 1427 103.544 238.683 477.925
1726 0 107.112 14.1815 1519 103.286 237.672 475.712
1727 0 107.136 13.6088 1458 106.107 236.885 473.642
1728 0 110.096 13.797 1519 105.755 237.84 474.061
1729 0 111.09 13.7637 1529 106.781 237.933 471.508
1730 0 115.132 14.1142 1625 105.785 237.882 471.39
1731 0 117.114 14.3364 1679 105.149 237.046 468.054
1732 0 120.115 13.8201 1660 106.847 237.03 468.087
1733 0 123.13 13.969 1720 106.244 236.935 466.227
1734 0 127.141 13.5833 1727 108.593 237.244 465.862
1735 0 131.128 14.1923 1861 107.222 237.109 463.087
1736 0 135.163 13.7833 1863 108.121 236.809 461.987
1737 0 141.269 14.0725 1988 107.878 237.628 461.083
1738 0 143.269 14.1971 2034 108.126 237.144 459.846
1739 0 148.468 14.2657 2118 108.147 237.533 457.098
1740 0 150.403 13.6766 2057 111.353 236.485 452.97
1741 0 156.376 13.6914 2141 109.62 236.863 452.12
1742 1 65.2807 10.7229 700 104.219 236.157 498.467
1743 0 67.0339 11.2928 757 102.621 237.935 497.108
1744 0 69.096 11.7518 812 101.108 238.419 496.553
1745 0 72.1082 12.4258 896 98.8795 238.271 494.811
1746 0 74.036 12.656 937 98.9765 237.74 494.752
1747 0 77.0923 12.4915 963 98.5649 238.026 493.288
1748 0 79.0351 11.9947 948 99.4051 238.466 490.621
1749 0 81.0279 11.638 943 99.4411 238.672 489.653
1750 0 82.0343 11.5074 944 99.6123 237.894 488.877
1751 0 84.1072 11.7707 990 98.8414 237.19 486.31
1752 0 88.1226 12.2103 1076 97.1952 237.21 484.61
1753 0 90.1243 11.6062 1046 98.4675 237.571 484.46
1754 0 94.1628 12.1067 1140 95.5535 236.901 484.261
1755 0 95.1208 11.5958 1103 96.9166 237.02 475.516
1756 1 53.0279 11.1074 589 91.472 237.84 497.328
1757 0 55.104 10.8341 597 92.3032 238.266 498.198
1758 0 55.1738 11.5272 636 91.5 237.398 497.099
1759 0 58.0552 12.3503 717 88.3891 238.248 498.014
1760 0 59.0241 11.4021 673 91.5617 238.811 496.303
1761 0 60.0269 11.5115 691 91.9971 239.262 495.793
1762 0 61.0304 12.3217 752 90.2513 238.878 495.344
1763 0 62.0244 12.1081 751 91.273 238.879 493.172
1764 0 62.0266 11.9626 742 93.465 238.73 492.005
1765 0 64.0483 12.2564 785 91.8306 239.338 492.231
1766 0 66.0287 12.3734 817 91.6389 238.528 491.058
1767 0 67.0391 12.351 828 91.7403 238.508 489.903
1768 0 70.0379 11.8364 829 93.0362 238.297 488.239
1769 0 71.0229 12.2636 871 92.1653 238.256 486.823
1770 0 73.0398 12.0072 877 93.1813 238.056 487.125
1771 0 74.0769 11.947 885 92.574 237.801 485.28
1772 0 75.047 11.8726 891 93.4635 237.684 483.611
1773 0 78.0491 12.7356 994 89.8944 237.932 481.433
1774 0 81.0835 12.2836 996 90.6616 237.785 478.581
1775 0 82.0182 12.229 1003 91.5454 237.361 482.89
1776 0 85.0517 12.3102 1047 91.3161 237.333 479.16
1777 0 86.0441 12.3774 1065 90.8225 237.161 479.885
1778 0 90.0398 12.65 1139 90.496 237.246 477.28
1779 0 91.0995 12.7882 1165 90.4361 237.239 475.322
1780 0 93.1607 12.1618 1133 91.8544 237.24 475.745
1781 0 97.1113 12.2334 1188 91.6827 237.403 476.029
1782 0 102.103 13.3394 1362 88.3142 237.604 471.562
1783 0 103.156 11.8461 1222 92.9632 237.774 470.674
1784 0 107.115 11.9591 1281 93.7385 237.474 467.779
1785 0 111.123 12.7787 1420 92.1563 237.423 467.324
1786 0 115.142 12.3413 1421 92.5362 237.347 464.372
1787 0 116.166 11.7504 1365 94.4725 237.448 461.811
1788 1 67.0788 11.4492 768 85.8789 238.609 487.608
1789 0 69.1845 11.2453 778 88.6889 237.193 484.38
1790 0 72.1859 11.9968 866 87.1085 237.173 483.314
1791 0 73.1065 11.7089 856 88.6822 236.84 478.099
1792 0 76.0792 11.6458 886 88.4018 238.379 480.725
1793 0 77.0329 11.5146 887 90.4634 237.952 480.826
1794 0 79.0357 11.7415 928 90.1261 238.182 478.333
1795 0 81.0514 11.6839 947 90.9293 238.033 481.779
1796 0 86.0854 12.5457 1080 87.275 238.306 478.229
1797 0 88.0546 12.0607 1062 88.7062 238.529 475.928
1798 0 89.1213 12.0173 1071 89.6611 238.316 476.395
1799 0 93.1006 12.1696 1133 89.511 237.54 475.643
1800 0 97.0728 12.537 1217 88.9827 237.726 474.976
1801 0 99.0688 12.8497 1273 88.8861 236.069 472.399
1802 0 101.106 12.4226 1256 90.5677 236.615 472.885
1803 0 104.08 13.3647 1391 88.7958 236.712 471.688
1804 0 107.117 12.5657 1346 91.2875 237.193 469.34
1805 0 110.068 12.774 1406 90.6344 237.178 468.919
1806 0 112.162 12.6157 1415 92.1145 236.876 468.58
1807 0 115.072 12.9918 1495 92.0542 237.572 468.702
1808 0 117.067 12.9157 1512 93.3856 237.567 466.194
1809 0 119.127 13.2968 1584 92.7254 237.382 466.972
1810 0 124.136 13.461 1671 91.7768 236.72 464.315
1811 0 128.184 13.4261 1721 92.2069 236.72 463.843
1812 0 131.102 13.4933 1769 92.3556 236.627 463.261
1813 0 132.132 12.5556 1659 95.4346 236.83 458.858
1814 0 138.138 13.0956 1809 93.6976 237.016 460.164
1815 0 142.113 13.7637 1956 92.4003 236.851 455.981
1816 0 145.116 13.4651 1954 93.0143 237.396 456.015
1817 0 149.129 13.8605 2067 93.1587 237.414 448.254
1818 0 154.181 13.4971 2081 96.3167 237.446 445.837
1819 0 157.218 14.5466 2287 90.7258 236.877 443.832
1820 0 164.212 14.2012 2332 89.3855 237.045 445.389
1821 1 92.0973 11.325 1043 94.8313 237.797 477.779
1822 0 95.1575 11.6438 1108 94.7951 237.392 476.079
1823 0 97.1451 12.3527 1200 94.3383 237.609 476.374
1824 0 101.08 13.0886 1323 92.9494 237.337 475.825
1825 0 103.095 13.2111 1362 93.5521 237.845 475.59
1826 0 107.106 13.3326 1428 92.5854 237.826 474.64
1827 0 107.093 12.9327 1385 95.0989 237.759 473.04
1828 0 112.109 13.3531 1497 94.4235 237.292 470.898
1829 0 117.098 13.5954 1592 93.4026 237.745 470.644
1830 0 119.138 13.3039 1585 94.8719 237.616 471.026
1831 0 121.124 14.1096 1709 93.1281 237.687 470.865
1832 0 125.04 14.1954 1775 93.8023 237.887 468.061
1833 0 128.09 13.6154 1744 95.7993 237.467 468.19
1834 0 132.05 13.3207 1759 97.1688 237.583 464.217
1835 0 135.128 13.9645 1887 95.7091 237.049 462.296
1836 0 139.139 13.6842 1904 100.366 237.241 461.163
1837 0 143.078 13.6988 1960 101.456 237.181 458.187
1838 0 147.117 13.6286 2005 101.808 237.374 456.493
1839 0 152.161 13.742 2091 101.624 237.461 453.761
1840 0 157.138 13.7014 2153 102.991 237.126 452.249
1841 1 85.054 11.4398 973 102.674 237.538 488.926
1842 0 84.0823 11.7266 986 100.419 238.096 487.167
1843 0 88.0928 12.5209 1103 100.041 237.877 486.851
1844 0 89.0768 12.0907 1077 102.181 237.448 484.167
1845 0 93.0835 12.8702 1198 101.967 236.662 481.248
1846 0 97.0734 13.0932 1271 100.116 237.188 480.423
1847 0 98.1481 12.6849 1245 102.773 236.859 478.649
1848 0 101.149 13.1786 1333 100.953 236.199 467.629
1849 0 104.137 13.3574 1391 100.641 236.509 465.931
1850 0 105.205 12.9937 1367 103.047 236.519 464.004
1851 0 107.166 12.3547 1324 102.532 236.641 463.799
1852 0 109.185 13.097 1430 102.524 236.508 463.45
1853 0 111.233 12.9548 1441 103.552 236.366 461.931
1854 0 114.209 13.2739 1516 102.159 237.177 463.493
1855 0 119.243 13.1245 1565 101.917 236.928 465.449
1856 0 123.249 13.639 1681 98.7882 236.789 464.376
1857 0 126.257 13.4646 1700 99.5059 236.648 461.433
1858 0 130.261 13.5651 1767 99.0838 236.487 459.285
1859 0 130.217 13.8231 1800 100.17 236.349 457.531
1860 0 136.251 13.7026 1867 99.6765 235.606 455.563
1861 0 139.233 13.5672 1889 99.955 236.413 453.807
1862 0 145.187 13.8029 2004 99.0304 236.106 453.573
1863 0 151.222 16.0427 2426 92.0425 236.431 446.214
1864 0 150.112 13.6898 2055 100.446 236.472 448.798
1865 0 154.202 13.4175 2069 102.191 237.023 448.52
1866 0 161.188 14.1574 2282 100.417 237.195 444.605
1867 0 165.173 13.5373 2236 101.77 236.85 442.072
1868 0 173.186 14.4758 2507 98.3897 236.824 441.943
1869 0 177.165 14.416 2554 99.3821 236.714 437.818
1870 1 106.08 11.5385 1224 100.677 236.528 473.369
1871 0 108.156 12.5282 1355 98.5779 236.953 471.983
1872 0 112.097 13.8273 1550 95.3103 236.731 471.065
1873 0 114.115 13.0307 1487 98.3719 236.297 468.258
1874 0 115.147 13.3482 1537 98.2583 236.454 467.221
1875 0 119.116 13.5414 1613 96.9833 236.932 467.216
1876 0 122.117 13.4379 1641 97.7715 236.912 464.681
1877 0 127.164 14.2965 1818 95.1672 237.059 462.041
1878 0 129.147 13.0085 1680 99.8143 237.326 460.291
1879 0 134.146 13.381 1795 98.6585 236.298 459.872
1880 0 136.158 13.2714 1807 99.7056 236.821 457.592
1881 0 139.106 13.026 1812 101.145 237.167 453.461
1882 0 144.181 13.2611 1912 100.017 237.212 454.134
1883 0 148.192 13.7322 2035 100.21 236.926 450.321
1884 0 151.176 13.4083 2027 100.786 237.758 447.678
1885 0 158.162 13.8529 2191 98.1059 237.624 446.099
1886 0 162.188 13.9406 2261 98.6754 237.9 442.84
1887 0 166.125 13.9533 2318 99.5975 237.745 440.842
1888 0 171.268 13.7153 2349 101.102 237.476 439.133
1889 0 176.22 14.5727 2568 100.287 237.183 435.584
1890 0 180.322 13.8807 2503 103.675 237.04 432.903
1891 0 184.346 13.9629 2574 105.13 237.267 430.166
1892 0 191.346 13.8963 2659 104.868 236.518 426.004
1893 0 196.196 13.6904 2686 104.993 237.58 423.18
1894 0 202.166 13.7016 2770 105.368 237.147 418.438
1895 1 34.0246 9.22861 314 79.4777 235.459 509.309
1896 0 36.046 9.70982 350 79.0314 236.409 509.989
1897 0 38.07 11.1637 425 76.4118 236.68 509.946
1898 0 39.1537 11.0334 432 76.8704 236.468 509.514
1899 0 37.0793 11.408 423 80.2459 236.449 510.4
1900 0 38.147 10.9314 417 83.0576 236.535 509.7
1901 0 38.0808 11.0292 420 84.5762 236.548 510.821
1902 0 37.1234 10.6402 395 88.0177 236.673 511.251
1903 0 39.1462 11.2654 441 85.4104 237.615 511.528
1904 0 36.1756 10.8084 391 90.4808 237.616 511.824
1905 0 38.1588 11.6356 444 88.3311 237.383 512.072
1906 0 36.1085 11.4931 415 91.8145 238.419 512.92
1907 0 39.2282 11.2674 442 89.6244 237.355 512.244
1908 0 39.0761 11.3624 444 90.3739 238.782 512.259
1909 0 38.0515 10.8011 411 93.9465 238.769 513.08
1910 0 37.0276 10.8838 403 94.3697 237.854 512.409
1911 0 39.0598 11.1624 436 92.3991 237.739 511.794
1912 0 37.0929 11.7273 435 92.6529 237.756 512.23
1913 0 37.0263 11.1002 411 94.8783 237.827 512.691
1914 0 37.0839 11.2987 419 94.8496 238.351 512.508
1915 0 38.0555 10.5635 402 95.801 238.241 512.816
1916 0 37.0937 10.8105 401 95.2643 238.691 512.721
1917 0 39.0381 10.6562 416 93.8413 237.983 512.656
1918 0 38.0242 10.993 418 93.9354 237.952 511.246
1919 0 38.0133 10.2859 391 95.3478 238.107 512.003
1920 0 40.0522 10.9108 437 91.7986 236.993 512.442
1921 0 39.1148 11.1978 438 91.6918 237.795 511.822
1922 0 39.1141 11.377 445 90.2337 237.564 511.627
1923 0 38.0367 10.9368 416 91.4495 238.123 512.01
1924 0 38.0355 11.2526 428 89.6612 237.194 513.091
1925 0 39.1407 11.5481 452 88.1482 237.803 512.808
1926 0 39.1047 10.5102 411 90.8273 237.355 512.455
1927 0 39.0652 10.2905 402 90.4851 238.246 512.303
1928 0 39.0628 10.4959 410 90.078 237.188 512.807
1929 0 38.1176 10.7299 409 87.9658 237.213 512.02
1930 0 39.0923 11.6647 456 85.5724 237.594 512.171
1931 0 38.0245 9.99357 380 88.9184 237.247 512.9
1932 0 41.0719 11.2973 464 83.0345 236.511 513.291
1933 0 40.0567 11.4837 460 82.9543 236.676 513.498
1934 0 41.083 11.635 478 81.8347 236.623 512.981
1935 0 40.1517 11.3569 456 81.6294 237.178 513.7
1936 0 40.0811 11.4019 457 80.9847 237.206 512.455
1937 0 40.1604 10.9561 440 81.0477 237.155 512.714
1938 0 41.0807 10.7593 442 80.6018 237.043 512.973
1939 0 42.1255 11.0147 464 78.3685 236.989 513.356
1940 0 40.1401 10.6128 426 78.73 237.329 513.218
1941 0 41.2061 10.5567 435 78.6598 237.005 512.48
1942 0 41.2037 11.1398 459 76.9935 236.514 513.231
1943 0 41.2124 11.0404 455 76.3099 236.901 513.657
1944 0 41.16 11.346 467 75.3319 237.456 513.441
1945 0 41.2353 11.1798 461 74.9132 236.403 513.972
1946 0 41.146 11.1797 460 74.5783 236.402 513.778
1947 0 40.1427 10.2883 413 75.7506 236.918 512.717
1948 0 40.1299 11.0142 442 73.3552 237.339 513.41
1949 0 42.1656 11.4548 483 70.6439 237.139 513.004
1950 0 38.1484 10.4329 398 73.6332 236.673 512.422
1951 0 40.1091 11.4189 458 70.5546 236.332 511.624
1952 0 40.1191 10.1947 409 70.4156 236.296 513.149
1953 0 38.1612 10.8225 413 69.8063 236.162 513.031
1954 0 40.1087 10.1225 406 69.9089 235.983 511.899
1955 0 39.244 11.3138 444 67.6419 236.3 512.047
1956 0 41.1439 10.5483 434 67.576 236.677 512.682
1957 0 39.2197 10.2754 403 68.3052 236.243 512.298
1958 0 40.0766 9.98088 400 67.8775 235.757 510.952
1959 0 39.2572 9.29765 365 68.7918 235.367 510.803
1960 0 39.0734 10.0324 392 67.125 235.503 510.957
1961 0 38.1407 9.64849 368 67.7174 236.073 510.432
1962 0 39.1367 8.22757 322 67.9596 236.124 511.64
1963 0 39.1429 9.88685 387 64.5478 236.349 511.765
1964 0 37.1428 9.28846 345 65.3391 235.786 511.467
1965 0 39.1321 10.1707 398 63.5251 236.033 511.065
1966 0 40.1446 9.31633 374 63.3957 236.048 511.869
1967 0 39.1672 9.4722 371 62.7332 235.69 511.911
1968 0 41.1468 10.2074 420 61.4667 235.926 512.093
1969 0 39.0732 9.44382 369 62.0678 235.675 512.22
1970 0 40.1198 10.4437 419 60.5012 235.797 511.186
1971 0 40.1053 9.54987 383 61.1097 236.366 512.909
1972 0 38.1611 9.82676 375 60.8507 236.187 511.469
1973 0 37.1597 9.06897 337 61.6439 235.929 511.448
1974 0 37.0982 9.11095 338 60.8462 236.257 511.577
1975 0 37.1665 9.09422 338 59.497 235.012 511.26
1976 0 39.1355 8.81553 345 58.5855 235.6 512.006
1977 0 40.1631 9.31202 374 57.5802 235.96 511.832
1978 0 37.1734 8.82351 328 58.2744 235.409 511.796
1979 0 38.1351 8.601 328 57.6829 234.799 511.5
1980 0 37.0742 9.49448 352 56.946 235.588 511.08
1981 0 37.1547 8.82795 328 57.4299 235.171 511.137
1982 0 37.1042 9.3251 346 56.1185 235.76 510.549
1983 0 37.1249 8.08084 300 56.75 236.117 511.497
1984 0 36.1071 8.86253 320 56.1313 236.084 510.666
1985 1 0 0 2 47 236 492
1986 1 36.1551 7.85504 284 55.8979 236.014 510.62
1987 0 37.0572 8.58134 318 54.9969 235.865 510.921
1988 0 38.1255 8.28841 316 54.2025 235.715 509.759
1989 0 35.1325 6.77436 238 55.6429 235.382 511.265
1990 1 79.049 12.6251 998 91.6573 234.754 452.81
1991 0 81.0426 12.9315 1048 91.7729 234.35 450.406
1992 0 84.0904 12.9028 1085 92.2664 234.308 449.198
1993 0 88.0963 13.4058 1181 91.3912 234.987 448.241
1994 0 88.048 12.6522 1114 95.211 234.413 446.958
1995 0 94.1144 12.9948 1223 94.4432 235.065 447.807
1996 0 94.0255 12.8263 1206 97.2985 235.051 445.15
1997 0 95.0564 13.2342 1258 98.4396 235.405 443.712
1998 1 191.294 12.3318 2359 93.3535 235.448 426.343
1999 1 101.081 12.8116 1295 101.283 235.907 442.027
2000 1 55.0568 11.6789 643 104.473 236.328 463.039
2001 0 57.074 11.9669 683 103.974 235.657 461.594
2002 0 57.0681 12.5464 716 103.05 234.49 460.763
2003 0 59.0764 12.9832 767 101.329 234.96 459.266
2004 0 58.0664 11.5385 670 106.415 234.43 461.099
2005 0 60.0883 11.6495 700 106.327 234.637 460.629
2006 0 62.0654 12.2613 761 104.907 234.589 459.35
2007 0 64.072 12.5952 807 104.782 234.161 457.672
2008 0 67.1015 12.4587 836 106.329 234.996 457.591
2009 0 67.1639 11.8218 794 108.651 235.495 458.139
2010 0 71.2175 12.4969 890 106.526 234.956 455.521
2011 0 74.0911 12.1607 901 107.784 235.238 454.58
2012 0 75.1373 12.8565 966 107.148 234.979 453.335
2013 0 78.1672 12.1151 947 109.563 234.498 452.503
2014 0 79.2295 12.6468 1002 108.66 234.024 451.463
2015 0 83.1471 12.7004 1056 109.84 234.192 448.82
2016 0 84.2749 12.4711 1051 111.227 234.808 448.103
2017 0 89.2378 12.4499 1111 111.123 234.66 447.617
2018 0 93.2626 13.2422 1235 108.991 234.73 444.317
2019 1 49.2283 12.0865 595 111.084 234.526 464.739
2020 0 51.1834 11.9179 610 111.798 233.893 463.974
2021 0 53.1316 12.8172 681 109.661 234.446 462.342
2022 0 54.1388 13.059 707 105.625 234.294 462.038
2023 0 54.1346 12.4689 675 108.348 233.616 461.381
2024 0 55.117 12.4644 687 107.758 234.415 460.751
2025 0 57.1734 12.4184 710 106.855 234.289 459.72
2026 0 58.1764 12.3246 717 106.575 234.821 458.704
2027 0 59.109 12.0963 715 105.51 234.459 458.228
2028 0 61.0915 12.1621 743 104.417 234.261 457.669
2029 0 64.133 11.9128 764 103.134 234.654 456.052
2030 0 65.2033 11.8552 773 103.097 235.087 454.603
2031 0 66.1457 11.641 770 103.329 235.073 454.438
2032 0 69.1953 11.6626 807 101.599 235.164 453.975
2033 0 72.2043 12.1184 875 100.456 235.325 453.042
2034 0 73.1653 12.0412 881 100.756 234.833 451.624
2035 0 74.1703 11.9994 890 100.987 234.752 450.463
2036 0 77.2431 11.5221 890 102.38 234.458 450.449
2037 0 78.2022 11.7388 918 100.596 233.898 448.587
2038 0 81.2301 11.8429 962 100.867 235.161 447.219
2039 0 85.1576 11.9543 1018 99.4548 235.148 446.178
2040 0 89.1541 12.3158 1098 98.7095 234.404 444.096
2041 0 89.1482 11.3407 1011 101.439 235.538 443.816
2042 1 50.0632 10.7265 537 101.596 235.123 463.561
2043 0 49.026 11.3817 558 101.142 235.027 461.278
2044 0 53.0537 11.6863 620 97.5871 235.756 460.316
2045 0 55.0274 11.8123 650 96.9062 235.797 459.563
2046 0 55.0213 11.7227 645 98.3023 234.498 458.764
2047 0 58.0555 11.2479 653 96.6922 234.263 457.874
2048 0 58.0525 12.282 713 94.4572 234.344 456.78
2049 0 59.0559 12.141 717 94.9986 234.65 455.332
2050 0 62.0399 12.7499 791 92.7054 234.979 456.413
2051 0 63.0303 12.9779 818 93.3215 234.839 454.128
2052 0 66.0248 13.1617 869 92.2865 235.024 453.342
2053 0 65.0175 13.0426 848 94.5625 234.035 452.257
2054 0 69.0306 13.2695 916 92.6266 234.763 452.656
2055 0 69.0206 12.5904 869 94.3026 233.89 451.362
2056 0 72.0534 14.0313 1011 91.5331 234.736 450.898
2057 0 72.0377 13.4374 968 95.2934 234.865 448.77
2058 0 75.0286 13.3816 1004 94.7779 234.941 449.726
2059 0 76.0644 12.9233 983 97.8057 234.365 449.211
2060 0 77.0741 13.1432 1013 98.5696 234.331 446.737
2061 0 80.0205 12.8842 1031 98.7294 235.179 448.613
2062 0 82.0548 12.9426 1062 99.3691 235.366 446.563
2063 0 84.0291 13.174 1107 100.192 234.986 443.909
2064 0 89.0757 12.6858 1130 100.685 235.473 444.031
2065 0 90.0489 13.3483 1202 100.524 235.362 441.918
2066 0 93.0383 12.7904 1190 102.097 235.3 441.736
2067 0 96.0521 13.045 1253 101.831 234.492 441.421
2068 0 99.0358 13.2376 1311 101.705 234.648 440.015
2069 0 104.043 14.9553 1556 96.6311 234.69 436.794
2070 0 101.02 12.6609 1279 104.267 234.861 437.751
2071 0 106.038 13.25 1405 102.371 234.743 435.578
2072 1 57.02 12.2413 698 104.142 234.466 457.225
2073 0 61.0663 12.8058 782 101.515 233.861 454.698
2074 0 63.0116 13.2039 832 100.501 234.609 453.106
2075 0 64.0721 13.1258 841 101.281 234.457 453.605
2076 0 66.0415 13.2947 878 101.646 234.946 452.54
2077 0 69.0221 13.416 926 101.321 234.776 450.773
2078 0 70.0576 13.3176 933 101.163 233.54 450.863
2079 0 72.0416 13.8115 995 100.522 233.703 450.069
2080 0 74.0686 13.4875 999 102.887 233.702 448.163
2081 0 76.0577 13.6081 1035 103.324 234.349 447.627
2082 0 77.0464 14.0175 1080 104.754 233.65 446.766
2083 0 81.0436 13.8814 1125 105.578 233.845 445.493
2084 0 83.078 13.5535 1126 107.706 234.849 446.247
2085 0 85.0363 14.1116 1200 106.4 234.79 443.923
2086 0 88.0608 13.8654 1221 108.319 234.583 442.906
2087 0 90.0189 14.0526 1265 108.396 234.606 442.666
2088 0 94.0632 14.1288 1329 108.302 234.23 440.352
2089 0 94.0228 13.8052 1298 112.086 234.803 437.831
2090 0 98.0585 14.0121 1374 111.371 235.096 437.002
2091 1 54.0641 10.9685 593 116 235.933 459.454
2092 0 58.0381 11.9749 695 113.427 235.39 457.262
2093 0 58.0234 13.2188 767 113.245 235.696 455.529
2094 0 59.04 13.1267 775 113.592 235.974 455.112
2095 0 63.0541 13.4646 849 109.066 235.585 454.597
2096 0 63.0736 13.2385 835 110.326 235.15 453.048
2097 0 65.0457 13.0524 849 110.974 234.088 450.485
2098 0 68.0491 13.4756 917 108.382 234.182 451.179
2099 0 68.0366 12.6256 859 108.012 234.343 449.664
2100 0 71.1071 13.1773 937 109.633 234.153 448.45
2101 0 72.0522 13.1571 948 110.281 234.667 447.598
2102 0 73.0697 12.6318 923 112.202 233.865 447.187
2103 0 76.0618 13.305 1012 108.243 234.077 445.688
2104 0 78.065 12.9251 1009 108.782 234.962 443.656
2105 0 81.1159 12.7349 1033 108.827 234.955 443.678
2106 0 83.0383 12.4641 1035 110.964 234.304 441.033
2107 0 84.1102 12.1626 1023 112.599 234.709 441.071
2108 0 88.0656 12.82 1129 109.756 234.642 439.403
2109 0 92.0872 12.7814 1177 109.43 234.934 437.192
2110 1 48.0621 10.8609 522 112.172 234.73 457.142
2111 0 51.0157 10.977 560 110.909 235.036 456.541
2112 0 51.0365 11.6779 596 108.453 235.663 455.485
2113 0 53.0223 12.2213 648 107.948 235.403 454.644
2114 0 52.035 12.2033 635 107.31 235.548 453.965
2115 0 55.0235 12.1948 671 104.82 235.088 451.563
2116 0 56.0191 11.3176 634 107.36 234.991 451.256
2117 0 56.1014 11.3188 635 107.104 235.068 450.102
2118 0 60.0605 11.4052 685 105.517 235.972 449.661
2119 0 61.0102 10.9162 666 106.087 235.716 447.971
2120 0 63.0332 10.5024 662 105.086 235.909 447
2121 0 65.0692 10.6963 696 104.378 235.846 446.283
2122 0 67.154 11.1386 748 103.278 235.932 444.369
2123 0 69.0208 10.8228 747 103.13 236.197 443.831
2124 0 71.0666 10.8631 772 102.811 236.729 443.488
2125 0 73.0744 10.3046 753 104.114 235.692 441.592
2126 0 79.0563 12.4974 988 96.8826 234.903 442.788
2127 0 83.1012 12.3223 1024 96.999 235.654 441.845
2128 0 85.1241 12.3819 1054 96.7685 235.888 440.721
2129 0 86.1344 12.1786 1049 98.6358 235.504 439.344
2130 0 88.2525 12.5776 1110 98.0523 235.238 438.208
2131 0 94.367 12.6315 1192 97.1611 235.501 436.463
2132 0 96.1659 12.728 1224 98.0025 235.822 435.464
2133 0 100.262 13.3949 1343 96.5339 236.172 434.201
2134 0 103.274 12.6654 1308 98.6743 235.883 433.877
2135 1 53.1624 11.3802 605 98.9868 236.388 455.878
2136 0 54.2422 11.4302 620 98.7903 236.619 455.723
2137 0 56.2078 11.4931 646 98.0913 236.638 454.042
2138 0 58.2148 12.4367 724 96.3964 236.257 453.753
2139 0 57.2922 11.8341 678 94.4661 235.562 452.751
2140 0 61.3542 11.9144 731 94.1765 235.291 452.806
2141 0 64.4333 12.5401 808 95.323 234.906 451.533
2142 0 63.4743 12.635 802 99.8641 234.87 449.269
2143 0 67.3167 13.0428 878 98.3314 234.829 450.852
2144 0 68.1987 12.4782 851 100.53 235.227 448.751
2145 0 73.4562 13.3549 981 97.5708 235.081 447.178
2146 0 73.2713 13.1429 963 100.269 235.295 446.044
2147 0 76.3299 13.2582 1012 100.312 235.038 445.166
2148 0 76.2409 13.2737 1012 101.169 236.241 444.2
2149 0 80.3665 13.3887 1076 101.207 235.818 444.009
2150 0 83.2895 13.6752 1139 101.378 235.789 440.082
2151 0 86.2448 13.9023 1199 100.488 235.727 439.678
2152 0 87.2659 14.9085 1301 91.7264 235.733 438.882
2153 0 89.2687 13.5546 1210 102.607 235.529 438.582
2154 0 92.2545 13.7229 1266 102.645 235.974 437.672
2155 0 95.2668 14.0238 1336 101.452 235.806 436.044
2156 0 98.3367 13.769 1354 102.114 235.608 435.148
2157 0 99.2211 13.5757 1347 104.48 235.723 432.074
2158 0 103.259 13.6743 1412 103.273 235.939 431.533
2159 1 54.1516 10.249 555 102.16 235.623 456.344
2160 0 55.2176 10.7393 593 101.108 236.752 454.784
2161 0 56.2557 11.6433 655 99.9145 236.835 452.342
2162 0 60.2682 12.5107 754 95.9708 235.912 451.52
2163 0 62.1709 12.1279 754 101.447 236.426 450.759
2164 0 62.1879 12.2693 763 101.971 236.081 450.557
2165 0 65.1247 12.8983 840 99.969 235.97 449.582
2166 0 68.173 13.4217 915 97.2831 236.154 449.333
2167 0 69.2746 13.1217 909 98.1045 236.673 447.892
2168 0 70.1439 12.6027 884 100.279 236.595 447.902
2169 0 73.2441 12.6017 923 99.0997 236.611 446.879
2170 0 75.3251 12.4925 941 99.933 236.33 444.565
2171 0 77.3227 12.4155 960 99.9104 236.634 443.839
2172 0 78.4098 12.677 994 99.0362 236.27 443.097
2173 0 80.2362 12.3136 988 100.644 236.331 440.742
2174 0 82.2333 12.6105 1037 99.9335 237.521 440.902
2175 0 84.2381 12.0136 1012 102.328 237.278 438.725
2176 0 86.1542 12.083 1041 101.451 236.896 437.437
2177 0 91.2182 12.2892 1121 100.13 237.054 436.24
2178 0 93.264 12.4056 1157 100.692 236.979 434.33
2179 0 96.2623 12.0296 1158 99.2073 236.532 434.315
2180 1 51.148 9.77555 500 98.03 236.826 455.914
2181 0 52.1213 10.629 554 96.2401 236.578 455.596
2182 0 54.1267 11.3622 615 92.3577 236.548 454.624
2183 0 55.1361 12.0792 666 91.0751 237.083 453.341
2184 0 57.1648 11.843 677 91.0576 237.142 452.888
2185 0 60.1199 12.1091 728 87.6552 237.216 451.885
2186 0 60.1098 11.8616 713 88.3647 236.912 449.98
2187 0 62.1092 11.8179 734 88.1267 236.44 448.576
2188 0 65.1482 12.1569 792 87.3447 237.085 447.687
2189 0 67.1307 12.1852 818 86.0281 236.375 448.845
2190 0 67.0969 12.6533 849 86.1037 237.038 448.18
2191 0 69.1073 11.9814 828 88.9819 236.429 447.678
2192 0 72.1384 12.2126 881 88.2338 236.494 446.356
2193 0 75.0677 12.6686 951 86.9926 236.159 445.7
2194 0 75.0634 12.243 919 89.0598 236.737 443.171
2195 0 77.172 12.2195 943 90.2365 236.223 442.907
2196 0 80.1142 12.1452 973 90.0586 236.548 442.024
2197 0 83.1042 13.0318 1083 88.5162 236.709 440.406
2198 0 85.1455 12.8486 1094 90.1399 236.238 439.767
2199 0 89.1375 12.7219 1134 90.7275 236.44 438.204
2200 0 91.2199 12.7275 1161 91.242 236.745 437.2
2201 0 95.1191 13.2255 1258 89.4467 236.757 437.11
2202 0 97.2301 13.0104 1265 90.7905 237.864 435.284
2203 0 100.297 12.6125 1265 91.8656 237.772 432.515
2204 1 53.1706 10.7954 574 90.7038 237.019 456.718
2205 0 53.1793 10.5304 560 91.7018 237.484 456.227
2206 0 55.2352 11.098 613 90.3866 237.56 455.116
2207 0 57.1827 12.3289 705 87.8482 236.658 453.633
2208 0 61.1237 11.8285 723 81.704 237.131 453.873
2209 0 60.117 12.0099 722 82.2756 236.6 453.309
2210 0 62.1324 12.0227 747 82.8527 236.886 451.677
2211 0 64.158 11.8769 762 82.9409 236.694 451.167
2212 0 68.1913 12.1277 827 83.2285 236.717 450.023
2213 0 70.1409 12.3181 864 81.5521 236.596 448.177
2214 0 71.2957 12.2448 873 85.1787 237.077 447.64
2215 0 76.1627 13.2348 1008 82.7341 237.076 446.544
2216 0 77.2516 13.0742 1010 84.1604 237.19 445.699
2217 0 80.2121 15.1099 1212 71.5569 236.303 444.39
2218 0 83.2375 13.4555 1120 86.8071 235.941 442.914
2219 0 86.2484 13.5655 1170 85.0821 235.853 440.921
2220 0 89.2479 12.9303 1154 85.708 236.453 440.424
2221 0 91.1802 12.8098 1168 85.9503 235.414 438.665
2222 0 94.1692 12.9129 1216 85.7105 235.696 437.305
2223 0 95.2028 12.5942 1199 86.4062 235.744 437.791
2224 0 99.185 12.9153 1281 85.9079 236.137 435.82
2225 0 102.229 13.01 1330 85.1737 236.448 434.07
2226 0 104.273 13.8579 1445 83.726 236.194 430.424
2227 1 55.1034 10.562 582 85.8247 235.237 457.289
2228 0 58.1183 11.1669 649 82.8413 235.49 456.821
2229 0 60.122 11.6596 701 81.1027 235.65 455.879
2230 0 61.1275 12.3839 757 78.2048 235.655 453.379
2231 0 65.1419 11.8971 775 83.1845 234.782 452.903
2232 0 68.0448 12.4036 844 83.3934 236.397 451.886
2233 0 69.0435 11.3986 787 85.7675 236.625 451.198
2234 0 69.0347 12.472 861 85.1568 236.231 450.498
2235 0 74.0233 11.9962 888 85.5619 236.596 450.515
2236 0 74.0571 12.4228 920 84.9946 236.41 449.679
2237 0 77.0481 12.7583 983 85.0376 236.416 447.964
2238 0 80.0185 12.2597 981 85.9745 236.373 447.296
2239 0 81.0357 12.7598 1034 84.9487 236.958 444.976
2240 0 86.0449 12.9816 1117 83.9329 237.266 444.021
2241 0 86.0302 12.019 1034 87.5087 236.744 442.342
2242 1 44.0257 10.5393 464 86.3513 236.267 464.343
2243 0 46.047 10.511 484 86.7355 236.103 464.157
2244 0 46.055 12.0074 553 84.6799 234.512 462.722
2245 0 49.1389 12.4545 612 84.3154 235.33 462.778
2246 0 49.1091 11.8104 580 84.8207 235.003 461.391
2247 0 49.0477 11.4174 560 85.5857 235.021 462.145
2248 0 53.0405 12.2736 651 86.937 234.765 460.495
2249 0 54.0909 12.2202 661 87.941 235.174 459.862
2250 0 54.0755 12.538 678 87.6401 235.568 458.879
2251 0 56.0687 12.235 686 89.0758 235.656 457.216
2252 0 59.0716 12.6457 747 88.1633 235.182 456.27
2253 0 60.071 13.2676 797 88.9912 235.188 455.452
2254 0 63.0879 12.9185 815 89.1252 235.096 455.237
2255 0 64.0887 13.0912 839 89.9392 235.62 454.186
2256 0 65.0679 13.217 860 90.2186 235.372 454.09
2257 0 68.1375 12.8417 875 91.3531 235.422 452.758
2258 0 70.0948 13.496 946 89.6512 235.557 452.702
2259 0 72.1068 13.0224 939 90.2066 234.988 451.252
2260 0 73.1033 13.8708 1014 89.2012 234.877 450.596
2261 0 76.0738 13.947 1061 88.6927 235.285 449.114
2262 0 79.0675 13.9375 1102 88.8593 235.473 448.222
2263 0 80.2473 13.5706 1089 90.405 235.817 447.621
2264 0 82.085 12.7551 1047 93.3142 236.118 445.387
2265 0 86.1541 13.1044 1129 91.8849 236.089 445.114
2266 0 89.1335 13.0366 1162 91.3597 236.83 443.59
2267 0 90.109 12.3961 1117 93.6795 236.211 443.3
2268 0 94.1329 12.9179 1216 92.8092 236.026 440.626
2269 0 96.1269 12.5251 1204 94.1321 235.667 441.208
2270 1 52.0617 11.9474 622 92.1495 236.429 461.826
2271 0 54.0508 12.7658 690 89.7884 235.278 459.836
2272 0 56.0924 13.2817 745 88.7087 235.828 459.766
2273 0 57.0578 13.092 747 88.9157 235.862 459.699
2274 0 58.0823 12.9816 754 90.4576 236.411 458.599
2275 0 58.0569 13.814 802 89.3254 235.887 458.931
2276 0 60.0815 13.1654 791 91.4539 236.005 457.407
2277 0 63.153 13.9027 878 87.7062 235.773 456.473
2278 0 64.1014 13.7282 880 89.3591 234.893 455.577
2279 0 66.095 13.9042 919 89.2339 235.738 455.878
2280 0 67.0643 14.0462 942 89.7473 236.057 455.273
2281 0 69.0354 13.7611 950 91.4768 235.341 453.475
2282 0 72.0478 14.3238 1032 89.5795 235.802 452.219
2283 0 72.0451 13.8386 997 92.7723 236.067 451.097
2284 0 76.062 14.4619 1100 90.0564 236.256 451.064
2285 0 77.068 14.351 1106 90.4819 236.866 450.604
2286 0 80.0473 14.9537 1197 88.0192 235.835 447.273
2287 0 81.0961 14.6986 1192 89.3138 235.831 448.306
2288 0 85.0666 15.3057 1302 87.3218 235.979 444.869
2289 0 85.0489 14.6504 1246 90.7825 236.028 444.423
2290 0 88.0436 14.5042 1277 90.7964 236.172 444.171
2291 0 91.078 14.6358 1333 90.6062 236.462 442.856
2292 0 93.0776 14.4718 1347 90.6563 236.065 441.022
2293 0 92.14 13.0562 1203 95.261 235.895 441.879
2294 0 95.0824 13.3253 1267 94.1768 236.657 440.835
2295 0 99.079 13.1107 1299 93.3041 236.269 440.617
2296 0 101.064 12.7642 1290 94.3442 236.671 435.919
2297 1 52.0325 11.4928 598 92.9047 236.423 460.898
2298 0 53.1018 11.8828 631 92.3518 236.141 459.453
2299 0 57.1324 12.4623 712 89.1545 235.721 459.697
2300 0 56.0368 13.3841 750 86.5613 235.607 458.56
2301 0 58.0619 13.6062 790 86.4405 235.699 457.723
2302 0 61.0244 13.5847 829 85.2413 236.179 455.94
2303 0 61.0421 13.1221 801 87.7516 236.929 455.7
2304 0 64.0162 12.7312 815 88.146 237.244 456.293
2305 0 65.018 13.3194 866 87.1247 237.21 454.62
2306 0 68.0159 13.8497 942 85.4554 236.702 453.563
2307 0 71.0833 13.2943 945 86.2233 236.159 453.086
2308 0 73.0197 14.229 1039 84.3099 235.71 453.064
2309 0 75.0359 14.593 1095 84.39 235.809 451.143
2310 0 76.0461 14.0047 1065 86.1531 235.793 450.984
2311 0 79.0212 13.4015 1059 87.3588 236.225 448.781
2312 0 79.0289 13.59 1074 87.4507 236.347 448.468
2313 0 83.0376 13.7528 1142 86.2855 235.607 447.32
2314 0 86.0716 14.6855 1264 83.2801 234.801 445.543
2315 0 88.0883 14.3833 1267 84.8074 234.695 443.747
2316 0 90.0438 13.9599 1257 86.358 235.479 444.274
2317 0 92.0789 13.6188 1254 86.6507 235.821 442.644
2318 0 96.0544 14.0962 1354 85.6876 235.205 440.962
2319 0 96.0425 12.9838 1247 90.081 234.843 438.202
2320 0 102.091 13.39 1367 87.8632 234.797 436.498
2321 1 54.0643 11.2829 610 91.1934 234.513 459.315
2322 0 56.04 12.7587 715 89.6797 234.397 457.308
2323 0 59.0103 13.6247 804 87.3905 234.715 456.587
2324 0 59.0402 13.4654 795 89.7296 235.186 455.335
2325 0 60.0416 13.9403 837 89.6045 234.76 454.448
2326 0 65.0334 13.9774 909 88.1859 235.477 452.387
2327 0 64.0371 12.9925 832 92.9808 235.843 452.236
2328 0 67.0455 13.6027 912 91.523 236.084 448.883
2329 0 70.0483 14.0189 982 90.7862 235.779 448.851
2330 0 68.0402 12.8013 871 96.8439 235.558 448.094
2331 0 73.0352 13.4729 984 94.1768 236.107 445.826
2332 0 74.0418 13.3843 991 96.1645 237.093 445.784
2333 0 76.0222 13.3908 1018 97.4804 236.795 445.447
2334 0 79.079 13.8216 1093 96.4346 236.586 443.514
2335 0 84.0526 13.8009 1160 96.1009 237.388 442.177
2336 0 84.1064 13.2451 1114 99.0925 236.565 442.019
2337 0 87.0794 13.2408 1153 98.9792 236.59 440.758
2338 0 91.0508 13.476 1227 99.0766 236.222 440.029
2339 0 94.1421 12.9379 1218 100.616 236.461 438.776
2340 0 95.0753 13.5472 1288 99.7842 236.995 437.656
2341 0 99.1338 12.9421 1283 101.407 236.582 436.687
2342 1 52.0598 11.871 618 96.6214 237.316 460.395
2343 0 54.0261 11.9387 645 95.1054 235.904 458.989
2344 0 56.069 12.9662 727 96.9202 235.978 457.124
2345 0 58.1317 12.8157 745 97.6886 235.86 457.758
2346 0 59.0221 12.8257 757 98.074 237.223 456.988
2347 0 63.109 12.7399 804 97.658 236.591 456.164
2348 0 63.0378 13.2619 836 98.4067 236.001 456.278
2349 0 64.0653 12.7058 814 100.684 236.221 456.184
2350 0 66.0568 13.3521 882 98.9819 235.688 454.838
2351 0 69.1135 12.8629 889 100.471 234.997 454.204
2352 0 71.1604 13.9825 995 97.9769 235.148 453.781
2353 0 73.0777 13.2188 966 101.391 235.361 452.615
2354 0 76.0886 13.3397 1015 100.007 234.562 452.899
2355 0 78.1846 13.7495 1075 100.529 234.778 451.821
2356 0 81.0933 14.0455 1139 99.5935 234.706 451.681
2357 0 83.1185 13.4988 1122 101.394 234.755 450.34
2358 0 87.1927 13.5562 1182 100.211 234.816 449.063
2359 0 87.2043 12.5338 1093 99.4785 234.146 450.292
2360 0 89.0949 12.5035 1114 100.93 234.661 449.261
2361 0 91.1085 11.7772 1073 103.519 234.121 449.251
2362 0 95.091 12.7983 1217 102.023 233.864 446.497
2363 1 50.1153 11.8128 592 104.397 233.546 466.699
2364 0 54.0994 12.6064 682 101.472 233.399 465.79
2365 0 54.1374 12.9116 699 102.413 233.217 465.187
2366 0 56.0919 12.4795 700 103.916 233.23 463.743
2367 0 56.0657 12.8242 719 104.716 232.861 462.893
2368 0 60.1009 13.1778 792 102.386 233.144 461.817
2369 0 61.0591 12.6926 775 104.314 235.036 459.724
2370 0 64.066 13.7358 880 100.636 233.19 459.058
2371 0 63.0305 13.7552 867 102.57 232.879 457.977
2372 0 66.1084 13.5686 897 102.983 231.627 456.912
2373 0 69.0847 13.7078 947 102.268 231.704 456.117
2374 0 68.0599 12.9004 878 104.01 231.847 457.47
2375 0 69.0667 12.3793 855 107.199 232.019 457.151
2376 0 73.0452 13.0741 955 104.354 232.132 456.222
2377 0 74.0881 12.998 963 105.694 232.563 455.52
2378 0 76.054 13.188 1003 105.732 232.689 453.843
2379 0 79.096 13.0474 1032 106.072 232.834 452.573
2380 0 80.0789 12.9372 1036 107.466 232.586 450.54
2381 0 84.032 13.1736 1107 106.572 231.921 449.098
2382 0 86.101 13.1822 1135 107.341 232.431 446.969
2383 0 88.0819 13.1355 1157 108.931 232.824 445.814
2384 0 91.1211 13.2132 1204 108.61 232.761 444.233
2385 0 93.1262 13.4119 1249 109.425 231.953 440.544
2386 0 96.133 14.095 1355 106.196 233.355 442.339
2387 0 98.1333 13.8791 1362 108.192 233.577 440.035
2388 0 101.174 14.6283 1480 104.614 233.524 438.003
2389 0 105.249 14.6699 1544 104.99 233.382 434.252
2390 0 109.204 14.9903 1637 103.181 232.919 432.569
2391 0 111.184 14.5075 1613 104.278 234.116 431.315
2392 0 119.199 14.6226 1743 101.557 233.758 428.845
2393 0 121.185 13.6155 1650 104.556 233.899 425.886
2394 1 68.0816 12.3234 839 100.883 234.011 454.015
2395 0 70.1386 11.8337 830 101.959 234.255 451.722
2396 0 71.1435 12.9176 919 98.2535 233.93 449.913
2397 0 71.1079 12.9943 924 102.489 233.975 449.244
2398 0 75.1693 12.7712 960 101.583 233.164 448.469
2399 0 77.198 13.1351 1014 101.105 232.824 445.628
2400 0 79.1231 12.6133 998 103.421 233.63 444.563
2401 0 81.1498 12.6679 1028 104.354 233.316 444.298
2402 0 84.1758 13.0085 1095 103.392 233.422 443.796
2403 0 86.1274 13.0156 1121 104.996 233.03 441.673
2404 0 90.1586 13.5983 1226 103.043 233.123 441.075
2405 0 93.1444 13.5059 1258 102.836 233.709 441.614
2406 0 98.135 13.5629 1331 102.394 234.075 438.784
2407 0 99.0972 13.0175 1290 105.667 233.883 436.354
2408 0 102.137 12.6595 1293 106.504 234.77 435.243
2409 1 54.0593 11.0434 597 105.097 233.972 459.583
2410 0 56.0816 12.1609 682 101.487 234.491 459.019
2411 0 57.2012 12.3774 708 96.9322 235.948 457.623
2412 0 59.2478 12.2536 726 102.558 235.435 457.921
2413 0 59.2004 12.5506 743 103.548 235.288 456.467
2414 0 62.1451 12.5674 781 102.151 234.933 456.665
2415 0 63.1381 12.5439 792 103.196 235.404 453.699
2416 0 64.1612 12.8271 823 103.162 235.497 452.75
2417 0 65.1557 12.5392 817 104.328 235.341 452.366
2418 0 70.1739 12.925 907 101.662 234.927 451.84
2419 0 71.1408 12.5807 895 103.669 236.152 450.526
2420 0 73.1596 12.917 945 102.675 236.275 452.218
2421 0 76.1625 13.2874 1012 102.114 236.724 450.363
2422 0 80.1392 13.4766 1080 100.545 236.839 449.457
2423 0 81.1386 13.1996 1071 102.666 236.941 448.168
2424 0 84.1119 12.4477 1047 105.791 236.573 446.997
2425 0 86.1113 13.5174 1164 103.004 237.33 445.949
2426 0 88.1845 12.7233 1122 106.582 236.823 440.677
2427 0 92.1278 13.7526 1267 102.842 236.882 440.254
2428 1 47.1302 11.0333 520 103.438 235.91 463.437
2429 0 49.1039 11.7099 575 102.734 235.198 462.602
2430 0 50.0762 11.782 590 102.249 235.847 461.466
2431 0 52.018 12.2265 636 102.189 235.906 461.178
2432 0 55.116 12.5916 694 102.195 236.514 460.598
2433 0 54.1772 12.7729 692 102.568 236.357 461.397
2434 0 56.1628 12.3035 691 104.072 236.511 460.103
2435 0 56.0806 12.4464 698 104.348 236.698 460.007
2436 0 60.2357 12.5009 753 103.405 235.368 458.61
2437 0 61.1319 12.1213 741 105.034 235.595 458.024
2438 0 62.1732 12.5778 782 104.797 235.619 456.967
2439 0 62.1757 12.8668 800 104.619 235.944 456.226
2440 0 65.102 12.2423 797 105.573 235.713 455.423
2441 0 68.0912 12.6889 864 104.356 235.965 454.388
2442 0 68.1372 12.739 868 105.717 235.993 453.76
2443 0 69.1758 12.7357 881 106.82 236.035 453.128
2444 0 73.1542 13.6014 995 103.872 236.296 451.779
2445 0 76.1437 13.0411 993 104.895 236.204 451.355
2446 0 78.116 13.4415 1050 104.499 235.904 451.01
2447 0 80.1079 13.719 1099 104.234 235.59 448.762
2448 0 84.1927 13.7423 1157 103.486 235.71 447.368
2449 0 85.1883 13.9573 1189 103.331 235.814 446.373
2450 0 86.1799 13.2397 1141 106.714 235.764 444.585
2451 0 89.144 12.9678 1156 107.602 235.513 443.461
2452 0 93.2194 12.8943 1202 105.911 235.002 441.349
2453 1 52.1491 11.3712 593 103.597 235.934 462.519
2454 0 54.1417 11.4514 620 102.605 234.877 461.079
2455 0 55.0914 12.5246 690 99.4203 235.614 459.903
2456 0 56.0264 13.0653 732 102.324 236.12 458.981
2457 0 59.1109 12.891 762 105.034 235.936 458.657
2458 0 60.0638 13.1693 791 105.153 236.531 457.774
2459 0 59.0844 13.083 773 107.225 236.066 457.36
2460 0 62.0749 12.9682 805 107.481 235.965 456.219
2461 0 63.129 12.6408 798 108.613 235.782 456.85
2462 0 66.0797 12.9389 855 106.696 234.491 457.28
2463 0 67.0572 13.2424 888 106.252 235.236 455.197
2464 0 69.0456 13.2376 914 104.918 235.234 454.719
2465 0 72.0805 13.3601 963 104.34 234.833 453.075
2466 0 74.0763 13.2701 983 104.267 234.572 452.315
2467 0 77.1194 12.9928 1002 104.306 235.341 451.903
2468 0 80.1516 13.2624 1063 102.212 235.122 450.676
2469 0 83.1262 13.3171 1107 101.422 236.017 449.184
2470 0 85.1272 12.7574 1086 102.912 235.494 448.413
2471 0 88.1711 13.1903 1163 100.913 235.484 446.641
2472 0 90.16 12.4556 1123 102.289 235.564 446.083
2473 0 94.1747 12.5193 1179 100.574 235.698 444.072
2474 1 49.148 11.2517 553 98.2025 235.993 465.219
2475 0 50.1739 11.4004 572 98.9318 236.488 461.315
2476 0 53.0865 12.3572 656 94.9802 236.305 460.078
2477 0 54.2337 12.5937 683 96.593 236.167 460.303
2478 0 53.1321 12.4407 661 97.7474 235.634 462.189
2479 0 56.2291 12.4846 702 95.7863 235.618 459.845
2480 0 58.1031 12.6327 734 92.9305 235.395 459.183
2481 0 59.1994 12.8718 762 92.1667 236.081 457.228
2482 0 61.2181 13.1334 804 90.0373 236.052 457.121
2483 0 63.1695 12.9809 820 89.1037 236.032 455.272
2484 0 65.1168 12.132 790 87.7684 236.665 451.647
2485 0 66.1444 12.2459 810 87.3185 236.488 451.077
2486 0 68.1875 12.6709 864 85.4907 236.478 449.771
2487 0 68.113 11.7892 803 88.0934 236.776 448.448
2488 0 70.2208 12.2898 863 87.1981 236.349 447.549
2489 0 73.1298 12.4573 911 86.1142 236.065 445.679
2490 0 76.137 12.8847 981 83.9623 235.872 445.503
2491 0 77.1684 12.5958 972 84.9588 235.987 445.102
2492 0 79.1184 12.791 1012 85.1927 236.002 444.113
2493 0 83.1101 12.8986 1072 84.1241 235.178 443.382
2494 1 44.026 11.4705 505 86.9564 234.899 460.958
2495 0 46.0622 11.5496 532 86.938 234.615 454.195
2496 0 48.035 12.3035 591 84.5076 234.518 452.685
2497 0 47.0571 12.963 610 80.2262 234.446 445.221
2498 0 49.0338 12.7259 624 81.375 234.978 442.526
2499 0 52.0343 13.2028 687 87.9767 234.902 454.563
2500 0 54.0865 13.238 716 85.7891 234.663 450.975
2501 0 54.0883 13.9771 756 85.2672 234.934 449.849
2502 0 55.0611 14.0753 775 86 234.919 449.12
2503 0 56.0862 13.4436 754 87.305 235.324 448.836
2504 0 59.0968 13.7571 813 86.2571 235.598 447.897
2505 0 60.1081 13.4923 811 87.3884 235.09 448.078
2506 0 61.133 14.3948 880 85.5352 235.177 446.397
2507 0 63.0736 13.6666 862 86.877 234.485 445.476
2508 0 66.1683 13.1785 872 87.25 235.404 445.273
2509 0 69.2742 13.396 928 86.111 235.585 444.14
2510 0 69.1978 12.9628 897 88.078 235.051 443.35
2511 0 72.1936 13.6577 986 86.2576 234.79 441.699
2512 0 75.2473 13.5154 1017 86.1249 234.758 442.262
2513 0 76.2452 13.9812 1066 85.9418 235.28 441.375
2514 0 80.2147 13.8129 1108 86.8366 234.692 439.838
2515 0 83.2551 14.1733 1180 86.3127 234.498 438.333
2516 0 84.2577 14.337 1208 86.9685 234.66 436.944
2517 0 87.2524 14.3492 1252 87.0823 235.242 435.604
2518 0 90.1946 14.9676 1350 86.8511 235.072 434.004
2519 0 92.2182 14.4765 1335 89.2891 234.999 433.082
2520 0 95.1783 15.4132 1467 87.8855 235.065 431.931
2521 0 97.2863 14.9353 1453 90.9229 234.642 431.419
2522 0 100.328 14.7317 1478 91.6313 234.91 430.084
2523 1 52.1136 13.2019 688 98.157 234.634 450.952
2524 0 53.1075 13.708 728 97.1525 234.232 450.552
2525 0 55.1485 13.5996 750 99.0533 233.919 449.076
2526 0 56.2049 13.5397 761 100.565 233.301 447.77
2527 0 59.1802 13.8222 818 100.576 233.881 447.866
2528 0 60.1923 13.8888 836 101.376 234.81 447.981
2529 0 61.1838 14.3339 877 100.685 234.414 448.228
2530 0 62.2558 13.6694 851 106.236 234.142 446.002
2531 0 64.2611 14.2855 918 106.472 234.211 444.753
2532 0 63.3262 13.8805 879 108.678 233.65 444.482
2533 0 67.2378 14.0546 945 110.897 233.689 442.605
2534 0 68.1763 13.5678 925 114.135 233.415 441.949
2535 0 70.3255 13.9068 978 115.369 233.284 438.938
2536 0 73.4276 14.3679 1055 114.648 233.201 440.829
2537 0 73.3218 14.0067 1027 118.163 234.166 439.39
2538 0 77.318 14.602 1129 118.491 234.266 438.359
2539 0 78.3184 14.4283 1130 120.179 233.889 436.654
2540 0 79.4041 14.4577 1148 122.913 233.882 437.666
2541 0 83.3521 14.3968 1200 123.585 233.858 436.145
2542 0 86.4402 14.2758 1234 124.335 233.752 436.145
2543 0 86.3862 14.4931 1252 127.215 234.694 435.647
2544 0 87.303 14.6959 1283 129.073 234.772 434.633
2545 0 89.3354 14.384 1285 131.772 234.418 435.11
2546 0 91.3701 14.5015 1325 132.584 234.254 434.058
2547 0 94.2661 14.1408 1333 133.374 235.022 432.788
2548 0 97.255 14.3026 1391 132.661 234.994 433.118
2549 0 100.34 14.8794 1493 131.464 234.768 432.721
2550 0 104.25 14.4556 1507 133.748 233.808 429.548
2551 0 105.196 15.0671 1585 132.538 233.814 428.872
2552 0 109.268 15.4757 1691 131.312 234.52 428.249
2553 0 111.308 15.9377 1774 132.108 234.648 428.84
2554 0 116.343 15.7724 1835 133.867 235.381 427.273
2555 0 118.304 15.4348 1826 135.945 235.549 425.343
2556 0 121.251 15.4803 1877 138.07 235.877 422.973
2557 0 126.366 15.0516 1902 140.787 234.967 421.08
2558 0 129.401 15.8114 2046 139.352 234.523 419.112
2559 0 134.341 15.9519 2143 137.43 235.195 416.784
2560 0 136.286 15.7904 2152 139.085 234.573 413.334
2561 0 139.313 15.9282 2219 138.975 234.218 411.001
2562 0 144.233 16.0435 2314 137.136 234.669 409.355
2563 0 148.129 15.8443 2347 137.003 234.478 405.955
2564 0 153.078 15.9527 2442 135.188 234.734 404.835
2565 0 157.163 15.4808 2433 136.192 234.76 402.434
2566 1 72.1461 11.0193 795 136.987 235.054 444.114
2567 0 75.1268 11.4074 857 136.586 235.204 443.517
2568 0 78.1752 12.165 951 133.751 235.047 443.04
2569 0 80.1893 12.882 1033 138.525 235.649 442.169
2570 0 83.1639 12.9263 1075 137.367 235.401 438.774
2571 0 85.1811 12.8197 1092 137.373 235.473 437.973
2572 0 91.2264 13.0225 1188 133.467 235.308 436.39
2573 0 93.225 13.0759 1219 134.607 235.005 436.025
2574 0 93.1825 12.7814 1191 137.243 235.175 434.855
2575 0 99.1887 13.0862 1298 135.357 235.213 434.386
2576 0 101.158 13.0687 1322 137.34 234.905 430.33
2577 0 101.152 13.0991 1325 158.174 233.886 430.214
2578 0 109.247 13.4466 1469 136.016 235.431 427.373
2579 0 113.236 13.5734 1537 134.741 234.851 425.092
2580 0 116.24 13.2485 1540 136.144 235.223 424.242
2581 0 120.273 13.3446 1605 136.67 235.583 423.2
2582 1 64.1548 10.7864 692 130.871 234.902 451.348
2583 0 67.1893 11.2667 757 125.98 235.857 450.774
2584 0 69.2192 11.7886 816 122.661 236.691 449.642
2585 0 73.2588 10.9338 801 124.116 236.529 447.898
2586 0 74.2043 11.2123 832 124.486 236.897 446.178
2587 0 78.2438 10.7996 845 124.193 236.832 445.075
2588 0 79.2242 11.5495 915 122.221 236.819 444.052
2589 0 81.258 11.7035 951 120.616 236.241 443.103
2590 0 83.2187 11.5118 958 120.961 236.18 442.454
2591 0 87.3049 11.3167 988 119.969 235.987 440.841
2592 0 90.3287 10.9378 988 121.507 235.849 437.701
2593 0 94.3482 11.5424 1089 117.508 236.174 435.979
2594 0 97.3272 11.2404 1094 116.414 236.676 435.842
2595 0 101.192 11.2953 1143 115.008 236.202 432.283
2596 0 104.299 11.2369 1172 114.782 235.999 429.775
2597 0 106.261 11.2835 1199 115.095 236.656 428.291
2598 0 109.16 11.1304 1215 114.295 236.33 426.621
2599 0 115.172 11.3309 1305 113.078 236.221 424.538
2600 0 119.19 11.2677 1343 113.413 236.614 423.92
2601 0 120.232 10.6876 1285 114.882 236.388 423.314
2602 1 54.159 9.25053 501 105.162 236.749 455.747
2603 0 58.0922 9.91528 576 102.368 237.425 454.34
2604 0 60.063 10.4723 629 100.394 237.493 452.426
2605 0 63.0691 10.3537 653 99.732 236.421 449.371
2606 0 63.049 11.3721 717 98.2092 236.748 450.198
2607 0 64.0366 10.9781 703 100.088 237.238 448.861
2608 0 68.0166 11.1002 755 99.1325 236.544 447.98
2609 0 68.0352 11.5088 783 99.4036 236.562 447.762
2610 0 70.021 11.6536 816 98.9914 236.138 446.485
2611 0 72.0714 11.7106 844 98.5427 236.532 445.098
2612 0 76.0651 12.0292 915 95.4295 236.311 444.541
2613 0 78.059 11.8116 922 95.4675 235.859 443.742
2614 0 80.1104 12.1707 975 95.199 236.071 440.413
2615 0 82.1217 11.8726 975 95.0359 236.982 440.353
2616 0 84.0586 12.1344 1020 94.5588 237.062 440.807
2617 0 87.1021 11.6415 1014 95.8284 236.848 439.12
2618 0 88.0689 12.1155 1067 96.4724 236.178 439.202
2619 0 91.1594 11.4964 1048 99.4905 236.219 436.189
2620 0 93.214 11.7364 1094 99.9689 235.986 434.817
2621 0 96.2664 11.8733 1143 100.213 236.254 433.277
2622 0 98.2403 12.0114 1180 102.542 236.203 432.325
2623 0 102.195 11.6738 1193 105.147 235.457 431.56
2624 0 104.32 12.2507 1278 103.647 235.533 429.827
2625 0 108.187 12.1641 1316 103.978 235.786 426.239
2626 0 110.265 11.8895 1311 105.684 235.528 425.51
2627 0 114.289 12.3634 1413 105.27 235.916 424.043
2628 0 115.241 12.1051 1395 104.853 236.008 422.234
2629 0 118.174 11.9485 1412 105.7 236.251 419.334
2630 0 124.238 12.4519 1547 102.922 236.286 416.679
2631 0 125.229 12.2655 1536 104.128 236.116 415.781
2632 0 130.194 12.9729 1689 102.667 235.627 415.145
2633 0 132.14 12.4868 1650 104.036 235.193 412.45
2634 0 136.17 12.3595 1683 104.624 236.147 409.403
2635 0 140.157 12.2291 1714 105.407 235.519 408.221
2636 0 146.19 12.9626 1895 101.517 235.693 407.167
2637 0 150.221 12.3419 1854 105.252 236.17 404.699
2638 0 153.231 12.5432 1922 105.521 236.546 403.722
2639 0 158.186 12.6813 2006 104.637 236.489 401.531
2640 0 161.224 12.6408 2038 105.013 236.486 398.21
2641 0 167.219 12.8873 2155 104.48 236.005 395.358
2642 0 170.192 12.4506 2119 106.553 235.328 392.085
2643 0 175.19 12.3067 2156 106.969 235.301 390.431
2644 0 181.201 12.4447 2255 107.076 235.39 385.727
2645 0 187.299 12.5415 2349 105.241 234.928 383.377
2646 0 191.328 12.4707 2386 105.039 233.865 378.554
2647 0 200.374 13.35 2675 103.322 234.222 379.995
2648 0 205.418 13.4749 2768 104.144 235.413 374.84
2649 0 211.453 13.1377 2778 104.468 235.225 371.954
2650 1 155.319 10.5332 1636 101.733 235.144 407.352
2651 0 161.482 11.8527 1914 101.854 235.09 404.447
2652 0 166.602 12.3888 2064 102.159 235.201 400.641
2653 0 170.448 11.945 2036 110.489 234.683 394.563
2654 0 175.392 12.0929 2121 110.565 235.511 390.537
2655 0 180.349 12.7198 2294 107.836 235.39 389.994
2656 0 186.398 12.7308 2373 106.055 235.192 387.968
2657 0 190.333 12.4204 2364 106.964 236.237 385.028
2658 0 197.358 12.8041 2527 107.808 236.051 380.091
2659 0 203.38 12.5774 2558 108.28 235.753 379.208
2660 0 208.352 12.6996 2646 108.272 235.421 377.469
2661 0 214.201 12.3435 2644 108.546 235.224 375.43
2662 1 59.0411 9.73898 575 93.5061 237.247 453.923
2663 0 62.0399 10.461 649 93.6394 237.73 452.193
2664 0 62.192 10.757 669 95.1271 236.439 452.433
2665 0 63.1813 10.7627 680 96.2706 236.543 451.206
2666 0 64.1632 10.5201 675 98.0089 236.268 448.378
2667 0 65.1595 10.482 683 99.6281 235.918 447.302
2668 0 65.1619 10.6044 691 99.809 235.459 445.12
2669 0 68.176 10.8102 737 98.8467 235.917 446.43
2670 0 70.1778 9.93192 697 101.723 235.197 446.069
2671 0 72.2479 10.2425 740 101.195 235.97 445.353
2672 0 71.198 10.2671 731 101.328 236.134 443.665
2673 0 74.1861 10.6624 791 99.5828 236.296 442.236
2674 0 81.2216 12.3736 1005 94.992 235.877 442.88
2675 0 81.1597 11.6437 945 89.9577 236.083 442.701
2676 0 82.1294 10.9948 903 95.7929 235.746 440.569
2677 1 47.1244 9.93115 468 91.1752 236.748 459.722
2678 0 47.1102 10.5497 497 88.9135 236.763 458.646
2679 0 50.114 10.7355 538 86.9963 237.414 457.169
2680 0 51.248 11.4151 585 88.3026 236.243 453.207
2681 0 51.0221 10.6816 545 92.5798 236.565 454.717
2682 0 54.0154 10.9598 592 92.2027 236.27 455.944
2683 0 57.0216 11.9429 681 86.9736 236.595 457.862
2684 0 56.0134 11.4973 644 89.4317 236.675 456.376
2685 0 58.2343 11.9174 694 88.536 235.501 457.218
2686 0 59.2291 11.6159 688 90.3837 235.616 456.621
2687 0 63.2056 12.6571 800 87.1375 235.53 455.936
2688 0 64.2363 13.0767 840 86.819 235.425 454.929
2689 0 62.2112 12.2004 759 90.0843 235.556 454.03
2690 0 64.1944 12.6958 815 90.7178 234.699 452.991
2691 0 65.1604 12.5229 816 91.6973 235.033 452.227
2692 0 68.2063 12.7847 872 91.0631 234.808 451.881
2693 0 69.1806 13.4286 929 90.6825 235.132 451.604
2694 0 69.1377 13.3791 925 90.6811 235.452 451.71
2695 0 72.1198 13.4914 973 89.9774 235.422 450.415
2696 0 72.1326 13.5861 980 90.9816 235.048 449.705
2697 0 74.1186 13.0736 969 93.5098 234.615 448.004
2698 0 75.0715 13.2141 992 94.6623 234.605 447.546
2699 0 76.0682 12.7649 971 95.4789 234.135 446.737
2700 0 80.0793 13.6615 1094 91.6654 234.199 445.72
2701 0 81.0531 13.1025 1062 93.9303 234.055 444.548
2702 0 83.0545 13.4731 1119 93.1841 233.736 445.004
2703 0 83.0749 11.4957 955 92.134 233.87 445.473
2704 0 85.0673 12.1433 1033 90.1839 234.646 443.636
2705 0 87.0989 12.549 1093 89.8198 234.388 442.067
2706 0 91.0736 12.3966 1129 91.2462 233.991 440.454
2707 0 92.0831 12.4344 1145 91.5336 234.041 437.905
2708 0 93.0712 12.195 1135 93.1524 235.257 437.425
2709 0 95.0739 12.5166 1190 93.795 234.382 436.058
2710 0 99.0871 12.9583 1284 93.9618 234.734 434.244
2711 0 101.11 12.5606 1270 96.1165 234.317 432.331
2712 0 104.052 12.7724 1329 96.0497 234.918 433.795
2713 0 108.097 13.1456 1421 95.4018 234.013 431.064
2714 0 111.1 12.9523 1439 95.7179 234.655 430.407
2715 0 111.138 12.9298 1437 96.881 234.521 428.164
2716 0 115.205 12.7425 1468 96.9005 234.788 425.776
2717 1 64.1568 10.4432 670 94.6985 235.984 451.299
2718 0 65.0927 11.5988 755 92.4927 234.583 450.527
2719 0 68.0444 11.7423 799 90.9262 235.795 449.031
2720 0 70.117 12.1939 855 91.9474 234.918 447.951
2721 0 73.0755 12.2066 892 91.1827 234.411 446.814
2722 0 75.1386 12.0843 908 93.5738 234.191 444.226
2723 0 77.0601 12.5876 970 91.0052 234.124 445.629
2724 0 81.0893 12.5047 1014 92.2761 234.75 444.371
2725 0 83.125 12.3549 1027 93.0117 234.058 443.142
2726 0 84.0943 13.1876 1109 92.6294 234.532 440.676
2727 0 86.1376 12.8864 1110 94.0288 234.795 439.593
2728 0 89.1246 12.3759 1103 96.2448 234.899 437.815
2729 0 90.1102 12.4403 1121 95.7823 234.754 438.189
2730 0 95.119 13.0573 1242 93.8261 235.003 437.804
2731 0 98.1455 12.6853 1245 95.5936 235.4 433.79
2732 0 100.149 12.5413 1256 96.9865 234.728 433.914
2733 0 101.102 12.5022 1264 97.9446 235.31 431.331
2734 0 106.118 13.617 1445 93.6159 235.509 430.998
2735 0 107.18 12.2411 1312 98.0282 235.863 430.313
2736 0 112.153 12.4027 1391 96.9166 235.847 428.245
2737 0 116.256 13.0058 1512 94.2599 235.647 424.737
2738 0 118.133 12.3166 1455 93.0921 235.047 423.588
2739 0 122.137 13.1983 1612 92.1408 235.352 420.417
2740 0 126.14 12.5891 1588 93.932 235.628 417.428
2741 1 69.1761 11.0443 764 84.8861 235.007 449.013
2742 0 72.2405 11.4063 824 83.5388 235.382 448.835
2743 0 73.173 11.8623 868 83.4539 235.498 446.491
2744 0 77.1429 12.6518 976 83.1998 234.677 444.484
2745 0 79.2353 11.876 941 85.2784 235.223 442.724
2746 0 82.1625 12.6092 1036 89.8311 236.111 442.444
2747 0 83.2262 12.1596 1012 91.4496 235.861 440.584
2748 0 86.1727 12.2661 1057 90.4645 235.342 438.594
2749 0 90.193 12.5176 1129 90.9194 235.652 437.53
2750 0 92.2975 11.658 1076 92.5483 235.729 437.716
2751 0 94.3227 11.9908 1131 92.7038 236.118 434.758
2752 0 97.5089 12.8399 1252 90.726 236.243 434.609
2753 0 100.339 12.2783 1232 92.5333 236.152 433.774
2754 0 105.302 12.6114 1328 91.0128 235.822 431.471
2755 0 106.348 12.5907 1339 89.0538 236.803 430.55
2756 1 59.2657 11.3725 674 89.816 236.307 455.384
2757 0 60.1631 10.8538 653 89.6233 236.766 453.522
2758 0 61.1548 12.4111 759 88.4348 236.697 452.163
2759 0 64.0526 12.3024 788 86.9772 236.699 451.221
2760 0 66.1409 12.8816 852 85.8181 235.892 449.225
2761 0 67.1491 12.2712 824 89.4903 236.448 449.051
2762 0 69.1012 11.9245 824 89.0704 234.792 448.851
2763 0 70.1006 11.5691 811 88.4945 234.755 447.959
2764 0 74.0529 11.6673 864 87.4282 234.48 445.337
2765 0 75.1757 12.0119 903 86.7364 235.214 445.808
2766 0 77.1926 11.8146 912 86.352 234.759 446.243
2767 0 79.2198 11.9793 949 85.0095 235.439 444.412
2768 0 81.1822 11.505 934 85.3073 235.985 443.994
2769 0 84.1279 11.1853 941 84.7991 235.526 440.97
2770 0 86.2354 10.9004 940 85.2394 235.64 436.418
2771 0 87.146 10.9701 956 85.2479 235.446 433.293
2772 1 46.0786 9.26678 427 82.2482 234.869 456.564
2773 0 46.1095 9.80274 452 81.2124 234.739 448.392
2774 0 50.111 10.816 542 79.8967 234.648 448.788
2775 0 51.117 11.1118 568 80.4384 235.069 449.836
2776 0 53.1196 11.9165 633 83.6635 235.272 458.844
2777 0 55.1528 10.9333 603 92.9735 235.128 458.42
2778 0 57.1653 11.0907 634 93.3628 235.039 459.218
2779 0 59.1666 11.8648 702 92.5171 235.866 456.65
2780 0 59.1944 11.1497 660 96.5394 235.448 457.179
2781 0 60.0959 11.7313 705 95.8894 236.284 456.067
2782 0 63.0648 11.8132 745 96.4725 236.675 454.514
2783 0 65.1393 12.2967 801 95.2447 236.303 454.801
2784 0 66.0655 12.5784 831 95.6763 236.48 453.531
2785 0 67.1793 11.8042 793 98.2156 236.953 451.707
2786 0 69.1189 12.5147 865 98.6127 236.379 451.864
2787 0 71.1379 12.6796 902 99.7328 236.302 449.672
2788 0 73.2197 12.0459 882 102.015 236.31 449.426
2789 0 76.1805 12.4179 946 101.225 236.613 449.103
2790 0 78.2066 11.5719 905 102.977 236.256 446.989
2791 0 80.0675 11.9399 956 101.22 235.364 445.703
2792 0 84.1325 11.7196 986 101.963 236.049 445.749
2793 0 81.1476 11.4606 930 106.674 235.268 444.448
2794 0 89.1661 12.4935 1114 102.973 235.44 442.9
2795 0 90.1179 12.6612 1141 103.117 234.976 441.44
2796 0 94.1527 13.3082 1253 101.536 235.104 438.962
2797 1 51.0766 11.2184 573 104.019 234.677 461.007
2798 0 51.0694 11.4942 587 103.802 234.765 460.939
2799 0 54.048 11.8598 641 103.543 234.833 459.888
2800 0 57.0678 12.9495 739 99.4276 235.406 459.134
2801 0 57.0414 13.2711 757 101.576 235.491 458.927
2802 0 59.1767 13.485 798 107.179 235.674 459.286
2803 0 60.1276 13.5212 813 107.271 235.567 458.444
2804 0 61.1472 12.7725 781 110.264 235.311 456.211
2805 0 62.1047 12.1247 753 112.586 234.543 456.902
2806 0 64.1033 13.0571 837 111.08 235.13 456.679
2807 0 67.1155 13.2011 886 108.291 235.56 456.183
2808 0 68.0974 13.3338 908 108.61 235.827 454.326
2809 0 69.1419 13.8266 956 107.467 234.948 452.873
2810 0 74.1396 13.6499 1012 106.328 234.676 452.26
2811 0 73.0755 13.7255 1003 107.514 234.682 452.135
2812 0 74.1122 13.4931 1000 110.034 234.536 449.895
2813 0 77.1179 14.0305 1082 106.674 234.831 449.247
2814 0 79.1423 13.0272 1031 111.163 234.397 449.437
2815 0 83.0954 13.7432 1142 107.705 234.835 448.441
2816 0 85.0788 13.752 1170 108.181 235.126 447.335
2817 0 85.1929 13.0527 1112 111.079 234.871 444.905
2818 0 90.0884 14.0085 1262 106.315 234.748 444.219
2819 0 93.0776 14.171 1319 105.589 234.588 442.284
2820 0 95.18 13.8685 1320 108.77 235.244 442.989
2821 0 98.158 13.3356 1309 109.979 235.212 441.663
2822 0 99.1871 13.1065 1300 111.083 235.707 441.466
2823 0 103.17 12.8719 1328 111.094 234.773 437.794
2824 1 56.1229 11.4926 645 110.707 233.851 462.512
2825 0 58.1377 12.5736 731 110.071 234.456 460.658
2826 0 59.1204 12.483 738 109.724 234.844 460.234
2827 0 60.0332 12.9595 778 108.414 234.126 457.596
2828 0 65.0795 12.2158 795 107.863 233.899 457.415
2829 0 67.0472 12.8268 860 105.835 233.974 455.995
2830 0 67.0741 12.9111 866 105.666 233.965 456.655
2831 0 71.1229 13.0338 927 97.8598 234.157 455.389
2832 0 73.0771 12.9452 946 103.531 234.505 454.297
2833 0 73.0491 13.046 953 103.427 234.885 453.75
2834 0 77.0214 13.2431 1020 102.435 234.94 452.248
2835 0 78.0345 13.1993 1030 103.11 234.769 451.046
2836 0 81.0458 13.3875 1085 101.696 234.551 449.005
2837 0 85.0423 13.264 1128 101.056 234.356 447.762
2838 0 87.051 12.8201 1116 103.647 235.009 445.031
2839 0 89.0252 12.9065 1149 102.343 234.563 444.101
2840 0 91.0958 12.3277 1123 105.503 235.042 439.586
2841 0 94.0498 12.7486 1199 104.967 234.98 439.933
2842 0 96.0849 12.8532 1235 104.786 235.08 439.134
2843 0 100.093 12.6682 1268 106.215 234.802 438.69
2844 1 53.0405 12.3679 656 104.559 235.271 464.867
2845 0 53.0273 12.3521 655 103.696 234.718 458.74
2846 0 56.0541 12.7912 717 102.179 235.148 455.727
2847 0 57.1528 12.7028 726 105.634 235.835 459.835
2848 0 59.0374 12.6022 744 105.833 235.769 458.191
2849 0 60.0463 13.0233 782 105.327 235.804 456.312
2850 0 63.058 13.6858 863 102.413 236.426 455.385
2851 0 64.0275 13.3224 853 105.47 236.19 452.579
2852 0 66.0931 13.5566 896 104.174 235.544 451.893
2853 0 66.0435 13.6274 900 104.799 235.179 450.967
2854 0 68.0335 13.464 916 104.328 235.116 450.237
2855 0 70.0332 13.308 932 103.796 234.365 448.384
2856 0 74.0443 13.5054 1000 100.24 234.405 446.389
2857 0 76.0421 13.2953 1011 96.0613 234.077 445.69
2858 0 77.0895 12.959 999 96.1331 234.525 445.487
2859 0 78.0552 12.9524 1011 95.3165 235.636 445.094
2860 0 81.0905 13.0225 1056 94.7595 234.735 443.894
2861 0 82.0616 12.6734 1040 96.476 235.645 440.413
2862 0 86.1361 12.666 1091 94.7498 236.049 438.494
2863 0 87.1279 12.9694 1130 94.9858 235.933 435.998
2864 0 90.09 12.3654 1114 96.0628 235.133 438.075
2865 0 93.1587 12.4411 1159 96.0854 234.895 438.303
2866 0 96.0847 12.3016 1182 96.2149 234.254 436.721
2867 0 97.1077 11.8837 1154 97.5355 235.227 436.562
2868 0 103.141 12.8562 1326 97.7805 235.246 432.357
2869 1 53.0532 11.3094 600 102.618 235.387 455.01
2870 0 56.0455 11.8654 665 99.3398 234.829 454.627
2871 0 56.063 12.3076 690 99.4522 235.62 454.246
2872 0 59.0612 13.376 790 95.0063 235.556 452.97
2873 0 62.0921 14.5107 901 89.4395 235.192 452.089
2874 0 62.0557 13.3267 827 94.3809 235.233 451.334
2875 0 64.0909 13.6369 874 93.5046 235.038 449.092
2876 0 67.0614 13.5697 910 93.6901 234.23 448.502
2877 0 67.1044 13.0841 878 96.6162 234.232 448.759
2878 0 67.1056 12.8603 863 97.7126 234.811 447.423
2879 0 71.0697 13.0295 926 98.1771 234.581 447.048
2880 0 73.0873 12.5877 920 98.7467 234.97 444.51
2881 0 76.0159 13.7208 1043 94.745 234.937 442.802
2882 0 77.0397 12.6169 972 98.392 234.775 442.599
2883 0 81.0304 13.0692 1059 96.2842 235.035 440.556
2884 0 82.0712 13.3786 1098 95.7204 235.063 440.526
2885 0 86.0667 13.629 1173 94.3572 234.508 438.632
2886 0 87.117 13.1777 1148 96.2796 233.504 437.246
2887 0 90.072 13.034 1174 97.8271 234.014 436.077
2888 0 93.0859 13.6326 1269 96.6966 234.416 434.895
2889 0 97.1508 13.3195 1294 96.6878 233.92 430.944
2890 0 99.1077 12.8547 1274 97.1499 233.312 431.122
2891 1 52.0225 12.533 652 98.4647 234.103 453.391
2892 0 54.0703 12.6872 686 87.4023 234.223 450.206
2893 0 53.0575 12.9671 688 95.1773 234.164 446.965
2894 0 53.0088 12.413 658 99.9681 233.793 438.409
2895 0 55.0455 12.7531 702 94.2934 234.232 438.897
2896 0 54.0576 11.9872 648 99.0941 233.858 439.069
2897 0 54.0417 12.99 702 99.2393 234.748 439.368
2898 0 56.0492 12.489 700 101.056 234.717 439.613
2899 0 57.0894 12.9446 739 99.7334 234.44 438.031
2900 0 59.0339 12.5521 741 98.448 234.528 437.707
2901 0 61.0438 13.2855 811 92.6868 235.049 436.635
2902 0 63.1015 13.5496 855 90.9497 234.768 435.867
2903 0 66.1138 13.4616 890 87.4933 234.193 435.254
2904 0 68.063 13.4875 918 86.695 233.661 434.397
2905 0 68.1181 13.6528 930 85.4086 233.776 434.112
2906 0 72.069 13.4038 966 84.2288 234.222 432.626
2907 0 73.097 13.3111 973 84.8993 234.405 431.136
2908 0 74.0819 13.3906 992 85.8065 233.958 430.696
2909 0 78.0485 13.1841 1029 82.7153 234.156 429.994
2910 0 80.0777 13.6992 1097 84.3956 234.833 428.84
2911 0 82.0989 13.7639 1130 85.9584 234.464 427.889
2912 0 82.0702 12.8305 1053 90.2925 234.16 427.915
2913 0 86.0762 13.2325 1139 88.9789 234.371 426.546
2914 0 85.0444 12.8051 1089 91.6556 234.436 424.756
2915 0 90.0641 13.1684 1186 90.7175 234.752 425.1
2916 0 92.0551 13.4919 1242 91.9903 234.47 422.638
2917 1 47.0152 12.5491 590 97.4915 234.137 443.863
2918 0 49.0302 12.5229 614 98.8094 234.044 443.124
2919 0 49.0167 13.1588 645 99.5488 234.278 441.995
2920 0 50.0142 13.4962 675 98.7837 234.169 441.396
2921 0 51.0763 13.5484 692 97.3757 234.207 440.928
2922 0 51.0306 12.9334 660 103.558 233.747 440.505
2923 0 52.0175 12.8611 669 105.46 233.465 440.57
2924 0 52.0337 12.7609 664 110.3 233.767 439.717
2925 0 55.0093 13.5795 747 109.719 233.557 438.823
2926 0 57.1247 13.4443 768 112.272 233.578 437.911
2927 0 56.0458 13.7388 770 115.155 233.432 438.066
2928 0 60.0581 13.387 804 117.709 233.601 436.641
2929 0 61.05 13.923 850 118.813 233.841 436.973
2930 0 61.0775 13.5238 826 124.347 234.125 435.906
2931 0 64.0575 13.6128 872 125.029 234.024 435.493
2932 0 65.0581 13.4803 877 128.358 234.432 434.351
2933 0 65.0609 13.3414 868 132.156 233.824 433.955
2934 0 66.0344 13.4475 888 133.961 234.439 432.966
2935 0 69.0462 13.5417 935 134.774 233.381 432.081
2936 0 73.0901 13.9006 1016 133.692 233.193 430.188
2937 0 73.0923 13.7908 1008 136.385 233.352 429.545
2938 0 75.0193 14.2363 1068 135.309 233.531 428.52
2939 0 78.0294 14.5458 1135 133.825 233.504 427.178
2940 0 79.0612 13.9512 1103 138.615 233.555 426.821
2941 0 83.0545 14.051 1167 135.569 234.449 426.302
2942 0 84.0323 13.3639 1123 140.053 233.939 425
2943 0 86.0771 13.8016 1188 139.51 233.871 424.062
2944 0 88.0603 13.5589 1194 140.371 233.972 423.013
2945 0 93.0714 13.914 1295 136.812 233.927 419.836
2946 0 94.0901 14.2204 1338 134.295 234.55 419.271
2947 0 97.0679 14.2993 1388 132.888 234.523 418.197
2948 0 101.112 14.0339 1419 131.368 234.634 416.505
2949 0 103.055 13.585 1400 133.311 234.339 414.721
2950 0 107.12 14.4231 1545 128.851 233.638 412.395
2951 0 109.13 14.4782 1580 128.306 233.932 412.22
2952 0 114.083 14.2703 1628 127.332 234.711 409.2
2953 0 118.083 14.1003 1665 126.862 234.492 407.59
2954 0 122.115 14.3881 1757 125.081 235.005 405.554
2955 1 65.0465 12.0222 782 130.903 234.803 433.345
2956 0 70.0849 12.756 894 125.366 234.567 432.754
2957 0 72.0591 13.3779 964 123.331 234.476 431.268
2958 0 75.0768 14.0656 1056 118.672 235.018 428.318
2959 0 76.0335 12.9417 984 121.56 234.773 428.104
2960 0 74.0552 12.5852 932 125.193 234.513 428.122
2961 0 81.0713 12.8899 1045 120.468 234.096 427.109
2962 0 84.098 13.0205 1095 120.695 234.279 424.383
2963 0 86.1189 13.0285 1122 119.387 234.385 424.085
2964 0 89.1031 13.3665 1191 118.494 234.437 422.879
2965 0 90.0698 13.434 1210 118.791 234.677 421.412
2966 0 93.1337 13.239 1233 118.744 234.303 421.427
2967 0 97.0641 14.1144 1370 115.039 234.134 419.503
2968 0 99.1165 13.5396 1342 117.242 234.773 418.663
2969 0 101.056 13.5272 1367 118.56 234.978 416.618
2970 0 104.141 13.6161 1418 116.968 234.749 414.089
2971 0 109.14 14.0279 1531 114.948 235.363 413.225
2972 0 114.114 13.9334 1590 113.969 235.183 411.205
2973 0 117.098 14.1078 1652 114.38 235.443 407.745
2974 0 119.151 13.8816 1654 113.933 235.027 405.907
2975 0 124.118 13.7934 1712 113.598 235.477 403.693
2976 0 129.148 13.9375 1800 112.701 234.836 400.611
2977 0 133.147 13.7742 1834 113.756 234.094 397.642
2978 0 137.16 13.867 1902 114.414 234.263 395.468
2979 1 75.0786 12.0008 901 120.41 234.293 425.67
2980 0 78.0917 13.0616 1020 117.343 234.417 424.376
2981 0 79.0812 13.0878 1035 117.081 234.679 422.616
2982 0 81.0243 13.5145 1095 116.509 234.379 420.576
2983 0 85.0495 13.6509 1161 116.258 234.301 420.382
2984 0 88.0932 14.0192 1235 115.368 233.923 417.584
2985 0 91.0571 13.7935 1256 115.994 234.568 416.748
2986 0 92.0691 13.7614 1267 118.197 234.293 414.444
2987 0 95.0587 13.4233 1276 118.85 234.241 414.632
2988 0 97.089 13.2971 1291 120.15 234.085 412.447
2989 0 99.1111 12.9854 1287 121.435 234.2 411.141
2990 0 103.105 13.4717 1389 119.052 234.082 409.415
2991 0 106.065 13.19 1399 117.906 234.158 406.989
2992 0 110.057 13.3749 1472 115.25 234.142 405.937
2993 0 114.076 13.6926 1562 113.387 233.34 403.262
2994 0 119.173 13.7447 1638 112.962 233.537 401.2
2995 0 122.127 14.2065 1735 109.965 234.399 398.32
2996 1 67.1144 9.64026 647 105.017 234.657 426.386
2997 0 68.1467 10.272 700 101.001 235.217 427.059
2998 0 73.1252 10.5983 775 97.9329 235.49 427.59
2999 0 76.1082 11.0895 844 97.0877 235.056 426.424
3000 0 79.1452 11.5737 916 95.119 235.606 425.481
3001 0 83.1441 11.883 988 94.2257 235.544 430.631
3002 0 87.1747 12.0104 1047 93.5664 235.652 432.775
3003 0 89.1263 12.1513 1083 94.0369 235.652 436.772
3004 0 90.0629 12.0582 1086 97.267 236.467 437.717
3005 0 94.1007 12.4016 1167 94.1517 235.157 435.422
3006 0 97.1394 12.8063 1244 90.9703 235.338 434.766
3007 0 100.169 12.2593 1228 92.1612 235.12 435.064
3008 0 101.128 12.3111 1245 92.1855 234.915 434.385
3009 0 104.169 12.4317 1295 93.9236 234.432 430.74
3010 0 108.162 12.2316 1323 93.7483 235.147 429.69
3011 0 108.119 12.4492 1346 94.7972 234.488 428.063
3012 0 114.165 12.6221 1441 95.2679 235.17 425.096
3013 0 117.218 12.3104 1443 100.594 234.897 423.356
3014 0 122.127 12.8309 1567 99.0689 235.377 422.017
3015 0 124.169 12.0481 1496 101.726 235.023 419.003
3016 0 131.169 12.5564 1647 100.624 235.061 416.859
3017 1 68.1392 9.75944 665 92.1008 235.439 449.435
3018 0 72.0915 10.9167 787 88.1703 235.626 447.034
3019 0 73.0954 11.1361 814 89.7064 235.913 448.243
3020 0 75.0756 10.9756 824 91.3495 235.621 446.153
3021 0 77.0514 10.8888 839 89.9321 236.05 445.897
3022 0 78.0733 10.8232 845 91.8367 236.222 444.621
3023 0 82.0868 11.4391 939 91.2077 236.922 444.81
3024 0 84.1152 11.4367 962 89.8857 236.499 441.296
3025 0 87.1083 11.1356 970 90.199 236.592 440.94
3026 0 89.1044 11.2003 998 92.5651 236.749 439.301
3027 0 92.0926 11.2604 1037 90.9094 236.106 437.878
3028 0 94.0644 11.1732 1051 90.687 236.12 435.887
3029 0 95.0926 10.6738 1015 93.4926 236.359 432.906
3030 0 97.0882 11.2269 1090 92.2018 236.071 433.948
3031 0 101.148 10.8751 1100 93.2309 236.264 433.534
3032 0 103.152 11.0128 1136 93.5053 235.7 432.248
3033 0 106.192 11.272 1197 93.4227 235.987 428.632
3034 0 110.173 12.0537 1328 91.5474 236.578 428.052
3035 0 112.168 12.1603 1364 92.596 236.105 424.935
3036 0 114.157 11.7382 1340 92.6194 235.221 422.457
3037 0 118.189 12.2938 1453 94.0957 235.334 423.735
3038 0 120.192 11.9059 1431 94.2264 234.841 420.126
3039 0 126.193 12.6869 1601 91.8576 235.576 415.964
3040 0 128.238 11.931 1530 95.6451 235.364 417.529
3041 0 132.18 11.9232 1576 96.3014 235.546 415.271
3042 0 140.181 14.3458 2011 89.0522 235.581 408.611
3043 0 142.157 12.3877 1761 102.205 236.011 412.661
3044 0 145.222 12.1332 1762 105.482 235.46 408.035
3045 1 69.2021 9.55174 661 97.6959 236.422 446.566
3046 0 74.1374 10.6289 788 95.7475 235.794 445.431
3047 0 75.0572 11.2314 843 94.5018 236.476 445.497
3048 0 76.1771 11.1188 847 93.1972 235.553 445.254
3049 0 81.2033 11.9946 974 91.9261 234.607 445.202
3050 0 82.1104 12.1787 1000 92.531 235.973 442.467
3051 0 86.177 12.2074 1052 90.1473 235.971 442.015
3052 0 87.1816 11.4588 999 96.973 233.934 440.658
3053 0 89.2364 11.52 1028 98.6235 234.55 439.277
3054 0 91.2251 11.3456 1035 99.9188 234.369 435.162
3055 0 95.2398 11.8858 1132 97.3949 234.201 435.695
3056 0 95.2642 10.4761 998 96.6884 235.087 436.634
3057 0 96.1984 11.3723 1094 95.4059 235.748 434.673
3058 0 96.1119 10.9456 1052 99.0532 235.875 433.15
3059 0 104.142 12.2045 1271 92.9764 235.681 434.637
3060 0 104.143 11.9643 1246 94.8636 235.76 432.338
3061 0 107.118 11.5947 1242 96.0612 235.684 429.534
3062 0 113.148 12.983 1469 90.5875 235.948 427.604
3063 0 115.194 11.867 1367 95.278 236.707 427.311
3064 1 55.1006 9.69136 534 90.4476 237.245 456.764
3065 0 54.0189 10.1631 549 91.3188 236.689 455.317
3066 0 57.0605 11.0059 628 89.4602 237.035 454.889
3067 0 59.0229 10.047 593 94.0202 238.268 454.172
3068 0 60.0634 10.106 607 94.8221 237.318 453.535
3069 0 62.0833 10.4376 648 94.1096 237.986 452.756
3070 0 63.0545 10.6257 670 94.5 237.263 451.825
3071 0 66.0506 10.7493 710 93.7986 237.173 450.548
3072 0 66.0702 9.98937 660 94.7409 237.085 450.991
3073 0 70.1978 10.5701 742 91.0229 236.001 451.526
3074 0 69.1516 10.1227 700 94.98 235.96 446.78
3075 0 72.2404 10.6727 771 95.0039 235.86 447.96
3076 0 72.2148 10.3857 750 96.0853 235.395 446.585
3077 0 74.2147 10.5639 784 95.1199 236.219 445.786
3078 0 77.2369 11.2252 867 93.0404 236.982 445.825
3079 0 79.2056 11.426 905 91.421 236.306 443.797
3080 0 80.1608 11.2649 903 93.3367 236.156 443.599
3081 0 83.2414 10.6197 884 93.5034 236.003 443.906
3082 0 85.1536 11.6495 992 91.2571 234.967 440.137
3083 0 88.1819 11.1134 980 90.6908 235.097 441.099
3084 0 89.0843 11.3825 1014 90.6045 233.727 440.648
3085 0 94.1656 12.2338 1152 85.1936 235.742 440.598
3086 0 95.163 11.7272 1116 87.2876 236.189 437.783
3087 0 96.1212 11.704 1125 87.0471 235.54 437.676
3088 0 99.1894 11.9368 1184 88.0355 235.722 434.919
3089 0 101.206 11.9065 1205 88.7095 235.157 435.055
3090 0 101.079 11.773 1190 89.063 234.755 433.71
3091 0 109.2 12.6282 1379 87.1545 234.924 431.626
3092 0 111.185 12.7535 1418 88.1396 234.92 429.656
3093 0 114.13 12.0739 1378 89.9187 234.644 428.695
3094 0 117.11 12.0911 1416 91.1208 234.583 428.775
3095 0 121.176 12.7171 1541 90.7729 235.253 426.049
3096 1 62.0922 11.4668 712 86.2135 235.471 455.326
3097 0 64.1161 11.8223 758 85.1939 235.958 453.356
3098 0 65.0966 11.9822 780 86.0179 234.894 449.728
3099 0 67.1373 12.3329 828 86.1329 234.53 449.877
3100 0 70.1949 12.736 894 91.1633 236.398 452.12
3101 0 72.1747 12.8438 927 91.4919 235.638 451.292
3102 0 71.1468 12.3828 881 94.0874 235.318 450.726
3103 0 71.1468 12.3547 879 172.479 234.291 450.656
3104 0 77.0958 13.1654 1015 90.2768 235.761 448.065
3105 0 76.1384 12.0439 917 93.7525 235.917 446.794
3106 0 81.1281 12.1413 985 93.1695 235.554 444.789
3107 0 83.1191 12.464 1036 91.6313 235.797 443.613
3108 0 85.1163 12.6063 1073 91.0587 236.429 442.92
3109 0 88.1361 12.6282 1113 91.8041 235.709 440.192
3110 0 89.1039 13.0522 1163 89.8315 235.623 439.073
3111 0 91.1274 12.0161 1095 91.7863 235.46 437.636
3112 0 95.1095 12.5119 1190 89.0731 234.966 436.424
3113 0 96.1037 12.2784 1180 89.5161 235.314 435.169
3114 0 101.085 12.9693 1311 86.5751 235.391 433.709
3115 0 101.078 12.7031 1284 88.3107 235.857 431.114
3116 0 104.144 12.4347 1295 89.1405 235.563 429.666
3117 0 108.111 12.3206 1332 87.7335 235.9 429.052
3118 0 111.173 12.2691 1364 87.6694 235.158 426.687
3119 0 114.126 12.898 1472 86.8573 235.101 422.106
3120 0 117.173 12.6992 1488 86.8481 234.764 421.263
3121 0 122.12 12.6188 1541 86.087 234.783 420.597
3122 0 126.175 12.8076 1616 85.9932 234.498 417.77
3123 0 129.14 12.8852 1664 85.4062 234.956 417.376
3124 0 131.158 12.7022 1666 86.7287 234.873 412.884
3125 0 136.186 13.1071 1785 85.7849 235.007 413.245
3126 0 140.138 12.8302 1798 86.3904 235.654 411.348
3127 0 142.195 12.8485 1827 87.2173 235.327 408.888
3128 0 149.198 13.2106 1971 85.9964 235.356 406.729
3129 0 151.216 11.8969 1799 83.3635 234.545 411.428
3130 0 155.153 11.4596 1778 86.2953 234.828 407.59
3131 0 161.12 11.8917 1916 86.8471 234.627 401.379
3132 0 168.193 12.9732 2182 85.7039 234.722 398.351
3133 0 174.194 13.3357 2323 85.6164 234.089 396.913
3134 0 179.186 13.3158 2386 86.3512 235.497 396.407
3135 0 184.175 13.8455 2550 86.0651 235.644 392.523
3136 0 189.166 13.8608 2622 86.1171 235.569 391.548
3137 0 195.198 13.4991 2635 87.0596 235.621 388.167
3138 0 201.16 13.0046 2616 90.7294 235 384.384
3139 1 153.102 12.717 1947 90.8418 235.195 408.229
3140 0 159.09 13.4326 2137 92.0431 235.646 406.141
3141 0 162.179 13.4358 2179 91.9371 235.838 402.106
3142 0 168.264 13.2292 2226 93.8985 234.829 400.453
3143 0 173.28 13.5618 2350 92.8702 234.779 398.485
3144 0 179.267 13.6891 2454 92.6964 235.327 385.478
3145 0 183.187 13.5217 2477 93.5244 234.722 377.163
3146 0 189.255 13.4897 2553 92.9221 234.94 374.21
3147 0 196.293 13.9434 2737 92.1936 234.485 367.436
3148 0 200.263 12.893 2582 96.1468 234.998 364.142
3149 0 209.245 13.6825 2863 93.1757 234.817 360.306
3150 0 213.375 13.174 2811 95.947 234.947 355.071
3151 0 222.407 14.5409 3234 92.654 234.434 349.4
3152 0 229.415 13.9267 3195 95.6776 235.079 344.795
3153 1 50.2911 9.64386 485 81.5629 235.311 445.689
3154 0 53.1811 9.85313 524 81.624 235.664 440.17
3155 0 55.1033 12.0682 665 84.5444 234.006 451.358
3156 0 57.0761 12.4045 708 84.2641 234.419 453.032
3157 0 56.1661 11.1811 628 87.8471 234.589 453.728
3158 0 57.0965 11.7345 670 88.0582 234.273 452.704
3159 0 60.1438 12.254 737 85.9484 234.355 452.627
3160 0 59.1151 11.3507 671 90.1624 233.948 452.346
3161 0 66.1628 13.4366 889 83.2036 234.499 448.856
3162 0 64.0846 11.9686 767 88.4107 234.188 451.284
3163 0 66.186 12.2533 811 88.0136 234.6 449.841
3164 0 66.2313 10.3878 688 86.3401 235.15 450.536
3165 0 69.2211 12.0483 834 82.5635 234.994 448.288
3166 0 72.2323 12.8751 930 87.7935 235.057 445.769
3167 0 77.2482 12.8806 995 85.8754 234.996 446.727
3168 0 78.3361 12.7144 996 86.1596 235.049 446.32
3169 0 80.2477 12.3742 993 85.1803 235.001 441.318
3170 0 80.3078 11.8917 955 86.8314 234.821 439.569
3171 0 84.1647 12.8557 1082 86.0102 235.048 437.285
3172 1 47.1299 10.9485 516 81.0872 234.597 454.227
3173 0 48.1723 10.8361 522 81.9253 234.295 454.534
3174 0 47.1168 10.6331 501 82.2934 234.192 447.18
3175 0 50.1362 11.4089 572 80.4668 234.549 445.087
3176 0 51.084 12.3522 631 83.9049 234.509 458.927
3177 0 52.0975 11.824 616 83.3052 236.032 458.26
3178 0 53.096 12.5998 669 82.6413 234.861 456.508
3179 0 54.1577 11.8727 643 86.3095 235.034 457.407
3180 0 57.236 12.9988 744 81.7231 235.363 456.571
3181 0 58.1034 11.8065 686 92.93 234.325 455.22
3182 0 57.1185 12.1677 695 92.7784 233.801 454.61
3183 0 59.1154 11.4183 675 94.3407 234.724 455.247
3184 0 61.0701 12.2646 749 92.9065 234.087 452.563
3185 0 64.1377 12.0522 773 92.4036 234.092 451.992
3186 0 64.1319 12.1157 777 92.825 234.063 451.305
3187 0 66.1464 12.4421 823 90.966 234.998 451.49
3188 0 68.1457 12.3559 842 91.5012 234.391 450.671
3189 0 70.131 12.22 857 92.5204 234.468 448.789
3190 0 71.1089 12.4879 888 92.8187 233.964 447.404
3191 0 74.1381 12.9083 957 90.9028 234.279 446.978
3192 0 74.1855 12.7383 945 92.2476 234.271 446.652
3193 0 77.1483 12.8065 988 92.5597 235.219 444.138
3194 0 80.2282 12.9007 1035 92.3884 234.74 443.947
3195 0 81.1692 12.5171 1016 94.1949 234.842 442.839
3196 0 83.1424 12.653 1052 95.1074 234.429 440.18
3197 0 84.1823 12.0809 1017 94.6205 235.3 439.687
3198 0 87.1401 12.784 1114 94.1679 235.539 438.05
3199 0 91.1275 12.1259 1105 92.7964 234.49 431.09
3200 0 94.2637 12.5181 1180 91.8627 235.213 436.614
3201 0 95.2337 12.1701 1159 93.1915 235.017 435.037
3202 1 54.1682 10.7074 580 87.6121 235.266 456.079
3203 0 56.0913 11.0177 618 84.3851 235.239 453.947
3204 0 57.141 11.2354 642 82.6651 235.955 452.458
3205 0 58.0739 11.5542 671 81.6185 236.024 450.912
3206 0 59.079 12.0517 712 86.882 234.228 451.889
3207 0 61.0841 12.2454 748 86.1324 234.231 451.885
3208 0 64.0915 12.6382 810 84.7716 234.431 451.193
3209 0 63.0973 12.3936 782 84.8376 235.179 449.978
3210 0 66.0826 12.4692 824 84.3083 235.01 447.998
3211 0 68.0871 12.2343 833 85.1128 233.99 447.782
3212 0 71.1309 11.8233 841 86.5149 233.712 447.026
3213 0 72.0807 11.9449 861 86.8688 234.63 446.974
3214 0 76.0506 13.1754 1002 83.9032 235.193 446.138
3215 0 75.1088 12.169 914 87.8293 235.28 445.014
3216 0 78.1129 12.1363 948 87.327 235.135 445.654
3217 0 81.1152 12.0569 978 89.2219 235.015 444.599
3218 0 84.0928 12.5813 1058 87.5047 235.634 443.635
3219 0 84.0814 12.369 1040 90.8135 236.008 443.325
3220 0 89.1489 12.8213 1143 91.5958 235.294 440.568
3221 0 91.1192 12.9501 1180 93.5746 234.949 439.724
3222 0 92.0815 12.25 1128 94.4778 235.448 438.903
3223 0 94.1147 12.2191 1150 96.7409 235.686 437.134
3224 0 99.1355 12.5989 1249 95.1113 235.452 435.938
3225 0 103.123 12.7906 1319 94.0864 235.149 434.002
3226 0 106.103 12.714 1349 96.0423 235.642 432.357
3227 1 56.0429 10.0459 563 92.4227 236.396 457.487
3228 0 56.0397 10.7781 604 91.7483 236.29 456.929
3229 0 59.1893 12.063 714 92.965 233.905 455
3230 0 60.1388 12.0388 724 91.1754 234.519 455.196
3231 0 61.1235 11.7467 718 93.5794 234.709 455.238
3232 0 62.1794 12.078 751 94.2916 234.928 452.932
3233 0 65.1958 12.1787 794 93.9395 234.734 452.589
3234 0 66.1916 12.2221 809 92.241 235.083 451.763
3235 0 69.151 12.639 874 92.3375 235.2 450.545
3236 0 71.2337 12.1431 865 93.6393 234.965 449.879
3237 0 73.1793 13.5147 989 92.3418 234.206 448.775
3238 0 74.1469 12.3943 919 96.2427 233.856 448.029
3239 0 76.1335 12.8065 975 96.2882 233.654 446.427
3240 0 79.1958 12.8921 1021 96.0529 234.724 445.627
3241 0 81.1427 13.2852 1078 95.4212 234.136 444.274
3242 0 83.1351 12.8586 1069 97.2264 234.295 443.008
3243 0 88.2355 13.5206 1193 95.8743 235.443 441.316
3244 0 89.1357 12.3968 1105 96.8262 235.826 440.589
3245 0 92.1903 12.3332 1137 96.3201 235.519 440.328
3246 0 95.2211 11.8986 1133 98.6355 235.501 439.203
3247 0 98.1867 11.7328 1152 99.3299 235.303 437.232
3248 1 53.1032 10.3007 547 93.6728 235.722 458.4
3249 0 57.1044 11.4877 656 89.0198 236.155 454.514
3250 0 57.0844 11.2815 644 89.0466 236.163 451.391
3251 0 58.147 11.1786 650 92.9308 236.283 454.315
3252 0 60.1813 11.9971 722 97.6787 235.312 456.217
3253 0 61.1864 12.0942 740 97.6284 234.841 454.777
3254 0 62.1709 12.4174 772 98.9858 233.863 453.523
3255 0 65.18 12.4578 812 98.7426 235.27 453.208
3256 0 66.1382 11.9145 788 100.315 234.962 452.466
3257 0 69.1208 12.3841 856 98.5981 235.02 451.311
3258 0 71.1025 13.2203 940 97.6447 234.659 450.772
3259 0 72.1133 12.5913 908 101.398 234.341 447.907
3260 0 74.1801 12.4023 920 101.873 235.013 448.089
3261 0 78.1439 12.8865 1007 99.2095 235.576 446.955
3262 0 78.1653 12.8574 1005 101.751 235.298 444.283
3263 0 82.1171 12.47 1024 101.601 234.771 445.202
3264 0 82.0869 12.7426 1046 101.489 235.038 445.522
3265 0 86.1867 12.8906 1111 100.797 234.849 444.539
3266 0 88.179 13.4045 1182 100.931 235.426 441.162
3267 0 90.1263 12.6933 1144 103.461 235.142 440.523
3268 0 91.1443 12.4418 1134 102.038 235.317 440.728
3269 1 49.0736 11.1058 545 98.7046 235.444 461.347
3270 0 48.0753 11.4612 551 99.7623 236.018 461.154
3271 0 49.0689 11.8609 582 99.1254 235.522 459.699
3272 0 51.0785 12.4123 634 97.1956 235.666 459.005
3273 0 53.0348 12.6144 669 93.0389 235.922 457.188
3274 0 53.0966 12.1665 646 96.3297 235.932 457.203
3275 0 54.1159 12.4732 675 95.5111 235.484 457.345
3276 0 58.0891 12.4464 723 93.7054 236.202 456.039
3277 0 59.0858 12.8119 757 92.4729 236.406 454.865
3278 0 60.1001 13.5441 814 90.2592 236.014 454.269
3279 0 62.1021 13.4456 835 89.4958 236.049 455.483
3280 0 63.1055 13.3269 841 89.918 236.007 453.713
3281 0 64.0603 13.5966 871 88.4294 236.258 453.485
3282 0 69.0623 12.5249 865 89.1052 236.237 452.37
3283 0 68.063 13.3112 906 88 236.191 449.428
3284 0 69.0354 13.848 956 86.6276 236.029 450.12
3285 0 71.0853 12.7734 908 84.3822 234.811 451.139
3286 0 70.1009 12.8101 898 85.8185 235.399 450.311
3287 0 73.0499 12.7447 931 86.5661 234.989 447.581
3288 0 75.0976 13.063 981 86.6493 235.575 446.403
3289 0 79.0853 13.378 1058 85.7231 235.59 446.551
3290 0 80.1465 12.814 1027 89.0574 236.1 446.132
3291 0 83.0796 12.9996 1080 87.7731 235.409 443.798
3292 0 83.1512 13.6859 1138 88.2469 235.358 443.54
3293 0 88.1081 13.7558 1212 87.4274 234.99 442.914
3294 0 90.1231 13.5259 1219 89.4865 235.451 440.571
3295 0 90.1116 13.5388 1220 90.1246 235.73 440.077
3296 0 95.0787 13.6413 1297 88.9175 235.759 439.764
3297 0 95.1135 13.5943 1293 90.2854 235.937 438.138
3298 0 98.1431 13.6332 1338 90.6637 235.86 437.999
3299 0 102.11 14.2395 1454 89.2648 235.63 434.452
3300 0 106.146 14.2351 1511 90.368 235.269 432.594
3301 0 107.106 13.4446 1440 91.4083 235.486 432.78
3302 0 112.067 13.7596 1542 90.2036 235.018 429.171
3303 0 116.131 13.6656 1587 91.0983 234.98 427.759
3304 1 65.0268 12.0104 781 93.0346 235.382 451.79
3305 0 68.0621 13.1791 897 90.7547 235.169 449.414
3306 0 70.0786 13.5848 952 90.6765 235.418 448.515
3307 0 70.0962 12.8966 904 90.7168 235.729 448.105
3308 0 72.0668 12.2803 885 92.3887 235.677 450.138
3309 0 76.0935 12.8395 977 91.8854 235.622 447.303
3310 0 79.1384 12.4845 988 92.2217 234.715 444.008
3311 0 81.0638 13.1501 1066 91.8959 235.034 444.78
3312 0 84.121 13.0883 1101 91.2861 235.748 443.215
3313 0 86.1519 13.3021 1146 90.5113 235.592 442.408
3314 0 89.1384 13.0583 1164 92.5988 234.97 441.052
3315 0 91.1226 13.191 1202 92.9168 235.552 441.343
3316 0 94.1021 13.1347 1236 93.4846 235.444 439.001
3317 0 97.2135 13.8047 1342 92.2377 234.829 437.501
3318 0 101.092 14.3137 1447 91.1223 235.702 435.451
3319 0 103.172 14.0349 1448 91.4551 235.614 434.811
3320 0 106.118 13.6735 1451 92.295 235.787 433.126
3321 0 109.174 13.4373 1467 93.1602 235.542 430.285
3322 0 113.099 13.5633 1534 92.2314 235.325 425.327
3323 0 115.18 12.7019 1463 94.8824 234.969 425.043
3324 0 121.159 15.2609 1849 81.7875 234.81 424.039
3325 0 126.192 12.9009 1628 94.9705 234.611 420.494
3326 1 71.1006 11.8705 844 95.1173 234.744 447.174
3327 0 74.1471 12.4752 925 94.4897 235.498 444.24
3328 0 75.167 12.8248 964 95.2728 235.018 443.063
3329 0 77.1027 12.7881 986 96.4564 235.516 445.783
3330 0 79.1362 12.3711 979 97.8417 235.656 445.063
3331 0 82.0871 13.0349 1070 96.828 235.114 444.484
3332 0 85.1016 13.9715 1189 94.9815 234.616 442.383
3333 0 89.0844 14.0653 1253 96.486 235.862 441.487
3334 0 90.1367 13.2909 1198 99.227 235.141 440.674
3335 0 93.1705 13.8241 1288 99.2989 234.856 439.443
3336 0 96.1244 13.5137 1299 102.671 234.878 436.52
3337 0 99.1738 13.4108 1330 104.322 235.077 434.841
3338 0 102.125 13.9143 1421 104.655 234.825 433.509
3339 0 105.166 14.3582 1510 103.853 234.843 432.759
3340 1 61.1057 11.701 715 104.527 234.772 455.034
3341 0 63.0925 12.4421 785 104.41 234.935 453.098
3342 0 64.1274 12.6623 812 104.664 234.865 452.251
3343 0 67.1339 13.4209 901 97.8657 235.37 452.492
3344 0 69.1472 13.7243 949 97.9905 235.507 452.599
3345 0 69.1723 13.7049 948 99.1329 235.533 451.476
3346 0 72.218 13.6254 984 98.8852 235.481 449.899
3347 0 74.2576 13.8841 1031 100.228 235.549 448.301
3348 0 78.2453 14.0072 1096 99.7016 236.193 447.912
3349 0 78.1362 13.6556 1067 103.099 235.502 445.737
3350 0 81.1564 13.8005 1120 103.67 234.662 445.029
3351 0 85.1302 14.0021 1192 102.591 234.669 444.037
3352 0 85.1017 16.0631 1367 90.7191 234.936 443.23
3353 0 88.1327 14.013 1235 105.651 235.201 440.616
3354 0 92.1506 14.3895 1326 104.052 234.91 440.218
3355 0 95.1877 13.7518 1309 105.238 234.858 438.849
3356 0 99.2028 14.4653 1435 103.323 234.991 435.355
3357 0 102.191 14.3652 1468 102.429 234.572 434.864
3358 0 105.195 14.4113 1516 103.708 234.997 434.681
3359 1 58.104 11.7892 685 109.403 234.218 457.832
3360 0 61.1429 12.6262 772 107.126 234.952 456.727
3361 0 61.1593 13.4567 823 104.459 234.802 455.298
3362 0 63.0963 12.6473 798 109.633 234.888 454.655
3363 0 64.1915 13.0703 839 106.735 234.897 454.446
3364 0 66.1485 12.4568 824 108.144 234.767 452.322
3365 0 68.1374 12.5775 857 108.594 234.222 451.112
3366 0 69.1622 12.8972 892 107.285 234.978 450.21
3367 0 72.2053 13.1015 946 105.325 235.315 450.607
3368 0 75.1461 12.469 937 108.755 234.939 448.933
3369 0 77.2078 12.7837 987 106.202 234.621 447.185
3370 0 79.14 13.0149 1030 105.789 235.4 446.501
3371 0 81.2583 13.5494 1101 105.199 234.929 443.879
3372 0 84.2573 12.6636 1067 103.106 235.142 440.262
3373 0 87.3141 12.4493 1087 103.075 235.163 438.372
3374 0 89.1585 12.4497 1110 101.58 234.494 434.198
3375 0 91.1572 12.1 1103 102.287 235.296 435.287
3376 0 94.1358 11.664 1098 100.835 234.895 431.896
3377 0 99.141 11.9325 1183 100.079 234.828 429.527
3378 0 102.106 11.4979 1174 98.6422 235.399 426.474
3379 1 54.0816 11.0759 599 94.4624 236.093 445.648
3380 0 57.0931 11.7352 670 89.8806 235.054 445.8
3381 0 57.0641 11.6711 666 89.6201 235.658 442.222
3382 0 59.1248 12.3975 733 91.1078 235.771 447.267
3383 0 60.1168 12.0432 724 100.544 235.101 452.854
3384 0 61.1238 12.7283 778 97.0668 234.418 451.19
3385 0 61.1245 12.1392 742 99.7197 235.584 451.391
3386 0 64.1565 12.2045 783 97.2095 235.419 447.581
3387 0 67.172 12.4308 835 95.6563 235.261 447.271
3388 0 69.1987 12.4713 863 95.2283 234.705 447.161
3389 0 70.1087 12.9798 910 94.8407 234.375 446.136
3390 0 72.0884 12.3737 892 95.2276 234.697 444.554
3391 0 74.0544 12.3153 912 93.8882 234.69 442.055
3392 0 78.061 13.246 1034 92.0397 233.986 441.909
3393 0 80.0675 13.6385 1092 92.8947 235.115 439.632
3394 0 82.1339 13.5267 1111 92.9388 233.833 440.692
3395 0 83.1413 13.2545 1102 93.9211 234.219 440.096
3396 0 85.07 13.3302 1134 93.4586 234.416 438.88
3397 0 89.0901 13.492 1202 92.2978 234.468 438.185
3398 0 92.0915 13.5735 1250 90.2304 233.886 435.873
3399 0 94.1081 13.9733 1315 90.051 234.381 435.264
3400 0 96.1195 13.7849 1325 89.5042 234.383 432.001
3401 1 50.0391 11.491 575 88.2696 234.666 451.501
3402 0 50.0219 11.6749 584 89.8168 234.878 453.654
3403 0 53.03 11.7481 623 88.6372 234.311 455.726
3404 0 56.0442 13.0076 729 86.524 234.61 453.874
3405 0 59.022 12.1988 720 89.7569 234.126 456.417
3406 0 60.1202 14.9367 898 74.5924 233.452 454.096
3407 0 62.0639 12.5838 781 89.2202 234.434 456.07
3408 0 63.0605 12.7497 804 89.8097 234.634 455.306
3409 0 64.0487 11.944 765 90.983 234.677 454.536
3410 0 65.0527 12.7128 827 90.1536 234.641 454.329
3411 0 69.0324 12.4145 857 89.6231 235.769 453.298
3412 0 70.0336 12.494 875 90.712 234.926 452.67
3413 0 70.0564 11.4907 805 93.1354 235.353 453.578
3414 0 73.0787 12.6165 922 90.3286 234.064 451.707
3415 0 75.1055 12.6489 950 90.72 234.848 451.297
3416 0 77.0755 12.5072 964 89.9191 233.979 451.969
3417 0 78.0744 12.2832 959 91.6361 234.797 449.588
3418 0 81.1378 12.2754 996 92.3906 234.706 447.406
3419 0 84.0583 12.182 1024 92.8389 234.412 447.642
3420 0 87.0647 12.0715 1051 93.6917 234.548 445.284
3421 0 88.0519 12.1746 1072 93.291 234.534 444.884
3422 0 93.0775 12.2693 1142 91.3853 233.246 444.472
3423 0 92.0551 11.5583 1064 95.7669 233.187 442.82
3424 0 97.0625 12.0953 1174 94.6482 233.658 440.293
3425 0 100.113 12.416 1243 93.3411 234.235 440.175
3426 1 53.0108 11.7712 624 95.008 232.885 459.934
3427 0 54.0269 12.0125 649 95.4576 232.794 459.633
3428 0 59.0773 12.7799 755 90.7285 232.328 457.981
3429 0 59.041 13.0757 772 92.0207 232.772 455.324
3430 0 60.1255 13.056 785 96.3847 232.902 456.815
3431 0 62.1378 12.8102 796 97.3216 232.427 455.358
3432 0 64.1183 12.7577 818 97.5465 232.758 453.342
3433 0 67.1287 13.124 881 96.0874 232.854 453.652
3434 0 71.1969 13.4275 956 94.8473 232.876 452.97
3435 0 71.1063 13.8384 984 96.2398 232.878 450.807
3436 0 72.1569 13.2073 953 98.723 232.808 451.327
3437 0 76.1202 13.0977 997 97.8806 233.673 449.865
3438 0 79.2087 13.7232 1087 96.4296 233.742 447.058
3439 0 81.1086 13.9936 1135 95.8529 233.178 446.936
3440 0 81.1928 13.5726 1102 98.2269 233.71 445.732
3441 0 85.1251 13.58 1156 97.0727 234.367 444.658
3442 0 86.1337 13.5023 1163 97.5443 234.431 443.455
3443 0 90.1069 13.9723 1259 95.1938 234.28 442.582
3444 0 93.0803 13.6656 1272 96.2209 234.469 438.175
3445 0 96.1448 13.9165 1338 94.6988 234.442 439.801
3446 0 99.1203 13.761 1364 95.3292 233.42 434.485
3447 0 103.12 14.6432 1510 92.0536 233.711 432.92
3448 0 104.122 13.4938 1405 96.647 233.234 431.574
3449 0 108.145 14.2124 1537 95.6513 233.018 429.369
3450 0 112.163 13.6409 1530 93.3516 233.563 430.112
3451 0 113.076 13.1239 1484 95.3942 234.241 427.832
3452 0 117.11 12.9963 1522 94.6905 233.242 425.951
3453 1 66.028 11.8435 782 93.3772 232.436 451.234
3454 0 67.0327 11.6958 784 97.4069 233.728 450.542
3455 0 70.0515 11.9198 835 97.5162 234.455 448.919
3456 0 73.06 13.1262 959 94.6006 234.764 448.577
3457 0 74.0987 12.7937 948 96.2458 234.094 448.71
3458 0 76.0995 13.4561 1024 96.7275 233.797 446.904
3459 0 79.0775 13.1643 1041 96.3372 234.021 446.315
3460 0 81.0989 13.2678 1076 97.3318 234.02 443.289
3461 0 83.109 13.5244 1124 98.0222 234.73 443.717
3462 0 85.0821 13.6574 1162 97.8262 234.849 442.403
3463 0 88.0886 12.8507 1132 99.9779 234.78 439.62
3464 0 90.1362 13.0136 1173 99.4817 234.759 439.581
3465 0 94.1246 13.7796 1297 98.2367 234.932 437.716
3466 0 96.1416 13.2097 1270 100.023 234.976 436.167
3467 0 100.116 13.5442 1356 98.4388 235.296 436.677
3468 0 102.078 13.6562 1394 98.8364 234.765 436.247
3469 0 103.093 12.9786 1338 101.067 234.285 431.679
3470 0 107.096 13.3898 1434 100.018 234.967 431.441
3471 0 110.084 13.0083 1432 101.041 235.391 429.71
3472 0 114.126 13.1083 1496 100.73 235.595 431.066
3473 0 118.081 13.4738 1591 99.7574 235.832 428.952
3474 0 122.078 13.4996 1648 100.358 235.515 423.978
3475 0 125.083 12.3838 1549 103.893 234.791 423.178
3476 0 131.095 13.1431 1723 101.329 235.136 420.68
3477 0 137.192 13.7617 1888 100.886 234.767 417.007
3478 0 139.083 13.3589 1858 102.572 234.449 413.996
3479 0 144.111 13.5659 1955 101.557 234.741 410.836
3480 1 77.0626 12.2109 941 102.336 235.291 444.554
3481 0 79.11 11.8948 941 101.656 235.782 445.86
3482 0 80.0361 12.9317 1035 100.818 233.937 442.882
3483 0 85.0375 13.0648 1111 99.6157 234.509 440.753
3484 0 86.1028 12.7754 1100 99.54 236.217 442.483
3485 0 89.047 12.3193 1097 100.537 236.704 439.341
3486 0 89.0402 12.309 1096 101.875 236.351 437.99
3487 0 93.0337 12.7266 1184 100.855 236.141 436.042
3488 0 96.051 12.9827 1247 100.469 236.289 436.841
3489 0 100.063 12.9718 1298 99.923 236.531 435.434
3490 0 102.106 12.9473 1322 99.6362 235.846 433.642
3491 0 106.059 13.2002 1400 98.8343 235.384 432.469
3492 0 109.076 13.706 1495 97.2268 235.284 430.52
3493 0 111.069 13.181 1464 100.029 235.221 428.266
3494 0 114.076 12.851 1466 100.029 235.276 427.169
3495 0 120.065 13.4094 1610 99.4323 235.148 424.019
3496 0 123.07 13.472 1658 102.1 234.77 421.756
3497 1 67.0487 10.8429 727 101.105 235.428 448.715
3498 0 68.0345 11.4207 777 97.2728 235.327 448.789
3499 0 71.0567 12.0327 855 95.883 235.226 447.586
3500 0 76.0952 12.9049 982 91.5692 234.974 447.839
3501 0 75.1025 13.2619 996 92.2159 234.881 446.3
3502 0 78.1183 13.1211 1025 93.238 234.934 444.89
3503 0 82.1186 12.7255 1045 91.7646 234.372 444.922
3504 0 83.1022 13.1284 1091 93.6279 234.962 443.61
3505 0 86.1348 13.4789 1161 91.9432 234.847 445.177
3506 0 88.0853 12.8512 1132 94.6714 234.499 444.506
3507 0 92.1114 13.8854 1279 90.9116 234.953 442.83
3508 0 92.0361 12.104 1114 94.0655 235.392 442.336
3509 0 96.0606 12.3256 1184 91.489 235.58 442.892
3510 0 98.0801 11.6232 1140 94.2272 235.244 441.698
3511 0 101.081 12.6037 1274 92.6711 235.174 438.52
3512 0 103.087 12.7077 1310 93.1557 235.076 436.921
3513 0 107.099 12.7079 1361 92.6076 234.334 436.372
3514 0 111.046 13.0577 1450 92.8421 234.686 433.434
3515 0 113.07 12.7532 1442 94.1713 234.954 432.134
3516 1 61.0509 10.5977 647 95.1685 235.609 457.663
3517 0 62.0688 11.2778 700 94.3486 235.88 455.41
3518 0 66.0857 12.2114 807 92.0496 235.693 455.814
3519 0 67.08 13.9982 939 79.6273 235.34 453.923
3520 0 67.1393 12.2432 822 94.8662 235.265 454.123
3521 0 71.1501 13.1412 935 90.3187 235.135 454.047
3522 0 75.1565 13.0528 981 90.3772 234.833 451.115
3523 0 76.1618 13.2612 1010 89.2564 234.573 448.953
3524 0 77.1375 12.8991 995 91.2603 234.538 448.92
3525 0 80.1177 12.4068 994 92.3944 234.265 447.782
3526 0 83.1091 13.0311 1083 90.5097 234.07 445.475
3527 0 84.111 12.7213 1070 93.557 234.239 443.936
3528 0 86.1032 12.4966 1076 94.1775 234.451 443.937
3529 0 89.129 13.2953 1185 92.4726 234.295 441.965
3530 0 92.1183 12.6902 1169 92.0496 234.678 438.985
3531 0 95.1112 13.3738 1272 91.2531 234.333 435.932
3532 0 96.1066 12.2884 1181 90.8594 234.336 436.485
3533 0 97.1009 11.3696 1104 97.1495 233.867 435.057
3534 0 104.229 13.432 1400 93.1064 234.011 433.684
3535 0 108.123 14.058 1520 92.5092 234.153 431.062
3536 1 57.1038 11.8906 679 86.3947 234.296 457.576
3537 0 58.1086 11.9087 692 86.8295 234.327 456.584
3538 0 57.0899 11.911 680 87.5221 234.731 455.072
3539 0 61.1451 12.1351 742 88.2776 235.305 455.651
3540 0 62.1605 11.792 733 89.8799 235.038 454.877
3541 0 65.1241 13.052 850 86.9494 234.488 454.046
3542 0 66.1731 12.0744 799 89.9387 233.695 453.364
3543 0 67.1899 13.1121 881 88.0295 234.33 453.605
3544 0 69.1135 12.8484 888 90.3514 234.03 450.044
3545 0 72.2118 13.2942 960 89.1646 234.702 452.361
3546 0 74.2643 13.0076 966 88.8944 234.954 450.611
3547 0 76.2324 12.3045 938 92.2068 235.5 447.988
3548 0 76.1148 12.9541 986 92.4168 235.985 447.181
3549 0 80.1454 12.365 991 92.6065 235.14 446.912
3550 0 83.1092 12.6941 1055 92.0085 236.034 445.393
3551 1 42.1375 10.9641 462 92.5541 236.208 463.818
3552 0 43.0696 11.3073 487 92.7269 236.222 462.37
3553 0 44.0824 11.8188 521 92.0269 236.572 461.298
3554 0 46.0447 12.0535 555 89.5676 236.647 459.128
3555 0 47.075 11.6835 550 90.8564 235.509 459.185
3556 0 48.0901 12.1023 582 90.4124 235.765 457.916
3557 0 50.0765 12.5408 628 88.4666 235.903 457.554
3558 0 51.1209 12.6171 645 89.9473 236.161 457.546
3559 0 51.125 12.1858 623 89.8957 236.08 455.819
3560 0 54.0824 12.2776 664 89.2425 236.252 454.711
3561 0 55.0953 12.7597 703 87.9844 236.532 453.801
3562 0 54.0799 12.8513 695 89.4173 236.449 452.529
3563 0 54.0882 12.609 682 90.3578 236.355 450.358
3564 0 56.0142 12.8717 721 88.3675 237.969 445.811
3565 0 59.0355 13.2632 783 85.8365 237.361 446.304
3566 0 61.146 14.0811 861 83.7329 237.827 444.005
3567 0 63.0671 13.4936 851 86.3772 237.063 439.999
3568 0 66.068 13.9553 922 84.4469 236.407 438.615
3569 0 64.0908 12.6071 808 91.5532 236.767 437.476
3570 0 67.1154 12.3817 831 92.1721 236.538 437.509
3571 0 67.0354 12.4859 837 93.6105 237.438 435.939
3572 0 71.1338 13.4816 959 90.4108 236.909 435.209
3573 0 71.1028 12.4046 882 94.5941 237.891 432.188
3574 0 76.1628 13.8519 1055 92.1147 237.73 429.738
3575 0 76.1237 12.6767 965 97.2415 238.063 428.568
3576 0 80.0997 13.1087 1050 96.919 237.789 428.312
3577 0 82.1696 13.2653 1090 98.4954 237.545 426.758
3578 0 86.2119 13.8728 1196 96.5644 237.995 432.603
3579 0 87.1596 13.7449 1198 98.5584 238.51 434.026
3580 0 93.2507 13.6192 1270 98.4661 238.291 428.486
3581 1 48.0027 11.9368 573 106.068 239.183 438.19
3582 0 51.0903 13.4076 685 102.196 238.991 440.196
3583 0 50.0776 13.1596 659 103.472 239.181 448.208
3584 0 51.0676 13.4528 687 106.59 238.435 449.239
3585 0 54.0423 13.6004 735 106.405 237.888 447.875
3586 0 54.0223 13.8091 746 106.618 239.796 446.559
3587 0 56.0368 13.8302 775 106.68 239.261 446.427
3588 0 59.0252 13.1978 779 108.198 238.815 447.815
3589 0 59.0436 12.9227 763 111.351 238.874 446.493
3590 0 62.0298 13.9288 864 107.959 239.244 447.236
3591 0 63.0431 13.8159 871 109.534 238.933 445.825
3592 0 62.0579 13.5519 841 112.961 239.686 445.093
3593 0 65.0885 14.1961 924 112.386 239.187 443.795
3594 0 67.0816 13.655 916 115.443 239.129 443.309
3595 0 70.1407 14.2285 998 115.34 238.701 442.256
3596 0 72.1086 14.0344 1012 118.698 239.176 441.085
3597 0 72.1012 14.1052 1017 120.171 239.463 441.453
3598 0 75.054 13.87 1041 121.62 239.578 440.348
3599 0 78.0805 13.9599 1090 123.126 238.91 440.009
3600 0 80.1043 13.5573 1086 126.583 239.73 438.134
3601 0 82.0833 13.9492 1145 127.341 239.653 437.602
3602 0 85.095 13.9021 1183 130.494 238.825 435.598
3603 0 86.1175 14.6196 1259 128.845 238.633 434.625
3604 0 90.2048 14.4227 1301 128.952 238.335 434.927
3605 1 47.0823 12.425 585 129.918 239.041 452.822
3606 0 48.0865 12.3527 594 129.584 238.577 451.48
3607 0 50.0669 13.0426 653 124.225 238.459 448.119
3608 0 51.0503 13.8491 707 125.308 237.894 452.037
3609 0 52.0673 14.8078 771 123.923 237.457 450.571
3610 0 53.0855 13.9209 739 136.145 237.507 452.257
3611 0 55.0226 14.3032 787 135.084 237.178 451.653
3612 0 55.0853 13.9965 771 138.345 237.463 451.196
3613 0 57.0451 14.0415 801 138.538 237.456 450.78
3614 0 58.0813 14.1698 823 139.815 237.08 451.717
3615 0 61.0518 14.3649 877 136.771 237.024 450.849
3616 0 61.078 14.7353 900 138.034 236.847 450.197
3617 0 63.038 13.6743 862 141.343 237.553 449.224
3618 0 64.0839 13.9349 893 140.606 237.194 449.938
3619 0 67.0688 13.9856 938 139.839 236.484 449.055
3620 0 68.0713 14.0882 959 140.852 235.862 448.437
3621 0 68.0639 13.9869 952 144.864 235.705 447.07
3622 0 71.0764 14.6181 1039 139.445 236.406 447.803
3623 0 74.0572 14.4213 1068 140.409 235.786 448.806
3624 0 75.044 13.9918 1050 142.289 235.688 450.085
3625 0 76.1084 14.0063 1066 140.353 235.784 446.725
3626 0 79.1541 13.7832 1091 139.688 235.811 443.012
3627 0 83.1201 13.9076 1156 134.882 235.73 442.728
3628 0 85.1271 13.8616 1180 132.875 235.529 440.7
3629 0 89.1146 14.5767 1299 128.607 235.462 439.099
3630 0 90.1309 14.4346 1301 129.67 235.304 437.367
3631 0 94.0766 13.9992 1317 126.792 235.018 435.625
3632 0 96.1899 13.4733 1296 126.435 235.256 435.704
3633 0 97.1645 13.1529 1278 128.354 234.712 433.126
3634 0 101.147 13.683 1384 124.623 234.525 430.35
3635 1 51.1325 11.2257 574 124.361 234.533 452.268
3636 0 56.1246 12.6148 708 120.428 234.107 450.705
3637 0 56.1332 13.1651 739 118.758 234.635 451.652
3638 0 57.0656 13.2479 756 118.433 234.381 450.07
3639 0 60.0716 14.1331 849 116.914 234.958 456.994
3640 0 61.127 13.5129 826 119.355 233.933 456.357
3641 0 65.1821 14.191 925 115.474 234.347 454.951
3642 0 66.0646 13.9863 924 116.027 234.413 453.992
3643 0 67.1874 13.9907 940 115.256 234.276 451.931
3644 0 69.1047 13.5302 935 116.852 234.521 450.672
3645 0 73.1526 14.4766 1059 112.728 234.398 449.705
3646 0 72.0747 12.6258 910 114.036 234.67 450.397
3647 0 76.1629 14.3639 1094 113.945 235.224 447.221
3648 0 78.1954 13.8499 1083 115.994 234.901 445.988
3649 0 80.1948 13.8164 1108 115.093 235.133 444.733
3650 0 82.2176 13.7318 1129 115.302 235.309 443.163
3651 0 85.1608 13.5743 1156 114.615 235.446 440.625
3652 0 88.0775 13.1135 1155 112.502 235.232 432.535
3653 0 91.122 13.7837 1256 109.478 235.561 430.124
3654 1 48.057 11.1534 536 106.076 235.78 452.832
3655 0 50.082 11.1417 558 104.896 235.823 452.873
3656 0 51.0521 11.4981 587 104.167 236.394 449.307
3657 0 51.0912 12.1352 620 105.102 237.108 449.724
3658 0 55.1728 13.2674 732 108.861 236.973 456.714
3659 0 53.104 13.0122 691 113.153 236.832 454.961
3660 0 54.135 12.8383 695 113.904 236.767 454.361
3661 0 58.2053 13.1088 763 113.56 236.699 452.599
3662 0 59.2287 13.6589 809 112.12 237.18 452.518
3663 0 62.1794 13.4932 839 112.617 237.895 451.019
3664 0 61.2464 13.3232 816 114.712 237.33 449.819
3665 0 64.1612 13.2323 849 114.813 237.883 449.302
3666 0 68.2861 13.5899 928 113.15 237.44 448.371
3667 0 68.1047 12.7304 867 117.933 237.839 446.238
3668 0 71.1531 12.6066 897 114.159 238.365 447.838
3669 0 72.1026 12.4267 896 115.623 237.953 446.552
3670 0 75.1901 13.3262 1002 111.56 237.637 444.056
3671 0 79.115 13.4235 1062 110.717 237.785 444.593
3672 0 80.1428 13.4884 1081 111.012 237.707 443.837
3673 1 44.1472 11.5749 511 111.188 237.202 462.886
3674 0 44.0805 11.842 522 110.034 238.303 462.5
3675 0 45.0153 12.5069 563 109.334 237.922 462.357
3676 0 47.0612 12.8768 606 108.025 237.898 461.249
3677 0 47.0576 12.5591 591 111.606 238.161 461.948
3678 0 47.0436 12.6266 594 112.611 237.912 461.559
3679 0 50.0382 12.5504 628 111.887 238.282 461.416
3680 0 51.0185 12.7797 652 112.077 237.851 459.661
3681 0 52.0416 12.49 650 112.722 237.137 458.242
3682 0 52.0473 13.4877 702 112.081 236.866 458.328
3683 0 54.0753 12.9819 702 113.366 237.165 458.132
3684 0 56.0385 12.8305 719 113.157 237.113 457.267
3685 0 57.0396 12.7806 729 113.911 236.929 456.964
3686 0 57.0427 12.4118 708 115.552 236.881 456.91
3687 0 59.0451 13.1255 775 113.197 236.634 456.019
3688 0 61.048 13.1044 800 113.764 236.71 455.734
3689 0 62.0835 13.0792 812 115.378 236.702 454.784
3690 0 66.0545 13.2012 872 113.025 236.178 454.15
3691 0 66.0814 13.0445 862 115.687 235.729 453.51
3692 0 69.0814 13.5637 937 113.064 236.177 452.204
3693 0 71.0712 12.8744 915 116.084 236.439 452.307
3694 0 71.1372 12.736 906 117.093 236.471 451.443
3695 0 75.0858 12.8253 963 115.62 236.69 449.79
3696 0 77.1425 12.8852 994 116.237 236.368 448.627
3697 0 79.1953 12.7912 1013 115.857 236.744 445.645
3698 0 83.1711 12.348 1027 115.993 235.868 446.128
3699 1 40.0285 10.3676 415 107.299 236.622 458.137
3700 0 42.0956 11.1888 471 107.074 236.352 459.042
3701 0 44.1155 12.6713 559 106.982 236.063 464.345
3702 0 44.0466 12.6003 555 109.198 236.279 465.71
3703 0 47.0708 12.6618 596 107.012 236.752 465.007
3704 0 47.024 12.4192 584 107.974 236.072 465.449
3705 0 49.0313 12.6042 618 106.851 236.539 464.764
3706 0 50.0194 12.6151 631 108.206 236.377 464.693
3707 0 49.0554 12.6999 623 109.246 236.273 463.541
3708 0 51.0289 13.267 677 106.616 236.226 462.508
3709 0 52.0489 12.9109 672 105.045 235.957 462.036
3710 0 55.0407 13.0812 720 104.253 235.979 460.908
3711 0 59.0669 12.8329 758 102.413 235.865 461.846
3712 0 56.1067 12.8683 722 105.489 235.161 459.008
3713 0 58.0721 13.2766 771 102.933 235.44 459.677
3714 0 59.1121 13.2799 785 104.536 235.617 457.767
3715 0 61.1268 13.0221 796 104.746 234.584 455.769
3716 0 63.1187 13.2766 838 105.939 234.168 450.192
3717 0 65.2075 13.4187 875 105.501 234.173 449.166
3718 0 67.1203 13.3492 896 106.35 234.28 447.762
3719 0 69.1555 13.1009 906 106.933 234.607 446.781
3720 0 72.1501 13.5135 975 105.601 234.793 445.292
3721 0 73.2117 13.1263 961 106.377 234.229 444.587
3722 0 77.1893 12.7997 988 105.223 234.58 442.868
3723 0 77.145 12.807 988 106.616 234.91 437.841
3724 0 81.0712 13.9754 1133 102.232 235.197 426.207
3725 0 84.1016 13.7453 1156 103.558 235.212 422.981
3726 0 85.2448 13.6665 1165 104.652 234.763 421.76
3727 0 88.3005 13.6353 1204 104.062 234.478 420.78
3728 0 90.2145 13.6009 1227 104.61 234.465 419.297
3729 0 92.1924 13.461 1241 104.953 234.236 419.272
3730 0 94.1226 14.2474 1341 102.128 235.385 418.133
3731 0 98.1805 14.4326 1417 104.022 234.51 414.063
3732 0 100.104 14.3051 1432 105.349 234.507 411.666
3733 0 104.216 14.9497 1558 103.789 234.882 410.391
3734 0 109.198 14.9087 1628 102.898 234.649 408.509
3735 0 111.146 14.7644 1641 104.533 235.214 407.458
3736 1 65.1877 11.6433 759 104.349 234.755 434.665
3737 0 66.2402 11.7904 781 104.554 234.618 434.467
3738 0 69.1623 13.5334 936 90.1955 233.999 433.325
3739 0 71.0892 13.2228 940 103.352 233.802 438.305
3740 0 71.197 13.0202 927 106.178 234.716 443.214
3741 0 72.1329 13.0176 939 105.972 234.47 432.46
3742 0 74.0842 12.1888 903 108.719 234.503 429.772
3743 0 78.1574 12.2189 955 108.029 234.626 428.437
3744 0 79.17 12.9847 1028 106.625 235.253 425.861
3745 0 81.1469 12.6191 1024 109.771 234.795 422.9
3746 0 84.1468 13.3933 1127 107.475 234.781 423.173
3747 0 84.1307 12.3617 1040 111.022 234.985 421.941
3748 0 88.1478 12.8534 1133 110.357 234.842 418.951
3749 0 92.0835 13.0642 1203 109.534 235.348 417.763
3750 0 94.0948 13.5395 1274 108.373 235.205 416.367
3751 0 96.1672 13.1126 1261 110.702 234.792 416.527
3752 0 98.1964 13.9211 1367 109.586 235.059 414.587
3753 0 101.162 14.027 1419 110.967 235.051 414.042
3754 0 106.2 13.983 1485 109.256 235.573 413.366
3755 0 108.224 13.6753 1480 110.995 235.157 411.497
3756 1 58.1227 12.5424 729 111.222 235.852 438.244
3757 0 60.0333 12.1433 729 104.713 235.933 435.354
3758 0 62.0321 14.154 878 110.121 236.008 454.124
3759 0 63.0731 14.0472 886 111.964 235.758 453.875
3760 0 65.086 13.1979 859 114.211 236.192 452.407
3761 0 67.0639 13.6288 914 115.189 236.566 450.853
3762 0 68.0426 13.5062 919 115.866 236.104 449.954
3763 0 71.0285 13.1919 937 116.14 235.972 450.029
3764 0 71.0333 13.3599 949 116.35 236.842 448.717
3765 0 74.1204 13.0059 964 118.216 236.093 446.217
3766 0 77.0545 13.6008 1048 117.594 236.096 445.627
3767 0 77.0887 13.3612 1030 119.544 235.993 444.372
3768 0 79.1814 14.2079 1125 117.428 236.349 445.048
3769 0 84.1397 13.5727 1142 119.925 236.212 441.875
3770 0 86.0933 14.0545 1210 117.841 235.952 443.129
3771 0 87.1324 14.0705 1226 119.192 236.185 439.777
3772 0 90.1444 13.6448 1230 122.796 236.192 438.537
3773 0 93.0329 13.9736 1300 116.641 235.405 438.126
3774 0 95.0415 13.3415 1268 120.192 236.34 438.142
3775 0 97.0887 13.0602 1268 122.427 236.474 436.347
3776 0 99.0753 13.6058 1348 118.835 236.073 436.256
3777 0 101.076 13.3464 1349 118.24 235.678 434.61
3778 0 106.061 13.6619 1449 116.854 235.504 433.656
3779 1 59.0501 11.8205 698 118.745 235.778 457.235
3780 0 59.0641 12.1732 719 118.712 234.919 456.008
3781 0 60.0371 12.359 742 116.616 234.933 453.271
3782 0 62.0645 12.5515 779 113.692 235.985 454.478
3783 0 63.0601 12.6387 797 114.661 235.856 453.152
3784 0 66.0623 12.6093 833 113.194 235.317 452.054
3785 0 67.0707 12.6434 848 112.112 234.689 448.89
3786 0 66.0209 12.6324 834 114.747 234.119 448.04
3787 0 69.0453 12.8032 884 117.128 235.727 449.021
3788 0 72.1523 13.5408 977 114.387 235.855 449.446
3789 0 72.0582 13.2254 953 117.957 235.341 447.87
3790 0 76.0938 13.8645 1055 115.498 235.272 443.596
3791 0 77.0394 13.6943 1055 117.171 235.137 442.536
3792 0 81.0188 13.6882 1109 115.247 235.715 442.756
3793 0 79.1914 13.0443 1033 113.611 235.022 441.643
3794 0 82.075 13.5364 1111 116.572 235.656 439.284
3795 0 86.0923 13.4507 1158 117.32 236.357 436.7
3796 0 91.2417 13.5903 1240 114.144 235.77 434.634
3797 0 92.1566 14.1281 1302 114.072 235.761 429.797
3798 0 94.1201 12.7497 1200 117.69 235.392 428.889
3799 0 98.1986 12.9432 1271 116.5 236.183 427.106
3800 0 100.174 12.5681 1259 115.872 235.133 418.417
3801 1 51.0962 9.7659 499 110.725 235.585 446.361
3802 0 53.083 10.8886 578 107.746 235.095 445.787
3803 0 55.0822 11.6008 639 109.041 234.886 445.02
3804 0 57.1204 12.4124 709 115.374 236.457 450.333
3805 0 57.1568 11.5997 663 120.492 238.17 452.145
3806 0 60.2301 12.5519 756 118.329 237.884 454.418
3807 0 63.2018 13.3541 844 117.201 239.086 452.904
3808 0 66.1849 12.0873 800 120.263 238.127 450.533
3809 0 67.2472 12.5804 846 119.746 237.979 446.252
3810 0 69.2019 12.1962 844 121.835 238.028 447.38
3811 0 70.1785 12.0692 847 123.285 237.344 446.294
3812 0 72.1258 12.5891 908 120.854 237.584 446.61
3813 0 76.1452 12.2529 933 123.179 237.692 445.509
3814 0 77.1375 12.2379 944 124.84 237.601 442.695
3815 0 80.1876 12.3211 988 124.988 237.681 441.09
3816 0 81.1858 12.65 1027 125.218 237.636 440.956
3817 0 84.1339 12.3018 1035 126.195 237.628 440.447
3818 0 87.2399 12.9184 1127 125.786 237.335 438.53
3819 0 91.167 13.3272 1215 124.121 238.105 436.091
3820 0 91.1443 13.0343 1188 126.926 237.42 434.196
3821 1 49.0642 10.9448 537 124.886 236.79 455.415
3822 0 50.0773 11.2027 561 126.467 237.061 456.832
3823 0 50.0609 12.0253 602 127.517 236.656 457.377
3824 0 53.1196 12.5942 669 125.52 237.154 456.32
3825 0 55.0983 12.632 696 127.568 236.999 456.055
3826 0 56.1182 12.4737 700 128.201 236.403 455.789
3827 0 59.1388 13.0033 769 124.276 235.607 455.566
3828 0 58.1956 13.7467 800 121.26 236.435 455.536
3829 0 60.1307 13.7201 825 124.029 236.773 453.479
3830 0 62.1724 13.8325 860 124.135 236.297 452.909
3831 0 63.1425 13.6833 864 125.073 235.986 451.521
3832 0 65.1116 13.6228 887 124.982 236.271 451.895
3833 0 65.0972 13.9023 905 125.06 236.687 449.84
3834 0 69.1458 13.1751 911 126.667 235.537 448.353
3835 0 70.1051 13.3514 936 126.89 236.12 447.658
3836 0 70.0869 13.2264 927 127.718 235.751 447.478
3837 0 74.1106 13.3854 992 125.792 235.779 446.466
3838 0 74.1225 13.2753 984 126.004 235.428 443.642
3839 0 78.1152 13.8513 1082 122.437 235.518 442.669
3840 0 79.0627 12.5217 990 125.41 236.026 443.647
3841 0 82.079 12.2443 1005 126.606 236.213 442.205
3842 0 85.1239 13.0281 1109 124.122 235.161 443.56
3843 0 87.0996 13.2492 1154 123.256 235.907 442.441
3844 0 89.0629 12.6203 1124 125.7 236.77 438.918
3845 0 93.2249 12.7327 1187 124.22 236.045 436.816
3846 1 52.0613 11.2175 584 123.074 236.087 455.856
3847 0 53.1399 11.9684 636 121.02 235.459 457.797
3848 0 54.2043 12.9694 703 118.653 235.198 456.215
3849 0 55.1267 12.3352 680 121.062 235.109 456.944
3850 0 58.2105 12.764 743 118.121 235.883 455.238
3851 0 59.0928 12.5904 744 120.308 236.536 454.469
3852 0 61.1229 12.7448 779 119.299 235.291 453.083
3853 0 63.096 12.4731 787 117.584 235.928 451.905
