time division length width area intensity CMx CMy
0 0 52.0704 13.5394 705 125.055 548.399 494.084
1 0 53.0403 13.6312 723 122.835 548.692 492.712
2 0 54.0266 13.8635 749 121.069 549.032 493.649
3 0 56.01 13.8368 775 120.332 548.707 492.808
4 0 56.0138 14.1394 792 120.557 549.042 492.004
5 0 59.0408 14.2274 840 117.375 549.21 491.286
6 0 58.0111 13.8939 806 120.376 548.732 491.408
7 0 60.0134 13.7969 828 119.854 549.583 491.705
8 0 61.0462 13.4324 820 120.755 549.33 491.009
9 0 62.0459 14.1025 875 117.759 549.189 490.161
10 0 65.0372 13.6691 889 119.489 548.813 489.115
11 0 68.0758 13.529 921 116.982 548.575 487.316
12 0 70.045 13.9053 974 114.529 549.549 487.882
13 0 72.0462 14.0049 1009 114.476 548.978 485.134
14 0 74.059 13.8403 1025 113.829 548.679 485.13
15 0 75.0504 14.2304 1068 112.582 548.442 482.852
16 0 80.0403 14.3178 1146 110.773 549.084 482.051
17 0 83.0733 14.6377 1216 109.598 548.128 479.179
18 0 83.0405 13.945 1158 111.672 548.171 479.182
19 0 89.0683 15.258 1359 105.89 547.951 476.881
20 0 92.0716 14.3801 1324 106.87 547.921 474.448
21 0 96.0837 14.758 1418 105.58 547.28 473.066
22 0 98.1545 14.7115 1444 105.004 547.587 471.098
23 0 100.205 14.5302 1456 104.133 547.575 467.527
24 0 105.077 15.2175 1599 102.785 547.552 468.462
25 0 109.087 15.428 1683 102.398 548.241 467.429
26 1 56.0889 13.0329 731 110.788 547.817 492.367
27 0 57.0622 13.424 766 109.76 547.2 490.796
28 0 61.0904 13.8156 844 105.543 546.82 490.549
29 0 63.0512 14.3376 904 102.777 546.388 489.409
30 0 61.0512 13.9883 854 169.352 545.452 488.327
31 0 64.0466 13.8337 886 104.014 548.102 488.137
32 0 68.0431 14.5202 988 100.476 547.533 488.283
33 0 69.0286 13.8493 956 101.992 547.146 485.838
34 0 72.025 13.773 992 101.579 547.148 486.151
35 0 74.0562 14.2324 1054 100.433 547.842 484.33
36 0 75.0467 13.6182 1022 102.118 547.833 483.434
37 0 78.0232 14.3291 1118 97.0206 547.315 480.657
38 0 83.1179 14.0042 1164 94.5885 546.412 477.609
39 0 85.0452 14.8509 1263 92.0808 546.295 478.352
40 0 88.1113 14.7995 1304 91.3604 546.258 475.591
41 0 91.1292 14.869 1355 91.1343 546.36 474.48
42 0 92.1355 14.8911 1372 93.3805 546.945 473.792
43 0 98.1915 15.1541 1488 93.3898 546.384 471.99
44 0 99.1204 15.002 1487 93.4338 546.392 470.017
45 0 102.113 14.2587 1456 95.4416 546.328 466.969
46 0 107.149 14.4565 1549 94.0491 546.471 465.61
47 0 110.145 14.4809 1595 93.1016 546.673 464.686
48 0 113.214 13.9911 1584 93.2273 546.776 461.896
49 1 56.0614 12.2544 687 94.4804 545.635 488.862
50 0 59.0948 12.0992 715 92.1035 545.435 490.438
51 0 60.1987 11.8109 711 94.6414 545.788 489.572
52 0 62.0876 12.9978 807 92.4238 545.959 487.175
53 0 63.0356 13.183 831 92.3959 546.124 486.632
54 0 67.0788 13.9687 937 92.8324 546.645 487.814
55 0 67.1105 12.4571 836 88.8935 547.146 489.532
56 0 70.0687 13.7579 964 85.6131 547 486.882
57 0 72.0455 13.0473 940 87.9138 546.647 486.388
58 0 75.057 13.9094 1044 86.0364 547.334 485.834
59 0 79.1134 13.4743 1066 87.4803 547.438 483.875
60 0 79.1253 13.3838 1059 88.8329 546.843 481.52
61 0 83.0541 13.6899 1137 89.0712 546.527 480.098
62 0 85.065 13.7307 1168 89.5385 546.747 478.959
63 0 88.1541 13.9301 1228 88.82 546.551 476.577
64 0 90.0921 13.6305 1228 89.9088 546.741 475.377
65 0 93.0857 13.4607 1253 89.063 547.627 475.687
66 0 96.0913 13.6745 1314 89.9216 547.1 472.907
67 0 99.0857 13.2209 1310 91.0641 546.798 471.595
68 0 104.15 13.807 1438 89.1683 546.159 468.812
69 0 108.153 13.222 1430 92.9783 546.064 466.733
70 0 112.366 13.8832 1560 90.35 546.181 465.169
71 0 115.321 12.4522 1436 94.3969 546.116 462.43
72 0 120.413 12.8806 1551 93.8408 546.082 461.208
73 1 58.1141 11.4602 666 90.515 546.836 491.288
74 0 57.0484 11.8496 676 91.0902 545.638 490.546
75 0 60.0493 12.2566 736 91.4198 545.822 489.143
76 0 64.0339 12.6964 813 89.6802 546.097 490.638
77 0 65.0638 12.8028 833 90.569 546.307 488.688
78 0 66.1032 12.2384 809 90.4697 546.444 488.021
79 0 68.0945 12.1596 828 82.0048 546.547 488.39
80 0 69.0528 11.2523 777 82.1493 546.835 487.915
81 0 71.034 11.3607 807 82.7088 546.75 484.772
82 0 74.0716 11.6644 864 81.6042 547.081 484.998
83 0 77.0416 11.8118 910 80.5813 546.229 482.934
84 0 79.1133 11.4646 907 81.1786 547.012 481.793
85 0 80.0764 11.1019 889 82.2655 546.678 481.998
86 0 84.0629 11.8483 996 81.1034 547.042 480.321
87 0 89.0608 12.1378 1081 87.4875 547.402 476.579
88 0 92.0275 12.1051 1114 87.298 547.706 475.018
89 0 96.0747 11.8554 1139 89.2072 546.766 473.581
90 1 55.0419 10.6646 587 84.1891 548.859 496.627
91 0 53.0203 10.2791 545 87.2789 548.338 496.029
92 0 57.0354 11.2912 644 85.0264 548.202 494.466
93 0 57.076 11.3358 647 87.7805 547.782 492.434
94 0 61.0517 12.039 735 87.7238 547.899 492.154
95 0 61.0214 11.9302 728 79.1511 546.547 491.493
96 0 61.0731 12.002 733 80.1964 545.876 491.591
97 0 64.0592 12.2075 782 78.0256 545.395 490.922
98 0 66.0353 11.7816 778 81.8612 545.31 490.662
99 0 65.0663 11.373 740 85.1324 545.535 489.922
100 0 68.0513 11.1827 761 86.4047 545.852 488.698
101 0 72.0612 12.0037 865 84.7353 546.481 486.651
102 0 75.1526 11.4035 857 84.832 545.98 485.823
103 0 76.0338 11.587 881 82.0261 546.89 485.044
104 0 78.087 11.4232 892 84.3274 546.489 483.724
105 0 82.0552 11.2485 923 87.7335 547.109 482.628
106 0 85.0362 11.8185 1005 86.3871 547.059 479.505
107 0 87.0255 11.6173 1011 87.3561 546.691 477.965
108 1 46.0254 10.1031 465 85.5097 545.284 499.239
109 0 47.0212 9.71903 457 80.663 546.186 495.475
110 0 48.0203 10.8704 522 81.7605 547.033 497.694
111 0 50.0449 11.5097 576 81.6007 546.08 497.62
112 0 51.0401 12.1669 621 82.5829 545.301 497.227
113 0 52.0308 11.0704 576 84.6198 545.054 496.378
114 0 55.1236 11.0479 609 83.3284 545.796 495.133
115 0 56.147 11.6836 656 81.7027 545.453 494.921
116 0 59.1158 12.1795 720 80.4361 545.393 494.203
117 0 59.127 11.5345 682 82.8416 545.802 494.104
118 0 59.0982 11.9124 704 82.554 544.733 492.121
119 0 61.1079 11.4715 701 83.535 545.078 492.078
120 0 63.1227 11.3905 719 81.6453 544.733 492.403
121 0 65.1176 11.6866 761 79.8568 545.428 489.184
122 0 68.1109 11.4666 781 79.493 545.855 488.309
123 0 71.186 11.2663 802 75.7145 545.875 487.485
124 0 75.0819 11.5074 864 74.36 546.185 485.943
125 0 77.0639 11.5489 890 74.7247 546.09 483.058
126 0 79.0706 11.2937 893 75.7559 544.813 482.203
127 0 81.1187 10.9962 892 76.6805 544.544 481.151
128 0 84.0464 11.4818 965 77.856 544.867 480.642
129 1 45.0306 10.726 483 82.9979 544.928 498.197
130 0 47.0447 10.9683 516 79.8934 544.965 499.647
131 0 48.0337 11.1796 537 79.702 546.067 498.536
132 0 50.1072 11.9943 601 73.619 544.805 498.376
133 0 50.1155 11.4136 572 76.3444 544.937 497.878
134 0 50.1183 11.6524 584 76.1729 545.063 498.834
135 0 53.1292 11.952 635 74.3575 544.995 497.26
136 0 53.0988 11.827 628 75.1529 544.31 496.309
137 0 55.1988 12.3553 682 73.4062 544.648 495.198
138 0 57.198 11.6263 665 74.9549 544.323 494.206
139 0 58.1332 12.1101 704 73.8992 544.702 492.536
140 0 56.147 10.5616 593 78.0759 545.064 494.777
141 0 59.111 11.4869 679 75.9573 544.657 492.732
142 0 60.0857 11.4004 685 75.5401 545.334 491.934
143 0 63.0609 10.9577 691 76.1404 545.113 490.858
144 0 63.1052 10.7757 680 76.9603 544.776 488.663
145 0 66.1166 11.1772 739 76.6725 544.346 487.237
146 0 67.084 11.031 740 76.7176 544.364 486.612
147 0 69.071 11.3796 786 76.145 544.309 484.686
148 0 70.0589 10.4484 732 77.5874 545.063 483.436
149 0 74.2426 10.9371 812 75.9569 545.41 478.637
150 1 39.0646 9.98346 390 75.8282 546.208 496.641
151 0 42.0687 9.9599 419 76.1241 546.394 499.112
152 0 43.0106 10.2998 443 77.5914 545.79 496.652
153 0 42.0789 10.1001 425 74.0071 543.551 501.993
154 0 43.0562 10.916 470 74.3702 543.711 501.132
155 0 45.0394 10.835 488 74.373 544.025 500.434
156 0 45.0344 9.12636 411 77.4696 544.421 501.888
157 0 48.0831 10.1075 486 75.4095 545.123 499.885
158 0 49.067 11.0869 544 74.5846 544.754 498.064
159 0 51.0467 11.0291 563 74.9094 544.913 497.194
160 0 52.038 10.8959 567 75.8236 544.711 496.515
161 0 54.0245 10.8839 588 76.5034 545.097 496.264
162 0 53.0476 9.85907 523 78.3384 544.258 497.18
163 0 55.0172 10.324 568 77.7746 544.518 496.551
164 0 57.0361 10.1865 581 77.253 544.348 493.866
165 0 59.0334 10.9599 647 75.915 544.975 491.601
166 0 60.0147 10.9807 659 75.8574 544.95 491.7
167 0 63.0161 10.5211 663 75.8914 545.682 490.995
168 0 65.0165 10.9203 710 75.6901 545.192 489.125
169 0 68.0814 11.4422 779 74.8909 545.71 487.556
170 0 70.0989 10.8561 761 76.6137 545.173 487.29
171 0 73.0733 11.2627 823 74.7704 545.671 488.27
172 0 75.0808 11.0015 826 76.8874 545.099 485.972
173 0 77.1485 10.7066 826 76.9843 545.356 484.958
174 1 45.0288 11.0374 497 73.9859 545.217 501.622
175 0 45.0537 11.0535 498 77.0823 545.331 500.633
176 0 48.0637 11.7552 565 75.8283 544.844 499.804
177 0 43.0836 10.4448 450 70.2978 544.391 502.038
178 0 47.0601 10.221 481 70.9917 544.549 501.158
179 0 45.0784 9.89388 446 72.9596 544.132 501.222
180 0 46.0975 10.2175 471 72.535 543.974 500.246
181 0 51.0799 10.5129 537 70.6797 544.173 499.257
182 0 50.1538 10.388 521 72.476 543.789 497.24
183 0 53.0899 10.9437 581 71.2496 543.3 497.955
184 0 53.0804 10.4935 557 72.6661 543.962 497.641
185 0 55.0628 11.4415 630 71.3365 543.878 495.527
186 0 57.0531 10.797 616 72.1867 544.032 495.015
187 0 59.0502 10.5842 625 72.7296 544.354 494.41
188 0 60.065 10.6884 642 71.8193 544.296 493.036
189 0 64.0638 12.0973 775 69.5987 544.57 490.568
190 0 65.0957 11.1067 723 71.1909 544.6 490.108
191 0 66.0671 11.7456 776 71.7088 544.804 487.982
192 0 68.0502 11.8589 807 72.2107 544.902 487.548
193 0 72.0804 11.9311 860 71.8035 545.12 485.555
194 0 74.1222 11.7644 872 73.703 545.306 483.631
195 0 76.0349 11.5605 879 74.6837 545.328 482.771
196 0 79.1954 12.1345 961 75.0624 545.271 482.424
197 0 81.0778 12.2105 990 74.1505 544.916 480.324
198 1 43.022 9.22785 397 77.8388 544.934 500.416
199 0 44.0113 10.77 474 75.5527 545.095 500.892
200 0 45.1246 10.7037 483 76.2505 544.611 500.896
201 0 49.2239 11.7016 576 79.5278 544.557 498.795
202 0 49.0259 11.8101 579 104.781 543.769 498.337
203 0 52.0433 12.4127 646 100.175 542.94 497.437
204 0 53.0314 12.5397 665 100.108 544.12 497.045
205 0 54.0329 11.6596 630 102.352 543.881 497.449
206 0 55.0373 12.01 661 103.059 543.493 494.909
207 0 56.0495 12.0965 678 103.341 543.131 496.021
208 0 57.0486 12.0248 686 103.684 543.332 494.872
209 0 57.0589 12.268 700 101.8 542.954 493.619
210 0 60.0412 13.3242 800 97.205 544.53 492.631
211 0 62.0822 13.4016 832 96.3774 544.704 493.405
212 0 63.0549 12.6239 796 100.168 544.369 492.32
213 0 66.0992 13.3587 883 96.9989 544.257 490.618
214 0 67.1637 13.1768 885 96.4983 544.081 490.689
215 0 69.1807 12.8649 890 97.0371 543.26 487.918
216 0 71.1435 12.8613 915 96.6656 543.061 487.925
217 0 73.1414 12.9885 950 94.6421 543.29 486.406
218 0 76.1027 12.7459 970 93.8186 543.304 485.566
219 0 78.1513 12.5398 980 93.6092 543.787 484.843
220 0 80.1189 12.5938 1009 94.8642 543.388 482.712
221 0 82.1515 12.0387 989 93.5025 543.233 482.743
222 0 86.1667 12.824 1105 84.543 543.528 481.36
223 1 42.0604 10.5087 442 91.9615 542.862 500.952
224 0 46.0471 10.9453 504 89.6548 543.127 500.232
225 0 46.0594 11.0944 511 90.8043 543.027 500.098
226 0 49.0342 11.8897 583 89.9108 542.683 498.461
227 0 50.0233 12.2543 613 88.2088 542.522 498.008
228 0 51.0483 11.4597 585 92.1932 543.205 497.45
229 0 53.0445 11.5752 614 90.4853 542.945 496.49
230 0 55.0258 11.5582 636 88.7028 543.781 496.313
231 0 54.0778 11.8348 640 89.0062 543.114 495.195
232 0 57.0861 11.7016 668 85.5419 543.304 494.075
233 0 58.0714 12.8807 748 83.3877 543.638 493.154
234 0 61.0629 12.2333 747 82.7818 543.663 492.474
235 0 62.0524 12.425 771 80.9287 543.14 492.009
236 0 64.05 12.3809 793 81.9168 543.898 492.187
237 0 66.052 12.0662 797 82.0502 543.895 491.55
238 0 68.0347 12.8317 873 81.0241 543.934 490.246
239 0 69.022 12.3004 849 82.0742 543.369 488.813
240 0 74.0368 12.5883 932 79.7425 543.474 487.376
241 0 75.0668 12.9751 974 79.7998 543.654 486.184
242 0 77.0797 12.3768 954 81.9507 543.875 483.797
243 0 80.0728 13.1131 1050 80.5438 543.177 482.712
244 0 81.0669 12.9153 1047 82.3247 543.936 481.299
245 0 84.0718 12.7272 1070 95.1084 543.47 479.589
246 0 88.0435 12.278 1081 95.6346 543.938 479.233
247 0 93.0714 12.7322 1185 93.4489 543.964 479.065
248 0 96.0723 13.4586 1293 93.362 543.473 476.64
249 0 100.07 12.7511 1276 94.7672 543.056 475.303
250 0 101.11 13.0057 1315 94.8433 543.666 473.148
251 0 104.061 12.3005 1280 94.6227 543.755 472.301
252 0 108.134 12.9007 1395 92.5649 543.971 470.667
253 0 111.108 12.1593 1351 91.4648 543.733 468.041
254 1 57.0556 10.0253 572 85.7413 543.685 495.233
255 0 60.0826 10.9682 659 81.2777 544.372 493.768
256 0 61.022 11.4221 697 82.3486 544.251 491.92
257 0 63.0384 11.3582 716 83.5726 545.328 491.476
258 0 65.0854 12.691 826 80.9116 544.816 491.338
259 0 67.149 12.9414 869 84.5754 544.408 489.142
260 0 70.1815 12.7954 898 85.1704 543.702 487.293
261 0 70.1009 13.181 924 85.9362 544.721 486.334
262 0 73.1052 12.653 925 87.1222 544.359 486.258
263 0 75.1203 13.0591 981 86.8084 544.011 484.228
264 0 78.1259 13.235 1034 85.7795 544.319 481.977
265 0 79.0858 12.379 979 85.1338 544.685 481.026
266 0 81.078 12.9258 1048 85.7643 544.05 480.364
267 0 85.0764 13.0941 1114 83.8627 544.238 479.872
268 0 88.1404 13.1608 1160 84.9103 543.734 477.766
269 0 90.1789 13.0075 1173 85.237 544.072 477.17
270 0 92.1138 13.2771 1223 84.3312 543.723 475.527
271 0 92.0437 11.9726 1102 77.1207 543.595 474.282
272 0 93.1071 12.0184 1119 78.2788 542.98 473.164
273 0 97.0814 11.9178 1157 78.5298 543.544 472.051
274 0 100.173 11.7597 1178 79.3565 543.509 470.186
275 0 101.08 11.7728 1190 80.0529 543.807 469.691
276 0 105.153 12.0491 1267 80.2163 543.681 469.233
277 0 109.151 12.2125 1333 80.147 543.857 464.818
278 0 113.068 12.718 1438 79.0883 543.924 465.515
279 0 117.088 12.9903 1521 79.4589 543.062 463.33
280 0 122.063 12.8786 1572 81.0814 543.205 460.566
281 0 124.086 12.5156 1553 83.4346 542.906 458.569
282 0 129.116 12.6011 1627 83.6165 542.994 456.799
283 1 74.3691 11.1068 826 77.816 542.096 482.13
284 0 74.1976 10.809 802 79.5037 543.81 483.217
285 0 79.2034 11.8934 942 80.189 543.746 481.383
286 0 81.1664 12.0986 982 81.6416 543.811 482.057
287 0 82.2099 10.9962 904 81.9801 543.671 478.847
288 0 86.1615 11.4088 983 84.2024 543.453 477.835
289 0 88.1859 11.952 1054 87.5844 543.426 474.921
290 0 90.166 11.1239 1003 91.1077 544.268 472.777
291 0 93.162 11.8074 1100 90.5955 544.084 470.98
292 0 96.2104 12.1401 1168 90.7894 543.798 470.657
293 0 99.1991 11.5828 1149 92.8782 544.284 468.772
294 0 103.218 12.0231 1241 91.7695 543.619 466.015
295 0 105.311 12.6007 1327 92.59 543.044 461.306
296 0 109.211 12.3522 1349 92.8547 542.918 463.892
297 0 111.194 11.7543 1307 93.5379 542.49 462.467
298 0 116.169 11.8793 1380 92.4841 543.36 459.722
299 0 118.21 11.8264 1398 92.5343 543.672 459.771
300 0 121.235 11.2839 1368 93.1769 543.364 457.664
301 0 127.281 11.7064 1490 90.151 543.211 454.19
302 1 68.2482 9.96364 680 81.4206 542.337 484.268
303 0 70.2803 10.2447 720 80.7319 542.36 484.819
304 0 72.0874 10.7647 776 80.1856 543.642 486.07
305 0 73.0563 10.8273 791 81.3262 543.23 484.358
306 0 78.0462 11.1985 874 85.7506 543.642 482.7
307 0 82.056 11.09 910 83.1582 543.802 480.956
308 0 85.0946 11.5401 982 82.4409 543.006 481.014
309 0 86.1304 11.3084 974 84.1201 543.404 477.951
310 0 89.2052 12.006 1071 82.2138 543.593 477.368
311 0 91.3344 11.3429 1036 84.0878 544.837 473.509
312 0 95.1522 12.0228 1144 83.2614 543.226 472.744
313 0 96.1592 11.9697 1151 84.2632 543.738 470.321
314 0 99.1834 12.0081 1191 84.9379 543.775 470.693
315 0 103.209 11.8788 1226 84.9152 544.011 470.365
316 0 107.169 12.3543 1324 83.8421 544.024 469.05
317 0 109.16 11.9457 1304 85.2799 544.783 466.076
318 0 113.21 12.1809 1379 85.2001 544.191 466.553
319 0 116.132 12.1845 1415 86.2198 544.136 464.661
320 0 119.162 11.8074 1407 89.4016 544.35 463.85
321 0 122.174 12.1057 1479 88.6241 543.644 462.717
322 0 125.162 12.8793 1612 87.9944 543.387 460.739
323 0 129.146 12.3504 1595 87.4495 542.996 458.926
324 0 134.202 12.4365 1669 86.8568 542.878 456.997
325 0 137.154 12.2636 1682 88.286 542.676 452.298
326 0 140.183 12.184 1708 89.3484 542.499 452.714
327 0 144.118 12.802 1845 90.0791 542.759 449.914
328 0 149.178 12.7968 1909 90.9644 542.675 450.486
329 0 153.141 12.6811 1942 91.0963 542.5 447.92
330 0 157.099 12.5526 1972 94.3352 541.885 446.591
331 0 161.208 12.276 1979 96.7337 542.094 444.08
332 0 165.16 12.2548 2024 97.9091 541.391 439.158
333 0 170.253 12.546 2136 99.7776 540.396 432.029
334 0 175.314 13.0509 2288 98.6958 540.311 433.618
335 0 181.28 12.6655 2296 101.443 540.47 429.76
336 0 187.323 12.4384 2330 101.679 540.394 424.573
337 0 193.297 12.7938 2473 100.979 541.201 421.355
338 0 197.319 12.5938 2485 102.153 541.135 419.692
339 0 203.331 12.6247 2567 101.379 540.406 419.3
340 0 209.301 12.3124 2577 101.712 539.625 416.636
341 0 216.35 12.4428 2692 101.925 540.741 413.247
342 1 162.387 10.8075 1755 97.51 540.154 445.305
343 0 168.373 11.528 1941 98.5023 539.856 440.386
344 0 173.45 12.038 2088 97.693 539.899 435.318
345 0 178.398 12.1582 2169 97.6003 539.706 431.724
346 0 185.352 12.3657 2292 96.7709 539.808 429.855
347 0 192.439 12.4195 2390 96.3264 539.586 427.206
348 0 198.353 12.1803 2416 97.5248 539.312 423.626
349 0 205.254 12.3165 2528 97.6654 539.578 418.538
350 0 210.25 12.1617 2557 97.3457 539.607 406.558
351 0 218.178 12.1644 2654 96.6081 539.136 405.989
352 0 223.218 12.5931 2811 96.5027 538.879 394.548
353 1 51.03 9.66098 493 81.8966 537.972 484.832
354 0 54.2005 9.94455 539 81.6382 538.918 482.711
355 0 56.2429 9.65455 543 83.3812 541.055 489.525
356 0 58.0595 9.98975 580 84.331 540.745 496.572
357 0 59.0442 10.3482 611 81.3732 540.329 496.43
358 0 61.1363 9.60149 587 83.2828 540.729 494.266
359 0 62.055 10.4424 648 83.0401 541.392 493.64
360 0 63.0621 10.0219 632 84.1851 541.378 491.13
361 0 66.1232 9.99649 661 85.2874 541.227 490.871
362 0 68.0425 10.4494 711 82.4571 541.515 489.862
363 0 70.0914 10.5148 737 77.2225 541.373 489.22
364 0 73.1093 10.9699 802 77.7569 541.552 490.443
365 0 77.1535 10.4208 804 78.597 541.894 487.934
366 0 86.1062 10.4058 896 81.6819 540.775 482.942
367 0 91.1239 10.9741 1000 77.748 539.685 483.82
368 1 45.0404 10.1021 455 75.1011 541.336 503.086
369 0 45.0185 10.1958 459 72.3377 540.357 503.824
370 0 46.0818 9.41803 434 71.1382 542.53 500.585
371 0 44.0267 9.13081 402 76.903 540.082 502.072
372 0 44.2006 9.23063 408 75.0613 538.838 501.973
373 0 45.0165 9.01892 406 77.0271 540.714 503.347
374 0 47.0066 8.40308 395 76.5418 541.813 502.438
375 0 47.0191 8.89 418 76.1124 541.383 502.478
376 0 52.2628 10.0263 524 72.6183 539.498 498.124
377 0 52.12 9.70836 506 72.3972 539.83 498.929
378 0 54.1179 10.588 573 70.5113 540.239 499.887
379 0 56.0754 9.71906 545 70.6936 539.967 500.396
380 0 60.1316 11.0757 666 68.9369 540.099 496.146
381 0 59.1288 10.401 615 69.7187 539.735 496.759
382 0 61.1418 11.6778 714 67.9972 540.342 494.09
383 0 62.1828 10.5174 654 70.0581 540.164 496.202
384 0 63.107 9.91966 626 72.238 540.417 493.016
385 0 64.1057 10.8259 694 70.5476 539.955 492.331
386 0 67.1104 10.1624 682 70.4868 540.104 494.365
387 0 67.0467 10.1571 681 71.7988 539.41 492.113
388 0 70.0597 10.0058 701 70.0827 540.518 491.188
389 0 73.0879 9.79642 716 72.8184 541.176 489.398
390 0 75.0537 11.1387 836 70.3588 541.548 486.803
391 0 81.1053 11.1953 908 71.6982 540.024 485.582
392 0 81.0803 9.9161 804 73.949 540.498 484.409
393 1 42.0508 10.083 424 73.9245 539.738 502.021
394 0 43.0265 11.0397 475 71.0021 540.259 502.547
395 0 46.0082 10.8242 498 70.2108 540.811 501.755
396 0 43.0583 10.0097 431 71.884 542.353 503.585
397 0 43.1087 9.69641 418 70.7153 542.474 503.734
398 0 44.0739 9.6429 425 71.5576 543.374 502.398
399 0 46.0548 10.2052 470 67.3915 543.049 502.785
400 0 45.0477 9.76742 440 70.0477 543.657 499.15
401 0 47.0372 8.99288 423 71.0166 542.747 502.397
402 0 48.1281 10.6591 513 69.6881 542.918 500.515
403 0 51.0417 10.3249 527 69.5256 543.046 497.696
404 0 51.0997 10.4502 534 70.8951 543.815 500.292
405 0 53.0732 10.5138 558 72.7115 543.423 498.608
406 0 54.0364 10.5299 569 71.8946 543.199 498.706
407 0 55.0256 10.2134 562 73.3185 543.457 496.612
408 0 58.0592 10.696 621 71.6667 543.586 496.517
409 0 59.042 11.1615 659 72.3323 543.167 494.615
410 0 59.0676 10.7504 635 73.9528 542.742 494.239
411 0 63.0603 10.815 682 72.5176 542.265 492.314
412 0 64.1299 10.276 659 76.827 542.3 493.829
413 0 67.1743 11.3436 762 74.8058 542.616 491.231
414 0 68.0998 10.9545 746 78.4745 542.273 490.505
415 0 70.1087 11.1113 779 80.1412 542.637 488.465
416 0 73.0803 11.2205 820 79.7549 541.966 486.754
417 0 74.0592 11.0587 819 78.4469 542.06 484.16
418 0 79.1673 12.2652 971 77.5036 542.411 483.93
419 0 86.154 12.9187 1113 80.5615 541.752 481.712
420 0 87.2026 12.2473 1068 82.4335 541.892 478.973
421 0 91.2328 12.8791 1175 79.9651 542.166 480.188
422 1 47.0314 11.099 522 78.9655 542.31 501.933
423 0 48.1097 11.9934 577 76.9619 542.705 501.577
424 0 50.0766 12.1214 607 75.3097 542.152 500.847
425 0 51.0279 12.6793 647 76.289 542.107 500.711
426 0 54.0307 11.7341 634 68.8596 542.326 499.257
427 0 53.0151 11.9966 636 71.0142 541.97 499.373
428 0 56.0136 12.2113 684 70.7471 542.333 498.276
429 0 55.0288 12.0119 661 71.5129 541.567 498.168
430 0 57.0331 12.5541 716 70.1411 541.972 496.542
431 0 57.0368 11.5715 660 70.7894 542.379 498.2
432 0 58.0567 11.4199 663 71.1176 542.253 496.056
433 0 59.0074 10.6088 626 73.9792 542.828 496.403
434 0 62.0419 10.6702 662 73.9758 541.903 495.011
435 0 65.0634 10.7126 697 72.2826 542.55 493.452
436 0 67.0493 11.1709 749 71.5834 542.485 493.893
437 0 68.1012 10.7634 733 71.1023 541.69 492.902
438 0 70.0726 10.7603 754 70.8223 541.611 491.082
439 0 72.0413 11.1186 801 70.8552 541.657 489.05
440 0 74.0255 10.8476 803 70.9004 541.463 488.305
441 0 77.0347 10.7484 828 72.4831 541.63 486.461
442 0 82.0582 11.3212 929 70.8192 542.526 483.674
443 0 85.0674 11.4027 970 71.4835 542.182 482.468
444 0 87.0705 11.439 996 71.8855 541.556 480.438
445 0 91.0732 11.2876 1028 71.6265 541.209 478.852
446 1 48.0151 11.1423 535 72.3215 541.828 498.716
447 0 53.0115 11.8465 628 68.8328 541.455 498.76
448 0 54.02 11.6809 631 73.2995 541.83 497.778
449 0 55.0201 11.4685 631 71.5895 541.805 496.643
450 0 58.1018 12.4953 726 68.7438 541.614 496.391
451 0 60.0679 11.6868 702 70.0071 542.031 494.274
452 0 60.0426 12.7576 766 69.6723 541.679 494.732
453 0 61.1019 12.1109 740 72.0311 541.276 494.034
454 0 63.0238 12.1859 768 73.2096 541.116 492.393
455 0 63.082 12.3807 781 75.0525 542.151 492.236
456 0 65.0642 11.8959 774 75.4819 542.027 492.01
457 0 67.1004 11.5499 775 76.0387 541.944 490.517
458 0 72.0936 12.2341 882 74.4785 541.761 487.39
459 0 73.1101 12.3923 906 76.0497 541.71 486.839
460 0 75.1028 12.7692 959 76.17 541.876 483.42
461 0 78.1426 12.4004 969 77.16 541.81 482.753
462 0 80.2067 12.58 1009 78.3558 541.797 480.602
463 0 83.1256 12.0781 1004 83.0857 541.587 476.393
464 0 87.0809 11.9889 1044 82.8448 541.902 475.488
465 0 90.1238 12.0945 1090 83.3239 541.642 473.969
466 0 93.1746 11.9775 1116 84.5824 542.147 473.272
467 0 95.1674 12.4307 1183 84.492 541.877 472.647
468 0 98.2314 12.6742 1245 84.4096 540.748 468.137
469 0 101.141 12.5369 1268 81.5891 542.248 469.202
470 0 101.176 12.2262 1237 81.8496 542.466 466.694
471 0 107.18 12.8942 1382 79.6035 541.666 464.357
472 0 110.146 12.665 1395 81.2523 540.994 462.02
473 0 112.15 12.2336 1372 82.8819 542.144 462.039
474 1 63.0374 11.3425 715 86.9399 541.379 486.673
475 0 64.0788 11.205 718 89.7396 542.689 484.833
476 0 70.0332 12.8939 903 85.8549 542.083 485.2
477 0 70.0762 12.201 855 85.5193 541.856 488.933
478 0 73.1555 12.4666 912 85.3443 541.895 488.465
479 0 75.2646 12.7949 963 84.9782 541.897 485.895
480 0 77.0952 12.0889 932 86.9946 541.218 486.026
481 0 79.1918 12.173 964 87.7199 541.052 483.716
482 0 82.088 12.3526 1014 87.9951 541.391 482.145
483 0 85.0812 12.3176 1048 86.5849 541.167 481.749
484 0 88.0994 12.9059 1137 86.1398 541.438 480.223
485 0 90.0887 13.1093 1181 86.7688 541.305 477.007
486 0 92.1657 12.2063 1125 89.0364 541.588 474.596
487 0 94.0644 12.6934 1194 89.2956 542.151 475.065
488 0 98.0878 12.968 1272 87.8192 542.184 473.656
489 0 100.057 12.8127 1282 88.6388 541.334 473.544
490 0 100.06 12.9821 1299 92.7514 540.417 472.268
491 0 104.088 12.8161 1334 92.602 540.624 470.189
492 0 107.066 12.9453 1386 92.8095 540.498 470.543
493 0 109.168 13.1998 1441 94.4636 541.668 465.792
494 0 113.078 12.6815 1434 95.6548 541.289 464.458
495 0 117.25 12.7079 1490 94.4302 540.885 463.384
496 0 123.176 12.8759 1586 94.575 540.282 459.67
497 0 126.173 12.8157 1617 96.4855 540.782 458.261
498 0 128.18 12.6384 1620 97.0784 541.146 447.23
499 1 68.0834 10.1053 688 96.061 540.919 477.785
500 0 72.0643 11.3648 819 95.475 541.054 479.004
501 0 76.1536 12.2122 930 98.8366 540.955 485.626
502 0 79.208 12.2336 969 96.2394 540.691 482.844
503 0 82.1035 12.8131 1052 86.6236 540.333 485.231
504 0 84.082 11.8218 994 89.0282 540.995 485.728
505 0 85.1072 11.4561 975 90.8431 540.748 483.143
506 0 89.1178 12.5789 1121 88.1847 541.266 481.341
507 0 90.0784 11.6343 1048 92.1212 540.994 479.155
508 0 94.1037 12.3375 1161 91.8381 540.753 477.567
509 0 98.0817 12.3061 1207 91.5551 540.907 476.839
510 0 101.108 13.0257 1317 90.6917 541.459 474.721
511 0 102.083 12.8719 1314 92.4977 540.453 472.6
512 0 105.132 12.5938 1324 94.4018 539.369 471.103
513 0 108.045 12.4948 1350 95.3222 539.457 471.094
514 0 110.167 12.5446 1382 95.5709 540.116 470.383
515 0 116.243 12.99 1510 93.743 539.269 466.33
516 0 118.156 12.5004 1477 95.2404 539.828 465.108
517 0 123.19 12.4037 1528 95.1577 539.463 463.761
518 1 66.0862 10.4863 693 94.2799 539.488 493.489
519 0 66.0805 11.1228 735 96.3755 538.929 481.234
520 0 70.0424 12.0498 844 93.6647 538.949 484.736
521 0 72.0425 11.7569 847 93.7898 539.334 487.619
522 0 73.0196 12.5446 916 92.3886 540.128 489.096
523 0 76.0373 12.0993 920 92.7435 539.122 488.041
524 0 77.1439 12.6517 976 93.7121 539.316 488.811
525 0 79.1228 12.7902 1012 95.4595 539.934 487.006
526 0 81.2251 12.5084 1016 97.0246 539.425 486.687
527 0 83.2326 12.411 1033 98.7144 539.559 484.757
528 0 85.184 12.2206 1041 100.209 539.068 484.354
529 0 89.1445 12.9116 1151 97.1077 539.18 483.475
530 0 89.2179 12.4751 1113 99.6586 538.58 482.663
531 0 92.2033 12.505 1153 100.454 538.419 481.461
532 0 93.1432 12.8834 1200 100.955 539.329 481.102
533 0 96.2295 12.6988 1222 101.229 539.371 480.462
534 0 97.1952 12.3566 1201 102.432 539.971 478.251
535 0 99.2202 12.6486 1255 102.85 539.545 478.887
536 0 100.241 12.8989 1293 102.609 539.464 478.258
537 0 100.253 12.5682 1260 104.691 538.957 476.985
538 0 101.212 12.538 1269 102.361 538.463 475.972
539 0 103.165 12.1165 1250 103.605 538.602 474.576
540 0 107.232 12.3657 1326 101.557 538.891 474.045
541 0 108.247 12.2683 1328 99.2108 539.822 473.022
542 0 112.161 11.9293 1338 96.7287 539.84 472.038
543 0 114.134 11.4077 1302 98.7965 539.557 469.501
544 0 115.261 11.7386 1353 98.3326 539.572 468.497
545 0 118.151 10.6051 1253 99.8659 539.938 468.673
546 0 123.196 10.8526 1337 100.902 540.13 466.315
547 0 123.121 10.9404 1347 100.298 540.298 466.168
548 0 127.161 10.9467 1392 100.85 540.351 463.286
549 0 129.174 10.8768 1405 100.286 539.964 463.257
550 1 70.1431 9.66596 678 92.736 540.73 492.773
551 0 72.134 10.7162 773 92.5149 541.005 490.824
552 0 74.1055 10.3906 770 93.3364 541.462 491.249
553 0 74.1441 10.3852 770 92.9221 540.699 489.519
554 0 76.1513 11.0175 839 92.4625 540.942 490.15
555 0 78.1758 11.2567 880 94.3466 540.517 490.183
556 0 78.1656 11.079 866 98.0728 539.71 488.585
557 0 80.1968 11.6463 934 94.6081 540.065 489.776
558 0 82.0542 11.3584 932 91.8283 539.872 488.39
559 0 81.1143 10.2695 833 86.3145 538.421 483.425
560 0 86.0768 12.4191 1069 100.984 537.338 486.207
561 0 89.0993 12.2111 1088 102.836 537.52 484.874
562 0 89.0714 12.1812 1085 103.879 537.939 484.539
563 0 91.088 11.154 1016 103.69 537.836 485.701
564 0 92.0702 11.3066 1041 103.742 537.586 482.922
565 0 95.0873 11.4526 1089 102.696 537.817 484.417
566 1 54.0288 10.0872 545 102.571 537.18 503.156
567 0 56.0967 9.98275 560 103.4 537.745 500.598
568 0 57.0826 10.7739 615 101.263 538.241 498.971
569 0 55.0386 10.2655 565 96.6637 537.296 502.952
570 0 57.0755 10.3197 589 96.8183 537.127 502.852
571 0 60.0312 10.4279 626 96.8179 537.682 502.55
572 0 59.0979 9.84806 582 101.675 537.328 500.672
573 0 62.0688 9.84392 611 102.02 538.604 499.725
574 0 65.0718 10.4039 677 100.261 538.449 498.223
575 0 66.0798 10.6538 704 101.996 537.354 497.744
576 0 68.1244 10.5395 718 102.081 537.415 497.249
577 0 70.139 10.0942 708 104.766 537.396 495.571
578 0 73.1408 9.93973 727 106.451 537.607 494.439
579 0 75.1999 10.9176 821 105.296 537.453 493.351
580 0 78.2265 11.1088 869 105.414 538.306 491.161
581 0 80.1952 11.0106 883 106.066 538.265 490.907
582 0 83.1369 11.439 951 103.105 538.565 489.057
583 1 43.2784 10.3978 450 104.22 537.618 505.953
584 0 45.1929 10.6875 483 102.952 538.395 504.379
585 0 47.2347 10.7125 506 102.911 537.551 503.951
586 0 47.1852 10.533 497 101.306 538.195 507.078
587 0 48.1543 11.7954 568 103.116 538.759 506.158
588 0 48.1561 11.172 538 137.686 538.753 505.66
589 0 50.1699 12.1985 612 103.386 538.5 506.026
590 0 51.1952 11.9543 612 105.962 539.167 505.895
591 0 53.2249 12.1184 645 104.898 539.205 504.234
592 0 55.2432 12.5083 691 103.621 539.116 503.425
593 0 57.3018 12.1113 694 104.862 538.82 503.379
594 0 57.3099 12.0049 688 106.224 538.612 502.068
595 0 59.2447 12.0855 716 104.965 539.176 501.807
596 0 61.303 12.0549 739 105.054 537.846 499.844
597 0 62.2106 12.6827 789 104.58 538.942 498.999
598 0 61.1388 12.2835 751 107.318 539.519 498.336
599 0 64.2443 12.8727 827 104.8 539.042 498.727
600 0 67.1958 12.9323 869 103.461 539.297 495.98
601 0 70.1796 12.8955 905 102.922 539.39 495.738
602 0 74.188 12.1044 898 104.523 539.611 494.225
603 0 74.2125 11.8309 878 104.883 539.517 492.689
604 0 77.2744 11.5692 894 104.312 539.53 493.046
605 0 81.1872 12.8222 1041 99.7627 538.767 492.22
606 0 81.1585 11.7301 952 102.918 538.477 489.497
607 0 84.2136 11.9221 1004 100.08 539.044 489.164
608 1 42.1655 11.5735 488 99.1127 539.371 508.404
609 0 43.1439 11.45 494 99.581 538.887 504.583
610 0 45.1408 11.3866 514 99.8035 538.693 503.984
611 0 48.0387 12.0944 581 94.9415 539.067 508.601
612 0 49.1228 11.9089 585 101.911 537.846 507.185
613 0 52.1231 11.7798 614 102.963 538.096 505.306
614 0 54.0781 11.9642 647 101.114 537.881 506.029
615 0 55.095 12.0519 664 101.577 537.428 504.075
616 0 55.0979 11.8879 655 102.977 537.524 501.966
617 0 60.2251 11.208 675 100.636 537.655 501.821
618 0 61.1341 12.0718 738 97.6884 538.133 501.64
619 0 61.1269 11.8606 725 96.1697 538.386 501.134
620 0 63.1211 11.3274 715 96.6126 537.888 499.38
621 0 65.2689 11.6441 760 94.7224 538.197 498.488
622 0 65.1574 11.1883 729 94.6584 538.029 497.384
623 0 68.1862 11.9672 816 92.6017 537.352 496.445
624 0 70.1328 12.0771 847 91.9988 537.518 495.425
625 0 72.1109 11.4823 828 85.8007 537.361 493.054
626 0 74.1569 11.9746 888 91.0642 537.793 494.007
627 0 76.1448 10.8215 824 87.7876 537.522 491.458
628 0 77.0878 10.6632 822 88.5633 538.575 491.393
629 0 81.0824 11.3095 917 86.9618 538.802 489.065
630 0 84.1185 11.2104 943 88.4825 539.83 488.965
631 0 84.0604 10.5281 885 92.0282 539.202 487.522
632 1 46.0289 10.7758 496 84.3589 538.46 506.996
633 0 46.0297 11.1232 512 84.4121 538.264 505.855
634 0 49.0217 11.5255 565 82.8212 539.375 504.159
635 0 49.0177 11.4652 562 84.0196 539.199 502.363
636 0 53.097 12.6938 674 88.6113 539.929 503.527
637 0 53.1482 13.547 720 89.525 540.032 502.824
638 0 55.1142 13.1727 726 88.4435 540.474 502.225
639 0 56.1423 12.2724 689 102.636 539.97 500.755
640 0 57.25 12.3493 707 102.946 539.342 499.962
641 0 62.1722 12.6584 787 100.03 539.187 499.916
642 0 61.2187 11.9898 734 103.334 539.834 499.669
643 0 64.1141 12.8521 824 99.659 539.529 498.38
644 0 66.2392 13.0738 866 97.6155 539.313 496.092
645 0 66.1233 12.3406 816 100.423 539.049 495.94
646 0 70.0874 13.1407 921 97.5603 539.754 494.006
647 0 71.1082 12.7412 906 100.003 540.316 493.318
648 0 73.1358 12.5793 920 100.557 539.81 491.02
649 0 75.1528 12.7873 961 100.171 540.725 491.112
650 0 81.196 13.3381 1083 96.8403 540.17 488.33
651 0 83.1043 12.7671 1061 98.852 539.655 486.901
652 0 84.2322 12.8573 1083 99.6593 539.697 485.596
653 0 87.1654 13.3654 1165 98.8403 539.524 484.019
654 0 90.2752 13.2816 1199 97.9091 539.415 480.626
655 0 91.1915 12.7753 1165 96.079 539.616 479.748
656 0 95.1979 12.8574 1224 95.3913 540.612 478.347
657 1 47.1786 11.7002 552 94.3551 540.471 501.272
658 0 47.1727 11.9137 562 95.9786 540.233 495.703
659 0 50.108 12.493 626 95.3131 540.377 498.123
660 0 53.0575 12.722 675 97.597 540.893 500.489
661 0 53.1637 12.4145 660 99.8742 541.036 499.647
662 0 57.1483 13.3337 762 97.248 541.226 498.976
663 0 59.1548 12.6448 748 98.115 541.299 499.001
664 0 59.1323 12.9878 768 99.53 540.672 497.691
665 0 60.0913 12.2813 738 102.48 540.519 496.936
666 0 62.0799 12.5 776 101.073 540.974 496.244
667 0 64.1806 13.0569 838 99.543 540.376 494.774
668 0 64.1495 13.0321 836 101.289 540.488 493.663
669 0 68.1457 13.0603 890 99.7427 540.507 493.618
670 0 68.0623 12.4151 845 101.363 540.711 492.688
671 0 70.1076 12.3952 869 101.338 541.002 490.865
672 0 71.0461 13.1323 933 91.8939 541.213 491.744
673 0 73.0449 13.0331 952 147.166 541.201 491.251
674 0 78.0455 13.4024 1046 91.9436 539.945 488.696
675 0 80.0723 13.2505 1061 92.5146 539.502 487.254
676 0 81.072 13.0131 1055 94.654 539.925 487.181
677 0 85.0862 12.4344 1058 97.9716 539.751 484.043
678 0 87.0442 12.7292 1108 97.7193 540.519 483.585
679 1 44.0525 11.3955 502 93.6275 540.582 507.239
680 0 45.0332 11.9912 540 93.1944 540.506 505.224
681 0 45.0891 12.309 555 94.4919 539.076 503.146
682 0 48.1182 12.4901 601 92.782 539.451 502.767
683 0 51.0559 12.9074 659 90.8331 540.425 503.073
684 0 52.1161 12.664 660 93.6712 539.979 501.603
685 0 52.0702 12.4832 650 94.5492 539.551 502.489
686 0 53.0272 13.0122 690 93.2449 539.304 501.428
687 0 56.0337 13.706 768 91.3268 540.747 500.474
688 0 58.0546 13.3323 774 91.0814 539.933 499.867
689 0 59.0831 13.151 777 92.5547 540.438 499.618
690 0 61.0902 12.9153 789 94.038 540.314 498.745
691 0 62.0436 13.2004 819 93.9622 539.59 497.985
692 0 64.0903 13.1845 845 93.6189 540.383 496.963
693 0 67.049 13.5573 909 92.9406 540.186 495.582
694 0 69.0777 13.6802 945 93.3302 539.971 495.147
695 0 71.0652 13.2414 941 93.5122 540.176 494.454
696 0 72.089 13.4278 968 94.1952 539.814 493.345
697 0 76.0718 13.1849 1003 93.9312 539.527 492.864
698 0 77.0907 13.2182 1019 93.9068 539.348 490.775
699 0 81.1225 13.4241 1089 91.3003 538.606 490.668
700 0 81.1135 12.7969 1038 92.4836 537.978 488.501
701 1 43.063 11.6109 500 91.034 538.644 509.83
702 0 44.0647 11.1881 493 92.4442 538.493 508.643
703 0 46.0856 11.9126 549 91.4718 538.763 507.344
704 0 47.0717 12.0667 568 92.0863 538.637 508.956
705 0 47.0314 12.1196 570 93.5351 539.274 507.442
706 0 51.0941 11.4495 585 93.2991 539.46 505.111
707 0 51.1738 12.4087 635 92.1874 539.181 505.863
708 0 53.0789 12.6604 672 91.4241 538.701 503.076
709 0 56.0807 12.7317 714 89.5588 538.408 502.923
710 0 56.0694 12.6094 707 88.7779 538.662 503.198
711 0 56.0937 12.1047 679 89.7334 538.67 502.623
712 0 59.1246 12.7189 752 86.8138 537.831 501.975
713 0 62.0887 12.4499 773 86.7206 538.008 501.384
714 0 65.0891 12.8132 834 84.0887 538.63 500.054
715 0 66.0705 12.865 850 85.0353 539.208 498.291
716 0 69.1238 12.5572 868 85.4562 538.736 497.71
717 0 70.0584 12.4753 874 85.3822 538.89 495.232
718 0 73.0772 12.2336 894 84.8736 539.74 495.008
719 0 73.1564 12.2204 894 85.8121 539.9 494.13
720 0 78.0922 13.0103 1016 82.5974 540.671 491.686
721 0 80.0439 12.793 1024 83.7783 540.574 490.288
722 0 81.0939 12.4794 1012 96.1275 540.283 489.32
723 0 85.1406 12.3443 1051 97.4938 539.151 487.367
724 0 88.2029 12.4032 1094 97.7523 539.478 487.205
725 1 47.0151 10.4009 489 91.2904 540.427 509.196
726 0 50.0118 10.3576 518 92.2876 540.268 507.813
727 0 51.029 10.7194 547 93.2797 540.298 506.486
728 0 52.0473 11.1629 581 95.031 539.535 505.079
729 0 55.034 11.7382 646 99.4737 539.432 502.619
730 0 56.0429 12.7224 713 96.0294 539.745 502.801
731 0 56.0144 12.2469 686 95.742 539.714 503.898
732 0 56.0374 12.224 685 92.073 539.083 503.782
733 0 58.0614 12.0218 698 92.288 538.407 503.252
734 0 60.0121 12.2475 735 90.7918 538.801 503.366
735 0 62.0091 12.4175 770 91.6545 539.265 501.327
736 0 63.0493 12.2285 771 91.834 539.855 498.659
737 0 64.0435 11.8045 756 92.6627 539.646 497.811
738 0 68.1242 12.2424 834 90.2746 539.591 497.043
739 0 71.0481 12.5549 892 89.8027 539.534 494.572
740 0 73.063 12.5645 918 90.1656 539.903 493.3
741 0 76.1411 12.5688 957 90.6604 539.032 491.535
742 0 77.1312 11.7981 910 92.8341 538.667 491.469
743 0 81.1617 12.4813 1013 93.3959 537.932 488.012
744 0 81.1343 12.4731 1012 95.1818 539.446 486.865
745 0 85.0897 12.81 1090 92.8284 539.11 484.824
746 0 88.1006 12.1112 1067 93.9663 540.21 484.856
747 0 89.1059 12.6591 1128 94.5949 540.129 481.727
748 0 94.1387 12.8746 1212 93.6213 539.702 480.854
749 0 95.0447 11.9418 1135 96.2493 539.704 478.794
750 0 99.1017 12.5629 1245 94.7574 540.317 476.895
751 1 51.051 11.5962 592 95.0574 540.115 500.52
752 0 53.0456 11.5938 615 93.5203 539.25 498.379
753 0 55.0636 11.6229 640 97.0188 539.939 501.509
754 0 55.0747 12.0564 664 97.7636 540.03 498.916
755 0 59.0572 12.09 714 95.4552 540.283 498.175
756 0 61.1119 12.338 754 96.0464 539.813 497
757 0 62.1021 12.882 800 95.865 539.66 496.136
758 0 64.1864 12.3235 791 97.086 540.164 496.042
759 0 66.068 12.6839 838 97.4654 539.968 494.44
760 0 68.1876 12.8323 875 96.1063 540.448 494.311
761 0 70.1651 12.9837 911 96.8178 540.062 492.704
762 0 71.1398 12.7074 904 97.479 539.948 491.415
763 0 74.1686 12.6064 935 97.1305 539.854 491.216
764 0 76.2498 12.7869 975 97.3795 539.709 490.235
765 0 79.2057 13.3324 1056 97.1335 539.446 489.66
766 0 82.253 12.7533 1049 98.3155 539.859 487.713
767 0 83.1765 13.6337 1134 96.7778 539.765 486.329
768 0 87.2208 13.483 1176 98.1463 539.556 486.152
769 0 89.1398 13.7761 1228 98.7239 540.03 484.25
770 0 94.1916 13.1647 1240 99.3992 541.04 484.761
771 0 95.1694 13.3131 1267 99.8919 540.169 482.7
772 0 99.2048 12.8623 1276 99.2555 540.315 480.984
773 0 102.257 13.2411 1354 98.271 540.219 481.044
774 1 53.0779 11.436 607 88.8007 539.502 501.814
775 0 56.0607 12.2189 685 90.1182 539.236 500.914
776 0 56.0348 12.1532 681 89.6549 540.214 499.154
777 0 56.0694 12.9661 727 90.7276 541.045 498.532
778 0 60.0468 13.0565 784 89.4464 540.699 498.747
779 0 59.0679 11.8338 699 93.0572 540.644 498.283
780 0 62.1199 12.3471 767 91.425 540.395 499.897
781 0 65.1154 12.5777 819 87.602 539.541 498.689
782 0 67.1422 12.8384 862 88.6589 539.392 497.698
783 0 70.1975 12.6785 890 88.991 539.372 494.925
784 0 70.1285 11.978 840 91.0738 539.225 495.601
785 0 72.0377 12.1187 873 91.5407 539.543 493.179
786 0 74.0602 12.7194 942 89.8928 539.668 491.914
787 0 79.067 12.7866 1011 90.8645 539.992 489.987
788 0 80.0883 13.0606 1046 90.349 539.968 487.511
789 0 84.14 12.4317 1046 92.7868 539.537 488.027
790 0 86.0662 12.165 1047 93.5645 539.414 485.788
791 0 87.1911 12.616 1100 93.5445 539.612 486.325
792 0 90.1361 12.7141 1146 92.938 539.58 484.104
793 0 94.1122 12.7932 1204 93.593 539.708 482.575
794 1 48.0481 11.9464 574 94.6341 540.415 502.855
795 0 49.1617 11.3706 559 95.4025 540.628 498.129
796 0 50.0847 11.3008 566 93.7032 541.152 492.479
797 0 51.0341 12.1879 622 86.8617 541.051 500.386
798 0 52.0422 11.9518 622 86.9164 540.867 501.712
799 0 54.076 12.2051 660 85.7424 540.562 500.471
800 0 55.0233 12.2494 674 86.3338 540.819 500.984
801 0 58.0216 12.9262 750 84.7267 540.803 499.685
802 0 61.1105 13.2056 807 84.1239 540.774 499.071
803 0 62.0553 12.6178 783 85.2235 540.585 499.716
804 0 63.019 12.8533 810 87.4654 540.427 498.994
805 0 66.0308 12.7516 842 89.1865 540.382 497.948
806 0 68.0459 12.9471 881 89.1884 541.375 496.763
807 0 70.0351 13.1077 918 89.3126 540.588 497.251
808 0 70.0389 12.7929 896 91.3516 540.28 495.417
809 0 74.0374 12.8719 953 92.0756 539.796 493.938
810 0 77.0939 13.6327 1051 90.2502 540.41 493.06
811 0 78.0789 12.6667 989 92.6046 540.055 492.503
812 0 79.0494 13.1057 1036 93.1313 540.057 491.217
813 0 82.165 13.3877 1100 92.2464 539.616 488.155
814 0 86.0841 13.1035 1128 91.734 538.613 488.228
815 0 87.1169 12.3742 1078 94.0362 538.675 486.468
816 0 91.079 13.4608 1226 91.0163 539.821 485.729
817 0 93.1816 13.5542 1263 93.5756 539.321 484.506
818 0 96.17 13.1434 1264 94.2263 539.24 483.184
819 0 98.135 13.3693 1312 93.8537 540.118 481.025
820 0 104.186 12.9192 1346 94.24 540.075 479.27
821 0 107.181 13.258 1421 94.6742 539.094 477.44
822 0 110.205 12.9939 1432 96.9532 538.881 476.235
823 0 113.232 13.3531 1512 97.6376 538.615 474.415
824 0 119.228 13.1597 1569 99.703 538.514 473.062
825 0 121.202 12.7226 1542 101.518 538.266 472.281
826 0 125.164 13.3185 1667 100.517 538.567 470.121
827 0 129.308 14.0749 1820 99.5852 538.483 467.533
828 0 133.284 13.2949 1772 103.23 539.512 464.219
829 0 139.319 13.7024 1909 100.415 538.9 463.183
830 0 143.371 14.0614 2016 98.3264 539.204 461.317
831 0 147.181 14.139 2081 101.761 538.733 459.284
832 0 152.206 13.5146 2057 103.534 539.07 456.655
833 0 157.248 14.4676 2275 101.839 538.392 457.146
834 0 160.31 14.0477 2252 103.513 539.005 452.529
835 0 167.233 14.8236 2479 102.625 539.019 450.426
836 0 171.233 14.6058 2501 104.289 538.457 448.363
837 0 175.349 14.1603 2483 105.503 538.398 442.661
838 0 182.313 15.3582 2800 101.557 539.33 441.22
839 0 188.236 14.8749 2800 103.285 538.237 438.186
840 0 192.284 14.6294 2813 104.096 538.127 436.079
841 0 198.242 14.6386 2902 105.973 537.81 424.769
842 0 202.393 13.6369 2760 109.6 538.2 425.235
843 0 211.313 14.0266 2964 108.578 537.9 418.058
844 0 218.349 14.7379 3218 103.189 538.119 417.241
845 0 226.285 16.2185 3670 99.0398 537.359 415.747
846 0 233.297 15.5382 3625 100.928 536.959 409.954
847 0 237.241 15.2081 3608 103.412 536.83 408.541
848 0 245.36 14.8231 3637 105.781 537.013 399.78
849 0 254.319 14.9851 3811 105.404 537.384 402.081
850 0 259.286 13.9074 3606 109.852 537.338 396.317
851 0 268.295 13.3957 3594 110.483 537.971 389.25
852 0 270.292 13.256 3583 110.73 537.763 395.915
853 0 269.239 10.8082 2910 115.156 537.67 401.248
854 0 272.309 10.7047 2915 112.06 537.579 409.368
855 1 222.198 11.9398 2653 107.228 537.31 420.908
856 0 231.178 12.3801 2862 108.52 537.509 412.353
857 0 239.237 13.4887 3227 108.12 537.137 408.18
858 0 247.24 13.7842 3408 110.294 537.473 403.48
859 0 255.194 12.8843 3288 113.004 537.45 401.509
860 1 87.1242 11.7304 1022 98.0822 539.09 489.237
861 0 92.0957 11.7486 1082 97.4205 538.381 482.799
862 0 95.1453 12.3706 1177 96.5752 537.98 479.476
863 0 98.151 12.9087 1267 95.3946 538.721 473.813
864 0 101.169 13.4725 1363 93.5517 537.814 471.574
865 0 104.163 13.3924 1395 93.5075 537.443 471.146
866 0 108.131 13.8166 1494 84.7838 537.569 471.938
867 0 110.107 12.5151 1378 94.5486 537.811 470.035
868 0 111.146 12.668 1408 93.581 537.799 467.562
869 0 117.184 12.826 1503 92.4544 537.868 463.058
870 0 123.191 13.3695 1647 90.003 537.928 460.88
871 0 127.137 13.631 1733 89.4362 538.313 461.414
872 0 131.184 13.8965 1823 89.7817 537.634 458.555
873 0 135.204 13.5646 1834 92.3675 538.04 457.791
874 0 139.239 13.6743 1904 93.5888 537.903 457.189
875 0 143.355 13.7142 1966 94.5544 537.59 454.392
876 0 148.175 14.0847 2087 94.7211 537.124 453.008
877 0 152.199 13.5349 2060 97.7772 537.822 453.523
878 0 155.226 13.5286 2100 100.325 537.412 451.219
879 0 161.215 14.0309 2262 99.6158 537.065 449.964
880 0 165.187 13.4333 2219 103.222 536.684 448.007
881 0 170.185 13.4618 2291 103.913 536.757 446.182
882 0 176.208 14.5908 2571 101.998 537.406 445.678
883 0 181.236 14.3735 2605 104.437 537.613 442.012
884 0 188.28 14.8502 2796 104.937 537.85 438.715
885 0 195.419 16.3443 3194 103.736 537.862 433.609
886 0 201.37 15.8613 3194 105.853 537.127 430.885
887 0 205.367 15.3579 3154 107.971 537.291 426.855
888 0 212.396 16.2291 3447 104.985 537.479 427.126
889 0 218.363 15.4422 3372 106.842 537.73 421.974
890 0 225.402 15.7053 3540 106.395 537.215 420.399
891 0 233.404 15.2825 3567 107.378 538.543 415.355
892 1 185.284 14.2808 2646 111.076 538.31 441.697
893 0 192.275 14.1152 2714 111.185 538.389 437.805
894 0 198.282 14.8172 2938 107.878 538.089 436.993
895 0 204.316 13.6896 2797 110.968 537.988 433.477
896 0 213.353 14.3049 3052 111.751 537.322 429.066
897 0 220.268 14.6503 3227 109.353 537.957 424.446
898 0 227.373 14.4124 3277 110.449 538.338 423.369
899 0 234.405 14.5901 3420 111.569 538.41 418.922
900 0 242.387 15.0668 3652 112.3 538.403 414.171
901 1 57.155 13.997 800 116.411 537.928 499.72
902 0 58.1219 14.418 838 118.012 538.677 500.121
903 0 60.1725 15.4389 929 115.219 539.018 498.404
904 0 62.0854 15.5592 966 115.46 539.05 495.727
905 0 63.1163 15.717 992 115.808 539.37 495.114
906 0 65.0957 15.9765 1040 114.07 539.408 492.982
907 0 68.0895 15.788 1075 114.331 539.119 490.91
908 0 69.05 15.9015 1098 114.224 538.873 491.067
909 0 74.1272 16.4582 1220 109.997 539.226 490.329
910 0 75.0865 15.7685 1184 113.117 538.763 489.335
911 0 77.059 15.9229 1227 113.575 539.039 488.364
912 0 80.0744 16.0601 1286 112.418 539.322 488.314
913 0 83.1515 15.9468 1326 111.49 539.298 485.719
914 0 86.1463 16.1818 1394 109.879 538.391 484.877
915 0 89.1811 16.2703 1451 108.722 538.48 484.362
916 0 90.0468 15.6696 1411 111.815 538.714 483.573
917 0 94.0676 16.5413 1556 108.629 538.285 482.307
918 0 97.0719 16.5547 1607 110.072 538.436 480.442
919 0 101.155 16.6378 1683 109.39 538.894 479.811
920 0 102.187 16.2154 1657 110.162 538.218 479.279
921 0 106.116 15.8129 1678 111.735 538.287 478.431
922 0 108.173 16.0669 1738 111.199 539.311 477.394
923 0 113.159 15.5711 1762 113.073 538.543 477.1
924 0 116.104 16.0201 1860 114.203 537.749 473.647
925 1 67.1053 15.3639 1031 125.007 537.985 495.671
926 0 69.0403 15.643 1080 126.344 537.515 495.326
927 0 73.0338 16.2664 1188 123.126 538.3 494.038
928 0 77.0591 17.9343 1382 115.438 537.632 491.639
929 0 77.0641 16.4019 1264 122.778 536.751 493.536
930 0 78.0828 16.252 1269 124.036 537.401 493.206
931 0 82.0394 16.2117 1330 123.496 537.241 491.899
932 0 83.0711 16.4799 1369 122.841 536.78 491.372
933 0 86.0742 16.265 1400 121.903 536.532 491.091
934 0 89.0711 16.3353 1455 120.021 536.096 490.289
935 0 92.0459 15.7313 1448 121.613 536.796 488.387
936 0 96.1044 16.3468 1571 118.284 536.842 487.294
937 0 97.0526 16.321 1584 119.871 536.2 486.612
938 0 102.052 15.6881 1601 120.257 536.303 485.344
939 0 103.116 15.5262 1601 121.136 536.358 484.44
940 0 107.071 15.9053 1703 113.913 536.624 482.769
941 0 108.059 16.5743 1791 120.029 536.045 483.346
942 0 111.069 16.1251 1791 121.949 536.056 482.339
943 0 114.057 16.4304 1874 121.925 536.081 480.739
944 0 116.034 15.7626 1829 125.416 536.288 480.453
945 0 119.063 15.9159 1895 125.995 536.136 477.66
946 0 124.094 16.0442 1991 125.259 535.919 475.987
947 0 129.109 16.4589 2125 124.126 535.964 473.37
948 0 132.067 16.0828 2124 126.437 536.182 472.174
949 0 137.197 16.0791 2206 126.016 537.335 470.064
950 0 140.104 16.0666 2251 126.753 537.804 467.602
951 0 146.059 16.4317 2400 132.707 536.685 465.462
952 0 150.13 15.9395 2393 134.876 536.969 463.03
953 0 158.112 16.2733 2573 134.696 538.228 460.042
954 0 162.126 16.2528 2635 134.763 537.711 457.268
955 0 169.129 16.2479 2748 136.563 537.216 454.917
956 0 176.185 16.4429 2897 128.078 537.164 449.158
957 0 183.111 16.4053 3004 130.111 537.039 445.694
958 0 189.18 16.2015 3065 130.597 537.883 442.664
959 0 198.258 16.6198 3295 128.187 537.182 438.701
960 0 204.264 16.5668 3384 128.398 538.048 435.29
961 0 213.248 16.938 3612 127.579 538.017 431.36
962 0 218.255 16.3112 3560 128.53 537.054 427.744
963 1 173.198 15.1965 2632 135.937 537.138 448.843
964 0 180.155 16.1694 2913 131.345 536.997 448.414
965 0 188.233 16.6655 3137 129.337 537.794 443.098
966 0 194.154 16.8268 3267 132.118 537.85 435.909
967 0 201.23 16.5631 3333 133.362 538.405 437.438
968 0 208.218 16.4827 3432 135.261 537.836 431.77
969 0 216.21 17.0529 3687 133.746 538.074 425.887
970 0 224.166 17.1213 3838 133.758 537.571 420.606
971 0 231.157 17.0836 3949 134.269 538.047 418.109
972 0 238.192 15.5925 3714 140.268 537.247 417.897
973 1 183.217 15.0696 2761 144.356 537.858 443.157
974 0 188.138 15.595 2934 145.363 538.403 439.389
975 0 196.121 16.1278 3163 142.727 538.107 435.408
976 0 202.144 16.2854 3292 142.766 538.341 430.862
977 0 210.143 16.2223 3409 141.641 538.712 428.657
978 0 217.164 16.2964 3539 141.257 538.727 424.872
979 0 223.333 16.3344 3648 149.302 539.981 420.891
980 0 232.234 16.69 3876 145.198 539.005 420.21
981 0 240.212 16.6603 4002 147.162 539.351 414.643
982 0 246.221 16.672 4105 139.13 539.466 411.816
983 0 253.235 16.4827 4174 141.549 539.568 405.838
984 0 262.192 16.6405 4363 144.331 539.495 402.91
985 0 269.292 16.4691 4435 145.697 538.859 399.133
986 0 278.249 16.8734 4695 141.764 538.769 394.063
987 0 285.215 16.6681 4754 140.711 538.294 389.54
988 0 293.253 16.5216 4845 140.695 538.615 384.996
989 0 302.239 16.1164 4871 143.782 538.056 380.5
990 0 302.29 14.4365 4364 145.409 538.261 388.934
991 0 303.169 13.3127 4036 150.28 537.911 388.107
992 1 74.0866 11.8915 881 139.905 539.073 489.928
993 0 76.0742 13.2634 1009 134.806 539.864 489.135
994 0 78.0798 13.1532 1027 137.253 539.659 486.709
995 0 81.1545 13.3203 1081 138.908 539.31 484.995
996 0 83.0789 13.1923 1096 139.977 539.417 483.043
997 0 88.123 13.1294 1157 138.466 540.143 481.685
998 0 90.0944 12.9198 1164 140.314 539.638 479.3
999 0 95.0709 13.0219 1238 138.853 538.794 475.002
1000 0 100.067 13.441 1345 134.85 539.418 473.045
1001 0 102.114 12.5154 1278 138.662 539.315 470.749
1002 0 106.181 12.8931 1369 136.134 539.876 469.411
1003 0 108.17 13.2106 1429 132.291 539.651 467.911
1004 0 107.159 11.7769 1262 139.467 539.904 465.789
1005 0 112.157 12.6073 1414 135.141 540.771 465.605
1006 0 117.149 12.0531 1412 135.586 540.967 463.068
1007 1 131.219 17.9853 2360 114.216 541.599 455.513
1008 0 133.204 18.0926 2410 108.329 541.458 453.016
1009 0 141.282 17.9782 2540 105.995 540.841 448.719
1010 0 136.207 16.1079 2194 116.631 540.334 448.044
1011 0 139.232 16.2678 2265 117.619 540.392 447.895
1012 0 142.287 14.5411 2069 125.42 539.548 446.335
1013 0 144.293 12.4746 1800 134.438 538.837 443.879
1014 1 31.0144 8.73789 271 89.3764 540.863 512.701
1015 0 34.0248 9.90455 337 84.5282 539.991 512.332
1016 0 28.0146 8.67404 243 91.3663 539.737 514.263
1017 0 27.0974 8.48789 230 94.3261 540.3 516.026
1018 0 27.0947 8.63637 234 93.9658 542.265 515.739
1019 0 29.1009 8.69388 253 91.8617 541.391 516.213
1020 0 30.0385 8.05632 242 94.2025 541.463 514.698
1021 0 31.0912 7.52625 234 95.4359 542.312 514.816
1022 1 71.1892 8.30182 591 105.308 541.381 493.954
1023 0 73.1514 8.87201 649 105.49 541.373 493.3
1024 0 75.2505 9.20924 693 102.685 541.081 490.674
1025 0 78.1803 9.33739 730 101.947 540.737 490.101
1026 0 82.2711 8.6057 708 103.907 540.288 486.298
1027 0 83.2349 8.83043 735 104.736 540.278 484.008
1028 0 88.3714 8.37375 740 104.788 539.874 482.609
1029 0 90.4295 8.90196 805 102.675 540.837 481.221
1030 0 92.3679 8.58524 793 103.496 539.6 477.705
1031 0 96.2564 8.12414 782 102.885 540.669 479.834
1032 0 97.2551 7.90704 769 105.203 540.322 473.213
1033 0 98.3254 6.58019 647 109.019 540.515 476.923
1034 0 108.121 4.07877 441 111.211 541.617 486.277
1035 0 107.275 6.9634 747 104.373 540.028 472.365
1036 0 110.234 6.41361 707 104.891 539.426 467.463
1037 0 113.202 6.56347 743 102.501 540.122 466.882
1038 0 114.105 5.00414 571 105.009 540.238 466.774
1039 0 118.098 5.31763 628 104.731 539.314 461.782
1040 0 121.165 5.57919 676 103.775 540.428 455.967
1041 1 85.1582 5.70702 486 106.084 539.87 437.01
1042 1 120.24 5.03993 606 103.762 540.422 455.88
1043 0 122.125 4.38074 535 103.176 540 460.656
1044 0 121.136 3.38463 410 102.798 540.637 468.795
1045 0 120.087 3.78893 455 103.455 540.899 462.864
1046 0 120.062 3.88965 467 102.764 540.54 459.67
1047 1 74.1166 5.51834 409 85.0318 540.01 490.472
1048 0 74.0452 4.17313 309 82.2686 538.783 486.382
1049 0 73.1509 3.19887 234 83.6068 538.68 497.274
1050 0 77.2209 5.15405 398 95.8141 539.729 479.02
1051 0 76.2061 6.63989 506 93.8715 540.087 482.872
1052 0 80.1484 6.28834 504 95.6964 539.845 485.198
1053 0 78.143 5.65629 442 98.6719 539.762 482.588
1054 0 81.211 6.47696 526 102.156 540.255 484.998
1055 0 81.1563 6.28417 510 104.922 541.245 485.053
1056 1 134.39 8.76551 1178 108.183 540.424 456.226
1057 0 137.353 8.82399 1212 107.94 540.412 460.437
1058 0 138.392 8.88782 1230 109.586 540.473 458.436
1059 0 144.419 8.64844 1249 108.359 540.102 457.759
1060 0 143.391 8.72439 1251 109.728 539.78 455.053
1061 0 377.91 13.9716 5280 131.807 538.678 316.517
1062 0 390.852 12.7158 4970 136.324 538.804 303.376
1063 1 196.288 4.15206 815 109.059 540.11 458.891
1064 1 59.1507 8.77421 519 89.0347 540.486 497.524
1065 0 64.1455 9.49404 609 88.4696 539.931 498.248
1066 0 65.0908 9.12571 594 90.303 539.424 498.217
1067 0 66.0574 9.18898 607 88.547 538.987 500.397
1068 0 70.1267 10.3812 728 88.397 539.291 496.195
1069 0 76.115 11.325 862 86.1972 539.813 494.638
1070 0 72.1041 10.2075 736 87.0054 538.89 497.535
1071 0 77.0834 10.6508 821 87.6675 539.157 494.912
1072 1 37.0306 9.80269 363 90.7851 539.033 513.592
1073 0 38.0068 10.7349 408 90.4265 538.978 512.598
1074 0 41.0258 11.2125 460 91.6174 538.746 510.337
1075 0 42.0237 11.327 476 90.2374 539.143 511.059
1076 0 43.0634 11.0999 478 91.0126 539.205 509.757
1077 0 45.0924 11.7315 529 90.1947 539.446 510.064
1078 0 47.0322 11.3965 536 91.0914 539.02 508.248
1079 0 46.0356 12.2297 563 92.254 538.307 507.721
1080 0 50.0401 11.6307 582 93.8643 538.287 507.608
1081 0 50.0467 11.5892 580 95.6948 538.729 506.19
1082 0 52.1027 11.8228 616 97.3831 538.424 505.474
1083 0 53.0481 11.5555 613 103.111 538.865 505.498
1084 0 55.0293 12.0481 663 101.287 538.523 504.626
1085 0 56.0939 11.8373 664 99.6084 538.607 503.931
1086 0 56.0115 11.5155 645 103.536 538.997 503.586
1087 0 60.1154 11.9104 716 99.9022 538.298 501.518
1088 0 61.0544 11.5471 705 100.702 537.959 500.867
1089 0 63.0402 12.6269 796 111.6 538.142 499.17
1090 0 64.1136 12.4779 800 112.414 538.382 499.315
1091 0 65.1432 12.4188 809 164.103 538.376 499.422
1092 0 69.168 12.448 861 114.174 538.118 496.213
1093 0 67.1302 11.7235 787 118.798 538.504 496.069
1094 0 72.0448 12.8948 929 113.16 539.538 495.149
1095 0 74.0576 12.2472 907 116.023 538.899 493.397
1096 0 75.1374 12.2975 924 115.537 538.798 494.206
1097 0 78.1753 12.8173 1002 114.461 538.61 491.548
1098 0 79.0685 12.5967 996 118.725 538.721 490.428
1099 0 80.1664 12.1123 971 120.368 539.733 493.131
1100 0 83.2735 12.537 1044 118.5 539.421 490.427
1101 0 85.2391 12.811 1092 118.344 539.334 487.926
1102 0 87.2602 12.6518 1104 119.987 538.535 487.785
1103 0 91.2837 12.7186 1161 124.893 539.316 486.088
1104 0 93.2001 12.6824 1182 126.994 538.445 485.113
1105 0 94.143 12.9803 1222 129.718 539.046 484.822
1106 0 98.1585 13.1624 1292 130.734 538.786 483.058
1107 0 101.15 13.5047 1366 131.184 538.826 481.863
1108 0 102.236 13.6645 1397 133.422 538.78 481.051
1109 0 106.279 13.427 1427 134.337 538.132 480.545
1110 0 107.251 13.1561 1411 137.619 538.254 478.051
1111 0 113.23 13.5035 1529 135.528 538.109 476.43
1112 0 114.22 13.6053 1554 137.477 538.056 474.198
1113 0 118.129 13.6546 1613 137.139 538.539 473.843
1114 0 123.216 14.3812 1772 132.874 538.594 473.05
1115 0 126.228 14.1093 1781 134.381 538.989 472.76
1116 0 129.238 14.0516 1816 136.018 539.693 469.074
1117 0 133.241 14.3725 1915 134.576 538.759 467.923
1118 0 137.269 14.5335 1995 133.736 538.64 465.794
1119 0 141.255 14.3499 2027 134.981 538.763 463.034
1120 0 146.277 14.6776 2147 133.405 538.526 461.551
1121 0 148.33 14.8183 2198 133.949 538.985 459.541
1122 0 153.268 15.176 2326 131.82 539.784 456.111
1123 0 157.284 14.8458 2335 132.317 539.387 455.541
1124 0 160.382 14.8022 2374 134.362 539.53 453.872
1125 0 166.328 15.1568 2521 133.713 539.2 449.893
1126 0 172.308 15.3098 2638 132.419 539.774 449.483
1127 0 173.259 14.1926 2459 139.675 538.846 450.18
1128 0 178.168 14.3235 2552 141.307 537.904 447.568
1129 0 183.275 14.5192 2661 141.112 538.283 444.859
1130 0 188.207 14.4149 2713 139.128 537.722 440.712
1131 0 193.201 14.4564 2793 140.725 537.829 439.026
1132 0 199.289 13.9445 2779 142.309 538.62 438.036
1133 0 203.189 14.2183 2889 143.135 538.024 435.513
1134 0 209.239 14.0031 2930 144.975 538.03 434.68
1135 0 215.172 13.6681 2941 148.756 538.164 431.863
1136 0 221.225 13.4298 2971 146.924 538.544 430.832
1137 1 175.128 14.1211 2473 153.979 538.075 444.488
1138 0 180.15 14.8154 2669 149.332 539.165 443.383
1139 0 185.138 14.8429 2748 147.889 538.824 440.355
1140 0 187.169 13.5012 2527 153.724 538.431 442.232
1141 0 194.185 14.172 2752 150.765 537.866 437.719
1142 0 201.182 14.2011 2857 150.927 537.764 433.258
1143 1 211.216 12.4659 2633 157.149 537.534 431.804
1144 0 213.167 14.2001 3027 156.23 537.91 425.551
1145 0 220.143 13.7138 3019 158.458 537.651 425.896
1146 0 229.212 14.1354 3240 155.224 537.881 420.731
1147 0 236.188 14.0481 3318 155.994 537.6 416.337
1148 1 63.0668 9.94184 627 143.721 537.545 498.218
1149 0 66.037 10.8424 716 139.425 537.436 495.943
1150 0 68.1234 11.2883 769 120.006 537.6 496.446
1151 0 69.1043 10.5782 731 116.271 536.829 496.421
1152 0 67.1095 10.5201 706 118.028 536.293 495.868
1153 0 71.0999 10.9705 780 115.604 536.067 495.373
1154 0 73.1688 11.2343 822 113.786 537.056 494.074
1155 0 75.1017 11.7174 880 115.097 536.784 492.785
1156 0 79.1223 11.5391 913 116.378 536.49 490.862
1157 0 78.1095 11.2662 880 117.865 537.128 490.847
1158 0 83.1097 11.5991 964 115.919 537.15 489.613
1159 0 85.0694 11.8962 1012 116.282 537.349 487.571
1160 0 88.0819 12.091 1065 113.07 536.787 487.489
1161 0 89.0722 11.9005 1060 116.218 536.224 484.844
1162 0 91.0508 12.213 1112 114.38 536.181 483.764
1163 0 94.0768 12.2772 1155 114.026 536.6 481.566
1164 0 97.104 12.2858 1193 115.071 536.277 479.62
1165 0 101.103 11.8691 1200 115.736 536.283 477.786
1166 0 104.125 11.9088 1240 117.515 535.947 479.572
1167 1 52.024 10.0338 522 111.741 536.391 505.59
1168 0 52.1176 10.8217 564 96.4433 538.364 505.277
1169 0 49.1546 9.6227 473 104.981 537.789 506.63
1170 0 52.1065 9.55735 498 105.141 537.936 506.116
1171 0 52.1147 9.38315 489 106.587 537.806 504.955
1172 0 52.2126 9.32725 487 106.039 537.497 506.183
1173 0 53.1056 9.4152 500 106.372 537.198 504.504
1174 0 56.1687 9.47146 532 111.259 537.008 502.97
1175 0 57.1215 9.33098 533 107.388 536.846 501.833
1176 0 59.274 9.2452 548 107.336 536.854 500.849
1177 0 62.1399 8.86708 551 107.936 537.664 500.301
1178 0 62.2292 9.52929 593 107.054 537.422 499.41
1179 0 62.2664 9.33087 581 107.84 537.367 499.239
1180 0 64.0925 8.909 571 109.513 537.548 498.916
1181 0 66.1412 9.22269 610 109.218 537.475 498.013
1182 0 65.117 8.2774 539 111.488 538.186 497.681
1183 0 69.1425 9.18393 635 109.011 537.528 495.898
1184 0 70.0957 9.35864 656 107.316 537.288 495.822
1185 1 116.311 8.74379 1017 118.355 536.927 472.75
1186 0 117.474 9.71281 1141 116.598 537.3 469.45
1187 0 122.255 10.8134 1322 111.873 537.608 468.069
1188 0 125.376 10.0817 1264 113.017 537.36 467.935
1189 0 126.431 9.175 1160 116.093 537.62 463.851
1190 0 127.205 8.46666 1077 117.532 537.074 464.201
1191 1 41.0105 8.11987 333 103.213 538.426 510.33
1192 0 42.0116 9.28316 390 102.226 537.828 508.767
1193 0 42.0463 9.08521 382 100.089 538.571 508.767
1194 0 44.0218 9.38171 413 99.1864 538.121 507.891
1195 0 49.0706 10.9842 539 94.7013 536.785 506.319
1196 0 50.1768 11.1406 559 95.7496 538.436 504.549
1197 0 51.1612 11.5713 592 92.6402 537.546 503.985
1198 0 50.0699 11.5638 579 94.0121 537.38 504.15
1199 0 52.0867 10.6361 554 95.4567 537.632 503.458
1200 0 53.1283 10.917 580 95.8672 537.066 502.428
1201 0 52.1673 10.0063 522 99.5498 537.285 504.598
1202 0 55.1655 10.4232 575 98.7844 537.289 502.068
1203 0 56.1868 10.3939 584 99.125 537.42 502.611
1204 0 56.0532 9.99052 560 102.868 537.295 501.023
1205 0 58.1159 9.99726 581 102.726 537.296 501.721
1206 0 59.0684 10.1408 599 102.7 536.586 501.162
1207 0 59.1682 9.24484 547 105.647 537.762 501.298
1208 0 60.0779 9.63749 579 105.94 537.668 500.641
1209 0 63.0622 10.0853 636 104.176 537.898 498.469
1210 0 65.057 10.1296 659 103.866 538.498 497.419
1211 0 67.0693 10.7501 721 103.34 538.083 495.261
1212 0 69.1302 10.9648 758 103.4 538.584 496.222
1213 0 69.2816 10.7532 745 104.599 538.862 494.506
1214 0 72.1636 10.7533 776 103.719 538.222 494.211
1215 0 74.2191 11.1023 824 103.232 538.178 492.677
1216 0 78.173 11.1931 875 102.778 538.425 490.096
1217 0 79.1827 10.6084 840 102.415 538.169 491.406
1218 0 82.0942 10.6098 871 100.873 537.966 487.811
1219 0 85.1138 11.279 960 103.323 538.315 486.93
1220 0 87.1714 11.2996 985 103.986 538.16 485.947
1221 0 88.1015 10.9646 966 104.858 538.009 484.441
1222 0 91.2294 11.2902 1030 105.48 538.129 482.192
1223 1 44.0305 11.3104 498 106.351 538.508 505.062
1224 0 47.145 11.1147 524 95.1698 537.364 502.723
1225 0 48.0766 11.3777 547 97.3419 537.74 501.885
1226 0 49.0618 11.0065 540 98.337 537.868 500.374
1227 0 50.0407 11.3707 569 101.23 538.334 499.692
1228 0 52.0257 11.4366 595 101.17 538.198 497.924
1229 0 51.0306 11.934 609 103.343 538.652 498.783
1230 0 54.0714 10.819 585 107.609 536.68 499.171
1231 0 55.1228 11.4472 631 106.406 538.556 499.13
1232 0 59.1432 12.3091 728 103.464 538.188 498.592
1233 0 60.0971 12.147 730 102.989 538.455 497.475
1234 0 61.1088 12.4041 758 102.442 538.544 496.443
1235 0 63.138 12.4331 785 102.628 538.213 495.512
1236 0 64.0821 11.9066 763 103.446 538.124 494.849
1237 0 67.1494 12.6435 849 100.297 538.325 494.74
1238 0 68.1042 12.5983 858 101.309 538.332 492.262
1239 0 68.0684 11.5178 784 105.29 538.165 493.263
1240 0 70.1159 12.0372 844 102.746 538.19 490.928
1241 0 72.0582 11.4352 824 104.686 538.944 488.424
1242 0 74.0842 12.0809 895 103.187 538.986 489.495
1243 0 79.1728 12.7064 1006 100.559 538.648 489.927
1244 0 82.1004 12.6796 1041 100.841 539.169 488.916
1245 0 83.0672 12.3033 1022 99.6791 539.803 488.193
1246 0 86.0559 12.7592 1098 100.102 539.044 486.824
1247 0 88.0747 12.7846 1126 101.191 537.729 483.336
1248 0 91.1606 13.01 1186 100.602 538.146 482.29
1249 0 94.1024 13.1134 1234 102.781 537.776 482.009
1250 0 98.1035 12.7416 1250 101.894 538.435 481.57
1251 1 52.117 11.0521 576 103.597 537.698 504.5
1252 0 52.1356 11.8537 618 101.667 538.612 503.447
1253 0 53.0933 11.6211 617 86.7974 539.357 502.799
1254 0 55.1109 11.9214 657 93.2694 539.181 502.318
1255 0 57.0947 12.1377 693 93.1024 538.343 501.76
1256 0 57.0848 11.1413 636 88.7704 538.557 501.892
1257 0 60.0498 11.1741 671 86.6766 538.259 500.936
1258 0 61.1241 11.0268 674 89.1053 538.445 499.326
1259 0 62.0745 10.9062 677 89.6041 538.266 499.267
1260 0 68.0413 12.0956 823 85.2673 539.473 497.027
1261 0 69.0383 12.0658 833 86.2869 539.215 496.114
1262 0 69.1036 11.5479 798 89.2569 538.7 495.987
1263 0 72.1009 12.219 881 86.5936 539.453 494.899
1264 0 73.0417 12.0342 879 87.6598 538.92 495.832
1265 0 75.0374 11.7808 884 87.1346 539.605 494.111
1266 0 77.1463 11.6402 898 88.2884 538.518 493.07
1267 0 80.0974 11.511 922 88.7831 538.664 490.728
1268 0 82.0248 11.972 982 88.6039 538.846 488.769
1269 0 84.0449 11.6009 975 90.2523 538.159 487.945
1270 1 42.0136 10.6632 448 90.3125 538.694 509.02
1271 0 42.0037 10.7609 452 87.9956 539.686 507.626
1272 0 44.0862 10.5022 463 85.8164 539.21 507.574
1273 0 46.0409 11.164 514 83.6187 539.444 506.687
1274 0 46.0884 11.4779 529 83.7467 539.569 506.397
1275 0 50.0278 11.6935 585 81.3607 539.183 505.451
1276 0 49.0258 11.137 546 83.0073 539.799 505.236
1277 0 51.0275 11.68 596 81.2601 539.633 502.589
1278 0 51.096 11.0968 567 83.4903 538.508 504.481
1279 0 53.0554 11.5351 612 83.3595 538.663 503.33
1280 0 55.0514 10.4993 578 83.9394 538.725 501.227
1281 0 56.0438 10.9914 616 83.6834 538.396 498.472
1282 0 59.0836 10.849 641 82.7473 539.245 500.064
1283 0 59.0312 9.96083 588 84.8861 539.5 499.218
1284 0 60.0333 10.5441 633 84.3096 539.863 498.09
1285 0 64.066 10.8482 695 83.2705 540.073 497.148
1286 0 65.1171 10.2584 668 84.8668 539.765 495.901
1287 0 69.0336 11.1975 773 83.9974 539.55 494.554
1288 0 72.0653 10.8374 781 84.265 539.419 494.58
1289 0 73.1046 10.6012 775 85.0361 539.108 492.125
1290 0 75.0473 10.4734 786 85.841 539.268 492.244
1291 1 39.0248 10.8649 424 86.625 539.972 508.042
1292 0 41.0661 10.5683 434 88.8664 540.157 506.599
1293 0 43.0537 11.5669 498 95.2229 538.747 505.631
1294 0 45.0862 11.9327 538 83.4368 539.552 505.539
1295 0 47.015 11.9962 564 83.8546 539.601 504.858
1296 0 47.079 11.9374 562 84.4359 539.726 504.552
1297 0 47.0464 11.308 532 85.9192 538.79 503.88
1298 0 50.1781 11.8179 593 83.9207 540.015 502.963
1299 0 51.0362 11.5996 592 85.4764 540.248 502.38
1300 0 54.0325 12.2149 660 83.3909 539.876 503.409
1301 0 55.1385 11.9699 660 84.6561 538.955 501
1302 0 56.1001 12.0142 674 84.8843 539.656 500.835
1303 0 58.0919 12.2048 709 84.103 539.575 499.307
1304 0 59.1003 12.1488 718 84.3287 539.255 498.682
1305 0 61.2067 11.7471 719 85.4047 539.531 498.385
1306 0 64.1012 11.513 738 85.7832 539.524 496.904
1307 0 64.1487 12.1125 777 86.6332 539.834 496.421
1308 0 64.0928 11.8578 760 89.4776 539.212 495.192
1309 0 69.1739 11.9698 828 89.035 539.221 494.031
1310 0 72.0511 13.5043 973 86.9476 538.621 494.508
1311 0 73.0815 12.7529 932 90.8262 538.992 493.858
1312 0 76.0329 13.3363 1014 90.4241 538.725 492.82
1313 0 76.0662 13.0807 995 93.6593 538.83 492.068
1314 0 80.0552 13.1035 1049 93.6358 538.934 490.374
1315 0 82.0989 13.569 1114 93.8043 538.768 490.676
1316 0 86.0707 14.1512 1218 93.0534 538.54 488.466
1317 0 89.0592 13.8447 1233 94.9367 538.507 488.503
1318 0 91.127 13.8598 1263 97.1837 538.644 486.588
1319 0 95.1323 13.5916 1293 98.4285 538.77 484.894
1320 0 97.0947 14.6249 1420 100.403 539.115 481.86
1321 0 100.145 14.6787 1470 101.273 538.895 480.607
1322 0 102.167 14.1533 1446 103.93 538.846 478.978
1323 0 105.153 14.1699 1490 103.672 538.806 477.801
1324 0 107.079 14.5033 1553 101.501 540.034 476.18
1325 0 111.078 14.2333 1581 103.719 539.218 473.951
1326 0 116.135 14.6382 1700 103.276 539.109 473.736
1327 0 117.11 14.354 1681 104.817 540.218 471.8
1328 0 123.089 15.3467 1889 101.572 538.99 468.563
1329 0 126.119 13.9472 1759 103.734 537.258 468.281
1330 0 132.136 14.5986 1929 102.445 537.984 465.703
1331 1 73.0425 12.6775 926 101.707 538.448 495.934
1332 0 76.0805 13.2886 1011 99.1236 538.043 492.625
1333 0 78.0937 13.1893 1030 100.668 538.54 491.783
1334 0 81.1375 13.9886 1135 100.269 538.394 491.046
1335 0 85.1234 13.0751 1113 106.625 537.885 487.285
1336 0 85.122 12.9226 1100 101.367 537.305 489.225
1337 0 87.0467 13.062 1137 100.727 538.157 487.991
1338 0 91.1451 13.4291 1224 100.056 537.391 487.705
1339 0 94.1042 13.6019 1280 101.207 537.882 484.308
1340 0 96.0253 13.2673 1274 104.082 536.713 484.148
1341 0 101.054 13.7649 1391 103.579 537.278 482.544
1342 0 104.074 13.1541 1369 105.934 537.766 481.199
1343 0 108.061 13.4276 1451 105.912 538.098 479.384
1344 0 113.081 13.5124 1528 103.327 537.413 479.273
1345 0 115.174 13.484 1553 102.946 537.686 479.126
1346 1 65.1496 12.5404 817 106.053 537.728 500.613
1347 0 68.0657 13.5163 920 101.903 537.41 498.24
1348 0 70.1593 13.5121 948 106.248 537.553 497.05
1349 0 70.1773 11.3569 797 99.3927 537.792 498.986
1350 0 73.0942 12.3539 903 97.6966 538.666 496.86
1351 0 73.1558 12.0018 878 100.132 538.304 496.173
1352 0 76.1046 12.1018 921 101.388 538.591 494.345
1353 0 79.0833 12.6449 1000 100.389 537.885 493.485
1354 0 81.2614 12.4167 1009 102.589 537.676 493.264
1355 0 85.1433 12.2499 1043 102.83 537.658 490.566
1356 0 89.1884 12.3783 1104 101.853 538.557 488.709
1357 0 90.1384 12.9579 1168 107.688 538.417 488.255
1358 0 93.1343 12.4659 1161 105.341 538.447 487.548
1359 0 95.2505 12.9553 1234 104.967 538.419 486.472
1360 0 101.102 12.9671 1311 107.857 538.426 483.657
1361 0 103.145 12.846 1325 109.595 538.299 483.421
1362 0 105.212 12.6886 1335 109.151 537.986 483.048
1363 0 108.14 13.1034 1417 108.663 538.384 480.567
1364 0 113.262 12.4049 1405 110.343 538.331 480.021
1365 1 56.2441 11.8768 668 109.626 537.904 505.91
1366 0 57.2772 12.0292 689 109.37 537.29 506.014
1367 0 61.1854 12.8299 785 105.017 537.203 504.017
1368 0 59.112 11.6389 688 99.718 537.067 505.497
1369 0 60.11 11.5455 694 100.519 536.804 504.869
1370 0 61.1315 11.4671 701 100.307 537.027 503.391
1371 0 63.1367 11.6731 737 100.555 536.474 502.753
1372 0 67.167 11.8064 793 98.9142 537.509 500.652
1373 0 69.1973 11.6189 804 99.1517 537.902 499.097
1374 0 70.1959 11.5676 812 100.53 537.288 498.536
1375 0 72.2162 11.2302 811 101.551 537.159 497.24
1376 0 75.1631 11.5216 866 100.298 537.259 495.853
1377 0 76.1214 11.3372 863 94.6663 537.05 493.857
1378 0 78.1062 11.6124 907 95.3969 536.549 494.858
1379 0 80.1706 11.8373 949 94.7197 536.826 491.98
1380 0 80.1251 11.5569 926 98.7819 537.125 492.665
1381 0 78.15 11.5931 906 102.787 536.982 493.151
1382 0 82.1209 11.8362 972 101.484 536.732 492.043
1383 0 85.1038 11.4214 972 99.8591 537.044 491.913
1384 0 86.0531 11.4813 988 98.7672 536.99 489.941
1385 0 89.1375 11.8917 1060 94.9076 537.355 490.507
1386 0 91.1355 12.1358 1106 93.6727 537.401 487.962
1387 0 94.1201 11.4109 1074 94.5298 537.164 486.913
1388 0 98.0689 12.0731 1184 91.6377 537.439 485.195
1389 0 98.0689 12.0528 1182 123.564 538.437 485.095
1390 0 104.122 12.447 1296 91.26 536.017 481.245
1391 0 107.108 12.7721 1368 94.864 536.569 479.366
1392 0 110.136 12.43 1369 93.6472 536.28 479.202
1393 0 114.097 12.2615 1399 94.2759 536.207 477.59
1394 0 118.166 12.5248 1480 93.7041 535.853 475.207
1395 0 123.089 12.1294 1493 93.4943 536.366 474.555
1396 0 125.111 12.0214 1504 96.5811 536.1 469.065
1397 1 67.0522 11.8415 794 94.8678 535.763 497.176
1398 0 69.0568 11.9322 824 99.0837 536.08 497.127
1399 0 70.0871 12.3275 864 95.9028 537.181 497.867
1400 0 70.1111 11.0682 776 99.4046 536.36 498.683
1401 0 70.058 11.5047 806 102.21 535.684 497.571
1402 0 74.0697 11.4217 846 103.734 535.563 496.069
1403 0 77.0785 11.9748 923 105.572 535.884 496.079
1404 0 80.0652 11.6405 932 106.167 536.144 495.56
1405 0 82.0642 12.1247 995 106.647 535.812 493.201
1406 0 86.0679 12.1648 1047 106.972 536.131 491.8
1407 0 88.0392 12.1423 1069 108.624 536.53 491.052
1408 0 89.0483 11.3758 1013 112.3 535.888 489.784
1409 1 45.0051 11.5098 518 112.977 536.365 510.598
1410 0 45.0392 11.7231 528 117.644 536.47 508.799
1411 0 46.0298 11.4925 529 107.178 535.766 501.648
1412 0 49.0326 12.4203 609 103.778 535.938 507.642
1413 0 47.0631 11.2615 530 109.477 536.398 509.389
1414 0 49.0739 11.3095 555 109.895 536.553 508.25
1415 0 49.014 11.5885 568 109.887 536.69 506.785
1416 0 52.0549 11.8913 619 109.06 537.244 506.262
1417 0 54.08 11.1871 605 109.636 537.787 505.769
1418 0 56.063 11.2017 628 107.381 537.807 504.904
1419 0 56.0607 11.0951 622 108.725 537.624 504.707
1420 0 58.1174 11.0638 643 107.417 537.67 502.871
1421 0 60.0865 11.317 680 105.612 537.06 502.916
1422 0 65.0822 11.9388 777 102.528 537.499 500.408
1423 0 65.0963 12.1051 788 102.36 537.749 499.801
1424 0 70.0387 11.9791 839 101.987 537.228 498.957
1425 0 69.1018 12.0692 834 102.956 537.357 497.602
1426 0 73.0795 12.028 879 101.25 536.967 495.527
1427 0 75.042 12.2731 921 101.1 536.762 494.423
1428 0 76.0581 11.8594 902 102.334 537.516 493.519
1429 0 79.1327 11.4491 906 102.486 537.94 492.104
1430 0 82.1166 11.508 945 102.369 537.92 491.349
1431 1 43.0374 11.4552 493 102.414 538.586 509.675
1432 0 45.087 11.2227 506 99.7609 538.119 509.111
1433 0 47.048 11.8602 558 97.7706 537.446 507.973
1434 0 49.0153 12.3635 606 95.4307 537.881 507.698
1435 0 49.0715 12.1048 594 94.734 537.027 506.672
1436 0 52.051 11.8538 617 94.5186 536.878 505.306
1437 0 51.0117 12.3109 628 93.2229 536.877 505.6
1438 0 54.0553 12.1172 655 93.8061 537.789 504.363
1439 0 55.0454 12.4624 686 92.6647 537.781 503.294
1440 0 57.0292 12.5374 715 91.2266 538.322 501.699
1441 0 59.0598 12.1402 717 91.4003 537.881 502.11
1442 0 61.0742 12.9187 789 89.8466 537.648 499.046
1443 0 62.0644 12.4709 774 90.7016 538.415 500.186
1444 0 64.0832 12.6554 811 89.6868 538.037 498.556
1445 0 67.0392 12.8731 863 88.8725 537.464 497.196
1446 0 68.0558 12.9306 880 89.9818 537.394 495.884
1447 0 69.0362 12.7035 877 91.1049 538.032 495.627
1448 0 72.087 13.5808 979 88.8355 538.246 492.535
1449 0 74.1002 13.1309 973 89.9013 537.548 492.642
1450 0 76.1286 13.1094 998 90.2244 538.128 492.332
1451 0 79.0746 13.1901 1043 89.6385 537.59 490.412
1452 0 83.1017 13.4173 1115 89.7166 537.303 489.618
1453 0 85.0934 13.5263 1151 90.8723 537.744 488.228
1454 0 86.0726 13.477 1160 94.606 538.579 486.814
1455 0 90.0721 13.4226 1209 93.8668 537.617 485.377
1456 0 91.1173 13.521 1232 99.6502 536.721 483.682
1457 0 92.0982 13.0621 1203 97.7074 537.076 481.426
1458 0 96.104 13.6727 1314 95.6271 537.746 479.892
1459 0 98.0707 12.338 1210 100.258 537.697 480.141
1460 0 103.114 12.7626 1316 97.7424 537.284 479.333
1461 0 104.076 12.8944 1342 99.2466 537.834 475.888
1462 0 106.09 12.857 1364 99.8578 537.745 471.796
1463 0 111.057 13.0924 1454 99.5014 537.748 471.298
1464 1 60.0313 10.6778 641 95.6927 537.373 500.417
1465 0 63.0827 12.0477 760 91.3592 537.483 500.528
1466 0 65.069 11.9412 777 93.749 538.085 498.633
1467 0 67.0765 12.7019 852 92.0962 537.272 497.096
1468 0 68.0715 11.6054 790 96.1886 537.352 496.685
1469 0 69.0766 11.784 814 96.7162 537.549 496.221
1470 0 72.1483 12.0169 867 96.3472 537.854 494.09
1471 0 75.0892 12.372 929 95.9731 537.623 491.874
1472 0 78.1023 12.0483 941 97.1158 537.633 490.633
1473 0 81.1203 12.5369 1017 95.8525 537.986 489.34
1474 0 82.0796 12.3417 1013 97.5706 538.197 488.661
1475 0 86.0954 12.4861 1075 97.6558 538.182 485.617
1476 0 89.1029 11.9861 1068 99.3717 538.66 483.176
1477 1 44.0648 10.008 441 99.3016 538.444 506.712
1478 0 46.0559 10.7044 493 95.8661 538.444 505.197
1479 0 46.0344 10.036 462 98.2424 538.041 504.781
1480 0 48.0479 10.9682 527 96.1708 537.51 503.061
1481 0 50.0437 11.5499 578 96.5329 538.197 501.702
1482 0 51.0348 11.4628 585 97.0274 537.391 502.197
1483 0 53.0502 12.3279 654 95.2355 537.769 501.026
1484 0 54.0566 11.8765 642 96.3505 537.216 500.645
1485 0 51.0711 10.7497 549 101.488 537.441 500.867
1486 0 56.0608 11.1308 624 98.6154 537.264 498.713
1487 0 59.0564 10.8371 640 98.5672 538.02 498.791
1488 0 62.0835 10.7436 667 98.5457 537.745 498.577
1489 0 61.0546 11.1539 681 98.5477 538.04 498.304
1490 0 64.0981 11.108 712 98.0056 537.659 498.256
1491 0 64.0909 10.8128 693 99.7186 538.053 495.722
1492 0 66.0809 10.9714 725 100.28 537.461 494.065
1493 0 69.0925 11.2168 775 98.8219 537.477 493.404
1494 0 71.0538 11.1183 790 99.6203 537.492 491.125
1495 0 74.107 11.2945 837 98.4624 537.197 490.947
1496 0 77.0772 11.3912 878 97.6082 537.341 489.838
1497 0 79.0954 12.0361 952 97.77 538.173 489.062
1498 0 82.1485 12.0027 986 96.8083 538.258 487.91
1499 0 84.1674 12.1187 1020 97.1873 537.913 484.97
1500 0 89.1597 12.5617 1120 95.7429 537.641 482.146
1501 0 91.1374 12.8707 1173 95.3342 538.17 479.925
1502 0 94.1205 12.6752 1193 97.8961 537.423 478.909
1503 0 97.0917 12.7508 1238 97.1866 537.194 477.527
1504 0 101.069 12.5953 1273 97.2011 537.452 476.002
1505 0 100.224 12.1527 1218 97.2151 538.442 473.863
1506 1 53.1379 11.2725 599 97.7663 537.451 494.947
1507 0 54.1153 11.5125 623 97.3708 536.82 495.104
1508 0 56.0091 11.7124 656 88.8491 536.619 498.514
1509 0 58.1078 11.0828 644 89.2686 536.902 498.868
1510 0 60.0412 10.8092 649 88.7458 536.472 497.792
1511 0 61.0292 10.6015 647 90.085 537.164 495.505
1512 0 64.1353 10.6805 685 89.8993 536.877 495.305
1513 0 66.0556 10.7939 713 89.899 536.808 494.792
1514 0 69.0809 11.1608 771 88.6472 537 494.502
1515 0 69.0594 11.1788 772 90.1373 537.659 493.562
1516 0 72.077 10.9882 792 89.9962 538.282 492.17
1517 0 77.0508 11.5508 890 89.9539 538.817 490.26
1518 0 80.1454 12.078 968 89.2014 538.828 489.282
1519 0 80.0339 12.0324 963 89.5535 537.979 487.276
1520 0 85.1038 12.3144 1048 88.3502 537.083 486.62
1521 0 85.0442 11.3235 963 91.2856 537.595 485.019
1522 0 90.085 12.1552 1095 88.2849 537.332 483.026
1523 0 91.1025 11.5694 1054 90.0123 537.394 483.315
1524 0 93.0752 11.163 1039 91.6949 538.498 482.095
1525 1 49.0344 11.0127 540 93.0018 538.785 502.687
1526 0 49.026 11.0554 542 88.0535 538.697 501.325
1527 0 53.0338 11.9546 634 91.4274 538.596 500.718
1528 0 55.0492 12.3889 682 96.1481 539.047 499.107
1529 0 57.1942 12.6411 723 96.8243 538.194 500.532
1530 0 60.0916 12.9469 778 95.1864 539.634 499.692
1531 0 61.0834 12.9986 794 95.461 539.878 499.771
1532 0 62.0402 12.6209 783 96.9208 540.174 498.493
1533 0 63.028 12.8514 810 96.2432 539.338 497.558
1534 0 68.0335 13.0818 890 94.4483 539.42 495.781
1535 0 68.0852 13.2187 900 95.6311 538.727 495.407
1536 0 69.0758 12.3487 853 99.6073 538.121 492.989
1537 0 71.0712 12.9026 917 97.7121 538.423 492.779
1538 0 72.0984 12.7603 920 100.042 537.91 490.645
1539 0 77.1451 12.807 988 97.7945 538.783 489.581
1540 0 78.1307 12.6967 992 98.4395 538.376 488.135
1541 0 81.1833 12.2562 995 99.5889 538.394 487.112
1542 0 83.1977 11.7431 977 100.807 537.881 485.118
1543 0 87.0993 12.8704 1121 96.3515 538.606 484.785
1544 0 90.1509 11.1591 1006 99.3012 537.572 485.867
1545 0 92.1264 11.278 1039 99.0472 537.681 484.21
1546 1 49.1413 11.8027 580 92.481 536.753 503.991
1547 0 50.1216 11.2726 565 89.0159 536.979 503.754
1548 0 50.1356 12.2667 615 89.1561 537.091 502.067
1549 0 51.0311 11.6987 597 88.4874 537.248 500.111
1550 0 54.1192 12.1214 656 86.8979 536.747 499.232
1551 0 57.0554 12.6368 721 85.8183 536.347 498.996
1552 0 58.0211 12.4093 720 85.6014 536.421 499.372
1553 0 57.0884 11.9814 684 87.6535 537.348 498.149
1554 0 62.0309 11.8167 733 86.9973 536.857 498.61
1555 0 64.1024 12.5736 806 85.4231 537.417 496.15
1556 0 65.0905 12.5364 816 85.1238 537.463 495.902
1557 0 68.0564 12.5925 857 84.2812 537.602 494.545
1558 0 70.054 12.3334 864 81.0475 537.889 493.258
1559 0 71.0572 11.6244 826 84.178 537.868 492.195
1560 0 74.0643 12.6647 938 82.7591 537.673 491.452
1561 0 77.0622 12.2239 942 84.966 537.487 490.404
1562 0 78.1262 11.9678 935 84.6706 537.944 487.169
1563 0 83.1313 12.6066 1048 86.0668 538.031 487.671
1564 0 86.1273 12.377 1066 84.7889 537.637 485.522
1565 0 87.0757 11.7369 1022 87.5646 538.333 486.371
1566 0 87.0524 11.338 987 88.8014 537.391 486.13
1567 0 94.1581 11.7568 1107 87.4499 537.63 483.355
1568 1 47.0396 11.5222 542 90.369 538.015 504.465
1569 0 51.0616 11.3392 579 91.5043 538.249 503.385
1570 0 49.0275 10.953 537 86.6276 537.358 500.151
1571 0 51.0282 11.6602 595 87.8336 537.331 497.114
1572 0 52.1152 11.513 600 96.885 537.353 497.707
1573 0 54.1134 11.4389 619 86.4136 538.105 497.675
1574 0 55.0351 11.211 617 86.9773 537.946 496.438
1575 0 56.0378 11.7778 660 85.4788 537.967 495.256
1576 0 59.1162 10.9953 650 91.2185 537.868 498.629
1577 0 60.0773 11.3687 683 91.1977 537.748 496.908
1578 0 64.094 11.5767 742 91.0849 538.671 496.119
1579 0 66.0716 11.2605 744 92.4489 538.429 493.831
1580 0 69.1189 11.7768 814 90.4668 537.907 493.147
1581 0 71.0381 12.4159 882 91.9218 538.481 491.223
1582 0 74.1143 12.3728 917 90.8157 538.265 490.889
1583 0 75.0898 11.7459 882 93.0431 538.591 490.371
1584 0 80.0899 12.0739 967 92.8956 538.275 488.721
1585 0 82.0742 12.5253 1028 92.5224 538.06 487.248
1586 0 85.1004 12.2561 1043 94.6702 538.107 484.503
1587 0 88.0823 12.511 1102 94.9074 538.565 483.6
1588 0 91.0601 12.8157 1167 94.7318 539.404 482.438
1589 0 96.0971 13.528 1300 94.9608 538.585 481.235
1590 0 98.1159 13.4942 1324 98.4804 538.94 477.816
1591 1 50.0761 10.6438 533 95.0769 539.31 504.782
1592 0 52.0778 10.8299 564 92.7837 538.092 503.52
1593 0 52.0571 11.2569 586 93.9078 536.901 502.285
1594 0 55.0637 11.5503 636 94.4969 537.101 500.03
1595 0 54.0695 11.4667 620 89.421 537.2 499.106
1596 0 55.0629 11.4415 630 95.9365 538.011 501.467
1597 0 58.082 11.9314 693 95.6248 537.169 499.384
1598 0 59.0598 12.0725 713 94.3675 537.038 499.328
1599 0 61.047 11.8925 726 94.6543 537.78 497.848
1600 0 63.0934 12.109 764 93.3534 537.954 496.907
1601 0 69.0701 12.6104 871 89.7635 537.458 495.937
1602 0 69.0545 13.0621 902 89.1574 537.554 494.29
1603 0 71.0661 12.5658 893 89.71 537.685 493.386
1604 0 73.0637 12.1812 890 89.582 536.911 493.281
1605 0 78.0842 12.6658 989 86.6643 537.168 490.997
1606 0 78.1306 12.5175 978 87.8589 536.962 488.721
1607 0 83.1317 12.4381 1034 86.0948 537.121 489.484
1608 0 85.1229 12.4996 1064 86.4436 537.329 488.727
1609 0 88.0785 12.4889 1100 88.7636 537.594 486.588
1610 0 93.0838 12.8057 1192 87.7752 537.446 483.966
1611 1 50.099 11.6769 585 94.0991 538.154 504.805
1612 0 52.0634 12.4464 648 92.4383 537.822 501.75
1613 0 54.0947 12.9772 702 84.1168 537.261 499.275
1614 0 55.0811 12.4907 688 84.311 537.333 499.737
1615 0 58.0939 12.9962 755 89.294 537.111 498.085
1616 0 59.1126 12.7384 753 94.004 537.503 496.742
1617 0 63.1994 12.2311 773 93.621 537.334 497.128
1618 0 63.158 12.35 780 94.4782 537.297 495.215
1619 0 64.1228 12.554 805 94.3876 537.513 494.791
1620 0 67.1313 12.1106 813 94.31 537.675 490.97
1621 0 68.1496 13.0008 886 93.053 537.375 491.464
1622 0 71.1468 13.1981 939 91.6539 537.311 490.626
1623 0 72.1906 12.5501 906 94.8212 536.841 488.492
1624 0 76.2412 12.5785 959 94.4067 536.067 487.347
1625 0 77.2685 12.9548 1001 94.6753 536.284 484.825
1626 0 79.2128 13.1671 1043 94.79 536.655 481.704
1627 0 81.3419 12.8716 1047 95.7822 536.793 480.473
1628 0 83.2508 12.9728 1080 95.9426 536.74 478.51
1629 0 87.1997 13.1537 1147 95.9006 536.643 477.616
1630 0 90.3455 13.5258 1222 94.9501 536.667 477.184
1631 0 94.1709 13.0826 1232 95.6388 536.602 476.211
1632 1 46.105 11.7991 544 94.9522 535.562 501.739
1633 0 47.081 12.1918 574 94.4983 536.07 501.617
1634 0 48.0295 12.18 585 85.9214 536.868 502.306
1635 0 49.0443 12.1523 596 86.1678 537.29 500.52
1636 0 50.03 12.4125 621 85.3559 535.857 499.982
1637 0 52.0499 11.9693 623 86.2584 536.734 498.384
1638 0 53.0348 12.1618 645 85.7023 537.04 497.905
1639 0 55.0452 12.19 671 85.0119 536.444 496.86
1640 0 57.1589 12.0716 690 85.1101 536.838 495.975
1641 0 58.0866 12.2576 712 85.0379 536.879 496.004
1642 0 62.0633 12.6484 785 95.2688 536.657 493.696
1643 0 63.1032 12.2022 770 96.5117 536.771 494.584
1644 0 65.1505 12.709 828 94.3345 537.339 494.57
1645 0 68.1581 12.4417 848 94.559 537.193 493.766
1646 0 70.0362 12.979 909 92.4279 536.612 493.077
1647 0 71.0245 12.1507 863 95.7451 538.146 492.626
1648 0 76.0571 13.0954 996 91.009 538.7 492.657
1649 0 78.0167 12.8434 1002 92.7116 538.856 491.604
1650 0 80.0684 13.2637 1062 92.838 537.802 489.81
1651 0 80.1276 12.4052 994 95.4769 536.929 488.006
1652 0 84.0628 12.3241 1036 95.0502 537.306 486.818
1653 0 85.0897 12.4339 1058 96.1333 536.986 484.362
1654 0 88.0618 12.6048 1110 94.3459 537.349 482.502
1655 0 91.085 12.8781 1173 94.0963 537.105 481.379
1656 0 95.1192 13.0573 1242 93.8084 536.411 480.392
1657 0 95.0823 12.3682 1176 95.5119 537.088 479.241
1658 0 98.0931 12.6309 1239 94.3963 536.892 477.165
1659 1 52.0403 11.3758 592 92.5118 538.476 504.924
1660 0 55.0472 12.6437 696 90.408 538.126 501.872
1661 0 52.0824 11.2514 586 80.4334 536.71 500.613
1662 0 55.0716 12.6563 697 84.4046 536.296 499.692
1663 0 55.1532 11.4771 633 87.8705 535.91 501.164
1664 0 57.1058 11.1197 635 89.874 536.049 500.192
1665 0 59.128 12.4983 739 88.0839 536.199 497.382
1666 0 61.1004 11.8657 725 90.2897 536.126 496.811
1667 0 65.1472 12.5869 820 88.0939 535.973 496.272
1668 0 65.0557 12.1588 791 89.6296 536.126 495.599
1669 0 67.1172 12.4111 833 90.0432 536.228 492.761
1670 0 69.1611 12.536 867 91.5928 536.697 491.543
1671 0 69.0948 12.2151 844 93.5782 536.622 489.684
1672 0 73.0794 12.5891 920 92.262 536.137 490.413
1673 0 76.1477 13.0273 992 90.9335 536.534 488.803
1674 0 78.1586 12.8713 1006 92.8459 535.691 486.391
1675 0 81.2245 13.2103 1073 91.6533 537.123 486.632
1676 0 80.1169 12.8687 1031 93.3841 537.085 485.343
1677 0 83.1973 12.4764 1038 94.7572 537.383 484.682
1678 0 85.1736 11.7994 1005 96.2906 537.921 483.974
1679 0 88.1677 12.8165 1130 93.8858 537.473 483
1680 0 91.1961 13.1256 1197 92.9181 536.643 481.303
1681 0 94.1776 12.4233 1170 93.9308 536.038 479.957
1682 0 96.1702 12.665 1218 93.5878 536.282 477.553
1683 0 96.1332 12.2226 1175 94.9889 537.253 475.266
1684 0 101.144 12.8234 1297 92.7517 537.492 472.894
1685 1 52.0664 11.178 582 91.5653 536.797 497.1
1686 0 53.1571 11.118 591 90.9526 536.655 497.222
1687 0 57.1795 11.8399 677 87.6352 537.174 495.046
1688 0 59.1137 12.0953 715 86.7217 537.47 494.455
1689 0 59.2419 12.3561 732 88.679 537.281 494.358
1690 0 61.1381 11.9238 729 89.845 537.033 493.539
1691 0 64.1725 12.0145 771 89.1712 536.789 491.741
1692 0 65.0931 12.3669 805 88.8497 537.221 490.906
1693 0 68.0918 11.9398 813 89.4723 537.781 489.994
1694 0 69.1656 12.0869 836 89.1376 537.049 489.941
1695 0 72.1143 11.6898 843 90.2479 536.858 487.603
1696 0 72.1303 12.0476 869 91.5466 537.341 486.998
1697 0 76.248 12.5118 954 90.0786 537.931 484.824
1698 0 77.3532 12.4235 961 90.7482 538.178 484.038
1699 0 79.2721 12.2111 968 91.5403 538.152 483.379
1700 0 80.1376 12.6283 1012 91.7204 537.476 488.851
1701 0 83.2519 12.1198 1009 92.1744 537.636 485.246
1702 0 87.2555 12.6525 1104 90.808 538.029 483.034
1703 0 87.1483 11.9796 1044 94.2663 538.261 483.879
1704 0 90.0995 12.3086 1109 88.9711 537.152 478.631
1705 0 92.1101 11.7034 1078 91.2718 537.256 477.254
1706 0 94.206 12.2073 1150 90.6574 538.09 474.797
1707 0 96.0971 12.3105 1183 90.4269 537.543 473.893
1708 0 98.1229 11.3735 1116 89.1873 537.581 473.988
1709 0 102.175 11.3237 1157 88.9914 537.235 470.997
1710 0 107.124 11.6501 1248 87.6554 537.909 471.628
1711 0 109.16 11.4602 1251 88.2182 538.283 470.064
1712 0 112.158 11.8851 1333 90.8027 538.131 473.389
1713 0 116.167 11.9569 1389 90.9734 538.165 469.304
1714 1 217.239 8.78296 1908 78.2846 538.298 457.69
1715 1 62.1069 11.0616 687 83.7802 538.226 495.907
1716 0 60.0857 11.1674 671 116.23 538.198 495.438
1717 0 68.1492 13.2503 903 78.7619 537.285 493.069
1718 0 73.306 14.228 1043 75.2359 537.539 492.236
1719 0 71.1486 14.7016 1046 77.6377 537.85 492.348
1720 0 75.157 14.5562 1094 77.862 537.582 493.185
1721 0 75.218 14.0791 1059 80.4193 538.125 491.67
1722 0 78.1659 13.7784 1077 80.948 537.524 491.257
1723 0 79.2135 13.3563 1058 83.2354 537.977 490.335
1724 0 81.1571 13.2213 1073 83.8229 538.322 489.234
1725 0 84.1197 12.7794 1075 84.427 538.388 488.741
1726 0 85.0684 12.7192 1082 85.5749 537.51 487.373
1727 0 87.2481 12.9516 1130 84.9186 536.788 486.196
1728 0 90.1668 13.109 1182 84.747 537.72 485.498
1729 0 93.2027 12.564 1171 86.5465 537.88 484.586
1730 0 97.2289 13.0928 1273 84.392 537.844 482.705
1731 1 51.1103 10.8589 555 87.8541 537.604 505.825
1732 0 55.1988 11.3952 629 86.0954 537.684 504.954
1733 0 53.1239 12.1979 648 87.142 537.707 502.998
1734 0 56.1463 12.4674 700 85.3757 538.02 501.857
1735 0 59.1068 12.8581 760 84.396 537.433 501.116
1736 0 60.1752 13.5272 814 83.8034 537.272 499.383
1737 0 61.21 12.9227 791 85.4172 538.245 498.784
1738 0 61.0916 11.229 686 89.2391 538.37 501.999
1739 0 63.131 11.7375 741 89.3941 538.846 498.822
1740 0 66.1005 12.0271 795 88.4528 537.746 497.855
1741 0 67.0641 11.8692 796 88.4812 538.269 496.379
1742 0 70.0798 11.4013 799 87.7522 537.304 496.636
1743 0 69.1781 11.3186 783 89.1673 538.064 495.132
1744 0 76.2043 12.2172 931 85.1224 537.725 493.334
1745 0 76.1374 11.2034 853 86.2052 538.11 490.529
1746 0 77.1142 11.3338 874 88.2128 537.437 490.002
1747 0 80.1426 11.0303 884 87.6007 537.86 489.601
1748 0 85.1274 11.8293 1007 85.8679 538.089 486.971
1749 0 87.1104 11.6863 1018 86.8811 538.252 485.461
1750 0 90.2122 11.6503 1051 87.1361 537.398 483.147
1751 0 93.1966 11.1699 1041 88.2632 536.515 481.083
1752 1 47.0906 12.0831 569 88.2285 536.96 503.352
1753 0 48.164 11.9384 575 93.393 537.353 502.045
1754 0 50.103 12.4943 626 96.0751 536.636 501.545
1755 0 51.1497 12.6883 649 94.9091 537.193 501.533
1756 0 52.1537 12.3673 645 94.3364 537.321 499.098
1757 0 54.246 12.6092 684 92.9956 538.323 497.937
1758 0 57.2305 12.4933 715 91.7287 537.888 497.276
1759 0 58.2015 12.5426 730 90.3863 537.633 496.027
1760 0 59.1709 11.9315 706 91.1856 537.864 496.721
1761 0 60.1842 12.3787 745 90.6631 538.383 494.557
1762 0 62.1217 11.4614 712 85.118 538.322 495.374
1763 0 64.09 11.0782 710 85.569 538.361 494.169
1764 0 66.0765 11.1689 738 85.1748 538.247 491.684
1765 0 66.1534 10.2489 678 86.792 538.764 491.429
1766 0 71.0445 11.0494 785 84.7732 537.95 488.862
1767 0 74.0624 11.3283 839 84.3409 538.013 487.78
1768 1 37.0188 10.238 379 87.2982 538.055 506.726
1769 0 39.0269 10.1725 397 87.6927 538.081 506.411
1770 0 42.0403 10.9419 460 85.513 537.794 505.887
1771 0 43.0387 10.6648 459 87.5098 537.675 504.329
1772 0 44.0772 11.5479 509 86.4833 537.532 503.157
1773 0 44.0488 11.7143 516 88.2733 537.781 501.882
1774 0 49.1003 11.8126 580 84.4707 537.331 502.647
1775 0 51.0621 11.8287 604 85.1258 537.106 501.189
1776 0 50.0303 11.2932 565 89.4336 537.066 502.788
1777 0 54.0684 11.8369 640 87.5453 536.87 500.842
1778 0 55.0477 11.5173 634 89.4101 537.188 499.095
1779 0 55.0506 11.5712 637 89.7881 537.333 498.482
1780 0 59.0449 12.1772 719 87.0223 537.403 497.396
1781 0 59.0797 11.2391 664 90.7259 537.447 495.47
1782 0 60.0304 11.0777 665 91.1759 537.558 495.095
1783 0 63.051 11.5145 726 89.9986 537.744 494.905
1784 0 66.015 12.7547 842 86.9786 537.255 491.527
1785 0 68.1011 11.3214 771 90.0195 536.999 490.149
1786 0 70.0929 11.5276 808 90.021 536.864 489.13
1787 0 75.0725 12.1616 913 85.6484 536.728 487.861
1788 0 79.0688 12.5966 996 81.6205 537.484 487.829
1789 0 79.0403 11.9812 947 87.584 536.813 485.4
1790 0 84.1483 11.7174 986 88.9625 537.108 485.246
1791 1 43.0371 11.3623 489 93.0982 535.746 503.344
1792 0 46.0205 10.9951 506 92.751 536.555 501.285
1793 0 46.0159 11.9741 551 90.3956 536.334 500.23
1794 0 49.0215 11.9743 587 89.1158 536.588 499.08
1795 0 46.1213 11.5999 535 87.4692 537.131 497.387
1796 0 48.0645 11.755 565 86.1646 537.221 495.37
1797 0 52.1085 10.7084 558 80.7814 537.905 494.941
1798 0 51.1293 10.8744 556 80.8867 537.637 493.372
1799 0 55.0696 11.2766 621 80.9501 537.184 499.444
1800 0 58.097 11.0677 643 78.507 537.652 494.977
1801 0 58.067 11.2801 655 81.0214 536.189 497.043
1802 0 61.1012 11.5546 706 79.721 536.521 498.082
1803 0 61.1201 10.9293 668 78.985 536.744 493.756
1804 0 64.1408 11.6151 745 77.6778 537.275 492.101
1805 0 68.2262 11.0222 752 78.254 537.242 491.055
1806 0 70.0419 11.2932 791 78.1922 536.914 489.339
1807 0 73.1009 11.833 865 76.8821 537.65 490.742
1808 0 76.1038 11.8785 904 77.2788 537.738 488.528
1809 0 77.2035 12.072 932 77.9957 537.429 486.972
1810 0 82.2001 11.5572 950 80.6716 536.788 484.945
1811 0 85.2071 13.0506 1112 81.4649 536.351 482.906
1812 0 87.2711 13.0513 1139 82.4118 536.342 477.689
1813 0 90.2143 12.7807 1153 83.6383 536.473 477.64
1814 1 47.0859 10.3428 487 85.7125 536.682 502.793
1815 0 46.0796 10.5036 484 79.25 536.446 500.304
1816 0 49.033 11.0946 544 78.8456 537.382 500.862
1817 0 50.1776 10.7219 538 79.0502 537.416 501.32
1818 0 52.1235 11.1082 579 80.3921 537.677 496.877
1819 0 55.1955 10.8705 600 81.1333 537.177 495.717
1820 0 53.0833 10.7944 573 83.0052 537.473 495.845
1821 0 56.1377 10.9552 615 80.9691 537.584 496.325
1822 0 57.1323 10.607 606 82.005 537.106 496.408
1823 0 59.1178 10.5383 623 85.8828 537.369 499.17
1824 0 61.1402 10.9093 667 85.5922 536.874 497.349
1825 0 65.1852 12.0579 786 81.3219 537.24 497.83
1826 0 67.3797 12.0511 812 81.984 537.193 496.305
1827 0 68.2987 11.6108 793 83.9004 537.222 496.018
1828 0 72.1906 11.9129 860 83.0151 536.783 494.465
1829 0 74.2642 12.3343 916 82.0906 537.192 494.708
1830 0 74.2472 11.1789 830 86.094 536.941 492.794
1831 0 77.3317 11.5089 890 83.0427 537.002 488.403
1832 0 80.3252 11.5406 927 83.1845 537.201 486.134
1833 0 80.3252 11.5281 926 137.127 537.207 486.279
1834 0 84.3864 11.3762 960 84.7469 536.895 485.111
1835 0 89.3539 11.8741 1061 83.5419 536.46 482.375
1836 0 91.363 11.7334 1072 86.6166 536.779 481.206
1837 1 47.1112 11.2712 531 84.693 536.949 503.136
1838 0 48.1304 11.5312 555 87.7892 536.942 503.76
1839 0 50.1389 12.2659 615 86.7285 537.083 502.606
1840 0 51.1439 12.455 637 86.3626 536.739 500.721
1841 0 54.0301 12.4375 672 85.1354 536.363 500.568
1842 0 53.0422 12.2355 649 83.9414 537.413 499.787
1843 0 55.0597 12.1686 670 83.3507 537.378 498.109
1844 0 57.0194 12.4694 711 82.5809 536.906 497.886
1845 0 61.0945 12.7344 778 81.9075 536.536 496.596
1846 0 60.0531 12.6388 759 82.4651 537.258 496.188
1847 0 61.0964 12.5048 764 84.1113 537.16 495.357
1848 0 63.0647 12.4951 788 83.7094 536.858 494.766
1849 0 66.0515 12.9293 854 82.1569 537.245 493.682
1850 0 67.0822 12.2238 820 83.6585 537.22 491.874
1851 0 68.1384 12.6067 859 81.7206 537.414 491.356
1852 0 72.1116 12.3974 894 81.9944 537.295 490.633
1853 0 75.0691 12.2554 920 81.225 537.191 488.133
1854 0 77.1086 12.5667 969 81.322 537.996 488.404
1855 0 80.0831 12.1749 975 82.0328 537.864 486.847
1856 1 37.0188 11.2916 418 89.122 537.153 506.6
1857 0 37.0547 11.2806 418 88.6172 537.053 505.9
1858 0 39.0067 11.5878 452 84.5597 537.263 503.405
1859 0 43.0441 11.2675 485 84.4619 537.27 502.959
1860 0 42.0132 12.6865 533 85.7936 536.957 503.623
1861 0 45.0377 12.1676 548 84.9635 537.37 502.544
1862 0 47.0991 12.6966 598 83.6605 536.895 502.548
1863 0 46.0542 12.4419 573 85.9232 537.215 501.674
1864 0 49.0532 12.2724 602 84.789 536.884 500.091
1865 0 51.0455 12.3615 631 85.2298 537.482 499.379
1866 0 51.0395 12.7156 649 85.0894 537.562 499.311
1867 0 53.0418 12.3488 655 84.8947 537.511 497.756
1868 0 56.0636 12.8782 722 83.5692 537.583 496.967
1869 0 59.0958 12.742 753 83.2244 537.39 495.359
1870 0 60.0615 13.1199 788 82.2107 537.367 494.289
1871 0 59.0819 12.5927 744 84.4462 537.796 493.04
1872 0 65.0487 12.8827 838 82.2757 537.649 492.14
1873 0 65.0264 12.8102 833 83.0948 537.013 491.222
1874 0 68.0971 13.6276 928 81.0312 537.216 490.865
1875 0 70.0522 13.3044 932 82.0923 537.841 487.666
1876 0 73.0725 12.8366 938 83.5043 537.742 487.498
1877 0 76.0636 13.4493 1023 81.6188 537.95 486.388
1878 0 78.1307 13.1574 1028 83.0477 538.006 485.147
1879 0 81.0878 13.5409 1098 82.1976 536.964 483.485
1880 0 85.1165 13.7694 1172 81.3703 537.555 482.172
1881 0 88.0933 12.6003 1110 83.4811 537.918 480.586
1882 0 90.0843 12.4772 1124 81.2918 537.928 476.907
1883 1 42.0144 11.0676 465 85.6968 537.533 498.46
1884 0 44.0757 11.8433 522 82.7701 538.467 499.123
1885 0 44.0681 11.868 523 122.451 538.461 499.187
1886 0 49.0932 12.2013 599 81.5543 538.536 497.237
1887 0 51.073 12.5507 641 79.8456 538.295 496.168
1888 0 51.0275 12.5815 642 80.8162 538.115 496.009
1889 0 52.083 12.1345 632 82.8829 537.642 494.419
1890 0 53.1915 13.066 695 80.9899 537.413 493.458
1891 0 55.1044 13.1206 723 82.0415 537.77 491.4
1892 0 58.0802 13.3436 775 81.8271 537.121 491.726
1893 0 59.1887 13.1951 781 83.178 538.096 491.513
1894 0 59.0467 14.3615 848 81.5259 538.138 489.287
1895 0 63.0192 13.3451 841 81.918 537.572 488.44
1896 0 68.0443 14.6963 1000 77.561 537.199 488.055
1897 0 68.0536 13.0045 885 83.0723 537.468 488.099
1898 0 70.1136 12.5225 878 84.4738 537.06 486.977
1899 0 71.0675 12.7203 904 85.1239 537.096 486.06
1900 0 74.139 13.4342 996 84.4618 536.797 484.194
1901 0 78.2635 13.7484 1076 83.6701 536.817 483.864
1902 0 81.3009 14.2065 1155 83.574 536.693 481.281
1903 0 84.3341 14.0038 1181 84.3395 537.156 480.038
1904 0 87.2995 14.2154 1241 84.5165 536.974 479.167
1905 0 92.2986 16.3708 1511 78.4758 536.754 475.833
1906 0 97.5374 15.5017 1512 80.67 537.48 473.931
1907 0 101.273 16.2926 1650 78.3224 536.462 471.157
1908 0 100.403 15.9357 1600 81.1394 537.301 469.68
1909 0 108.306 16.278 1763 78.6381 537.273 468.694
1910 0 109.33 16.1346 1764 82.3832 536.534 467.085
1911 0 112.309 17.1314 1924 81.6268 536.663 467.69
1912 0 112.312 15.0652 1692 88.273 536.485 467.207
1913 1 54.1724 12.6633 686 98.519 536.843 494.876
1914 0 58.1419 14.1722 824 93.3434 537.142 494.977
1915 0 57.1682 12.6294 722 98.7008 537.27 494.215
1916 0 60.1364 13.6024 818 96.4144 537.609 492.846
1917 0 63.1583 13.4582 850 95.8894 536.934 491.628
1918 0 64.2144 13.6262 875 95.6583 536.862 491.456
1919 0 68.2892 14.1311 965 93.2746 537.074 490.026
1920 0 69.2698 14.9416 1035 92.2358 535.912 488.424
1921 0 72.3049 14.7155 1064 92.5197 536.938 487.992
1922 0 75.2074 14.573 1096 92.6889 536.645 485.786
1923 0 80.1872 15.9627 1280 86.2242 537.263 483.2
1924 0 87.1463 17.3157 1509 79.837 536.443 480.549
1925 0 89.169 16.9341 1510 81.3444 536.988 479.922
1926 0 90.1062 17.2019 1550 81.7968 536.066 477.997
1927 0 91.2558 15.7908 1441 85.9889 536.845 479.525
1928 0 89.1687 15.1174 1348 90.6996 535.859 482.637
1929 0 92.2161 14.5419 1341 92.0015 535.75 479.798
1930 0 96.1502 17.0878 1643 84.2167 536.328 476.033
1931 0 99.2196 15.5312 1541 89.2102 535.988 475.902
1932 0 101.232 15.2817 1547 90.3542 535.341 476.31
1933 0 105.126 15.41 1620 88.7994 535.564 471.419
1934 0 107.177 15.6843 1681 88.2909 535.643 471.83
1935 0 113.089 16.1289 1824 85.0636 536.111 468.503
1936 0 118.163 16.2825 1924 83.4116 536.214 465.968
1937 0 120.137 15.3907 1849 85.4397 536.241 463.155
1938 0 121.242 14.1452 1715 90.2571 536.219 464.596
1939 0 126.079 15.5775 1964 86.1146 536.4 460.393
1940 0 130.185 16.3229 2125 83.8499 536.664 459.517
1941 1 68.136 12.9154 880 94.6648 536.317 491.472
1942 0 68.1444 13.0312 888 88.2309 536.02 490.061
1943 0 72.0772 12.8751 928 85.6325 536.365 488.358
1944 0 75.0492 13.2313 993 85.4814 536.934 486.632
1945 0 75.1273 13.4305 1009 86.7245 535.832 485.431
1946 0 78.1004 12.5992 984 90.9238 535.666 487.108
1947 0 81.1282 13.0288 1057 88.2223 536.352 483.283
1948 0 85.1489 13.4 1141 88.2734 536.805 480.579
1949 0 87.131 13.6806 1192 88.8884 536.528 479.732
1950 0 91.1673 13.5904 1239 89.5682 536.094 477.128
1951 0 94.0924 15.4635 1455 85.2997 535.874 473.871
1952 0 98.1703 15.575 1529 84.998 535.699 474.552
1953 0 100.066 14.0208 1403 89.6422 535.517 474.205
1954 0 101.083 13.1278 1327 91.9608 535.576 474.491
1955 0 105.062 12.6688 1331 96.399 535.666 476.65
1956 0 108.1 13.395 1448 95.6733 535.976 473.622
1957 0 112.175 12.9886 1457 96.9197 535.653 470.318
1958 0 116.078 13.5167 1569 96.6546 535.038 466.524
1959 0 120.062 13.3515 1603 97.0343 534.706 465.593
1960 0 125.125 15.4965 1939 90.8504 534.967 460.638
1961 0 132.191 15.228 2013 88.691 535.637 455.974
1962 0 133.146 13.4514 1791 95.0754 535.533 456.454
1963 0 141.166 14.5786 2058 92.19 535.748 455.728
1964 0 144.114 14.4746 2086 92.5954 535.268 453.375
1965 0 151.311 14.5198 2197 92.7242 535.489 452.143
1966 0 158.291 16.0338 2538 88.5197 535.471 442.345
1967 0 164.247 16.6335 2732 87.6226 535.162 441.566
1968 0 164.17 14.0952 2314 97.0104 535.513 444.744
1969 0 170.288 14.7691 2515 96.0111 535.132 440.058
1970 0 179.268 14.8884 2669 95.088 535.423 438.718
1971 1 86.1221 11.7043 1008 96.2798 536.231 487.689
1972 0 87.1354 12.3486 1076 98.0232 535.678 484.099
1973 0 93.0782 12.8387 1195 98.2075 535.432 481.92
1974 0 95.2132 13.8216 1316 97.4476 535.787 481.047
1975 0 99.0986 13.4916 1337 99.4562 534.589 480.008
1976 0 100.183 13.3356 1336 100.752 535.147 478.119
1977 0 103.114 12.8692 1327 102.677 535.366 475.769
1978 0 108.246 13.0351 1411 101.592 534.823 474.875
1979 0 112.171 13.5061 1515 100.318 534.211 472.288
1980 0 115.161 13.251 1526 100.971 535.092 471.716
1981 0 121.116 13.4416 1628 99.8894 534.952 468.622
1982 0 125.169 12.8706 1611 101.289 536.086 466.929
1983 0 131.234 13.2206 1735 100.396 536.184 461.831
1984 1 64.0943 11.8263 758 93.219 536.7 497.061
1985 0 67.0672 12.316 826 92.7058 536.431 496.404
1986 0 68.0595 13.0915 891 90.8833 536.88 494.337
1987 0 71.0614 12.3837 880 91.967 536.727 494.947
1988 0 72.1676 12.9282 933 90.4255 536.52 492.311
1989 0 75.1322 12.4847 938 91.2868 535.497 492.118
1990 0 78.1075 12.406 969 90.1796 535.837 491.045
1991 0 78.0747 12.7698 997 90.3992 535.651 489.561
1992 0 80.1451 12.7144 1019 91.0893 535.438 485.981
1993 0 86.141 12.7465 1098 88.7086 536.007 486.287
1994 0 85.1592 12.3886 1055 90.8142 534.634 484.685
1995 0 90.2272 12.6902 1145 89.1354 535.029 484.914
1996 0 92.1381 12.3619 1139 90.0395 534.896 481.442
1997 0 95.2447 12.4521 1186 91.2201 535.094 479.676
1998 0 100.181 11.7787 1180 89.1017 535.358 478.775
1999 1 53.0547 12.6096 669 90.5067 535.103 502.223
2000 0 53.0561 12.5151 664 140.116 535.134 502.009
2001 0 56.0521 13.1485 737 91.6174 534.606 498.444
2002 0 58.1549 13.0857 761 94.912 534.46 498.179
2003 0 61.1769 12.5865 770 94.7429 535.495 498.094
2004 0 61.2283 12.5106 766 95.4634 534.949 496.341
2005 0 63.1308 12.9889 820 94.4134 534.482 495.661
2006 0 65.1644 13.3048 867 92.9481 535.165 496.519
2007 0 66.1637 11.9552 791 97.1656 535.18 494.123
2008 0 69.0218 13.0973 904 94.2588 536.284 492.799
2009 0 71.1608 12.8863 917 95.1821 535.959 493.422
2010 0 73.0952 12.6 921 96.1607 535.194 491.784
2011 0 76.075 12.6191 960 95.6115 535.385 491.181
2012 0 78.0518 13.017 1016 93.939 535.188 489.799
2013 0 82.0675 13.0137 1068 94.7528 534.783 488.531
2014 0 81.086 12.8382 1041 97.2949 534.259 485.868
2015 0 86.0724 12.6986 1093 97.2854 534.448 485.362
2016 0 90.0998 12.8968 1162 96.5473 535.139 483.974
2017 0 93.2067 13.2609 1236 96.1028 535.171 480.958
2018 0 95.0692 12.696 1207 93.4093 535.399 481.431
2019 0 97.1005 12.173 1182 93.5474 535.155 480.813
2020 0 100.071 12.8109 1282 92.103 534.48 478.52
2021 0 103.09 12.2805 1266 92.718 535.387 477.556
2022 0 107.177 12.3907 1328 94.4947 534.565 475.511
2023 0 108.107 11.6274 1257 98.3079 534.22 473.642
2024 0 113.139 12.0648 1365 96.0044 535.135 470.146
2025 1 55.0466 12.0988 666 95.5345 534.719 499.973
2026 0 57.0446 11.3069 645 98.7736 534.981 499.73
2027 0 60.0685 12.5024 751 94.4953 534.742 497.574
2028 0 61.059 12.7418 778 93.3715 534.431 497.553
2029 0 62.0712 13.5812 843 96.8529 534.383 495.202
2030 0 63.3199 12.7764 809 93.7219 534.839 496.449
2031 0 67.1504 13.7006 920 90.1359 534.878 496.263
2032 0 68.2717 13.3877 914 91.5427 534.577 494.857
2033 0 69.238 13.5764 940 92.0649 534.838 494.789
2034 0 71.1854 13.4719 959 91.8895 534.322 493.731
2035 0 75.1131 12.8207 963 92.4008 534.22 491.604
2036 0 75.0997 13.3822 1005 92.3811 533.837 490.647
2037 0 77.1462 12.9235 997 92.0221 533.409 489.46
2038 0 81.0658 13.7666 1116 89.9364 534.942 488.887
2039 0 84.2396 13.7821 1161 89.702 534.506 487.162
2040 0 86.2878 13.003 1122 91.238 533.833 485.346
2041 0 87.1965 13.3836 1167 90.5733 534.808 485.745
2042 0 88.1132 13.4827 1188 91.4175 534.291 483.917
2043 0 91.3183 13.097 1196 92.7592 534.265 482.397
2044 0 95.177 13.6588 1300 90.1085 534.835 478.552
2045 0 96.1552 13.2806 1277 91.1261 535.017 477.596
2046 0 98.1613 14.1196 1386 88.5014 534.565 473.591
2047 0 99.2234 13.011 1291 91.1712 534.345 473.267
2048 0 103.222 13.1464 1357 90.8047 535.124 472.713
2049 0 104.252 12.9302 1348 91.5705 535.541 472.54
2050 0 108.183 12.9318 1399 90.1115 535.886 469.915
2051 0 112.276 13.164 1478 89.1069 535.429 468.451
2052 0 115.167 13.094 1508 88.2606 535.284 465.706
2053 0 118.131 12.4184 1467 87.6517 534.749 462.822
2054 0 121.162 12.8423 1556 85.9422 535.434 460.964
2055 0 127.172 12.8881 1639 86.155 535.104 457.034
2056 0 131.153 13.0077 1706 83.823 535.892 453.59
2057 0 136.201 12.8854 1755 83.5516 536.011 453.087
2058 0 142.166 11.9438 1698 84.745 536.074 448.001
2059 0 148.25 11.629 1724 82.5899 535.335 445.989
2060 0 155.213 12.3765 1921 80.4883 535.166 446.733
2061 0 162.306 13.1849 2140 78.4075 535.942 442.004
2062 0 166.193 12.2989 2044 80.3258 536.186 440.983
2063 1 74.1757 12.5513 931 79.8786 536.045 485.502
2064 0 76.0993 12.2209 930 81.5892 536.541 482.938
2065 0 79.2253 12.5339 993 81.425 536.441 483.024
2066 0 82.2408 13.1322 1080 81.3296 536.234 481.187
2067 0 84.2801 13.0636 1101 82.4042 535.46 481.246
2068 0 87.2412 13.0787 1141 83.2463 535.461 478.464
2069 0 90.264 13.7153 1238 82.2561 535.366 476.737
2070 0 96.2923 14.3833 1385 79.8708 535.302 471.217
2071 0 100.252 15.4411 1548 80.9929 535.213 470.354
2072 0 98.3374 14.4299 1419 86.8421 534.848 471.733
2073 0 108.295 16.2981 1765 79.4181 534.453 467.109
2074 0 107.275 15.4835 1661 83.1553 534.482 465.78
2075 0 113.29 16.4092 1859 79.7257 534.512 463.086
2076 0 121.342 16.0538 1948 80.249 534.88 459.306
2077 0 119.261 16.1998 1932 83.279 534.828 459.66
2078 0 121.313 14.9943 1819 87.4151 534.301 459.798
2079 0 123.219 13.9264 1716 91.1113 534.287 460.707
2080 0 127.209 13.639 1735 93.3579 534.36 456.933
2081 0 129.192 13.5999 1757 93.453 534.879 456.583
2082 0 134.233 13.931 1870 93.5861 534.118 453.668
2083 0 139.171 13.2139 1839 95.6232 534.513 452.601
2084 0 143.175 13.2635 1899 96.3581 535.502 450.593
2085 1 69.0875 11.6953 808 88.4505 535.571 490.657
2086 0 67.0938 11.1933 751 92.4581 535.137 490.477
2087 0 72.1196 12.0633 870 89.8115 535.152 491.376
2088 0 75.1366 12.4573 936 90.1026 534.57 487.316
2089 0 74.1151 12.0488 893 92.1702 535.057 485.166
2090 0 79.0529 12.0679 954 91.217 535.4 485.159
2091 0 79.142 11.6752 924 93.0931 536.004 483.727
2092 0 82.079 12.5002 1026 91.6569 535.363 484.082
2093 0 86.0883 12.3594 1064 90.9906 535.827 481.263
2094 0 88.0864 12.045 1061 91.3619 536.077 477.458
2095 0 94.1383 14.2981 1346 83.8774 535.988 471.707
2096 0 95.2169 11.6891 1113 90.5283 535.642 472.884
2097 0 96.1686 11.511 1107 91.009 534.542 473.339
2098 0 99.1471 11.0139 1092 90.8086 534.525 476.138
2099 0 104.255 11.6541 1215 88.9778 534.805 469.926
2100 0 107.183 11.9329 1279 88.9672 534.545 468.546
2101 1 55.0864 11.3277 624 85.7196 535.221 495.045
2102 0 55.1126 11.3767 627 86.2679 534.609 495.274
2103 0 59.1228 11.6368 688 84.3227 534.767 493.532
2104 0 59.1184 11.7561 695 85.3856 535.791 493.266
2105 0 61.1558 12.3946 758 84.777 535.807 492.385
2106 0 62.0392 12.2181 758 85.3905 535.404 490.476
2107 0 64.1368 11.4755 736 87.5666 535.658 491.486
2108 0 66.1464 12.1095 801 86.1423 535.693 489.63
2109 0 69.0901 12.0857 835 88.5485 535.959 486.35
2110 0 73.0549 12.4701 911 89.4599 535.38 484.681
2111 0 72.11 11.1912 807 93.5923 535.617 485.055
2112 0 76.192 11.9041 907 90.9338 535.805 484.042
2113 0 77.2062 11.5017 888 92.5766 535.573 480.899
2114 0 82.3331 13.081 1077 83.3965 535.687 478.529
2115 0 83.1595 12.951 1077 84.9434 535.345 477.572
2116 0 84.232 12.2519 1032 87.5552 535.268 476.871
2117 0 85.3068 11.5231 983 90.6511 535.427 477.784
2118 0 89.2523 11.7196 1046 91.2505 536.441 475.826
2119 0 90.3559 12.0634 1090 92.1771 536.252 475.492
2120 0 95.3617 11.6504 1111 96.0117 536.489 474.421
2121 0 98.3254 11.8789 1168 93.6986 536.354 472.744
2122 0 100.306 12.2126 1225 94.4996 536.402 471.851
2123 0 103.336 11.69 1208 96.0157 536.437 470.802
2124 0 106.464 11.9008 1267 95.2249 536.792 468.991
2125 0 110.263 11.4725 1265 96.2174 535.796 467.614
2126 1 53.2403 11.8332 630 93.027 535.475 497.56
2127 0 55.0817 11.601 639 96.6385 536.39 496.269
2128 0 55.0825 12.2362 674 93.8131 536.288 495.761
2129 0 57.1191 12.9029 737 93.3338 535.727 492.417
2130 0 58.1121 12.2178 710 95.9394 535.763 492.634
2131 0 61.0754 12.2635 749 95.976 535.685 489.805
2132 0 64.0938 12.6377 810 95.8543 536.335 490.23
2133 0 65.1613 12.7069 828 97.0894 536.321 489.55
2134 0 66.1179 11.9786 792 100.677 536.184 487.914
2135 0 69.1012 12.8362 887 99.4904 536.4 487.89
2136 0 68.112 12.2739 836 102.946 536.627 485.446
2137 0 73.0961 12.381 905 100.569 537.564 485.055
2138 0 74.0611 12.4357 921 101.222 537.182 485.337
2139 0 77.097 12.4648 961 100.576 536.702 482.975
2140 0 80.1158 12.794 1025 99.9278 536.398 480.908
2141 0 83.1436 12.7731 1062 99.4454 536.177 480.75
2142 0 84.1334 12.8368 1080 100.543 536.019 478.685
2143 0 87.0714 12.3117 1072 101.84 536.096 477.879
2144 0 88.0676 12.8651 1133 101.531 536.564 476.41
2145 0 91.1615 12.8892 1175 100.844 536.318 474.247
2146 0 94.0642 13.6184 1281 98.5816 536.503 472.074
2147 0 97.1082 14.7567 1433 94.9644 536.434 471.17
2148 0 100.197 15.2699 1530 92.5203 537.553 468.337
2149 0 106.18 15.0028 1593 92.2185 537.198 465.643
2150 0 109.187 14.0035 1529 94.8077 537.21 463.525
2151 0 110.098 13.2791 1462 97.8468 537.128 465.622
2152 0 113.136 14.6019 1652 92.4679 537.106 465.301
2153 0 118.122 14.8744 1757 92.8469 536.779 460.645
2154 0 122.18 14.0939 1722 95.5685 537.295 461.115
2155 0 123.106 13.3625 1645 98.3058 536.935 460.705
2156 0 128.141 15.0069 1923 93.7707 536.83 454.482
2157 0 133.184 14.296 1904 96.135 536.552 454.319
2158 0 134.19 11.8637 1592 104.692 536.692 457.562
2159 0 141.209 12.7187 1796 103.154 536.138 454.461
2160 0 149.252 11.6381 1737 105.362 537.212 454.778
2161 0 148.276 12.652 1876 105.335 537.55 450.354
2162 0 154.184 13.1272 2024 104.421 536.871 446.57
2163 0 158.247 12.8597 2035 105.334 537.459 446.528
2164 0 164.301 12.4649 2048 106.906 537.104 441.687
2165 0 168.291 12.8943 2170 106.955 536.942 438.935
2166 0 173.294 12.6086 2185 107.268 536.887 437.472
2167 1 95.153 12.1699 1158 103.604 536.978 475.945
2168 0 98.0949 12.7632 1252 100.917 537 474.212
2169 0 101.171 12.6419 1279 101.322 537.24 472.4
2170 0 103.074 12.5735 1296 99.7485 537.118 464.014
2171 0 106.078 12.4437 1320 98.7 537.402 462.336
2172 0 111.115 12.8876 1432 96.0559 537.16 462.017
2173 0 112.067 12.5996 1412 98.1452 537.2 462.381
2174 0 118.071 13.1023 1547 96.033 538.328 460.627
2175 1 45.0294 9.54932 430 91.4046 537.574 495.305
2176 0 44.0248 9.67635 426 89.5704 537.178 494.613
2177 0 47.1008 10.5943 499 85.2786 537.808 493.79
2178 0 49.0866 10.5935 520 86.2154 537.717 494.033
2179 0 51.1014 10.3324 528 86.6098 537.282 495.438
2180 0 52.0536 11.7763 613 84.4454 537.613 495.483
2181 0 55.0398 11.7006 644 87.6134 537.325 495.503
2182 0 54.0223 11.8099 638 87.652 537.379 494.779
2183 0 56.0929 11.6592 654 88.4128 537.827 489.379
2184 0 59.1622 11.8488 701 87.6419 538.038 493.703
2185 0 61.075 12.3782 756 85.9431 538.046 492.684
2186 0 64.0635 12.3471 791 84.7737 537.908 488.516
2187 0 65.0401 12.8997 839 83.8748 537.035 489.974
2188 0 66.0423 11.7803 778 86.9627 537.7 488.641
2189 0 68.0435 11.2869 768 87.9206 537.068 488.828
2190 0 70.0772 11.5587 810 98.1691 537.265 487.569
2191 0 71.1186 11.7831 838 100.601 537.218 486.928
2192 0 76.1273 12.2689 934 95.8137 537.224 486.845
2193 0 78.1495 12.3993 969 94.5955 536.726 485.305
2194 0 80.1064 12.1339 972 93.8909 537.128 484.027
2195 0 82.1212 11.5683 950 90.5737 536.558 481.698
2196 1 39.0444 10.7826 421 91.6817 537.226 502.907
2197 0 40.0231 10.1941 408 93.3309 537.453 501.801
2198 0 41.0481 10.3781 426 94.1596 536.876 502.542
2199 0 45.0645 11.6278 524 91.8893 537.004 500.819
2200 0 47.1392 11.8585 559 90.7746 537.356 500.646
2201 0 48.1661 12.1662 586 99.4864 537.155 499.65
2202 0 48.0297 12.1383 583 94.2796 538.23 499.161
2203 0 51.0691 12.2579 626 92.0815 538.147 499.2
2204 0 53.0316 12.502 663 92.9789 537.658 498.178
2205 0 54.0633 12.2634 663 94.463 537.784 498.903
2206 0 56.0649 12.7887 717 93.9066 537.969 498.296
2207 0 57.0678 12.3537 705 95.8284 537.01 496.922
2208 0 59.0724 12.764 754 95.3024 537.663 496.175
2209 0 63.0689 13.7944 870 92.1345 537.244 496.456
2210 0 63.102 13.4861 851 94.7932 537.583 496.428
2211 0 66.0588 14.1541 935 92.9176 537.368 495.606
2212 0 69.0959 14.1832 980 92.8133 537.381 494.359
2213 0 70.0972 13.2815 931 94.2997 537.47 493.321
2214 0 73.1113 13.6231 996 94.3785 537.816 492.695
2215 0 78.4075 15.4067 1208 82.1482 537.597 487.653
2216 0 77.3679 14.3987 1114 82.395 537.984 486.408
2217 0 77.1936 14.1592 1093 83.57 537.098 488.776
2218 0 81.3592 13.2499 1078 87.1336 536.834 485.019
2219 0 81.1894 13.1667 1069 88.0842 536.874 482.533
2220 0 83.1698 13.0456 1085 89.4719 537.407 480.99
2221 0 87.3226 12.9749 1133 89.3177 536.334 479.184
2222 0 88.067 12.8311 1130 89.8124 536.291 474.475
2223 0 90.1287 13.7137 1236 88.038 536.472 474.947
2224 0 93.0992 13.5877 1265 88.0269 536.742 473.796
2225 0 96.0692 12.8137 1231 90.238 537.128 471.773
2226 0 99.1646 12.7465 1264 90.0831 536.968 470.238
2227 0 103.19 12.918 1333 88.9715 536.269 468.867
2228 0 104.129 12.715 1324 89.1684 536.587 470.185
2229 0 111.221 12.8932 1434 87.9254 536.789 466.157
2230 1 55.2891 11.467 634 88.0079 536.511 497.39
2231 0 57.0646 12.039 687 99.3348 535.987 496.626
2232 0 62.0557 12.7788 793 98.4779 536.697 489.839
2233 0 61.0268 11.9947 732 94.3975 537.014 488.071
2234 0 63.0958 12.7108 802 93.0312 536.223 486.963
2235 0 64.026 11.7296 751 86.9814 536.578 488.237
2236 0 66.045 11.7496 776 86.4987 536.327 486.236
2237 0 68.0899 13.1003 892 82.3969 536.308 481.696
2238 0 68.0733 11.752 800 87.0962 536.242 484.73
2239 0 71.0297 11.7697 836 87.2727 536.763 485.822
2240 0 72.0482 11.992 864 86.5741 536.955 481.751
2241 0 81.1642 13.2571 1076 91.6013 536.905 487.84
2242 0 83.1226 13.847 1151 89.6759 536.546 486.383
2243 0 87.1397 14.253 1242 88.4034 536.511 484.709
2244 0 87.1549 12.713 1108 93.4287 536.452 483.85
2245 0 89.0754 13.3932 1193 91.9933 536.686 481.96
2246 0 93.0942 12.9116 1202 93.0832 536.015 480.136
2247 1 104.217 16.149 1683 80.5781 535.978 474.182
2248 0 107.103 15.3217 1641 82.8726 536.505 473.087
2249 1 54.0597 11.5058 622 97.6463 536.785 499.593
2250 0 56.1276 12.8101 719 94.5563 537.168 498.024
2251 0 58.1858 12.546 730 95.1096 537.196 496.747
2252 0 62.1151 12.8471 798 94.2494 536.931 496.92
2253 0 63.0619 13.2885 838 94.1921 536.696 495.426
2254 0 65.057 13.3729 870 94.0552 536.854 494.237
2255 0 67.1123 13.7084 920 92.488 537.355 493.771
2256 0 69.0642 13.5816 938 92.5469 537.178 493.054
2257 0 73.0938 13.6947 1001 91.1718 537.133 492.269
2258 0 75.0714 13.9867 1050 91.0438 536.817 491.029
2259 0 75.055 14.0697 1056 91.5919 536.299 489.187
2260 0 78.1884 14.3883 1125 90.5636 536.164 488.298
2261 0 81.0978 13.7735 1117 91.9714 536.477 486.802
2262 0 82.0709 14.2682 1171 91.9684 536.688 484.482
2263 0 83.1367 13.6883 1138 91.0967 537.103 485.83
2264 0 85.1202 12.547 1068 95.7032 537.331 485.684
2265 0 86.0656 12.7809 1100 96.1109 537.157 484.199
2266 0 91.1335 13.4857 1229 93.0252 537.685 483.127
2267 0 95.1458 13.3269 1268 93.776 537.104 480.833
2268 0 98.1849 13.3422 1310 93.2076 536.866 482.065
2269 0 102.151 13.9598 1426 92.5533 536.847 478.102
2270 0 105.251 14.1472 1489 92.1249 537.075 476.158
2271 0 107.286 13.6085 1460 93.4685 536.712 474.96
2272 0 109.193 13.5632 1481 93.2627 536.531 473.146
2273 0 112.218 13.4293 1507 93.6257 537.239 473.203
2274 0 117.194 13.1747 1544 93.4566 537.588 469.559
2275 0 122.224 13.5325 1654 91.0145 537.031 467.66
2276 0 126.17 13.7513 1735 90.7919 536.979 464.317
2277 0 130.256 13.4044 1746 92.3414 536.742 462.797
2278 1 69.0842 11.2472 777 92.5161 536.004 491.266
2279 0 72.1517 11.4758 828 91.6135 536.588 491.057
2280 0 75.0781 10.9086 819 93.6874 536.995 487.167
2281 0 78.1737 12.0373 941 91.3262 535.993 486.334
2282 0 78.1137 11.7521 918 80.6231 536.135 482.663
2283 0 81.0832 12.3577 1002 79.5269 536.451 482.332
2284 0 83.1074 11.7198 974 81.8162 536.679 479.248
2285 0 87.1491 11.8762 1035 82.087 537.161 477.556
2286 0 87.0344 11.9953 1044 82.7988 536.063 473.906
2287 0 92.1754 12.3786 1141 83.4242 535.736 479.661
2288 0 96.162 12.1046 1164 90.1873 535.443 480.807
2289 0 106.156 15.0062 1593 80.0678 535.689 473.835
2290 0 110.352 14.8978 1644 79.7932 535.941 472.003
2291 0 112.289 16.1369 1812 77.314 536.409 471.827
2292 0 113.453 14.9312 1694 80.3495 536.164 470.064
2293 0 114.155 14.0862 1608 83.8321 536.042 470.029
2294 0 114.19 12.7944 1461 88.3463 536.921 475.648
2295 0 117.179 13.1167 1537 86.9219 536.462 471.985
2296 0 121.374 11.6994 1420 88.9803 536.806 469.337
2297 0 127.07 13.3076 1691 85.7966 536.229 463.041
2298 0 134.192 14.6059 1960 82.2776 536.093 455.129
2299 1 71.1298 10.6003 754 93.2652 536.268 490.39
2300 0 73.0679 10.5655 772 94.421 536.576 490.446
2301 0 75.2685 11.6516 877 89.1893 536.374 488.643
2302 0 79.1593 12.039 953 88.4648 536.6 486.389
2303 0 83.2811 12.1997 1016 87.6112 537.321 484.983
2304 0 85.2247 11.9684 1020 87.4294 537.198 483.148
2305 0 87.2427 12.6773 1106 86.5018 537.031 479.948
2306 0 87.1672 11.1969 976 94.1967 537.049 478.843
2307 0 97.4022 13.511 1316 85.6998 536.381 480.789
2308 0 102.484 13.4363 1377 82.2447 535.769 479.727
2309 0 103.257 13.5487 1399 81.3595 536.034 476.866
2310 0 105.279 13.5925 1431 83.2334 536.407 475.466
2311 0 108.44 13.4729 1461 84.1554 536.662 474.16
2312 0 112.255 12.9883 1458 84.299 536.951 472.539
2313 0 112.23 13.1159 1472 86.3166 536.118 468.546
2314 0 118.215 13.3147 1574 84.9924 535.36 468.712
2315 0 120.263 13.4455 1617 85.3828 535.325 465.034
2316 0 123.245 13.4529 1658 85.2865 536.151 465.884
2317 0 126.424 13.0355 1648 86.6863 536.7 462.393
2318 0 132.244 13.2558 1753 86.255 536.2 460.758
2319 0 135.29 13.3122 1801 86.8318 535.833 459.509
2320 0 142.331 13.1173 1867 86.6802 535.614 458.065
2321 0 146.434 13.6375 1997 85.3916 535.856 456.114
2322 0 152.355 13.7508 2095 85.3165 535.523 453.632
2323 0 156.32 13.8945 2172 85.9738 535.728 451.001
2324 0 162.32 13.9662 2267 87.4905 535.394 449.606
2325 1 84.2992 12.1235 1022 94.8356 535.421 486.02
2326 0 86.2318 11.9445 1030 95.1874 536.006 483.594
2327 0 87.2802 12.7062 1109 95.1668 536.393 482.49
2328 0 93.2292 13.8583 1292 92.5248 536.411 479.831
2329 0 93.195 13.4878 1257 91.4972 536.119 478.537
2330 0 96.1686 13.4139 1290 92.793 535.836 477.885
2331 0 101.192 13.9438 1411 91.0333 536.281 475.305
2332 0 103.219 13.515 1395 95.276 537.241 474.948
2333 0 106.138 13.4636 1429 97.86 536.845 471.739
2334 0 108.23 13.6376 1476 97.8062 536.81 471.831
2335 0 113.261 13.1555 1490 98.7436 537.683 470.289
2336 0 116.3 13.8607 1612 97.0962 536.783 470.858
2337 0 122.269 13.9202 1702 97.0106 536.911 468.025
2338 0 127.211 14.2362 1811 97.1888 536.492 466.446
2339 1 67.1727 13.1154 881 96.5812 536.502 496.297
2340 0 71.1167 13.4005 953 95.9864 537.262 495.678
2341 0 71.0797 13.7451 977 97.7687 536.762 493.876
2342 0 78.132 16.0754 1256 89.496 537.634 490.483
2343 0 84.2148 17.1823 1447 83.6607 537.09 485.772
2344 0 84.0861 17.4702 1469 85.1981 537.043 486.588
2345 0 91.2378 17.9421 1637 81.2175 536.949 485.913
2346 0 91.1431 17.8072 1623 82.7357 537.975 482.59
2347 0 93.197 17.2323 1606 86.0199 537.905 483.568
2348 0 94.0949 16.9191 1592 88.8342 537.173 484.937
2349 0 95.1277 16.3359 1554 91.5734 537.337 484.725
2350 0 99.0571 16.8993 1674 89.0944 536.714 483.666
2351 0 100.137 16.038 1606 93.647 535.983 483.278
2352 0 101.097 15.3912 1556 97.0604 536.139 483.186
2353 0 103.108 14.0823 1452 101.211 536.209 484.441
2354 0 108.181 17.2489 1866 92.2814 535.462 478.917
2355 0 113.148 17.3136 1959 92.5722 535.658 476.176
2356 0 113.192 14.5681 1649 103.907 535.246 481.02
2357 0 116.127 14.4755 1681 105.008 535.339 478.506
2358 0 121.184 14.2016 1721 105.354 535.42 477.749
2359 0 125.22 14.207 1779 104.758 534.654 477.619
2360 1 66.1396 13.668 904 108.613 534.957 503.433
2361 0 68.1007 14.1408 963 107.213 534.592 504.144
2362 0 72.1536 14.4137 1040 105.688 534.671 502.465
2363 0 73.1993 14.6313 1071 106.923 534.405 500.731
2364 0 76.2103 15.536 1184 104.443 534.155 500.112
2365 0 77.0978 15.0328 1159 108.271 534.12 498.889
2366 0 79.1083 15.0174 1188 109.379 534.189 496.257
2367 0 82.1454 15.2778 1255 109.622 533.469 495.731
2368 0 85.1249 15.3656 1308 109.961 533.536 495.05
2369 0 86.1721 15.2602 1315 111.12 535.291 494.024
2370 0 89.1576 15.4558 1378 112.457 533.58 490.981
2371 0 90.1711 15.4928 1397 114.402 533.276 490.13
2372 0 94.1486 15.8154 1489 113.533 532.756 489.459
2373 0 97.2336 16.3215 1587 112.646 532.914 487.795
2374 0 100.208 16.0466 1608 114.111 532.945 486.146
2375 0 105.226 17.4197 1833 109.486 533.257 483.528
2376 0 105.191 15.7333 1655 116.364 533.388 484.871
2377 0 111.168 17.9907 2000 108.372 533.876 481.058
2378 0 115.239 18.5267 2135 105.526 534.093 477.632
2379 0 115.228 17.3396 1998 111.815 534.144 477.876
2380 0 118.19 16.2873 1925 115.974 533.88 477.026
2381 0 121.186 16.3137 1977 116.769 533.086 475.699
2382 0 125.176 16.1133 2017 117.491 533.585 472.152
2383 0 127.165 15.6883 1995 119.705 533.781 472.65
2384 0 131.179 15.6123 2048 120.021 533.781 472.307
2385 0 136.236 15.1942 2070 121.645 532.949 467.988
2386 0 141.295 15.2872 2160 120.703 534.273 467.767
2387 0 144.236 15.3984 2221 121.701 534.389 464.865
2388 0 148.263 15.2162 2256 121.982 534.214 462.603
2389 0 159.29 17.2013 2740 113.535 533.936 455.859
2390 1 76.2486 13.574 1035 128.373 533.728 494.829
2391 0 80.2144 14.9973 1203 124.089 534.794 493.134
2392 0 82.2742 14.5246 1195 126.294 534.518 490.848
2393 0 83.3147 15.0514 1254 126.116 534.628 488.377
2394 0 87.2929 15.2704 1333 123.752 534.827 487.763
2395 0 90.188 15.0131 1354 124.043 535.378 485.161
2396 0 91.3163 15.1342 1382 124.106 534.841 484.075
2397 0 95.2734 15.6497 1491 121.321 535.375 481.346
2398 0 99.2948 14.9252 1482 122.893 534.615 480.902
2399 0 102.355 14.9285 1528 121.33 534.071 479.643
2400 0 104.329 15.154 1581 120.794 534.824 476.833
2401 0 108.37 15.161 1643 120.381 534.698 475.844
2402 0 111.305 15.0577 1676 120.487 534.813 474.174
2403 0 113.246 14.7378 1669 121.725 534.295 472.997
2404 0 118.307 14.4031 1704 122.538 534.548 470.756
2405 0 122.313 15.0024 1835 119.319 535.356 470.602
2406 0 125.301 15.0357 1884 118.856 535.753 468.037
2407 0 132.317 18.501 2448 105.839 535.486 461.544
2408 0 135.402 17.8432 2416 108.921 535.865 460.201
2409 0 144.336 18.0413 2604 105.442 535.822 457.321
2410 1 71.2163 13.6767 974 113.924 536.04 497.082
2411 0 72.213 13.3079 961 114.937 536.908 496.268
2412 0 75.1272 14.2026 1067 112.396 536.204 495.125
2413 0 76.1406 14.2631 1086 113.053 536.083 492.842
2414 0 79.0941 14.9063 1179 110.688 535.814 491.877
2415 0 81.1254 14.8782 1207 111.186 536.188 490.768
2416 0 86.1506 15.2872 1317 115.812 536.162 487.998
2417 0 88.1895 15.0585 1328 115.279 535.91 487.45
2418 0 91.128 14.9021 1358 114.248 535.51 485.736
2419 1 41.1173 12.4036 510 118.529 536.969 509.641
2420 0 43.1704 13.3193 575 115.929 537.071 510.603
2421 0 46.195 13.1183 606 114.762 537.384 509.731
2422 0 48.2236 13.4581 649 114.803 537.325 507.863
2423 0 48.2849 14.1659 684 114.621 537.471 506.794
2424 0 49.2639 14.2701 703 115.583 536.969 506.724
2425 0 51.2156 14.273 731 115.528 537.651 506.041
2426 0 53.3305 14.532 775 114.453 536.907 502.954
2427 0 55.2976 14.431 798 115.135 536.979 502.436
2428 0 54.2805 15.1067 820 115.684 536.401 501.444
2429 0 57.3935 15.2108 873 114.641 535.648 501.415
2430 0 59.2394 15.2095 901 115.396 536.396 501.364
2431 0 60.2289 15.0094 904 115.841 536.729 500.228
2432 0 54.4384 14.3832 783 135.29 536.757 500.361
2433 0 57.4293 14.6789 843 130.412 536.561 502.146
2434 0 60.4152 14.5162 877 128.978 536.58 500.599
2435 0 59.3473 14.7943 878 129.19 536.864 500.041
2436 0 62.3412 14.549 907 128.299 535.804 498.986
2437 0 64.3101 14.8499 955 125.827 535.873 498.623
2438 0 65.387 14.8042 968 125.225 535.893 496.752
2439 0 66.339 14.6369 971 125.456 536.244 496.454
2440 0 70.3646 14.8796 1047 123.084 535.929 494.65
2441 0 71.4012 14.2435 1017 124.682 536.331 496.226
2442 0 73.4239 15.6761 1151 119.384 536.398 492.037
2443 0 76.545 15.5072 1187 119.189 536.452 490.429
2444 0 78.5304 14.7077 1155 122.333 536.655 490.842
2445 0 79.3825 14.512 1152 124.087 536.727 490.744
2446 0 84.4245 15.5642 1314 119.913 536.87 489.234
2447 0 87.4666 16.1204 1410 118.678 536.384 488.688
2448 0 87.4002 15.5263 1357 123.291 536.658 486.575
2449 0 90.5271 15.233 1379 124.893 536.782 486.398
2450 0 93.4899 15.7878 1476 123.694 536.752 485.806
2451 0 97.4904 16.0836 1568 123.188 536.457 483.911
2452 0 98.4598 15.6307 1539 126.396 535.969 483.335
2453 0 101.556 15.2526 1549 127.638 536.712 482.404
2454 0 104.336 15.1721 1583 128.217 535.681 480.378
2455 0 109.358 15.6824 1715 124.878 536.272 479.437
2456 0 116.427 17.8652 2080 114.745 536.516 474.415
2457 0 115.426 18.2974 2112 116.285 536.214 473.431
2458 0 119.373 17.215 2055 120.389 536.699 473.099
2459 0 122.344 16.2002 1982 125.266 536.949 470.782
2460 0 125.342 15.2783 1915 130.18 536.843 470.965
2461 0 126.376 15.2798 1931 131.077 536.706 469.157
2462 0 129.264 15.302 1978 132.36 535.325 467.94
2463 0 133.281 15.1559 2020 132.741 536.026 466.936
2464 0 136.246 15.5014 2112 132.266 535.978 463.697
2465 0 141.285 16.265 2298 129.87 535.572 460.956
2466 0 143.296 16.6299 2383 129.98 535.201 461.145
2467 0 147.273 17.1043 2519 129.667 535.638 459.003
2468 0 151.3 16.1203 2439 133.295 535.38 456.9
2469 0 154.215 16.5678 2555 132.966 536.262 455.862
2470 0 158.299 16.1656 2559 134.848 535.705 452.731
2471 0 164.239 15.9889 2626 134.662 535.713 449.98
2472 0 170.24 17.0641 2905 130.772 535.766 448.509
2473 0 175.214 16.6767 2922 131.661 535.907 445.368
2474 0 182.204 17.3597 3163 128.886 535.728 442.017
2475 0 187.23 16.9738 3178 130.779 536.078 439.443
2476 0 193.278 17.2239 3329 130.086 536.27 435.932
2477 1 152.25 14.3186 2180 144.747 536.366 460.709
2478 0 158.248 14.3382 2269 145.767 535.944 457.571
2479 0 162.17 14.935 2422 144.712 535.799 453.651
2480 0 168.184 15.4117 2592 142.647 535.585 450.993
2481 0 173.23 15.3899 2666 143.299 536.243 449.341
2482 0 178.383 15.2761 2725 143.211 536.256 444.699
2483 0 183.337 15.5943 2859 140.918 536.253 443.226
2484 0 191.448 15.1425 2899 139.105 536.82 439.577
2485 0 197.349 15.8501 3128 137.575 536.724 437.106
2486 0 201.476 15.3418 3091 140.007 536.679 433.144
2487 0 206.421 15.5701 3214 139.902 536.833 430.392
2488 1 161.382 13.4091 2164 146.748 536.74 456.058
2489 0 166.413 13.9172 2316 146.728 536.428 450.134
2490 0 171.337 15.2156 2607 140.922 536.316 448.444
2491 0 176.426 15.4682 2729 141.705 536.335 445.378
2492 0 180.346 14.9546 2697 143.948 536.463 442.954
2493 0 184.407 15.1133 2787 144.628 535.783 442.094
2494 0 191.454 15.3301 2935 143.404 535.074 440.77
2495 1 140.404 13.4825 1893 150.545 535.116 466.631
2496 0 144.515 13.6733 1976 148.339 534.915 465.633
2497 0 150.501 14.2126 2139 147.109 534.975 461.199
2498 0 155.469 14.9869 2330 143.972 535.495 458.794
2499 0 160.427 14.8416 2381 143.86 535.707 455.054
2500 0 169.542 15.6834 2659 140.322 535.173 451.723
2501 0 174.478 16.151 2818 138.537 535.197 449.49
2502 0 179.377 15.9998 2870 139.181 535.21 447.636
2503 0 183.461 16.5594 3038 136.928 535.451 443.019
2504 0 187.549 16.3264 3062 137.806 535.793 440.149
2505 0 191.35 15.746 3013 141.552 535.346 437.645
2506 0 197.487 15.5504 3071 141.909 535.451 434.006
2507 0 202.451 15.5248 3143 142.732 534.785 432.383
2508 0 211.448 15.7864 3338 140.989 535.819 428.968
2509 0 216.254 15.6945 3394 142.318 535.804 425.554
2510 0 221.221 15.3557 3397 143.067 535.303 422.559
2511 0 229.306 15.6559 3590 142.547 535.113 420.278
2512 1 176.246 13.867 2444 150.97 535.122 443.872
2513 0 184.293 14.5584 2683 148.393 535.65 442.905
2514 0 190.337 14.9629 2848 147.871 535.053 437.457
2515 0 194.33 15.0671 2928 146.8 534.893 433.47
2516 0 200.285 15.1234 3029 145.323 534.958 431.973
2517 0 207.234 15.4945 3211 142.924 535.62 427.43
2518 0 214.232 14.9277 3198 144.182 535.391 423.638
2519 0 221.289 14.9488 3308 145.498 535.288 420.239
2520 0 227.305 15.2966 3477 145.164 535.353 416.271
2521 0 235.166 15.1383 3560 145.799 534.836 414.158
2522 0 242.254 15.0751 3652 144.982 535.099 409.609
2523 0 248.225 15.3409 3808 143.763 535.356 407.474
2524 1 197.199 13.6512 2692 144.91 535.18 434.121
2525 0 204.145 14.8081 3023 140.551 534.804 431.219
2526 0 209.157 14.4915 3031 140.439 534.126 428.372
2527 0 217.246 15.3835 3342 136.626 534.687 424.045
2528 0 224.278 15.24 3418 136.248 535.491 422.27
2529 0 231.203 15.441 3570 135.233 535.051 416.789
2530 0 236.392 15.2628 3608 137.649 534.515 412.377
2531 0 243.571 14.7883 3602 140.868 534.667 408.213
2532 0 249.39 14.9565 3730 141.283 534.022 406.724
2533 0 257.443 14.9431 3847 143.279 533.927 403.819
2534 0 265.385 14.8765 3948 143.566 533.702 398.942
2535 0 265.378 14.858 3943 180.037 534.693 398.952
2536 1 284.418 15.6355 4447 142.641 533.386 390.928
2537 0 292.416 15.348 4488 144.043 534.329 383.251
2538 0 301.629 15.3831 4640 146.323 534.314 379.846
2539 0 310.525 15.2774 4744 145.821 533.831 372.324
2540 0 317.452 16.9191 5371 140.093 533.666 365.38
2541 0 326.457 17.4265 5689 138.167 533.665 360.872
2542 0 336.545 17.4271 5865 138.6 533.438 354.676
2543 0 343.731 17.3566 5966 140.804 534.318 350.685
2544 0 352.738 16.3464 5766 145.856 534.38 345.925
2545 0 364.837 17.2515 6294 142.151 534.052 341.588
2546 0 374.836 16.8153 6303 145.785 534 335.446
2547 0 384.056 16.8569 6474 145.399 534.542 328.119
2548 1 53.328 12.3575 659 132.335 535.656 495.762
2549 0 52.0515 13.8325 720 133.906 535.553 492.083
2550 0 58.2351 13.3081 775 131.902 534.555 492.432
2551 0 61.4719 14.0064 861 133.11 534.682 493
2552 0 68.614 16.8916 1159 115.555 535.354 489.94
2553 0 69.4791 17.5448 1219 114.486 535.561 487.6
2554 0 74.5317 17.1202 1276 113.838 536.295 487.108
2555 0 77.4838 16.9971 1317 113.876 536.373 487.564
2556 0 76.4752 15.8483 1212 120.785 536.613 486.407
2557 0 76.3756 15.6856 1198 123.73 535.685 486.225
2558 0 74.2839 15.535 1154 124.273 535.245 484.813
2559 1 90.2008 17.838 1609 102.378 535.848 480.554
2560 0 87.2157 16.4305 1433 109.798 535.299 479.123
2561 0 84.1423 14.7726 1243 120.803 534.941 482.278
2562 0 87.1723 12.7449 1111 128.247 535.425 484.014
2563 1 46.3642 9.87831 458 122.024 534.402 498.026
2564 0 47.4525 11.2323 533 117.612 534.749 496.927
2565 0 50.2681 11.4586 576 114.911 534.998 493.064
2566 0 49.3819 12.454 615 116.05 535.306 482.885
2567 0 52.4447 12.5847 660 114.515 535.379 476.439
2568 0 53.4843 12.0035 642 116.656 535.372 474.969
2569 0 53.5373 12.0477 645 119.194 536.011 472.093
2570 0 55.4542 12.1361 673 116.948 535.823 472.73
2571 0 58.3387 13.1302 766 114.081 535.796 478.683
2572 0 58.39 13.2386 773 112.675 535.841 488.017
2573 0 58.4422 12.8674 752 113.564 535.254 496.487
2574 0 62.4315 13.0062 812 111.516 535.507 495.544
2575 0 72.2416 17.4553 1261 98.4251 535.559 491.857
2576 0 78.3725 17.1233 1342 95.1982 535.378 488.816
2577 0 78.3802 17.3641 1361 90.5709 535.596 488.24
2578 0 77.3102 17.6044 1361 93.576 535.754 488.048
2579 0 78.4065 17.2817 1355 96.4657 535.209 487.151
2580 0 78.3163 16.6887 1307 101.29 535.49 487.135
2581 0 75.317 16.7027 1258 104.408 535.885 487.629
2582 0 77.1464 18.4584 1424 101.661 534.761 486.879
2583 0 79.4502 17.1302 1361 102.999 535.694 485.515
2584 0 79.2546 15.3177 1214 109.303 536.345 486.106
2585 0 82.3711 14.6653 1208 109.324 536.373 483.58
2586 0 84.445 13.4881 1139 112.125 536.76 484.429
2587 0 85.6389 13.9656 1196 109.635 536.732 482.252
2588 1 8.00158 7.99842 64 78.9531 538.812 520.281
2589 0 10.0311 9.17151 92 76.8913 537.456 519.837
2590 0 9.02059 10.1989 92 77.0217 537.38 520.087
2591 0 9.02065 9.97711 90 76.3556 537.356 519.844
2592 0 10.0128 9.98724 100 77.29 536.76 519.69
2593 0 10.0036 8.99672 90 78.8556 537.856 516.911
2594 0 9.00268 7.33115 66 78.2727 538.894 517.03
2595 0 11.0114 7.71927 85 76.4941 537.659 515.882
2596 0 9.00368 10.107 91 75.7253 537.681 516.297
2597 0 10.0063 10.6933 107 76.1122 537.86 516.019
2598 0 11.0086 9.53797 105 76.1238 537.867 514.743
2599 0 11.0086 9.53797 105 97.781 536.867 514.743
2600 0 11.0261 8.70665 96 77.6354 538.698 515.854
2601 0 10.0008 9.4992 95 76.621 538.59 516.547
2602 0 10.0266 10.3725 104 76.2596 537.808 517.25
2603 0 12.0051 7.9133 95 76.8947 538.326 517.147
2604 0 12.0015 10.7486 129 73.9302 537.45 520.535
2605 0 10.0018 9.09839 91 76.1648 536.967 521.198
2606 1 95.5127 12.8674 1229 101.73 536.483 478.594
2607 0 98.5387 13.5277 1333 99.883 537.209 475.53
2608 0 100.812 12.9548 1306 102.008 536.698 474.533
2609 0 104.66 12.9945 1360 101.245 536.671 473.424
2610 0 109.638 13.1889 1446 99.3022 536.279 472.017
2611 0 111.851 12.6776 1418 101.239 536.732 469.311
2612 0 114.807 12.7693 1466 101.424 536.414 466.823
2613 0 117.956 12.4454 1468 101.605 535.942 465.773
2614 0 120.749 13.7558 1661 99.8778 535.961 462.579
2615 0 123.768 12.7415 1577 100.62 536.795 463.283
2616 0 127.809 12.683 1621 101.468 536.588 461.419
2617 0 131.91 12.7283 1679 101.063 536.248 461.225
2618 0 136.976 12.5423 1718 103.347 535.644 458.318
2619 0 140.696 12.3458 1737 104.011 535.781 455.105
2620 0 147.821 12.4677 1843 102.543 535.699 453.56
2621 0 152.138 12.9817 1975 102.003 536.287 451.334
2622 1 82.6664 12.1331 1003 98.992 536.232 487.133
2623 0 83.7564 12.3215 1032 101.07 535.569 484.344
2624 0 87.9751 12.0148 1057 101.23 535.903 482.784
2625 0 91.8455 13.3485 1226 98.4339 536.286 480.352
2626 0 94.1204 13.4296 1264 99.5894 536.116 479.668
2627 0 97.7476 13.0029 1271 102.173 536.384 478.367
2628 0 101.025 13.175 1331 101.772 536.359 476.706
2629 0 105.042 13.5755 1426 101.526 536.642 475.107
2630 0 106.891 13.322 1424 103.206 536.596 473.178
2631 0 110.224 13.1641 1451 104.064 536.42 472.657
2632 0 114.094 13.6291 1555 104.272 535.956 469.694
2633 0 117.999 13.3645 1577 104.967 535.545 468.54
2634 0 120.927 14.3889 1740 103.702 536.666 466.312
2635 0 123.396 14.0847 1738 105.766 536.078 465.719
2636 0 125.902 13.717 1727 107.017 536.075 464.192
2637 0 130.949 14.5018 1899 105.563 536.61 462.448
2638 0 133.892 14.0711 1884 108.505 536.95 461.02
2639 0 136.786 14.3802 1967 107.732 536.881 459.801
2640 0 140.687 14.0738 1980 108.886 537.007 457.736
2641 0 145.557 14.764 2149 107.362 536.658 454.684
2642 0 150.009 14.2858 2143 108.581 536.008 452.526
2643 0 155.115 14.6923 2279 107.048 535.952 449.384
2644 0 160.974 14.5303 2339 108.348 536.207 446.818
2645 0 167.083 14.4299 2411 107.791 536.036 444.73
2646 0 173.914 14.7257 2561 106.419 534.982 441.591
2647 0 177.856 14.1688 2520 108.881 535.254 441.983
2648 0 182.853 14.4871 2649 107.885 536.373 439.114
2649 0 187.84 14.3313 2692 108.597 536.241 435.41
2650 0 195.122 14.2629 2783 108.527 535.822 431.808
2651 0 202.063 14.2975 2889 108.748 535.655 427.132
2652 0 207.134 13.5178 2800 110.613 535.534 424.435
2653 0 216.101 14.1786 3064 107.898 535.322 418.57
2654 0 224.785 13.9956 3146 108.554 536.092 416.74
2655 1 45.673 11.7356 536 103.879 536.138 504.509
2656 0 48.7249 12.6014 614 101.664 535.972 503.034
2657 0 50.6164 12.9602 656 100.096 537.206 503.188
2658 0 50.6235 13.1954 668 102.156 537.076 500.901
2659 0 52.7274 12.9345 682 102.032 536.542 501.007
2660 0 51.6732 12.7919 661 104.464 536.132 500.799
2661 0 52.5795 12.5334 659 106.175 535.78 500.543
2662 0 55.6434 13.8201 769 102.527 536.365 500.191
2663 0 59.8331 13.5209 809 102.693 536.965 498.875
2664 0 58.7581 13.53 795 104.423 536.932 497.596
2665 0 60.8941 13.7616 838 104.369 537.068 496.211
2666 0 64.8599 13.7681 893 103.475 536.954 492.85
2667 0 64.6678 14.2575 922 104.24 536.636 491.64
2668 0 67.6415 13.9116 941 104.175 536.321 490.3
2669 0 71.7291 14.4014 1033 101.616 536.796 490.869
2670 0 71.5486 14.4797 1036 103.415 536.289 489.8
2671 0 71.5993 14.2599 1021 105.539 536.975 488.128
2672 0 74.6365 14.4701 1080 103.15 537.034 486.25
2673 0 75.7719 14.6624 1111 103.817 537.023 485.013
2674 0 83.6289 16.5732 1386 94.557 536.671 480.352
2675 0 83.5047 15.6159 1304 100.301 536.335 481.532
2676 0 83.3892 14.6422 1221 103.998 536.009 481.096
2677 0 84.4147 14.7842 1248 103.399 535.816 479.663
2678 0 88.5809 14.7774 1309 102.264 535.962 478.279
2679 0 92.3837 15.0892 1394 101.819 536.836 477.714
2680 0 93.386 14.681 1371 103.635 536.412 476.306
2681 0 103.331 18.7263 1935 88.8951 535.675 473.94
2682 0 106.391 18.8268 2003 88.4928 535.47 472.146
2683 0 107.398 17.2909 1857 93.0937 535.661 472.405
2684 0 105.404 17.0202 1794 96.0998 535.786 472.197
2685 0 107.364 15.2099 1633 102.667 535.841 472.243
2686 0 110.378 14.9486 1650 103.628 535.852 472.252
2687 0 112.321 15.0017 1685 104.161 535.869 469.886
2688 0 115.236 15.2036 1752 104.618 535.772 468.034
2689 0 123.281 16.872 2080 97.4067 535.911 462.494
2690 0 120.262 14.9507 1798 106.651 535.147 464.638
2691 0 125.229 15.0205 1881 106.74 535.442 460.566
2692 0 127.275 14.5904 1857 109.314 535.106 459.023
2693 0 132.202 14.0467 1857 110.365 535.54 459.326
2694 0 138.15 14.4988 2003 108.825 535.939 456.242
2695 0 142.125 14.5857 2073 108.166 535.906 454.12
2696 0 145.062 14.1801 2057 110.526 535.624 449.493
2697 0 149.139 14.168 2113 111.909 535.425 445.672
2698 0 157.131 14.8093 2327 110.156 536.268 442.568
2699 0 162.247 15.2607 2476 108.432 535.787 439.446
2700 1 77.1341 12.3033 949 112.817 536.296 480.546
2701 0 79.1693 12.1891 965 113.217 536.159 478.896
2702 0 81.2294 12.7171 1033 112.689 535.989 476.988
2703 0 84.1645 13.0221 1096 110.672 535.737 474.271
2704 0 90.1097 13.2283 1192 108.186 536.543 470.614
2705 0 91.0876 12.9546 1180 110.082 536.263 469.403
2706 0 94.1338 13.0984 1233 110.427 535.698 466.714
2707 0 97.1742 12.9355 1257 110.078 535.701 465.473
2708 0 101.097 12.7205 1286 110.994 536.877 462.851
2709 0 102.11 12.9664 1324 112.097 536.134 460.797
2710 0 107.08 13.644 1461 110.227 536.595 459.81
2711 0 112.119 13.5659 1521 109.953 535.939 456.252
2712 0 112.144 13.5005 1514 112.337 535.496 453.534
2713 0 116.115 13.7966 1602 112.027 535.6 451.652
2714 0 122.132 13.6655 1669 111.493 535.79 451.268
2715 0 126.208 13.4461 1697 113.589 535.542 448.556
2716 0 129.187 13.6933 1769 112.709 535.594 445.566
2717 0 133.145 13.6318 1815 113.942 537.013 442.671
2718 0 136.112 13.6431 1857 115.078 535.663 440.386
2719 0 141.176 13.6213 1923 116.106 535.973 440.456
2720 0 143.126 13.8689 1985 117.614 536.255 435.942
2721 0 148.151 13.2095 1957 118.882 536.27 434.397
2722 0 155.097 13.5464 2101 118.108 535.684 432.375
2723 0 157.176 13.4244 2110 118.691 535.474 429.912
2724 0 163.104 13.9604 2277 118.827 535.911 426.213
2725 0 169.255 14.038 2376 118.548 535.461 424.074
2726 0 176.112 14.1557 2493 118.56 535.748 418.277
2727 0 181.146 13.525 2450 120.163 535.953 416.008
2728 0 191.178 13.9085 2659 118.451 536.114 412.697
2729 1 37.017 6.40247 237 87.0844 535.038 499.519
2730 0 34.0122 6.61527 225 76.9067 534.138 502.893
2731 0 35.0354 7.07854 248 76.1169 534.314 503.226
2732 0 37.0227 7.15778 265 77.2415 533.679 501.928
2733 0 39.0149 6.58722 257 78.0195 534.202 501.07
2734 0 39.011 5.51127 215 79.3907 534.558 502.702
2735 0 42.0153 7.28307 306 77.0556 535.471 500.327
2736 0 45.0225 6.84102 308 76.3409 535.201 499.474
2737 0 45.0464 6.97059 314 76.414 535.006 497.424
2738 0 47.0099 7.87068 370 74.0838 535.062 495.765
2739 0 48.015 7.456 358 75.4022 535.654 494.277
2740 0 53.0165 7.88434 418 74.567 535.928 493.581
2741 0 54.0317 8.49502 459 72.7342 535.222 493.85
2742 0 54.0386 7.99429 432 74.9398 535.569 493.053
2743 0 56.0294 7.53177 422 75.9076 535.607 492.749
2744 0 60.0595 8.82458 530 73.1943 534.689 490.711
2745 0 61.1709 8.86042 542 74.0166 535.303 490.09
2746 0 63.0556 8.81762 556 73.8022 536.545 489.795
2747 0 66.1067 9.13674 604 73.5364 536.402 489.343
2748 0 67.128 8.26779 555 75.1243 535.968 488.566
2749 0 68.1049 8.01704 546 78.0751 536.767 488.445
2750 0 68.1073 8.67749 591 77.2504 536.804 486.9
2751 0 72.0918 8.15627 588 77.4694 536.888 487.978
2752 0 348.409 15.3354 5343 111.657 536.097 329.693
2753 1 143.408 6.69419 960 93.8458 537.353 451.848
2754 0 146.324 7.40823 1084 92.2177 537.007 452.615
2755 0 150.299 8.47645 1274 91.5494 537.967 449.772
2756 0 152.398 8.44501 1287 93.3186 537.41 448.598
2757 1 42.0132 8.1879 344 80.5204 536.666 504.515
2758 0 41.0347 8.23694 338 81.7959 536.121 505.059
2759 0 42.0456 8.65727 364 82.8709 535.778 502.64
2760 1 173.659 9.60502 1668 92.7404 536.4 434.638
2761 1 89.2513 8.98586 802 84.793 536.196 481.277
2762 0 91.1163 8.79097 801 86.2809 535.986 480.378
2763 0 93.0972 8.71133 811 86.3502 535.732 479.15
2764 0 98.2898 9.28885 913 85.4085 535.475 474.108
2765 0 99.1379 8.62435 855 87.352 535.932 475.582
2766 0 102.17 8.98502 918 86.5741 535.439 473.977
2767 0 103.167 9.52826 983 86.2055 535.626 470.733
2768 0 106.2 9.86821 1048 86.1403 536.104 471.003
2769 0 110.22 10.234 1128 88.0975 535.897 468.52
2770 0 112.296 9.37703 1053 87.3029 536.121 467.802
2771 0 115.105 9.23504 1063 87.9991 535.944 465.659
2772 0 117.173 9.2769 1087 87.8841 535.477 465.872
2773 0 119.131 8.81385 1050 88.9952 535.305 460.585
2774 0 123.208 9.23642 1138 89.4112 535.248 461.634
2775 0 127.149 9.77593 1243 87.6146 535.481 461.469
2776 0 130.323 9.745 1270 86.9748 535.15 459.078
2777 0 134.315 9.91697 1332 87.0278 535.166 457.714
2778 0 135.246 9.81913 1328 87.9917 535.129 455.764
2779 0 139.295 9.88547 1377 87.5635 535.936 451.423
2780 0 143.31 9.60156 1376 88.5887 535.562 450.243
2781 0 147.243 10.5879 1559 86.5561 535.312 448.431
2782 0 147.323 6.12259 902 92.7439 536.04 453.834
2783 0 150.22 7.81521 1174 87.5375 535.796 461.089
2784 0 150.311 4.8699 732 86.0027 536.31 481.102
2785 0 150.264 5.17755 778 85.3111 536.851 481.824
2786 0 152.183 5.55253 845 86.0189 536.613 480.801
2787 0 150.136 5.08873 764 83.2408 536.635 491.599
2788 0 150.169 4.68139 703 84.9459 536.933 493.829
2789 0 150.129 5.08229 763 88.0131 537.164 487.354
2790 0 149.168 5.08823 759 88.4783 536.817 485.949
2791 0 150.154 6.85298 1029 89.1565 535.861 470.636
2792 0 150.254 9.05131 1360 88.9368 536.492 459.974
2793 0 149.23 8.06136 1203 92.5786 535.648 463.162
2794 0 157.327 10.0364 1579 94.1463 535.817 452.307
2795 0 162.141 10.7499 1743 93.2151 535.345 447.38
2796 0 169.24 11.1557 1888 91.5906 535.441 448.141
2797 0 173.229 11.7128 2029 92.1755 535.174 445.259
2798 0 177.256 11.5539 2048 92.4268 535.27 444.078
2799 0 181.366 11.4465 2076 95.2394 534.663 438.835
2800 0 184.343 11.4189 2105 95.0209 535.241 437.646
2801 0 191.363 11.5958 2219 94.5237 534.962 433.064
2802 0 198.339 12.1257 2405 92.9439 535 427.466
2803 0 202.359 11.8304 2394 93.8856 534.757 423.13
2804 0 211.32 11.9865 2533 92.998 534.736 423.169
2805 0 216.494 12.4068 2686 92.7308 534.184 419.703
2806 0 223.368 12.0205 2685 94.4782 534.676 415.98
2807 1 51.0456 9.57968 489 83.0389 534.164 495.086
2808 0 52.1361 9.91635 517 82.4023 535.224 497.53
2809 0 53.2598 11.0966 591 83.6853 534.015 500.707
2810 0 56.0941 11.5877 650 82.5369 534.678 500.826
2811 0 57.2178 11.1154 636 83.8726 533.788 500.028
2812 0 57.1323 11.4996 657 83.9559 533.951 497.419
2813 0 57.2122 10.5222 602 86.1827 534.156 496.714
2814 0 62.1084 10.691 664 84.8705 534.404 499.459
2815 0 61.0449 10.5168 642 80.8551 533.975 499.759
2816 0 62.0627 10.1349 629 81.8219 534.278 498.941
2817 0 65.1071 10.26 668 81.4925 533.669 497.319
2818 0 66.0837 11.1676 738 80.4255 534.049 496.802
2819 0 68.0616 10.8725 740 79.9257 534.299 497.131
2820 0 70.071 10.9603 768 80.6484 534.557 495.695
2821 0 73.0695 11.6738 853 78.4021 534.763 494.215
2822 0 75.1088 12.0359 904 76.9148 535.068 492.521
2823 0 79.0852 12.1009 957 76.4347 533.96 488.715
2824 0 80.0728 11.4396 916 77.1507 533.333 489.312
2825 0 82.1281 11.8108 970 76.9887 534.661 487.892
2826 0 84.1959 11.984 1009 75.4133 534.705 487.528
2827 1 46.0568 9.53171 439 78.8223 533.679 504.062
2828 0 44.0453 9.12698 402 70.4154 533.796 487.978
2829 0 47.0262 10.1858 479 68.7307 533.791 484.474
2830 0 48.08 9.73378 468 62.5043 534.868 492.57
2831 0 48.0152 9.70525 466 57.1566 535.654 497.036
2832 0 51.0896 10.7458 549 72.8488 533.88 503.321
2833 0 54.015 11.1636 603 67.8939 534.318 504.917
2834 0 56.1894 9.94849 559 69.712 533.785 500.501
2835 0 61.154 12.493 764 64.0759 533.603 484.445
2836 0 62.1501 12.7755 794 63.2821 533.423 484.053
2837 0 63.2523 12.1735 770 64.8078 533.409 485.992
2838 0 64.218 11.6478 748 66.8396 534.1 481.711
2839 0 67.133 12.155 816 66.0404 533.657 485.112
2840 0 67.1368 12.4075 833 66.6387 534.646 484.492
2841 0 68.1969 12.2146 833 67.7707 534.247 485.684
2842 0 72.1786 12.3859 894 66.7729 534.353 481.764
2843 0 74.0948 12.484 925 67.7643 534.066 490.506
2844 0 73.1426 12.4961 914 69.2484 534.51 489.675
2845 0 76.228 12.6988 968 68.7572 534.128 488.737
2846 0 79.2317 12.4066 983 70.1434 534.649 487.454
2847 0 79.1814 12.3135 975 72.2 534.675 487.12
2848 0 82.4398 12.9185 1065 72.4638 534.797 486.122
2849 0 85.2321 12.9881 1107 74.2701 534.781 483.453
2850 0 88.1889 13.0402 1150 75.2096 535.392 482.196
2851 0 92.202 12.8197 1182 76.5432 535.349 479.963
2852 0 93.0687 10.8522 1010 78.5832 535.501 480.721
2853 0 95.143 11.057 1052 78.6892 535.141 481.404
2854 0 97.118 11.4088 1108 79.2735 534.894 480.41
2855 0 100.14 11.0046 1102 82.177 534.13 479.839
2856 1 56.0989 10.4637 587 77.7581 533.983 502.266
2857 0 58.0281 11.3393 658 83.8298 533.137 503.009
2858 0 60.1195 11.8264 711 84.1702 533.442 500.765
2859 0 62.184 11.9967 746 84.9853 535.441 501.229
2860 0 64.2042 13.0521 838 82.1384 534.426 499.956
2861 0 64.2099 12.6927 815 83.5276 535.487 499.087
2862 0 66.1041 12.7224 841 82.2628 536.006 498.115
2863 0 66.1338 13.1098 867 81.6436 535.895 496.582
2864 0 69.1659 12.911 893 81.2508 534.974 495.91
2865 0 71.1562 12.4796 888 81.027 534.659 495.65
2866 0 74.1746 12.902 957 78.8224 534.299 494.06
2867 0 75.2093 13.2563 997 77.8786 535.303 492.477
2868 0 78.1161 12.9807 1014 78.3028 535.43 491.406
2869 0 81.1945 13.2891 1079 76.7424 535.466 489.99
2870 0 83.2473 13.2857 1106 76.8779 534.937 488.431
2871 0 86.204 12.3196 1062 78.6507 535.795 485.815
2872 1 42.0843 10.5503 444 78.2342 534.941 508.705
2873 0 44.109 10.5874 467 77.045 534.869 507.972
2874 0 45.1636 10.8273 489 78.3313 535.184 505.965
2875 0 45.0491 10.8992 491 72.6762 534.654 507.043
2876 0 48.0751 11.3364 545 71.3927 533.965 506.385
2877 0 50.0669 11.3448 568 70.9754 533.928 505.879
2878 0 50.1001 11.3373 568 70.5863 534.477 505.246
2879 0 50.0775 11.0629 554 72.8213 534.105 505.982
2880 0 53.0656 11.6083 616 70.8555 534.529 504.67
2881 0 53.1159 11.4843 610 71.5738 534.479 503.059
2882 0 55.0646 11.6953 644 71.677 534.304 501.548
2883 0 55.0541 11.6431 641 73.0281 534.563 502.36
2884 0 58.0573 11.8504 688 71.625 534.658 501.991
2885 0 58.0653 12.2448 711 71.9789 534.188 500.781
2886 0 57.0789 10.8096 617 75.9271 533.185 501.222
2887 0 61.0666 12.167 743 73.8816 533.799 500.684
2888 0 63.0889 11.9038 751 74.9787 534.254 500.064
2889 0 64.0276 11.3232 725 76.771 533.661 497.597
2890 0 64.0926 10.8905 698 79.1605 533.17 497.258
2891 0 66.0729 10.1857 673 82.7786 533.877 498.226
2892 0 70.0926 11.7273 822 76.3248 534.266 496.286
2893 0 68.0864 11.3679 774 82.8269 534.199 495.021
2894 0 69.051 11.1512 770 85.2156 533.757 495.162
2895 0 70.0571 11.3051 792 80.7437 533.956 495.756
2896 0 69.0663 10.4972 725 85.4814 533.56 493.542
2897 0 71.044 10.7257 762 85.5564 534.482 495.247
2898 0 72.092 10.9166 787 86.6137 534.268 495.706
2899 0 72.0374 10.2724 740 88.2149 533.912 495.145
2900 1 41.0264 10.2617 421 86.4798 533.656 507.442
2901 0 44.0129 10.6787 470 82.1766 534.26 507.738
2902 0 43.0127 11.113 478 82.4665 534.084 507.37
2903 0 45.0201 11.1061 500 79.956 533.24 505.864
2904 0 47.0308 11.2692 530 78.5585 533.023 504.749
2905 0 47.0274 11.5677 544 76.9504 535.379 504.04
2906 0 46.0446 11.0979 511 75.8532 535.446 505.198
2907 0 46.0273 10.711 493 76.718 536.061 505.28
2908 0 46.0312 10.2322 471 78.8365 535.575 505.571
2909 0 50.0191 10.9158 546 75.2491 535.518 505.152
2910 0 51.0074 10.5475 538 78.4089 536.104 503.431
2911 0 51.0463 10.4219 532 81.0771 536.085 503.517
2912 0 53.0349 10.8608 576 81.1372 535.684 502.997
2913 0 54.0457 10.6947 578 81.9827 535.74 503.623
2914 0 56.0339 10.2973 577 82.2912 536.125 503.165
2915 0 57.0423 10.8516 619 82.8142 536.255 501.237
2916 0 58.0291 10.2879 597 85.1357 535.975 500.611
2917 0 61.0476 10.6802 652 82.9954 535.575 501.471
2918 0 61.0389 10.4687 639 86.0391 535.463 498.82
2919 0 61.0542 10.3351 631 88.4675 535.548 499.54
2920 0 66.0949 11.0598 731 87.4555 535.349 498.424
2921 0 66.036 10.6154 701 90.4436 535.531 497.078
2922 0 70.1531 10.919 766 91.0509 535.072 496.373
2923 1 38.0632 9.95712 379 93.2638 534.776 511.317
2924 0 38.0651 10.3507 394 95.4645 535.015 510.718
2925 0 39.0698 10.8012 422 97.1327 534.772 509.133
2926 0 41.0786 11.3441 466 95.6438 534.652 510.273
2927 0 38.0071 9.62978 366 98.9481 533.566 512.639
2928 0 40.0037 9.67412 387 101.116 533.822 511.346
2929 0 41.0141 9.99655 410 100.915 534.127 512.073
2930 0 40.018 9.82059 393 105.41 534.438 511.186
2931 0 42.0063 9.90327 416 106.988 534.423 511.216
2932 0 43.0043 10.092 434 108.961 534.719 510.237
2933 0 43.0078 10.1377 436 111.601 534.154 509.323
2934 0 44.0109 10.3838 457 111.875 534.926 508.764
2935 0 48.0124 10.5181 505 111.838 533.81 509.075
2936 0 48.0107 10.6643 512 114.418 533.75 507.262
2937 0 49.0116 10.9974 539 114.178 533.842 507.881
2938 0 51.0139 11.193 571 113.518 533.977 507.426
2939 0 51.0099 10.6254 542 117.338 534.004 505.941
2940 0 54.029 11.3273 612 114.77 534.008 505.132
2941 0 54.013 10.8677 587 117.129 534.951 504.065
2942 0 56.0162 11.1218 623 116.352 534.441 504.591
2943 0 56.0552 11.0427 619 117.868 534.457 504.409
2944 0 58.0143 11.3248 657 117.683 534.633 503.82
2945 0 61.0558 11.6287 710 115.551 535.211 500.651
2946 0 62.0445 11.8786 737 114.273 535.684 500.763
2947 0 64.0207 11.3557 727 116.736 535.638 499.312
2948 0 65.0787 11.294 735 116.816 535.724 499.257
2949 0 69.0527 11.3102 781 115.677 535.332 498.25
2950 0 70.1098 11.753 824 113.485 534.309 497.573
2951 0 73.0392 11.4322 835 112.959 533.771 496.689
2952 0 76.0648 12.2264 930 110.859 534.626 494.618
2953 0 78.0565 11.812 922 112.482 534.388 493.445
2954 0 80.056 11.9791 959 112.753 535.381 492.049
2955 0 84.0382 12.2563 1030 110.262 534.53 491.019
2956 0 86.0475 12.3072 1059 109.272 534.272 489.756
2957 0 91.0475 12.6308 1150 107.01 534.058 487.815
2958 1 47.0266 10.5259 495 111.545 534.457 508.053
2959 0 48.0228 10.4742 503 111.39 534.191 506.94
2960 0 49.0442 11.663 572 108.378 534.019 506.374
2961 0 52.0794 12.1737 634 106.793 533.714 505.077
2962 0 52.1421 11.9673 624 108.966 534.064 504.812
2963 0 54.0461 11.2867 610 115.877 534.066 505.013
2964 0 54.0686 11.3005 611 115.938 534.239 503.841
2965 0 56.0619 11.8797 666 113.116 534.65 502.553
2966 0 58.061 12.0218 698 112.155 534.148 503.109
2967 0 61.0956 11.8666 725 110.655 533.997 502.393
2968 0 62.1003 11.6747 725 110.582 534.752 502.028
2969 0 64.0594 11.5518 740 104.364 535.989 499.823
2970 0 65.0386 11.4086 742 105.085 535.823 498.323
2971 0 67.0357 11.4864 770 104.76 535.997 498.892
2972 0 70.0828 10.8729 762 105.324 535.951 497.415
2973 0 71.0353 10.2344 727 107.435 536.293 496.118
2974 0 75.0863 11.5867 870 102.761 534.82 492.991
2975 0 79.0899 11.8726 939 100.885 535.388 492.075
2976 0 81.0664 12.1752 987 100.106 534.847 491.547
2977 0 84.1098 11.8654 998 101.929 534.096 489.263
2978 0 86.0806 12.314 1060 100.756 534.326 488.632
2979 0 89.0843 12.157 1083 100.942 533.932 487.577
2980 0 93.0392 12.8011 1191 98.2049 534.207 485.767
2981 0 96.1254 11.7035 1125 99.7004 534.812 481.873
2982 0 96.0617 11.3365 1089 100.599 534.641 481.264
2983 0 101.116 11.4226 1155 99.9801 534.612 478.714
2984 0 103.101 11.7457 1211 98.673 534.782 475.036
2985 0 108.039 11.7273 1267 96.9503 535.51 474.546
2986 1 56.0138 10.2832 576 93.3455 535.408 500.53
2987 0 59.0558 12.0902 714 93.8039 534.8 499.859
2988 0 61.1235 13.0555 798 99.8333 534.667 498.599
2989 0 64.0506 13.6611 875 98.088 533.973 498.473
2990 0 67.0633 13.3307 894 98.0056 534.012 499.024
2991 0 69.0777 13.4486 929 98.3854 534.095 497.748
2992 0 71.0799 13.6888 973 97.3628 534.07 496.904
2993 0 73.0725 14.2735 1043 95.9789 533.482 494.384
2994 0 74.0778 13.6748 1013 98.4916 533.569 493.136
2995 0 78.0354 14.1859 1107 95.0145 534.414 492.666
2996 0 79.0949 14.1728 1121 95.8778 534.564 490.756
2997 0 84.0473 14.1349 1188 95.5059 535.082 489.913
2998 0 85.0886 13.5153 1150 97.8878 535.343 488.52
2999 0 88.0504 13.3219 1173 96.7511 534.558 485.347
3000 0 90.0506 13.3925 1206 96.5556 534.893 483.626
3001 0 92.0406 13.3202 1226 96.4633 534.802 483.234
3002 0 96.028 13.319 1279 95.5364 534.845 480.443
3003 1 50.0644 11.5851 580 101.288 535.222 503.578
3004 0 53.0196 12.6368 670 97.7851 535.478 503.391
3005 0 55.023 12.3403 679 92.4698 534.758 502.832
3006 0 56.0522 12.2921 689 88.8273 534.935 502.213
3007 0 56.0346 12.3138 690 89.6261 534.981 501.591
3008 0 59.0739 12.696 750 87.1053 534.471 499.825
3009 0 60.0646 12.4366 747 88.166 534.111 498.885
3010 0 61.1228 13.0884 800 86.5012 534.889 498.961
3011 0 63.0623 12.7334 803 86.7808 534.334 498.057
3012 0 64.0762 11.8141 757 88.5575 534.859 496.126
3013 0 68.1125 12.2298 833 85.617 534.954 496.194
3014 0 69.0291 12.1978 842 85.9097 535.154 493.519
3015 0 71.0471 12.1046 860 85.386 534.849 492.471
3016 0 73.0796 12.0554 881 84.9444 534.571 491.658
3017 0 76.1106 12.2453 932 85.2028 534.49 489.466
3018 0 80.0874 12.1867 976 82.7336 534.868 489.241
3019 0 82.088 11.9262 979 83.9295 535.045 487.097
3020 0 84.1441 12.027 1012 83.8617 535.137 485.983
3021 0 88.092 12.4415 1096 81.9343 536.001 484.574
3022 0 89.1351 11.8023 1052 84.7804 535.513 483.577
3023 1 50.0511 11.4083 571 86.4834 536.751 503.982
3024 0 50.038 10.9317 547 91.3382 536.035 502.532
3025 0 50.1599 9.52953 478 85.9958 535.797 497.37
3026 0 52.0522 10.2974 536 78.2313 536.215 498.983
3027 0 54.0374 10.3077 557 78.456 535.795 499.921
3028 0 54.0249 9.75477 527 79.1044 535.611 498.455
3029 0 55.0287 10.1583 559 79.4902 535.93 497.209
3030 0 57.0714 10.7059 611 89.18 536.182 501.007
3031 0 61.0868 12.0648 737 85.7124 536.286 500.179
3032 0 62.1024 11.5454 717 87.2985 535.888 499.467
3033 0 63.0698 11.2732 711 88.8903 536.28 498.626
3034 0 64.1011 11.7159 751 87.6618 536.875 497.326
3035 0 66.1066 11.2546 744 88.7554 536.254 496.46
3036 0 70.1531 11.817 829 85.5018 535.415 495.075
3037 0 73.1532 11.3734 832 87.6719 535.609 492.999
3038 0 75.1779 11.6124 873 86.197 535.194 491.838
3039 0 77.1411 11.3299 874 87.7197 536.031 491.634
3040 0 80.1795 11.2248 900 87.4044 535.738 488.662
3041 0 84.1487 11.5985 976 85.8627 535.943 487.259
3042 0 85.172 10.8721 926 88.0734 535.892 485.701
3043 0 86.1562 10.7827 929 88.042 536.084 485.084
3044 1 46.109 10.6487 491 88.0428 536.049 504.124
3045 0 47.1264 11.6071 547 84.7642 536.117 503.907
3046 0 49.1007 11.6699 573 82.8586 536.103 503.218
3047 0 50.096 12.2764 615 79.3545 536.737 504.639
3048 0 49.0104 11.875 582 81.3643 537.007 504.381
3049 0 48.0352 11.2001 538 84.1729 535.998 502.998
3050 0 50.0126 10.1174 506 85.8221 535.818 502.692
3051 0 52.0163 11.6118 604 83.1821 536.434 501.113
3052 0 53.0661 11.4009 605 83.2777 535.531 500.749
3053 0 55.0743 11.0941 611 83.4681 536.313 499.419
3054 0 56.1283 11.2421 631 82.4738 536.149 498.252
3055 0 60.0852 11.6002 697 81.4118 535.911 498.418
3056 0 59.0765 11.155 659 84.6813 536.14 496.171
3057 0 62.067 10.6981 664 84.491 536.565 495.72
3058 0 64.1207 11.4316 733 82.8854 536.629 494.748
3059 0 65.0802 11.8008 768 84.0091 536.281 494.009
3060 0 68.0767 11.1786 761 84.0131 536.402 493.371
3061 0 70.1246 11.5794 812 83.3042 535.957 490.819
3062 0 71.143 11.3574 808 82.9356 536.374 489.879
3063 0 73.1303 11.459 838 83.6527 537.032 490.014
3064 0 74.1348 11.3712 843 84.2539 536.658 487.493
3065 0 78.1116 12.0725 943 82.2619 535.842 485.824
3066 0 81.1019 12.6014 1022 81.3601 536.616 485.866
3067 0 82.0588 12.0036 985 84.1259 536.788 483.589
3068 0 85.1425 11.9564 1018 83.8104 536.012 482.351
3069 0 87.079 12.793 1114 82.3043 536.6 481.358
3070 0 86.0353 10.9025 938 86.2996 535.983 478.074
3071 0 90.1024 11.6645 1051 85.0894 535.885 477.787
3072 0 91.115 11.3593 1035 85.6522 535.73 475.156
3073 0 95.1055 11.4715 1091 85.3593 535.719 474.537
3074 0 100.164 11.3014 1132 86.2323 535.415 470.898
3075 0 102.19 11.3515 1160 87.7422 535.505 472.235
3076 0 104.183 11.5182 1200 87.7175 535.176 470.194
3077 0 107.212 11.6312 1247 88.1243 535.898 468.417
3078 0 113.129 9.77645 1106 91.5172 536.486 462.212
3079 0 114.172 11.3951 1301 89.5757 535.898 457.448
3080 0 119.15 11.4394 1363 91.2707 535.842 457.152
3081 0 124.177 11.4434 1421 91.6882 535.527 454.545
3082 1 66.0643 10.1719 672 90.622 535.615 483.225
3083 0 67.0469 10.7089 718 90.5167 536.075 483.762
3084 0 70.049 11.2207 786 90.5356 536.277 481.599
3085 0 75.0361 12.1541 912 85.3344 536.346 482.745
3086 0 76.0268 11.6275 884 86.0622 536.678 482.04
3087 0 80.0872 13.4229 1075 90.5144 535.5 486.343
3088 0 81.0744 14.0242 1137 92.015 535.529 486.581
3089 0 84.0837 14.1526 1190 92.2765 534.984 486.373
3090 0 87.1409 13.7937 1202 95.9035 535.452 486.088
3091 0 90.2406 14.3505 1295 96.0595 535.314 484.643
3092 0 93.1978 14.4102 1343 97.4885 535.732 481.684
3093 0 96.2834 14.395 1386 98.2734 535.421 479.934
3094 0 99.2398 14.1879 1408 101.305 535.44 477.229
3095 0 101.126 12.7366 1288 96.6584 535.749 478.347
3096 0 102.181 12.1451 1241 100.13 536.294 477.175
3097 0 108.115 12.9585 1401 98.7752 536.952 476.227
3098 0 111.222 12.3897 1378 101.136 535.859 474.052
3099 0 113.144 12.5151 1416 101.393 534.968 471.475
3100 0 116.149 12.131 1409 102.479 535.984 470.752
3101 0 120.164 12.0003 1442 102.981 535.351 471.13
3102 1 66.018 10.9213 721 96.9528 535.358 496.302
3103 0 68.0396 11.2582 766 96.4086 535.774 495.476
3104 0 71.0517 11.6816 830 96.8048 535.878 493.371
3105 0 72.131 11.8396 854 97.1944 535.09 493.157
3106 0 74.0809 11.4739 850 99.2153 534.869 493.848
3107 0 77.1321 11.6164 896 98.4431 535.223 492.308
3108 0 79.0794 11.8236 935 98.4578 535.714 490.699
3109 0 83.0722 11.5442 959 99.0542 535.043 488.459
3110 0 86.0724 12.5708 1082 95.5998 535.143 485.349
3111 0 87.11 11.7897 1027 97.3866 534.629 485.262
3112 0 90.0427 11.861 1068 98.7968 534.265 484.844
3113 0 93.0597 11.7989 1098 98.9308 534.662 484.025
3114 0 97.168 11.8558 1152 99.7517 534.841 482.888
3115 0 100.146 11.9626 1198 101.028 535.377 481.218
3116 1 52.0576 11.4488 596 100.096 534.787 503.436
3117 0 55.0566 11.4428 630 97.0365 535.162 503.635
3118 0 58.0786 11.2434 653 95.0597 534.528 501.397
3119 0 57.0913 10.6671 609 101.87 534.588 496.31
3120 0 59.152 10.9041 645 101.14 534.154 494.554
3121 0 60.1268 10.5943 637 103.355 534.798 493.521
3122 0 61.1076 10.9643 670 101.375 534.893 493.997
3123 0 62.0482 10.0728 625 98.2976 534.792 497.861
3124 0 67.0733 10.7792 723 95.1549 534.737 496.303
3125 0 68.0952 10.8378 738 94.4661 535.936 495.771
3126 0 70.1468 10.8344 760 93.2382 536.542 495.653
3127 0 72.1361 11.3258 817 92.1909 535.918 493.869
3128 0 75.1732 10.9082 820 91.1098 535.845 492.059
3129 0 78.2062 11.0861 867 90.767 534.975 490.657
3130 0 80.1954 11.1727 896 90.7623 535.54 490.727
3131 0 82.2762 11.2669 927 90.0529 534.999 487.09
3132 0 87.245 11.5422 1007 89.137 535.52 486.535
3133 0 89.2241 11.5664 1032 91.5358 535.354 485.412
3134 0 91.1767 11.1542 1017 93.354 535.75 483.391
3135 0 95.1775 11.5363 1098 91.8142 535.526 481.663
3136 0 97.2967 10.9356 1064 92.516 535.726 479.836
3137 0 98.149 10.9731 1077 92.5358 535.85 478.204
3138 1 54.0998 10.4067 563 86.444 535.798 501.833
3139 0 57.2951 10.6641 611 83.9051 535.682 500.457
3140 0 58.0753 9.9526 578 86.7976 536.251 499.623
3141 0 58.1141 9.44694 549 88.0346 536.721 498.867
3142 0 61.1221 10.1927 623 86.297 536.215 497.929
3143 0 62.1411 10.0256 623 87.0064 536.165 496.883
3144 0 63.1506 10.1187 639 86.723 536.443 496.989
3145 0 65.1254 10.426 679 86.3594 536.047 494.551
3146 0 67.1383 10.4858 704 86.3736 536.251 493.879
3147 0 70.1211 10.6958 750 85.3147 535.872 493.276
3148 0 71.1387 10.1773 724 87.8149 536.191 491.157
3149 0 71.1328 10.4171 741 87.413 536.094 492.174
3150 0 74.12 11.4274 847 86.2916 536.09 490.616
3151 0 78.1565 10.9012 852 87.0716 535.664 488.166
3152 0 80.1364 10.6194 851 88.6146 536.314 486.323
3153 0 81.1628 11.3722 923 87.1408 535.845 483.83
3154 0 84.1298 10.2223 860 90.2233 536.013 481.85
3155 0 87.1238 10.7433 936 88.8248 535.963 483.237
3156 1 45.0319 9.63762 434 87.9309 537.101 504.359
3157 0 46.0225 9.88647 455 86.9077 537.002 504.04
3158 0 50.1497 10.4886 526 86.0152 535.447 499.603
3159 0 49.1986 10.854 534 85.4813 535.616 499.442
3160 0 49.1207 11.2783 554 85.7058 535.532 498.722
3161 0 55.0088 11.5436 635 79.9575 536.093 499.328
3162 0 54.0838 11.0015 595 82.1983 534.654 499.145
3163 0 56.068 10.6299 596 83.2584 534.871 497.48
3164 0 56.0608 11.8086 662 86.1752 534.547 498.088
3165 0 59.0675 12.0371 711 85.2602 534.301 496.676
3166 0 62.0815 11.4688 712 86.8301 534.607 495.476
3167 0 63.07 12.2404 772 85.8873 534.526 495.602
3168 0 63.0495 11.1817 705 90.2709 534.652 496.923
3169 0 66.0586 11.6109 767 90.189 534.837 495.027
3170 0 67.0582 11.2887 757 93.0198 534.462 495.696
3171 0 70.0575 12.0044 841 93.0357 534.785 494.693
3172 0 70.0559 11.6478 816 96.5466 534.926 493.569
3173 0 72.0888 12.5817 907 95.8754 534.601 494.104
3174 0 75.0491 12.1121 909 98.2838 534.699 491.2
3175 0 76.0531 12.2151 929 99.3897 534.82 490.048
3176 0 82.0446 12.9929 1066 97.3396 534.055 488.665
3177 0 83.0257 12.9358 1074 98.2868 534.542 488.43
3178 0 83.0236 12.4302 1032 101.974 534.171 486.536
3179 0 88.0259 12.8371 1130 101.865 534.436 486.759
3180 0 90.0233 12.73 1146 102.681 534.435 485.327
3181 0 92.0908 12.694 1169 104.573 534.731 483.258
3182 0 95.0442 12.4574 1184 105.291 534.188 481.563
3183 0 100.051 12.9434 1295 103.497 535.047 479.836
3184 1 53.032 11.3328 601 106.256 534.028 499.035
3185 0 56.0379 11.635 652 105.317 533.96 498.265
3186 0 58.0577 11.8847 690 105.752 533.567 497.126
3187 0 60.0394 12.2753 737 108.126 534.651 498.551
3188 0 60.0622 11.588 696 105.529 534.454 500.069
3189 0 63.0366 12.342 778 103.018 534.406 498.943
3190 0 66.045 12.4158 820 103.229 533.955 497.991
3191 0 68.0333 12.5968 857 103.19 534.33 496.245
3192 0 70.0898 12.6837 889 102.53 534.255 495.719
3193 0 71.0278 12.2487 870 104.979 535.029 494.679
3194 0 74.0982 12.6319 936 104.924 534.515 493.868
3195 0 76.078 12.9998 989 106.913 534.5 491.971
3196 0 79.0427 13.2966 1051 106.219 534.007 490.717
3197 0 81.1562 13.2337 1074 107.969 534.971 489.412
3198 0 83.1031 12.8996 1072 111.042 535.255 488.4
3199 0 84.0624 12.6692 1065 111.613 534.409 486.045
3200 0 89.1078 12.872 1147 109.772 535.122 486.195
3201 1 49.0844 10.7162 526 113.236 534.618 504.059
3202 0 49.0569 9.62149 472 104.604 535.587 497.367
3203 0 50.0555 9.92897 497 103.668 535.531 497.968
3204 0 52.0603 11.0833 577 100.534 536.085 498.608
3205 0 53.0208 10.1092 536 99.5653 536.532 498.521
3206 0 53.0282 9.84382 522 99.6264 535.64 497.64
3207 0 55.0846 10.0391 553 98.792 535.696 497.591
3208 0 57.0574 9.84972 562 99.8345 535.924 495.738
3209 0 59.0193 10.7592 635 97.0803 536.554 495.241
3210 0 58.0542 9.78396 568 100.049 536.266 493.995
3211 0 61.0693 10.4144 636 99.022 535.384 495.586
3212 0 63.0162 11.1876 705 97.5021 534.845 494.616
3213 0 65.0118 10.0597 654 98.8532 535.694 494.595
3214 0 67.0163 10.5497 707 97.8345 536.047 493.475
3215 0 70.078 10.8736 762 95.5538 536.197 492.535
3216 0 74.0666 10.8146 801 96.9763 535.784 491.96
3217 0 73.0372 11.1861 817 97.951 535.395 491.179
3218 0 78.0741 11.8477 925 95.0811 535.949 490.629
3219 0 79.078 11.2294 888 98.8435 536.069 487.78
3220 0 82.0621 11.5279 946 97.3636 535.426 487.504
3221 0 87.0502 12.6249 1099 95.2839 534.941 486.652
3222 0 88.0288 12.0756 1063 97.4976 535.126 484.935
3223 0 91.0263 11.4253 1040 98.4519 535.306 484.836
3224 1 49.0677 10.4346 512 95.4492 535.772 504.908
3225 0 53.0603 11.4021 605 95.8661 535.35 503.107
3226 0 54.1135 12.1781 659 99.7329 535.733 502.537
3227 0 54.0366 12.473 674 100.631 535.617 502.818
3228 0 56.0536 12.3275 691 94.4313 535.457 500.11
3229 0 57.009 11.735 669 100.755 535.341 501.049
3230 0 58.0405 12.2501 711 99.294 535.968 500.145
3231 0 58.0532 11.8512 688 101.25 535.599 500.653
3232 0 62.0284 12.1557 754 98.492 535.922 499.344
3233 0 64.0253 12.1983 781 98.5262 535.652 498.055
3234 0 66.0825 12.0153 794 98.762 534.679 496.354
3235 0 67.0815 11.9854 804 100.53 534.54 494.394
3236 0 71.0532 12.4132 882 98.2245 534.604 493.069
3237 0 72.0456 12.2006 879 100.134 534.896 493.535
3238 0 74.0489 12.3297 913 101.137 534.921 492.533
3239 0 75.08 12.2802 922 102.016 534.302 490.765
3240 0 77.0559 12.0173 926 102.236 535.478 489.692
3241 0 80.1012 13.0959 1049 100.148 534.764 487.669
3242 0 84.1247 13.0877 1101 99.6476 534.8 487.276
3243 0 85.0425 12.9817 1104 101.092 535.231 485.838
3244 0 89.1032 13.1982 1176 101.235 535.111 484.035
3245 0 92.1602 13.6935 1262 99.5483 535.079 484.752
3246 0 93.149 13.6233 1269 102.281 534.897 481.983
3247 0 95.1053 13.9424 1326 102.17 534.882 480.6
3248 0 99.1529 13.7364 1362 100.954 535.38 481.106
3249 0 101.125 14.2794 1444 100.559 535.46 477.68
3250 0 103.148 14.1447 1459 101.097 535.25 476.174
3251 0 106.143 13.6514 1449 101.713 535.744 472.493
3252 0 109.126 13.9655 1524 100.976 535.581 472.357
3253 0 112.137 13.6708 1533 101.532 534.953 469.77
3254 0 115.087 13.9286 1603 100.798 534.151 469.754
3255 0 120.109 14.3037 1718 98.8551 535.382 467.715
3256 0 123.149 14.2429 1754 99.6556 534.998 464.344
3257 0 125.167 14.3089 1791 99.6198 535.114 464.725
3258 0 129.146 14.4643 1868 99.7489 534.688 462.603
3259 0 135.106 14.781 1997 98.4512 534.659 459.478
3260 1 71.0312 11.15 792 99.1263 535.125 493.282
3261 0 73.0664 11.8112 863 98.146 534.881 491.404
3262 0 73.0276 12.283 897 98.0334 534.862 490.023
3263 0 76.0415 12.2302 930 96.9796 535.191 489.537
3264 0 77.0584 12.4451 959 97.0448 535.261 488.923
3265 0 81.083 12.333 1000 97.694 535.366 488.296
3266 0 85.0204 12.9028 1097 95.618 535.525 487.666
3267 0 88.0593 12.537 1104 97.3986 535.698 484.52
3268 0 90.0353 13.1171 1181 95.2913 535.5 482.854
3269 0 93.062 12.8087 1192 96.7794 535.43 482.221
3270 0 96.0843 12.8949 1239 97.3826 536.232 481.168
3271 0 99.0652 12.6179 1250 97.6528 535.673 478.322
3272 0 102.082 12.9994 1327 96.5139 535.928 476.685
3273 0 106.047 13.164 1396 96.8252 535.669 476.02
3274 1 58.0273 11.5808 672 97.628 536.36 499.997
3275 0 58.0348 11.7516 682 97.3812 535.61 499.77
3276 0 62.0731 12.1631 755 93.7338 536.751 498.442
3277 0 64.0771 12.6254 809 93.241 536.921 496.318
3278 0 66.107 13.2513 876 95.0046 536.51 494.901
3279 0 66.0856 12.393 819 97.4908 537.182 496.371
3280 0 69.0725 13.4062 926 94.4482 537.009 494.901
3281 0 72.0919 13.5105 974 93.3593 537.225 493.281
3282 0 74.1439 13.4064 994 93.8511 537.252 490.697
3283 0 77.0824 12.7266 981 94.7706 537.102 489.518
3284 0 77.1808 13.0214 1005 94.407 536.953 490.228
3285 0 80.1129 12.5448 1005 95.793 535.54 488.435
3286 0 83.1924 12.994 1081 95.2276 536.017 486.815
3287 0 87.1356 12.9339 1127 95.4969 535.709 484.808
3288 0 88.0389 12.9147 1137 96.9833 536.093 482.311
3289 0 90.1634 12.4995 1127 96.7311 536.17 481.494
3290 1 48.0459 10.3443 497 96.6016 537.294 503.435
3291 0 48.0175 11.2459 540 93.7259 536.52 501.935
3292 0 51.0767 11.7862 602 92.4086 536.012 499.525
3293 0 52.0672 11.7348 611 88.9444 534.527 499.763
3294 0 51.0241 12.1315 619 87.2423 535.021 500.38
3295 0 52.0362 11.3767 592 88.3514 535.265 500.28
3296 0 56.0938 11.7838 661 86.5673 535.53 499.109
3297 0 57.0223 11.6621 665 87.9293 535.421 500.044
3298 0 56.075 11.3241 635 90.9685 535.457 498.118
3299 0 58.0645 10.8844 632 92.5063 535.247 497.622
3300 0 60.0809 11.5511 694 91.4121 534.873 497.084
3301 0 64.0544 12.0054 769 89.4916 534.901 495.476
3302 0 65.0487 11.6682 759 90.6904 534.606 493.198
3303 0 65.0408 10.6702 694 94.6412 534.524 490.999
3304 0 67.045 11.276 756 93.0185 534.464 490.504
3305 0 69.0532 10.4557 722 95.1454 534.421 490.082
3306 0 73.0199 11.805 862 92.3213 534.971 487.407
3307 0 77.0568 12.4843 962 90.6289 535.238 487.926
3308 0 80.0783 12.6876 1016 90.7313 535.199 489.282
3309 0 84.0359 13.4585 1131 89.8656 535.416 488.041
3310 0 85.0504 12.8159 1090 91.4651 534.429 485.134
3311 0 86.0382 13.4708 1159 90.9379 534.995 485.359
3312 0 88.1042 12.8371 1131 91.4872 536.646 484.677
3313 0 93.1509 12.7535 1188 91.2483 536.435 482.99
3314 0 95.1309 12.2568 1166 92.5437 535.905 482.356
3315 0 99.0845 13.1908 1307 90.7804 536.378 480.895
3316 0 102.093 13.3799 1366 92.1808 535.407 477.494
3317 0 106.064 13.0487 1384 91.5347 534.887 476.573
3318 0 110.032 13.7779 1516 89.8753 535.695 476.534
3319 1 61.0208 12.6186 770 92.4442 535.083 498.97
3320 0 62.0185 12.7381 790 88.9911 535.48 495.048
3321 0 65.0603 12.4961 813 78.0824 536.188 491.852
3322 0 66.0297 12.1461 802 79.4588 536.221 489.882
3323 0 68.04 12.0076 817 77.3745 535.59 490.095
3324 0 72.0553 12.657 912 74.8344 535.716 490.222
3325 0 73.0549 12.1689 889 77.2486 535.548 487.744
3326 0 75.0202 11.8102 886 78.2889 535.909 485.766
3327 0 76.0633 10.8068 822 80.7482 536.473 484.174
3328 0 78.0394 11.0201 860 80.6954 536.01 484.74
3329 0 82.0726 11.8919 976 78.8852 536.608 486.306
3330 0 82.0685 11.3076 928 81.5636 536.434 484.608
3331 0 86.0964 11.2664 970 81.9144 535.775 484.729
3332 0 89.0515 11.2968 1006 82.7525 535.248 481.035
3333 0 92.1034 11.5197 1061 83.2394 536.647 481.963
3334 0 95.1002 11.2197 1067 84.5801 535.958 478.135
3335 0 99.1154 11.8448 1174 83.3595 535.744 477.401
3336 0 101.118 11.5015 1163 84.0473 535.777 476.191
3337 0 105.097 11.6845 1228 84.6914 536.049 473.568
3338 0 107.185 11.9046 1276 88.9467 535.549 474.878
3339 1 56.1942 11.0866 623 87.2584 535.918 496.671
3340 0 58.1847 12.5291 729 91.0535 536.018 496.379
3341 0 61.1432 12.2663 750 79.724 535.708 492.632
3342 0 60.0943 11.6816 702 87.0598 536.338 491.705
3343 0 61.0152 11.8003 720 88.2472 536.579 492.989
3344 0 65.0319 12.1018 787 87.3088 536.634 492.567
3345 0 66.0441 11.7043 773 88.1061 536.556 491.072
3346 0 69.0428 11.9636 826 86.9867 536.579 490.002
3347 0 71.0611 12.2852 873 87.2509 536.344 489.036
3348 0 74.049 12.8023 948 90.3175 536.749 491.106
3349 0 76.0277 12.4954 950 85.481 536.492 487.168
3350 0 77.065 12.1456 936 88.0064 535.454 485.743
3351 0 81.05 12.5108 1014 86.5503 535.429 486.004
3352 0 84.0735 13.9164 1170 79.0333 535.919 484.93
3353 0 88.0443 12.1416 1069 87.7268 536.099 481.686
3354 0 89.0452 11.8816 1058 89.6465 535.722 481.358
3355 0 89.0452 11.8367 1054 136.388 534.737 481.302
3356 1 49.0239 11.2598 552 84.5127 536.279 504.053
3357 0 49.0459 11.5402 566 83.1855 535.802 504.481
3358 0 52.0326 11.858 617 82.7553 536.191 502.532
3359 0 51.2471 11.9616 613 83.8662 534.564 502.524
3360 0 52.1074 11.8985 620 84.4258 535.264 501.452
3361 0 54.1095 11.9388 646 82.3545 535.169 500.684
3362 0 57.0652 12.0213 686 80.7434 535.102 501.169
3363 0 58.06 12.1598 706 79.0807 535.258 499.851
3364 0 60.0347 12.7759 767 76.8149 535.087 499.502
3365 0 61.0393 12.3199 752 78.0492 534.578 497.23
3366 0 63.0181 11.9331 752 78.4455 535.286 497.045
3367 0 65.0245 12.057 784 76.4592 535.436 495.08
3368 0 65.058 11.7895 767 76.9609 535.296 494.866
3369 0 68.079 11.7217 798 73.8396 535.183 492.945
3370 0 71.0543 12.413 882 72.1576 536.058 493.219
3371 0 72.1184 12.3686 892 71.4507 535.77 493.304
3372 0 72.0565 11.9767 863 70.7335 536.016 493.049
3373 0 76.0782 12.4872 950 68.4021 535.976 491.111
3374 0 77.0756 12.5461 967 68.0217 535.304 488.267
3375 0 80.0719 11.6395 932 68.2103 536.044 488.009
3376 0 79.0795 11.5833 916 67.7718 535.569 486.702
3377 0 80.0903 11.1249 891 67.9405 535.494 486.635
3378 0 83.051 11.3183 940 65.7585 535.883 484.756
3379 0 84.0686 11.0862 932 65.2736 536.665 482.913
3380 0 85.112 10.915 929 64.0183 534.854 478.223
3381 0 86.0926 10.7791 928 63.5323 535.22 478.105
3382 0 88.0882 10.2511 903 63.2115 535.486 475.689
3383 0 89.0561 10.3193 919 62.3373 535.149 474.524
3384 0 90.0427 9.62877 867 64.1038 534.398 473.116
3385 0 91.0744 10.1346 923 60.6891 535.641 472.168
3386 0 91.1036 8.71536 794 61.6788 535.327 467.436
3387 0 91.066 10.1026 920 59.6739 535.221 466.898
3388 0 92.0741 8.89501 819 58.4078 534.891 466.388
3389 0 88.1069 6.91206 609 59.7028 534.603 462.741
3390 0 86.0703 7.40092 637 57.5447 535.064 458.579
3391 0 88.0874 7.01576 618 56.9175 534.971 454.704
3392 0 91.1341 7.01164 639 56.3881 534.404 458.074
3393 0 88.1838 8.56166 755 55.102 534.913 456.024
3394 0 90.1006 5.68254 512 54.8242 534.385 445.08
3395 0 84.1083 6.70564 564 54.0532 534.773 448.8
3396 0 87.0811 3.5599 310 55.3064 534.561 450.823
3397 1 3 1.33333 4 52.25 535 422.25
3398 1 0 0 0 -nan -nan -nan
3399 1 80.0475 7.19573 576 50.9115 534.438 466.385
3400 1 105.075 6.99499 735 49.1782 534.661 443.527
3401 0 106.109 12.9583 1375 91.8713 534.045 333.692
3402 0 111.101 14.4463 1605 94.3109 533.968 331.003
3403 1 60.0725 12.4017 745 94.3154 533.682 351.761
3404 0 62.0608 11.7304 728 90.8475 534.018 349.607
3405 0 65.0402 12.3308 802 91.1372 533.216 344.051
3406 0 70.1386 13.0456 915 79.1607 532.764 343.811
3407 0 68.0958 12.7908 871 91.3869 533.698 337.681
3408 0 71.0688 12.4809 887 92.3518 533.883 333.545
3409 0 71.1306 12.7231 905 93.3514 533.842 330.587
3410 0 75.0968 12.8101 962 93.2131 533.831 327.476
3411 0 75.1068 12.5288 941 95.1498 534.591 322.803
3412 0 79.0629 13.3438 1055 94.7071 534.022 318.699
3413 0 79.0585 13.2687 1049 97.2097 534.196 315.494
3414 0 83.2024 13.6534 1136 98.3548 533.144 310.848
3415 0 84.1505 13.5947 1144 99.8339 533.705 306.584
3416 0 87.1569 13.6076 1186 99.4924 532.799 304.256
3417 0 92.1795 13.7015 1263 98.3444 533.687 300.812
3418 0 93.1702 14.0174 1306 98.8583 533.459 296.011
3419 0 96.1397 14.7806 1421 99.1288 533.06 292.996
3420 0 97.1335 14.3205 1391 99.2761 533.047 288.741
3421 0 100.117 14.4231 1444 100.967 532.979 284.943
3422 0 107.218 17.0586 1829 92.0749 531.728 276.166
3423 0 105.176 15.1746 1596 101.763 531.698 273.444
3424 0 114.22 18.1491 2073 91.4785 532.169 262.536
3425 0 114.26 15.2809 1746 100.511 532.648 262.192
3426 0 117.146 14.2301 1667 103.457 531.36 256.956
3427 0 124.208 15.7317 1954 97.9135 531.341 250.061
3428 0 123.181 16.3093 2009 96.7541 530.714 243.986
3429 1 63.1253 12.1346 766 100.513 531.306 272.003
3430 0 65.158 11.4951 749 94.9092 532.021 269.258
3431 0 66.1545 12.8336 849 96.2874 530.95 264.238
3432 0 69.0956 12.8807 890 99.4449 531.628 260.587
3433 0 70.0946 13.3391 935 99.5893 531.704 255.149
3434 0 74.0646 13.5962 1007 99.4737 531.419 249.507
3435 0 83.0779 18.4164 1530 84.7654 531.13 237.601
3436 0 82.0411 16.6258 1364 93.6936 530.944 237.255
3437 0 81.1126 14.3011 1160 101.399 532.161 234.65
3438 0 83.0632 16.0601 1334 94.3853 532.051 227.373
