time division length width area intensity CMx CMy
0 0 77.0615 15.0529 1160 133.115 395.429 495.266
1 0 77.0341 15.7203 1211 128.234 394.892 494.529
2 0 79.0451 15.4469 1221 127.102 394.917 493.325
3 0 81.0622 15.7287 1275 123.489 394.932 492.926
4 0 85.0216 14.8903 1266 122 395.42 491.453
5 0 88.0565 15.1948 1338 117.236 395.218 490.828
6 0 92.0917 15.1697 1397 115.446 395.513 489.351
7 0 92.0607 14.8163 1364 117.25 394.962 489.107
8 0 96.0772 14.4363 1387 116.527 395.465 487.558
9 0 99.1018 14.7727 1464 114.269 395.508 486.505
10 0 101.107 14.5094 1467 113.948 394.93 484.868
11 0 103.085 13.843 1427 114.905 394.59 481.854
12 0 107.095 14.4451 1547 110.441 395.01 481.458
13 0 109.137 14.0282 1531 111.708 394.072 479.617
14 0 114.084 13.8933 1585 110.627 394.242 477.302
15 0 117.165 14.7911 1733 107.659 393.788 476.434
16 0 121.163 14.7405 1786 106.928 394.389 474.959
17 0 126.083 14.7601 1861 105.599 393.997 472.052
18 0 129.076 14.3791 1856 105.901 394.026 470.31
19 0 132.169 14.141 1869 105.979 394.353 467.183
20 0 137.152 14.1376 1939 105.455 394.9 466.312
21 0 141.066 14.4542 2039 103.561 394.64 463.184
22 0 147.161 14.7933 2177 102.357 394.602 460.342
23 1 72.0505 13.6987 987 104.263 393.468 495.949
24 0 74.0363 13.8851 1028 105.389 394.108 493.205
25 0 78.041 14.3258 1118 102.561 394.483 492.115
26 0 79.0922 13.9963 1107 104.834 394.391 491.808
27 0 82.049 14.1623 1162 102.39 394.334 491.9
28 0 84.079 14.1533 1190 103.682 394.906 490.118
29 0 88.0526 14.8207 1305 100.808 395.035 488.224
30 0 88.017 14.1791 1248 103.905 394.552 488.219
31 0 93.0497 14.3257 1333 100.91 394.847 485.518
32 0 97.0539 14.2189 1380 99.3812 394.905 485.968
33 0 100.092 14.3768 1439 98.3141 393.984 484.079
34 0 105.06 14.6963 1544 97.0732 392.986 481.861
35 0 106.038 14.5891 1547 97.1144 393.333 479.125
36 0 110.099 14.6505 1613 97.1816 393.701 478.081
37 0 116.09 15.0573 1748 95.2151 393.4 474.452
38 0 121.126 14.7203 1783 95.7431 393.119 470.285
39 0 127.149 15.124 1923 94.2808 393.541 468.387
40 1 67.0168 12.2507 821 98.6175 392.976 496.097
41 0 70.0415 12.5069 876 98.403 393.449 495.285
42 0 75.0521 13.3374 1001 96.3766 392.568 493.65
43 0 77.0342 13.6692 1053 96.5109 392.623 492.432
44 0 80.101 13.8076 1106 95.424 392.731 489.995
45 0 83.0487 13.7028 1138 96.4508 392.163 488.719
46 0 85.0659 13.8481 1178 94.5756 392.309 488.659
47 0 86.0986 13.7401 1183 96.1936 392.067 485.655
48 0 91.0967 14.2266 1296 93.412 392.094 484.2
49 0 92.1338 13.5781 1251 93.3869 392.305 484.255
50 0 94.035 14.1862 1334 91.1357 393.627 482.864
51 0 99.0805 13.3831 1326 91.1991 393.439 481.174
52 0 101.109 13.7673 1392 89.9978 393.963 479.501
53 0 105.031 13.0723 1373 90.8325 393.94 476.621
54 0 109.175 13.8676 1514 88.1592 393.9 474.792
55 0 115.124 13.3248 1534 87.91 393.83 473.088
56 1 61.0932 10.8523 663 81.1493 393.718 497.775
57 0 65.0498 11.6372 757 77.9392 393.871 498.721
58 0 67.0942 11.3572 762 77.4475 392.971 496.912
59 0 69.1133 12.1106 837 77.3967 394.057 495.299
60 0 71.0718 12.1286 862 85.1543 394.118 493.602
61 0 75.0544 12.884 967 82.06 394.046 491.338
62 0 77.0707 12.2744 946 82.7685 393.815 488.979
63 0 79.1062 12.2494 969 82.4654 393.929 487.72
64 0 84.1191 12.1138 1019 81.4014 393.712 486.623
65 0 84.105 11.6759 982 83.4114 393.048 484.294
66 0 87.114 12.2139 1064 81.9774 392.802 484.196
67 0 91.0949 12.6681 1154 80.5953 392.278 483.263
68 0 95.113 12.5114 1190 80.2336 392.683 481.289
69 0 98.083 12.5812 1234 79.8655 392.814 479.994
70 0 99.0875 12.4133 1230 79.4919 393.421 479.678
71 0 103.059 12.3521 1273 79.2773 393.38 475.83
72 0 109.102 13.5837 1482 78.6282 394.053 480.468
73 0 111.117 12.9413 1438 81.4882 393.433 477.712
74 0 117.147 13.2313 1550 82.1297 393.691 475.7
75 0 121.126 12.8214 1553 81.7135 392.733 473.544
76 1 65.0955 10.4923 683 79.1391 392.05 503.347
77 0 68.1149 11.4366 779 77.7407 391.127 501.173
78 0 71.0986 11.6177 826 78.2349 392.67 500.151
79 0 72.0782 11.7511 847 73.268 392.9 500.849
80 0 76.0488 12.1895 927 73.3139 393.152 499.366
81 0 78.0823 11.4623 895 83.8168 393.321 495.837
82 0 81.092 11.9741 971 82.0031 393.697 493.717
83 0 85.0505 12.4161 1056 79.7566 393.58 492.774
84 0 86.0706 12.3736 1065 79.553 393.979 491.107
85 0 90.1414 12.6246 1138 78.2241 393.686 490.887
86 0 92.0465 12.2655 1129 77.7068 393.922 488.907
87 0 95.0744 11.4542 1089 79.281 394.958 486.516
88 0 97.1315 11.3763 1105 78.7611 394.577 485.473
89 0 102.062 11.6007 1184 77.0912 393.905 484.621
90 1 54.0268 11.3832 615 74.9073 394.089 507.972
91 0 56.1099 11.3705 638 75.7806 393.483 506.826
92 0 58.1123 11.495 668 75.1796 393.9 505.537
93 0 61.0501 11.8919 726 70.5992 393.543 505.047
94 0 63.0556 11.6247 733 75.2538 393.951 503.154
95 0 64.0545 12.1928 781 75.2164 393.96 502.201
96 0 64.0948 12.4347 797 76.7992 393.935 501.73
97 0 69.0544 12.5698 868 76.2938 393.559 501.043
98 0 69.106 12.1697 841 79.6468 393.181 499.163
99 0 72.1003 12.2607 884 80.9548 393.174 497.416
100 0 74.0961 12.7807 947 81.339 392.912 496.663
101 0 77.138 12.173 939 83.6784 392.831 495.539
102 0 79.1083 12.8432 1016 82.6722 392.299 493.593
103 0 80.1606 11.689 937 77.7353 392.258 496.419
104 0 84.0754 12.6791 1066 75.9353 391.621 495.927
105 0 85.0735 11.8016 1004 78.5219 392.245 492.752
106 0 89.1082 12.2997 1096 76.3622 392.56 494.149
107 0 90.1068 11.7305 1057 77.9943 392.568 491.72
108 0 95.0869 12.6936 1207 76.2245 392.556 488.873
109 0 95.0603 11.7399 1116 78.6514 392.711 488.054
110 1 52.049 11.7197 610 79.9246 392.585 510.52
111 0 54.0636 12.1894 659 80.387 392.052 508.357
112 0 54.1237 12.1389 657 81.6271 391.854 508.589
113 0 58.1146 13.1809 766 79.5692 392.385 507.751
114 0 55.08 11.6921 644 81.073 391.793 509.292
115 0 55.0807 11.7827 649 145.75 391.814 509.314
116 0 59.139 12.1747 720 79.7556 392.049 507.544
117 0 59.0545 12.1075 715 83.1273 392.915 507.007
118 0 61.1235 11.5013 703 83.4424 392.603 506.132
119 0 65.0875 12.1068 788 81.6942 392.499 504.084
120 0 65.0811 12.0772 786 83.0509 392.642 503.15
121 0 69.1403 12.3083 851 82.3302 392.089 502.984
122 0 69.1115 12.0674 834 83.8441 392.281 500.335
123 0 70.1299 12.5624 881 82.9012 391.998 500.631
124 0 73.1231 12.226 894 83.9944 392.479 499.981
125 0 76.1549 12.2907 936 83.953 392.402 497.512
126 0 78.0762 12.9105 1008 83.8363 392.526 496.787
127 0 82.0717 12.8181 1052 84.4867 392.612 496.211
128 0 82.173 12.8753 1058 85.828 392.784 494.798
129 0 87.1741 13.9147 1213 83.2308 393.682 493.129
130 0 87.2808 13.2217 1154 85.8796 392.676 490.903
131 0 92.2487 13.0517 1204 86.3862 392.291 488.412
132 0 94.2047 13.3433 1257 83.8926 392.325 488.523
133 0 97.1523 12.6297 1227 86.9487 392.079 487.345
134 0 100.125 13.3832 1340 85.8269 392.987 487.015
135 0 101.123 12.915 1306 87.5536 393.037 485.252
136 0 105.094 13.1691 1384 87.0766 392.716 484.991
137 0 110.068 13.3191 1466 86.3615 394.271 482.774
138 1 59.157 10.7341 635 83.8 392.978 500.491
139 0 61.1649 11.33 693 81.6479 392.085 498.772
140 0 61.0679 11.7574 718 83.0153 392.621 505.994
141 0 65.078 11.7551 765 82.8444 392.62 504.822
142 0 68.0868 11.8378 806 82.0087 392.61 505.867
143 0 68.0659 11.9884 816 83.2194 393.273 502.594
144 0 73.0825 12.7253 930 79.4591 393.223 501.522
145 0 75.0661 12.8687 966 78.4762 393.345 500.99
146 0 78.0921 12.4596 973 79.9486 393.139 499.325
147 0 83.0805 13.2281 1099 78.6406 393.204 496.786
148 0 85.1599 13.3748 1139 79.0369 392.751 495.544
149 0 87.0873 12.5391 1092 81.7051 392.573 493.95
150 0 88.1255 12.9815 1144 82.5883 392.044 491.844
151 0 92.087 12.9226 1190 83.3521 392.836 488.75
152 0 96.0807 13.0099 1250 83.9712 392.035 489.082
153 0 99.0734 12.8894 1277 86.6421 392.448 487.134
154 0 101.115 12.817 1296 87.466 392.394 484.862
155 0 104.138 12.6371 1316 86.5084 392.24 483.551
156 0 107.18 12.605 1351 85.926 392.218 482.47
157 0 111.243 12.9716 1443 85.2398 392.305 481.067
158 0 111.244 12.9445 1440 86.2535 392.117 480.174
159 0 113.262 13.1641 1491 86.825 391.435 475.31
160 0 117.319 12.547 1472 87.9688 390.826 475.196
161 0 121.244 13.1718 1597 87.2417 390.926 473.616
162 0 127.251 13.4223 1708 86.0937 391.487 470.288
163 0 130.247 13.3208 1735 86.7205 390.914 468.749
164 0 132.311 12.8031 1694 87.4758 391.129 467.66
165 0 138.32 13.0567 1806 86.3068 391.477 463.323
166 0 144.37 13.874 2003 83.7723 391.716 461.644
167 0 147.354 13.7425 2025 84.9669 391.389 459.845
168 0 153.299 13.2878 2037 86.2523 391.825 455.27
169 1 80.2811 11.248 903 81.1107 391.662 494.204
170 0 81.276 11.8485 963 80.7331 391.642 492.504
171 0 84.2318 11.314 953 80.5289 391.063 491.789
172 0 88.2474 11.8644 1047 80.724 392.212 488.166
173 0 92.2315 12.9132 1191 84.6289 392.004 485.547
174 0 94.1507 12.7455 1200 84.5433 391.946 484.733
175 0 95.1619 12.547 1194 85.6951 391.519 483.58
176 0 100.198 12.8246 1285 84.2358 391.098 483.755
177 0 101.257 12.167 1232 85.7938 391.028 480.54
178 0 104.272 12.6208 1316 84.6269 391.447 479.355
179 0 109.274 12.5464 1371 83.4099 391.836 476.732
180 0 114.242 12.6135 1441 83.34 391.248 476.025
181 0 118.23 12.6364 1494 81.9424 391.904 473.185
182 0 118.23 12.5857 1488 149.312 392.903 473.249
183 0 125.267 12.3576 1548 81.604 391.729 471.922
184 0 130.29 13.0785 1704 80.4372 391.016 468.808
185 1 70.1816 10.0026 702 83.2949 390.715 497.543
186 0 75.1325 10.8608 816 80.1189 391.256 497.058
187 0 78.2052 11.2141 877 80.8632 391.212 495.178
188 0 81.1772 12.3803 1005 79.2577 391.064 492.881
189 0 85.2685 12.8183 1093 79.5801 391.407 491.023
190 0 86.315 13.1263 1133 79.9488 392.641 488.905
191 0 88.181 12.2702 1082 79.7311 391.734 484.963
192 0 92.1265 13.1341 1210 80.2463 392.793 489.074
193 0 93.0935 13.1696 1226 82.0147 392.378 487.143
194 0 95.1915 12.8058 1219 83.1961 392.242 485.144
195 0 98.1556 13.3869 1314 82.0837 392.508 485.568
196 0 99.1326 12.5388 1243 85.103 392.123 480.957
197 0 102.113 12.6233 1289 84.7471 392.232 479.22
198 0 107.175 13.2306 1418 83.5966 392.184 478.818
199 0 109.19 12.8767 1406 84.8122 392.334 476.024
200 0 114.19 13.2761 1516 82.9624 392.423 474.106
201 0 118.201 13.1725 1557 83.0687 392.814 471.812
202 0 122.17 12.9737 1585 106.197 391.7 473.044
203 0 126.166 13.823 1744 104.784 392.095 468.101
204 1 65.1382 10.1169 659 96.9605 392.88 500.143
205 0 67.0773 10.5848 710 95.4606 392.482 501.242
206 0 71.0286 12.0233 854 92.5984 391.289 501.023
207 0 71.0628 11.1169 790 95.6 391.429 500.778
208 0 71.0798 11.4801 816 94.8578 391.836 499.721
209 0 74.0359 12.2643 908 91.6839 391.909 499.652
210 0 77.0905 12.842 990 91.8505 391.487 496.676
211 0 81.0791 12.2843 996 92.3584 391.08 496.197
212 0 83.0458 12.162 1010 95.0079 390.534 494.613
213 0 85.0498 12.0165 1022 95.9843 390.557 493.931
214 0 88.0565 11.8333 1042 104.238 390.978 491.857
215 0 89.0594 12.1043 1078 104.476 390.574 490.549
216 0 93.0752 12.3019 1145 103.678 390.656 487.541
217 0 96.1243 11.9013 1144 103.358 390.877 486.956
218 0 98.0523 11.6876 1146 101.084 390.763 484.188
219 0 102.2 11.6634 1192 99.6158 391.1 482.625
220 0 104.283 11.9578 1247 100.065 390.165 478.698
221 0 107.2 11.819 1267 99.4333 389.416 477.646
222 1 58.1981 9.88004 575 89.5617 389.344 502.478
223 0 61.1807 10.4445 639 86.698 390.16 501.703
224 0 62.0276 10.1084 627 86.0447 391.113 504.338
225 0 67.0491 10.8577 728 83.9506 390.853 502.183
226 0 68.08 11.4277 778 83.653 391.239 500.359
227 0 71.0418 11.5566 821 93.3849 391.625 497.736
228 0 73.1071 10.9839 803 94.1308 390.991 497.336
229 0 75.0833 11.2675 846 93.1005 391.151 497.324
230 0 76.1024 11.4188 869 93.4304 390.644 494.512
231 0 78.0677 10.7599 840 92.0512 390.821 493.743
232 0 78.0699 10.6699 833 129.694 391.83 493.762
233 0 83.0644 11.0517 918 86.3845 390.646 493.085
234 0 88.0365 11.3248 997 85.9619 390.665 490.991
235 0 90.0575 10.6932 963 87.0239 390.615 489.237
236 0 91.0986 10.1209 922 88.4783 390.297 488.949
237 0 95.1058 10.6828 1016 89.1102 390.594 485.427
238 0 98.09 10.6739 1047 89.9331 390.28 484.58
239 1 48.0874 9.42035 453 81.574 389.828 512.106
240 0 48.0866 9.83641 473 80.4884 389.96 512.448
241 0 50.0632 9.76765 489 81.9611 389.395 511.272
242 0 50.0524 10.529 527 81.5123 389.86 508.928
243 0 52.0785 10.2922 536 85.0056 389.091 510.054
244 0 52.0868 10.4249 543 85.733 388.884 509.757
245 0 52.0458 9.93355 517 88.3192 389.259 509.288
246 0 54.096 10.278 556 87.9532 389.174 508.441
247 0 57.0218 10.5924 604 87.3742 389.24 507.659
248 0 59.0362 10.519 621 87.6135 389.15 507.805
249 0 61.0188 11.1605 681 87.9941 389.512 506.814
250 0 63.0792 10.7484 678 88.8746 390.273 505.909
251 0 63.0271 10.5352 664 90.7139 390.869 505.333
252 0 65.0673 11.2038 729 90.8889 390.85 502.702
253 0 69.044 11.9634 826 89.3184 390.574 502.358
254 0 69.0844 11.334 783 91.2708 390.263 501.708
255 0 71.0225 11.6724 829 91.661 390.274 499.198
256 0 72.0432 10.9379 788 93.7982 390.466 497.995
257 0 77.0373 11.8903 916 91.3024 390.374 498.817
258 0 78.026 11.4193 891 93.2323 391.247 496.354
259 0 82.0346 11.3854 934 92.9047 390.6 495.424
260 0 84.0456 11.8388 995 92.3397 391.463 494.165
261 0 87.0736 11.9095 1037 94.3645 391.734 493.24
262 0 91.0235 11.1949 1019 96.7134 391.495 491.408
263 1 48.0358 10.0758 484 96.7955 391.804 511.818
264 0 49.0649 10.6593 523 93.6004 391.423 510.09
265 0 51.0402 11.1677 570 98.7614 390.826 509.074
266 0 52.0697 11.4846 598 96.6171 390.564 508.51
267 0 53.0721 11.588 615 95.7024 390.192 507.324
268 0 55.0574 11.6969 644 89.3463 389.203 506.953
269 0 57.06 12.2853 701 88.2382 389.087 506.879
270 0 58.0482 12.1968 708 88.7528 389.508 506.234
271 0 61.0517 12.039 735 88.3905 389.227 505.521
272 0 63.05 11.7526 741 89.4858 389.812 505.061
273 0 64.0879 11.453 734 91.2725 390.89 504.199
274 0 66.0262 11.9347 788 89.967 390.749 502.265
275 0 67.0955 12.43 834 89.8645 390.258 502.205
276 0 68.0552 11.9903 816 91.2586 390.838 501.08
277 0 71.1486 12.2982 875 90.2149 390.118 499.976
278 0 75.0284 12.3153 924 89.2089 390.448 498.312
279 0 77.0752 12.9484 998 89.1764 390.107 497.69
280 0 78.1659 12.256 958 91.5157 389.401 496.431
281 0 82.1045 12.1187 995 91.1146 389.817 494.659
282 0 85.0922 13.0564 1111 87.6094 389.686 492.635
283 0 86.0472 12.5396 1079 89.316 390.605 493.218
284 0 91.076 11.9022 1084 91.0175 389.532 491.541
285 0 91.0652 11.9365 1087 91.4867 390.531 489.277
286 0 96.1764 12.1963 1173 90.1858 390.111 487.899
287 0 98.1256 12.0254 1180 89.5873 389.947 486.717
288 0 102.069 11.8547 1210 97.9901 390.82 485.317
289 0 104.048 11.8695 1235 97.1984 390.361 482.889
290 0 108.072 11.4091 1233 97.1687 390.895 480.791
291 0 112.046 11.7095 1312 93.2713 390.728 480.51
292 0 113.128 11.4472 1295 95.3205 389.839 479.036
293 1 57.0176 10.2249 583 90.6141 389.993 507.503
294 0 61.0464 10.5985 647 87.9675 389.827 505.249
295 0 63.0599 9.19761 580 89.5517 389.903 506.333
296 0 66.0294 10.6013 700 88.5114 390.273 503.014
297 0 69.0897 10.2041 705 87.8454 390.921 503.634
298 0 69.1249 10.4738 724 88.5401 390.3 502.849
299 0 72.0664 10.9621 790 88.3456 390.316 502.265
300 1 83.0812 9.66524 803 90.4172 389.68 500.593
301 0 82.0638 10.7721 884 89.8269 390.152 497.916
302 0 85.1079 11.6088 988 88.4605 390.152 495.999
303 0 87.06 11.9343 1039 88.1511 390.258 495.338
304 0 89.0658 11.5982 1033 89.6205 390.43 494.974
305 0 91.1596 11.3976 1039 90.8287 389.348 494.265
306 0 93.1026 11.0523 1029 91.93 389.631 493.525
307 0 98.1096 12.1293 1190 90.7681 389.382 491.865
308 0 101.064 11.8935 1202 91.2146 389.467 490.12
309 0 104.099 12.4593 1297 90.9746 389.151 487.716
310 0 109.029 12.217 1332 90.8844 389.505 485.783
311 0 109.067 11.195 1221 95.0754 390.103 485.205
312 0 113.084 11.1952 1266 94.9589 390.355 483.651
313 1 57.054 10.4638 597 99.4154 390.218 509.903
314 0 59.051 12.1759 719 98.5647 390.392 508.508
315 0 62.0515 11.8611 736 99.3655 390.795 506.457
316 0 59.0772 10.4609 618 97.0518 390.091 508.22
317 0 62.0761 10.6321 660 94.9121 390.803 508.898
318 0 64.052 11.2096 718 93.9721 390.286 506.568
319 0 66.1291 11.2658 745 93.1651 390.062 505.048
320 0 70.062 11.5755 811 91.0148 389.395 504.682
321 0 71.0517 11.3861 809 90.2522 390.177 504.253
322 0 75.0982 10.9057 819 91.0183 389.602 503.863
323 0 77.0344 11.6831 900 90.4689 390.423 500.413
324 0 79.0804 11.09 877 92.3535 390.07 501.184
325 0 84.0476 11.898 1000 91.58 389.736 500.067
326 0 85.1218 11.5482 983 92.9003 388.457 499.64
327 0 87.0425 12.2354 1065 96.5822 389.118 497.535
328 0 92.0828 12.315 1134 94.1411 388.899 495.452
329 0 95.0962 11.7039 1113 96.1932 388.769 495
330 0 97.0936 11.8442 1150 97.5104 388.363 494.388
331 1 51.0216 11.0737 565 99.446 388.791 515.411
332 0 52.0483 11.3164 589 96.9015 389.015 513.222
333 0 53.0521 12.0448 639 95.6886 388.416 511.526
334 0 56.1085 11.0678 621 98.6522 387.755 510.485
335 0 57.0387 11.799 673 98.1902 388.716 509.993
336 0 58.0706 11.5893 673 98.789 388.363 508.264
337 0 59.0435 11.1782 660 99.9515 388.05 507.508
338 0 62.0347 11.6548 723 98.9184 388.564 506.676
339 0 65.0409 11.931 776 97.9188 388.448 505.759
340 0 68.166 12.3962 845 97.3574 387.316 505.876
341 0 69.1622 12.4924 864 98.2743 386.686 505.348
342 0 71.1355 12.427 884 100.911 387.274 503.957
343 0 72.134 12.3243 889 102.144 386.795 504.199
344 0 77.1546 12.974 1001 99.2617 386.144 503.043
345 0 78.1635 12.7041 993 101.191 386.081 501.744
346 0 79.0729 12.9374 1023 101.897 386.18 500.291
347 0 82.1458 13.6099 1118 100.077 385.994 499.493
348 0 84.094 13.0925 1101 102.685 385.961 497.551
349 0 87.1086 13.156 1146 103.113 385.613 496.428
350 0 87.1086 13.1445 1145 168.549 384.605 496.452
351 0 90.1051 13.2956 1198 103.704 385.78 493.99
352 0 96.1515 13.6243 1310 101.069 385.363 492.366
353 0 97.0987 13.2957 1291 101.947 386.735 491.967
354 0 100.138 12.7025 1272 104.145 386.097 488.745
355 0 103.156 12.9416 1335 104.825 385.994 486.599
356 0 106.16 13.8753 1473 102.092 386.111 486.432
357 0 109.242 13.1452 1436 103.257 386.818 485.71
358 0 111.15 12.8385 1427 104.282 386.089 483.886
359 0 113.067 11.418 1291 98.3664 387.316 484.387
360 0 118.09 12.084 1427 95.5179 387.725 482.02
361 0 121.058 11.7712 1425 97.6702 386.907 480.239
362 1 64.0217 11.1369 713 95.8064 385.499 508.161
363 0 66.2061 11.5699 766 96.4504 386.44 508.405
364 0 67.1671 11.9999 806 101.797 386.581 506.685
365 0 70.0826 12.2855 861 99.0929 387.445 504.589
366 0 72.0264 11.3708 819 102.28 386.338 505.645
367 0 75.0487 12.2987 923 99.8397 386.686 503.741
368 0 75.0557 11.9778 899 102.298 386.405 501.993
369 0 77.0172 12.3089 948 101.203 386.889 501.068
370 0 79.0348 12.0706 954 101.397 386.841 499.411
371 0 82.0362 12.0313 987 100.844 387.736 498.318
372 0 84.0481 11.9336 1003 100.474 387.225 496.62
373 0 86.0411 12.0524 1037 99.1389 387.167 495.28
374 0 89.1264 12.1962 1087 97.7792 387.987 494.769
375 0 93.1372 12.7446 1187 96.3067 388.418 492.906
376 0 94.1181 12.2824 1156 95.9412 388.509 490.448
377 0 96.1324 11.9419 1148 96.3049 388.645 488.752
378 0 100.141 12.6023 1262 94.1157 388.795 489.189
379 0 103.08 11.9422 1231 94.8863 388.6 486.202
380 1 54.062 10.118 547 86.3254 387.892 511.916
381 0 58.015 10.0319 582 81.9914 389.357 510.357
382 0 57.1742 11.0889 634 80.2429 386.935 509.224
383 0 58.1335 11.2844 656 80.997 389.116 507.744
384 0 63.0934 11.2215 708 81.315 388.871 506.058
385 0 64.0865 11.6405 746 79.8887 388.796 505.066
386 0 65.0872 10.8316 705 82.2695 389.013 505.796
387 0 69.1287 11.6739 807 79.1363 388.568 503.019
388 0 70.0756 10.346 725 80.3393 389.131 503.694
389 0 73.129 11.4319 836 79.7907 389.519 500.106
390 0 75.1264 11.2477 845 81.2852 389.169 499.266
391 0 76.0749 11.3046 860 77.8919 388.491 498.25
392 0 77.0517 11.5507 890 78.8551 388.519 496.298
393 0 80.0846 11.1507 893 78.8589 388.439 494.841
394 0 83.0846 11.8072 981 78.1233 389.457 495.006
395 0 87.1125 11.709 1020 78.3951 389.8 492.524
396 0 87.0797 10.921 951 81.613 389.849 490.383
397 0 89.0515 10.96 976 83.0102 389.975 489.683
398 0 93.03 11.2974 1051 82.687 389.231 488.716
399 0 94.1407 10.8667 1023 84.9013 390.066 487.452
400 0 97.0702 11.1363 1081 84.2507 389.266 484.848
401 0 101.139 11.7759 1191 83.5441 390.045 483.754
402 0 105.069 11.4306 1201 89.2465 389.799 481.604
403 0 105.072 11.4303 1201 122.124 389.799 481.572
404 0 112.209 12.2629 1376 87.375 389.62 481.441
405 0 115.197 12.2573 1412 88.029 389.042 480.904
406 0 118.167 12.1861 1440 89.2361 388.335 477.646
407 0 122.171 12.3679 1511 93.5328 388.943 475.347
408 0 127.212 13.2849 1690 89.8509 388.657 474.224
409 0 132.316 12.6818 1678 94.2044 388.878 470.672
410 0 139.206 13.3472 1858 91.1297 389.467 469.575
411 0 140.189 13.4533 1886 93.2078 388.844 466.471
412 0 144.215 13.2372 1909 94.2394 388.672 464.148
413 0 149.233 13.154 1963 93.7815 388.582 459.992
414 0 153.211 12.9103 1978 94.5784 388.74 460.32
415 0 158.332 13.6675 2164 93.9723 388.436 456.948
416 0 162.283 13.3347 2164 96.5628 388.638 452.948
417 0 167.187 12.8538 2149 97.3597 388.676 448.811
418 0 174.282 13.0938 2282 96.5386 388.686 446.849
419 0 177.255 12.9757 2300 97.3196 388.699 443.438
420 0 184.231 13.1628 2425 95.8404 388.033 440.428
421 0 189.464 13.2057 2502 96.4976 387.755 436.825
422 0 195.358 12.9045 2521 96.9631 388.039 434.236
423 0 200.383 13.3445 2674 94.9091 388.581 428.369
424 0 205.309 12.9999 2669 96.4489 388.556 425.512
425 0 210.382 12.7102 2674 96.8803 388.573 418.374
426 0 218.293 13.2986 2903 94.8932 389.01 417.526
427 0 224.397 12.7363 2858 97.0336 389.069 410.915
428 0 228.345 12.5424 2864 97.7552 388.987 408.683
429 1 174.274 10.0302 1748 97.4548 389.023 439.689
430 0 177.236 11.4029 2021 94.4567 388.674 435.221
431 0 182.218 12.1997 2223 92.5385 388.339 431.726
432 0 189.235 12.1437 2298 93.5474 388.464 426.906
433 0 195.269 11.9322 2330 93.9412 388.154 425.579
434 0 204.298 11.8258 2416 94.6751 388.789 421.317
435 1 146.251 10.4546 1529 91.6782 388.52 449.304
436 0 153.161 10.551 1616 90.5093 390.239 448.727
437 0 158.159 11.4126 1805 88.5956 389.401 444.065
438 0 161.136 11.5679 1864 88.5258 388.618 439.902
439 0 167.124 12.8168 2142 86.3525 388.199 438.705
440 0 170.165 11.6181 1977 92.4158 387.917 434.155
441 0 179.252 12.0947 2168 92.1545 388.221 434.018
442 0 185.386 12.6763 2350 91.1643 387.815 430.484
443 0 185.319 11.9686 2218 93.5852 388.125 426.58
444 0 198.302 12.3045 2440 91.9238 388.364 422.295
445 0 202.353 12.32 2493 91.4797 387.965 416.252
446 0 207.413 12.8873 2673 90.5956 388.089 414.765
447 0 214.349 13.1981 2829 89.1036 388.192 408.884
448 0 218.346 13.1488 2871 90.201 387.681 403.89
449 0 226.294 12.9654 2934 88.6561 387.827 405.658
450 0 233.301 13.3047 3104 88.9713 387.812 399.772
451 0 241.311 13.2899 3207 88.763 387.891 397.502
452 1 324.309 7.5761 2457 94.3639 388.663 408.452
453 0 325.273 7.91027 2573 95.981 388.371 399.635
454 0 323.308 8.18104 2645 96.0824 388.744 394.15
455 1 289.379 18.2322 5276 78.7187 388.345 364.047
456 0 294.361 16.9248 4982 83.553 389.351 359.884
457 0 296.364 13.966 4139 92.8043 388.092 363.111
458 0 304.381 12.8425 3909 96.8452 388.305 357.812
459 0 313.368 13.2592 4155 96.2036 388.712 355.273
460 1 329.296 12.1168 3990 98.1419 388.833 352.487
461 0 339.351 15.011 5094 91.7248 388.864 344.66
462 0 350.253 14.381 5037 93.6202 388.758 339.745
463 0 363.335 15.7981 5740 89.6676 388.882 334.679
464 0 374.264 15.1471 5669 92.0318 388.525 334.004
465 0 385.288 15.199 5856 93.7442 388.66 326.419
466 1 72.0466 8.57779 618 73.5291 387.613 501.814
467 0 72.1024 9.00109 649 72.3051 387.872 497.564
468 0 72.0413 9.18917 662 66.361 387.714 490.366
469 0 73.0795 8.52496 623 66.9005 388.252 494.862
470 0 76.0755 9.35913 712 70.4438 389.244 497.459
471 0 79.1619 11.0912 878 65.8018 388.833 487.595
472 0 77.19 9.85879 761 64.6557 389.825 481.959
473 0 84.0216 10.1283 851 69.6134 390.904 494.019
474 0 85.0713 10.3795 883 70.6002 388.889 492.146
475 0 85.0331 9.07882 772 73.2552 388.696 496.172
476 0 86.0542 8.77354 755 74.5099 388.189 495.126
477 0 86.0574 8.76159 754 114.939 388.207 495.032
478 0 91.0505 9.87365 899 76.3526 388.683 491.449
479 0 94.0544 10.1643 956 76.5031 389.042 489.922
480 0 102.175 14.759 1508 63.3256 388.318 484.468
481 0 105.188 14.764 1553 64.7057 388.551 483.536
482 1 58.0518 9.99108 580 74.7069 390.845 508.552
483 0 60.0526 10.7406 645 74.2279 391.023 506.184
484 0 62.1086 11.657 724 73.4876 390.702 505.275
485 0 61.1392 11.0077 673 75.0624 390.394 503.985
486 0 65.1783 11.4916 749 74.2363 390.138 503.286
487 0 67.0508 11.976 803 72.7734 389.167 503.565
488 0 68.075 12.31 838 76.8389 389.709 503.325
489 0 70.0564 12.4899 875 76.3943 390.206 503.003
490 0 71.0515 12.5543 892 73.9428 389.815 501.203
491 0 72.0667 12.7105 916 72.4694 389.881 502.275
492 0 74.1213 13.1676 976 72.3258 390.031 501.292
493 0 74.0468 12.114 897 75.2865 390.858 501.497
494 0 76.0353 12.4416 946 81.6268 391.035 499.031
495 0 79.0391 12.2851 971 80.6231 390.426 499.739
496 0 80.0447 12.5555 1005 81.4647 389.749 497.675
497 0 83.073 11.9293 991 83.2775 389.203 497.032
498 0 84.1379 12.5389 1055 80.818 389.357 495.926
499 0 87.0223 12.1923 1061 80.6975 389.298 497.528
500 0 88.0412 12.0171 1058 80.9565 389.125 496.462
501 0 91.0628 12.2223 1113 80.2201 389.19 493.896
502 0 93.0792 12.1294 1129 81.2374 389.105 492.576
503 1 52.0906 11.0193 574 79.7979 389.577 512.953
504 0 53.1179 11.5404 613 79.1077 389.943 511.005
505 0 54.0084 11.4427 618 77.2298 389.636 512.592
506 0 55.044 11.4272 629 76.2337 388.25 510.928
507 0 54.0554 10.5632 571 76.0403 387.046 511.597
508 0 53.086 10.6808 567 75.6437 387.676 512.16
509 0 56.0672 10.9155 612 73.6274 388.041 511.966
510 0 58.0309 10.3393 600 76.1083 387.597 510.238
511 0 58.1182 10.7884 627 76.2201 388.091 510.925
512 0 60.0707 11.1036 667 75.9505 388.538 509.166
513 0 60.0736 10.3873 624 77.3141 388.199 509.877
514 0 61.0347 10.5514 644 77.6444 387.348 510.217
515 0 64.0649 10.9576 702 79.2778 389.249 506.732
516 0 66.0506 11.3398 749 77.5247 388.542 506.908
517 0 67.0863 11.6119 779 77.6098 388.512 507.336
518 0 68.0643 11.0924 755 77.9073 388.848 506.795
519 0 70.0614 11.3044 792 76.9697 387.754 505.996
520 0 74.1095 11.3886 844 76.9171 388.434 504.399
521 0 77.0364 11.7217 903 77.4574 388.446 502.741
522 0 78.0763 11.3351 885 78.0362 388.59 500.947
523 0 82.0717 11.6362 955 77.2304 388.59 501.267
524 0 83.166 11.5552 961 82.0989 388.868 499.045
525 0 86.0939 12.8116 1103 81.0571 387.576 496.384
526 0 88.0865 12.3401 1087 83.5133 388.128 495.885
527 0 91.1225 11.5339 1051 84.9458 387.956 495.872
528 1 51.0741 9.96592 509 84.943 388.613 515.623
529 0 53.0388 9.84185 522 85.0613 388.695 514.669
530 0 53.0299 10.6166 563 85.3961 388.302 514.181
531 0 55.0785 10.9662 604 83.995 388.647 513.232
532 0 58.0602 10.9369 635 85.5622 385.357 512.672
533 0 53.0276 9.59877 509 77.9411 386.955 515.723
534 0 55.0218 9.99604 550 78.8345 386.091 514.407
535 0 54.0608 9.04538 489 171.249 386.454 513.793
536 0 58.0262 10.3057 598 79.2291 387.475 513.376
537 0 60.0418 10.6259 638 78.7853 386.682 512.608
538 0 62.0516 11.007 683 78.8638 387.454 509.736
539 0 63.0594 10.5932 668 79.8698 386.763 511.088
540 0 66.0414 10.8568 717 80.2008 387.294 508.492
541 0 69.055 10.6002 732 80.5273 386.642 509.63
542 0 70.057 10.5628 740 82.977 386.569 508.65
543 0 73.0634 10.7852 788 84.4353 385.773 507.602
544 0 74.1105 11.24 833 84.1573 385.55 505.869
545 0 78.0734 12.2449 956 82.9017 386.005 504.4
546 0 80.1299 11.4689 919 84.3243 386.453 504.505
547 0 84.095 12.367 1040 83.3673 386.621 502.016
548 0 86.098 12.5555 1081 82.9815 386.665 500.025
549 0 88.2236 12.355 1090 82.3284 386.669 498.149
550 0 92.1325 12.6557 1166 81.5832 386.541 496.317
551 1 47.0137 10.3162 485 84.4206 386.274 516.74
552 0 47.0096 11.0616 520 84.1558 386.804 513.252
553 0 52.1018 12.0533 628 84.293 386.744 515.826
554 0 49.0127 10.8135 530 80.4283 387.091 518.442
555 0 52.0254 10.6679 555 79.8072 387.195 518.344
556 0 53.0071 11.2249 595 78.2824 387.294 518.526
557 0 54.0171 10.6818 577 79.8458 387.458 518.035
558 0 55.0655 11.0232 607 78.5799 387.318 516.509
559 0 56.0251 10.6916 599 79.2137 387.521 516.319
560 0 58.0276 11.012 639 78.7387 387.557 515.153
561 0 61.0318 11.535 704 76.9929 387.483 513.871
562 0 62.0291 11.4301 709 78.5811 387.707 511.561
563 0 64.0487 11.5849 742 78.0081 387.892 512.891
564 0 65.1052 11.7809 767 78.8553 387.589 510.664
565 0 70.1176 11.9228 836 77.1304 387.075 511.591
566 0 70.057 11.7904 826 78.0872 387.086 508.841
567 0 73.0651 11.4829 839 79.2682 386.987 508.151
568 0 75.0755 11.908 894 77.0872 387.432 506.072
569 0 79.0503 12.0809 955 78.5089 387.592 505.904
570 0 82.1138 12.1173 995 80.3407 388.018 503.246
571 1 45.0581 11.3853 513 83.3041 387.899 522.392
572 0 46.009 11.1065 511 86.7789 387.753 520.912
573 0 48.0659 11.7339 564 86.4539 386.47 520.301
574 0 49.072 12.5122 614 84.9023 386.907 519.583
575 0 49.0259 12.9727 636 81.6777 387.58 519.322
576 0 51.0488 12.7329 650 80.7446 386.769 519.511
577 0 53.0599 13.1173 696 81.4382 387.493 518.471
578 0 55.0421 13.0082 716 82.5601 387.63 517.739
579 0 56.0137 12.8362 719 83.5702 387.581 516.517
580 0 57.0638 12.3371 704 84.983 386.734 516.919
581 0 60.0402 12.6249 758 83.6557 386.84 515.93
582 0 60.0554 13.1712 791 82.9456 386.35 515.303
583 0 63.0972 13.2969 839 82.739 386.799 512.866
584 0 64.0254 13.3384 854 83.219 386.97 512.393
585 0 66.0764 13.1666 870 84.2207 387.332 511.651
586 0 66.0968 12.3001 813 87.8118 387.825 511.863
587 0 69.1298 12.2523 847 86.4829 387.934 512.253
588 0 72.0706 12.8763 928 84.5075 387.322 510.29
589 0 73.1043 12.4343 909 86.3256 386.838 509.358
590 0 75.1648 12.4659 937 86.4749 387.068 509.763
591 0 77.1028 12.3731 954 87.8438 386.85 507.497
592 0 80.0705 12.9261 1035 87.3227 386.963 506.428
593 0 83.1617 13.1431 1093 86.5444 387.284 504.711
594 0 86.0871 12.6035 1085 87.9954 387.026 503.385
595 0 86.0615 12.8629 1107 89.2809 387.568 501.796
596 0 89.0426 12.7804 1138 89.6459 387.516 500.11
597 0 93.1921 13.22 1232 88.8953 387.399 497.235
598 0 97.2348 13.2874 1292 87.7345 387.138 497.064
599 0 100.148 13.3902 1341 87.047 386.998 496.527
600 0 104.162 13.5078 1407 85.8273 386.222 492.652
601 0 109.176 13.7851 1505 85.695 387.117 490.718
602 0 111.139 14.1265 1570 85.407 387.312 487.878
603 1 63.05 13.1324 828 90.1051 387.172 513.13
604 0 64.0635 12.6905 813 92.8303 387.493 512.025
605 0 67.0884 13.3108 893 91.5566 387.697 512.068
606 0 69.096 13.1267 907 97.2448 386.509 510.733
607 0 73.1152 13.0205 952 96.4643 386.27 509.651
608 0 76.0852 13.4455 1023 93.6149 386.228 508.689
609 0 79.2084 13.5844 1076 92.9071 386.362 508.4
610 0 80.1154 13.0686 1047 95.7077 386.092 506.135
611 0 82.2192 12.6613 1041 97.0701 386.565 506.82
612 0 86.1558 12.872 1109 96.367 386.178 504.638
613 0 88.1476 13.398 1181 96.2743 386.277 502.903
614 0 90.1992 13.0932 1181 96.4826 386.262 500.19
615 0 94.1962 13.5143 1273 94.3574 386.069 499.067
616 0 97.1406 14.0003 1360 92.0059 386.04 498.194
617 0 99.2152 13.1633 1306 93.9349 385.54 495.902
618 0 102.196 13.4839 1378 93.5842 385.408 494.668
619 1 52.0273 12.0706 628 90.414 385.202 518.683
620 0 53.0195 12.2596 650 90.6292 385.048 518.238
621 0 54.0496 13.0621 706 89.6544 385.405 515.537
622 0 58.0228 12.7536 740 88.7703 385.864 515.976
623 0 59.0618 12.9525 765 89.0209 386.157 514.515
624 0 60.0454 13.4232 806 85.0633 385.954 514.557
625 0 62.061 13.7284 852 85.7441 386.387 513.156
626 0 64.083 13.3577 856 88.7336 385.746 512.738
627 0 66.0559 14.079 930 87.7656 385.866 511.738
628 0 68.067 13.5896 925 89.6032 385.756 509.975
629 0 70.0855 13.4122 940 90.7032 386.021 509.086
630 0 71.115 13.7524 978 90.6074 386.293 508.146
631 0 77.0605 13.5997 1048 98.9723 387.06 506.094
632 0 79.0892 13.706 1084 98.0664 386.926 505.319
633 0 80.1127 13.7931 1105 99.276 386.776 504.539
634 0 86.0847 13.6261 1173 100.219 386.293 503.096
635 0 88.0779 14.2374 1254 98.303 387.092 500.434
636 0 89.0656 14.0458 1251 99.6187 386.805 500.311
637 1 45.0129 11.3301 510 100.653 386.045 522.718
638 0 44.0313 12.264 540 100.948 386.117 521.931
639 0 46.0342 12.469 574 101.267 385.512 520.679
640 0 48.0258 13.0138 625 99.4544 385.664 518.704
641 0 49.2532 13.055 643 97.0404 386.647 517.762
642 0 49.0555 12.1903 598 93.7074 386.962 518.661
643 0 51.0499 12.4976 638 99.4545 387.622 518.87
644 0 51.0626 12.9841 663 98.8024 387.719 517.762
645 0 55.0351 13.3733 736 97.9253 387.866 517.238
646 0 55.0358 13.1006 721 98.1123 387.881 515.503
647 0 57.1253 13.024 744 98.6653 386.895 513.608
648 0 60.1391 13.3025 800 96.9262 387.315 514.358
649 0 62.0488 13.2799 824 97.4939 387.192 514.005
650 0 64.1397 13.4862 865 97.3225 387.242 511.206
651 0 66.1305 13.0197 861 97.5726 387.885 509.597
652 0 70.1054 13.3656 937 97.1334 387.885 509.016
653 0 71.1681 13.6438 971 98.5747 388.052 507.957
654 0 73.122 13.4159 981 98.3537 388.144 505.632
656 0 76.105 14.4669 1101 103.655 387.845 505.586
657 0 77.2675 13.9515 1078 106.863 387.994 504.411
658 0 80.1108 14.5673 1167 101.001 388.232 499.431
659 0 83.121 14.6774 1220 100.63 388.061 498.178
660 0 84.2225 13.9986 1179 102.693 388.14 496.949
661 0 88.1379 14.5567 1283 102.876 388.02 496.433
662 0 91.182 13.2482 1208 100.781 388.065 497.166
663 0 95.0774 13.7782 1310 97.542 388.371 493.778
664 0 101.176 13.4321 1359 99.1965 388.556 492.928
665 0 103.078 13.5529 1397 99.7888 388.07 493.398
666 1 55.0821 14.4512 796 103.521 387.872 515.002
667 0 56.0713 14.4994 813 104.752 388.194 513.439
668 0 57.0758 14.1741 809 105.978 386.878 512.818
669 0 56.0532 14.0581 788 102.907 386.773 512.279
670 0 59.115 14.1757 838 105.692 386.958 510.727
671 0 62.08 14.7874 918 103.407 387.387 509.711
672 0 64.0713 15.3423 983 102.18 388.432 509.083
673 0 65.0829 14.6275 952 104.756 387.63 506.947
674 0 67.0942 14.7703 991 105.621 388.241 506.548
675 0 71.1111 15.4828 1101 102.777 387.979 504.634
676 0 72.1566 14.9397 1078 106.289 387.621 504.734
677 0 75.1157 15.1899 1141 104.84 387.374 503.093
678 0 75.1355 15.146 1138 107.481 387.66 501.654
679 0 81.148 15.0589 1222 106.711 387.282 502.219
680 0 82.1488 15.5936 1281 106.368 386.849 499.448
681 0 85.19 15.3774 1310 107.212 387.536 498.451
682 0 87.1799 15.1985 1325 108.802 387.701 498.019
683 0 90.1121 15.2033 1370 109.648 387.637 495.157
684 0 94.099 15.5475 1463 106.563 388.873 494.412
685 0 97.0442 15.3538 1490 101.591 388.932 492.992
686 1 51.0943 13.3479 682 111.204 389.296 512.367
687 0 52.0732 13.9035 724 109.649 388.652 512.018
688 0 54.0706 13.9817 756 110.488 388.993 511.118
689 0 55.1214 14.4408 796 110.592 388.329 510.318
690 0 57.1024 13.7647 786 111.567 388.623 510.455
691 0 60.1751 14.3747 865 109.868 388.792 509.734
692 0 61.187 14.2514 872 110.875 388.556 509.12
693 0 64.2013 14.3144 919 111.505 388.428 507.891
694 0 64.1028 14.508 930 112.985 388.472 507.254
695 0 66.1667 14.0705 931 114.121 388.019 506.29
696 0 69.1428 14.3905 995 113.621 387.987 505.189
697 0 69.1233 14.3512 992 115.628 387.84 504.875
698 0 73.3642 14.7347 1081 113.562 387.105 503.5
699 0 75.3175 14.8438 1118 113.877 387.747 503.267
700 0 78.2667 14.6039 1143 113.608 387.605 501.402
701 0 80.2881 14.5974 1172 114.02 387.699 500.38
702 0 81.3783 15.0286 1223 112.981 388.192 500.257
703 0 83.2545 14.1494 1178 116.52 387.733 496.07
704 0 85.4455 14.8633 1270 114.499 387.992 497.267
705 0 87.1768 14.786 1289 114.818 387.39 494.82
706 0 90.1068 14.5383 1310 113.023 387.66 491.509
707 0 93.091 14.3193 1333 113.399 386.556 493.335
708 0 93.2183 14.3105 1334 115.901 386.272 492.046
709 0 99.1234 14.8199 1469 112.668 386.065 491.752
710 0 102.109 14.3083 1461 114.428 386.637 490.478
711 1 54.1164 11.9188 645 115.653 386.425 512.51
712 0 55.1342 11.735 647 116.219 386.493 509.587
713 0 55.0673 11.8945 655 116.307 386.763 508.137
714 0 59.1268 12.1096 716 113.858 386.328 507.267
715 0 59.1652 11.8651 702 114.224 387.101 504.924
716 0 63.1604 12.9828 820 109.424 387.35 504.321
717 0 65.1399 12.2506 798 111.393 386.916 501.65
718 0 66.174 11.908 788 112.902 386.739 502.599
719 0 70.1905 11.1981 786 115.139 387.225 500.134
720 0 71.1622 11.256 801 115.714 387.24 497.614
721 0 73.2192 11.1993 820 114.322 387.191 496.621
722 0 77.2043 10.945 845 115.057 387.262 494.417
723 0 80.2109 11.183 897 114.561 386.756 492.837
724 1 41.1159 9.48538 390 90.0308 387.695 517.297
725 0 45.0558 10.6091 478 93.795 387.356 520.667
726 0 45.0236 11.2163 505 94.6455 386.873 521.487
727 0 48.019 10.954 526 94.924 386.38 520.903
728 0 48.019 10.5375 506 97.0415 387 519.364
729 0 48.008 11.0398 530 98.217 386.494 517.002
730 0 51.0242 10.4656 534 98.0693 386.865 518.472
731 0 55.0858 10.6198 585 96.9231 386.872 516.632
732 0 56.0626 10.8985 611 97.3061 386.954 516.851
733 0 58.0565 10.3175 599 98.2905 387.002 514.895
734 0 59.0352 10.4853 619 97.6914 386.83 513.88
735 0 61.0231 10.3076 629 100.159 386.844 512.707
736 0 64.03 10.7606 689 97.6589 386.602 510.322
737 1 35.0066 9.22682 323 104.616 386.731 524.82
738 0 37.0158 8.96915 332 106.271 386.795 523.494
739 0 36.0578 9.29063 335 104.752 386.872 523.388
740 0 38.0073 9.23506 351 103.957 387.658 521.154
741 0 39.015 10.5344 411 94.5036 387.596 521.304
742 0 41.0363 10.1374 416 97.2476 386.474 520.418
743 0 38.0382 9.6219 366 104.044 386.956 521.852
744 0 39.0126 8.99709 351 106.265 385.869 521.1
745 0 41.0287 9.11557 374 103.88 386.674 520.479
746 0 43.0385 9.47989 408 103.748 386.238 519.529
747 0 41.0158 9.09407 373 107.936 386.44 518.769
748 0 43.0475 9.08299 391 109.043 386.864 518.43
749 0 46.0288 9.68959 446 107.195 386.043 517.325
750 0 46.0279 9.25525 426 108.972 386.798 515.765
751 0 47.0082 8.84953 416 110.721 386.772 515.356
752 0 50.0259 9.89487 495 108.101 386.897 514.374
753 0 49.0203 9.05746 444 110.171 386.709 514.401
754 0 53.0169 8.88395 471 107.416 386.422 512.866
755 0 54.0455 9.418 509 107.116 385.629 512.428
756 0 55.025 8.74148 481 107.622 385.973 512.823
757 0 60.0584 7.60926 457 109.873 385.755 510.934
758 0 60.0923 9.13595 549 107.246 385.822 509.337
759 0 67.1028 6.97437 468 110.058 386.152 512.308
760 0 67.1924 7.84315 527 110.262 386.154 508.347
761 0 65.1404 8.8885 579 107.549 386.247 506.105
762 1 37.0343 9.66672 358 110.12 385.891 518.196
763 0 37.0509 9.8783 366 110.508 385.839 519.325
764 0 32.042 8.27041 265 104.125 387.604 521.479
765 0 29.0209 8.16654 237 107.667 386.19 523.489
766 0 34.0644 7.72066 263 105.053 386.836 522.878
767 1 71.1789 8.5278 607 114.334 386.165 502.601
768 0 71.1714 8.30389 591 117.641 386.44 501.552
769 0 74.1412 8.47032 628 116.814 386.49 501.03
770 0 77.2436 8.37609 647 119.478 386.937 500.878
771 0 79.222 8.68446 688 120.942 387.435 497.831
772 0 82.1958 8.80823 724 120.329 387.265 497.626
773 1 41.0522 8.1847 336 110.277 387.94 519.292
774 0 45.0542 9.25551 417 104.993 386.518 518.906
775 0 47.036 9.94982 468 103.84 385.998 515.261
776 0 48.0877 9.54506 459 103.346 386.765 515.867
777 0 48.0663 9.32046 448 104.036 386.996 514.975
778 0 51.0544 9.53884 487 102.6 386.575 514.624
779 0 50.0332 9.21389 461 103.037 386.306 514.347
780 0 53.0777 9.08103 482 103.832 387.415 513.888
781 0 54.0725 9.74617 527 100.537 387.209 513.476
782 0 57.1143 9.1921 525 101.733 386.364 513.402
783 0 56.1215 8.6776 487 102.287 387.405 512.647
784 0 58.1063 9.48262 551 98.6969 386.247 511.944
785 0 59.1131 9.52411 563 100.403 386.616 508.476
786 0 61.0542 9.43425 576 98.2066 386.87 507.517
787 0 63.1159 9.23697 583 98.6055 386.864 507.942
788 0 65.1048 8.54008 556 98.6421 387.147 506.182
789 0 69.0524 9.58692 662 96.9834 387.085 502.98
790 0 73.2172 9.69718 710 96.107 387.577 503.783
791 0 72.0921 9.51561 686 99.2901 388.48 504.265
792 0 75.0951 9.82754 738 98.374 388.148 502.999
793 0 81.1339 11.29 916 94.4509 387.844 500.816
794 0 81.0906 10.7164 869 97.1956 387.465 499.871
795 0 85.0832 11.2243 955 94.7927 387.79 497.448
796 0 87.0712 11.0484 962 95.3659 387.902 496.409
797 0 90.0948 11.1216 1002 94.7305 388.844 495.674
798 0 92.0941 10.1852 938 95.1034 388.225 495.18
799 0 95.0799 10.7383 1021 93.4427 388.907 491.649
800 0 98.0688 10.7781 1057 91.8874 389.068 492.484
801 0 98.0762 9.98203 979 93.4362 389.283 491.653
802 1 55.0415 10.5557 581 90.1807 387.967 515.072
803 0 56.0247 10.3347 579 92.9931 388.022 514.993
804 0 57.0683 11.0569 631 90.6276 387.388 515.124
805 0 60.0502 11.9234 716 97.7067 387.236 512.397
806 0 63.0132 12.4736 786 97.4237 386.529 511.319
807 0 57.0685 10.2859 587 98.3186 387.458 515.55
808 0 62.0462 11.8138 733 91.9932 386.937 513.969
809 0 63.0543 11.276 711 93.2349 386.999 512.679
810 0 62.0624 11.2145 696 91.8175 386.76 513.312
811 0 66.0853 11.6213 768 90.8711 386.961 510.875
812 0 69.0355 11.6462 804 90.4304 386.241 510.989
813 0 71.1024 12.2359 870 89.1287 387.041 509.528
814 0 73.0952 11.8065 863 90.9594 386.818 507.642
815 0 75.0648 11.4568 860 91.45 386.221 508.217
816 0 78.1291 12.0058 938 90.1716 386.62 507.158
817 0 81.0714 11.8291 959 89.7028 386.333 506.235
818 0 84.1569 12.7856 1076 87.5809 386.216 503.637
819 0 85.0771 11.4837 977 91.2866 386.459 502.105
820 0 88.1004 12.1679 1072 89.6418 386.618 500.618
821 1 49.0189 11.8322 580 92.4293 385.56 518.457
822 0 51.0172 12.29 627 89.4067 386.238 517.66
823 0 50.0298 12.3526 618 94.8333 386.086 516.118
824 0 52.0773 12.2126 636 96.3868 387.225 516.388
825 0 55.0997 12.5409 691 95.5239 387.162 517
826 0 55.0934 12.9054 711 94.8819 386.882 517.519
827 0 58.0524 12.6093 732 94.8607 387.182 516.572
828 0 58.0847 12.3785 719 96.4757 386.153 515.238
829 0 61.0734 12.6569 773 95.141 386.56 515.22
830 0 63.0755 12.6357 797 93.1443 386.908 515.346
831 0 64.0872 12.8107 821 95.4653 386.514 513.174
832 0 67.0796 13.6256 914 92.2013 386.361 513.279
833 0 69.1446 12.9439 895 94.1151 386.37 512.413
834 0 70.1068 12.8518 901 95.0855 386.772 511.504
835 0 72.168 13.5101 975 94.9067 386.809 511.608
836 0 73.1629 13.4904 987 97.234 385.868 509.497
837 0 75.1541 13.2794 998 98.2144 385.633 508.145
838 0 78.0931 13.3943 1046 97.8556 386.672 507.234
839 0 79.1654 13.6549 1081 99.1406 386.266 506.296
840 0 82.1494 14.0597 1155 98.7463 385.341 505.318
841 0 83.138 13.7843 1146 100.779 385.736 503.366
842 0 85.1734 13.5606 1155 101.837 385.014 502.852
843 0 87.1725 13.6281 1188 101.833 384.823 500.029
844 0 91.0906 13.7775 1255 96.4566 385.307 499.021
845 0 92.1246 13.6554 1258 97.0533 385.358 497.477
846 0 94.0947 13.8478 1303 97.4597 385.803 494.909
847 0 97.1533 13.3706 1299 96.8607 385.423 494.125
848 1 53.0699 12.0784 641 95.7145 385.145 514.925
849 0 55.0118 11.5248 634 98.3817 384.621 513.751
850 0 57.0494 12.9712 740 95.0014 384.482 513.766
851 0 58.0553 12.867 747 95.6961 385.008 512.161
852 0 59.049 13.1755 778 96.0373 384.923 511.695
853 0 61.0694 13.2964 812 100.09 384.676 509.69
854 0 63.0395 12.8808 812 101.085 384.677 509.813
855 0 64.0191 13.6522 874 99.4314 385.207 509.823
856 0 67.036 13.366 896 98.9855 385.004 507.896
857 0 70.0174 13.1967 924 100.043 385.361 506.025
858 0 72.0497 13.6017 980 98.601 384.608 505.25
859 0 74.0611 13.8534 1026 98.4756 385.228 503.52
860 0 77.0308 13.7867 1062 98.8088 385.385 504.032
861 0 79.0528 13.7377 1086 99.082 384.841 501.904
862 0 80.0271 13.5329 1083 100.19 385.388 501.002
863 0 83.0784 12.8553 1068 98.9551 385.36 498.37
864 0 84.0322 13.2568 1114 99.1176 385.379 495.414
865 0 87.0392 13.8214 1203 98.8545 385.273 496.994
866 0 90.0599 13.2912 1197 101.008 385.398 494.307
867 0 93.1304 13.5402 1261 100.688 384.983 492.598
868 0 95.0658 14.0639 1337 99.653 385.16 491.211
869 0 98.1175 13.7794 1352 99.4024 384.612 490.602
870 1 49.0448 11.5201 565 97.7788 385.152 513.326
871 0 52.1339 12.6022 657 98.6636 384.365 514.126
872 0 53.0241 12.1454 644 89.6708 384.759 512.085
873 0 54.0667 12.4291 672 97.6518 384.717 510.955
874 0 57.0866 12.5073 714 96.1919 385.104 511.136
875 0 58.0579 13.366 776 98.9072 384.903 514.153
876 0 62.0756 13.9185 864 96.8819 384.772 512.766
877 0 63.0409 13.7371 866 98.2887 385.706 511.804
878 0 66.1073 13.5991 899 98.0756 385.691 511.502
879 0 67.0834 14.713 987 96.155 385.954 511.038
880 0 68.1055 13.4644 917 101.001 385.246 508.39
881 0 70.114 13.7633 965 101.081 385.432 507.15
882 0 74.2475 13.9399 1035 99.9932 385.091 507.49
883 0 75.2358 13.77 1036 101.756 385.935 506.025
884 0 79.1135 13.803 1092 101.579 385.63 504.835
885 0 79.1499 13.4808 1067 103.468 386.25 502.93
886 0 82.1476 13.5366 1112 101.066 386.974 499.935
887 0 82.1476 13.5366 1112 170.856 386.974 499.935
888 1 43.0487 11.6612 502 94.247 387.861 522.151
889 0 44.0671 11.3463 500 95.86 386.794 521.148
890 0 44.0806 11.1614 492 96.3415 386.25 520.876
891 0 46.1082 12.3839 571 93.993 386.58 519.2
892 0 46.0946 12.0188 554 99.2437 386.834 518.419
893 0 46.0997 12.8634 593 101.378 386.358 517.934
894 0 47.1359 13.005 613 101.468 386.419 517.401
895 0 51.1485 13.4706 689 97.8026 386.316 516.025
896 0 51.0889 13.0557 667 97.3568 386.399 516.156
897 0 54.0369 13.0836 707 97.1018 386.243 515.089
898 0 53.1128 13.5561 720 97.6833 386.197 514.701
899 0 55.0856 13.361 736 97.3533 386.692 513.683
900 0 59.0958 13.3681 790 97.9266 386.476 512.167
901 0 60.1196 13.207 794 99.1083 387.076 511.021
902 0 63.1875 13.4362 849 98.2521 387.221 510.617
903 0 64.1608 13.4038 860 100.022 386.457 509.259
904 0 66.1037 13.2065 873 100.794 386.328 508.696
905 0 68.0775 13.4846 918 100.733 386.809 506.115
906 0 68.1213 13.2558 903 102.382 386.513 505.236
907 0 72.0894 13.622 982 101.291 387.498 503.52
908 0 75.1301 13.9491 1048 100.149 386.945 503.899
909 0 77.1346 13.5477 1045 102.414 387.084 501.768
910 0 76.1303 12.2028 929 97.5544 387.01 501.839
911 1 41.0908 11.9978 493 96.0122 387.079 520.434
912 0 42.0414 11.9882 504 98.0258 386.369 519.492
913 0 44.0122 12.4511 548 102.119 387.54 518.635
914 0 46.0766 13.0001 599 99.8447 386.364 518.618
915 0 47.0603 12.8346 604 104.694 386.401 517.151
916 0 46.044 11.7496 541 97.9131 387.377 518.54
917 0 45.0672 12.1152 546 98.4176 387.663 518.172
918 0 48.0721 11.878 571 98.1629 387.527 517.625
919 0 49.0385 11.6439 571 98.7233 387.207 516.662
920 0 51.1092 12.17 622 97.59 387.003 516.778
921 0 53.0727 11.9459 634 97.8296 387.047 516.864
922 0 55.1378 12.4597 687 96.425 386.815 516.268
923 0 55.1015 12.1049 667 97.8726 387.169 517.109
924 0 56.0204 12.2634 687 98.706 386.629 515.399
925 0 59.0678 12.4264 734 98.1866 386.14 513.8
926 0 62.1204 12.3792 769 98.2614 385.994 512.844
927 0 63.072 12.5888 794 99.4748 386.286 513.39
928 0 66.0929 12.9061 853 100.977 385.973 512.54
929 0 67.1033 12.8161 860 102.343 385.069 511.541
930 0 69.0847 13.2446 915 101.321 385.507 511.996
931 0 71.1626 13.167 937 101.991 385.289 510.858
932 0 74.1156 12.4805 925 103.648 385.613 508.776
933 0 77.1243 13.0698 1008 101.935 385.373 509.776
934 0 81.1716 13.2436 1075 102.008 384.922 506.018
935 0 83.1194 13.2219 1099 101.06 385.5 505.427
936 0 86.0766 12.7328 1096 103.359 385.605 503.213
937 1 48.0734 12.5225 602 109.126 384.384 521.698
938 0 48.1977 13.0712 630 111.202 383.889 520.336
939 0 50.0917 12.557 629 101.544 385.169 519.819
940 0 49.0432 11.5612 567 101.474 384.434 523.908
941 0 52.0386 12.7213 662 98.1072 384.275 523.151
942 0 51.0692 12.8061 654 98.9648 384.546 523.428
943 0 53.0648 12.3246 654 100.06 384.483 522.089
944 0 56.0402 12.152 681 100.333 384.988 521.58
945 0 57.0442 11.9907 684 102.032 385.022 520.298
946 0 59.0555 12.3105 727 101.034 384.074 518.74
947 0 60.0442 12.5408 753 101.551 384.105 516.818
948 0 62.049 12.8769 799 101.428 383.782 515.557
949 0 65.0203 12.4576 810 103.252 384.919 514.616
950 0 68.0276 12.2597 834 97.4293 384.821 510.719
951 0 70.0526 11.991 840 107.381 384.87 511.44
952 0 73.1054 12.4204 908 105.583 385.88 510.05
953 0 73.0487 12.0194 878 107.782 386.347 509.663
954 0 77.1287 12.5634 969 107.399 386.444 507.048
955 1 39.0931 11.4598 448 108.045 384.743 525.83
956 0 41.0859 11.9992 493 94.9594 385.339 525.221
957 0 43.0682 12.9794 559 93.1753 385.751 523.871
958 0 45.0399 12.389 558 95.4032 385.378 523.518
959 0 46.0887 12.975 598 94.2308 385.211 521.741
960 0 48.1124 12.741 613 95.4747 385.08 521.915
961 0 47.0628 13.2589 624 97.0849 385.774 520.303
962 0 50.0968 13.1745 660 95.2606 386.018 519.1
963 0 51.0384 13.8131 705 93.922 385.274 518.667
964 0 53.0845 13.7328 729 95.0672 386.102 518.827
965 0 54.0488 12.7107 687 98.5095 385.463 517.961
966 0 57.0339 12.7293 726 96.7121 385.377 514.625
967 0 58.0203 13.0816 759 95.1199 385.967 516.596
968 0 61.0514 12.8744 786 95.215 386.121 515.614
969 0 63.0422 13.1975 832 94.2296 385.96 512.66
970 0 64.0072 12.3267 789 97.7313 385.744 511.458
971 0 66.019 13.2689 876 94.8562 385.951 509.443
972 0 68.0747 12.8976 878 95.5011 386.527 510.426
973 0 69.0297 12.8061 884 96.3496 386.095 508.851
974 0 73.044 12.8827 941 95.0117 386.791 508.306
975 0 74.0529 12.8557 952 95.3204 386.695 507.555
976 0 78.0372 13.3013 1038 93.8757 386.96 504.52
977 0 79.0482 13.0047 1028 95.6206 387.32 504.557
978 0 83.0504 13.1246 1090 94.2771 387.284 502.192
979 0 84.03 13.0311 1095 105.25 387.847 502.434
980 0 89.0312 13.1078 1167 105.64 387.122 502.536
981 0 89.0442 12.4994 1113 107.687 386.863 499.128
982 0 95.0694 13.0747 1243 94.5117 386.21 498.361
983 1 53.0613 12.0992 642 93.7617 387.148 519.15
984 0 54.0401 11.658 630 97.8794 386.068 518.157
985 0 55.0458 11.5177 634 97.8675 386.397 515.675
986 0 56.0353 11.9032 667 96.7032 386.454 514.901
987 0 59.0306 11.9938 708 95.9661 386.566 513.671
988 0 63.0544 12.6399 797 92.9272 386.572 512.304
989 0 64.0603 12.5975 807 94.0149 386.489 511.035
990 0 64.0191 12.0433 771 96.2866 386.852 510.52
991 0 67.0516 12.6171 846 95.7589 386.381 508.408
992 0 69.0805 12.8256 886 97.8307 386.244 506.986
993 0 72.0453 12.7697 920 97.6587 386.492 506.278
994 0 74.0451 12.3708 916 102.181 386.432 504.828
995 0 77.0293 12.4368 958 101.491 386.302 503.104
996 0 81.0339 12.3158 998 103.019 385.921 501.496
997 0 83.0466 12.5713 1044 102.178 386.506 500.517
998 0 85.0794 12.6117 1073 102.264 386.855 496.441
999 0 89.1382 13.3052 1186 101.124 386.395 492.995
1000 0 93.157 13.3645 1245 99.3815 386.635 492.697
1001 0 96.1395 12.7419 1225 100.572 386.467 490.437
1002 0 97.206 13.0753 1271 101.903 386.502 488.675
1003 0 103.283 13.7487 1420 98.8472 387.037 487.536
1004 0 105.187 12.7107 1337 101.539 387.245 485.488
1005 0 109.199 12.9763 1417 99.9732 386.742 483.893
1006 0 114.207 13.4054 1531 98.1228 387.564 481.676
1007 0 117.286 12.9086 1514 99.6717 388.093 480.429
1008 0 120.219 12.7351 1531 99.8263 387.969 478.736
1009 1 63.0931 11.5861 731 93.0752 386.856 508.003
1010 0 65.1086 11.6728 760 93.7987 386.979 511.225
1011 0 66.204 11.9177 789 99.3625 387.157 504.422
1012 0 69.0816 12.9412 894 92.198 387.894 507.076
1013 0 70.0675 12.6021 883 93.1925 387.419 506.028
1014 0 71.0316 11.4034 810 96.7494 387.41 505.552
1015 0 75.0352 12.1809 914 93.0394 387.09 505.258
1016 0 77.0726 12.0406 928 94.3782 386.988 504.323
1017 0 79.0705 12.4572 985 94.8822 387.353 503.59
1018 0 82.0429 12.5422 1029 92.6608 388.42 502.375
1019 0 85.0793 12.3062 1047 94.8586 388.187 499.385
1020 0 87.0754 12.2882 1070 95.2421 388.006 497.658
1021 0 91.0656 12.4635 1135 94.7586 388.788 497.382
1022 0 93.0583 12.4546 1159 96.8456 389.155 496.426
1023 0 96.1937 11.8615 1141 98.8133 388.975 495.325
1024 0 101.22 11.7664 1191 98.3997 388.361 491.417
1025 0 105.239 11.9633 1259 97.9611 388.052 486.985
1026 1 57.2497 10.5153 602 98.8223 387.347 510.831
1027 0 59.2278 11.4642 679 99.162 386.632 512.097
1028 0 61.0986 11.686 714 100.744 386.993 512.202
1029 0 64.1635 11.9538 767 98.2529 386.653 509.877
1030 0 62.0352 12.6058 782 97.9936 386.228 510.641
1031 0 62.0305 12.51 776 141.559 385.211 510.635
1032 0 65.0527 12.4514 810 95.7691 386.656 509.572
1033 0 69.0748 12.3634 854 94.7705 386.379 508.437
1034 0 70.042 12.8923 903 94.3389 386.904 506.918
1035 0 73.0568 12.8941 942 94.8546 386.786 505.293
1036 0 75.0658 12.8421 964 95.0716 386.047 504.739
1037 0 79.0905 13.2254 1046 95.4206 386.698 503.52
1038 0 80.0426 13.193 1056 97.2595 386.652 503.482
1039 0 83.099 13.4177 1115 96.8126 386.124 500.353
1040 0 84.0966 13.1753 1108 98.8971 385.759 500.441
1041 0 86.0803 13.0343 1122 98.8012 386.346 498.901
1042 0 91.1297 13.5082 1231 97.3461 386.19 497.634
1043 0 93.088 13.5571 1262 99.0737 386.75 496.586
1044 0 94.1239 12.6004 1186 103.503 386.043 496.666
1045 0 97.2107 12.8278 1247 103.655 386.54 493.494
1046 0 100.127 13.1333 1315 104.102 386.853 492.554
1047 1 55.0478 11.0994 611 103.843 387.187 515.727
1048 0 56.062 11.1662 626 104.235 387.468 515.487
1049 0 58.0075 12.1019 702 99.7963 385.915 512.879
1050 0 61.1399 12.2506 749 101.806 386.33 511.581
1051 0 61.1066 12.4864 763 102.438 385.75 512.62
1052 0 63.1485 12.3993 783 102.109 386.258 512.936
1053 0 65.0955 12.4893 813 101.192 386.237 512.187
1054 0 68.111 12.3328 840 104.929 386.995 511.646
1055 0 66.0451 11.3407 749 102.638 387.092 514.152
1056 0 66.0539 11.2332 742 105.341 386.632 512.784
1057 0 67.0607 11.0497 741 105.456 386.864 512.398
1058 0 71.1524 12.2554 872 101.042 386.896 512.017
1059 0 74.1194 12.3584 916 100.354 387.353 510.704
1060 0 76.0799 11.6325 885 101.941 386.702 507.098
1061 0 78.1095 11.8552 926 102.355 387.259 505.324
1062 0 81.1758 12.011 975 101.115 386.291 505.656
1063 0 82.0957 11.7911 968 104.048 386.479 502.991
1064 0 85.1369 12.4858 1063 102.068 386.823 502.1
1065 0 86.093 11.4063 982 106.425 386.787 500.934
1066 0 91.1285 12.3342 1124 104.135 387.684 499.188
1067 0 93.1599 11.9579 1114 104.287 388.003 496.424
1068 0 93.079 11.5064 1071 104.098 387.786 494.021
1069 0 99.136 12.2761 1217 101.044 387.599 490.958
1070 0 102.191 12.3788 1265 101.557 386.875 487.277
1071 0 104.204 12.0821 1259 102.593 387.523 486.852
1072 1 55.0591 10.9519 603 103.609 386.28 511.599
1073 0 57.0239 11.5039 656 101.655 386.675 513.078
1074 0 60.0896 12.5978 757 98.1968 386.542 513.75
1075 0 60.0903 12.0652 725 101.859 386.028 512.786
1076 0 63.0955 12.0769 762 102.635 385.963 513.319
1077 0 65.1108 12.041 784 104.052 385.392 511.014
1078 0 66.1284 12.0221 795 102.097 385.67 511.331
1079 0 68.1883 11.5709 789 103.243 386.188 510.131
1080 0 71.1161 11.8679 844 100.775 385.985 508.588
1081 0 73.1627 11.5769 847 102.233 386.081 506.612
1082 0 75.1355 12.1248 911 101.864 385.909 505.867
1083 0 77.0471 11.7201 903 107.29 386.352 505.79
1084 0 83.0626 12.9902 1079 102.187 386.067 504.662
1085 0 83.1867 13.043 1085 102.401 386.93 503.826
1086 0 88.2812 13.2871 1173 101.383 387.003 501.974
1087 0 89.123 12.7128 1133 102.808 387.432 500.443
1088 0 91.2732 12.731 1162 104.826 387.083 499.706
1089 0 94.3363 12.9643 1223 118.783 387.67 497.945
1090 0 97.253 13.3466 1298 113.441 387.044 497.446
1091 1 48.1733 10.8774 524 113.754 387.38 520.061
1092 0 49.1143 11.3613 558 109.622 386.642 520.066
1093 0 52.0832 11.808 615 111.68 386.237 519.954
1094 0 55.1095 12.4479 686 111.653 386.34 518.956
1095 0 54.0497 12.507 676 113.95 387.084 518.401
1096 0 58.1314 12.6954 738 111.075 386.916 518.421
1097 0 60.1406 12.5872 757 111.196 387.015 516.723
1098 0 61.1209 12.8107 783 111.407 387.2 516.442
1099 0 64.1188 12.8823 826 110.054 388.609 518.073
1100 0 64.1339 12.7702 819 111.813 388.269 514.648
1101 0 67.2122 12.2597 824 111.529 387.905 513.12
1102 0 69.1733 12.4904 864 110.693 387.076 510.24
1103 0 70.1212 12.0934 848 112.142 387.281 510.77
1104 0 72.1549 12.6118 910 110.704 386.992 510.151
1105 0 77.1261 12.499 964 108.629 386.772 509.765
1106 0 80.0769 12.9376 1036 108.169 387.037 508.32
1107 0 83.0824 12.7945 1063 107.86 386.666 504.96
1108 0 84.2028 12.8024 1078 107.712 386.679 501.873
1109 0 89.2698 12.7031 1134 104.655 386.198 502.117
1110 0 92.2597 12.6166 1164 105.539 386.598 500.956
1111 1 45.1585 11.5814 523 105.413 386.759 522.359
1112 0 47.1012 11.7831 555 106.332 386.27 520.753
1113 0 49.1232 13.0692 642 102.536 386.198 521.02
1114 0 51.161 12.4704 638 104.751 386.027 520.462
1115 0 53.1551 12.4165 660 105.78 386.189 518.803
1116 0 55.1181 11.938 658 107.318 386.029 518.269
1117 0 56.1971 12.1181 681 106.599 386.557 517.692
1118 0 58.0956 12.0835 702 106.345 386.278 517.694
1119 0 62.0371 12.9922 806 102.15 386.509 516.728
1120 0 62.0826 12.4995 776 104.311 386.653 516.009
1121 0 64.1338 12.396 795 104.869 386.348 514.985
1122 0 67.1327 13.1382 882 103.154 386.305 513.967
1123 0 69.0974 12.9093 892 103.442 385.807 512.184
1124 0 71.0903 12.6881 902 105.314 385.998 512.09
1125 0 73.1584 13.4913 987 103.988 385.856 511.537
1126 0 74.1059 13.5077 1001 105.814 385.517 510.48
1127 0 77.077 14.1157 1088 104.573 386.134 508.986
1128 0 78.0863 13.0497 1019 110.512 386.241 507.882
1129 0 80.044 12.9429 1036 111.856 385.879 506.198
1130 0 83.0776 13.8425 1150 109.714 386.152 505.447
1131 0 85.1302 13.4852 1148 111.444 385.82 503.965
1132 0 88.0869 13.8386 1219 110.42 386.842 502.55
1133 0 89.1277 13.8677 1236 110.952 386.261 502.706
1134 0 91.0587 13.4638 1226 112.451 386.308 503.127
1135 1 46.0158 12.8217 590 122.305 385.81 521.651
1136 0 48.051 12.6324 607 123.264 385.699 521.478
1137 0 51.0483 13.6733 698 119.261 385.772 520.212
1138 0 53.0451 13.743 729 119.3 385.495 519.675
1139 0 54.0533 13.7087 741 119.192 386.448 519.039
1140 0 56.0582 14.0033 785 118.431 386.38 518.98
1141 0 58.0934 13.375 777 120.006 385.973 516.846
1142 0 59.0271 14.0613 830 119.217 386.098 515.865
1143 0 62.0396 13.9266 864 120.157 386.714 515.022
1144 0 64.0674 14.6721 940 119.561 386.093 513.437
1145 0 67.0635 14.1209 947 121.992 385.969 512.754
1146 0 68.0335 14.1107 960 123.452 385.904 511.391
1147 0 69.0578 13.9304 962 126.086 385.82 510.296
1148 0 73.0386 14.6635 1071 124.18 385.19 508.657
1149 0 76.0468 14.8067 1126 124.226 386.055 507.131
1150 0 78.0688 14.9355 1166 111.113 386.2 507.29
1151 0 81.0429 15.0538 1220 112.584 386.297 505.655
1152 0 83.0868 15.1769 1261 112.247 385.832 505.62
1153 0 86.0978 14.89 1282 115.637 385.7 503.543
1154 0 88.0785 15.2932 1347 116.111 386.596 502.443
1155 0 90.0964 15.1837 1368 117.338 386.031 500.595
1156 0 92.0559 15.4797 1425 117.776 385.752 499.634
1157 0 95.1342 15.5149 1476 117.247 385.255 497.467
1158 0 97.1027 15.6638 1521 117.933 385.702 497.356
1159 0 101.087 15.2641 1543 117.631 385.612 495.753
1160 0 103.078 15.3961 1587 118.349 386.103 494.732
1161 0 107.105 15.4428 1654 117.689 385.655 491.2
1162 0 111.106 15.8407 1760 115.473 385.87 489.698
1163 0 114.167 15.6175 1783 116.185 385.842 488.124
1164 0 117.088 15.6806 1836 116.045 385.888 486.64
1165 0 120.245 15.51 1865 116.35 386.384 482.56
1166 0 125.18 15.2979 1915 114.364 385.734 479.383
1167 0 130.286 15.6118 2034 111.038 386.256 476.446
1168 1 65.218 10.8252 706 116.687 386.067 508.431
1169 0 70.1544 11.8596 832 114.93 385.554 507.69
1170 0 71.1531 12.1569 865 112.899 386.553 509.327
1171 0 74.1054 11.7805 873 112.132 386.314 509.373
1172 0 77.0589 12.458 960 110.845 386.29 508.402
1173 0 78.0937 12.1777 951 111.693 386.266 507.564
1174 0 82.0957 12.1322 996 112.702 386.367 505.282
1175 0 84.1116 11.8652 998 114.368 386.624 503.712
1176 0 86.1649 11.6521 1004 115.028 386.577 501.43
1177 0 90.1312 11.6164 1047 114.729 386.451 500.083
1178 0 92.1109 12.1701 1121 113.275 386.798 499.699
1179 0 96.1488 13.3023 1279 111.185 386.602 497.156
1180 0 98.2276 12.2776 1206 111.903 386.81 496.84
1181 0 103.115 12.3745 1276 107.937 386.054 494.208
1182 0 105.155 12.3722 1301 108.725 386.861 491.902
1183 0 108.076 11.5844 1252 114.312 386.257 489.023
1184 0 114.084 12.8414 1465 109.769 386.184 487.78
1185 0 117.127 11.8845 1392 113.034 386.218 484.39
1186 0 122.11 11.9646 1461 110.594 386.12 484.125
1187 0 126.123 11.7662 1484 112.246 387.034 480.521
1188 0 130.121 11.7583 1530 110.612 385.951 479.284
1189 0 134.095 11.9467 1602 109.352 385.492 476.739
1190 1 71.0226 10.1376 720 98.7472 385.388 508.178
1191 0 73.0299 10.2424 748 95.0602 386.015 507.818
1192 0 75.1178 9.26544 696 97.1825 386.966 508.422
1193 0 77.0805 9.88576 762 95.1785 386.119 506.668
1194 0 78.1016 10.3455 808 95.8354 386.606 505.09
1195 0 83.1259 10.1653 845 94.3183 386.272 504.564
1196 0 85.1073 9.65839 822 95.0024 386.87 503.017
1197 0 88.2438 10.3577 914 94.5853 386.404 500.608
1198 0 90.095 9.83406 886 97.1004 387.037 498.843
1199 0 94.1277 9.99705 941 94.7705 386.028 497.505
1200 0 98.1436 10.4031 1021 94.5828 385.848 494.692
1201 0 101.064 10.6071 1072 94.514 386.029 492.57
1202 0 105.124 9.78842 1029 95.481 386.235 493.197
1203 0 108.099 9.8983 1070 95.0664 386.313 491.721
1204 0 110.131 9.96996 1098 96.408 386.866 487.254
1205 0 113.13 9.74097 1102 97.4546 386.314 486.916
1206 0 118.096 10.4322 1232 97.2192 386.778 485.507
1207 0 121.147 10.0209 1214 102.226 386.649 485.161
1208 0 123.202 10.0972 1244 102.236 386.323 481.077
1209 0 129.1 11.0766 1430 100.821 386.446 478.976
1210 0 131.098 9.65693 1266 103.561 386.5 479.564
1211 0 138.17 11.2543 1555 99.8283 386.328 476.556
1212 0 139.177 10.828 1507 102.86 386.407 474.674
1213 0 145.188 11.2612 1635 104.1 386.686 474.466
1214 0 149.218 11.4799 1713 104.177 386.699 471.02
1215 0 157.398 12.2047 1921 105.826 387.251 464.14
1216 0 162.31 12.9998 2110 106.843 386.624 464.699
1217 0 168.402 13.2184 2226 105.393 386.583 457.402
1218 0 172.4 13.2134 2278 104.657 385.17 454.767
1219 0 176.447 12.644 2231 108.607 386.003 449.697
1220 0 182.497 12.5865 2297 109.479 385.575 446.519
1221 0 186.427 12.5304 2336 108.165 385.586 441.664
1222 0 191.376 12.7811 2446 109.588 386.323 437.433
1223 0 195.458 13.123 2565 108.957 386.106 433.98
1224 0 201.549 13.2126 2663 108.094 386.271 430.108
1225 0 207.371 13.9219 2887 106.782 385.418 432.287
1226 0 212.435 13.7219 2915 106.969 385.186 430.881
1227 0 218.387 14.0347 3065 106.435 385.378 428.01
1228 0 226.477 13.891 3146 106.05 385.512 423.822
1229 1 175.224 11.043 1935 112.636 385.126 448.588
1230 0 183.429 12.3481 2265 109.676 385.884 447.111
1231 0 186.368 12.4592 2322 113.177 385.643 443.287
1232 0 191.503 12.4123 2377 110.741 385.599 439.396
1233 0 198.373 11.8917 2359 111.788 385.84 438.226
1234 0 203.426 11.8667 2414 113.76 385.906 434.112
1235 0 209.312 11.8722 2485 114.45 385.662 428.967
1236 0 215.337 11.7769 2536 113.361 386.24 428.852
1237 0 223.576 12.4924 2793 112.938 386.401 425.67
1238 0 228.597 11.8768 2715 113.436 386.716 417.056
1239 0 237.562 11.9253 2833 113.784 386.03 412.249
1240 0 245.741 12.3016 3023 112.07 386.014 410.123
1241 1 52.1395 9.97324 520 93.4212 387.006 515.585
1242 0 56.0503 10.9009 611 93.7921 386.633 515.632
1243 0 56.0456 10.1524 569 95.3199 386.323 512.859
1244 0 60.0746 11.286 678 94.3038 385.684 514.217
1245 0 59.0915 10.7799 637 97.1821 386.452 513.546
1246 0 64.0995 10.3589 664 97.1295 386.658 511.407
1247 0 66.09 10.1831 673 96.5364 385.84 510.718
1248 0 65.1169 10.3046 671 99.7168 385.69 510.61
1249 0 69.0751 11.0604 764 96.3757 385.505 508.893
1250 0 69.1357 10.2552 709 98.7941 385.319 508.645
1251 0 70.0918 10.8287 759 97.6285 385.81 509.099
1252 0 73.1057 10.5464 771 97.3709 386.689 507.594
1253 0 74.1324 10.2115 757 98.9102 387.005 505.819
1254 0 76.1586 10.9377 833 94.7203 387.286 507.076
1255 0 78.1497 11.414 892 94.8004 387.123 506.128
1256 0 79.0662 10.624 840 96.2667 387.427 504.325
1257 0 81.1375 10.6732 866 97.47 388.144 503.103
1258 0 83.1622 11.2671 937 95.5902 386.686 502.479
1259 0 85.1513 11.5559 984 95.8933 386.819 502.413
1260 0 87.1221 11.8799 1035 96.5121 386.934 501.343
1261 0 90.2196 12.0484 1087 95.3993 386.907 501.48
1262 0 92.1729 11.4133 1052 97.1768 386.961 499.452
1263 0 95.2331 11.5401 1099 95.9518 386.909 498.623
1264 0 97.2737 11.9251 1160 95.5026 386.853 495.092
1265 0 99.2203 11.7718 1168 95.137 387.196 496.211
1266 0 104.175 12.0182 1252 94.0599 387.739 493.319
1267 1 54.0278 10.0134 541 93.2791 387.856 517.366
1268 0 56.0506 10.2407 574 92.9268 387.589 517.014
1269 0 57.0403 10.5539 602 91.392 387.676 514.485
1270 0 60.0327 11.3438 681 92.2144 385.965 515.257
1271 0 63.0429 11.6587 735 92.2544 385.098 513.343
1272 0 64.1015 10.811 693 94.4848 385.498 514.033
1273 0 66.0939 12.4671 824 89.2439 385.92 512.796
1274 0 67.0334 11.4868 770 93.0584 385.156 512.078
1275 0 68.0255 11.922 811 92.8385 385.547 511.19
1276 0 68.0393 11.5228 784 94.0217 385.486 510.926
1277 0 72.0607 12.3507 890 91.3607 386.057 509.474
1278 0 73.1511 12.5084 915 91.6382 386.066 508.69
1279 0 77.0438 12.6422 974 91.9179 386.102 508.238
1280 0 78.0537 11.8252 923 93.7812 386.35 505.67
1281 0 80.0301 12.6203 1010 93.2624 385.087 503.939
1282 0 82.0349 12.1046 993 94.7704 385.543 504.526
1283 0 85.0666 12.5549 1068 92.8727 386.088 503.886
1284 0 89.0609 12.4858 1112 92.4218 385.967 501.615
1285 0 88.0312 13.0068 1145 88.4402 386.34 502.419
1286 0 94.126 12.9295 1217 90.8702 386.792 498.79
1287 0 95.0968 12.5767 1196 91.9958 386.505 498.656
1288 0 100.159 13.0892 1311 91.2601 387.443 496.696
1289 0 102.206 12.3965 1267 94.0671 387.264 495.691
1290 0 104.129 12.2252 1273 96.066 387.604 493.57
1291 1 54.0499 10.7123 579 93.1969 387.256 517.477
1292 0 58.0506 11.5244 669 89.278 386.46 516.637
1293 0 59.0608 11.649 688 87.8241 385.952 515.904
1294 0 60.1377 11.457 689 82.5515 386.235 515.803
1295 0 62.1109 11.7371 729 81.1646 386.778 514.586
1296 0 63.1254 12.8474 811 80.5277 386.621 513.993
1297 0 66.1245 11.7354 776 81.3157 386.16 512.746
1298 0 69.133 13.3077 920 78.6565 386.264 512.642
1299 0 71.101 11.5329 820 93.3695 387.426 511.761
1300 0 74.0699 12.0157 890 90.9742 386.097 509.452
1301 0 76.1181 11.5347 878 93.0102 386.144 507.8
1302 0 78.0476 12.1464 948 91.4905 385.754 508.053
1303 0 80.1309 12.4297 996 90.8454 386.66 505.976
1304 0 83.2406 11.8812 989 92.7664 385.995 503.875
1305 0 86.19 11.8459 1021 92.5563 385.482 503.737
1306 0 86.2149 12.3413 1064 91.6043 385.933 502.973
1307 0 91.2077 11.6547 1063 92.3349 386.103 501.522
1308 1 49.0805 10.819 531 92.1149 385.045 521.424
1309 0 51.1189 11.8938 608 89.7533 385.14 520.211
1310 0 51.0849 11.706 598 90.4281 385.197 520.403
1311 0 53.117 11.8794 631 91.6434 385.252 519.117
1312 0 54.0467 11.6751 631 81.5816 386.8 519.298
1313 0 55.0296 12.0299 662 80.9788 386.557 518.582
1314 0 58.004 11.0682 642 81.5997 386.165 518.231
1315 0 59.0112 11.6758 689 79.1118 386 516.576
1316 0 60.0407 11.6921 702 79.1482 386.007 516.226
1317 0 63.0614 11.7663 742 78.5687 385.969 514.664
1318 0 62.0121 11.7558 729 79.6612 385.262 514.845
1319 0 66.0297 12.1915 805 77.6733 385.666 512.902
1320 0 68.0546 12.6516 861 76.3206 385.598 512.503
1321 0 71.1481 11.8766 845 76.8982 386.385 510.998
1322 0 74.1639 12.351 916 75.3876 386.102 509.905
1323 0 75.1608 11.7082 880 76.8545 386.518 508.373
1324 0 78.1177 12.4044 969 75.0877 387.361 507.54
1325 0 81.1961 12.3405 1002 75.3643 386.608 507.967
1326 0 82.08 12.5853 1033 75.0407 386.949 506.478
1327 0 84.0277 12.1865 1024 78.6494 388.19 503.199
1328 0 87.0917 11.5051 1002 84.4401 388.638 501.05
1329 0 91.0511 11.1696 1017 83.7139 386.498 501.737
1330 0 93.0549 12.1756 1133 82.4095 386.51 500.959
1331 0 97.0872 12.9265 1255 81.7147 386.069 498.53
1332 0 100.152 12.1016 1212 84.6815 386.053 497.977
1333 0 104.124 12.6964 1322 84.0204 385.774 497.58
1334 0 104.079 12.4041 1291 86.9907 386.299 494.036
1335 0 108.14 12.826 1387 85.398 386.186 493.735
1336 0 110.216 12.5663 1385 87.1986 384.925 488.762
1337 0 113.259 12.5995 1427 87.2537 385.713 487.102
1338 0 115.346 12.1894 1406 88.4431 385.912 485.588
1339 0 121.341 12.9717 1574 87.6595 385.747 484.377
1340 0 123.221 12.8874 1588 88.2361 385.849 481.682
1341 0 128.287 12.7682 1638 89.4506 385.288 481.09
1342 0 132.298 13.3411 1765 89.0822 385.891 477.771
1343 0 136.371 13.0746 1783 90.2961 385.673 476.467
1344 0 141.245 13.4235 1896 90.3249 385.332 475.065
1345 0 144.219 13.1675 1899 91.9853 384.788 472.583
1346 0 149.174 13.977 2085 91.1367 384.871 468.73
1347 0 151.162 13.1382 1986 93.9859 384.817 467.166
1348 0 156.479 13.35 2089 94.1843 384.636 467.219
1349 0 160.336 13.322 2136 95.3184 384.805 465.556
1350 0 163.512 12.9287 2114 97.0979 385.042 464.878
1351 0 170.416 12.9917 2214 97.6174 385.547 459.837
1352 0 175.541 12.8631 2258 97.7901 385.081 456.52
1353 0 182.497 13.1893 2407 97.5746 385.278 454.613
1354 0 184.495 12.5695 2319 100.608 385.355 452.324
1355 0 192.51 13.807 2658 97.602 385.282 451.781
1356 0 196.634 13.6294 2680 98.8985 385.363 446.502
1357 0 204.541 13.5132 2764 100.284 385.3 444.579
1358 0 211.325 13.9454 2947 98.5304 384.921 444.019
1359 0 218.303 13.7515 3002 98.2635 384.208 440.554
1360 0 223.275 13.8126 3084 98.594 385.001 439.562
1361 1 162.133 11.9964 1945 100.498 385.076 470.213
1362 0 170.167 13.7688 2343 96.1387 384.891 465.374
1363 0 174.178 13.1188 2285 98.3619 385.131 463.655
1364 0 178.198 13.1707 2347 99.3421 385.602 460.147
1365 0 184.181 13.2641 2443 100.592 385.798 459.339
1366 0 190.141 13.3165 2532 102.357 385.35 457.322
1367 0 197.189 13.8141 2724 101.981 385.334 455.901
1368 0 204.199 13.9276 2844 102.242 384.935 451.961
1369 0 210.205 13.111 2756 105.207 385.339 449.667
1370 0 217.224 13.737 2984 102.671 384.793 441.831
1371 0 227.21 13.7846 3132 101.718 384.882 441.364
1372 0 234.211 13.8123 3235 101.189 384.87 438.66
1373 1 55.0351 13.2643 730 96.2397 384.933 522.11
1374 0 60.0332 14.1422 849 95.9411 385 519.274
1375 0 60.0323 13.7093 823 96.7315 384.346 519.078
1376 0 64.0719 14.4057 923 96.2622 384.74 517.454
1377 0 64.041 14.2096 910 92.4758 385.058 517.944
1378 0 65.0147 14.1506 920 96.637 384.323 517.821
1379 0 66.0581 14.1996 938 95.3593 384.661 517.41
1380 0 65.0817 13.8902 904 99.7412 384.684 518.192
1381 0 65.03 13.9474 907 103.882 384.813 517.335
1382 0 68.0426 14.4174 981 101.582 385.032 517.433
1383 0 68.0792 14.6006 994 101.759 384.981 516.513
1384 0 71.049 14.3 1016 99.6408 384.53 515.939
1385 0 70.0438 13.877 972 100.62 383.987 515.742
1386 0 73.0849 14.1069 1031 98.0941 384.299 514.807
1387 0 77.0818 14.6468 1129 94.1577 384.725 513.827
1388 0 80.1345 14.4382 1157 92.7096 384.768 513.119
1389 0 79.0711 14.4048 1139 93.842 384.662 511.782
1390 0 82.0867 14.4116 1183 93.3694 384.659 509.533
1391 0 86.1632 14.635 1261 91.9802 383.987 508.481
1392 0 86.1899 14.3404 1236 94.3552 384.898 508.481
1393 0 89.0888 14.1656 1262 95.0357 384.155 506.911
1394 0 95.0926 14.8066 1408 93.1662 384.042 504.92
1395 0 96.2471 14.6498 1410 96.1752 384.713 503.918
1396 0 98.1406 14.2856 1402 99.2546 384.229 501.83
1397 0 100.159 13.5984 1362 102.974 384.336 499.542
1398 0 102.1 14.2017 1450 102.543 384.277 498.27
1399 1 47.0877 13.0395 614 109.129 383.868 522.5
1400 0 50.1584 13.8561 695 106.275 384.165 523.824
1401 0 52.1197 14.39 750 111.729 384.315 520.687
1402 0 62.0815 17.1065 1062 93.3823 384.179 516.503
1403 0 56.121 16.3219 916 103.948 384.573 518.34
1404 0 54.2694 14.1148 766 116.804 384.705 519.761
1405 0 56.2042 14.1982 798 116.748 385.054 519.579
1406 0 59.2325 14.8229 878 114.261 384.612 518.138
1407 0 61.26 14.3487 879 117.784 384.71 517.816
1408 0 63.2098 15.1875 960 114.923 384.35 516.303
1409 0 64.1477 14.6693 941 118.409 384.557 516.072
1410 0 64.1448 14.7167 944 123.064 384.863 515.393
1411 0 67.223 15.4858 1041 116.732 384.598 514.28
1412 0 68.3735 14.3915 984 123.18 384.598 513.746
1413 0 71.2092 15.4194 1098 121.725 384.994 511.901
1414 0 72.2669 14.571 1053 126.21 385.478 510.333
1415 0 78.2155 15.0865 1180 120.984 385.357 509.283
1416 0 80.2476 15.1033 1212 123.257 384.733 506.947
1417 0 81.2051 15.0114 1219 124.721 384.174 507.101
1418 1 42.1615 13.0925 552 130.179 384.674 525.056
1419 0 43.249 13.6419 590 129.856 384.032 524.524
1420 0 46.2106 13.6982 633 131.123 384.403 523.641
1421 0 45.2186 13.8881 628 134.317 383.949 523.253
1422 0 47.0918 13.909 655 137.621 384.144 521.18
1423 0 49.2806 14.0217 691 135.437 384 520.036
1424 0 50.1892 14.6247 734 133.352 384.575 520.33
1425 0 53.2468 13.6534 727 134.011 384.728 518.702
1426 0 54.208 14.4259 782 130.689 384.697 517.356
1427 0 56.1904 14.1839 797 133.396 384.6 517.438
1428 0 57.2004 14.0559 804 132.453 383.806 516.665
1429 0 60.2147 14.6476 882 127.234 384.306 515.989
1430 0 61.3402 14.7049 902 128.061 384.085 515.603
1431 0 64.1948 14.5495 934 123.335 384.16 512.155
1432 0 64.1373 14.4378 926 122.249 384.712 508.799
1433 0 66.0978 14.2214 940 122.726 385.324 508.457
1434 0 68.183 13.7278 936 124.278 385.147 507.193
1435 0 69.1401 14.1452 978 122.305 385.516 507.173
1436 0 73.1996 14.9181 1092 117.743 384.864 504.738
1437 0 73.0788 14.7238 1076 117.879 385.596 504.373
1438 0 76.1154 14.0576 1070 119.949 385.219 503.606
1439 0 77.2003 14.2227 1098 119.282 385.327 502.563
1440 0 80.0919 14.6457 1173 117.903 385.328 501.248
1441 0 82.1394 14.1589 1163 119.121 385.508 498.978
1442 0 83.1594 14.6105 1215 116.849 385.572 496.918
1443 0 85.0974 14.2307 1211 117.167 385.318 495.908
1444 0 87.183 14.4409 1259 116.834 385.392 494.921
1445 0 91.2126 14.7238 1343 114.306 385.616 493.364
1446 0 94.1111 14.4723 1362 117.422 385.888 490.136
1447 0 100.205 14.8894 1492 113.023 385.515 488.122
1448 0 103.283 15.075 1557 112.691 385.696 484.593
1449 0 105.299 14.3686 1513 117.991 384.599 483.661
1450 0 107.389 14.3591 1542 120.133 384.949 482.767
1451 0 113.36 14.573 1652 121.738 385.429 479.246
1452 0 117.312 14.7555 1731 122.346 385.256 477.247
1453 0 120.296 14.6804 1766 124.116 384.857 474.904
1454 1 60.2316 12.0535 726 124.011 385.96 504.915
1455 0 65.2902 12.6053 823 119.351 385.601 504.906
1456 0 66.2213 12.4431 824 123.135 385.394 503.464
1457 0 69.3191 12.5074 867 122.668 385.264 503.121
1458 0 69.2761 12.9626 898 122.357 385.432 501.677
1459 0 73.2494 13.4199 983 120.439 385.869 499.937
1460 0 77.3486 13.4586 1041 117.898 385.72 498.592
1461 0 77.4045 13.1904 1021 119.862 385.331 496.522
1462 0 81.3482 13.1287 1068 118.65 385.662 496.278
1463 0 83.4218 13.222 1103 119.108 385.156 494.347
1464 0 86.2682 13.0871 1129 120.186 385.051 493.332
1465 0 87.2055 13.1299 1145 120.884 385.631 491.679
1466 0 91.1706 13.9409 1271 118.66 385.632 490.002
1467 0 94.2797 14.0433 1324 117.798 385.433 489.317
1468 0 96.2546 14.1188 1359 120.512 385.533 486.076
1469 0 100.153 13.9186 1394 123.146 386.155 486.512
1470 0 103.205 14.5341 1500 121.255 385.665 484.233
1471 0 108.154 13.8322 1496 122.999 386.05 483.057
1472 0 110.155 13.6534 1504 124.333 385.975 480.764
1473 0 113.232 13.8918 1573 123.308 385.928 478.872
1474 0 118.149 13.9485 1648 123.869 385.402 477.026
1475 0 121.146 13.9748 1693 122.816 385.367 476.172
1476 0 125.254 14.1632 1774 121.323 385.259 472.472
1477 1 61.2029 10.1956 624 125.471 385.675 504.649
1478 0 65.2 10.092 658 123.488 384.906 504.842
1479 0 64.1546 10.6462 683 125.52 385.458 501.917
1480 0 67.0503 10.6487 714 127.384 385.489 500.486
1481 0 70.2876 10.5566 742 125.566 385.817 498.985
1482 0 78.167 9.28781 726 125.205 385.444 500.559
1483 0 77.3827 10.209 790 125.909 385.608 498.528
1484 0 77.3404 10.9775 849 125.372 385.628 495.092
1485 0 81.1911 10.9987 893 125.985 385.211 494.511
1486 0 81.2635 11.2474 914 125.408 385.063 495.719
1487 1 177.448 14.731 2614 125.937 384.612 449.027
1488 0 182.315 14.6066 2663 128.075 384.911 445.858
1489 0 188.335 14.2831 2690 129.003 384.534 441.504
1490 0 195.399 14.3348 2801 126.944 384.587 438.672
1491 0 201.343 14.4529 2910 124.846 385.238 436.868
1492 1 149.358 12.3328 1842 135.018 385.51 463.229
1493 0 156.336 12.9592 2026 131.131 385.636 460.169
1494 0 163.373 13.2886 2171 128.657 385.01 456.18
1495 0 169.206 13.4156 2270 126.877 385.348 454.114
1496 0 174.303 13.1782 2297 127.437 385.4 451.619
1497 1 64.1696 9.33464 599 124.182 386.584 505.599
1498 0 65.2378 9.59567 626 125.219 386.706 503.674
1499 0 70.1194 10.7674 755 123.425 385.797 502.913
1500 0 73.1571 11.6188 850 121.449 386.093 502.585
1501 0 72.165 11.8756 857 124.552 385.721 500.541
1502 0 74.1084 11.5641 857 127.501 385.692 499.819
1503 0 76.0733 11.673 888 126.91 385.566 500.062
1504 0 79.1306 11.9676 947 126.792 385.719 497.593
1505 0 81.1236 12.0434 977 127.104 385.65 496.061
1506 0 84.2086 11.8278 996 127.966 385.929 495.252
1507 0 86.2102 12.4115 1070 125.4 386.185 494.447
1508 0 87.0983 11.9865 1044 127.701 386.152 493.199
1509 0 89.2434 12.225 1091 126.059 386.43 492.467
1510 0 93.2106 12.2089 1138 123.426 386.248 492.204
1511 0 92.1333 12.3408 1137 125.103 386.495 491.281
1512 0 96.3105 12.522 1206 123.503 386.441 489.45
1513 0 96.1588 12.7601 1227 124.434 385.966 487.929
1514 0 99.128 12.6907 1258 126.948 385.385 486.258
1515 0 101.294 12.0145 1217 127.734 385.743 484.67
1516 0 105.224 12.5636 1322 123.47 386.227 484.217
1517 0 110.184 12.7332 1403 121.224 385.314 480.563
1518 0 112.111 12.7641 1431 122.449 385.958 478.983
1519 0 118.215 12.7057 1502 125.063 385.908 477.939
1520 1 62.0853 8.15007 506 104.927 385.874 511.409
1521 0 65.1073 9.10805 593 107.256 386.086 508.644
1522 0 67.0552 9.43998 633 105.43 386.324 506.787
1523 0 69.1096 9.49217 656 104.026 386.154 507.671
1524 0 71.0716 9.30048 661 104.502 386.59 505.817
1525 0 72.1102 9.66577 697 101.339 386.055 503.918
1526 0 71.1272 8.32312 592 105.03 386.316 505.198
1527 0 75.0703 9.61765 722 99.831 386.452 503.747
1528 0 75.1161 8.62665 648 101.137 386.313 502.41
1529 0 76.09 9.44933 719 98.9736 385.651 502.615
1530 0 78.1458 8.45854 661 99.1089 386.094 502.965
1531 0 78.1777 9.32491 729 96.2332 386.343 499.376
1532 0 80.1005 9.18846 736 98.0245 386.596 499.057
1533 0 81.0959 8.02754 651 100.404 386.766 499.995
1534 0 84.2146 9.03644 761 97.8108 386.512 496.953
1535 0 86.1211 9.53309 821 97.4714 386.441 496.157
1536 0 86.1413 7.96366 686 100.108 385.29 495.023
1537 0 90.1718 9.2601 835 97.8575 385.01 492.41
1538 0 93.1519 9.66164 900 96.0356 385.044 491.3
1539 0 93.1614 9.39231 875 94.7566 385.362 490.015
1540 0 96.1869 9.65828 929 94.3498 385.268 489.969
1541 0 98.1112 9.10191 893 95.9015 385.078 488.437
1542 0 98.1311 9.68093 950 94.3126 384.841 486.541
1543 1 0 0 0 -nan -nan -nan
1544 0 0 0 0 -nan -nan -nan
1545 1 101.118 9.08841 919 93.5658 384.37 481.824
1546 0 105.205 8.72582 918 95.9706 385.039 482.413
1547 0 105.213 8.83918 930 96.3301 384.842 479.124
1548 0 108.123 9.26725 1002 96.8114 384.602 482.695
1549 0 106.214 8.47343 900 100.254 384.58 476.723
1550 0 111.246 8.45873 941 101.412 385.02 475.289
1551 0 112.185 8.9228 1001 101.87 384.658 476.981
1552 0 115.183 8.6037 991 103.55 383.947 474.932
1553 0 117.212 8.49742 996 104.987 384.528 473.513
1554 0 118.189 9.65406 1141 104.058 383.963 474.893
1555 0 121.261 9.90423 1201 104.24 384.594 471.506
1556 0 122.222 9.31092 1138 107.018 384.882 470.692
1557 0 126.243 9.23612 1166 105.979 384.881 471.271
1558 0 127.278 8.82318 1123 106.192 385.444 467.945
1559 0 130.315 9.38497 1223 105.066 385.185 466.276
1560 0 132.23 9.18852 1215 102.602 384.892 467.081
1561 0 132.272 7.84746 1038 104.178 384.797 461.791
1562 0 135.309 7.70091 1042 103.845 384.843 458.994
1563 0 139.282 7.96226 1109 101.621 384.608 462.329
1564 0 147.342 9.53562 1405 94.9601 384.868 457.557
1565 0 150.318 9.65955 1452 93.7114 384.063 456.475
1566 0 156.322 10.1521 1587 92.3283 384.575 452.858
1567 0 156.322 8.39291 1312 94.5945 385.116 446.236
1568 0 159.293 9.05878 1443 92.2633 385.541 444.234
1569 0 168.272 8.33771 1403 91.8296 385.88 436.999
1570 0 173.374 8.60568 1492 92.1595 385.58 435.857
1571 0 180.353 9.2596 1670 90.3832 385.638 433.077
1572 0 188.238 10.4549 1968 88.4121 385.582 434.666
1573 1 148.141 6.57482 974 93.4333 385.989 455.311
1574 0 151.151 8.32278 1258 91.5572 386.385 449.63
1575 0 156.103 9.47451 1479 91.3151 386.191 447.638
1576 0 161.153 9.04732 1458 92.0885 386.01 443.766
1577 0 163.103 9.04949 1476 91.8591 385.683 442.11
1578 0 168.263 8.80763 1482 93.7881 385.998 442.656
1579 0 173.222 8.9596 1552 93.9671 386.37 436.712
1580 0 177.299 9.02432 1600 95.935 385.061 438.631
1581 0 187.171 7.13786 1336 98.7635 384.6 440.9
1582 0 185.229 8.72434 1616 97.3243 385.15 431.681
1583 0 191.316 9.48171 1814 96.6086 385.708 432.098
1584 0 198.26 10.6174 2105 95.6024 385.591 434.874
1585 0 204.154 10.5558 2155 98.7239 385.126 431.869
1586 0 206.164 10.089 2080 100.128 385.323 427.015
1587 0 213.252 10.776 2298 98.4852 385.014 425.451
1588 0 223.206 11.8008 2634 95.2384 384.51 427.106
1589 0 228.271 11.4382 2611 95.7074 384.096 425.355
1590 0 235.301 12.2481 2882 96.0448 384.269 421.96
1591 1 180.199 10.3719 1869 92.9588 385.021 453.821
1592 0 183.156 10.8978 1996 92.8597 384.778 453.453
1593 0 187.199 10.5823 1981 94.4846 384.322 449.806
1594 0 193.2 11.8789 2295 92.3468 384.641 447.819
1595 0 196.258 11.6327 2283 93.1708 384.394 445.98
1596 1 68.0962 10.3971 708 84.346 383.833 511.429
1597 0 69.1601 10.454 723 84.4924 383.1 508.985
1598 0 69.1086 11.4023 788 83.4898 383.178 508.315
1599 0 72.18 10.9726 792 83.5998 383.648 504.785
1600 0 73.1716 10.6462 779 86.534 383.979 506.048
1601 0 76.2115 10.917 832 85.4279 384.514 504.793
1602 0 73.2111 9.32919 683 75.8111 383.921 506.454
1603 0 77.3052 9.01621 697 77.5696 384.851 505.669
1604 0 77.2905 9.10849 704 76.7514 384.318 505.038
1605 0 79.2708 8.91879 707 77.4993 384.532 504.868
1606 0 85.3033 10.5858 903 74.6611 384.496 501.576
1607 0 87.4539 10.1768 890 76.7551 384.466 498.502
1608 0 91.5866 10.2635 940 76.1053 384.76 495.127
1609 0 94.4212 10.612 1002 75.4461 384.484 492.148
1610 1 49.2612 9.11469 449 73.8619 385.031 517.61
1611 0 50.2742 9.20949 463 78.2009 384.294 517.035
1612 0 50.1585 9.56967 480 75.6146 384.365 515.712
1613 0 49.1747 9.84245 484 72.4401 386.161 515.517
1614 0 53.2681 10.3814 553 68.8861 386.731 516.64
1615 0 56.1474 10.5793 594 67.7492 385.911 514.742
1616 0 58.1781 11.0351 642 67.4408 385.547 515.293
1617 0 56.1572 9.84736 553 71.425 385.593 514.136
1618 0 60.3198 10.4941 633 70.4581 385.654 513.332
1619 0 62.1676 10.536 655 70.8916 385.414 511.744
1620 0 62.208 11.0436 687 70.8239 385.087 510.249
1621 0 63.1352 10.7547 679 72.2695 384.941 509.258
1622 0 66.2204 11.4013 755 79.5854 383.823 500.583
1623 0 68.3649 11.2485 769 81.1925 384.767 502.737
1624 0 70.2821 11.3827 800 82.1825 384.306 499.361
1625 0 71.4032 11.9743 855 81.3813 384.812 502.387
1626 0 71.0951 10.8728 773 79.8215 385.41 505.349
1627 0 73.2701 11.7237 859 80.908 385.35 503.951
1628 0 74.2787 11.2011 832 82.2404 385.184 502.173
1629 0 76.1519 12.2518 933 81.0257 384.722 502.693
1630 0 79.1557 12.0143 951 80.3817 385.689 503.174
1631 0 80.1995 11.7208 940 82.5468 385.393 500.358
1632 0 80.0953 11.6986 937 83.143 385.225 500.13
1633 0 82.276 11.8017 971 81.6653 385.104 498.996
1634 0 88.2893 12.6629 1118 78.0716 385.077 500.945
1635 0 88.232 12.6031 1112 79.018 385.406 497.622
1636 0 91.258 12.1195 1106 80.5723 385.193 496.117
1637 0 93.2216 12.4864 1164 80.3591 384.743 495.054
1638 0 96.2554 12.4149 1195 81.6937 384.93 493.913
1639 0 97.2774 12.1817 1185 82.3055 384.706 493.956
1640 0 99.1058 12.5724 1246 82.8218 384.599 491.592
1641 0 102.252 12.3715 1265 82.0498 385.626 490.604
1642 0 105.162 11.972 1259 83.5576 385.351 489.029
1643 0 107.231 11.4799 1231 85.2128 385.217 488.296
1644 0 111.426 12.9593 1444 81.4245 385.26 487.925
1645 0 114.422 12.6462 1447 84.4844 384.96 486.156
1646 0 117.381 12.6 1479 84.3861 385.032 485.357
1647 0 119.358 12.3327 1472 85.0849 385.128 484.572
1648 0 123.336 13.0781 1613 83.938 385.364 484.202
1649 0 125.526 13.2483 1663 83.6314 385.762 482.238
1650 0 128.366 12.7292 1634 84.3299 385.365 479.476
1651 0 132.366 13.2587 1755 82.4291 385.145 476.915
1652 0 136.367 12.5837 1716 85.2296 385.976 475.632
1653 1 73.1367 10.6103 776 80.3982 385.214 509.514
1654 0 75.1716 11.6799 878 80.2403 385.115 504.221
1655 0 78.2506 11.4504 896 80.1484 384.779 503.519
1656 0 80.1492 11.8779 952 81.4139 384.184 501.816
1657 0 83.2106 12.21 1016 84.8504 383.705 503.083
1658 0 85.1443 11.8035 1005 86.4338 383.649 499.416
1659 0 87.096 11.1831 974 86.7269 384.3 502.11
1660 0 90.1808 11.7542 1060 85.5047 384.375 500.508
1661 0 93.1349 11.6283 1083 86.5014 384.524 500.7
1662 0 97.2497 11.8047 1148 86.2091 384.728 495.878
1663 0 100.198 12.0062 1203 85.5071 385.092 496.794
1664 1 113.225 9.883 1119 86.8794 385.132 494.67
1665 0 111.271 10.6857 1189 85.7334 385.371 492.476
1666 0 111.305 11.0866 1234 84.7447 385.085 491.317
1667 0 112.173 11.2594 1263 84.6057 384.743 487.391
1668 0 117.179 11.6574 1366 83.6288 384.377 488.857
1669 1 62.0897 11.0324 685 82.1635 384.539 513.12
1670 0 63.0354 11.7712 742 83.6981 385.077 512.12
1671 0 67.0988 12.2804 824 81.5449 384.824 509.989
1672 0 68.0805 12.4558 848 81.4894 384.749 510.057
1673 0 67.0614 11.5417 774 85.7183 384.581 510.776
1674 0 69.0295 11.285 779 86.1874 384.072 511.574
1675 0 72.0273 10.9819 791 89.1656 384.159 509.372
1676 0 73.0966 11.0539 808 90.255 384.795 507.637
1677 0 75.0594 11.2045 841 90.962 384.938 509.178
1678 0 78.129 10.9946 859 92.0093 385.18 508.006
1679 0 83.1651 11.9401 993 90.9204 384.952 506.167
1680 0 84.0861 11.5477 971 93.0721 384.565 504.35
1681 0 88.147 12.343 1088 90.8667 385.025 503.274
1682 0 91.1021 11.9317 1087 92.3947 384.491 502.004
1683 0 94.1373 11.9188 1122 91.8832 384.449 500.66
1684 0 98.1293 12.4733 1224 92.4134 385.121 499.061
1685 1 53.0368 12.1991 647 95.9892 384.688 519.362
1686 0 53.0979 12.3734 657 100.95 384.554 518.384
1687 0 55.0941 12.7418 702 100.311 384.709 517.027
1688 0 57.0834 12.9985 742 98.9865 386.082 516.527
1689 0 59.1323 13.0386 771 98.5162 385.93 517.721
1690 0 60.057 12.6546 760 100.78 386.128 517.913
1691 0 62.1029 13.0751 812 99.6687 386.613 515.182
1692 0 62.1093 12.6873 788 101.438 385.571 514.794
1693 0 66.0759 13.3634 883 97.6251 385.798 514.024
1694 0 68.1139 12.8315 874 99.7963 385.502 512.312
1695 0 69.1146 12.6746 876 99.726 385.873 512.135
1696 0 72.0768 13 937 98.1185 385.497 510.809
1697 0 72.1043 13.2308 954 97.9235 385.528 510.172
1698 0 75.1121 13.6995 1029 97.0933 386.084 509.067
1699 0 80.1287 13.8278 1108 95.2572 386.294 508.467
1700 0 79.1039 12.6037 997 99.9027 386.157 508.356
1701 0 82.0501 12.6142 1035 100.021 385.966 506.083
1702 0 85.0602 12.8027 1089 100.253 386.181 504.389
1703 1 44.0753 11.8207 521 102.749 386.058 524.785
1704 0 47.027 12.2058 574 100.848 385.176 523.388
1705 0 48.0231 12.1608 584 103.562 384.19 522.341
1706 0 49.0788 12.9995 638 100.997 384.282 522.428
1707 0 50.0271 12.853 643 102.437 384.547 520.938
1708 0 50.0312 12.5522 628 103.016 384.976 521.914
1709 0 53.0645 13.0973 695 102.088 383.255 520.049
1710 0 54.0569 13.3748 723 101.822 383.05 520.118
1711 0 56.0143 13.0502 731 103.202 383.808 518.605
1712 0 56.0219 12.6201 707 105.866 383.29 516.512
1713 0 56.0488 13.0065 729 106.254 383.872 517.94
1714 0 59.0505 12.5824 743 108.222 384.069 516.285
1715 0 60.041 12.5914 756 108.246 384.193 515.512
1716 0 63.0269 13.3276 840 105.157 384.054 514.312
1717 0 66.0408 13.2645 876 105.048 384.03 514.019
1718 0 67.0832 13.5056 906 106.487 384.034 512.735
1719 0 67.0356 13.4705 903 106.642 384.473 511.614
1720 0 70.0323 13.2796 930 105.791 383.971 510.827
1721 0 67.1196 11.0251 740 103.036 384.524 511.874
1722 0 71.1478 12.453 886 98.4876 385.041 511.405
1723 0 74.2679 12.9935 965 96.1171 385.046 509.653
1724 0 75.1954 12.5407 943 99.176 385.083 509.914
1725 0 75.1288 12.7781 960 99.7469 385.775 509.045
1726 0 79.1547 12.3682 979 99.6905 385.396 508.803
1727 0 82.1726 12.1938 1002 104.337 385.6 505.791
1728 0 85.1955 12.4537 1061 104.373 385.001 504.959
1729 1 48.0492 12.7994 615 109.94 384.829 520.024
1730 0 49.0675 13.4305 659 108.355 383.886 519.983
1731 0 50.218 13.541 680 109.31 385.424 518.779
1732 0 50.192 13.7871 692 108.779 384.893 518.101
1733 0 53.1842 13.5943 723 106.195 384.958 517.501
1734 0 54.2017 14.3538 778 102.281 384.491 516.963
1735 0 57.2119 13.8433 792 102.087 385.179 515.742
1736 0 58.1443 13.6901 796 101.383 385.3 514.415
1737 0 59.1638 13.9274 824 100.289 384.553 513.722
1738 0 61.2008 13.4965 826 101.102 384.689 513.975
1739 0 63.207 14.1915 897 98.5596 384.802 512.375
1740 0 66.1714 13.4802 892 99.083 385.42 510.855
1741 0 66.1355 13.9411 922 98.9208 385.756 509.457
1742 0 71.2008 13.9465 993 97.3907 385.364 509.63
1743 0 72.1502 13.4026 967 97.3216 385.297 508.292
1744 0 76.1965 13.2158 1007 97.6048 385.149 505.642
1745 0 77.2125 13.6506 1054 98.1879 384.62 504.588
1746 0 81.151 13.7768 1118 99.5814 384.708 504.428
1747 0 86.1736 14.0414 1210 99.7298 384.115 502.66
1748 0 86.1494 14.8115 1276 99.7328 384.436 501.594
1749 0 92.1559 13.7159 1264 101.064 384.648 500.546
1750 0 94.2324 13.9018 1310 102.677 384.766 499.511
1751 0 97.1547 13.5557 1317 104.03 384.814 498.288
1752 0 96.1529 13.0937 1259 105.736 384.859 497.993
1753 1 48.0746 13.5622 652 111.17 383.741 520.34
1754 0 48.0998 13.5967 654 114.407 384 518.674
1755 0 50.1327 13.5839 681 112.979 384.276 519.461
1756 0 53.0735 13.5849 721 112.781 383.775 518.197
1757 0 54.1281 13.893 752 113.004 383.919 516.971
1758 0 58.1496 14.1016 820 109.423 384.494 517.177
1759 0 59.2486 14.2282 843 110.488 383.963 515.641
1760 0 60.129 13.7039 824 112.8 384.653 515.167
1761 0 62.2756 13.7614 857 113.331 384.951 514.196
1762 0 64.281 14.3277 921 112.734 384.85 513.299
1763 0 63.1579 13.9967 884 117.643 384.704 512.985
1764 0 63.162 13.5524 856 122.272 384.673 513.049
1765 0 69.1117 13.6591 944 120.03 384.969 509.995
1766 0 72.2327 14.2179 1027 117.427 385.217 509.207
1767 0 77.2444 13.6062 1051 120.384 384.89 508.37
1768 0 77.1832 13.7983 1065 121.405 385.223 508.26
1769 0 79.3129 13.3774 1061 124.632 384.832 504.528
1770 0 81.1912 13.5852 1103 124.029 384.222 504.778
1771 0 85.2896 13.249 1130 126.076 384.32 503.592
1772 1 39.0225 12.7362 497 136.199 384.344 522.857
1773 0 40.0686 13.6516 547 137.857 384.517 522.272
1774 0 43.1258 13.4258 579 139.273 384.211 521.737
1775 0 46.1189 14.029 647 137.224 384.096 521.003
1776 0 45.0466 14.1187 636 138.997 384.241 520.016
1777 0 47.0587 13.7488 647 139.774 384.437 519.954
1778 0 48.0507 13.9228 669 140.17 384.656 519.753
1779 0 49.0505 13.4963 662 142.121 385.089 518.964
1780 0 51.0781 14.0373 717 139.642 384.996 517.146
1781 0 52.088 14.3603 748 138.957 384.344 516.467
1782 0 52.0437 13.6232 709 143.489 384.382 515.419
1783 0 56.0247 13.9224 780 140.679 384.799 515.217
1784 0 57.0546 14.1794 809 139.559 385.29 513.859
1785 0 59.0893 14.0127 828 140.959 384.919 511.866
1786 0 61.0502 14.5946 891 138.887 384.752 511.623
1787 0 62.0279 14.6869 911 141.081 385.22 510.777
1788 0 65.0467 14.3282 932 142.564 384.731 510.601
1789 0 67.037 14.3354 961 141.412 385.566 509.199
1790 0 68.0241 14.2155 967 142.43 385.268 508.976
1791 0 71.0703 13.7751 979 144.284 385.522 507.914
1792 0 73.0312 14.0899 1029 142.938 385.215 507.301
1793 0 75.0901 14.1696 1064 143.418 384.957 505.521
1794 0 77.093 14.7225 1135 141.091 384.803 504.433
1795 0 83.0391 14.74 1224 135.777 384.778 503.482
1796 0 83.1026 14.091 1171 140.547 384.59 501.376
1797 0 86.0567 14.9088 1283 135.59 384.641 501.518
1798 0 90.0597 15.1344 1363 133.711 383.925 500.233
1799 0 91.1035 14.489 1320 134.829 384.158 499.098
1800 0 94.0839 14.8697 1399 132.498 384.663 498.566
1801 0 98.063 14.2154 1394 132.442 384.232 496.594
1802 0 102.08 14.4691 1477 129.703 384.462 495.408
1803 0 106.182 14.5599 1546 128.266 384.651 493.347
1804 0 109.108 14.0778 1536 131.212 383.721 491.391
1805 1 55.0366 12.7551 702 131.954 384.036 515.796
1806 0 56.0609 13.5745 761 130.219 383.522 515.332
1807 0 59.0162 13.6912 808 127.843 383.989 515.939
1808 0 59.0587 13.5966 803 127.867 384.192 513.831
1809 0 62.0121 13.3361 827 126.496 384.203 512.694
1810 0 64.0625 13.5024 865 126.268 384.246 510.92
1811 0 67.0518 13.4672 903 125.286 385.046 510.498
1812 0 69.0604 13.5968 939 124.763 384.819 508.391
1813 0 70.053 13.3899 938 125.133 384.737 507.456
1814 0 72.0425 14.1722 1021 123.714 384.602 505.093
1815 0 74.0404 13.7492 1018 124.246 384.164 505.221
1816 0 78.0928 13.8553 1082 122.2 384.27 503.728
1817 0 77.1582 13.401 1034 125.182 384.805 502.132
1818 0 81.0916 13.3183 1080 124.713 384.941 500.394
1819 0 84.162 13.7354 1156 122.967 384.66 499.187
1820 0 87.2338 14.0198 1223 120.878 384.474 497.022
1821 0 89.2249 14.2785 1274 120.153 385.418 496.786
1822 0 93.1382 14.1725 1320 118.692 385.347 495.305
1823 0 94.1848 13.6009 1281 121.01 385.364 492.98
1824 0 96.3106 13.1034 1262 124.556 385.372 490.288
1825 0 101.327 14.0535 1424 119.015 385.077 490.092
1826 0 103.219 13.7668 1421 120.835 385.647 491.106
1827 0 106.259 13.8247 1469 124.223 384.437 486.894
1828 0 107.356 12.7148 1365 131.141 383.742 481.141
1829 0 113.246 13.7046 1552 125.942 384.529 481.498
1830 0 116.35 13.5023 1571 127.564 384.574 480.211
1831 0 124.35 14.3305 1782 124.055 384.48 477.875
1832 1 69.361 10.121 702 116.02 384.735 508.731
1833 0 71.263 9.66841 689 118.554 385.014 507.855
1834 0 73.3327 10.3228 757 117.252 384.832 505.762
1835 0 75.328 10.1821 767 118.816 385.249 504.859
1836 0 78.2163 10.8545 849 122.126 384.807 502.276
1837 0 81.306 10.565 859 122.149 385.615 502.331
1838 0 83.2372 10.4761 872 121.579 385.005 500.783
1839 0 84.2725 10.3711 874 122.553 384.327 498.334
1840 0 87.391 10.8592 949 121.321 384.633 496.706
1841 0 92.2768 10.902 1006 119.384 385.183 495.469
1842 0 93.3288 10.1148 944 116.659 385.042 494.103
1843 0 96.213 10.0506 967 114.943 385.452 492.836
1844 1 51.0302 9.66094 493 110.842 386.229 514.432
1845 0 53.092 10.1333 538 108.104 386.169 514.147
1846 0 55.0557 10.226 563 101.334 386.226 511.79
1847 0 54.0187 10.8666 587 100.562 386.956 510.683
1848 0 57.0791 9.91606 566 109.655 386.707 510.104
1849 0 57.1037 10.0694 575 109.661 387.141 509.922
1850 0 60.0475 10.4584 628 107.752 387.341 508.255
1851 0 63.0648 9.76774 616 109.266 386.859 507.615
1852 0 65.0964 10.0006 651 108.739 386.728 504.897
1853 0 67.1349 10.1587 682 108.038 386.65 505.216
1854 0 68.1168 9.21946 628 113.667 386.626 503.927
1855 0 71.1047 9.83058 699 111.634 386.22 503.398
1856 0 74.1312 10.1846 755 111.574 386.338 500.942
1857 0 75.0822 10.0556 755 112.062 385.535 499.869
1858 0 79.1254 9.47863 750 113.124 386.297 500.305
1859 0 81.2187 10.3178 838 110.804 386.661 498.888
1860 1 153.186 8.51255 1304 111.523 385.676 465
1861 1 86.1602 10.376 894 109.267 386.531 496.579
1862 0 87.1138 10.2624 894 109.67 386.707 495.418
1863 0 90.076 9.41428 848 112.367 386.367 493.989
1864 1 45.0424 8.5919 387 110.168 386.783 515.863
1865 0 48.0889 9.35766 450 105.956 386.153 514.98
1866 0 50.2427 9.73275 489 105.11 385.761 514.313
1867 0 50.1584 10.0282 503 105.167 385.443 513.099
1868 0 49.1316 9.22013 453 103.347 385.839 515.188
1869 0 51.0894 9.6889 495 101.681 386.145 514.111
1870 0 51.2361 9.2513 474 101.572 386.154 513.27
1871 0 55.1714 9.80581 541 99.3715 386.192 511.778
1872 0 55.3009 9.98176 552 99.7174 386.371 511.692
1873 0 55.1123 9.526 525 101.928 386.032 510.8
1874 0 54.1323 9.12579 494 103.364 385.611 511.269
1875 0 59.1434 9.19798 544 102.239 385.996 507.974
1876 1 185.542 9.66358 1793 109.241 385.185 446.035
1877 0 188.613 9.32598 1759 110.468 385.476 444.852
1878 0 194.53 9.89048 1924 110.067 386.071 441.469
1879 1 259.539 8.86573 2301 112.697 385.324 416.868
1880 0 266.476 7.62919 2033 113.876 385.5 421.96
1881 0 276.663 8.03143 2222 112.513 385.655 415.366
1882 0 285.612 7.34214 2097 114.737 385.832 416.38
1883 0 294.642 7.26306 2140 115.586 385.156 410.051
1886 1 48.0485 11.53 554 95.3664 386.307 515.722
1887 0 49.1375 11.4576 563 96.2487 386.266 515.286
1888 0 51.2685 12.3078 631 95.3233 386.122 515.103
1889 0 53.2292 12.2301 651 96.275 385.977 514.146
1890 0 54.217 12.2286 663 96.3831 385.205 513.181
1891 0 54.1918 12.5849 682 97.8798 385.614 514.199
1892 0 54.1663 12.5724 681 98.9251 385.342 513.228
1893 0 57.1859 13.0801 748 96.6564 386.003 512.977
1894 0 57.1569 12.247 700 98.8086 386.007 512.526
1895 0 59.22 13.3739 792 94.1566 385.795 513.047
1896 0 62.2691 14.1804 883 91.9377 386.305 511.382
1897 0 62.2156 12.9549 806 95.2506 385.427 509.294
1898 0 65.2955 13.125 857 92.4667 386.018 509.47
1899 0 65.1273 13.0053 847 94.2479 385.669 509.374
1900 0 69.2561 13.1974 914 92.3698 385.502 508.907
1901 0 70.265 13.5914 955 92.0377 385.847 507.063
1902 0 72.1901 13.3675 965 91.6694 386.223 505.846
1903 0 76.3116 12.711 970 87.9 385.24 495.763
1904 0 78.3439 12.777 1001 88.1778 384.719 494.901
1905 0 79.1686 13.2502 1049 89.2297 384.808 494.475
1906 0 83.3646 13.219 1102 88.5381 384.398 493.692
1907 0 85.1409 12.7201 1083 90.3463 384.179 492.569
1908 1 46.1577 10.7891 498 98.4056 384.697 509.986
1909 0 47.1781 11.9759 565 94.4106 384.398 509.492
1910 0 48.2422 12.0849 583 94.8233 384.573 509.132
1911 0 48.2357 12.7914 617 94.1912 384.405 508.3
1912 0 53.2569 12.3364 657 101.521 384.525 508.24
1913 0 51.1874 12.3468 632 106.07 384.804 507.706
1914 0 52.2769 12.166 636 106.767 384.392 506.697
1915 0 53.1857 12.0333 640 106.63 384.469 506.227
1916 0 56.2348 12.43 699 105.296 384.464 505.269
1917 0 56.2331 12.1459 683 106.47 384.198 504.671
1918 0 59.1991 11.74 695 107.635 383.39 502.928
1919 0 59.2794 11.5386 684 108.816 383.618 503.37
1920 0 61.2347 12.7869 783 106.358 383.246 500.992
1921 0 62.2508 12.6103 785 106.805 383.373 500.89
1922 0 64.1499 12.7202 816 106.528 383.397 500.746
1923 0 64.1758 13.1202 842 106.625 383.59 500.2
1924 0 68.1876 12.5683 857 103.915 383.308 500.27
1925 0 70.1812 12.9237 907 101.175 383.499 500.211
1926 0 71.1707 12.3506 879 104.332 383.952 498.458
1927 0 74.1306 12.5589 931 102.33 382.998 497.798
1928 0 75.1892 12.3156 926 105.387 383.352 496.409
1929 0 76.1597 12.5132 953 103.475 383.653 496.182
1930 0 79.1428 12.7491 1009 101.992 383.724 494.271
1931 0 82.1582 12.7559 1048 102.117 383.674 494.475
1932 0 83.0976 12.6358 1050 103.645 383.52 493.336
1933 0 87.1232 12.3503 1076 105.1 383.419 491.546
1934 0 89.2454 12.404 1107 104.596 382.909 492.089
1935 1 47.2133 11.7128 553 103.857 383.505 511.682
1936 0 47.1436 11.4331 539 106.427 383.382 509.766
1937 0 49.0693 11.6977 574 111.235 383.744 510.15
1938 0 50.1694 11.7602 590 112.097 383.28 508.554
1939 0 49.1527 11.9627 588 113.355 383.672 509.709
1940 0 53.1382 12.2134 649 111.116 383.464 509.472
1941 0 51.1262 12.5963 644 111.787 384.177 510.983
1942 0 49.1005 10.9164 536 107.509 384.377 512.028
1943 0 51.076 11.0815 566 106.47 384.14 512.246
1944 0 53.0599 11.6472 618 104.27 384.045 511.097
1945 0 54.0335 10.9191 590 106.807 384.408 510.027
1946 0 56.1243 11.6705 655 104.307 383.516 509.136
1947 0 57.0433 11.0793 632 105.252 382.891 509.511
1948 0 59.0511 11.8541 700 103.064 382.951 507.601
1949 0 58.0478 11.2666 654 105.729 383.191 506.833
1950 0 60.1036 11.2805 678 103.642 383.618 506.96
1951 0 63.0803 11.5567 729 102.963 383.181 505.546
1952 0 62.1126 11.3181 703 104.266 383.542 505.595
1953 0 65.053 11.1294 724 105.671 383.605 504.776
1954 0 66.1126 11.2535 744 103.714 382.925 505.204
1955 0 68.043 11.1694 760 106.326 383.563 504.447
1956 0 69.1273 10.6615 737 106.21 383.518 503.446
1957 0 70.0878 10.7151 751 107.158 384.031 501.023
1958 0 73.1528 10.3892 760 108.162 383.203 499.15
1959 0 75.1208 11.0089 827 104.524 383.125 498.845
1960 0 76.1149 11.0359 840 105.564 383.827 497.112
1961 1 43.0259 11.0864 477 105.742 383.969 513.065
1962 0 43.0602 11.0775 477 109.862 384.069 511.799
1963 0 46.0349 11.904 548 105.038 383.64 512.099
1964 0 47.0508 11.8383 557 107.241 384.388 511.573
1965 0 47.0735 11.8326 557 107.898 384.057 510.041
1966 0 48.0291 11.9094 572 107.802 384.285 509.624
1967 0 48.0662 11.1929 538 110.338 384.307 511.61
1968 0 48.0662 10.8808 523 111.163 384.111 511.358
1969 0 51.0754 11.0033 562 110.005 383.598 510.521
1970 0 52.0781 11.598 604 107.247 383.237 510.682
1971 0 52.0562 11.5644 602 107.658 383.266 509.09
1972 0 54.1044 11.1636 604 108.071 383.801 509.644
1973 0 54.0642 11.2089 606 107.566 382.838 509.267
1974 0 57.099 11.9091 680 103.51 383.385 508.834
1975 0 57.1071 11.5572 660 104.911 383.423 507.027
1976 0 59.1096 11.3856 673 102.969 382.96 506.131
1977 0 60.0693 11.3868 684 102.368 383.7 507.405
1978 0 62.14 12.0051 746 100.489 383.528 506.185
1979 0 62.0624 11.0373 685 105.21 382.955 504.674
1980 0 65.0839 11.6465 758 105.175 382.727 502.722
1981 0 68.084 12.0439 820 103.68 382.889 503.474
1982 0 68.1149 11.921 812 105.792 383.021 502.272
1983 0 71.1019 11.8984 846 105.98 383.176 500.48
1984 0 71.1067 11.9961 853 137.795 384.196 500.476
1985 0 75.1408 12.4832 938 106.652 382.873 497.202
1986 0 79.1044 12.2749 971 105.726 382.173 496.753
1987 0 79.2305 11.6369 922 108.191 382.804 497.381
1988 0 83.1753 12.0108 999 106.401 383.116 494.545
1989 1 42.0502 11.2247 472 110.922 383.949 513.676
1990 0 45.0254 11.2825 508 108.959 383.852 513.309
1991 0 46.0209 11.4948 529 110.652 384.127 512.03
1992 0 48.178 12.5784 606 104.921 383.432 511.32
1993 0 47.0854 12.0632 568 105.324 383.461 510.882
1994 0 48.0993 12.3287 593 103.413 383.543 509.024
1995 0 49.0797 12.5306 615 101.312 382.816 509.35
1996 0 53.0878 11.6976 621 105.085 383.393 508.594
1997 0 54.0657 12.4108 671 102.741 383.532 507.87
1998 0 55.0566 12.3509 680 102.569 383.196 508.187
1999 0 55.0589 12.8226 706 101.443 383.661 506.524
2000 0 58.0475 12.662 735 102.818 383.479 506.366
2001 0 60.0555 12.8215 770 103.914 383.709 505.004
2002 0 62.0837 12.6764 787 111.653 382.812 503.042
2003 0 64.0935 12.4506 798 111.897 382.921 502.461
2004 0 66.1273 12.9901 859 98.2817 383.398 501.222
2005 0 68.154 12.9266 881 97.3984 382.985 498.522
2006 0 70.1412 12.4321 872 98.6984 383.148 498.256
2007 0 72.175 13.301 960 96.7125 382.756 497.244
2008 0 74.1732 13.0101 965 99.8974 382.531 497.04
2009 0 76.0739 13.0531 993 99.6767 382.518 494.743
2010 0 79.1275 13.3961 1060 98.8915 382.318 492.618
2011 0 82.1227 13.6138 1118 103.469 381.911 491.38
2012 0 84.255 12.6046 1062 106.637 382.428 490.699
2013 0 88.1868 12.8704 1135 106.704 382.019 488.967
2014 0 89.1866 13.7352 1225 105.737 381.901 487.08
2015 0 93.0999 13.1257 1222 106.471 381.609 484.853
2016 1 48.0778 10.8782 523 107.906 381.015 506.583
2017 0 50.0451 11.7094 586 103.427 380.764 506.602
2018 0 51.0279 11.6211 593 101.843 381.03 504.602
2019 0 52.0569 11.814 615 101.397 382.273 505.457
2020 0 55.1593 12.4367 686 97.4519 382.16 505.087
2021 0 55.0396 12.4638 686 93.188 382.786 506.456
2022 0 58.0441 12.8695 747 91.2517 382.683 505.396
2023 0 59.094 13.0132 769 91.7334 382.678 504.137
2024 0 62.0862 12.692 788 95.769 382.244 504.901
2025 0 64.0946 12.4815 800 96.8138 383.302 502.351
2026 0 65.142 13.3708 871 93.3559 382.171 500.984
2027 0 67.0427 13.1856 884 89.0928 382.727 499.869
2028 0 68.03 12.9649 882 89.7494 382.634 498.976
2029 0 69.0747 12.4937 863 92.4566 382.824 497.694
2030 0 72.071 12.5154 902 93.8537 382.04 497.815
2031 0 75.0975 12.9032 969 92.3973 382.317 497.054
2032 0 76.0953 13.4042 1020 92.2392 382.182 495.077
2033 0 79.0265 13.1601 1040 92.974 382.276 494.822
2034 0 81.084 13.4428 1090 91.9917 382.466 493.116
2035 0 82.0677 13.1842 1082 93.3641 381.983 492.05
2036 0 85.0499 13.0747 1112 93.8102 382.807 491.365
2037 0 88.0707 12.9441 1140 92.2298 382.15 489.74
2038 0 91.0481 13.2677 1208 91.3328 382.313 489.305
2039 0 93.0598 13.5397 1260 91.7032 382.583 487.357
2040 0 96.1387 13.3973 1288 90.6693 382.372 486.296
2041 0 101.118 13.8353 1399 89.4174 383.025 484.338
2042 0 102.066 13.3443 1362 92.4009 382.741 482.265
2043 0 106.126 13.418 1424 93.0126 382.41 481.977
2044 0 109.103 13.611 1485 92.3818 382.908 479.958
2045 1 59.0377 12.365 730 96.574 382.504 503.467
2046 0 62.0657 12.8251 796 95.1143 382.216 502.019
2047 0 64.0767 13.1405 842 91.9596 382.528 499.659
2048 0 66.0445 13.1881 871 92.031 382.956 501.179
2049 0 67.0284 13.3973 898 92.2205 382.715 500.54
2050 0 70.1471 13.0155 913 101.63 382.521 498.425
2051 0 72.0178 13.5522 976 91.4262 382.856 495.847
2052 0 73.0697 13.1518 961 92.7992 382.715 496.178
2053 0 78.0501 13.107 1023 91.3509 382.737 494.507
2054 0 78.036 13.2887 1037 99.0347 382.847 495.616
2055 0 82.0656 12.9896 1066 98.2317 383.049 491.9
2056 0 83.1199 13.27 1103 96.4578 383.352 490.799
2057 0 85.0652 13.4015 1140 94.6719 383.831 489.807
2058 0 87.0638 13.0364 1135 96.8573 383.922 489.071
2059 0 90.0582 13.0804 1178 99.32 382.945 488.964
2060 0 92.0506 13.0146 1198 100.888 382.648 486.706
2061 0 95.0422 13.5098 1284 99.8824 383.17 487.261
2062 0 97.0487 13.3129 1292 101.538 382.498 486.19
2063 0 100.085 13.4886 1350 102.404 383.039 484.61
2064 0 105.123 13.9361 1465 99.2833 382.397 481.182
2065 0 109.07 13.9544 1522 98.2635 382.855 479.911
2066 0 112.115 13.7537 1542 102.053 383.027 478.75
2067 0 116.11 13.7628 1598 102.702 382.943 477.519
2068 1 62.0676 12.003 745 102.142 383.424 504.04
2069 0 64.036 12.2587 785 101.633 383.241 502.831
2070 0 66.036 12.5992 832 102.755 382.843 501.102
2071 0 69.0494 12.6721 875 104.517 382.959 499.191
2072 0 72.0465 12.5474 904 96.0586 382.883 495.012
2073 0 74.0395 12.804 948 95.6603 382.358 493.61
2074 0 77.0932 13.0491 1006 95.8549 382.446 492.285
2075 0 80.119 13.2428 1061 94.3478 382.044 492.063
2076 0 80.0336 13.2694 1062 98.2401 381.448 487.533
2077 0 84.1078 13.3044 1119 99.8928 382.324 486.898
2078 0 86.0547 12.8174 1103 98.4941 382.18 488.911
2079 0 89.0598 13.2832 1183 97.5892 381.757 486.973
2080 0 91.1144 12.7971 1166 99.5283 381.937 484.344
2081 0 92.082 13.0753 1204 100.12 381.914 483.531
2082 0 97.1177 13.5197 1313 99.5194 382.284 481.46
2083 0 100.069 13.3208 1333 99 382.237 480.379
2084 0 103.126 13.2071 1362 99.3231 382.169 479.196
2085 0 106.062 13.4733 1429 96.6508 382.851 479.386
2086 0 109.06 13.1029 1429 97.809 382.951 476.411
2087 1 58.0509 11.4727 666 95.6652 384.116 504.141
2088 0 61.0604 12.332 753 95.1899 383.792 502.364
2089 0 62.0245 12.4628 773 98.0181 383.335 499.186
2090 0 64.0805 12.9681 831 99.4982 383.391 496.878
2091 0 66.1571 12.8029 847 93.6765 382.86 496.407
2092 0 68.1274 13.1225 894 95.2774 382.563 495.667
2093 0 69.054 12.9464 894 97.7438 381.855 495.158
2094 0 72.0557 13.5034 973 95.6978 382.59 493.103
2095 0 74.1299 12.5186 928 95.6778 382.934 493.501
2096 0 77.1339 12.4848 963 96.1454 382.991 492.272
2097 0 79.0951 12.6304 999 96.018 382.434 491.097
2098 0 82.1119 13.0554 1072 92.473 382.791 490.69
2099 0 85.0621 12.6261 1074 95.7216 383.306 490.264
2100 0 87.0678 12.6224 1099 96.6542 383.572 488.926
2101 0 89.0552 12.408 1105 96.9493 383.344 487.948
2102 0 92.055 12.7206 1171 96.2331 383.234 485.006
2103 0 95.0422 12.7733 1214 96.0865 382.585 484.023
2104 0 99.0963 12.4929 1238 95.5057 383.056 480.978
2105 0 101.044 12.4798 1261 95.0238 382.586 480.465
2106 0 105.124 12.6612 1331 92.5124 382.534 478.838
2107 0 105.092 12.1322 1275 95.3169 382.956 477.47
2108 1 58.0113 11.0668 642 95.9969 383.656 501.844
2109 0 60.015 11.997 720 94.5264 383.376 499.76
2110 0 60.0684 12.4525 748 93.7233 383.961 500.394
2111 0 63.0796 13.1104 827 92.0943 384.18 496.707
2112 0 62.0718 11.7928 732 93.7842 383.874 498.843
2113 0 64.0606 12.0043 769 92.1521 383.71 498.291
2114 0 65.0505 11.7601 765 92.8314 384.527 497.205
2115 0 68.0311 11.8328 805 92.2261 384.089 494.703
2116 0 71.0856 11.5354 820 92.2988 383.579 494.188
2117 0 72.1143 11.5372 832 93.7284 383.44 492.657
2118 0 76.0705 12.0152 914 90.7801 382.72 492.777
2119 0 77.0772 12.3902 955 91.6565 384.014 491.168
2120 0 80.0582 11.3917 912 94.4825 383.414 486.893
2121 0 84.0575 12.2654 1031 91.2793 382.973 485.18
2122 0 88.1494 12.5242 1104 90.0353 383.589 485.48
2123 0 90.0938 12.0319 1084 90.7574 383.149 482.651
2124 0 94.068 12.3953 1166 89.9494 383.204 482.769
2125 0 97.0668 12.1875 1183 90.601 383.602 479.579
2126 1 54.0386 11.4178 617 94.0746 382.985 501.373
2127 0 53.0766 11.6624 619 95.4459 382.961 502.233
2128 0 56.0478 12.0076 673 94.9777 383.311 503.51
2129 0 56.1226 11.956 671 95.8063 383.927 502.045
2130 0 60.0677 12.9521 778 91.6979 383.641 502.298
2131 0 62.0331 13.5573 841 94.8561 383.849 502.49
2132 0 64.0697 13.3761 857 95.5298 383.491 501.928
2133 0 65.0809 13.8136 899 95.1891 382.953 500.519
2134 0 68.0576 14.429 982 92.6507 383.118 500.302
2135 0 69.1061 14.1087 975 94.8472 383.593 499.352
2136 0 73.0148 13.8602 1012 94.3607 383.972 496.825
2137 0 74.067 13.5958 1007 92.5005 383.206 493.55
2138 0 76.0784 13.4467 1023 90.1163 383.773 490.188
2139 0 79.0562 13.8256 1093 90.4318 384.033 491.315
2140 0 81.0977 13.8475 1123 87.1745 384.094 487.805
2141 0 82.0488 13.0532 1071 87.126 383.94 483.934
2142 0 87.0484 12.5103 1089 88.9495 383.755 481.673
2143 0 88.0847 13.9525 1229 91.1481 382.603 484.009
2144 1 48.1144 11.3895 548 101.429 382.544 505.464
2145 0 49.1068 12.1572 597 101.184 382.782 502.623
2146 0 51.0638 13.0425 666 99.3619 382.518 507.853
2147 0 54.0699 13.2236 715 94.8 383.978 508.434
2148 0 56.0722 13.3756 750 94.616 383.945 507.677
2149 0 57.0786 13.315 760 96.1855 384.188 507.105
2150 0 58.0659 13.2436 769 95.1638 384.239 505.44
2151 0 60.0634 13.4025 805 94.5329 384.277 504.794
2152 0 62.0771 13.8537 860 92.6046 384.728 505.944
2153 0 62.1026 13.4777 837 94.6655 384.438 503.568
2154 0 66.1739 13.2983 880 93.9477 384.643 502.861
2155 0 68.0652 13.6634 930 92.1108 384.141 501.729
2156 0 69.0667 13.6245 941 92.611 383.472 501.168
2157 0 72.1039 13.855 999 90.969 383.43 499.011
2158 0 75.1443 13.6537 1026 90.4162 384.195 498.509
2159 0 78.1271 14.7068 1149 87.0583 383.774 498.472
2160 0 79.2106 13.7355 1088 92.9504 383.143 496.119
2161 0 81.1269 13.4604 1092 95.2006 384.213 494.225
2162 0 83.1387 13.2068 1098 96.5838 384.578 494.223
2163 0 87.1252 13.911 1212 93.1898 384.578 493.926
2164 0 88.2208 12.7634 1126 96.627 385.044 491.819
2165 0 92.2618 13.2558 1223 94.4612 384.904 492.692
2166 0 96.2688 13.5142 1301 93.4327 384.961 490.311
2167 0 98.1676 13.477 1323 93.1663 384.277 487.519
2168 0 101.21 13.2596 1342 93.6468 384.793 485.573
2169 0 105.098 14.2249 1495 88.8629 385.11 481.738
2170 0 108.152 13.5735 1468 91.7711 384.642 481.561
2171 0 109.19 13.1147 1432 95.3094 384.963 479.659
2172 0 115.18 13.8131 1591 100.254 384.967 477.143
2173 0 118.17 13.3368 1576 101.095 384.644 474.706
2174 0 120.163 13.0656 1570 100.754 384.76 474
2175 0 126.4 13.125 1659 100.587 385.034 472.471
2176 0 130.205 13.4173 1747 100.444 384.794 468.078
2177 0 135.275 13.4541 1820 98.8824 385.329 467.786
2178 0 140.227 12.7936 1794 99.6561 385.73 467.085
2179 0 146.307 12.8429 1879 98.1825 385.294 465.286
2180 0 150.227 13.1601 1977 98.2822 385.055 462.782
2181 0 156.293 13.5003 2110 97.099 385.225 459.593
2182 0 159.169 12.9611 2063 95.9302 384.83 458.052
2183 0 166.351 13.0327 2168 94.589 385.424 457.337
2184 0 170.232 12.483 2125 95.8447 385.028 452.767
2185 0 175.257 13.0836 2293 95.8822 385.045 447.572
2186 0 182.309 12.6104 2299 95.3475 385.382 449.699
2187 1 100.128 12.7837 1280 92.6477 384.545 486.017
2188 0 102.221 12.6588 1294 97.1291 384.429 485.182
2189 0 105.198 12.6524 1331 96.3674 384.216 480.911
2190 0 109.233 13.3751 1461 93.7529 384.013 477.105
2191 0 112.209 13.3233 1495 93.2923 384.297 475.16
2192 0 117.268 12.9277 1516 93.1603 384.119 473.128
2193 0 122.232 13.0571 1596 91.7168 384.449 473.07
2194 0 125.204 12.9069 1616 93.6757 383.735 470.531
2195 0 127.146 12.6312 1606 94.5672 384.038 468.796
2196 0 133.202 12.62 1681 93.8566 384.118 467.133
2197 0 137.213 12.9507 1777 92.753 384.624 464.086
2198 0 140.23 12.836 1800 93.6011 384.453 463.137
2199 0 144.234 12.8125 1848 93.6802 384.032 461.563
2200 0 149.15 11.9746 1786 94.935 384.233 456.045
2201 0 156.298 11.8299 1849 94.2077 384.408 455.719
2202 0 163.333 12.9796 2120 91.8929 384.116 453.516
2203 0 168.338 12.2907 2069 95.3291 384.528 448.969
2204 1 82.1054 9.86537 810 89.8136 383.779 494.246
2205 0 88.1689 12.2265 1078 83.8636 384.402 492.999
2206 0 92.2058 12.9276 1192 84.4169 383.605 491.951
2207 0 94.1868 13.2715 1250 86.7128 384.247 488.403
2208 0 97.2171 12.2818 1194 88.7454 383.652 487.885
2209 0 98.0935 12.6104 1237 87.4026 384.361 485.914
2210 0 104.129 12.8494 1338 86.1562 384.4 485.846
2211 0 105.177 12.9497 1362 85.851 384.269 483.098
2212 0 109.145 12.8178 1399 84.9878 383.665 482.793
2213 0 112.185 13.2548 1487 83.6261 383.572 481.58
2214 0 115.167 12.1129 1395 86.6867 383.215 480.914
2215 0 118.266 12.3873 1465 86.7358 384.455 477.471
2216 0 122.239 13.0318 1593 86.3082 383.925 479.028
2217 0 125.228 13.1999 1653 86.092 384.054 474.603
2218 0 128.317 12.9289 1659 87.4635 384.183 474.346
2219 0 133.202 12.7851 1703 89.3018 384.022 472.037
2220 0 136.213 12.6273 1720 91.4105 384.541 469.779
2221 0 142.237 12.8237 1824 91.5948 384.745 467.719
2222 0 145.257 12.6741 1841 93.5676 384.194 464.605
2223 0 152.379 12.6133 1922 94.1103 384.827 464.265
2224 0 159.238 13.1815 2099 95.2549 383.555 459.068
2225 1 94.1306 11.006 1036 90.307 383.945 493.651
2226 0 98.1443 11.5952 1138 89.9174 382.519 482.824
2227 0 102.326 12.2061 1249 92.9648 383.054 484.273
2228 0 105.224 12.6302 1329 91.5124 382.949 486.887
2229 0 108.186 12.4785 1350 89.4104 383.51 481.567
2230 0 111.12 12.383 1376 90.9542 382.871 481.347
2231 0 114.268 12.2607 1401 92.1349 382.802 481.929
2232 0 116.245 11.9403 1388 91.5166 382.839 478.71
2233 0 119.212 11.6012 1383 91.504 383.51 476.343
2234 0 124.185 11.805 1466 90.3226 382.954 475.799
2235 0 126.098 11.158 1407 90.6937 382.889 475.738
2236 0 128.224 10.778 1382 91.7055 382.811 470.735
2237 0 132.182 11.2648 1489 89.2216 382.353 470.083
2238 0 138.158 11.5158 1591 89.5726 382.296 468.039
2239 0 143.158 11.5327 1651 89.4306 382.315 464.445
2240 0 146.18 11.3148 1654 89.2038 383.036 460.403
2241 1 77.0641 9.84895 759 88.025 382.698 497.407
2242 0 79.0602 10.4224 824 87.9126 382.434 495.309
2243 0 80.0626 10.6292 851 91.1246 381.994 496.083
2244 0 81.0926 11.1847 907 85.9504 384.009 493.997
2245 0 85.0679 12.6487 1076 90.7946 384.602 494.23
2246 0 85.0982 11.7746 1002 95.004 383.985 492.657
2247 0 88.0382 12.699 1118 87.5599 384.051 492.496
2248 0 88.0683 11.0709 975 87.84 383.342 493.321
2249 0 89.087 10.978 978 89.5153 383.337 491.386
2250 0 92.0727 11.0456 1017 88.2035 384.032 493.031
2251 0 95.0874 11.5052 1094 87.8492 383.543 489.453
2252 0 97.1472 11.6112 1128 89 383.262 488.802
2253 0 100.091 11.7992 1181 90.1465 383.133 485.768
2254 0 104.12 11.5732 1205 90.2382 383.756 484.933
2255 0 106.092 11.5749 1228 91.1539 383.73 483.296
2256 0 110.235 11.5662 1275 91.6133 384.214 481.301
2257 0 114.183 12.6551 1445 90.1751 383.9 479.154
2258 0 115.172 11.5219 1327 92.5132 384.116 480.443
2259 0 121.211 12.7299 1543 96.2028 384.257 476.026
2260 0 124.161 12.3308 1531 97.6166 384.227 473.584
2261 0 128.138 12.1666 1559 93.8826 384.241 473.298
2262 0 132.119 11.921 1575 95.0533 383.501 468.799
2263 0 137.239 12.1467 1667 96.835 383.704 468.398
2264 1 78.156 10.607 829 96.9493 384.255 494.731
2265 0 82.1029 11.1202 913 98.1566 384.345 494.346
2266 0 86.147 12.3742 1066 92.8555 384.738 492.841
2267 0 88.0594 11.9465 1052 85.5238 382.736 491.619
2268 0 88.123 11.2456 991 89.0172 384.011 493.513
2269 0 93.1395 11.3808 1060 88.1283 384.316 492.159
2270 0 94.12 11.0922 1044 89.0402 384.862 492.923
2271 0 99.1169 10.7953 1070 90.9963 384.643 490.064
2272 0 101.238 10.6877 1082 92.1738 384.099 491.432
2273 0 103.16 10.7018 1104 93.7473 382.641 486.948
2274 1 58.061 10.644 618 84.7249 383.689 511.605
2275 0 60.0707 10.8705 653 84.6631 383.331 508.855
2276 0 62.1303 11.5081 715 81.986 383.418 507.958
2277 0 64.1224 11.2441 721 82.5798 383.695 507.445
2278 0 65.1377 11.6676 760 80.9921 383.936 505.855
2279 0 67.0763 11.3155 759 81.7062 384.36 506.962
2280 0 70.0393 11.7505 823 80.6403 384.974 505.2
2281 0 73.0926 12.0258 879 80.0762 384.853 503.759
2282 0 74.0902 12.1339 899 80.6329 384.564 502.373
2283 0 76.0462 12.3215 937 79.5624 384.869 500.805
2284 0 79.096 12.0992 957 79.0596 384.462 502.641
2285 0 82.0981 12.7165 1044 78.4397 384.098 499.322
2286 0 85.1146 12.7005 1081 77.79 384.155 496.016
2287 0 86.0948 12.4282 1070 79.9617 384.145 495.809
2288 0 89.0347 11.9392 1063 82.588 383.844 494.45
2289 0 93.0759 12.4415 1158 83.8592 383.895 493.071
2290 0 95.0656 12.6755 1205 84.0149 384.063 493.228
2291 0 97.0741 12.2793 1192 86.4639 384.177 491.559
2292 0 100.097 12.5478 1256 86.3002 384.579 490.865
2293 1 52.066 10.7172 558 90.2814 384.573 513.869
2294 0 55.0805 11.3107 623 88.6998 384.841 514.297
2295 0 57.1647 11.4056 652 88.5445 384.58 513.064
2296 0 59.0586 11.8018 697 88.5065 384.25 510.049
2297 0 57.1015 12.469 712 85.4621 384.622 509.956
2298 0 60.0737 12.0186 722 86.446 384.428 508.853
2299 0 62.167 12.193 758 99.347 383.987 508.727
2300 0 66.1922 11.3004 748 101.374 383.918 506.9
2301 0 65.1492 12.3409 804 95.5597 384.017 507.229
2302 0 67.1868 11.8922 799 95.7397 383.473 506.885
2303 0 69.2127 12.7578 883 94.1959 383.28 504.367
2304 0 72.1454 13.0986 945 91.6053 383.65 505.296
2305 0 75.1817 12.9287 972 90.4023 383.45 502.615
2306 0 76.2098 13.0823 997 90.2377 383.588 503.348
2307 0 76.1447 12.3712 942 96.6422 382.986 500.937
2308 0 79.1525 12.4696 987 93.3617 383.186 499.795
2309 0 81.1303 12.9668 1052 84.2757 383.975 499.771
2310 0 83.105 13.3446 1109 82.5636 383.802 497.975
2311 0 85.0929 12.7978 1089 85.0955 383.943 496.987
2312 0 88.069 12.7968 1127 83.504 384.185 494.754
2313 0 90.0989 12.675 1142 84.0788 383.85 493.766
2314 1 49.0883 11.0209 541 90.6137 384.087 512.277
2315 0 51.0696 11.2787 576 88.1719 382.347 511.16
2316 0 52.1144 11.7818 614 85.9023 382.498 511.254
2317 0 54.0637 11.6714 631 86.3502 383.216 509.341
2318 0 55.1517 12.2934 678 85.0118 382.788 508.938
2319 0 57.2154 12.1995 698 84.5759 382.468 509.486
2320 0 59.1185 12.5511 742 82.2035 383.756 508.066
2321 0 59.1015 12.3855 732 83.4317 383.318 507.432
2322 0 61.081 12.3115 752 83.0266 382.995 505.918
2323 0 63.0977 13.075 825 83.0788 383.781 505.021
2324 0 63.1105 12.7712 806 81.4094 383.262 505.818
2325 0 67.1124 13.2315 888 87.9336 383.084 502.122
2326 0 67.0736 12.449 835 80.7629 383.535 501.238
2327 0 71.1158 12.6413 899 80.02 383.73 500.04
2328 0 73.0919 12.8742 941 78.5675 383.582 497.479
2329 0 75.1316 12.5247 941 79.0861 384.166 496.259
2330 0 76.1587 12.2376 932 79.3273 384.456 494.895
2331 0 76.0692 11.4501 871 82.2204 383.87 493.602
2332 0 80.0673 11.9524 957 81.6155 383.609 491.859
2333 0 82.0504 11.2857 926 82.5994 383.803 492.126
2334 0 85.1236 11.4657 976 86.5902 383.488 490.188
2335 0 88.0854 11.398 1004 81.6853 383.791 488.717
2336 0 90.0923 11.9877 1080 80.2667 384.188 489.01
2337 0 92.202 11.9629 1103 80.9229 384.393 487.016
2338 0 96.214 11.6927 1125 80.5413 384.441 484.844
2339 0 98.1917 12.1395 1192 77.7097 384.387 475.815
2340 0 101.118 11.2839 1141 79.2647 384.205 477.395
2341 0 107.188 11.5218 1235 78.9441 384.202 475.429
2342 1 54.1492 11.8746 643 77.4603 385.767 504.58
2343 0 55.083 11.3465 625 81.3168 385.59 506.434
2344 0 58.06 12.7971 743 80.7927 384.62 505.802
2345 0 61.1031 12.7489 779 81.5456 383.608 506.66
2346 0 61.1516 13.3766 818 79.9205 384.002 504.053
2347 0 64.0969 13.1676 844 74 385.303 504.679
2348 0 64.1193 12.2896 788 77.236 384.735 504.137
2349 0 67.0671 12.2117 819 77.5446 384.723 503.632
2350 0 69.0918 12.0709 834 78.813 384.535 503.177
2351 0 69.1075 11.7064 809 81.7553 383.576 503.29
2352 0 71.0986 12.2787 873 81.7709 384.235 502.743
2353 0 73.0418 11.3771 831 83.8881 383.777 502.996
2354 0 77.1131 12.0991 933 83.0611 383.618 500.816
2355 0 79.0734 11.5842 916 85.4039 383.025 500.38
2356 0 81.053 11.9675 970 86.0268 383.585 498.004
2357 0 85.0522 12.0044 1021 87.7169 383.685 497.925
2358 0 91.085 12.9988 1184 87.7314 382.976 496.355
2359 0 89.0845 12.4376 1108 90.6841 382.694 495.236
2360 0 94.112 12.5382 1180 92.9525 382.23 494.341
2361 0 95.0647 12.0655 1147 94.0418 381.761 495.158
2362 0 100.098 11.7685 1178 93.1834 382.41 492.447
2363 0 105.058 12.7548 1340 92.2746 381.543 490.167
2364 1 53.0307 10.8239 574 97.1098 380.988 513.146
2365 0 55.1018 11.506 634 96.3265 380.705 514.347
2366 0 59.0852 11.475 678 94.0737 380.83 512.714
2367 0 59.0532 12.9544 765 92.8327 381.02 510.441
2368 0 61.183 11.7516 719 95.6954 379.783 510.599
2369 0 63.1132 12.8024 808 91.3651 380.657 510.219
2370 0 66.0852 12.847 849 92.563 380.071 508.007
2371 0 67.0588 12.5412 841 94.4923 380.502 507.312
2372 0 72.2049 13.5448 978 91.4386 380.973 506.973
2373 0 73.1714 13.5162 989 92.2002 380.469 505.027
2374 0 75.1938 13.9639 1050 90.3 380.789 504.972
2375 0 78.2024 13.5674 1061 91.9661 380.413 504.509
2376 0 79.2657 13.6755 1084 92.0959 380.245 501.696
2377 0 82.2851 14.4254 1187 88.8399 380.335 501.164
2378 0 85.2909 14.3861 1227 88.9503 380.556 499.72
2379 0 87.2565 13.8786 1211 89.6887 379.933 497.024
2380 0 89.2632 14.0259 1252 90.9736 380.222 495.949
2381 0 92.2331 14.0188 1293 91.0974 380.62 493.089
2382 0 94.2428 14.1443 1333 89.8432 380.425 490.942
2383 0 98.3407 13.4431 1322 91.177 381.076 489.436
2384 0 101.254 13.9451 1412 89.8924 381.197 487.734
2385 0 104.357 14.0767 1469 90.8393 381.456 485.63
2386 0 108.242 13.9595 1511 93.6281 381.058 482.796
2387 1 57.0941 11.5248 658 92.0304 381.372 511.53
2388 0 59.2203 11.8372 701 88.5692 380.699 508.586
2389 0 58.162 12.448 724 83.9406 381.28 509.228
2390 0 60.0757 11.7352 705 84.9106 381.637 508.728
2391 0 63.1217 12.4838 788 81.5444 382.112 508.231
2392 0 65.2233 11.7289 765 82.2026 382.047 506.579
2393 0 66.2502 12.317 816 81.4216 382.143 504.132
2394 0 69.0947 12.2296 845 79.9858 382.515 503.633
2395 0 72.1587 11.9182 860 80.5163 381.907 501.504
2396 0 74.0935 12.3223 913 79.0471 382.065 499.587
2397 0 77.0515 12.3684 953 81.0724 382.069 498.531
2398 0 78.0978 12.2795 959 81.3514 382.35 495.017
2399 0 82.1026 12.5331 1029 79.2721 382.181 494.599
2400 0 84.0731 12.2037 1026 79.5263 382.223 492.991
2401 0 85.093 12.1162 1031 80.0078 383.104 490.701
2402 0 88.0334 12.3589 1088 81.2454 382.75 489.084
2403 0 89.0657 11.9013 1060 85.6868 382.845 486.467
2404 0 93.0667 12.0988 1126 83.365 382.688 485.142
2405 0 97.1246 12.3141 1196 82.7458 383.213 484.533
2406 0 99.0829 11.6468 1154 84.2574 384.272 482.578
2407 0 106.132 13.1063 1391 81.6564 383.234 483.248
2408 1 53.0348 11.1059 589 79.3005 383.005 508.942
2409 0 55.0425 10.6645 587 79.8075 383.784 508.6
2410 0 58.1228 11.6306 676 81.9941 383.469 507.839
2411 0 57.0699 10.8288 618 81.5518 383.95 507.775
2412 0 60.0471 11.108 667 82.105 384.018 505.861
2413 0 62.0534 10.9905 682 82.9267 384.069 506.521
2414 0 61.0742 10.872 664 85.5648 383.824 505.756
2415 0 66.1148 11.1926 740 84.3365 384.509 503.549
2416 0 65.0407 10.8394 705 87.017 384.584 502.852
2417 0 68.0961 11.3516 773 86.2277 384.386 502.427
2418 0 71.1548 11.8896 846 84.8286 384.239 500.778
2419 0 73.1546 11.3732 832 86.5998 384.153 498.532
2420 0 77.1358 11.7974 910 86.6165 384.146 501.716
2421 0 78.0852 11.1161 868 89.5046 384.512 499.646
2422 0 82.1269 11.19 919 90.1393 384.21 498.944
2423 0 83.1463 11.8466 985 90.4 384.391 497.624
2424 0 85.087 12.2345 1041 90.9635 384.128 498.541
2425 0 87.0908 11.5856 1009 93.0258 384.464 495.898
2426 0 90.0477 11.2385 1012 92.5208 384.105 490.114
2427 0 94.1266 11.6651 1098 91.5128 384.615 490.07
2428 0 98.1003 11.7329 1151 91.8714 384.626 488.614
2429 0 102.051 11.5236 1176 91.091 383.656 487.564
2430 0 104.08 11.7505 1223 91.4636 383.315 484.623
2431 1 41.0243 9.96969 409 93.7188 384.227 512.888
2432 0 41.0122 10.8748 446 91.3072 384.652 511.047
2433 0 45.0375 11.9234 537 90.365 384.458 514.719
2434 0 46.0477 11.4229 526 91.9582 384.466 514.213
2435 0 45.0637 11.4061 514 89.5331 384.086 514.957
2436 0 48.1203 11.7622 566 87.6696 383.691 512.784
2437 0 48.0766 12.3969 596 87.4262 383.71 512.878
2438 0 49.0503 11.845 581 90.5955 383.542 511.859
2439 0 50.1029 11.5961 581 91.6902 384.184 511.415
2440 0 54.1125 12.6034 682 87.9897 384.24 510.418
2441 0 54.051 12.5807 680 90.0191 384.072 510.601
2442 0 58.0398 13.06 758 89.3298 383.732 509.084
2443 0 59.0485 13.0063 768 90.2526 384.387 508.888
2444 0 58.0513 12.644 734 93.9632 383.485 508.666
2445 0 62.0792 12.8707 799 92.582 384.446 507.275
2446 0 63.0517 13.4969 851 91.8707 383.93 506.236
2447 0 67.0596 13.3762 897 89.7035 384.405 505.35
2448 0 66.0799 12.606 833 96.3505 384.263 504.014
2449 0 69.1042 12.7923 884 90.1018 383.359 499.627
2450 0 72.0643 13.1688 949 88.0042 383.848 499.218
2451 0 75.0395 12.1802 914 88.232 383.4 497.561
2452 0 77.0432 13.2783 1023 86.9218 384.14 499.686
2453 0 78.0891 12.1144 946 93.9915 383.812 499.973
2454 1 39.0179 11.7382 458 99.2555 384.358 517.878
2455 0 41.0498 11.6444 478 97.6464 384.402 517.586
2456 0 43.0413 12.1046 521 97.4299 384.104 516.428
2457 0 44.0146 12.0187 529 97.2703 383.966 516.508
2458 0 43.0528 12.8911 555 95.3387 383.031 515.382
2459 0 46.0426 12.293 566 91.6643 383.173 515.41
2460 0 49.0313 13.216 648 88.9167 383.752 514.901
2461 0 49.0208 13.4433 659 89.1123 384.049 514.712
2462 0 50.009 13.0976 655 90.2824 383.368 514.021
2463 0 51.0493 13.7906 704 89.8608 383.47 512.945
2464 0 52.0142 14.4191 750 88.6547 384.004 511.904
2465 0 53.0235 14.1069 748 90.516 383.735 511.198
2466 0 56.072 13.9642 783 88.8391 383.746 511.088
2467 0 56.1086 13.866 778 88.4139 383.163 509.617
2468 0 59.0246 13.8247 816 88.5257 383.765 508.901
2469 0 58.0232 14.2012 824 90.1687 383.201 507.874
2470 0 61.0286 14.4686 883 87.7225 383.041 505.655
2471 0 64.0558 14.4093 923 85.9339 383.431 504.631
2472 0 66.0366 14.4617 955 85.5801 383.592 503.225
2473 0 66.0066 13.9986 924 87.3831 383.627 503.238
2474 0 68.0401 13.5067 919 87.7138 384.03 501.882
2475 0 69.0434 13.8464 956 86.3473 383.706 500.393
2476 0 71.0389 12.9506 920 87.4087 383.575 499.753
2477 0 73.0148 12.97 947 86.9578 384.124 498.66
2478 0 76.0444 13.3343 1014 87.3314 384.563 499.817
2479 0 76.0603 13.5287 1029 89.7357 384.236 498.539
2480 0 79.0346 13.8547 1095 88.2603 384.095 496.363
2481 0 81.0647 13.8038 1119 90.7891 384.223 497.37
2482 0 84.0475 13.2901 1117 89.2086 384.151 494.438
2483 0 85.0409 13.3818 1138 91.9596 384.037 495.797
2484 0 87.0676 13.679 1191 89.8002 383.125 495.772
2485 0 90.0838 13.876 1250 89.5896 383.504 492.182
2486 0 93.0139 13.8259 1286 90.8258 383.566 491.044
2487 0 96.0629 14.3344 1377 91.0915 383.509 490.743
2488 0 98.0576 14.5221 1424 91.8034 383.419 489.985
2489 0 101.049 14.5573 1471 91.8409 382.871 489.387
2490 0 104.074 14.2206 1480 92.3554 383.583 487.247
2491 0 108.041 14.5592 1573 91.0553 383.391 484.006
2492 0 110.06 14.156 1558 92.4705 383.614 482.969
2493 0 113.043 13.8178 1562 94.614 383.83 479.643
2494 0 118.082 14.2528 1683 92.4028 383.388 477.979
2495 0 123.039 14.4832 1782 91.0342 383.691 476.201
2496 1 64.0341 12.6495 810 94.1457 383.29 504.648
2497 0 66.0634 13.4568 889 97.4421 382.91 504.913
2498 0 69.0587 13.7999 953 99.1689 382.817 505.984
2499 0 69.0922 13.7497 950 92.8284 383.22 506.293
2500 0 70.1436 13.4581 944 93.6811 382.386 505.751
2501 0 75.1263 13.7369 1032 91.2403 382.997 505.677
2502 0 77.112 13.7851 1063 91.0395 382.988 504.717
2503 0 78.0531 13.8495 1081 91.1295 382.992 502.769
2504 0 80.0534 13.3911 1072 91.3153 382.712 501.988
2505 0 84.0588 13.4549 1131 91.7781 383.531 500.853
2506 0 87.0999 13.9036 1211 91.45 382.759 500.214
2507 0 90.0898 13.3422 1202 91.5408 383.055 498.395
2508 0 92.1241 13.7749 1269 89.6478 382.455 497.064
2509 0 96.1565 13.4572 1294 89.9884 383.077 496.114
2510 0 98.0687 13.9902 1372 87.8149 382.14 494.932
2511 0 100.114 13.1251 1314 90.0236 382.801 493.53
2512 0 105.145 13.353 1404 90.0256 382.576 490.77
2513 0 110.197 13.1945 1454 88.8095 383.063 488.968
2514 0 114.128 13.2395 1511 88.6545 382.993 488.066
2515 1 60.0484 13.1394 789 92.1787 382.392 512.356
2516 0 63.2087 13.0995 828 95.4601 382.998 510.51
2517 0 66.076 13.8023 912 92.5417 382.237 508.354
2518 0 67.1353 13.4356 902 91.0211 381.988 507.637
2519 0 70.0928 13.7532 964 89.7012 381.418 504.939
2520 0 72.1338 13.4472 970 89.8299 382.053 504.229
2521 0 73.1296 13.3325 975 91.5128 382.086 503.16
2522 0 77.2139 13.6374 1053 88.4312 381.595 500.983
2523 0 78.1504 12.9494 1012 89.5662 382.188 501.259
2524 0 81.1057 13.3776 1085 86.1899 382.215 499.516
2525 0 83.1148 13.7521 1143 89.6885 381.767 497.036
2526 0 86.1516 13.3486 1150 87.1035 382.01 495.959
2527 0 89.1575 13.4369 1198 86.1402 381.153 494.221
2528 0 90.0857 12.7545 1149 87.4195 381.312 494.133
2529 0 95.1204 12.8994 1227 86.7604 382.108 491.588
2530 0 98.1758 12.8341 1260 87.9484 381.781 488.19
2531 0 101.119 12.8364 1298 88.0478 381.391 487.063
2532 1 53.0921 11.8473 629 90.6153 381.854 508.466
2533 0 53.0597 12.0053 637 91.7912 381.805 508.256
2534 0 57.0571 12.8994 736 87.9484 382.2 506.158
2535 0 59.0727 13.2379 782 86.9207 381.944 504.075
2536 0 58.0696 12.64 734 92.3024 381.593 503.495
2537 0 62.044 12.4911 775 93.1884 381.365 504.268
2538 0 64.0807 12.5311 803 92.8182 382.386 501.374
2539 0 67.1217 13.1999 886 88.1321 382.663 502.519
2540 0 69.0252 12.5172 864 84.9352 382.685 498.573
2541 0 72.0415 13.2562 955 82.7759 382.519 497.937
2542 0 72.0451 12.8808 928 84.9483 382.261 496.804
2543 0 76.0657 13.1991 1004 84.7779 382.713 497.087
2544 0 78.0504 13.2991 1038 85.6686 383.037 496.131
2545 0 80.0373 13.4562 1077 86.5209 381.778 494.942
2546 0 82.0287 13.288 1090 88.5009 381.906 493.64
2547 0 86.038 13.6451 1174 90.1985 381.504 492.453
2548 0 89.029 13.8606 1234 89.3898 381.823 490.847
2549 0 93.046 13.9071 1294 89.4644 381.726 488.939
2550 1 45.0476 12.2981 554 97.6336 381.114 510.547
2551 0 46.0334 11.622 535 98.486 381.583 511.06
2552 0 49.0254 13.1972 647 96.0433 381.606 509.694
2553 0 50.0448 13.5079 676 96.9867 382.376 510.006
2554 0 51.1386 13.747 703 95.0199 383.498 508.307
2555 0 54.0954 13.5871 735 96.9742 384.799 507.521
2556 0 56.0451 13.6497 765 97.7595 384.136 507.154
2557 0 57.0808 13.8225 789 99.6096 382.861 505.76
2558 0 58.0924 13.9433 810 100.065 382.937 503.521
2559 0 62.0472 13.6025 844 98.5912 382.483 502.171
2560 0 64.1081 13.524 867 99.1419 382.346 500.051
2561 0 67.0547 14.0482 942 99.603 381.408 498.675
2562 0 70.2055 13.7169 963 100.891 382.561 498.309
2563 0 73.0366 13.3358 974 102.896 382.032 497.031
2564 0 73.1272 13.6201 996 103.008 381.856 495.476
2565 0 77.023 13.9049 1071 102.078 382.741 493.879
2566 0 78.0728 13.4234 1048 104.844 381.805 492.442
2567 0 78.0465 12.8641 1004 108.835 382.383 492.226
2568 0 81.0288 12.7239 1031 108.731 381.684 491.216
2569 0 85.0381 13.0412 1109 108.039 382.417 490.693
2570 0 87.027 13.2718 1155 107.906 382.342 489.618
2571 1 43.0246 12.2953 529 120.14 382.599 509.274
2572 0 45.1142 12.3243 556 119.099 382.581 510.365
2573 0 48.0776 13.291 639 114.837 382.613 509.13
2574 0 47.0688 13.6184 641 116.746 382.702 508.839
2575 0 49.0291 13.5226 663 116.285 383.38 507.653
2576 0 50.0478 13.8268 692 115.773 382.857 506.684
2577 0 51.0806 13.5668 693 115.837 382.58 506.714
2578 0 53.0636 13.1163 696 117.427 383.161 505.5
2579 0 55.0579 13.8763 764 113.546 382.459 504.034
2580 0 55.0714 13.5279 745 115.718 382.925 503.621
2581 0 57.0984 13.0301 744 117.065 384.026 502.478
2582 0 58.1102 13.5949 790 116.713 383.585 501.338
2583 0 63.1224 13.656 862 116.357 384.066 501.175
2584 0 64.135 13.9393 894 113.649 383.853 499.764
2585 0 67.1259 13.5119 907 116.745 383.529 498.407
2586 0 69.126 13.5116 934 116.863 383.72 497.078
2587 0 71.1591 13.7298 977 115.675 383.845 496.41
2588 0 74.0477 13.5723 1005 115.959 383.814 494.883
2589 0 78.1067 13.5968 1062 115.814 383.809 492.997
2590 0 81.0765 13.3824 1085 116.606 383.671 492.372
2591 0 84.1552 13.7128 1154 114.643 383.564 490.608
2592 0 86.0898 13.8344 1191 114.639 384.502 489.814
2593 0 88.2483 14.1079 1245 113.071 384.543 487.492
2594 0 93.1274 14.2278 1325 112.094 384.423 485.909
2595 0 97.0883 14.183 1377 113.526 384.439 484.801
2596 0 101.244 14.2231 1440 113.518 384.715 481.165
2597 0 104.13 14.7027 1531 112.271 384.017 478.452
2598 0 107.173 14.2014 1522 112.204 383.574 477.375
2599 0 113.076 15.2022 1719 107.203 383.741 473.785
2600 1 56.0819 10.128 568 109.59 384.588 501.252
2601 0 58.1093 9.86073 573 107.92 384.335 502.154
2602 0 59.0678 10.0224 592 107.49 384.056 501.608
2603 0 62.0751 10.6323 660 106.159 384.542 499.594
2604 0 63.0246 9.7581 615 108.047 384.584 498.198
2605 0 63.0489 9.81777 619 107.313 384.814 497.863
2606 0 64.0682 10.3796 665 105.82 384.332 497.266
2607 0 66.0382 9.90335 654 107.72 384.202 496.731
2608 0 70.065 10.4474 732 107.649 383.98 493.398
2609 0 71.0622 10.723 762 105.636 384.19 493.074
2610 0 73.0419 10.6103 775 104.097 383.546 491.901
2611 0 75.0357 9.6754 726 106.745 383.202 488.882
2612 0 77.0226 10.9319 842 103.084 383.352 488.992
2613 0 80.0759 10.2153 818 104.372 383.22 486.677
2614 0 81.0934 10.2351 830 105.519 383.353 485.776
2615 0 84.0461 10.4585 879 104.713 383.2 484.891
2616 0 87.0283 9.93929 865 105.977 383.38 483.319
2617 0 87.034 9.7663 850 105.712 383.159 479.328
2618 0 91.1634 10.5196 959 103.827 383.675 477.514
2619 0 95.1326 9.52355 906 104.926 383.715 476.157
2620 0 98.1112 10.2435 1005 102.592 383.742 474.503
2621 0 100.117 10.0083 1002 104.022 383.502 470.94
2622 0 105.102 10.3614 1089 100.723 384.225 471.286
2623 0 107.138 9.61379 1030 103.885 384.284 467.363
2624 0 111.117 9.46747 1052 104.019 383.604 465.44
2625 1 61.0391 7.25764 443 82.316 384.054 499.966
2626 0 64.0243 7.80954 500 84.27 383.744 497.274
2627 0 63.0415 8.02646 506 86.7589 383.747 495.642
2628 0 69.0876 9.35045 646 86.5743 383.461 493.071
2629 0 72.0465 9.91026 714 98.0028 385.066 492.391
2630 0 73.0263 9.43495 689 100.06 385.28 493.142
2631 0 76.0428 9.96807 758 99.2362 384.793 489.545
2632 0 77.0456 9.28021 715 98.0601 385.117 487.771
2633 0 79.0483 9.41197 744 98.9651 385.171 487.239
2634 0 82.0377 9.61754 789 98.3638 384.897 485.991
2635 0 82.0612 10.09 828 97.6099 385.914 484.147
2636 0 86.0482 9.97116 858 95.4242 385.613 481.859
2637 0 88.0489 9.82408 865 95.7179 385.391 479.586
2638 0 92.0592 10.1022 930 95.4011 384.824 478.322
2639 0 93.0701 10.3578 964 95.7635 384.35 475.739
2640 0 96.0827 10.1059 971 95.4356 383.467 474.464
2641 0 102.186 9.15972 936 96.4327 383.833 471.862
2642 0 105.229 9.27504 976 94.6445 383.302 472.234
2643 0 107.27 10.0308 1076 96.224 383.471 469.275
2644 0 109.123 9.05402 988 94.2004 383.837 470.166
2645 1 54.0454 7.53071 407 88.43 384.31 496.477
2646 0 58.021 7.66964 445 86.7124 384.303 496.438
2647 0 61.0257 8.61932 526 86.5285 382.363 494.888
2648 0 62.0717 8.08742 502 88.49 382.749 492.58
2649 0 63.1514 9.04177 571 88.4378 383.879 491.702
2650 0 66.2066 8.62451 571 88.0998 383.914 491.56
2651 0 68.1375 9.24601 630 87.3127 383.657 489.764
2652 0 70.1452 9.32351 654 91.1177 383.859 488.81
2653 0 73.1179 8.6846 635 92.2835 383.424 487.924
2654 0 75.1194 8.6662 651 93.5008 383.336 488.333
2655 0 76.1037 9.17169 698 92.2951 383.596 486.559
2656 1 154.349 9.23235 1425 98.621 383.497 448.547
2657 0 156.376 9.18941 1437 100.309 383.473 447.215
2658 0 163.47 9.6409 1576 99.5406 384.207 442.989
2659 0 168.336 9.29686 1565 99.5866 384.491 443.728
2660 0 172.302 9.81414 1691 100.152 383.895 437.36
2661 0 176.299 9.09251 1603 101.402 384.124 437.908
2662 0 183.304 9.74337 1786 101.695 383.607 432.602
2663 1 109.12 9.86067 1076 84.0939 383.637 467.498
2664 0 112.153 9.63861 1081 84.6281 383.858 467.508
2665 0 115.056 9.84739 1133 86.0574 384.471 464.147
2666 0 118.095 10.1444 1198 86.803 383.96 463.158
2667 0 121.105 9.65275 1169 89.3995 383.19 460.422
2668 0 124.156 9.0612 1125 89.9182 383.419 456.51
2669 0 128.182 9.89996 1269 88.8676 383.552 461.124
2670 1 67.0397 8.83059 592 82.8311 381.701 491.36
2671 0 70.0541 9.52121 667 83.7271 382.519 493.159
2672 0 71.1939 10.338 736 81.2405 383.595 492.933
2673 0 72.1412 10.6042 765 82.1333 383.695 492.371
2674 0 71.1374 9.84011 700 88.3157 384.301 493.817
2675 0 74.1624 9.7219 721 89.3953 384.154 491.768
2676 0 73.1944 9.44062 691 91.3893 383.3 492.36
2677 0 76.1368 9.14144 696 92.6106 383.499 492.842
2678 0 79.306 10.264 814 97.1732 383.787 492.1
2679 0 82.299 11.0937 913 98.9014 383.486 492.137
2680 0 85.3021 11.8872 1014 99.0533 383.456 492.138
2681 0 87.3598 12.0765 1055 101.684 383.264 492.522
2682 0 92.3432 11.2732 1041 108.466 382.217 490.964
2683 0 94.2678 12.1569 1146 105.704 382.568 490.736
2684 0 96.3739 12.3374 1189 107.029 382.951 488.377
2685 0 99.3733 11.8342 1176 110.392 382.72 487.503
2686 0 101.389 11.8652 1203 110.173 382.469 486.547
2687 0 103.353 11.9978 1240 109.819 382.86 486.563
2688 0 105.381 11.6909 1232 111.254 382.526 484.06
2689 0 110.441 11.9974 1325 108.983 382.98 483.653
2690 0 114.299 12.2485 1400 108.437 382.786 482.992
2691 0 117.401 12.1294 1424 108.098 382.899 481.973
2692 0 119.338 12.318 1470 108.901 382.616 480.192
2693 0 123.354 12.5169 1544 109.811 382.885 477.897
2694 0 128.335 12.5142 1606 110.765 383.215 476.412
2695 0 130.341 12.3983 1616 109.124 383.601 473.871
2696 1 68.2285 10.7287 732 104.765 382.783 504.885
2697 0 69.1843 10.5371 729 104.509 382.96 504.439
2698 0 71.1914 11.5744 824 103.692 382.704 502.987
2699 0 73.2504 11.7815 863 101.535 382.968 502.056
2700 0 76.199 12.218 931 100.857 382.409 500.715
2701 0 79.2405 12.6955 1006 96.8221 382.258 500.79
2702 0 80.1702 12.8601 1031 93.9612 382.762 497.391
2703 0 78.2913 11.5338 903 95.9269 381.945 498.64
2704 0 83.0408 11.2716 936 91.1517 382.787 494.083
2705 0 84.0777 10.8352 911 92.2777 382.806 493.308
2706 0 87.049 11.4303 995 91.809 383.029 490.206
2707 0 90.1158 12.0401 1085 90.223 382.779 488.356
2708 0 91.0546 11.4876 1046 92.2132 382.622 487.277
2709 0 94.1092 11.7311 1104 92.7654 383.044 484.188
2710 0 96.1118 11.882 1142 93.5937 381.743 484.224
2711 0 96.0792 11.7507 1129 94.8592 383.585 482.979
2712 0 98.0938 11.5909 1137 96.9947 382.722 481.85
2713 0 104.114 11.8428 1233 95.3885 382.952 478.824
2714 0 107.106 12.3336 1321 94.0863 382.561 478.126
2715 0 112.033 12.4606 1396 92.7722 383.034 476.143
2716 0 110.096 12.1894 1342 98.696 381.558 478.171
2717 0 118.134 11.2923 1334 99.5705 382.209 476.574
2718 1 67.0678 10.7205 719 89.7163 382.369 497.766
2719 0 69.031 10.5605 729 89.1852 382.446 498.117
2720 0 71.0625 11.4406 813 86.4834 382.675 496.339
2721 0 72.0235 11.3574 818 85.533 381.971 492.809
2722 0 73.0804 9.70165 709 90.0353 382.144 493.264
2723 0 75.0353 10.1552 762 88.1378 382.594 492.213
2724 0 76.0353 9.82439 747 88.8929 382.238 491.811
2725 0 79.0496 10.1076 799 88.1852 382.542 490.791
2726 0 81.0544 9.77122 792 87.6376 382.14 489.904
2727 0 83.0866 10.4229 866 86.5739 382.569 487.773
2728 0 85.033 10.1255 861 87.1835 382.988 488.505
2729 0 89.0455 10.6687 950 84.2979 383.24 486.518
2730 0 90.0989 10.5107 947 86.1352 383.052 485.825
2731 0 94.1335 10.5382 992 83.1159 382.973 482.735
2732 0 95.1272 10.5858 1007 84.1221 383.191 480.914
2733 0 99.082 10.0624 997 84.8706 382.796 479.273
2734 0 98.1227 10.1709 998 87.7655 382.632 483.216
2735 0 104.219 10.7754 1123 87.1505 382.682 482.144
2736 0 105.194 10.5614 1111 88.8749 383.503 480.4
2737 0 111.297 10.773 1199 86.7681 382.88 481.552
2738 0 112.337 10.6643 1198 87.4775 382.953 479.128
2739 0 115.323 11.0732 1277 87.9021 382.99 476.987
2740 1 63.2486 9.91327 627 87.6013 383.239 500.459
2741 0 68.3882 10.0456 687 82.8748 382.496 499.281
2742 0 70.1973 10.9976 772 81.557 382.573 499.137
2743 0 73.3546 11.9829 879 82.1024 383.519 497.993
2744 0 73.2638 10.8102 792 87.7689 383.605 498.52
2745 0 76.1875 11.3929 868 85.53 383.424 497.637
2746 0 78.1124 10.9458 855 84.6351 384.504 492.06
2747 0 81.2048 11.6865 949 84.4067 384.443 494.949
2748 0 82.1802 11.1341 915 82.8852 384.585 488.843
2749 0 86.0727 11.4554 986 83.8834 384.464 485.802
2750 0 89.2217 11.7236 1046 82.5172 384.457 487.144
2751 0 91.13 11.8183 1077 83.3473 385.2 482.97
2752 0 93.076 11.5604 1076 84.3978 384.565 482.723
2753 0 97.2104 11.9843 1165 83.9202 384.361 480.778
2754 0 100.112 11.9366 1195 83.9013 384.515 479.641
2755 0 103.185 11.7459 1212 85.6708 384.012 477.163
2756 1 56.0663 9.75631 547 81.9963 384.867 502.731
2757 0 57.0793 10.0211 572 83.1434 384.885 500.414
2758 0 58.1319 10.803 628 82.5255 384.207 503.495
2759 0 58.1385 10.6814 621 83.351 383.672 502.897
2760 0 63.2462 10.4987 664 87.3298 383.349 503.044
2761 0 62.1775 10.7756 670 88.2313 384.14 501.278
2762 0 65.1382 10.2705 669 89.009 384.366 503.299
2763 0 65.2193 11.3157 738 85.9743 384.089 501.828
2764 0 67.1845 10.9698 737 86.5034 384.007 499.531
2765 0 67.2 11.0119 740 87.3243 384.4 499.807
2766 0 69.0818 10.7698 744 86.8132 384.935 495.84
2767 0 71.1731 11.3807 810 85.8864 384.581 495.72
2768 0 72.1117 11.2048 808 86.9319 385.368 490.46
2769 0 76.1266 11.0605 842 87.2803 385.22 490.096
2770 0 79.0892 11.0508 874 87.9851 385.229 490.465
2771 0 79.0895 11.3416 897 88.2754 385.135 488.868
2772 0 81.1222 11.4395 928 88.7565 385.055 488.006
2773 0 83.0963 11.3844 946 88.9651 384.63 486.392
2774 0 85.0805 9.90826 843 82.4045 385.139 486.478
2775 0 87.0754 10.4737 912 81.3947 384.684 485.528
2776 0 90.1381 9.77389 881 81.3893 384.665 485.595
2777 0 91.0694 9.82767 895 83.9777 383.917 485.41
2778 0 95.0468 10.2476 974 84.2628 383.192 482.857
2779 0 98.0492 9.23006 905 86.3315 383.359 481.065
2780 0 101.042 9.90673 1001 85.1508 383.882 478.784
2781 0 105.11 10.5699 1111 84.8416 382.978 475.764
2782 0 108.12 9.80392 1060 86.5208 383.689 474.3
2783 1 61.0492 9.14017 558 82.2151 383.082 501.222
2784 0 64.0622 9.92785 636 79.6384 382.36 500.428
2785 0 67.1368 9.7562 655 78.5405 382.66 502.231
2786 0 69.1504 10.0505 695 77.7655 383.122 499.276
2787 0 70.1557 9.72123 682 79.5323 383.977 496.691
2788 0 71.0956 10.1835 724 80.5732 383.696 493.932
2789 0 73.1735 10.4956 768 74.9271 383.655 494.198
2790 0 74.1997 10 742 83.1523 384.399 492.898
2791 0 78.107 10.4216 814 81.0541 383.208 491.598
2792 0 79.1152 10.2256 809 82.712 383.02 489.038
2793 0 83.1099 10.8772 904 83.4181 382.723 487.423
2794 0 83.054 10.9447 909 85.6645 383.262 486.48
2795 0 88.0526 11.6862 1029 83.0087 382.793 485.183
2796 0 90.0969 10.9327 985 85.6223 382.869 484.706
2797 0 91.0642 10.553 961 87.2508 382.775 482.771
2798 1 46.0346 8.77601 404 81.3069 382.337 508.78
2799 0 48.0343 9.01439 433 81.5335 382.009 507.836
2800 0 48.0667 8.77946 422 81.8531 383.711 506.614
2801 0 52.0385 10.0887 525 79.3143 383.097 505.958
2802 0 52.1626 9.94966 519 79.3892 382.123 508.328
2803 0 52.1731 10.1202 528 79.5947 381.828 506.839
2804 0 55.0285 9.54052 525 80.16 382.874 504.276
2805 0 55.0484 9.71872 535 82.4093 382.46 503.021
2806 0 56.0591 9.98946 560 83.2518 382.195 503.92
2807 0 59.0555 9.36408 553 84 382.75 502.729
2808 0 61.0616 10.039 613 82.3148 382.783 502.188
2809 0 60.0621 9.73992 585 83.9128 383.191 502.077
2810 0 64.0721 10.176 652 83.2101 383.002 499.285
2811 0 66.1892 10.5304 697 82.0646 383.009 498.778
2812 0 68.0883 10.9564 746 82.5643 383.123 497.536
2813 0 69.1359 10.935 756 82.6521 383.045 497.851
2814 0 70.1102 11.325 794 83.5743 382.392 498.244
2815 0 73.0464 11.0341 806 84.5645 382.46 496.526
2816 0 76.1325 11.4143 869 84.7192 382.604 494.87
2817 0 78.1192 11.1112 868 85.2823 383.165 494.968
2818 0 81.1095 11.392 924 85.3247 382.876 493.59
2819 0 82.0658 11.4786 942 85.3206 382.31 492.313
2820 0 84.0964 11.8673 998 84.3126 382.105 490.451
2821 0 88.1804 12.2703 1082 83.3993 382.419 489.072
2822 0 90.1395 11.5266 1039 85.8191 382.121 487.719
2823 0 92.0707 11.9039 1096 84.7984 382.868 485.418
2824 0 94.0939 12.1049 1139 84.9113 382.492 486.712
2825 0 98.1064 12.0787 1185 85.8101 382.797 484.361
2826 0 98.1499 11.6149 1140 89.1377 383.114 483.431
2827 0 102.165 12.284 1255 88.5594 383.613 481.214
2828 0 102.116 12.1234 1238 89.542 383.396 480.7
2829 0 108.136 11.8647 1283 89.1333 383.165 478.028
2830 0 110.182 11.5627 1274 90.6044 383.073 477.137
2831 0 112.099 11.0973 1244 91.463 383.772 477.855
2832 0 115.149 11.4547 1319 92.1213 383.32 474.843
2833 0 118.163 11.4333 1351 92.6336 382.666 474.437
2834 0 121.171 11.166 1353 94.2565 383.205 473.336
2835 0 126.11 11.4344 1442 92.0908 383.574 468.967
2836 0 131.116 11.5546 1515 91.3314 383.194 469.132
2837 0 134.108 11.6473 1562 93.7426 383.67 468.042
2838 0 135.147 11.6096 1569 95.1096 382.759 465.157
2839 0 141.138 12.0308 1698 94.3952 382.988 465.021
2840 0 146.161 12.1715 1779 95.8488 382.681 461.572
2841 0 148.159 11.8184 1751 98.2204 383.705 459.822
2842 0 155.171 11.8772 1843 95.8475 381.632 467.499
2843 0 157.223 12.4473 1957 95.8421 382.189 458.568
2844 0 161.114 12.2025 1966 98.6796 382.36 452.535
2845 0 167.106 12.8062 2140 97.0575 382.036 452.239
2846 0 172.09 13.2314 2277 96.8287 382.597 446.101
2847 0 177.217 13.1026 2322 97.3174 382.466 447.834
2848 0 181.154 12.7957 2318 99.3106 382.437 442.163
2849 0 188.136 13.9314 2621 97.0374 381.998 438.486
2850 0 192.153 13.3019 2556 99.385 382.623 435.717
2851 0 200.195 13.7566 2754 98.4023 382.872 432.304
2852 1 151.104 12.4814 1886 98.9051 382.722 459.329
2853 0 154.164 12.2791 1893 98.944 382.452 455.221
2854 0 160.19 12.8347 2056 99 381.727 450.864
2855 0 163.182 12.2869 2005 100.731 382.316 449.555
2856 0 171.176 13.1327 2248 98.593 382.223 445.48
2857 0 176.164 12.8006 2255 98.51 382.447 440.634
2858 0 182.248 12.9658 2363 95.7833 382.457 438.8
2859 0 188.225 12.4957 2352 97.4651 383.302 438.786
2860 0 196.2 13.4607 2641 95.3866 383.187 435.674
2861 0 203.244 13.2648 2696 96.3761 383.885 429.814
2862 1 47.0187 9.03896 425 89.5482 384.892 503.769
2863 0 48.0248 9.4118 452 88.2013 384.956 500.708
2864 0 49.0779 10.4935 515 83.666 383.641 500.384
2865 0 52.1086 9.99836 521 84.6679 383.305 500.987
2866 0 56.1603 11.7699 661 81.5371 383.015 500.921
2867 0 56.1262 10.6902 600 83.5517 383.773 498.985
2868 0 59.0687 10.1238 598 77.5669 383.059 504.167
2869 0 57.174 10.6342 608 79.3799 382.002 508.377
2870 0 61.0404 11.304 690 78.6188 381.945 511.317
2871 0 61.0861 10.6243 649 80.6256 382.214 509.51
2872 0 64.1066 11.1065 712 78.3118 382.017 508.782
2873 0 65.1152 10.5659 688 79.8546 383.029 509.783
2874 0 68.1371 11.5062 784 77.9681 382.226 505.448
2875 0 67.1003 10.8494 728 80.228 383.043 506.176
2876 0 70.1091 9.87033 692 81.5665 382.199 504.11
2877 0 71.0929 9.48056 674 82.7641 382.374 505.62
2878 0 73.0993 9.91802 725 81.189 382.193 503.71
2879 0 77.181 9.91176 765 83.3163 381.903 502.437
2880 0 77.1979 9.97437 770 83.3961 381.531 501.47
2881 0 80.0889 9.91398 794 84.84 380.836 499.806
2882 1 46.1135 9.62841 444 84.4189 380.669 516.014
2883 0 47.1079 9.84972 464 84.8319 380.888 516.677
2884 0 48.1174 10.4328 502 84.9562 381.054 515.813
2885 0 50.2806 10.8193 544 86.829 381.467 514.71
2886 0 50.0628 9.30831 466 78.7725 381.914 498.543
2887 0 54.0362 10.8446 586 88.302 381.898 508.544
2888 0 53.1186 10.4671 556 96.2266 382.209 510.79
2889 0 52.1577 10.1807 531 89.9586 382.017 511.968
2890 0 55.2033 10.1443 560 91.2036 382.23 513.602
2891 0 58.0638 10.3679 602 85.5415 382.136 505.246
2892 0 60.0336 10.6607 640 80.8547 382.847 502.002
2893 0 59.0273 10.1478 599 87.4708 382.456 502.811
2894 0 61.0636 10.792 659 89.4643 382.074 500.599
2895 0 61.0426 10.6319 649 80.8398 382.228 501.008
2896 0 61.0443 10.648 650 88.3338 381.208 501.303
2897 0 62.0646 10.9563 680 90.6588 381.381 500.603
2898 0 64.0962 10.9055 699 90.186 381.732 501.353
2899 0 67.0618 11.2135 752 86.5532 382.723 500.072
2900 0 67.0621 11.4073 765 86.183 381.967 498.016
2901 0 69.0351 11.4145 788 82.8668 381.938 497.907
2902 0 69.0624 10.9177 754 85.2082 382.353 498.158
2903 0 72.0301 10.8566 782 82.4271 382.85 496.509
2904 0 73.0488 11.2801 824 80.3799 382.829 494.187
2905 0 75.1152 11.5955 871 78.667 382.458 496.18
2906 0 77.0585 11.2901 870 78.2161 382.668 495.497
2907 0 80.0362 11.9196 954 77.412 382.736 493.301
2908 0 81.0871 11.3335 919 80.0979 382.545 493.479
2909 0 83.0701 11.2556 935 78.6492 381.883 491.962
2910 0 84.0906 12.4865 1050 78.281 382.985 490.117
2911 0 86.0654 11.6423 1002 81.5489 382.733 490.376
2912 0 85.1002 11.6216 989 84.09 382.333 488.73
2913 0 86.0329 11.7397 1010 85.0713 381.811 488.248
2914 0 90.1435 11.9587 1078 83.3952 382.532 486.863
2915 0 91.0587 11.4871 1046 85.8528 382.651 486.709
2916 0 93.0524 10.9508 1019 87.1904 382.536 486.787
2917 0 96.0618 11.4614 1101 86.0227 382.552 484.003
2918 0 99.1383 11.2066 1111 85.5455 382.646 481.56
2919 0 101.207 12.0446 1219 85.306 382.299 480.49
2920 0 103.089 11.4755 1183 85.973 382.582 480.833
2921 0 105.091 11.3711 1195 86.9063 382.59 477.951
2922 0 106.079 11.4349 1213 88.3248 381.966 476.062
2923 1 55.0144 10.4882 577 89.1282 383.127 501.614
2924 0 59.1028 11.6407 688 88.9651 382.733 499.445
2925 0 59.0413 11.4157 674 83.8056 382.316 501.822
2926 0 60.0725 11.1199 668 86.2635 383.121 501.596
2927 0 60.0725 10.7204 644 90.9239 382.741 500.488
2928 0 62.0875 10.5496 655 89.5496 383.069 501.812
2929 0 64.0569 10.4282 668 91.5868 382.317 500.871
2930 0 64.0829 10.9858 704 92.2656 382.418 500.896
2931 0 65.0706 10.8959 709 95.6403 381.31 500.543
2932 0 68.0465 11.066 753 96.8486 382.161 499.497
2933 0 67.0643 11.1982 751 100.172 382.309 498.164
2934 0 70.0463 11.164 782 100.572 382.258 498.045
2935 0 71.0541 11.4983 817 101.741 382.294 497.028
2936 0 73.0767 11.9464 873 102.796 382.548 495.192
2937 0 76.0903 11.8938 905 102.17 382.503 495.759
2938 0 78.0986 12.2281 955 101.654 382.656 495.771
2939 0 79.0431 12.0567 953 104.613 382.348 492.903
2940 0 80.0511 11.8674 950 106.105 381.941 491.207
2941 0 83.0797 11.7116 973 107.078 381.76 492.069
2942 0 84.0843 11.7382 987 107.762 382.55 491.618
2943 0 87.0584 12.4744 1086 107.133 382.159 490.908
2944 0 89.1024 12.3004 1096 109.253 382.031 489.362
2945 0 91.0732 12.0343 1096 110.255 381.842 489.899
2946 0 95.0636 11.8657 1128 109.237 381.973 486.332
2947 0 99.119 12.8331 1272 105.274 382.722 484.482
2948 0 100.102 12.9668 1298 106.626 383.161 482.676
2949 1 52.1986 11.4754 599 104.866 382.578 504.589
2950 0 54.0851 11.9257 645 102.879 382.662 502.763
2951 0 54.023 12.5317 677 107.839 383.279 503.578
2952 0 56.0526 12.2028 684 102.806 382.958 498.918
2953 0 56.0211 12.174 682 104.383 382.441 502.667
2954 0 59.0398 12.5678 742 102.422 381.473 502.066
2955 0 60.0911 12.065 725 102.742 382.006 501.145
2956 0 62.035 12.7831 793 100.309 381.803 501.311
2957 0 64.0687 12.5802 806 100.612 382.607 500.241
2958 0 66.0478 12.5364 828 98.6618 382.074 498.075
2959 0 69.0361 12.689 876 97.4235 381.966 497.968
2960 0 70.034 12.9794 909 98.5534 382.296 496.327
2961 0 69.051 13.0483 901 100.39 382.248 494.875
2962 0 75.0283 13.5549 1017 97.056 382.709 494.234
2963 0 76.0345 13.6254 1036 98.1959 383.039 494.093
2964 0 78.0306 13.2512 1034 99.469 382.939 493.01
2965 0 80.0245 13.6083 1089 99.9927 383.094 492.284
2966 0 82.0387 13.8349 1135 99.5762 383.048 491.657
2967 0 85.0455 13.922 1184 98.7221 382.996 490.435
2968 0 88.0483 13.981 1231 98.2738 382.96 489.118
2969 0 89.0246 13.7378 1223 100.038 383.289 488.518
2970 0 90.0226 13.741 1237 100.175 383.023 486.402
2971 0 94.0602 14.3206 1347 100.301 382.099 486.042
2972 0 98.0439 13.8917 1362 99.6571 382.32 484.422
2973 0 101.079 13.9891 1414 100.136 382.552 484.088
2974 0 101.036 13.5596 1370 101.479 382.483 483.592
2975 0 107.147 13.4114 1437 99.6924 382.335 479.545
2976 0 110.057 13.8019 1519 97.0494 381.787 476.794
2977 1 59.0323 11.4344 675 102.507 382.024 501.305
2978 0 61.0172 12.7341 777 100.345 383.117 500.807
2979 0 62.0307 12.8485 797 99.8758 383.507 498.231
2980 0 65.0555 13.7421 894 99.1163 382.89 499.568
2981 0 68.0147 12.6884 863 100.293 382.466 499.937
2982 0 69.0161 12.7507 880 99.9716 383.269 498.52
2983 0 71.0326 13.0644 928 98.8642 383.179 497.634
2984 0 72.0747 13.3056 959 98.17 383.017 496.29
2985 0 76.0219 13.1278 998 96.9188 383.315 494.626
2986 0 77.0472 13.1348 1012 97.4447 383.338 494.263
2987 0 79.0783 12.7342 1007 99.7795 383.224 492.227
2988 0 82.0851 12.8403 1054 98.0731 382.927 492.9
2989 0 83.1392 13.2789 1104 97.2382 382.839 490.789
2990 0 87.0943 12.5381 1092 96.8974 383.546 488.375
2991 0 90.0612 13.0911 1179 94.9678 383.628 488.418
2992 0 92.0674 11.85 1091 90.9707 383.547 481.412
2993 0 93.1383 12.3365 1149 89.5527 382.694 478.794
2994 0 95.0782 11.8008 1122 91.0695 382.787 478.762
2995 0 99.2017 12.4191 1232 89.5755 381.547 476.553
2996 0 101.102 12.6704 1281 88.9422 382.538 474.827
2997 0 105.1 12.4072 1304 90.6526 382.125 473.191
2998 0 106.154 12.3217 1308 91.1414 382.746 471.125
2999 0 111.087 12.9358 1437 90.9193 382.666 469.33
3000 0 115.1 12.7281 1465 91.2655 383.058 467.074
3001 0 119.067 12.8751 1533 87.9491 382.508 466.232
3002 0 123.066 12.8062 1576 94.9461 382.405 467.725
3003 0 126.059 12.8194 1616 94.039 382.239 467.811
3004 0 132.079 13.3557 1764 91.4813 382.834 466.809
3005 0 136.123 13.8404 1884 90.3944 382.318 461.736
3006 0 141.169 14.4225 2036 88.3138 382.297 460.899
3007 0 147.216 13.7417 2023 90.3806 382.197 458.595
3008 0 151.086 13.8 2085 90.5118 382.528 455.638
3009 0 156.167 14.0298 2191 94.7672 382.142 451.585
3010 0 159.097 12.8475 2044 96.1316 382.824 449.299
3011 0 166.19 12.5158 2080 95.999 382.834 446.548
3012 0 171.111 13.3597 2286 94.3325 382.703 442.194
3013 0 175.179 12.9182 2263 94.6394 383.536 440.391
3014 0 183.131 13.0125 2383 94.7188 382.773 438.432
3015 0 188.175 12.8232 2413 95.6602 383.408 436.621
3016 0 194.18 12.6481 2456 96.9495 382.779 433.912
3017 0 200.194 13.0873 2620 96.2069 383.079 428.024
3018 0 207.217 13.3724 2771 93.9228 382.792 424.924
3019 0 213.14 12.5552 2676 96.0557 382.931 423.165
3020 1 161.149 10.7292 1729 97.1267 382.525 448.828
3021 0 168.164 12.7019 2136 93.2645 382.867 445.334
3022 0 171.129 12.2305 2093 96.0989 382.422 436.223
3023 0 179.138 12.8616 2304 94.1293 382.494 431.428
3024 0 185.212 12.7692 2365 93.6939 382.451 428.826
3025 0 190.159 12.9786 2468 93.8517 382.675 425.986
3026 0 198.186 13.5529 2686 93.6579 383.11 424.872
3027 0 205.195 13.6358 2798 93.3956 382.699 422.251
3028 0 210.237 13.4135 2820 93.4635 382.78 417.058
3029 0 222.227 13.8372 3075 92.6406 382.753 415.143
3030 0 230.188 13.9017 3200 92.1319 383.276 410.864
3031 0 238.267 13.4093 3195 93.4372 383.172 405.258
3032 1 52.0883 9.77186 509 76.3026 383.79 497.161
3033 0 54.0443 10.7875 583 75.7702 384.015 499.125
3034 0 58.1045 12.1849 708 79.411 383.825 500.035
3035 0 59.1328 11.7025 692 73.5694 383.318 505.262
3036 0 61.2061 10.9139 668 76.0165 381.793 502.747
3037 0 62.1477 11.1026 690 76.7725 382.209 503.577
3038 0 66.1301 11.2505 744 75.5497 382.489 501.481
3039 0 68.168 10.9289 745 77.2389 382.996 502.046
3040 0 69.253 11.0609 766 77.7598 383.031 500.749
3041 0 69.1116 11.0546 764 78.4476 382.702 498.584
3042 0 71.1016 11.0968 789 77.1356 382.537 498.4
3043 0 74.136 11.0338 818 76.4535 383.145 497.296
3044 0 76.1293 11.5067 876 75.4098 382.438 493.799
3045 0 78.1173 10.7019 836 76.5191 382.581 493.795
3046 0 82.1167 11.094 911 74.4588 382.243 492.036
3047 0 84.0757 11.2518 946 74.5518 381.826 493.854
3048 0 87.0539 11.2 975 77.2964 382.593 491.749
3049 0 90.0814 12.2445 1103 74.1714 382.635 491.409
3050 0 91.0896 11.8565 1080 73.8768 382.467 489.778
3051 0 93.1594 11.3354 1056 77.6203 383.199 486.741
3052 0 97.1246 12.1596 1181 77.1439 383.329 486.71
3053 0 100.13 12.2641 1228 79.5749 383.229 486.164
3054 0 102.154 11.7274 1198 78.0334 383.433 483.453
3055 0 107.137 11.3126 1212 79.179 383.303 481.739
3056 0 107.13 11.584 1241 81.1636 383.789 478.748
3057 0 112.152 11.7162 1314 80.1659 383.748 474.356
3058 0 115.132 11.4651 1320 80.1886 383.473 475.074
3059 0 118.186 11.6511 1377 84.4735 383.274 473.802
3060 0 121.099 11.2305 1360 84.2404 383.041 474.429
3061 1 63.0195 10.8062 681 81.9134 382.217 502.423
3062 0 64.0568 11.3805 729 80.5075 382.412 498.547
3063 0 69.0767 12.2038 843 75.5125 383.093 495.764
3064 0 68.0113 11.4981 782 73.0831 383.113 494.249
3065 0 69.0296 12.0093 829 72.0688 383.201 491.865
3066 0 70.0834 12.5279 878 72.2722 383.238 492.655
3067 0 72.0686 12.6269 910 71.3879 382.792 490.668
3068 0 73.0764 12.4117 907 73.3186 382.928 491.044
3069 0 77.0855 12.3629 953 73.9213 382.894 489.843
3070 0 77.0653 12.5867 970 76.1629 383.208 488.498
3071 0 76.0776 12.0272 915 78.9508 382.861 489.12
3072 0 77.0883 11.2209 865 79.5121 383.414 489.001
3073 0 79.0735 11.2174 887 79.7576 383.442 490.034
3074 0 81.0339 11.5507 936 81.3664 383.283 486.747
3075 0 83.0606 11.4374 950 81.1137 383.605 487.049
3076 0 85.0744 11.872 1010 81.2772 382.91 488.203
3077 0 86.0193 11.7067 1007 84.1509 382.915 484.976
3078 0 88.0352 12.1315 1068 85.0899 383.934 483.663
3079 0 91.0566 12.344 1124 84.9956 383.721 482.65
3080 0 93.0713 12.7107 1183 86.3381 383.218 482.445
3081 0 95.059 12.7395 1211 87.0611 384.009 481.215
3082 0 95.0522 12.7088 1208 88.9238 383.373 480.407
3083 0 99.0472 13.2765 1315 87.4707 383.397 481.105
3084 0 103.083 13.8432 1427 88.3504 383.538 480.582
3085 0 102.059 14.178 1447 92.2253 384.17 479.639
3086 0 105.093 14.1875 1491 93.1086 384.145 478.401
3087 0 109.088 14.5845 1591 91.0735 384.05 478.007
3088 0 110.098 14.2237 1566 94.1826 384.027 476.505
3089 0 111.077 14.9356 1659 94.6275 383.776 473.91
3090 0 115.085 14.9455 1720 94.4052 384.448 474.552
3091 0 118.06 15.1194 1785 95.0986 383.878 474.202
3092 0 118.094 15.0643 1779 96.4817 383.468 473.726
3093 0 121.087 14.8076 1793 98.9191 383.982 471.834
3094 0 122.095 14.8737 1816 100.265 383.277 471.632
3095 0 125.064 15.4082 1927 102.227 383.408 469.887
3096 0 128.065 15.5233 1988 103.354 383.424 470.041
3097 0 129.08 15.5485 2007 105.468 383.299 469.432
3098 0 131.09 15.1499 1986 108.317 383.594 468.313
3099 0 134.095 15.4293 2069 108.851 382.402 465.562
3100 0 138.096 15.511 2142 110.036 382.263 465.092
3101 0 140.064 16.0784 2252 111.151 382.809 463.187
3102 0 142.075 15.4004 2188 115.58 382.983 462.222
3103 0 146.107 16.4332 2401 113.319 382.506 462.029
3104 0 148.073 15.9516 2362 116.096 382.631 460.75
3105 0 151.099 16.1483 2440 118.495 382.889 460.264
3106 0 153.101 16.1592 2474 120.927 382.878 458.637
3107 0 157.055 16.6311 2612 119.743 382.488 458.074
3108 0 158.129 16.4549 2602 122.127 382.086 455.764
3109 0 163.143 16.6602 2718 121.918 382.485 455.086
3110 0 165.13 16.6111 2743 121.8 382.583 453.516
3111 0 168.103 16.7041 2808 122.521 382.527 452.607
3112 0 170.067 16.7404 2847 123.795 382.445 451.552
3113 0 173.091 16.344 2829 126.19 382.543 449.328
3114 0 176.124 17.0107 2996 124.752 382.581 448.418
3115 0 179.139 17.2771 3095 125.118 382.449 449.088
3116 0 181.132 17.1036 3098 125.934 382.586 446.542
3117 0 184.158 16.7139 3078 127.193 382.798 446.218
3118 0 187.081 17.1156 3202 126.324 382.994 441.69
3119 0 193.131 17.1334 3309 126.21 382.099 441.963
3120 0 195.125 16.7585 3270 128.918 382.575 438.278
3121 0 200.097 16.8318 3368 128.972 382.717 437.211
3122 0 202.075 16.7809 3391 130.342 382.863 434.849
3123 0 209.199 17.2754 3614 127.69 383.068 433.55
3124 0 212.089 16.8326 3570 129.798 382.74 431.844
3125 0 217.159 17.6553 3834 126.876 382.907 430.148
3126 0 220.17 17.5365 3861 130.37 382.782 427.203
3127 0 226.192 18.0245 4077 128.992 382.724 424.7
3128 0 230.184 18.1507 4178 129.345 382.187 421.126
3129 0 234.222 17.936 4201 130.546 382.535 419.036
3130 0 240.2 17.9517 4312 132.046 383.205 417.205
3131 0 243.143 17.6522 4292 132.577 383.341 414.265
3132 0 249.238 17.9066 4463 133.905 382.947 410.129
3133 0 253.264 18.4392 4670 131.874 382.542 410.292
3134 0 257.166 17.8678 4595 135.658 382.24 407.611
3135 0 262.166 18.412 4827 134.716 382.784 407.269
3136 0 267.119 18.4599 4931 134.174 382.412 407.233
3137 0 269.163 17.7551 4779 138.137 381.767 403.508
3138 0 275.304 18.4306 5074 137.908 382.595 402.705
3139 0 280.201 18.5046 5185 135.887 382.525 399.629
3140 0 286.285 18.4292 5276 138.145 382.438 397.105
3141 0 292.267 18.3599 5366 139.426 382.818 392.264
3142 0 298.184 18.445 5500 140.333 382.445 388.975
3143 0 304.17 18.3187 5572 148.305 382.698 387.638
3144 0 305.255 17.9751 5487 143.148 382.324 386.877
3145 0 311.186 18.2592 5682 143.057 382.345 381.643
3146 0 316.236 18.0972 5723 143.934 382.334 378.337
3147 0 321.328 18.3146 5885 143.93 382.614 378.267
3148 0 326.2 18.3752 5994 144.94 382.166 372.932
3149 0 334.205 18.3121 6120 143.873 382.871 369.631
3150 0 340.206 18.8856 6425 141.451 382.57 367.665
3151 0 345.308 18.2156 6290 144.08 383.037 363.572
3152 0 349.306 18.3249 6401 144.596 382.544 360.342
3153 0 357.239 18.6906 6677 142.427 382.527 358.849
3154 0 362.235 18.88 6839 142.243 382.558 354.654
3155 0 369.298 18.7085 6909 143.467 382.125 353.043
3156 0 374.269 18.989 7107 142.259 382.581 349.006
3157 0 380.243 18.4487 7015 142.719 383.024 346.081
3158 0 386.297 18.8534 7283 142.653 382.346 342.41
3159 0 391.298 18.2879 7156 144.61 382.123 339.561
3160 0 399.276 18.5561 7409 142.157 382.65 338.505
3161 0 405.379 18.9551 7684 141.216 382.189 330.782
3162 0 410.375 18.2662 7496 141.9 381.622 329.84
3163 0 416.417 18.993 7909 138.03 381.823 329.054
3164 0 420.269 18.9498 7964 138.437 382.01 321.839
3165 0 420.294 19.3364 8127 135.093 382.171 320.67
3166 0 421.291 19.0842 8040 134.891 381.881 320.094
3167 0 422.357 20.5016 8659 129.031 382.033 319.959
3168 0 421.305 19.4989 8215 131.792 381.733 319.256
3169 0 421.357 19.3802 8166 131.828 381.85 319.234
3170 0 420.355 19.1528 8051 132.404 381.339 317.897
3171 0 422.23 19.9797 8436 128.589 381.627 318.026
3172 0 420.224 18.8328 7914 131.044 381.863 317.934
3173 0 422.252 20.3291 8584 124.254 381.621 317.218
3174 0 421.338 20.8075 8767 120.273 381.876 316.319
3175 0 422.342 21.1014 8912 118.227 382.264 316.132
3176 0 421.376 20.1174 8477 119.804 382.172 315.78
3177 0 422.497 20.7907 8784 115.847 382.148 315.627
3178 0 422.379 20.3987 8616 115.692 382.11 315.327
3179 0 421.599 20.2183 8524 114.832 382.647 314.477
3180 0 422.399 20.1397 8507 114.079 382.44 314.508
3181 0 422.715 20.5789 8699 112.941 382.937 314.671
3182 0 422.586 21.0087 8878 110.545 382.645 313.962
3183 0 423.952 20.3466 8626 111.148 382.736 314.424
3184 0 421.939 20.1522 8503 110.927 382.18 312.731
3185 0 422.018 22.4848 9489 103.648 382.163 312.517
3186 0 421.986 20.176 8514 108.687 382.138 313.639
3187 0 423.161 20.1129 8511 108.135 382.181 313.472
3188 0 424.286 20.0454 8505 106.381 382.738 314.418
3189 0 424.559 20.9558 8897 102.917 382.189 313.504
3190 0 422.562 19.9853 8445 104.299 382.265 313.389
3191 0 423.054 19.5885 8287 104.337 381.362 311.853
3192 0 423.868 21.5869 9150 96.9933 381.59 312.921
3193 0 422.889 19.3479 8182 100.951 382.448 312.984
3194 0 422.013 19.2316 8116 100.244 382.141 311.488
3195 0 421.958 20.5684 8679 99.9475 382.029 309.075
3196 0 421.569 20.3264 8569 94.1977 382.586 311.312
3197 0 422.5 20.1633 8519 92.7241 381.913 311.071
3198 0 421.678 20.1647 8503 92.9761 381.827 310.15
3199 0 418.534 18.842 7886 92.7257 381.972 308.022
3200 0 420.412 20.3491 8555 88.831 382.317 309.512
3201 0 419.516 20.1804 8466 87.0194 381.965 309.101
3202 0 419.387 19.383 8129 87.5269 382.005 308.531
3203 0 420.553 20.4279 8591 84.1275 382.43 309.797
3204 0 420.479 19.3684 8144 84.405 382.756 309.89
3205 0 420.804 19.7242 8300 82.1832 382.356 309.521
3206 0 421.471 20.7725 8755 80.7419 382.29 310.109
3207 0 421.378 20.058 8452 80.8952 382.241 309.803
3208 0 421.481 20.2714 8544 78.0383 381.849 309.731
3209 0 420.854 19.3583 8147 78.0762 381.897 308.932
3210 0 419.857 19.0851 8013 76.6766 382.31 309.186
3211 0 422.091 18.7045 7895 76.134 382.381 309.203
3212 0 421.602 19.2836 8130 73.3308 382.442 309.872
3213 0 420.965 19.1893 8078 71.3531 382.469 310.202
3214 0 421.932 19.0979 8058 70.5123 382.545 310.386
3215 0 420.678 19.7253 8298 67.4671 382.61 309.948
3216 0 420.842 18.6246 7838 68.8176 382.46 309.077
3217 0 420.961 20.3487 8566 65.3303 382.121 309.601
3218 0 421.865 19.5916 8265 64.5683 382.391 310.417
3219 0 421.975 18.6528 7871 64.943 383.082 309.844
3220 0 422.96 18.8363 7967 63.4549 382.327 308.728
3221 0 421.792 19.2773 8131 62.6291 381.85 308.981
3222 0 423.09 20.563 8700 59.56 382.4 309.791
3223 0 420.788 18.4749 7774 61.3886 382.836 308.921
3224 0 421.113 19.3202 8136 58.9612 382.645 309.569
3225 0 422.956 19.3282 8175 57.2054 382.417 309.629
3226 0 421.7 18.9661 7998 57.1874 382.554 309.224
3227 0 421.267 18.4895 7789 56.1277 382.224 308.998
3228 0 420.984 18.5447 7807 54.5763 382.731 309.733
3229 0 422.747 20.0877 8492 51.6474 382.515 310.153
3230 0 422.067 18.8098 7939 51.9773 382.306 309.508
3231 0 421.644 18.4326 7772 50.7737 382.95 310.608
3232 0 422.348 19.6449 8297 48.3328 381.994 309.885
3233 0 421.935 19.3726 8174 47.3117 381.862 309.372
3234 0 421.899 19.0638 8043 46.5351 382.268 310.382
3235 0 422.138 18.7119 7899 46.0694 382.86 310.591
3236 0 420.855 18.6287 7840 45.2848 382.889 310.199
3237 0 421.032 18.3739 7736 44.7203 382.518 309.764
3238 0 423.64 20.0784 8506 41.4181 382.134 310.531
3239 0 421.95 19.0662 8045 43.0645 382.906 310.228
3240 0 422.334 19.9084 8408 40.8795 382.393 309.52
3241 0 423.242 21.9614 9295 38.1079 382.574 309.299
3242 0 423.196 20.858 8827 38.4968 382.601 309.805
3243 0 422.037 17.7023 7471 39.9696 382.898 309.712
3244 0 420.478 16.1626 6796 40.5564 382.51 307.933
3245 0 423.673 17.7873 7536 38.4391 382.292 310.061
3246 0 422.194 18.302 7727 37.5055 381.81 310.51
3248 0 424.001 19.8773 8428 35.0126 382.339 311.931
3249 0 422.25 18.6809 7888 35.4714 382.252 309.119
3250 0 424.129 22.1772 9406 31.7666 381.912 310.944
3251 0 422.86 20.0445 8476 33.1025 381.512 310.223
