time division length width area intensity CMx CMy
2779 0 62.0769 12.5006 776 112.67 158.318 462.692
2780 0 64.0702 12.736 816 112.13 158.817 462.208
2781 0 66.0947 12.5275 828 113.795 157.9 460.058
2782 0 68.0975 12.6143 859 114.659 158.582 459.235
2783 0 72.1349 12.6984 916 115.484 158.636 457.965
2784 0 72.1406 12.6697 914 116.857 158.219 456.3
2785 0 75.173 12.1852 916 119.154 158.536 454.401
2786 0 79.1162 12.5638 994 117.046 158.648 454.512
2787 0 81.1208 12.8204 1040 116.681 158.399 452.882
2788 0 81.1471 12.2986 998 120.889 158.169 450.942
2789 0 83.0733 12.7719 1061 112.79 158.24 448.954
2790 0 85.0588 12.6266 1074 122.995 158.986 448.433
2791 0 90.1042 12.7852 1152 121.06 158.113 447.069
2792 0 90.0858 13.0542 1176 121.844 157.986 445.472
2793 0 93.1467 12.958 1207 123.529 157.702 443.111
2794 0 95.0957 12.9554 1232 123.958 158.329 441.418
2795 0 98.1172 13.2902 1304 121.671 157.875 440.301
2796 0 104.087 13.4599 1401 118.501 157.958 439.936
2797 0 105.066 13.5914 1428 119.931 157.912 436.499
2798 0 111.088 13.4218 1491 118.471 157.785 434.757
2799 0 115.13 13.5239 1557 118.534 157.377 433.443
2800 0 119.19 13.6589 1628 116.825 157.869 431.87
2801 0 125.09 14.3656 1797 115.554 157.503 427.356
2802 1 71.0249 9.22212 655 108.73 157.49 455.69
2803 0 76.0784 9.85825 750 109.936 157.256 455.623
2804 0 74.0829 10.2318 758 138.648 157.299 455.64
2805 0 78.0547 10.262 801 121.338 157.377 453.794
2806 0 79.065 10.5862 837 123.532 157.161 450.873
2807 0 83.1208 11.1284 925 121.419 157.552 452.054
2808 0 85.0785 11.2132 954 121.193 157.546 448.354
2809 0 86.0805 10.3392 890 124.517 158.079 448.164
2810 0 90.0794 10.9348 985 124.086 157.77 445.36
2811 0 91.0963 10.4175 949 126.11 157.697 442.105
2812 0 96.1015 11.2485 1081 122.97 157.579 443.496
2813 0 100.042 11.3653 1137 121.121 157.463 441.674
2814 0 101.115 10.7798 1090 123.721 156.858 440.229
2815 0 104.097 11.105 1156 121.705 156.856 437.388
2816 1 57.0992 8.19626 468 107.955 156.541 463.925
2817 0 60.1097 9.11667 548 106.655 157.033 461.799
2818 0 64.1264 9.29414 596 106.624 156.586 461.747
2819 0 64.0772 9.78507 627 105.831 156.081 459.705
2820 0 68.0881 9.63457 656 104.309 155.905 459.305
2821 0 66.0702 9.35369 618 108.108 155.901 454.21
2822 0 72.0201 9.94167 716 104.922 155.545 454.151
2823 0 74.0711 10.0039 741 104.723 156.343 452.167
2824 0 77.1864 10.1184 781 103.586 156.15 452.097
2825 0 77.1294 10.5537 814 104.614 156.308 450.737
2826 0 80.0533 10.4305 835 106.228 156.704 448.151
2827 0 82.127 10.6177 872 107.791 157.122 445.752
2828 0 84.1566 10.5161 885 108.705 156.946 443.922
2829 0 87.1675 9.96931 869 110.304 157.173 442.876
2830 0 89.2288 10.2097 911 110.104 156.9 443.05
2831 0 93.2183 10.9742 1023 107.653 157.555 440.71
2832 0 97.2052 10.3904 1010 108.29 157.19 440.591
2833 0 99.1878 9.56771 949 110.557 156.554 438.141
2834 1 52.0583 8.35601 435 99.3425 156.959 465.874
2835 0 53.0609 8.55621 454 94.3524 157.619 461.967
2836 0 56.0539 9.1519 513 90.6628 157.234 461.234
2837 0 59.1521 7.96253 471 103.318 157.206 461.728
2838 0 61.1413 8.2432 504 102.486 156.3 460.817
2839 0 63.0828 9.25767 584 100.875 156.664 460.49
2840 0 64.1501 9.38424 602 100.342 156.442 456.317
2841 0 74.1167 10.7533 797 93.522 157.694 459.997
2842 0 75.1504 10.7518 808 93.0272 156.429 458.438
2843 0 76.1605 10.2547 781 94.2241 156.818 457.533
2844 0 77.1087 10.7381 828 93.2572 156.809 457.196
2845 0 82.1404 11.0177 905 91.9249 156.424 454.896
2846 0 83.1203 10.2622 853 94.1383 156.834 453.136
2847 0 85.1988 11.3147 964 91.8413 156.826 451.025
2848 0 85.1593 10.7446 915 93.8787 156.742 450.932
2849 0 89.1047 11.436 1019 92.7164 156.474 448.753
2850 0 91.0808 11.4514 1043 93.3231 157.965 446.083
2851 0 95.1296 11.5106 1095 92.6557 157.237 446.323
2852 0 96.1603 11.2104 1078 94.1772 157.214 445.05
2853 0 100.17 11.7002 1172 92.4505 156.724 443.865
2854 0 104.184 11.4316 1191 93.084 156.097 442.067
2855 1 56.0963 9.57282 537 85.8343 156.806 468.899
2856 0 55.2144 8.98316 496 89.0927 156.893 466.603
2857 0 57.0786 9.8811 564 86.3741 157.117 464.638
2858 0 61.0917 10.7216 655 85.4321 156.89 464.542
2859 0 61.118 10.2098 624 88.3077 157.87 463.978
2860 0 66.1579 11.669 772 83.6192 157.785 462.771
2861 0 66.0582 11.1114 734 85.9918 157.789 460.921
2862 0 68.0295 11.4215 777 86.0206 157.336 460.523
2863 0 69.0842 11.2616 778 87.0283 157.571 458.846
2864 0 73.0993 11.9427 873 84.8053 156.609 458.926
2865 0 76.1806 11.4202 870 85.9851 156.187 458.353
2866 0 76.1094 11.4309 870 86.1586 156.375 455.202
2867 0 76.0768 9.14865 696 81.8103 157.909 457.496
2868 0 79.0513 9.29776 735 83.0707 156.997 454.263
2869 0 82.207 10.1816 837 82.945 156.957 453.643
2870 0 82.1237 9.51005 781 86.0794 157.178 453.081
2871 0 84.0245 9.74716 819 87.5324 157.024 452.339
2872 0 87.0955 10.2646 894 86.4418 156.964 450.811
2873 0 91.1036 10.6692 972 87.2551 157.137 449.867
2874 0 92.0712 10.2421 943 90.9555 156.78 449.438
2875 0 96.1159 10.5914 1018 91.7623 157.786 447.747
2876 1 56.1106 9.0892 510 87.1176 156.922 467.308
2877 0 57.0416 9.43172 538 87.29 157.082 465.234
2878 0 60.0691 9.75543 586 83.9044 157.34 462.966
2879 0 61.0727 9.87348 603 87.6119 156.438 464.942
2880 0 63.0969 10.6186 670 85.9448 156.19 463.503
2881 0 65.0856 11.0009 716 86.6536 155.785 461.895
2882 0 66.0795 10.4874 693 87.8543 156.036 461.88
2883 0 67.0565 10.782 723 88.6487 155.844 460.723
2884 0 70.0914 10.9714 769 88.5267 155.694 459.289
2885 0 72.1246 11.0503 797 88.6361 156.003 458.778
2886 0 74.0521 11.3569 841 89.9334 155.806 456.205
2887 0 76.0916 11.1839 851 92.1351 156.086 456.844
2888 0 78.0846 11.4235 892 91.9765 156.781 456.692
2889 0 79.1331 10.2612 812 95.9421 156.437 453.282
2890 0 83.0729 11.2311 933 94.2337 156.74 453.516
2891 0 86.0837 11.3146 974 93.692 156.388 451.009
2892 0 87.0788 11.369 990 87.9475 157.054 448.258
2893 0 90.1171 11.9733 1079 93.2845 156.7 446.775
2894 0 91.0433 11.7087 1066 98.3987 156.603 446.905
2895 0 93.1422 11.7133 1091 88.1595 156.849 447.358
2896 0 93.1373 11.3596 1058 96.0095 156.333 445.989
2897 0 92.1293 11.3645 1047 99.6017 156.308 446.081
2898 0 95.0895 11.2631 1071 101.542 156.838 445.458
2899 1 56.0761 10.1648 570 92.6912 157.489 467.847
2900 0 55.0722 10.1866 561 93.4545 157.102 464.032
2901 0 58.0921 11.1719 649 86.9569 156.781 464.37
2902 0 60.0716 11.4197 686 88.7668 156.81 466.274
2903 0 60.0793 10.7691 647 89.0804 156.921 464.083
2904 0 63.0256 10.8051 681 87.2203 157.827 463.467
2905 0 63.0248 10.6307 670 87.0164 157.549 463.696
2906 0 65.0493 10.4844 682 85.0909 157.582 462.246
2907 0 65.0491 9.8541 641 88.351 156.894 460
2908 0 68.0457 10.4636 712 87.5154 157.479 460.434
2909 0 70.0538 10.649 746 85.3887 156.618 459.891
2910 0 70.0637 11.2326 787 86.6023 157.779 460.118
2911 0 73.0343 11.5699 845 87.8639 157.527 458.318
2912 0 73.0487 10.6915 781 93.1383 156.889 458.305
2913 0 75.041 11.2072 841 91.9786 156.325 458.755
2914 0 76.0338 11.3634 864 92.5 157.097 457.24
2915 0 79.0504 11.3851 900 92.5444 157.098 457.877
2916 0 80.0409 11.5066 921 94.1737 156.958 455.924
2917 0 81.053 11.511 933 94.3237 156.931 455.081
2918 0 83.0984 11.5526 960 93.824 156.963 455.021
2919 0 84.0981 11.6293 978 96.3333 156.619 453.976
2920 0 87.1632 11.8284 1031 96.1455 156.846 452.041
2921 0 89.0622 11.8569 1056 97.3627 156.883 450.836
2922 0 92.105 11.9538 1101 97.2225 156.302 449.564
2923 0 94.0983 11.9237 1122 99.7594 157.02 448.772
2924 0 95.0758 11.8011 1122 103.313 156.569 447.908
2925 1 49.0188 10.7918 529 99.6919 157.514 472.195
2926 0 49.0908 10.613 521 103.679 158.094 471.378
2927 0 52.0333 11.0698 576 100.911 156.894 470.658
2928 0 52.0291 10.8593 565 99.7398 157.207 470.72
2929 0 53.024 10.9762 582 104.357 156.498 470.043
2930 0 56.0286 12.0296 674 101.911 156.631 469.936
2931 0 56.0418 12.0624 676 104.999 155.774 466.287
2932 0 57.0545 11.5328 658 107.944 156.723 465.57
2933 0 58.0169 11.8414 687 107.694 156.866 465.744
2934 0 59.0241 12.0459 711 107.343 156.887 464.828
2935 0 61.0502 11.8263 722 108.517 156.996 463.82
2936 0 63.0478 12.3081 776 107.973 157.101 464.032
2937 0 65.0547 12.2666 798 108.155 157.133 463.954
2938 0 67.0274 12.8306 860 105.045 157.515 463.499
2939 0 69.0811 12.4926 863 106.816 157.06 462.396
2940 0 68.0366 12.7725 869 105.83 156.792 461.957
2941 0 72.1083 12.1623 877 107.672 156.594 460.44
2942 0 73.0523 12.1283 886 109.812 157.309 460.453
2943 0 76.0459 13.0448 992 108.395 156.864 459.903
2944 0 77.0867 13.154 1014 109.443 156.795 459.236
2945 0 78.0788 12.8076 1000 111.402 156.62 457.02
2946 0 82.0404 12.7986 1050 110.172 156.637 456.435
2947 0 83.0854 12.6978 1055 110.453 157.443 456.379
2948 0 88.0579 13.0482 1149 106.849 157.971 454.257
2949 0 88.0269 12.8711 1133 108.915 157.297 453.996
2950 0 93.1607 13.0205 1213 107.6 157.608 448.434
2951 0 95.124 12.8359 1221 108.514 157.15 442.576
2952 0 99.1086 13.4095 1329 106.285 157.099 441.518
2953 1 54.0914 12.5713 680 110.181 157.287 462.863
2954 0 57.0421 13.4988 770 118.004 156.73 460.527
2955 0 57.058 12.2857 701 110.75 157.073 462.078
2956 0 58.033 12.3033 714 111.814 156.721 460.641
2957 0 61.041 12.9094 788 110.81 157.56 460.836
2958 0 63.0576 13.1467 829 109.258 156.894 460.981
2959 0 63.0378 12.9288 815 110.729 156.772 461.106
2960 0 66.0366 12.5839 831 108.844 157.283 460.233
2961 0 69.0127 13.2005 911 106.752 157.187 462.429
2962 0 70.11 13.0367 914 110.588 157.667 462.856
2963 0 73.0243 14.1734 1035 111.397 157.959 459.69
2964 0 74.0319 13.5212 1001 115.471 157.707 459.28
2965 0 78.0593 13.6563 1066 116.604 157.942 458.826
2966 0 80.0617 14.0142 1122 116.372 157.913 456.626
2967 0 82.1048 13.1539 1080 116.723 157.652 453.465
2968 1 44.0454 11.7606 518 114.616 157.803 473.004
2969 0 46.0251 11.8414 545 113.655 158.372 475.031
2970 0 46.0318 11.7527 541 110.314 157.935 475.438
2971 0 46.0414 12.0109 553 112.009 157.15 474.537
2972 0 48.0619 12.0678 580 109.876 157.216 472.843
2973 0 50.0744 11.7026 586 109.735 157.399 472.556
2974 0 50.0679 12.1435 608 108.049 157.549 470.447
2975 0 52.0406 11.5679 602 108.693 157.12 472.148
2976 0 52.0714 12.0796 629 107.676 157.041 470.235
2977 0 55.0453 12.081 665 107.95 157.517 469.152
2978 0 54.0243 11.8465 640 110.269 158.027 467.973
2979 0 57.0334 12.1157 691 108.891 158.043 462.842
2980 0 61.0727 12.9681 792 107.551 157.749 459.798
2981 0 63.0201 12.4405 784 109.277 157.133 457.143
2982 0 65.0258 13.287 864 106.189 157.671 455.8
2983 0 67.0634 12.8982 865 107.435 157.699 454.575
2984 0 68.0523 12.2112 831 108.025 157.639 454.965
2985 0 71.0916 12.7863 909 105.278 157.871 454.02
2986 0 73.0329 12.6244 922 107.664 157.782 452.337
2987 0 78.0756 13.551 1058 105.719 157.646 451.383
2988 0 79.0647 12.8502 1016 108.002 157.377 451.247
2989 0 83.0409 13.1863 1095 106.582 157.399 449.405
2990 1 46.0248 12.754 587 108.465 157.964 467.25
2991 0 49.0639 13.2888 652 107.388 157.802 465.687
2992 0 50.0506 13.9059 696 102.164 157.767 464.386
2993 0 51.0285 13.1495 671 99.5648 157.365 464.861
2994 0 52.038 13.2211 688 101.378 157.475 463.868
2995 0 55.058 13.8944 765 98.0301 156.208 463.12
2996 0 55.0415 13.8259 761 100.807 157.194 461.221
2997 0 56.0349 13.2061 740 105.603 156.67 462.486
2998 0 57.0222 13.3457 761 105.365 157.394 461.234
2999 0 61.0547 13.578 829 102.715 157.177 461.587
3000 0 61.0769 13.5076 825 104.262 157.608 460.976
3001 0 63.0773 13.428 847 104.102 157.267 459.985
3002 0 67.0486 13.8258 927 101.175 156.784 458.429
3003 0 68.0482 13.3141 906 102.649 156.67 458.228
3004 0 71.05 13.0331 926 102.691 157.191 457.18
3005 0 71.077 13.5346 962 101.863 156.74 455.456
3006 0 75.1323 13.4296 1009 99.9068 156.712 454.005
3007 0 77.075 13.4933 1040 99.3394 156.656 453.252
3008 0 80.09 12.9729 1039 99.5756 157.016 450.992
3009 0 84.0616 13.4544 1131 97.1406 156.629 448.622
3010 0 87.055 13.2215 1151 95.7055 157.5 448.998
3011 1 44.0687 12.7982 564 95.5745 157.445 469.819
3012 0 44.0099 12.2927 541 97.4713 157.409 469.372
3013 0 45.0516 11.8087 532 99.3064 158.036 468.372
3014 0 46.0111 12.1275 558 97.3154 157.477 470.231
3015 0 46.0566 12.4195 572 97.3392 157.853 468.565
3016 0 49.043 12.7031 623 96.0177 157.223 468.685
3017 0 49.0799 12.7751 627 97.5375 157.614 469.663
3018 0 51.0568 12.4763 637 96.6248 157.341 467.763
3019 0 52.0948 12.0933 630 98.354 157.724 467.8
3020 0 53.0542 12.3836 657 99.0548 157.645 466.505
3021 0 55.0281 12.5572 691 96.8148 157.465 466.729
3022 0 60.0316 12.4601 748 95.7714 157.528 465.743
3023 0 62.0347 12.9282 802 94.9701 157.747 464.702
3024 0 64.0441 12.7881 819 94.8144 157.441 464.284
3025 0 64.0499 13.0679 837 95.8973 157.559 463.435
3026 0 69.1035 13.6751 945 94.454 157.966 462.349
3027 0 69.0614 13.0319 900 97.6644 157.597 462.087
3028 0 75.0536 14.6029 1096 90.1405 157.722 460.642
3029 0 76.0769 13.7887 1049 93.7855 157.607 460.142
3030 0 79.0488 13.7004 1083 92.7258 158.11 460.11
3031 0 81.0467 14.14 1146 91.2731 158.105 457.801
3032 0 86.1683 13.8914 1197 89.7034 157.561 454.135
3033 0 88.1581 13.8955 1225 89.5143 157.319 452.945
3034 0 91.1484 14.3173 1305 87.4406 158.005 450.644
3035 0 94.1558 13.9556 1314 88.2785 158.295 448.92
3036 1 46.0293 11.4492 527 93.3321 156.674 470.991
3037 0 49.0556 11.3952 559 92.7979 157.24 469.83
3038 0 51.0289 12.7183 649 89.3929 157.7 469.373
3039 0 53.0501 12.328 654 90.8211 158.047 468.333
3040 0 54.0178 11.7924 637 93.7645 157.984 467.512
3041 0 56.0101 11.8907 666 93.1231 157.716 466.171
3042 0 57.0249 12.4156 708 91.3008 157.428 464.061
3043 0 58.0451 12.0596 700 92.8629 157.971 463.891
3044 0 62.0443 12.5233 777 90.3861 157.574 462.353
3045 0 65.0124 13.1052 852 88.6854 157.751 461.792
3046 0 64.0256 12.8855 825 90.3406 157.273 462.303
3047 0 67.0203 12.6081 845 92.1846 156.964 461.421
3048 0 69.034 12.5735 868 93.0323 157.339 460.306
3049 0 71.0303 13.0085 924 92.0649 157.468 459.049
3050 0 73.017 13.2846 970 90.5784 157.31 458.208
3051 0 75.0469 12.9386 971 92.5602 157.894 457.263
3052 0 76.107 13.3759 1018 92.5707 157.957 455.913
3053 0 79.0385 12.8292 1014 96.211 157.882 454.986
3054 0 80.0199 13.0218 1042 97.5979 158.03 453.595
3055 0 83.0552 12.871 1069 98.493 158.045 451.799
3056 0 84.0752 13.0716 1099 100.078 158.337 450.15
3057 0 88.0747 13.2728 1169 98.8537 158.472 450.92
3058 0 88.1058 12.6666 1116 101.38 158.579 449.201
3059 0 92.1491 12.393 1142 104.798 158.262 447.587
3060 0 95.0682 12.896 1226 104.352 157.867 446.998
3061 0 99.1723 12.6144 1251 105.667 157.674 444.866
3062 0 102.124 12.5827 1285 105.058 157.886 442.17
3063 0 104.22 12.2338 1275 107.392 156.904 442.372
3064 0 108.086 12.4622 1347 106.129 157.688 441.189
3065 1 57.1213 8.89335 508 99.6102 157.569 466.593
3066 0 60.0978 10.0004 601 98.1681 157.95 465.218
3067 0 63.1672 10.7492 679 91.0839 157.729 463.922
3068 0 64.0729 11.7991 756 93.713 157.921 462.202
3069 0 65.0196 11.1966 728 97.4382 158.459 461.398
3070 0 68.0342 11.2737 767 98.8449 158.867 459.578
3071 0 69.0386 10.9069 753 100.782 158.47 458.471
3072 0 72.0531 10.9086 786 100.417 159.062 458.242
3073 0 73.0593 10.8405 792 101.225 158.879 458.042
3074 0 75.0329 11.1151 834 101.478 158.724 456.582
3075 0 77.0312 11.4369 881 100.801 159.108 455.257
3076 0 78.0371 10.9948 858 102.452 158.365 454.866
3077 0 80.0535 11.0426 884 102.933 158.148 453.555
3078 0 83.1036 11.2631 936 103.059 158.976 452.623
3079 0 85.1022 11.3511 966 102.387 158.703 450.978
3080 0 87.0692 11.198 975 103.357 157.966 449.607
3081 0 91.0797 11.4954 1047 101.815 158.814 448.419
3082 0 93.1477 11.251 1048 102.46 158.244 446.401
3083 0 95.1217 11.3854 1083 98.8209 157.945 446.287
3084 0 95.0983 11.1569 1061 100.624 158.123 445.353
3085 0 100.14 11.3641 1138 100.782 158.44 442.166
3086 0 104.133 12.6088 1313 98.8218 158.36 441.308
3087 0 107.113 12.034 1289 99.8394 158.373 438.656
3088 0 112.136 11.9498 1340 99.653 158.214 436.537
3089 0 115.087 12.2689 1412 96.3244 158.146 434.428
3090 1 58.089 9.24444 537 92.1546 158.581 466.406
3091 0 60.145 10.0756 606 93.7145 158.063 465.517
3092 0 62.1301 10.3653 644 87.9006 157.613 463.957
3093 0 65.1113 10.2133 665 96.6932 158.817 463.968
3094 0 67.1422 10.6788 717 95.8954 158.144 460.709
3095 0 68.1231 10.4076 709 98.0409 158.252 461.882
3096 0 69.0753 10.076 696 98.796 157.499 459.062
3097 0 72.1541 10.0064 722 100.687 158.241 459.109
3098 0 74.0855 10.3394 766 100.205 158.57 458.397
3099 0 77.1002 10.3242 796 98.8995 157.43 457.476
3100 0 79.1645 10.434 826 100.873 157.276 456.088
3101 0 80.1528 10.1057 810 103.105 157.98 455.194
3102 0 84.2358 10.1501 855 102.563 158.213 454.781
3103 0 85.1498 10.7105 912 102.012 157.626 453.35
3104 0 89.1968 10.3143 920 102.117 157.914 453.524
3105 0 90.1359 10.5396 950 103.354 158.24 450.612
3106 0 93.1673 11.4525 1067 101.858 158.268 449.852
3107 0 94.2666 10.4809 988 104.645 157.884 448.314
3108 0 97.2702 10.9694 1067 103.769 157.52 444.539
3109 0 102.238 11.8743 1214 99.3806 157.907 442.577
3110 0 103.23 12.1864 1258 96.9364 158.064 441.046
3111 0 107.152 12.039 1290 96.8682 158.11 440.94
3112 1 57.0313 8.97752 512 96.2129 158.172 465.289
3113 0 61.0292 10.3885 634 93.388 157.033 463.181
3114 0 61.0218 10.7503 656 92.2546 157.116 462.584
3115 0 63.0279 10.3764 654 91.4266 158.167 462.05
3116 0 63.0728 8.91034 562 84.7527 158.036 461.63
3117 0 64.0668 9.1467 586 83.7901 158.307 459.541
3118 0 66.0494 9.44747 624 82.4439 158.554 458.556
3119 0 68.0467 8.90565 606 82.2789 157.644 457.338
3120 0 69.0587 8.67379 599 82.5092 158.02 455.876
3121 0 70.0189 9.04042 633 82.8278 158.302 454.327
3122 0 73.0659 9.18349 671 83.0238 158.423 452.937
3123 0 75.0887 9.88164 742 83.1105 158.567 452.751
3124 0 75.0911 9.92128 745 84.157 158.068 451.368
3125 0 79.0903 10.507 831 83.3562 158.2 450.385
3126 0 80.1288 9.47224 759 86.7997 158.007 449.822
3127 0 87.0613 10.9119 950 84.3695 157.991 448.375
3128 0 87.1291 9.97371 869 87.2946 157.436 448.323
3129 0 91.1081 10.2406 933 85.6463 157.797 446.504
3130 1 49.0093 9.59002 470 78.517 159.232 467.196
3131 0 49.0436 9.07356 445 74.6742 159.133 466.413
3132 0 50.098 9.10216 456 74.2829 158.568 467.2
3133 0 49.044 8.35983 410 74.678 158.268 467.676
3134 0 52.0172 8.49719 442 75.491 157.837 464.127
3135 0 56.0228 9.04989 507 73.5464 158.179 465.331
3136 0 55.0474 8.13844 448 76.5536 157.67 463.714
3137 0 58.0344 9.30482 540 73.2463 157.041 465.385
3138 0 61.0289 9.97888 609 74.2562 157.847 463.388
3139 0 65.1165 9.59818 625 72.9824 158.064 463.67
3140 0 65.0121 10.4288 678 74.2153 158.339 460.698
3141 0 67.0332 10.6365 713 74.5428 158.525 459.553
3142 0 69.0359 9.95134 687 76.7263 158.309 460.584
3143 0 71.0406 10.5573 750 82.184 158.576 458.984
3144 0 71.0475 10.1763 723 79.1231 158.209 457.954
3145 0 76.0646 10.8723 827 78.5865 158.004 456.307
3146 0 75.0697 10.2038 766 81.8499 158.138 455.133
3147 0 79.079 10.3947 822 81.3078 158.274 455.013
3148 0 81.0725 10.1514 823 83.9611 158.035 453.199
3149 0 84.0609 10.5281 885 83.2362 158.652 451.879
3150 0 87.1259 10.3873 905 84.8122 158.369 450.775
3151 1 45.0661 9.23089 416 81.2188 159.043 470.899
3152 0 47.0791 9.53715 449 79.5768 158.236 469.724
3153 0 49.0745 10.2497 503 79.1292 158.471 470.584
3154 0 48.0485 10.1148 486 82.1214 158.65 467.65
3155 0 49.0937 11.3049 555 90.9568 157.849 468.461
3156 0 51.1115 10.976 561 90.82 158.349 468.906
3157 0 53.1038 10.9973 584 91.0616 158.616 468.164
3158 0 54.0688 11.0415 597 92.0737 158.059 467.538
3159 0 54.0782 11.1875 605 91.4777 157.782 466.866
3160 0 56.0612 10.4707 587 92.5349 158.477 466.727
3161 0 59.0632 10.9036 644 91.7671 157.865 463.868
3162 0 60.0842 11.1011 667 90.3493 157.309 462.967
3163 0 62.0647 11.3269 703 88.6515 157.597 462.721
3164 0 63.1174 10.726 677 90.2024 157.789 461.338
3165 0 66.0933 10.6667 705 90.0979 157.796 459.811
3166 0 67.1007 11.3859 764 88.9346 157.649 460.406
3167 0 67.0644 10.6316 713 91.8107 157.892 460.774
3168 0 70.0784 11.0733 776 91.1985 157.599 459.274
3169 0 71.0396 11.1346 791 92.7826 157.699 458.865
3170 0 74.0216 11.24 832 93.9567 158.001 457.585
3171 0 75.065 10.5509 792 94.8838 156.79 456.578
3172 0 77.0531 10.6809 823 94.6282 157.614 455.798
3173 0 79.0375 10.2863 813 96.968 157.439 455.192
3174 0 81.0651 10.8308 878 96.1298 157.786 452.745
3175 0 84.11 10.403 875 96.0091 157.687 450.114
3176 0 85.0779 10.0614 856 97.9521 157.625 447.929
3177 0 88.0513 10.5847 932 96.4077 157.781 448.905
3178 0 92.0524 10.1138 931 98.1708 157.49 447.357
3179 0 93.0476 10.8547 1010 99.0545 158.368 445.15
3180 0 94.1313 10.6659 1004 100.298 158.229 446.047
3181 0 95.1749 10.4544 995 103.775 158.613 443.593
3182 0 97.1256 10.0386 975 106.341 158.449 442.581
3183 0 101.161 10.8342 1096 105.672 158.538 442.609
3184 0 101.128 10.6103 1073 107.896 157.995 439.716
3185 0 103.162 10.7113 1105 107.754 157.973 440.115
3186 0 107.214 10.5024 1126 110.099 157.838 439.12
3187 0 107.146 10.7237 1149 110.915 157.811 438.464
3188 0 109.179 11.1194 1214 110.213 158.364 438.696
3189 0 113.171 11.3103 1280 110.909 157.824 438.83
3190 0 116.223 11.9426 1388 110.036 157.897 437.636
3191 0 116.22 12.0547 1401 111.47 156.841 437.776
3192 0 115.241 11.8621 1367 113.769 157.159 436.238
3193 0 118.186 11.9303 1410 112.237 158.026 436.082
3194 0 119.209 11.6351 1387 116.684 157.719 434.275
3195 0 119.431 11.8144 1411 121.063 157.599 433.848
3196 0 119.228 11.608 1384 119.5 158.165 433.712
3197 0 117.237 11.6431 1365 121.622 157.363 434.127
3198 0 118.305 12.1043 1432 122.67 157.339 432.894
3199 0 122.196 12.9219 1579 116.484 157.563 433.232
3200 0 120.237 12.9577 1558 117.898 157.868 433.132
3201 0 122.154 13.4584 1644 113.688 157.632 430.608
3202 0 122.128 12.8472 1569 115.69 157.562 431.026
3203 0 123.171 13.055 1608 115.613 158.101 431.188
3204 0 124.215 12.4945 1552 116.747 158.409 430.573
3205 1 54.1095 12.2899 665 121.881 156.611 338.677
3206 0 55.0308 12.8473 707 117.703 155.736 254.697
3207 0 56.0476 13.3815 750 112.635 156.913 371.507
3208 0 58.0848 13.5664 788 111.51 156.746 370.114
3209 0 59.0585 12.4284 734 111.448 157.099 372.83
3210 0 62.1045 12.5595 780 108.855 157.737 373.392
3211 0 63.1045 12.4555 786 109.352 157.645 373.618
3212 0 66.0946 12.5578 830 107.861 157.799 372.428
3213 0 68.1116 12.9053 879 106.049 157.807 372.788
3214 0 69.0932 12.3601 854 107.91 157.957 373.556
3215 0 71.0736 12.9865 923 105.687 157.947 372.771
3216 0 74.0583 12.9087 956 106.299 157.755 372.327
3217 0 78.0956 12.8432 1003 104.982 157.432 371.157
3218 0 79.1199 11.8554 938 108.342 157.786 370.749
3219 0 82.1412 12.722 1045 106.394 158.398 370.257
3220 0 84.1088 13.1496 1106 105.484 157.605 369.661
3221 0 87.1647 12.5854 1097 107.883 157.185 368.435
3222 0 90.0452 12.5493 1130 108.878 157.824 368.112
3223 0 91.1322 12.7836 1165 110.664 158.182 365.995
3224 0 95.1135 12.9424 1231 110.393 158.102 363.528
3225 0 97.0666 12.9396 1256 109.615 157.987 364.255
3226 0 100.1 13.2068 1322 107.477 158.012 363.251
3227 1 53.0757 12.1525 645 115.62 156.595 383.837
3228 0 55.0416 13.1719 725 111.164 157.206 383.268
3229 0 53.0445 12.1408 644 107.752 157.408 383.026
3230 0 56.0361 12.3492 692 106.273 157.558 383.798
3231 0 55.0471 12.3167 678 107.212 158.214 383.711
3232 0 59.0411 12.2626 724 106.751 157.236 381.177
3233 0 60.0297 12.3939 744 106.526 156.914 380.707
3234 0 62.0313 12.268 761 106.691 157.537 379.771
3235 0 65.0282 12.6253 821 104.73 157.862 378.665
3236 0 66.0454 12.7337 841 105.463 157.917 378.658
3237 0 68.0293 12.6269 859 107.205 157.69 377.041
3238 0 71.0745 14.2526 1013 113.953 156.86 374.327
3239 0 72.0501 13.0326 939 110.262 158.042 374.225
3240 0 75.0322 13.0078 976 108.238 157.569 373.845
3241 0 80.0504 12.9543 1037 107.881 157.851 374.534
3242 0 82.0805 13.3649 1097 111.278 157.721 370.072
3243 0 81.0389 13.1418 1065 110.666 157.966 369.89
3244 0 85.0561 12.9326 1100 110.429 157.712 370.187
3245 0 86.0259 12.6125 1085 110.91 157.429 370.394
3246 0 90.0504 13.0816 1178 110.328 156.956 371.166
3247 0 92.07 13.0118 1198 110.636 157.79 368.958
3248 1 49.0194 10.5877 519 103.676 157.405 394.285
3249 0 50.0752 11.5227 577 104.031 157.194 392.542
3250 0 53.042 11.8774 630 102.692 156.687 389.63
3251 0 52.0049 11.9027 619 103.603 156.212 387.362
3252 0 54.0183 11.7182 633 104.264 156.261 386.834
3253 0 56.032 11.7433 658 101.938 156.956 385.755
3254 0 58.0299 12.4763 724 99.7403 156.405 384.8
3255 0 59.0164 11.8442 699 100.094 157.146 384.445
3256 0 62.0525 12.4894 775 100.756 156.785 381.316
3257 0 63.0572 12.338 778 102.978 156.679 382.095
3258 0 67.0539 12.5272 840 103.233 156.876 381.104
3259 0 68.0745 12.8389 874 102.881 156.47 379.468
3260 0 72.0319 12.5916 907 102.781 156.594 378.676
3261 0 72.0748 13.1114 945 100.522 156.584 377.708
3262 0 75.1552 12.5208 941 102.183 157.384 374.926
3263 0 78.1106 13.2504 1035 97.4918 157.4 374.829
3264 0 80.1171 12.4817 1000 98.73 157.079 375.273
3265 0 82.1782 12.6798 1042 98.2668 157.634 373.049
3266 0 86.1439 12.7229 1096 96.4325 157.648 371.092
3267 0 88.1173 12.4834 1100 97.7445 157.746 367.755
3268 0 92.1243 12.8848 1187 94.7009 157.562 369.361
3269 0 93.1836 12.749 1188 97.1835 157.308 365.479
3270 0 97.079 13.3499 1296 94.6134 156.913 365.514
3271 0 98.1743 13.4557 1321 96.5844 158.257 364.242
3272 0 102.094 12.5571 1282 96.9789 157.765 363.771
3273 0 104.136 13.1174 1366 95.5615 158.011 362.105
3274 0 108.162 13.4612 1456 93.8867 158.344 360.24
3275 0 111.155 13.9175 1547 93.2534 157.825 359.582
3276 0 115.132 13.7147 1579 93.4718 157.269 359.203
3277 0 119.212 13.8157 1647 95.5871 157.439 358.451
3278 0 124.167 13.9812 1736 94.4948 156.861 354.334
3279 0 126.182 12.9812 1638 95.7955 158.132 353.344
3280 1 67.1047 11.5491 775 94.5987 157.725 383.889
3281 0 69.1546 11.7852 815 93.4405 158.096 383.11
3282 0 69.0913 12.0855 835 92.9377 158.38 381.651
3283 0 71.0614 12.2851 873 92.9221 157.67 381.585
3284 0 75.0495 12.4584 935 90.7733 157.705 381.804
3285 0 75.0751 12.3476 927 93.6472 157.818 378.748
3286 0 79.0483 12.4987 988 92.5395 158.022 378.872
3287 0 80.0989 12.8092 1026 93.5682 157.809 377.318
3288 0 83.088 12.3845 1029 95.0078 157.901 376.364
3289 0 86.064 13.1879 1135 92.178 158.321 373.883
3290 0 88.1111 12.9723 1143 93.7445 157.852 374.225
3291 0 93.1545 13.3864 1247 90.8957 157.799 373.201
3292 0 95.1274 13.2769 1263 90.4679 157.648 374.511
3293 0 96.0802 13.4783 1295 89.9266 157.527 374.372
3294 0 101.099 14.4018 1456 87.3709 157.552 374.355
3295 0 101.121 13.0042 1315 89.9681 157.106 373.791
3296 0 105.171 12.6175 1327 90.5509 157.632 373.617
3297 0 106.108 12.9868 1378 88.0443 157.194 373.736
3298 0 110.165 12.9533 1427 88.0519 157.197 369.3
3299 0 117.213 13.7954 1617 84.619 157.47 367.36
3300 0 119.175 13.2578 1580 86.7734 157.135 365.914
3301 1 64.0651 12.2376 784 87.5753 157.184 390.754
3302 0 64.054 12.0523 772 88.8523 156.883 388.519
3303 0 68.0651 12.635 860 88.086 157.548 388.144
3304 0 69.1575 12.1317 839 83.7878 157.669 389.418
3305 0 71.0313 11.7695 836 85.4199 157.592 387.788
3306 0 74.027 12.2793 909 85.9516 157.025 386.757
3307 0 76.0759 12.1326 923 86.559 157.624 385.295
3308 0 79.0355 12.0452 952 85.2784 156.902 385.53
3309 0 82.065 11.7955 968 86.0341 157.841 385.692
3310 0 84.1092 12.6859 1067 84.3936 157.851 381.156
3311 0 86.064 12.4907 1075 85.5674 158.52 382.727
3312 0 90.0964 11.854 1068 85.4457 157.444 381.177
3313 0 90.1418 11.3377 1022 86.908 157.857 378.412
3314 0 95.1482 12.0023 1142 85.8616 157.527 378.074
3315 0 98.1716 12.3457 1212 85.9777 157.02 377.613
3316 1 51.0337 11.0907 566 82.7102 156.127 399.924
3317 0 52.0438 10.9523 570 83.9175 156.719 400.114
3318 0 52.0327 11.6465 606 82.5512 156.132 399.483
3319 0 55.0497 10.3543 570 76.8895 157.149 399.951
3320 0 55.0436 10.5553 581 75.8038 157.203 401.143
3321 0 58.048 10.8703 631 75.767 157.197 397.532
3322 0 59.0587 11.26 665 74.5805 157.164 396.565
3323 0 60.0187 10.8133 649 76.0924 157.216 395.96
3324 0 62.0646 11.1497 692 75.6546 156.357 395.238
3325 0 67.0601 12.2278 820 82.3463 157.44 393.072
3326 0 67.0302 12.6809 850 83.2435 156.591 392.305
3327 0 68.0419 12.2865 836 84.5873 156.578 391.206
3328 0 70.0431 12.064 845 84.3349 157.473 390.576
3329 0 72.0574 12.3374 889 84.5894 157.391 392.308
3330 0 77.0508 12.4982 963 83.4642 157.346 393.028
3331 0 77.0569 12.8217 988 84.6599 158.663 390.002
3332 0 80.073 12.9881 1040 83.6673 157.712 389.231
3333 0 81.0306 12.2793 995 86.8442 157.607 388.716
3334 0 83.0318 12.6939 1054 86.2875 157.947 386.289
3335 0 86.0555 12.8173 1103 85.2484 157.506 384.99
3336 0 90.0592 13.0803 1178 85.6579 157.417 384.499
3337 0 92.0222 13.2685 1221 85.5602 157.681 383.726
3338 0 94.0436 12.7813 1202 88.3203 157.468 382.705
3339 0 98.0327 12.7815 1253 89.7861 157.33 381.475
3340 0 102.098 12.3411 1260 90.35 157.809 381.445
3341 1 52.012 11.0744 576 88.7083 157.849 403.556
3342 0 54.0513 11.2486 608 89.7977 158.171 402.592
3343 0 56.056 12.0594 676 88.0888 157.935 403.669
3344 0 56.0538 12.7021 712 89.1643 157.965 402.468
3345 0 59.0437 13.0243 769 89.974 157.664 401.93
3346 0 60.0884 12.6813 762 91.1575 157.924 401.795
3347 0 62.0381 13.266 823 91.305 157.759 401.122
3348 0 62.0319 13.1384 815 91.9374 157.939 399.626
3349 0 67.0314 13.9636 936 87.6635 158.061 399.581
3350 0 71.0254 13.8824 986 88.2089 157.461 399.068
3351 0 71.0353 12.6275 897 91.0446 157.002 399.505
3352 0 72.0282 13.1199 945 91.5333 157.533 398.713
3353 0 74.1157 13.3305 988 93.1093 157.839 397.9
3354 0 76.1562 13.1572 1002 94.509 158.304 396.614
3355 0 80.0903 13.747 1101 92.9401 158.045 395.339
3356 0 80.1237 12.7303 1020 96.798 157.923 395.479
3357 0 84.0968 13.7223 1154 93.8198 157.551 393.251
3358 0 84.1382 12.8123 1078 98.1058 157.232 392.901
3359 0 88.0893 13.8496 1220 95.4098 157.235 391.634
3360 0 91.0589 13.354 1216 96.7919 156.95 391.472
3361 0 92.0939 13.8228 1273 95.476 157.383 388.96
3362 0 95.1002 13.2176 1257 97.9228 156.938 387.207
3363 0 97.1188 13.4886 1310 96.8847 156.825 386.844
3364 0 102.148 13.5392 1383 95.6616 157.593 385.889
3365 0 105.182 12.9679 1364 96.9223 157.227 382.985
3366 0 109.125 12.9119 1409 96.995 157.38 381.075
3367 0 113.126 13.6043 1539 94.9961 157.019 378.326
3368 1 61.1077 11.2261 686 97.9038 157.058 405.232
3369 0 59.0475 12.1258 716 96.4609 157.791 403.992
3370 0 64.057 12.5201 802 93.7968 157.499 403.42
3371 0 64.1121 12.8681 825 96.6812 157.702 402.606
3372 0 66.0559 13.2161 873 95.3929 157.013 403.174
3373 0 67.0624 13.4502 902 96.0255 157.475 401.312
3374 0 69.0463 13.0347 900 95.7411 157.449 400.373
3375 0 72.0506 13.2268 953 96.319 157.462 399.97
3376 0 73.0441 12.2392 894 97.1935 158.109 399.155
3377 0 74.0838 12.5263 928 97.7489 157.403 398.673
3378 0 78.0646 11.9773 935 98.9091 157.983 396.913
3379 0 80.0543 12.2667 982 98.2047 157.624 394.424
3380 0 81.0654 12.5578 1018 97.6807 157.612 394.529
3381 0 86.0917 12.9397 1114 95.9354 157.241 391.415
3382 0 88.0796 12.6817 1117 97.7413 157.144 391.778
3383 0 90.0396 12.5278 1128 99.1835 157.777 389.527
3384 0 92.0653 12.6106 1161 97.863 157.562 388.052
3385 0 96.0343 12.5476 1205 97.6174 157.92 387.822
3386 0 100.097 12.8375 1285 95.0848 157.942 383.209
3387 1 54.0193 10.4777 566 96.5124 158.129 404.17
3388 0 57.0175 11.4351 652 93.135 157.138 405.109
3389 0 58.0334 11.7863 684 91.8962 156.605 405.148
3390 0 60.0465 11.1414 669 89.4275 156.253 403.395
3391 0 60.0392 10.5931 636 89.1525 156.115 402.399
3392 0 62.0178 10.5292 653 90.2404 156.289 401.221
3393 0 63.0191 11.2664 710 89.7028 156.349 401.566
3394 0 67.0198 11.8174 792 88.9722 156.424 401.201
3395 0 70.016 11.4402 801 90.2397 156.612 399.899
3396 0 70.0326 11.5375 808 91.2896 156.952 400.599
3397 0 73.0484 11.8688 867 92.2215 157.018 399.528
3398 0 77.053 12.42 957 92.0293 157.033 398.213
3399 0 77.0134 12.1797 938 94.6983 157.618 397.485
3400 0 80.0645 12.415 994 93.664 157.151 397.147
3401 0 83.043 12.6922 1054 95.0636 156.843 394.856
3402 0 85.0698 12.4133 1056 97.7074 156.689 393.246
3403 0 88.0886 13.4183 1182 94.9975 157.015 392.509
3404 0 90.1654 13.2756 1197 97.1629 156.876 390.58
3405 0 93.0895 13.1272 1222 98.2259 156.601 390.735
3406 0 97.1537 13.4323 1305 97.2498 156.284 389.437
3407 0 98.0736 12.6232 1238 100 156.908 388.426
3408 0 101.056 12.3496 1248 101.141 156.644 387.913
3409 1 55.1071 9.74466 537 98.6667 155.989 410.555
3410 0 58.0554 10.2833 597 95.2764 155.405 411.089
3411 0 58.0233 10.9266 634 93.2413 155.672 408.88
3412 0 62.0354 11.574 718 91.1838 156.492 408.128
3413 0 63.0311 11.2326 708 90.9647 156.23 407.661
3414 0 64.0471 11.3354 726 92.5592 156.545 406.665
3415 0 66.034 11.8121 780 93.4987 155.972 405.636
3416 0 69.0288 11.9515 825 93.6558 156.068 404.967
3417 0 70.0754 11.8587 831 95.5379 155.999 402.531
3418 0 73.0536 12.1007 884 96.4627 156.178 402.314
3419 0 74.0386 12.6015 933 97.3226 156.18 401.528
3420 0 75.0242 12.1028 908 100.626 155.503 399.82
3421 0 81.0743 11.8163 958 99.8351 155.561 398.723
3422 0 81.0425 11.9444 968 100.924 155.028 397.89
3423 0 82.0383 12.0553 989 102.647 154.935 396.536
3424 0 86.0648 13.0367 1122 100.585 155.252 393.823
3425 0 89.0263 12.8277 1142 101.081 155.03 394.31
3426 0 92.0798 12.9236 1190 101.313 155.294 392.514
3427 0 95.0718 12.9586 1232 101.162 155.33 390.485
3428 0 99.0624 12.9918 1287 100.416 155.138 390.027
3429 0 101.105 12.6601 1280 102.551 155.029 388.295
3430 0 104.16 12.9705 1351 101.637 155.292 386.882
3431 0 107.11 13.136 1407 101.57 155.669 383.729
3432 0 109.08 12.5871 1373 103.678 154.956 383.629
3433 1 62.0641 9.55464 593 93.4115 155.506 408.636
3434 0 62.073 10.0688 625 92.88 155.603 410.192
3435 0 65.1265 12.3606 805 98.5491 154.47 403.158
3436 0 65.0267 10.6264 691 104.227 155.027 407.7
3437 0 68.1251 11.0532 753 103.653 155.052 407.352
3438 0 69.0428 11.167 771 105.127 155.573 406.578
3439 0 72.0156 10.7338 773 106.79 155.366 405.873
3440 0 74.0209 10.9699 812 108.425 154.867 403.692
3441 0 76.0688 11.2924 859 109.253 155.01 401.345
3442 0 78.0363 11.7381 916 106.723 156.316 401.42
3443 0 82.1619 11.2217 922 108.062 156.039 400.518
3444 0 83.1704 11.6748 971 108.04 155.884 398.266
3445 0 87.2031 11.5019 1003 107.778 156.196 398.842
3446 0 89.0532 12.5768 1120 104.336 155.739 392.487
3447 0 94.1147 12.0173 1131 104.118 155.978 392.305
3448 1 46.0213 9.12621 420 97.4548 156.095 416.695
3449 0 47.026 9.37779 441 96.8662 156.673 415.848
3450 0 47.0614 9.47698 446 95.1345 157.363 414.516
3451 0 47.038 10.5872 498 99.8213 157.06 412.418
3452 0 48.0539 10.1344 487 98.6715 155.828 412.224
3453 0 50.0246 9.5553 478 99.9205 155.724 411.782
3454 0 51.0345 9.56215 488 99.791 155.178 410.959
3455 0 51.0177 9.80052 500 98.936 154.924 410.372
3456 0 54.0866 10.2428 554 99.1227 157.007 409.774
3457 0 53.11 10.4312 554 99.3032 156.188 407.731
3458 0 57.1136 10.9256 624 97.8974 156.014 406.784
3459 0 58.0726 11.1068 645 99.4512 156.767 405.496
3460 0 59.0939 10.5764 625 100.946 157.054 404.712
3461 0 60.0848 11.2674 677 100.287 156.91 404.208
3462 0 62.1442 11.8917 739 99.931 156.644 403.065
3463 0 63.0535 11.6251 733 100.374 156.261 402.317
3464 0 67.1028 11.3259 760 101.246 156.488 400.629
3465 0 67.07 11.8831 797 103.092 157.044 398.673
3466 0 72.109 11.4271 824 103.584 156.72 399.14
3467 0 72.159 12.126 875 103.798 157.792 400.102
3468 0 74.1571 12.3117 913 104.858 157.889 398.203
3469 0 78.2228 12.1831 953 105.979 156.796 394.563
3470 0 78.1503 12.3224 963 107.213 155.881 392.665
3471 1 37.0232 8.61621 319 102.238 157.803 415.683
3472 0 38.0226 8.73164 332 104.473 158.301 417.13
3473 0 43.0022 10.0692 433 99.3256 156.903 416.575
3474 0 43.0341 10.573 455 104.378 156.18 414.149
3475 0 44.0326 10.6739 470 105.723 156.67 414.37
3476 0 43.0094 10.7186 461 106.573 155.991 413.748
3477 0 46.0182 9.2572 426 111.354 156.392 412.246
3478 0 47.0242 9.52702 448 109.038 156.134 411.029
3479 0 49.0183 10.2819 504 105.962 156.46 409.885
3480 0 47.0474 10.2875 484 108.61 157.174 409.38
3481 0 51.0241 10.642 543 105.901 156.818 409.256
3482 0 51.0327 10.2091 521 106.9 156.608 408.052
3483 0 51.0125 10.2328 522 107.722 157.377 407.925
3484 0 54.0465 10.38 561 105.608 157.271 407.72
3485 0 54.031 10.3644 560 106.404 157.243 407.004
3486 0 54.0379 10.3446 559 105.605 157.705 406.284
3487 0 56.0269 10.2986 577 105.267 157.799 405.458
3488 0 58.0649 10.5744 614 104.974 157.461 404.267
3489 0 60.1414 10.4587 629 103.7 158.243 404.908
3490 0 62.0525 10.2172 634 104.246 157.792 403.028
3491 0 64.0658 10.3799 665 104.041 157.579 401.678
3492 0 66.0544 10.9304 722 101.053 158.024 400.891
3493 0 67.083 10.5392 707 101.68 158.042 399.772
3494 0 70.0464 11.1355 780 100.851 158.345 398.138
3495 0 72.0638 11.2817 813 100.707 158.247 398.117
3496 0 73.1268 10.4066 761 101.331 157.632 395.749
3497 0 75.1372 10.4209 783 102.282 157.429 396.148
3498 0 77.0325 10.8136 833 101.69 157.75 393.277
3499 0 80.1023 11.1233 891 100.8 158.422 392.685
3501 0 80.0823 11.1011 889 104.547 157.079 391.29
3502 0 85.0741 11.7309 998 103.398 156.329 391.069
3503 0 88.1005 11.8842 1047 103.268 157.653 389.644
3504 0 91.0743 11.529 1050 103.307 157.267 388.847
3505 0 94.1453 12.4807 1175 102.136 156.965 387.189
3506 0 94.1192 12.1973 1148 104.85 157.767 389.2
3507 0 101.103 12.2054 1234 102.699 157.975 386.782
3508 0 104.191 12.0643 1257 102.394 157.9 385.039
3509 0 109.272 12.6839 1386 100.47 157.754 383.051
3510 0 110.16 12.7633 1406 100.191 157.079 381.641
3511 1 58.0356 9.5631 555 92.4036 157.584 408.222
3512 0 58.0329 9.40845 546 93.4304 157.674 408.736
3513 0 60.1162 10.3466 622 101.759 156.587 409.421
3514 0 63.123 11.0895 700 100.057 156.683 407.346
3515 0 65.1186 11.026 718 99.5975 157.099 406.951
3516 0 68.0979 11.4247 778 98.4653 156.632 405.149
3517 0 70.1556 11.6455 817 98.1444 156.942 404.378
3518 0 71.1892 12.249 872 96.6984 156.665 403.484
3519 0 74.0999 12.0378 892 99.0202 156.712 402.723
3520 0 76.0922 11.5649 880 100.423 157.478 402.377
3521 0 78.1272 11.6605 911 100.368 156.46 401.249
3522 0 78.1313 12.1334 948 100.591 156.25 399.975
3523 0 83.1112 11.623 966 99.9752 156.827 398.409
3524 0 86.1922 12.0545 1039 98.7353 156.944 396.698
3525 0 87.1765 12.0101 1047 101.777 157.009 393.56
3526 0 90.1235 12.9156 1164 97.5799 157.136 391.794
3527 0 94.1197 12.346 1162 99.4002 157.739 390.073
3528 0 96.1737 12.0927 1163 98.2132 157.498 388.661
3529 1 51.0283 9.97485 509 95.4342 158.358 411.106
3530 0 53.0206 10.6939 567 95.9471 158.182 409.631
3531 0 55.0243 10.7407 591 96.89 158.03 408.966
3532 0 55.0489 10.4271 574 98.5749 156.693 407.819
3533 0 56.0615 10.6669 598 98.7876 157.045 407.36
3534 0 57.0427 10.4834 598 98.6271 157.244 405.973
3535 0 60.0364 10.7268 644 97.0295 156.275 404.537
3536 0 62.0485 11.0236 684 96.2339 156.472 403.371
3537 0 65.0707 11.1571 726 94.8719 156.406 402.547
3538 0 66.0444 10.9169 721 95.3162 156.528 400.623
3539 0 67.0875 10.9558 735 95.4531 156.856 400.644
3540 0 69.0294 11.1547 770 95.4468 156.416 399.692
3541 0 70.0357 10.7374 752 95.5572 157.826 400.158
3542 0 74.0506 11.195 829 94.0338 156.881 398.484
3543 0 76.0914 10.5794 805 96.4435 157.791 397.045
3544 0 78.0457 11.1858 873 95.2921 157.686 393.166
3545 0 79.0841 11.1274 880 95.5682 157.585 394.837
3546 0 83.0196 10.7204 890 95.3831 158.488 393.394
3547 0 83.068 10.3409 859 97.4971 158.207 391.108
3548 0 86.0402 10.9832 945 95.6 158.679 390.681
3549 0 87.0538 10.6371 926 98.1879 158.627 388.323
3550 0 90.053 10.938 985 97.9919 158.524 388.54
3551 0 92.0774 11.0233 1015 99.465 158.562 385.092
3552 0 97.1491 10.8905 1058 99.38 158.553 383.872
3553 0 99.051 11.3376 1123 100.416 158.988 381.065
3554 0 103.102 11.3673 1172 99.1561 158.972 380.114
3555 0 106.037 11.6092 1231 97.4257 158.556 377.6
3556 0 108.114 11.5064 1244 96.4598 158.864 373.793
3557 1 54.0357 10.1599 549 90.98 158.184 403.264
3558 0 54.0147 11.1266 601 92.005 159.735 401.592
3559 0 57.0511 10.8499 619 93.9661 158.864 403.103
3560 0 57.0537 10.8319 618 95.0275 159.519 400.095
3561 0 62.0819 11.066 687 93.3319 159.349 399.226
3562 0 65.0351 10.7634 700 93.8886 158.821 398.234
3563 0 66.085 10.5319 696 93.4497 158.782 396.282
3564 0 65.098 10.8298 705 93.7078 160.095 395.4
3565 0 69.0952 10.8691 751 92.4527 160.033 394.783
3566 0 72.0878 11.3057 815 90.7755 159.422 392.618
3567 0 74.1443 11.8418 878 91.3189 159.92 391.549
3568 0 77.0738 11.8717 915 90.7137 159.61 389.255
3569 0 78.0764 11.9114 930 90.071 159.869 389.302
3570 0 81.1172 12.4018 1006 89.2276 159.941 387.515
3571 0 82.128 12.2614 1007 89.2224 160.584 385.128
3572 1 44.034 9.74247 429 87.3893 160.268 406.033
3573 0 48.0109 10.4768 503 83.3082 159.938 404.408
3574 0 49.0118 10.6913 524 82.334 159.511 403.824
3575 0 47.0181 10.7618 506 84.7589 159.978 403.504
3576 0 50.0146 11.0768 554 85.9188 159.708 402.993
3577 0 51.042 10.7167 547 87.6179 160.296 403.377
3578 0 50.0196 9.63622 482 89.7593 160.641 404.095
3579 0 53.0306 10.6919 567 87.6755 160.804 403.788
3580 0 54.1025 10.6465 576 88.066 160.483 403.641
3581 0 56.0983 10.8738 610 87.0344 160.305 403.859
3582 0 57.017 11.137 635 88.3417 161.387 403.666
3583 0 59.0256 11.3849 672 88.0372 160.126 402.661
3584 0 60.0305 11.161 670 89.4224 160.788 401.415
3585 0 62.0641 11.4559 711 89.6301 160.707 400.845
3586 0 62.0725 11.5671 718 90.1518 161.245 398.089
3587 0 66.0328 12.0243 794 89.029 160.812 396.562
3588 0 67.0458 11.1118 745 91.7141 161.089 395.944
3589 0 70.074 10.9313 766 91.1554 161.023 397.308
3590 0 70.0208 11.0824 776 91.8235 160.947 396.022
3591 0 75.0374 11.2077 841 90.9679 161.029 395.235
3592 0 75.0389 11.4207 857 91.2812 161.139 393.868
3593 0 76.0141 10.6428 809 94.0803 161.288 392.93
3594 0 80.043 11.3314 907 93.1643 161.925 390.097
3595 0 82.0661 10.9546 899 94.6096 161.775 390.079
3596 0 85.0344 11.6188 988 92.8937 161.877 387.735
3597 0 89.1106 11.3342 1010 93.504 162.709 386.243
3598 1 43.0245 9.78513 421 84.2494 161.66 410.048
3599 0 45.1055 10.3535 467 83.03 161.683 409.435
3600 0 46.0209 11.0819 510 90.2902 162.427 409.422
3601 0 49.0588 10.7014 525 93.8305 161.642 410.109
3602 0 49.0428 10.1748 499 96.4248 161.531 410.948
3603 0 50.0542 10.8482 543 94.2449 161.82 409.895
3604 0 50.0823 11.3613 569 93.5782 160.482 408.415
3605 0 51.0515 10.8518 554 95.6859 160.787 408.437
3606 0 52.0519 11.1427 580 94.5172 160.867 407.669
3607 0 54.037 11.122 601 94.3627 160.441 406.942
3608 0 56.0758 11.5915 650 93.8215 160.285 405.6
3609 0 58.0534 11.6789 678 94.0649 160.398 404.136
3610 0 62.0441 12.4105 770 92.4429 159.994 403.688
3611 0 62.0629 11.6817 725 94.5903 159.655 402.772
3612 0 63.0663 11.6385 734 95.5082 159.495 401.379
3613 0 66.0926 12.1345 802 93.98 159.955 400.758
3614 0 68.0767 12.3096 838 95.7768 158.993 399.909
3615 0 71.0756 12.7611 907 96.2492 159.373 398.6
3616 0 72.0752 12.709 916 99.3515 159.115 398.563
3617 0 76.0762 12.7767 972 97.8498 158.999 398.656
3618 0 77.0836 12.7524 983 99.7111 159.195 396.838
3619 0 80.0439 13.5925 1088 98.171 159.329 395.251
3620 0 83.0475 13.2936 1104 99.0788 158.454 395.076
3621 0 86.0677 14.0703 1211 98.9273 158.008 393.103
3622 0 89.0943 13.525 1205 100.193 158.137 392.967
3623 0 90.0555 13.103 1180 103.107 158.543 393.346
3624 1 47.0127 9.9973 470 103.051 158.404 414.779
3625 0 50.0168 11.1962 560 95.6554 157.902 414.686
3626 0 50.0178 11.076 554 88.3989 158.908 413.769
3627 0 50.0208 10.7755 539 89.7199 158.256 413.353
3628 0 51.0244 11.0143 562 89.9822 157.706 413.833
3629 0 52.0312 10.9934 572 90.6818 157.806 414.299
3630 0 55.0241 11.4495 630 89.7635 157.802 411.99
3631 0 56.0288 10.5838 593 91.5076 158.054 412.491
3632 0 60.039 11.0595 664 88.9337 158.065 411.673
3633 0 60.0422 11.1255 668 90.753 157.578 408.57
3634 0 62.0392 10.7674 668 91.7545 157.237 407.771
3635 0 64.0237 11.3083 724 90.9544 156.862 407.45
3636 0 66.076 10.609 701 93.699 157.103 405.884
3637 0 65.1203 10.7493 700 94.3671 156.877 406.013
3638 0 69.0296 11.4588 791 92.4741 156.843 405.169
3639 0 71.0622 10.9482 778 94.8573 157.464 403.407
3640 0 74.0625 11.3688 842 93.4442 156.481 401.678
3641 0 76.0577 11.11 845 94.245 156.548 399.271
3642 0 77.0648 10.7183 826 94.3971 157.07 399.001
3643 0 80.0557 10.5926 848 93.6309 156.883 399.599
3644 1 44.0084 10.3389 455 88.5297 156.167 417.013
3645 0 43.0425 10.6871 460 89.6435 156.298 415.722
3646 0 44.0117 10.1109 445 94.0899 155.371 415.854
3647 0 45.0564 11.0528 498 91.6044 156.398 415.321
3648 0 47.0197 11.2719 530 94.1453 156.702 413.813
3649 0 48.0274 10.2441 492 95.1911 156.833 412.581
3650 0 48.0432 10.5738 508 95.0354 157.083 412.571
3651 0 48.0594 10.4454 502 95.4721 158.004 410.799
3652 0 53.087 10.3792 551 94.0381 157.966 410.851
3653 0 54.0494 11.434 618 93.5728 157.887 409.353
3654 0 53.1115 10.9769 583 96.6587 158.196 408.247
3655 0 54.1455 11.0813 600 96.82 158.072 407.778
3656 0 59.0554 11.6839 690 94.6275 157.743 406.483
3657 0 60.0682 11.3538 682 97.368 158.466 405.843
3658 0 62.1328 11.8617 737 96.8643 158.374 404.353
3659 0 62.115 11.2694 700 99.8714 158.357 403.393
3660 0 67.1334 11.3207 760 98.7658 158.695 401.654
3661 0 68.1403 11.5497 787 99.413 159.067 400.557
3662 0 72.1085 11.8433 854 97.5293 159.225 399.199
3663 0 74.0938 11.337 840 100.149 159.515 397.224
3664 0 77.1948 11.9956 926 97.5065 159.563 396.502
3665 1 39.0367 10.1187 395 93.6 159.603 414.838
3666 0 40.0404 10.889 436 93.8853 159.823 413.716
3667 0 41.0214 11.3599 466 93.427 158.974 413.337
3668 0 43.0673 10.4256 449 99.2628 158.256 413.118
3669 0 43.03 11.1085 478 98.7301 158.669 412.73
3670 0 44.0407 10.8082 476 98.6134 158.351 412.015
3671 0 45.021 11.8611 534 96.7715 157.985 411.301
3672 0 48.0747 11.8774 571 96.2697 158.299 411.135
3673 0 49.0534 10.8657 533 99.2495 158.614 409.827
3674 0 50.0523 11.448 573 98.7766 158.127 409.878
3675 0 50.0818 12.1202 607 98.4135 158.04 409.316
3676 0 50.0317 11.1529 558 101.421 157.909 409.478
3677 0 53.0967 11.9028 632 99.443 158.13 408.767
3678 0 54.0683 12.5027 676 97.2796 158.459 410.072
3679 0 56.0581 12.6476 709 96.3061 158.583 408.783
3680 0 59.0692 12.7308 752 95.2779 158.386 407.872
3681 0 61.1001 12.5859 769 94.1287 157.866 407.04
3682 0 59.0564 12.5981 744 97.5255 157.081 407.278
3683 0 61.0633 12.4461 760 96.9697 157.664 406.264
3684 0 64.0903 12.3732 793 96.1349 157.696 404.839
3685 0 65.0721 12.4631 811 97.5623 157.85 404.901
3686 0 65.0473 12.1604 791 98.9431 157.876 404.814
3687 0 68.0455 12.5798 856 97.0876 157.504 403.097
3688 0 71.0486 12.3718 879 96.2696 157.902 402.132
3689 0 73.0408 12.9791 948 94.7985 158.495 402.035
3690 0 75.0314 12.1416 911 98.4709 157.585 402.211
3691 0 77.0488 12.9918 1001 97.0919 158.047 400.382
3692 0 80.1103 12.4953 1001 98.5375 157.106 398.365
3693 1 39.0468 10.4746 409 96.8582 157.489 418.633
3694 0 42.0165 10.9005 458 95.3799 157.607 417.164
3695 0 41.0322 11.6007 476 97.1891 157.456 417.088
3696 0 44.0105 12.0199 529 95.8526 157.346 417.096
3697 0 45.0473 12.831 578 96.4533 157.853 413.282
3698 0 46.0669 12.916 595 99.7261 157.758 416.768
3699 0 48.0331 13.1784 633 98.6414 157 415.599
3700 0 50.0747 12.721 637 100.068 157.878 415.487
3701 0 50.0599 12.9645 649 100.225 157.844 414.758
3702 0 52.0587 13.6384 710 97.6296 157.192 414.014
3703 0 53.122 13.2713 705 98.5404 157.332 414.009
3704 0 52.0644 13.1952 687 98.6317 156.937 414.413
3705 0 54.0575 13.8556 749 97.259 156.634 413.263
3706 0 57.0981 13.2929 759 99.0079 157.335 411.443
3707 0 58.1317 13.5554 788 99.0647 156.863 411.288
3708 0 61.071 13.4597 822 97.6472 156.423 411.462
3709 0 61.1179 13.5639 829 98.1327 156.883 410.028
3710 0 63.0996 13.9145 878 97.3144 157.023 409.222
3711 0 65.0554 14.0496 914 95.9737 156.91 408.175
3712 0 70.0262 14.2804 1000 93.071 156.322 407.198
3713 0 71.0424 13.2034 938 95.7036 156.155 407.462
3714 0 73.0689 13.152 961 97.3132 156.471 405.711
3715 0 74.0679 12.6505 937 100.552 156.473 404.338
3716 0 77.1091 12.7871 986 100.961 156.294 402.672
3717 0 78.1149 13.1985 1031 102.115 156.086 401.612
3718 0 81.0761 13.1975 1070 104.007 156.979 400.773
3719 0 83.0983 13.839 1150 103.77 156.803 400.059
3720 0 85.0724 13.6119 1158 105.326 157.236 398.184
3721 0 88.1063 14.0285 1236 103.862 156.958 396.79
3722 0 92.1411 13.6204 1255 104.89 156.894 394.445
3723 0 94.1071 13.3252 1254 108.68 156.819 394.172
3724 0 97.0922 13.7395 1334 107.294 156.654 393.149
3725 0 100.125 12.9239 1294 110.611 157.356 392.049
3726 0 104.134 13.3962 1395 109.776 156.133 388.618
3727 1 51.0715 12.6685 647 121.581 156.924 412.895
3728 0 52.0506 13.5061 703 120.425 156.744 411.667
3729 0 55.0306 13.647 751 118.083 156.687 410.963
3730 0 55.06 13.8939 765 117.57 156.112 410.156
3731 0 57.0361 14.1139 805 117.629 156.872 408.306
3732 0 59.0654 14.5263 858 115.825 157.133 407.797
3733 0 61.052 14.3976 879 116.259 157.058 406.863
3734 0 66.0307 12.9485 855 119.27 156.489 406.419
3735 0 66.054 14.0188 926 117.653 157.129 404.864
3736 0 66.0377 14.7643 975 115.631 157.105 405.59
3737 0 68.0247 14.9357 1016 114.742 156.869 404.912
3738 0 69.0398 14.6437 1011 116.717 156.787 404.324
3739 0 73.038 14.7321 1076 115.304 157.046 403.185
3740 0 76.0525 14.9108 1134 114.131 156.786 401.219
3741 0 76.0576 14.5811 1109 116.76 157.142 399.656
3742 0 76.0816 14.7342 1121 118.132 157.227 398.845
3743 0 83.0931 15.1517 1259 115.001 157.717 397.248
3744 0 83.1132 14.9194 1240 117.33 157.344 396.128
3745 0 87.0452 15.4173 1342 115.169 157.534 394.071
3746 0 88.0837 15.4285 1359 117.408 157.403 393.701
3747 0 93.0416 15.5092 1443 115.015 157.232 392.09
3748 0 96.0894 14.8924 1431 118.649 157.066 391.149
3749 0 97.0656 14.8971 1446 119.324 156.864 390.019
3750 0 102.067 15.4997 1582 115.575 156.421 389.064
3751 0 104.032 15.0146 1562 118.166 156.739 386.27
3752 0 109.081 14.8513 1620 118.477 156.73 385.32
3753 0 111.077 14.8005 1644 120.406 156.175 383.967
3754 0 117.061 15.163 1775 116.071 156.73 381.909
3755 1 58.0348 13.6125 790 128.896 156.657 406.648
3756 0 58.0147 13.1174 761 133.691 157.405 404.796
3757 0 62.0445 14.1834 880 127.585 156.922 404.889
3758 0 64.0321 13.9149 891 128.983 157.451 403.808
3759 0 64.0247 14.6662 939 129.433 157.321 402.915
3760 0 65.0796 14.5053 944 131.79 156.792 401.974
3761 0 69.0728 14.13 976 133.345 157.12 402.018
3762 0 68.055 14.3119 974 134.302 157.764 402.321
3763 0 71.0599 14.0304 997 136.67 157.116 400.355
3764 0 72.0347 14.2431 1026 136.169 157.331 400.29
3765 0 75.0861 14.49 1088 137.286 157.137 398.322
3766 0 79.0643 14.836 1173 136.298 156.936 397.791
3767 0 81.0482 15.1515 1228 136.069 157.221 396.511
3768 0 81.0615 14.7666 1197 139.701 156.664 396.776
3769 0 84.0288 14.9116 1253 139.014 157.285 395.751
3770 0 88.098 14.9493 1317 135.909 157.199 396.219
3771 0 89.0908 14.7827 1317 137.627 157.475 394.809
3772 0 91.1298 14.9457 1362 139.962 157.906 394.221
3773 0 94.1257 14.98 1410 138.133 157.606 391.939
3774 0 99.0812 15.1795 1504 136.202 158.23 390.793
3775 0 99.1012 14.8737 1474 138.819 157.953 388.563
3776 0 105.1 15.3474 1613 134.673 158.271 384.308
3777 0 111.145 15.3943 1711 131.804 158.278 381.989
3778 0 114.07 15.0435 1716 132.378 158.18 381.387
3779 0 118.136 14.6103 1726 132.163 157.288 380.165
3780 1 66.0543 11.4905 759 130.353 157.671 408.531
3781 0 68.1258 12.4329 847 125.579 156.798 404.738
3782 0 70.1016 12.3678 867 126.413 157.96 405.646
3783 0 70.0466 13.3483 935 125.343 157.767 405.38
3784 0 73.0508 12.7583 932 124.27 157.96 405.345
3785 0 77.0544 13.3153 1026 120.789 157.62 403.79
3786 0 78.0545 12.4656 973 123.475 157.644 402.897
3787 0 81.051 12.5353 1016 122.91 157.34 404.051
3788 0 84.0421 13.1125 1102 119.76 157.734 404.43
3789 0 85.0666 12.4608 1060 121.585 157.072 405.18
3790 0 88.0527 12.5266 1103 121.141 157.678 403.679
3791 0 91.0718 12.7043 1157 120.646 157.213 404.289
3792 0 93.0792 12.5055 1164 120.323 157.714 404.284
3793 0 97.0388 13.0463 1266 116.813 157.743 404.664
3794 0 98.0539 12.3605 1212 119.01 157.875 404.633
3795 0 101.097 11.8402 1197 113.009 157.783 406.538
3796 0 108.112 12.1911 1318 108.815 157.716 404.341
3797 0 111.072 11.7761 1308 112.696 157.429 399.511
3798 1 61.0693 9.75941 596 109.512 157.653 424.456
3799 0 62.0823 10.2284 635 106.953 157.899 425.561
3800 0 64.0972 10.4061 667 101.382 157.637 423.691
3801 0 67.1065 10.3865 697 102.088 157.214 424.013
3802 0 68.0763 10.3413 704 101.754 157.578 424.821
3803 0 70.1087 10.6977 750 102.033 158.048 422.965
3804 0 73.1209 10.4074 761 105.461 159.081 421.908
3805 0 72.1192 10.0112 722 107.169 158.806 424.827
3806 0 74.1294 9.57785 710 104.099 160.013 424.777
3807 0 75.0597 9.11275 684 105.367 160.749 422.424
3808 0 79.0865 10.0776 797 102.265 160.343 424.197
3809 0 81.0847 10.2115 828 102.586 159.727 422.791
3810 0 81.0984 9.24803 750 105.023 159.668 424.832
3811 0 85.1526 9.65326 822 104.364 159.539 423.485
3812 0 88.1134 9.56721 843 105.631 159.205 423.795
3813 0 86.1228 9.35873 806 105.918 159.275 425.53
3814 0 90.1962 8.80303 794 105.472 159.029 428.892
3815 0 93.1652 9.20945 858 105.065 159.056 428.172
3816 0 99.1824 9.3565 928 103.973 159.002 428.266
3817 0 101.296 8.47022 858 105.256 159.584 427.204
3818 0 104.163 9.25474 964 103.565 159.373 426.519
3819 0 106.278 8.58128 912 105.22 159.34 425.804
3820 0 114.198 8.92312 1019 103.77 159.349 425.223
3821 0 113.283 8.88924 1007 104.176 159.385 419.175
3822 0 118.221 9.45684 1118 102.983 158.994 413.014
3823 1 129.213 9.73589 1258 100.242 159.838 415.247
3824 0 132.172 10.0627 1330 100.911 160.148 412.253
3825 0 138.246 10.503 1452 100.497 159.656 410.237
3826 0 141.196 11.4663 1619 88.328 158.755 411.721
3827 0 148.238 11.3331 1680 100.289 158.97 406.08
3828 0 153.258 11.7057 1794 100.003 159.189 403.642
3829 0 157.309 11.3789 1790 101.873 158.867 399.808
3830 0 162.264 11.4567 1859 102.148 158.774 397.289
3831 0 166.301 11.6596 1939 102.123 159.026 394.93
3832 0 169.247 11.6989 1980 103.039 159.295 391.754
3833 0 177.259 12.1235 2149 102.168 158.711 389.952
3834 0 181.275 11.6673 2115 104 158.534 387.833
3835 0 186.173 11.8062 2198 104.455 158.341 385.909
3836 0 194.273 12.2457 2379 102.879 158.646 383.513
3837 0 201.307 12.3145 2479 103.262 159.029 381.416
3838 0 207.282 12.3407 2558 103.238 158.833 377.755
3839 0 214.384 12.6409 2710 102.802 158.984 372.577
3840 0 221.257 12.4154 2747 104.899 159.216 365.297
3841 1 44.0958 8.05065 355 76.7606 159.693 463.349
3842 0 45.1862 8.89653 402 76.7214 159.485 462.366
3843 0 45.1319 8.53055 385 78.5818 159.301 463.551
3844 0 49.1055 8.69556 427 77.9344 159.178 463.63
3845 0 48.1417 8.26726 398 81.4623 159.59 462.44
3846 0 50.1117 8.97993 450 80.4378 158.9 463.009
3847 0 52.1496 9.43439 492 80.4695 158.228 461.122
3848 0 52.1075 9.05819 472 82.8136 159.275 461.805
3849 0 52.099 7.48575 390 90.4615 158.728 462.297
3850 0 54.1031 8.55774 463 89.5097 157.933 461.657
3851 0 59.0823 8.85206 523 87.7763 157.696 454.977
3852 0 60.0613 8.70777 523 90.5258 157.757 451.252
3853 0 58.0585 8.7498 508 92.2835 157.943 444.669
