time division length width area intensity CMx CMy
0 0 38.0424 11.8026 449 136.506 392.007 502
1 0 38.0121 12.0751 459 134.987 392.399 500.257
2 0 39.0124 12.3038 480 132.598 391.994 499.925
3 0 40.0176 12.1197 485 131.489 392.068 499.567
4 0 43.0098 12.9505 557 124.865 392.452 499.196
5 0 44.0072 13.0888 576 121.745 393.203 499.092
6 0 44.0112 13.5647 597 120.434 392.988 497.911
7 0 46.0152 13.6477 628 119.037 393.325 497.006
8 0 50.0246 13.6333 682 114.287 393.425 496.73
9 0 50.0334 14.0906 705 112.315 392.772 496.556
10 0 52.0214 13.8597 721 111.558 392.119 495.796
11 0 54.0306 13.8995 751 109.393 392.581 494.674
12 0 55.0584 13.7854 759 108.667 392.551 494.727
13 0 56.0308 14.028 786 107.962 392.008 492.924
14 0 59.0706 13.9325 823 106.993 391.228 492.354
15 0 60.0804 13.8814 834 106.018 392.229 491.546
16 0 61.0287 14.0098 855 105.342 391.995 491.186
17 0 63.0277 14.2953 901 103.109 391.846 490.897
18 0 66.0418 14.1123 932 102.139 391.676 489.774
19 0 67.0911 13.6084 913 103.634 391.327 489.131
20 0 71.0519 14.9187 1060 98.7557 391.155 488.258
21 0 73.0233 14.7076 1074 98.1862 390.183 487.271
22 0 73.0697 14.0961 1030 100.936 390.365 486.384
23 0 78.0474 13.9402 1088 98.9798 390.474 485.259
24 0 79.0488 14.0673 1112 98.1538 390.317 482.85
25 0 83.035 13.7773 1144 97.25 390.656 481.89
26 0 83.0981 13.4901 1121 97.6673 390.62 480.533
27 0 88.0388 13.1419 1157 96.3881 391.016 479.026
28 0 90.0693 12.8013 1153 96.0729 390.874 478.239
29 0 93.0648 12.7438 1186 95.113 390.899 474.937
30 0 98.1072 13.791 1353 92.3296 390.879 474.345
31 0 100.061 13.3519 1336 94.2537 390.368 473.499
32 1 54.0518 12.3585 668 92.4027 390.274 497.524
33 0 57.0438 12.6745 723 92.5698 390.432 495.068
34 0 58.0439 13.2658 770 91.3935 390.299 494.256
35 0 58.019 12.3752 718 87.2089 390.386 495.011
36 0 62.0325 13.2189 820 83.878 389.92 494.35
37 0 63.0155 12.6953 800 85.2738 390.319 493.079
38 0 67.024 12.9506 868 84.4286 390.218 493.171
39 0 68.0257 13.5684 923 85.1885 390.948 491.439
40 0 72.0586 13.4196 967 85.4302 390.962 489.119
41 0 73.0187 13.2569 968 87.0403 390.406 488.3
42 0 75.0577 13.2032 991 89.6075 390.723 486.42
43 0 79.02 14.0724 1112 87.2572 390.341 484.788
44 0 81.1081 13.4265 1089 91.5537 389.903 481.943
45 0 86.0495 13.7247 1181 89.3175 390.508 481.629
46 0 89.0356 14.1067 1256 90.1895 389.854 480.149
47 0 91.0975 13.4032 1221 91.5422 390.704 477.71
48 1 49.0248 11.6064 569 88.6924 390.39 499.489
49 0 50.0425 11.77 589 88.2988 390.54 498.486
50 0 53.0525 12.384 657 81.3607 390.936 497.248
51 0 52.0661 12.1192 631 80.5578 391.067 497.845
52 0 51.0847 11.8822 607 80.397 390.432 499.367
53 0 54.0542 11.803 638 79.6223 390.456 497.719
54 0 57.0722 12.125 692 77.5188 390.066 497.095
55 0 59.0646 11.7498 694 77.9625 390.863 495.497
56 0 59.0418 12.6351 746 75.7976 390.559 495.216
57 0 60.0855 11.8997 715 76.186 391.319 494.782
58 0 64.1828 11.81 758 74.1069 391.913 495.152
59 0 66.0848 11.4096 754 74.1645 390.727 493.08
60 0 69.039 11.6891 807 73.1908 391.116 491.932
61 0 73.1486 12.126 887 72.7294 391.737 490.522
62 0 75.1035 12.1965 916 73.5022 390.972 488.105
63 0 78.0646 12.5921 983 72.5168 390.612 487.177
64 0 80.1249 11.8565 950 74.3653 390.514 485.697
65 0 82.0744 12.2937 1009 73.9851 391.429 484.611
66 0 87.1015 11.9286 1039 73.8662 391.364 484.115
67 0 88.1056 11.9289 1051 75.8497 391.17 481.873
68 0 91.1428 12.0141 1095 75.5342 391.08 479.442
69 0 95.0722 12.3695 1176 73.9209 391.472 480.624
70 0 96.1306 11.3491 1091 76.2933 391.77 478.833
71 1 53.0578 11.9492 634 74.1972 391.677 500.953
72 0 54.0496 12.803 692 76.6546 392.053 498.152
73 0 55.0824 12.7627 703 74.7824 391.932 498.242
74 0 51.0622 11.437 584 74.4692 391.252 501.173
75 0 54.0331 12.0297 650 73.6769 391.877 499.491
76 0 55.0664 10.9141 601 75.4609 391.221 497
77 0 58.0243 11.3229 657 74.8478 391.648 496.352
78 0 59.0289 11.5028 679 74.7423 391.804 496.165
79 0 63.0674 12.1299 765 72.9895 391.523 495.277
80 0 64.0169 12.3093 788 74.1815 392.237 493.784
81 0 66.1165 11.9335 789 75.7478 391.83 493.24
82 0 68.0673 11.7825 802 76.6995 391.759 492.403
83 0 70.0675 12.1169 849 75.9976 391.286 492.196
84 0 73.0202 11.9282 871 76.651 391.75 488.974
85 0 77.1039 12.8268 989 73.7897 391.588 489.63
86 0 78.0786 12.6027 984 76.0549 391.809 486.82
87 0 80.0451 12.7303 1019 75.9529 392.352 486.843
88 0 83.1323 12.5102 1040 76.4837 392.213 483.988
89 0 87.0975 13.571 1182 75.0448 391.447 483.225
90 0 91.146 13.5168 1232 79.9756 391.952 480.786
91 0 93.1789 12.7497 1188 81.734 391.498 479.678
92 0 96.1097 13.1516 1264 80.9359 391.839 477.381
93 0 98.1954 12.8417 1261 82.5099 391.762 476.553
94 0 103.092 13.1436 1355 81.8 391.969 475.939
95 1 55.0536 11.8793 654 80.5168 391.471 498.722
96 0 56.0664 11.9323 669 80.136 391.65 498.048
97 0 59.0964 12.7757 755 77.947 391.119 496.895
98 0 61.0517 12.8252 783 79.6092 391.382 495.003
99 0 62.0975 13.5432 841 74.264 390.76 495.111
100 0 65.0285 13.5633 882 75.2041 391.172 493.693
101 0 67.0382 13.0075 872 77.2466 391.245 492.44
102 0 68.0182 12.6143 858 79.2739 390.987 491.26
103 0 70.0397 13.3639 936 78.0021 391.347 490.303
104 0 74.0495 13.4505 996 78.6637 391.48 489.649
105 0 77.0482 13.9912 1078 86.8033 391.313 486.596
106 0 80.0276 13.1455 1052 89.2338 391.003 484.997
107 0 81.0324 13.5501 1098 89.4299 391.271 484.78
108 0 84.0294 13.5429 1138 89.3497 391.315 482.395
109 0 86.0621 13.4438 1157 90.688 390.825 480.727
110 0 90.133 14.2567 1285 88.2809 391.147 478.588
111 0 91.1281 13.5194 1232 91.414 390.723 475.943
112 0 95.1554 14.7023 1399 87.2116 391.613 475.67
113 0 94.1378 13.5015 1271 93.0268 391.371 473.401
114 0 99.2182 14.5135 1440 90.7715 391.542 471.774
115 0 100.281 13.7913 1383 93.6876 390.656 469.522
116 0 103.191 13.7608 1420 92.4859 391.632 471.337
117 1 54.0936 11.3322 613 91.7993 391.385 496.455
118 0 55.0303 11.6663 642 91.028 391.885 495.721
119 0 58.0138 12.0661 700 89.9857 391.629 496.217
120 0 58.0529 12.8159 744 88.8562 390.868 494.61
121 0 58.0557 12.0746 701 81.7646 390.595 496.86
122 0 59.0271 11.8251 698 83.9169 391.122 495.054
123 0 62.0202 11.9961 744 83.6317 392.09 494.874
124 0 65.0623 12.2959 800 84.0762 392.818 493.794
125 0 65.0623 12.3113 801 149.546 392.818 493.727
126 0 70.0258 12.681 888 80.3356 392.252 491.445
127 0 71.0304 12.192 866 83.0935 392.127 490.706
128 0 76.0901 13.3394 1015 81.7576 391.739 488.345
129 0 79.0518 13.1939 1043 84.1256 391.568 486.795
130 0 81.0441 13.3261 1080 86.0685 391.261 485.484
131 0 83.1038 12.9356 1075 93.3507 391.177 482.913
132 0 88.1524 13.091 1154 91.6127 391.827 481.281
133 0 89.108 13.3882 1193 89.793 392.02 479.425
134 0 92.0719 12.8812 1186 89.8718 392.095 479.606
135 0 96.0555 13.055 1254 88.7321 392.225 477.931
136 0 99.1378 12.6894 1258 88.7186 392.355 476.233
137 0 102.183 12.321 1259 89.027 391.857 475.339
138 1 55.0564 11.6245 640 81.4906 391.345 499.728
139 0 54.0811 11.1869 605 83.3818 391.081 498.94
140 0 56.0483 11.6507 653 80.5972 390.567 499.213
141 0 56.0294 11.7617 659 80.2519 390.888 497.219
142 0 60.0413 12.3582 742 77.7453 391.093 496.896
143 0 62.0469 12.1037 751 79.2597 391.328 495.442
144 0 63.0441 12.3088 776 79.4446 391.416 494.122
145 0 63.1817 11.6964 739 81.4438 391.194 494.245
146 0 68.1235 12.1837 830 87.2663 391.223 492.486
147 0 71.1247 12.1055 861 85.9036 390.775 490.555
148 0 72.1403 12.2262 882 85.2007 391.007 490.184
149 0 74.0686 12.1779 902 85.3459 390.953 489.338
150 0 76.0716 12.3173 937 85.5443 391.479 488.142
151 0 79.1097 12.2488 969 84.805 390.724 485.37
152 0 80.0824 11.8128 946 85.8763 390.734 485.684
153 0 83.1284 11.4642 953 88.4187 390.789 482.119
154 0 85.0837 12 1021 87.8071 390.936 480.779
155 0 88.174 11.3979 1005 88.3323 391.013 480.843
156 0 91.202 12.1818 1111 86.9973 391.069 479.442
157 0 94.1696 11.7235 1104 89.1241 390.904 476.796
158 0 97.1093 11.9453 1160 90.8931 390.326 476.01
159 0 101.103 11.9086 1204 87.3248 390.517 473.381
160 0 104.131 11.8793 1237 89.9353 390.856 471.122
161 0 108.166 12.1849 1318 89.5941 390.318 469.146
162 0 111.151 12.3076 1368 89.9247 389.936 469.476
163 0 116.11 12.0662 1401 91.167 390.383 468.633
164 0 118.144 12.7218 1503 89.8703 390.496 463.711
165 0 122.169 12.2126 1492 90.9558 390.345 462.618
166 1 65.0756 11.7402 764 91.466 389.827 489.586
167 0 67.1762 12.6682 851 89.8578 389.924 488.334
168 0 68.0868 12.161 828 91.1618 390.257 485.973
169 0 71.0415 12.2182 868 90.4862 390.895 484.317
170 0 72.1045 12.4958 901 89.7347 391.245 483.527
171 0 74.0562 12.3285 913 89.1566 391.912 481.337
172 0 76.0513 12.2812 934 87.4946 391.41 480.968
173 0 78.0629 12.1312 947 86.3981 391.331 478.087
174 0 79.0505 12.3845 979 87.0705 391.433 476.931
175 0 82.1116 11.9593 982 83.5967 390.036 479.324
176 0 85.0872 12.6811 1079 82.2539 389.863 477.58
177 0 89.0959 12.5034 1114 80.8743 389.947 476.437
178 0 91.1517 11.6838 1065 82.6028 390.165 476.598
179 0 93.1563 12.0657 1124 81.8879 390.327 474.529
180 0 96.0541 12.191 1171 80.0393 391.073 472.817
181 0 98.175 11.8666 1165 80.4953 391.237 469.907
182 0 102.08 11.8338 1208 78.7492 390.25 469.27
183 0 105.037 11.4531 1203 79.3774 390.968 469.232
184 0 108.123 11.9031 1287 78.5571 390.443 465.442
185 0 112.119 11.791 1322 80.8533 391.311 458.939
186 0 116.128 10.8931 1265 83.0577 390.92 458.912
187 0 119.057 10.3731 1235 83.5992 391.082 457.198
188 0 125.118 11.1575 1396 81.4857 391.383 454.857
189 0 132.164 11.1831 1478 83.3917 391.777 459.041
190 0 135.195 11.8125 1597 84.6412 391.348 453.53
191 0 139.239 12.08 1682 84.8906 391.057 453.754
192 1 75.1024 11.9304 896 82.4107 389.746 484.705
193 0 78.1325 12.2612 958 81.6159 389.2 483.989
194 0 78.1383 12.3371 964 81.6878 389.214 483.376
195 0 81.1165 11.9458 969 83.322 389.475 481.007
196 0 84.1489 12.9651 1091 81.4638 389.148 479.248
197 0 83.1476 11.9306 992 85.1048 389.304 478.057
198 0 88.0807 12.8859 1135 81.5683 389.665 477.805
199 0 92.1754 13.0946 1207 81.0721 389.717 477.461
200 0 95.0942 12.8504 1222 81.1318 390.286 476.537
201 0 96.0716 12.6676 1217 83.6138 389.635 474.944
202 0 99.0759 12.8588 1274 105.541 389.883 473.154
203 0 103.103 12.8125 1321 103.837 389.768 471.948
204 0 104.088 12.4221 1293 106.098 390.319 470.495
205 0 106.117 12.7124 1349 105.599 389.396 469.357
206 0 111.107 12.4925 1388 103.909 389.924 468.963
207 0 113.075 12.4696 1410 103.106 389.751 465.824
208 0 117.052 12.0117 1406 94.9445 389.844 466.117
209 0 119.045 12.1803 1450 96.0448 389.544 461.357
210 0 123.184 12.3879 1526 95.4738 389.817 460.439
211 0 128.083 11.9063 1525 97.0892 389.954 459.145
212 0 132.103 12.1269 1602 99.1935 390.301 456.921
213 0 138.108 12.2006 1685 95.9953 389.98 454.446
214 0 141.086 11.9572 1687 98.0694 390.295 449.296
215 0 146.127 11.4763 1677 98.5373 390.224 449.934
216 0 152.192 12.7602 1942 95.4979 389.907 448.356
217 0 155.154 12.0848 1875 97.7547 390.898 445.595
218 0 155.157 12.0974 1877 144.149 391.917 445.398
219 0 166.186 12.0828 2008 99.617 389.621 438.925
220 0 172.129 12.3919 2133 99.4876 389.542 436.144
221 0 176.111 11.5722 2038 99.5711 389.927 435.957
222 1 103.106 11.8518 1222 96.5352 389.534 470.381
223 0 104.076 11.7894 1227 97.2657 390.073 466.919
224 0 103.104 11.4641 1182 97.0161 390.409 463.837
225 0 104.07 10.9638 1141 97.1166 390.069 460.092
226 0 112.038 11.4515 1283 96.4723 389.665 461.081
227 0 119.079 12.5295 1492 96.3733 388.708 462.17
228 0 122.112 12.554 1533 96.6941 389.306 460.918
229 0 127.122 12.2796 1561 94.2229 388.928 460.168
230 1 67.0327 10.6664 715 91.6098 388.65 490.702
231 0 68.0249 11.1724 760 90.6737 389.267 489.98
232 0 69.0658 11.7424 811 89.9026 389.668 488.321
233 0 72.0713 12.2795 885 89.0294 390.321 488.224
234 0 76.0685 11.7394 893 89.047 390.506 485.493
235 0 73.0784 10.1124 739 81.364 389.499 488.943
236 0 77.0511 10.5774 815 79.6564 389.755 487.632
237 0 78.0904 10.1165 790 79.5582 389.235 484.305
238 0 83.117 9.80545 815 77.7963 389.238 485.152
239 0 83.037 10.7181 890 75.5989 388.787 484.063
240 0 86.0808 10.6876 920 78.5522 389.561 482.867
241 0 92.0537 11.0044 1013 76.8381 389.311 482.068
242 0 95.1467 11.3824 1083 76.1311 389.546 479.366
243 0 99.0926 11.3328 1123 77.8032 388.65 478.255
244 0 102.17 11.8136 1207 78.7647 388.873 475.519
245 0 106.148 12.2848 1304 77.6327 389.393 474.506
246 0 108.135 11.7446 1270 79.5055 389.552 473.972
247 0 112.185 12.212 1370 78.919 389.526 471.884
248 0 113.087 11.6105 1313 81.1325 389.594 470.5
249 0 116.188 11.9461 1388 82.1729 389.544 467.78
250 0 119.169 12.0669 1438 82.7809 389.563 465.439
251 1 68.1267 10.8915 742 79.5782 389.398 492.716
252 0 68.0786 11.4867 782 78.0972 388.23 493.881
253 0 69.0528 11.4984 794 78.1209 388.412 491.301
254 0 72.1728 11.4447 826 80.9492 388.473 489.324
255 0 72.096 12.3724 892 81.815 388.649 487.367
256 0 77.1311 11.5907 894 90.0839 390.381 486.315
257 0 79.1186 12.1463 961 89.4464 390.285 485.382
258 0 81.1281 12.5727 1020 88.1284 390.325 483.78
259 0 84.1252 12.7073 1069 86.2834 389.764 483.693
260 0 86.1251 12.9579 1116 86.4758 389.563 481.487
261 0 86.1279 12.5976 1085 88.5917 390.026 480.874
262 0 88.1285 12.4931 1101 88.7602 389.668 479.993
263 0 94.2335 12.6919 1196 88.2291 389.645 479.106
264 0 95.1344 12.4876 1188 90.7677 389.924 475.869
265 0 99.2469 12.6452 1255 90.992 389.39 474.476
266 0 102.194 12.8481 1313 91.5598 389.458 472.95
267 0 103.298 12.7689 1319 91.4625 389.333 472.073
268 0 107.147 13.1315 1407 89.5977 389.106 468.778
269 0 109.219 13.0014 1420 89.8472 388.607 469.117
270 0 109.259 12.8868 1408 90.733 388.975 466.1
271 0 115.327 13.1453 1516 89.4868 389.152 468.065
272 0 117.236 12.9142 1514 89.2338 388.943 466.856
273 0 120.249 12.5988 1515 87.8825 389.163 465.91
274 0 125.112 12.5328 1568 86.5077 389.197 462.684
275 0 129.135 13.0019 1679 82.1179 389.253 461.722
276 0 131.172 11.2372 1474 82.4695 388.743 459.181
277 0 132.12 11.9513 1579 86.9113 389.785 461.56
278 0 136.158 12.0668 1643 87.4279 389.987 457.861
279 0 141.147 12.0017 1694 87.729 389.491 456.774
280 1 72.0608 10.6854 770 82.1195 389.918 489.978
281 0 75.1722 10.8817 818 83.1369 389.287 488.167
282 0 76.072 11.0159 838 83.611 389.842 488.591
283 0 81.0645 11.6574 945 83.9683 389.686 485.558
284 0 83.0409 11.7773 978 84.7035 389.452 484.007
285 0 87.0737 12.2195 1064 84.1626 389.343 483.035
286 0 89.062 11.318 1008 86.3681 389.871 480.44
287 0 91.0853 11.6704 1063 85.3866 389.389 479.368
288 0 96.1075 11.8617 1140 85.1123 389.139 477.851
289 0 99.1235 12.1263 1202 84.6215 389.118 476.594
290 1 51.0181 10.1141 516 85.9554 389.702 500.585
291 0 53.0187 10.4491 554 83.7184 389.341 499.182
292 0 55.132 11.409 629 82.3975 389.42 499.027
293 0 57.0901 11.4381 653 86.438 390.311 496.227
294 0 59.1182 11.9591 707 84.6124 389.699 494.663
295 0 61.1115 12.5345 766 78.077 388.561 495.278
296 0 61.0796 11.7715 719 79.911 388.829 494.979
297 0 65.0476 12.6523 823 76.1021 388.283 495.315
298 0 66.1155 11.979 792 77.9066 388.639 492.361
299 0 66.1167 11.7519 777 78.8996 388.539 492.781
300 0 70.0739 12.0587 845 77.0805 388.618 491.222
301 0 72.0494 11.9918 864 77.6157 388.503 489.294
302 0 74.0868 13.0253 965 75.0021 388.921 490.273
303 0 77.121 12.5517 968 76.5186 389.67 489.299
304 0 80.1266 12.6799 1016 76.1949 388.906 487.992
305 0 81.1429 12.9155 1048 76.2166 389.042 485.51
306 0 83.1306 12.9435 1076 77.1292 388.913 485.562
307 0 86.0384 12.3085 1059 79.1095 388.841 484.805
308 0 85.0871 11.8467 1008 81.6746 387.737 485.662
309 0 89.1532 11.8111 1053 82.6163 387.947 483.428
310 0 90.1106 11.3083 1019 84.8911 388.342 484.26
311 0 93.1263 12.0267 1120 85.3152 388.459 482.123
312 0 96.0933 12.0508 1158 85.6718 388.396 481.59
313 0 99.1362 11.5498 1145 86.0227 388.67 481.602
314 0 102.104 12.0465 1230 85.4846 388.307 479.74
315 0 105.073 12.4675 1310 86.4298 388.326 476.147
316 1 53.1269 11.5761 615 87.3496 387.823 502.543
317 0 55.0769 11.8017 650 86.0738 387.68 502.169
318 0 56.0746 12.198 684 85.5249 387.716 501.057
319 0 56.1395 11.2399 631 87.4437 387.398 502.055
320 0 58.0472 11.7835 684 83.2822 387.925 501.433
321 0 60.0271 12.2278 734 81.6076 387.978 499.714
322 0 60.1424 12.2709 738 84.2791 387.767 500.202
323 0 59.1525 10.6166 628 88.242 388.081 502.772
324 0 60.14 10.7582 647 88.102 387.354 502.72
325 0 60.1272 11.0599 665 88.8737 387.235 501.651
326 0 62.1552 9.99111 621 88.9549 387.066 499.696
327 0 64.0572 11.1307 713 86.4165 387.373 499.895
328 0 66.1007 11.9061 787 88.1144 386.666 497.69
329 0 69.0857 11.8404 818 87.1565 386.988 497.403
330 0 70.1242 11.7363 823 88.3973 386.861 496.892
331 0 73.0983 11.4777 839 96.4779 386.899 495.334
332 0 75.0391 12.0204 902 86.8326 386.779 493.731
333 0 78.1684 11.3345 886 88.1591 386.966 492.894
334 0 79.1836 11.7196 928 87.4062 386.256 490.188
335 0 81.1826 12.0469 978 87.1074 386.359 488.184
336 0 83.2451 11.8926 990 88.1818 386.325 486.775
337 0 88.1256 11.3134 997 86.8164 386.46 485.938
338 0 90.1725 10.6906 964 86.7946 386.382 486.344
339 0 94.2511 12.0423 1135 85.615 386.315 481.668
340 0 95.1249 11.6058 1104 86.5326 386.125 479.616
341 0 96.1397 11.4833 1104 86.8179 386.617 478.123
342 0 99.1196 11.9653 1186 86.2648 386.105 476.756
343 0 103.116 11.7732 1214 86.4901 385.242 475.344
344 1 57.1135 12.4314 710 84.6296 385.307 500.373
345 0 58.0814 12.1037 703 86.8179 384.545 499.622
346 0 60.1076 12.8436 772 83.9896 385.074 498.185
347 0 62.0758 14.1601 879 81.8669 384.947 497.739
348 0 64.138 12.4575 799 85.9612 384.587 496.252
349 0 65.143 12.6337 823 85.938 384.338 496.441
350 0 68.1375 13.6489 930 82.0237 385.091 494.981
351 0 69.0766 13.1593 909 83.5523 384.642 492.528
352 0 70.0606 13.0744 916 85.8624 384.569 493.152
353 0 70.0606 13.1172 919 146.124 385.582 493.045
354 0 77.11 13.2149 1019 87.8773 384.845 489.134
355 0 79.0533 12.9786 1026 90.1082 384.725 487.861
356 0 81.0756 13.1112 1063 90.0997 385.454 485.158
357 0 84.1326 13.2172 1112 89.6115 385.431 484.629
358 0 86.0985 12.9038 1111 91.279 385.968 484.252
359 0 89.0766 12.5959 1122 91.8815 386.18 482.431
360 1 45.1103 10.9509 494 92.6154 385.128 504.472
361 0 45.0438 11.0337 497 94.1408 385.235 502.726
362 0 47.0568 11.6455 548 89.8777 384.777 501.56
363 0 51.0439 11.9113 608 89.426 385.574 502.039
364 0 52.0951 12.1701 634 83.8596 386.099 502.989
365 0 51.0382 11.7951 602 79.1744 385.934 504.02
366 0 52.0552 11.507 599 78.9649 385.482 503.392
367 0 55.107 12.14 669 78.1839 385.734 503.181
368 0 56.0921 12.319 691 78.7728 385.721 503.172
369 0 59.071 13.1537 777 76.8301 386.305 501.351
370 0 59.0495 12.4303 734 80.3065 386.82 500.441
371 0 61.0582 12.4471 760 81.0539 386.236 497.938
372 0 63.0826 11.8416 747 84.1044 385.677 497.234
373 0 62.071 11.9541 742 85.1954 386.026 497.532
374 0 67.0225 12.3093 825 84.3018 387.297 496.059
375 0 69.0203 12.5036 863 83.6408 386.905 495.711
376 0 68.0928 12.1158 825 85.7794 386.927 492.615
377 0 72.029 12.606 908 85.2302 387.371 493.104
378 0 75.0288 13.115 984 84.1108 387.496 491.267
379 0 77.0606 13.2753 1023 83.7615 387.83 491.106
380 0 78.0505 13.3631 1043 85.1678 387.483 489.645
381 0 82.0367 12.8723 1056 84.6913 387.257 488.099
382 0 84.0575 12.9792 1091 84.8396 387.578 486.226
383 0 86.0489 13.2018 1136 84.7535 387.825 487.374
384 0 87.0496 12.7628 1111 88.4986 387.666 486.815
385 0 88.1321 12.4245 1095 90.2183 387.641 486.13
386 0 91.0616 12.541 1142 91.2277 387.708 483.891
387 0 96.0573 12.3156 1183 91.8555 388.222 481.236
388 0 99.0733 12.5463 1243 91.7586 388.888 479.809
389 0 99.137 12.7198 1261 92.5749 387.966 477.26
390 1 53.0595 11.5154 611 93.0033 388.322 501.29
391 0 55.1206 12.7357 702 93.8875 386.886 498.677
392 0 57.1252 13.4267 767 93.8644 387.021 497.797
393 0 58.2009 13.0238 758 94.628 387.049 498.958
394 0 58.1384 12.4186 722 93.7825 387.127 496.927
395 0 59.0966 12.6911 750 92.6653 387.393 496.907
396 0 58.091 11.2238 652 85.3221 388.08 497.598
397 0 60.0591 11.9382 717 84.3849 388.116 498.014
398 0 62.0331 12.187 756 83.086 388.389 496.082
399 0 64.0591 12.3636 792 83.3472 388.265 494.806
400 0 65.0843 11.0472 719 85.7691 388.965 494.076
401 0 69.0427 12.543 866 82.9157 388.389 492.089
402 0 70.0756 11.9014 834 84.6067 388.188 491.679
403 0 74.0757 12.1362 899 83.812 388.379 490.334
404 0 77.1507 12.0932 933 84.0547 388.277 490.347
405 0 78.0286 11.97 934 85.3041 388.252 489.759
406 0 80.1016 12.0347 964 86.1722 387.998 487.198
407 0 83.0667 11.4968 955 87.3613 388.178 486.126
408 0 86.0314 12.5071 1076 87.0372 388.23 483.235
409 0 87.0723 11.611 1011 89.1325 388.855 480.34
410 1 47.0793 11.4488 539 86.4471 388.217 502.839
411 0 49.1547 11.5554 568 85.4137 388.148 502.375
412 0 51.1967 12.1297 621 83.4461 387.581 500.654
413 0 51.1967 12.0516 617 147.536 387.572 500.629
414 0 52.0831 12.096 630 87.6571 388.037 499.814
415 0 56.1004 12.5668 705 85.6312 388.148 500.628
416 0 59.07 13.0523 771 92.2438 388.499 498.79
417 0 60.0647 12.986 780 92.9385 388.646 497.95
418 0 62.0831 12.3383 766 94.8721 388.247 497.535
419 0 65.134 12.6201 822 93.5268 388.367 496.202
420 0 65.1194 12.0394 784 95.3023 387.981 495.398
421 0 68.1719 12.8792 878 93.1948 387.967 493.768
422 0 69.1024 13.3136 920 93.0554 388.31 491.784
423 0 71.2044 13.384 953 93.6191 387.401 492.159
424 0 74.1506 13.068 969 94.7482 386.778 491.477
425 0 76.3522 13.3068 1016 94.0896 387.221 489.537
426 0 76.3297 13.2059 1008 96.2966 386.997 486.272
427 0 80.1964 13.8161 1108 94.1354 387.352 486.104
428 0 82.2724 13.115 1079 97.089 387.385 483.602
429 0 85.4377 13.226 1130 97.7602 386.752 482.581
430 0 87.4252 13.5316 1183 98.9315 386.749 480.603
431 0 91.3458 13.7171 1253 98.4796 386.476 479.262
432 0 92.3354 13.6351 1259 99.8737 386.753 479.379
433 0 96.4418 13.8114 1332 100.791 387.056 477.732
434 0 97.3186 13.6459 1328 102.626 387.2 475.37
435 0 99.2306 13.1008 1300 104.852 387.205 473.932
436 0 103.207 13.3518 1378 102.083 386.772 473.607
437 0 107.254 13.8736 1488 99.5934 386.333 473.393
438 0 109.104 14.1058 1539 98.4464 386.748 472.175
439 0 113.111 13.9509 1578 98.2871 386.468 471.11
440 0 114.122 14.0639 1605 100.136 385.968 469.673
441 0 119.13 14.9669 1783 98.1727 386.089 467.451
442 0 122.232 14.3743 1757 100.015 386.415 462.678
443 0 127.129 15.1028 1920 98.1703 386.682 461.964
444 0 130.09 14.8205 1928 99.7479 386.314 462.132
445 0 134.198 14.6873 1971 98.5063 386.684 459.025
446 0 136.184 14.3408 1953 98.6749 387.016 458.492
447 0 141.156 14.4309 2037 98.6406 386.459 456.333
448 0 147.257 14.1046 2077 99.3577 386.317 451.375
449 0 150.196 14.055 2111 100.066 386.492 448.771
450 1 79.1306 11.8285 936 95.5118 386.236 488.191
451 0 82.1173 12.4578 1023 100.75 386.513 484.094
452 0 88.1886 13.3577 1178 96.9474 386.458 482.933
453 0 90.2195 13.0238 1175 98.5183 386.355 481.668
454 0 91.1041 12.7107 1158 102.066 386.603 478.68
455 0 96.1835 13.1104 1261 99.4457 386.985 478.569
456 0 98.1746 12.7833 1255 101.034 386.68 476.502
457 0 101.156 13.1381 1329 100.35 386.766 475.354
458 0 104.27 13.1006 1366 100.708 386.786 474.452
459 0 105.326 13.0547 1375 107.089 386.883 474.016
460 0 111.198 13.3995 1490 102.34 387.006 469.49
461 0 115.128 12.8987 1485 104.605 386.987 468.475
462 0 117.138 13.7359 1609 105.499 387.066 466.867
463 1 60.2105 12.34 743 103.51 386.584 496.054
464 0 61.0557 13.0537 797 103.89 386.982 495.003
465 0 64.1585 13.0926 840 104.761 386.688 494.061
466 0 67.0858 13.4157 900 104.854 386.98 491.228
467 0 69.1266 13.468 931 105.211 386.477 491.415
468 0 71.1321 13.482 959 106.447 386.259 490.711
469 0 73.165 14.0641 1029 105.07 386.902 489.35
470 0 76.1823 13.8352 1054 106.716 386.861 486.614
471 0 77.2366 13.9571 1078 106.976 387.037 486.414
472 0 79.295 13.8596 1099 107.632 386.934 484.598
473 0 83.411 14.2188 1186 106.664 386.954 483.755
474 0 87.2368 14.0881 1229 105.601 386.417 483.022
475 0 88.3761 14.1894 1254 106.604 386.4 481.842
476 0 88.1965 13.7987 1217 109.067 386.588 479.067
477 0 93.1023 14.1457 1317 107.091 386.272 478.206
478 0 96.2986 14.3408 1381 106.976 386.332 477.504
479 0 98.3939 13.9135 1369 108.041 386.059 475.651
480 0 102.313 14.006 1433 106.977 386.174 475.912
481 0 103.259 14.0133 1447 106.929 386.394 473.185
482 0 107.199 14.2166 1524 106.348 386.396 470.102
483 0 111.457 13.6734 1524 107.61 386.207 469.348
484 0 115.419 14.5297 1677 104.985 386.03 469.15
485 0 119.219 14.7963 1764 104.666 385.889 466.781
486 0 124.27 14.8225 1842 104.691 385.686 464.575
487 0 131.227 14.8903 1954 103.483 385.923 460.94
488 0 136.207 14.5661 1984 104.369 386.042 459.061
489 0 136.211 14.5069 1976 159.382 386.046 458.971
490 1 73.2282 12.8366 940 109.218 385.434 488.529
491 0 73.2282 12.782 936 178.255 384.442 488.554
492 0 80.2758 13.4661 1081 108.054 386.283 485.525
493 0 83.2197 13.4704 1121 110.997 386.359 484.561
494 0 85.2265 13.5873 1158 110.509 386.285 481.951
495 0 88.2106 13.7738 1215 109.858 385.772 480.796
496 0 92.1887 13.5049 1245 109.882 385.178 480.388
497 0 93.2175 14.2463 1328 109.281 386.073 477.942
498 0 96.2145 13.4595 1295 111.117 385.839 477.879
499 0 96.2145 13.4803 1297 178.789 386.84 477.857
500 0 102.256 13.9649 1428 109.968 385.7 474.412
501 0 106.329 13.8345 1471 109.866 385.964 473.395
502 0 108.269 13.8729 1502 110.644 386.172 472.204
503 0 112.275 13.6094 1528 110.327 386.387 468.776
504 0 118.287 14.1182 1670 107.723 386.134 466.653
505 0 121.254 13.9541 1692 108.905 385.382 465.546
506 0 125.28 13.9687 1750 108.574 385.514 463.699
507 0 129.35 13.8385 1790 110.605 385.525 460.058
508 0 134.381 13.6775 1838 110.029 385.515 458.957
509 0 138.214 14.2099 1964 109.181 385.566 455.681
510 0 145.233 14.4251 2095 108.089 385.479 453.279
511 0 148.432 14.505 2153 107.972 385.719 450.446
512 0 155.415 14.2264 2211 108.212 385.677 447.488
513 1 79.3193 12.3425 979 102.268 385.051 485.478
514 0 81.2779 12.8694 1046 101.723 385.199 483.359
515 0 83.2386 12.29 1023 103.914 385.036 482.866
516 0 85.3809 12.7429 1088 104.256 385.179 480.705
517 0 89.2849 12.8801 1150 103.143 385.401 479.03
518 0 93.3368 13.2531 1237 100.62 385.189 479.097
519 0 94.2696 12.5915 1187 103.021 385.35 478.406
520 0 97.1782 12.9762 1261 102.363 385.416 475.725
521 0 100.269 13.1447 1318 100.658 385.401 473.509
522 0 104.27 12.506 1304 101.13 385.729 471.594
523 0 107.23 12.254 1314 102.844 385.971 470.435
524 0 111.157 12.3249 1370 103.081 385.85 467.1
525 0 115.195 12.787 1473 101.675 386.381 466.322
526 0 118.215 12.6126 1491 103.193 385.837 466.27
527 0 124.232 13.4426 1670 101.92 385.864 463.595
528 0 127.258 12.9422 1647 104.258 386.119 462.109
529 0 131.317 12.6488 1661 106.019 386.078 459.34
530 0 137.23 13.277 1822 105.644 385.363 457.345
531 0 142.337 13.2994 1893 106.386 385.267 454.514
532 0 145.278 13.3744 1943 110.231 386.032 450.469
533 1 82.1001 11.4007 936 99.0855 384.859 484.062
534 0 83.0585 10.6551 885 99.713 385.643 484.088
535 0 87.0921 11.4821 1000 98.031 386.354 484.332
536 0 90.0371 11.8173 1064 98.0648 386.367 483.748
537 0 91.0653 12.1451 1106 107.39 386.118 481.437
538 0 96.1184 12.2453 1177 108.093 386.071 479.343
539 0 98.0445 12.3107 1207 96.1259 386.243 476.361
540 0 101.09 11.9696 1210 96.7554 385.954 474.747
541 0 103.087 11.9025 1227 97.6463 386.306 473.872
542 0 107.084 11.7571 1259 97.4456 385.579 472.856
543 0 110.225 12.1025 1334 97.997 385.07 471.144
544 0 114.15 12.7289 1453 95.3882 385.138 470.18
545 0 116.118 11.7553 1365 98.978 385.392 467.116
546 0 121.156 11.8937 1441 97.7127 384.924 464.562
547 0 125.131 12.2591 1534 96.6682 385.59 463.313
548 0 129.215 12.5837 1626 96.7786 385.725 461.256
549 0 130.145 12.0942 1574 98.6703 385.262 459.817
550 0 137.168 12.0801 1657 99.5727 386.027 456.18
551 0 141.265 12.3598 1746 99.4805 385.58 454.086
552 0 145.287 12.4994 1816 99.3684 384.539 451.3
553 0 149.233 12.0282 1795 101.299 384.872 447.534
554 0 154.23 12.3517 1905 100.781 384.851 446.37
555 0 158.121 12.092 1912 101.672 384.978 443.705
556 0 163.141 12.1245 1978 103.395 384.945 442.009
557 1 95.1601 10.1618 967 87.8232 384.432 481.009
558 0 97.24 10.2941 1001 88.9401 384.739 476.959
559 0 99.127 9.64419 956 90.7803 385.165 477.095
560 0 103.171 10.4487 1078 90.6382 384.909 474.199
561 0 106.152 9.4299 1001 91.6254 385.735 474.918
562 0 110.204 10.4171 1148 91.2274 385.083 471.638
563 0 112.216 10.355 1162 92.0843 384.293 469.9
564 0 116.148 10.8396 1259 90.9555 384.206 466.719
565 0 120.313 10.1153 1217 91.1545 384.142 466.053
566 0 123.281 10.2286 1261 91.5583 384.447 461.688
567 0 126.261 10.5021 1326 91.4925 384.547 459.77
568 0 130.305 10.5598 1376 92.5981 383.938 457.358
569 0 133.245 10.6421 1418 92.7715 384.769 456.633
570 0 137.402 10.8805 1495 94.2375 384.384 452.423
571 0 143.154 11.3724 1628 93.5614 384.049 452.619
572 0 146.352 11.076 1621 95.3806 384.221 451.163
573 0 151.288 11.64 1761 95.8336 384.685 448.374
574 0 154.343 11.2995 1744 98.0361 384.897 444.185
575 0 160.219 11.9461 1914 98.0031 384.572 441.228
576 0 162.175 11.7219 1901 99.3588 385.287 436.979
577 0 170.162 11.9239 2029 101.663 384.815 435.856
578 0 175.172 12.2851 2152 100.773 384.986 434.027
579 0 180.131 12.6685 2282 100.552 384.365 432.494
580 0 186.187 12.4015 2309 102.116 384.867 429.586
581 0 190.192 11.8722 2258 103.554 384.957 427.864
582 1 110.172 10.4383 1150 92.82 385.037 471.009
583 0 114.316 10.5847 1210 92.286 384.48 469.817
584 0 115.306 10.3464 1193 96.1509 384.716 465.379
585 0 119.314 9.78926 1168 98.6113 384.736 464.312
586 0 124.322 10.2074 1269 97.0433 384.864 461.443
587 0 129.404 10.1078 1308 95.3547 385.171 462.306
588 0 131.407 10.4942 1379 95.7382 384.451 456.623
589 0 136.318 10.4828 1429 94.4584 385.237 455.817
590 0 135.299 9.91141 1341 96.3535 384.524 449.679
591 0 138.351 9.95298 1377 96.4633 384.355 445.874
592 0 141.314 9.76549 1380 97.792 384.547 443.441
593 1 154.321 10.4652 1615 97.9567 384.251 450.001
594 0 156.376 9.99516 1563 96.3736 384.223 446.534
595 0 160.29 8.80901 1412 98.4086 383.326 446.537
596 1 90.1784 9.22615 832 80.6334 383.657 488.772
597 0 91.1801 9.60735 876 80.7934 383.364 486.28
598 0 94.1979 8.28044 780 82.1667 383.195 488.656
599 0 97.2 9.37243 911 80.6334 382.889 486.884
600 0 100.168 9.03481 905 81.1425 383.412 483.916
601 0 102.179 9.07227 927 80.7551 383.857 484.924
602 0 106.225 9.48929 1008 80.6597 383.686 480.834
603 0 109.306 8.97479 981 80.5678 383.685 477.585
604 0 113.232 9.86471 1117 79.5944 384.003 476.684
605 1 62.1833 9.68105 602 83.9867 382.452 498.161
606 0 64.2273 10.4006 668 82.6811 382.18 496.832
607 0 67.1824 10.732 721 80.7739 382.871 495.889
608 0 67.0507 10.6337 713 83.4741 384.3 493.332
609 0 68.084 10.5017 715 81.1231 382.285 494.814
610 0 67.2161 10.5629 710 83.9408 382.759 495.852
611 0 68.2385 10.053 686 86.1749 383.335 497.474
612 0 68.2572 10.7242 732 85.291 384.083 494.249
613 0 71.0905 9.80441 697 87.1621 383.809 492.64
614 0 72.1622 10.906 787 86.3507 383.066 492.958
615 0 73.1939 11.3807 833 86.521 383.085 491.992
616 0 80.1937 10.9859 881 86.5131 383.19 490.756
617 0 83.2996 11.1285 927 86.2783 383.151 488.312
618 0 84.1593 10.896 917 87.3664 383.623 487.874
619 0 92.2295 11.2979 1042 85.8378 383.188 483.809
620 0 92.1991 11.1606 1029 87.3557 384.046 483.202
621 0 93.1416 11.3483 1057 86.7247 383.506 482.211
622 0 97.1618 11.3419 1102 86.3158 384.129 479.813
623 1 186.565 11.3419 2116 97.2514 384.325 435.503
624 0 190.423 11.2171 2136 97.2233 384.019 432.133
625 1 103.282 10.5827 1093 88.538 384.503 471.421
626 0 106.216 10.7705 1144 87.3733 384.561 469.352
627 1 58.0847 10.347 601 90.6306 382.829 500.334
628 0 62.1702 10.1978 634 88.2823 382.653 498.927
629 0 63.0502 10.9595 691 86.4327 383.337 497.997
630 0 65.0455 10.116 658 84.1185 384.068 498.298
631 0 66.0466 10.2958 680 84.6368 384.413 498.054
632 0 68.0606 11.0196 750 83.3027 384.472 497.577
633 0 69.0669 10.8011 746 84.4705 384.714 494.826
634 0 68.0479 9.93418 676 80.7707 385.176 497.336
635 0 69.0745 9.84445 680 81.9162 384.69 497.944
636 0 71.0803 9.41189 669 83.1555 384.504 496.547
637 0 74.0626 9.96454 738 82.4119 385.23 496.336
638 0 77.0892 10.9743 846 81.5426 384.696 492.845
639 0 77.0548 10.6548 821 82.5274 384.959 492.587
640 0 81.0524 10.2156 828 83.1618 385.014 490.384
641 0 84.0718 10.1342 852 84.9507 385.616 489.05
642 0 88.0458 11.3691 1001 83.1269 385.678 487.086
643 0 91.0737 10.9472 997 85.0331 385.993 485.275
644 1 50.0168 11.0563 553 84.1754 385.152 505.656
645 0 51.0496 10.3037 526 87.4106 385.112 504.882
646 0 52.0785 10.6762 556 88.1115 385.092 503.689
647 0 53.1227 11.3511 603 86.6799 386.073 502.803
648 0 55.0377 12.0099 661 87.2542 386.818 501.581
649 0 55.0472 11.8626 653 83.1286 386.308 500.775
650 0 57.0929 12.3833 707 81.4781 386.194 500.856
651 0 57.0598 11.9348 681 84.0837 386.404 498.568
652 0 60.0314 12.5268 752 82.9694 386.463 498.987
653 0 61.0708 11.6258 710 84.8408 385.694 498.91
654 0 63.0399 12.04 759 85.2292 386.235 498.148
655 0 65.0622 12.342 803 83.8468 385.183 498.012
656 0 63.1088 11.5673 730 90.737 385.022 499.373
657 0 63.0862 11.3654 717 93.3445 385.478 497.515
658 0 67.0915 11.2831 757 93.2602 384.711 496.941
659 0 69.0463 11.9775 827 93.0109 385.1 494.692
660 0 70.0941 12.0695 846 94.474 384.573 493.131
661 0 71.0515 11.5691 822 96.691 384.974 493.414
662 0 76.1813 11.9058 907 96.4542 385.233 491.432
663 0 78.0724 12.181 951 96.3018 385.604 490.507
664 0 80.1216 11.7946 945 97.3249 385.099 488.966
665 0 84.1036 11.6047 976 97.6424 385.571 488.069
666 0 86.1015 11.6723 1005 97.9562 385.829 487.217
667 0 89.0717 10.9126 972 98.5401 385.4 485.74
668 0 91.1057 10.6909 974 98.6376 385.55 484.043
669 1 51.0181 10.4669 534 97.1386 384.579 503.311
670 0 51.0536 11.1452 569 96.0228 384.84 502.2
671 0 56.0512 12.3637 693 92.3276 385.364 501.847
672 0 56.0256 12.1909 683 92.0644 386.095 502.037
673 0 55.0289 11.3213 623 95.6324 386.157 500.335
674 0 56.0578 11.8449 664 95.0482 385.64 501.351
675 0 57.052 10.7271 612 97.1454 385.168 499.704
676 0 59.0839 11.3398 670 95.6433 385.661 499.26
677 0 61.0476 11.2535 687 95.278 385.728 498.176
678 0 63.0443 11.2143 707 94.5375 385.349 496.809
679 0 65.0918 10.9691 714 94.4258 385.195 497.298
680 0 68.1356 11.0955 756 93.9603 385.134 495.407
681 0 70.0599 11.2047 785 94.0726 385.048 494.67
682 0 74.0765 12.0821 895 92.5989 385.774 492.15
683 0 76.0712 11.6338 885 94.4056 385.983 491.346
684 0 77.0812 11.5463 890 93.7472 385.865 492.121
685 0 80.1676 11.1017 890 95.3079 386.037 490.653
686 0 83.1286 11.2837 938 96.5394 385.799 488.381
687 0 87.1081 12.2377 1066 94.0779 386.633 487.243
688 0 91.1448 12.4198 1132 93.1731 385.734 485.907
689 0 92.1077 11.3671 1047 96.7182 386.105 485.65
690 1 49.0777 10.7992 530 96.3811 386.391 505.877
691 0 52.0603 12.1974 635 91.6898 386.625 504.394
692 0 53.0429 11.5378 612 93.0261 387.681 501.368
693 0 54.064 12.1338 656 91.1555 387.447 501.564
694 0 55.0218 11.8317 651 92.2842 386.902 503.343
695 0 59.012 12.3534 729 88.583 387.049 502.457
696 0 60.0856 12.0495 724 90.4185 385.808 501.514
697 0 62.0263 12.3496 766 89.0496 386.128 501.805
698 0 62.0609 12.3749 768 89.3594 386.428 500.767
699 0 65.028 12.41 807 88.6518 385.978 500.641
700 0 66.0813 12.0458 796 89.7575 385.712 498.784
701 0 66.0813 12.076 798 141.189 385.713 498.779
702 0 68.0574 11.1377 758 92.1082 387.005 498.216
703 0 70.0595 11.0192 772 93.3808 386.522 496.102
704 0 73.0394 11.528 842 89.9216 386.778 496.253
705 0 77.053 11.7322 904 89.3927 386.537 494.983
706 0 81.038 11.8216 958 87.7317 385.734 494.2
707 0 82.049 10.9934 902 89.2705 386.386 490.962
708 0 85.0402 11.571 984 88.3272 385.905 488.198
709 0 88.0169 11.1797 984 88.7124 385.597 488.133
710 1 48.0179 10.142 487 90.6078 386.608 507.825
711 0 48.0131 11.1636 536 88.7183 385.81 508.64
712 0 49.0148 10.5274 516 89.8353 385.703 505.779
713 0 50.084 11.9 596 87.3893 383.488 506.191
714 0 53.0567 12.138 644 93.1708 385.217 504.84
715 0 53.0774 12.4535 661 92.9592 385.533 503.971
716 0 57.0344 12.8694 734 90.936 384.424 503.323
717 0 58.0708 12.1403 705 92.573 384.362 501.965
718 0 58.1503 11.7626 684 93.8129 385.076 501.982
719 0 60.064 12.2703 737 91.3487 385.103 503.833
720 0 62.022 12.4633 773 91.4838 384.089 502.427
721 0 63.0327 12.2793 774 91.4948 384.611 502.63
722 0 66.0554 12.0505 796 92.5251 384.07 501.726
723 0 68.0453 11.992 816 92.0343 384.197 499.201
724 0 68.048 12.1091 824 92.7306 384.249 498.775
725 0 71.1798 12.349 879 91.8919 384.181 498.071
726 0 74.1523 12.0967 897 92.6522 384.245 496.574
727 0 75.1702 12.771 960 92.0135 384.312 496.579
728 0 76.0648 12.6471 962 93.7339 384.289 494.128
729 0 79.0786 12.9491 1024 92.7529 383.833 492.59
730 0 81.0868 12.5174 1015 93.6069 384.229 491.794
731 0 86.1482 13.0589 1125 91.6738 384.512 490.197
732 0 88.0868 13.2824 1170 91.2205 384.221 489.471
733 0 91.0988 12.7554 1162 91.0327 384.238 488.673
734 0 93.0671 12.5178 1165 90.9631 385.342 485.425
735 0 97.1051 12.5328 1217 90.9162 384.216 484.357
736 1 49.054 10.3152 506 87.8814 384.652 508.453
737 0 50.0221 11.375 569 82.0931 385.684 508.364
738 0 52.0738 12.0022 625 77.3488 385.424 506.846
739 0 53.0546 11.9688 635 78.0441 385.68 505.737
740 0 54.054 11.84 640 87.1297 383.65 504.575
741 0 58.0362 11.9581 694 86.8703 383.418 503.657
742 0 58.0295 12.2352 710 87.593 383.058 501.656
743 0 61.0234 11.9954 732 88.0369 383.227 500.598
744 0 62.0513 12.3607 767 88.4068 383.738 499.046
745 0 62.0366 12.2347 759 89.892 383.315 498.835
746 0 66.0591 13.1095 866 87.4503 384.199 498.234
747 0 67.0799 12.1795 817 90.8201 384.111 498.378
748 0 70.0401 12.55 879 91.7668 383.716 496.38
749 0 71.0522 12.6527 899 93.5628 384.199 494.841
750 0 73.0716 13.2883 971 93.5726 384.537 494.066
751 0 75.054 13.3637 1003 93.4357 384.508 494.212
752 0 77.0768 12.9481 998 96.993 385.223 491.318
753 0 79.1022 12.9832 1027 97.9971 385.145 491.211
754 0 80.0748 13.0253 1043 100.024 385.327 488.502
755 0 83.0785 12.9516 1076 99.053 385.431 487.507
756 0 87.0811 12.7353 1109 99.3805 384.772 487.803
757 0 87.1414 12.5428 1093 102.004 384.849 486.565
758 0 91.0968 12.8545 1171 102.243 385.545 484.947
759 1 47.0377 10.2683 483 98.2526 386.605 506.476
760 0 47.0441 11.2448 529 97.2193 386.142 505.924
761 0 51.0908 11.3719 581 90.3528 385.606 505.022
762 0 53.1048 12.0328 639 100.288 386.451 503.371
763 0 52.0929 12.4777 650 101.011 386.522 503.003
764 0 56.0697 12.6985 712 100.025 385.805 502.711
765 0 56.0927 12.2654 688 103.096 385.797 503.299
766 0 53.0705 10.8912 578 95.0744 385.187 504.86
767 0 55.0524 10.7716 593 94.5008 384.644 504.206
768 0 58.0547 11.0069 639 94.3099 384.844 502.268
769 0 60.04 11.1426 669 93.3318 385.242 502.623
770 0 61.1188 11.3877 696 94.6264 385.269 499.918
771 0 63.0538 11.0223 695 93.7482 385.55 500.797
772 0 65.0344 11.2095 729 95.059 385.985 501.03
773 0 70.0269 12.2239 856 92.5853 386.321 498.463
774 0 69.0369 10.4727 723 98.3015 385.957 499.207
775 0 74.0267 11.4418 847 95.7296 386.537 496.051
776 0 76.092 12.0512 917 94.9891 386.691 494.178
777 0 78.1108 11.7141 915 97.1803 386.58 491.438
778 0 81.0912 11.9742 971 97.2606 386.188 490.399
779 0 85.0705 11.5669 984 97.0407 386.648 490.009
780 0 87.1579 11.4849 1001 99.98 386.5 488.105
781 0 91.1425 11.4765 1046 100.396 385.801 485.767
782 1 49.0355 11.2164 550 99.3927 386.613 506.873
783 0 48.023 11.4112 548 102.06 385.96 504.588
784 0 50.1311 11.9088 597 96.1189 385.631 504.049
785 0 54.0376 11.7141 633 95.8547 385.592 503.607
786 0 55.0416 11.9546 658 94.4802 386.152 503.419
787 0 55.0508 11.4985 633 96.6272 386.717 501.509
788 0 59.021 11.8771 701 95.5635 386.221 501.053
789 0 60.0512 12.3561 742 94.6173 386.77 499.842
790 0 61.0226 12.0447 735 94.9633 387.531 498.392
791 0 59.046 10.2971 608 101.176 386.831 500.722
792 0 61.0278 10.5526 644 100.803 387.082 499.457
793 0 65.0563 10.5601 687 99.5095 386.425 498.648
794 0 68.0876 10.4865 714 100.69 386.213 497.004
795 0 69.0342 11.1539 770 99.7727 386.791 495.994
796 0 72.0726 10.9612 790 99.2304 387.261 496.042
797 0 74.0669 11.4491 848 98.7017 386.539 495.012
798 0 76.042 10.9282 831 100.529 387.474 493.939
799 0 83.0549 12.0763 1003 95.2832 387.349 490.008
800 0 85.0739 11.684 994 97.5272 387.752 489.127
801 1 45.0237 10.6389 479 100.996 387.816 509.802
802 0 45.041 11.2564 507 99.3491 387.418 509.501
803 0 48.0118 11.4763 551 97.1742 387.325 508.249
804 0 49.0408 11.1744 548 100.929 387.52 508.396
805 0 51.0507 11.5375 589 101.396 386.964 507.109
806 0 52.0376 12.7984 666 96.0901 387.027 506.312
807 0 53.0432 12.2353 649 98.4915 386.974 506.436
808 0 57.1223 12.3069 703 94.3656 386.661 505.504
809 0 56.0464 12.2756 688 96.7849 387.195 505.485
810 0 57.0566 11.9706 683 98.1054 386.994 503.646
811 0 60.1004 12.6954 763 94.7733 387.022 502.54
812 0 62.067 13.4693 836 92.4043 387.53 501.696
813 0 63.0635 12.6698 799 94.6733 386.768 502
814 0 66.0486 12.9299 854 94.1136 386.285 501.351
815 0 67.0948 12.6239 847 94.8796 386.55 500.641
816 0 67.0307 12.1735 816 98.5699 386.616 500.468
817 0 69.0501 11.6872 807 99.8451 385.25 502.929
818 0 69.0707 11.9443 825 100.775 385.79 500.299
819 0 72.051 11.936 860 100.41 386.737 498.994
820 0 74.0376 12.5747 931 99.5929 386.18 497.662
821 0 78.0951 11.8189 923 102.363 386.327 495.514
822 0 80.0599 12.2159 978 102.288 386.633 493.617
823 0 85.054 12.6743 1078 100.656 385.448 493.372
824 0 86.0424 12.8425 1105 101.634 385.507 492.809
825 0 89.0724 12.5628 1119 103.673 385.43 491.265
826 0 91.0449 12.2906 1119 104.539 385.147 491.911
827 0 93.0739 12.3235 1147 105.677 384.96 490.779
828 0 97.0357 12.5109 1214 104.123 385.727 489.289
829 0 97.0337 12.573 1220 157.365 386.71 489.261
830 0 104.099 12.8243 1335 103.25 385.308 486.596
831 0 106.049 12.4754 1323 105.345 385.529 483.575
832 0 111.128 13.7499 1528 102.653 385.048 480.654
833 0 115.136 13.1757 1517 102.801 385.464 479.407
834 0 119.085 13.1838 1570 101.926 385.366 478.717
835 0 121.202 13.3249 1615 101.974 385.515 475.568
836 0 124.201 12.9467 1608 104.169 385.045 472.034
837 0 128.24 13.927 1786 104.541 385.513 470.255
838 0 132.269 12.3612 1635 104.802 384.929 467.481
839 0 140.253 12.9338 1814 102.248 384.313 464.281
840 0 143.382 12.7492 1828 101.646 384.037 462.198
841 0 148.43 13.3801 1986 99.8359 383.866 459.035
842 0 152.39 12.9799 1978 101.416 384.741 456.34
843 0 156.324 12.9795 2029 99.6905 384.219 453.66
844 0 163.357 13.0512 2132 98.6065 384.401 450.867
845 0 168.32 12.8565 2164 99.5314 384.565 447.834
846 0 174.322 13.257 2311 97.6512 384.125 443.986
847 0 180.324 13.2095 2382 99.0709 384.733 443.118
848 0 186.374 13.2046 2461 101.124 384.974 435.908
849 0 191.271 12.8613 2460 102.002 384.115 433.889
850 0 196.372 12.1606 2388 103.78 384.922 434.698
851 0 200.273 12.5229 2508 102.908 384.703 429.701
852 0 208.19 12.2196 2544 101.987 384.351 429.075
853 0 215.214 12.3644 2661 102.001 384.905 425.05
854 0 219.23 12.5941 2761 101.603 385.386 420.88
855 0 225.223 12.6009 2838 102.191 384.777 419.734
856 0 232.241 12.909 2998 102.038 385.263 415.36
857 0 240.321 12.8328 3084 102.749 384.79 411.177
858 0 248.232 13.6002 3376 101.12 384.19 406.287
859 0 255.259 13.4647 3437 101.765 385.054 400.858
860 0 263.268 14.7758 3890 97.2668 385.034 392.955
861 0 271.304 14.3197 3885 97.9058 384.772 390.752
862 0 279.221 14.3005 3993 98.13 385.004 380.657
863 0 280.257 13.3235 3734 101.532 385.938 382.925
864 0 279.285 11.1785 3122 105.066 385.005 393.838
865 1 220.156 12.2958 2707 101.339 385.009 416.646
866 0 228.183 13.0334 2974 100.22 384.868 413.266
867 0 235.492 12.8794 3033 100.187 385.257 405.419
868 0 245.257 14.23 3490 100.068 385.425 401.3
869 0 254.238 13.5306 3440 102.359 385.433 397.706
870 0 259.362 14.2002 3683 101.402 385.212 389.238
871 1 271.292 13.9296 3779 101.855 384.935 387.286
872 0 277.225 13.1806 3654 103.712 384.337 385.021
873 0 279.372 10.8672 3036 106.367 384.863 402.358
874 1 68.0574 11.0348 751 94.9214 385.621 487.799
875 0 73.1681 12.0954 885 98.3299 384.686 491.425
876 0 73.1229 11.802 863 99.7462 384.874 489.149
877 0 77.1005 11.8547 914 99.4519 384.732 485.67
878 0 80.1675 11.6506 934 99.1456 384.671 485.118
879 0 82.1629 12.3779 1017 97.1849 385.046 484.981
880 0 84.1828 11.7126 986 98.4412 384.145 482.789
881 0 87.151 12.3464 1076 96.6849 384.365 480.77
882 0 89.1266 11.8147 1053 98.8955 383.994 480.036
883 0 92.1279 12.3632 1139 97.2098 383.571 476.965
884 0 97.1132 14.859 1443 87.0936 383.845 469.143
885 0 107.081 15.8665 1699 80.8234 383.576 463.246
886 0 108.121 14.7889 1599 84.6579 384.235 464.678
887 0 110.072 13.582 1495 90.9237 384.14 465.738
888 0 110.101 12.1524 1338 96.1256 384.574 467.257
889 1 51.0348 9.89521 505 92.8396 384.461 494.422
890 0 53.0618 10.4407 554 90.9495 385.384 491.962
891 0 56.0347 11.0289 618 90.1327 385.042 494.427
892 0 60.1046 11.7129 704 84.7543 383.935 496.714
893 0 63.1151 12.0098 758 84.1003 384.255 496.069
894 0 64.1999 11.7757 756 86.1587 384.37 495.934
895 0 64.1803 11.8261 759 87.1581 384.257 493.85
896 0 68.0963 12.497 851 84.2985 383.819 492.074
897 0 69.1392 12.0915 836 85.9151 384.366 491.441
898 0 69.074 13.1164 906 83.67 384.638 492.382
899 0 73.2216 13.3977 981 82.1264 385.948 491.038
900 0 75.2841 13.6284 1026 82.806 385.439 488.421
901 0 76.2488 14.0199 1069 83.7016 384.848 486.233
902 0 79.1955 13.2078 1046 85.74 385.17 485.301
903 0 80.1851 13.5187 1084 85.5581 385.354 485.06
904 0 81.1384 13.4338 1090 86.1963 385.133 484.232
905 0 81.2057 12.77 1037 89.2285 385.588 482.22
906 0 85.0514 12.7688 1086 88.43 385.123 481.633
907 0 87.1379 13.3811 1166 87.4271 385.239 479.94
908 0 90.1799 13.2402 1194 84.8333 385.44 477.55
909 0 93.1621 14.0186 1306 82.304 385.393 473.64
910 0 94.0945 13.0826 1231 87.0918 385.33 475.452
911 0 94.0346 12.7613 1200 89.8925 385.289 475.172
912 0 94.0619 12.428 1169 92.911 385.889 473.845
913 0 99.0868 13.1299 1301 92.113 385.806 472.628
914 0 100.134 13.0326 1305 92.9241 385.673 470.182
915 0 104.085 13.316 1386 91.4661 385.96 470.076
916 0 108.116 13.1711 1424 91.2247 386.129 468.892
917 0 110.112 13.6679 1505 90.3887 385.601 465.38
918 0 116.062 13.5014 1567 90.2731 385.463 463.714
919 0 118.121 13.4523 1589 90.1819 385.566 462.816
920 0 119.226 13.1851 1572 91.2945 385.298 460.344
921 0 126.112 13.2342 1669 90.8191 385.514 459.45
922 0 130.154 13.7606 1791 89.2312 385.724 456.625
923 0 134.168 13.3862 1796 90.5329 385.264 454.362
924 0 139.139 13.8351 1925 88.5579 385.442 451.034
925 0 146.251 13.6341 1994 89.2081 385.566 448.907
926 0 150.231 13.2196 1986 89.8917 385.727 446.25
927 0 154.215 13.5006 2082 90.7848 385.637 443.193
928 0 161.193 13.4373 2166 91.9372 384.645 439.803
929 0 165.307 14.0829 2328 91.4369 384.394 437.668
930 0 169.207 13.7465 2326 93.7911 384.917 433.87
931 0 173.216 13.6534 2365 95.6584 384.787 430.625
932 0 179.231 13.4631 2413 94.3195 384.312 429.414
933 0 185.272 13.0889 2425 95.4227 383.846 426.673
934 0 190.176 13.2456 2519 95.1024 384.389 424.01
935 0 196.149 12.878 2526 95.7387 384.045 422.852
936 0 206.145 13.0345 2687 94.824 383.756 421.552
937 1 151.128 12.4199 1877 93.2781 383.539 452.952
938 0 154.155 12.669 1953 93.1357 383.151 450.029
939 0 157.131 12.9955 2042 93.0695 383 444.841
940 0 161.179 12.4706 2010 94.2602 382.925 442.663
941 0 165.157 12.3095 2033 95.0679 382.659 441.456
942 0 174.177 12.4184 2163 94.7693 382.6 438.013
943 0 180.204 12.7577 2299 93.9213 382.766 433.168
944 0 185.217 12.4125 2299 93.7903 383.077 433.234
945 0 191.134 12.7031 2428 93.3011 382.732 428.202
946 0 198.148 12.8137 2539 93.0201 382.811 426.605
947 0 206.195 13.3514 2753 91.0007 382.697 420.326
948 0 209.122 12.2703 2566 96.6461 382.815 416.096
949 1 158.175 11.835 1872 93.6111 383.526 443.518
950 0 162.095 12.0362 1951 100.077 383.665 440.365
951 0 167.132 12.4513 2081 102.304 383.464 440.59
952 0 171.348 12.9036 2211 102.096 385.003 434.085
953 0 176.21 13.2001 2326 101.531 384.396 431.486
954 0 182.269 13.2058 2407 102.47 384.744 426.974
955 0 186.363 12.0034 2237 96.464 384.027 425.738
956 0 194.257 12.6945 2466 94.8986 383.914 422.531
957 0 199.339 12.2956 2451 96.9115 384.704 419.329
958 0 205.37 12.6942 2607 95.995 384.666 417.289
959 0 212.224 12.7884 2714 95.92 384.43 410.701
960 0 219.266 12.779 2802 96.8612 384.014 405.767
961 0 223.277 12.957 2893 97.9748 384.089 400.601
962 0 231.226 12.6673 2929 98.2919 384.304 398.809
963 0 242.314 13.1441 3185 97.5071 384.75 394.552
964 0 247.308 13.0566 3229 97.7228 384.235 388.553
965 0 372.459 24.1127 8981 72.567 383.614 304.718
966 1 296.36 8.46606 2509 105.768 384.484 387.899
967 1 65.0926 7.52774 490 75.451 384.118 482.79
968 0 65.1057 8.57067 558 75.491 384.136 483.125
969 0 69.1378 9.03992 625 76.6 384.483 481.597
970 0 71.0811 9.69316 689 76.2554 384.273 479.184
971 0 75.1609 9.20691 692 71.1474 384.744 481.338
972 0 76.0909 8.8184 671 70.918 384.991 481.267
973 0 76.1053 7.81812 595 73.3193 384.98 478.787
974 0 79.1108 7.90031 625 73.4176 385.389 479.885
975 0 348.429 15.9143 5545 91.3271 385.042 333.218
976 0 356.546 14.9294 5323 93.5375 385.853 328.387
977 0 366.477 15.0105 5501 92.0851 385.602 318.269
978 0 379.446 15.0588 5714 96.8556 385.421 315.605
979 0 391.393 14.8112 5797 100.699 386.012 310.595
980 1 101.188 10.0111 1013 93.0217 387.586 480.568
981 0 105.126 9.85485 1036 94.8427 387.004 477.31
982 0 115.311 13.52 1559 76.3836 386.636 464.054
983 0 115.133 11.8125 1360 80.7051 386.787 467.654
984 1 130.153 20.2838 2640 59.3598 386.459 457.512
985 0 129.109 13.6551 1763 74.9824 387.191 457.029
986 0 123.078 11.9924 1476 79.0962 386.633 455.297
987 1 67.0919 8.43618 566 79.917 386.931 482.283
988 0 66.0318 8.75335 578 82.0952 387.5 480.673
989 0 77.0397 10.8515 836 89.1112 384.411 487.124
990 0 81.0571 9.99295 810 90.7074 384.637 484.128
991 0 82.0594 10.9798 901 88.9623 384.757 485.794
992 0 82.0855 9.41701 773 93.7167 385.931 484.899
993 0 86.0898 10.1987 878 93.0456 385.343 481.454
994 0 89.1048 10.0556 896 93.5882 385.049 480.282
995 0 90.1667 11.756 1060 91.2538 385.467 478.342
996 0 91.1666 11.6819 1065 92.5953 385.253 477.527
997 0 94.1442 11.3231 1066 93.2036 385.555 476.683
998 0 97.062 10.55 1024 94.9238 385.104 476.707
999 0 98.1514 11.5026 1129 93.938 386.169 476.177
1000 0 104.095 12.9401 1347 89.1002 385.869 476.979
1001 0 108.065 13.4456 1453 87.9897 386.425 476.306
1002 0 109.186 12.7488 1392 90.8269 386.095 474.496
1003 1 60.1231 11.4764 690 88.329 386.997 500.806
1004 0 62.1126 11.3504 705 88.478 387.128 500.102
1005 0 63.0362 12.4056 782 81.0345 387.785 499.184
1006 0 63.0168 12.092 762 81.269 388.228 498.171
1007 0 66.0844 11.7577 777 77.157 388.135 498.445
1008 0 65.0253 11.5032 748 81.2781 387.959 497.774
1009 0 68.0358 11.8908 809 79.9258 387.425 496.471
1010 0 69.0441 11.6447 804 78.3694 388.075 496.767
1011 0 72.0341 12.3691 891 77.9753 387.345 493.741
1012 0 75.0812 12.946 972 77.9156 386.744 493.413
1013 0 75.028 12.4487 934 79.6092 386.848 491.261
1014 0 76.0583 12.8849 980 79.0061 386.998 490.612
1015 0 79.1265 12.2841 972 80.2716 386.463 488.715
1016 0 81.0564 12.5715 1019 80.0177 387.022 489.46
1017 0 84.0341 13.3517 1122 80.1845 387.285 487.419
1018 0 86.0958 12.4164 1069 83.1936 387.425 486.718
1019 0 89.1412 13.1252 1170 82.365 387.334 485.316
1020 0 90.1099 12.7733 1151 85.0182 387.806 485.116
1021 0 95.1492 12.864 1224 82.7859 388.487 485.677
1022 0 96.0747 12.6672 1217 83.5481 388.078 482.306
1023 1 55.0481 10.9904 605 85.4661 388.964 501.825
1024 0 56.0561 12.3269 691 85.4399 388.087 499.616
1025 0 56.1103 11.8338 664 87.4548 386.687 496.935
1026 0 53.0605 10.6482 565 83.3257 387.658 503.177
1027 0 57.0716 10.7584 614 78.4104 387.772 500.23
1028 0 59.023 9.86056 582 79.3763 386.835 501.759
1029 0 62.0362 11.3804 706 75.4093 387.205 498.752
1030 0 63.0263 10.4242 657 76.8645 386.237 499.215
1031 0 64.0247 9.23081 591 78.4196 388.074 498.792
1032 0 67.0289 11.0251 739 75.9635 387.391 495.107
1033 0 69.0451 10.5004 725 76.1641 387.33 495.018
1034 0 69.0454 10.8769 751 76.502 388.34 493.434
1035 0 73.0498 10.4176 761 76.5913 387.101 493.695
1036 0 77.1043 11.5298 889 74.0495 387.94 493.637
1037 0 78.0307 11.252 878 75.5399 387.782 490.573
1038 0 80.0352 11.4575 917 74.976 387.39 490.642
1039 0 83.2111 11.5489 961 74.7274 386.725 489.344
1040 0 84.0581 10.9329 919 76.3351 387.396 488.836
1041 0 89.0597 11.8684 1057 74.4182 386.98 486.166
1042 0 90.0861 11.7887 1062 74.9991 387.248 484.465
1043 0 94.0483 12.047 1133 74.1739 387.679 483.916
1044 0 92.1106 10.9217 1006 77.0477 387.381 481.828
1045 0 97.1466 11.9407 1160 74.9422 387.554 481.183
1046 0 99.1232 11.3899 1129 74.8167 387.361 481.27
1047 0 101.055 10.9445 1106 76.6555 387.249 478.138
1048 0 107.095 11.8493 1269 78.974 386.548 474.574
1049 1 57.0348 10.064 574 73.4024 386.854 500.84
1050 0 58.0877 10.3292 600 73.4383 386.58 498.772
1051 0 61.0527 10.8758 664 71.3208 386.258 497.949
1052 0 62.0316 10.1722 631 72.4342 386.818 496.951
1053 0 65.0275 11.4721 746 70.0375 386.651 494.618
1054 0 67.0913 11.4918 771 73.6848 387.17 494.079
1055 0 70.065 12.1744 853 73.0574 386.631 493.1
1056 0 72.0359 12.0218 866 73.7806 387.396 493.838
1057 0 73.0825 12.0822 883 75.7871 386.668 493.308
1058 0 74.0991 11.6601 864 77.684 387.318 492.491
1059 0 79.0847 12.6826 1003 75.3908 386.975 491.179
1060 0 81.1242 12.1665 987 76.8764 386.348 488.917
1061 0 83.0667 12.2432 1017 78.0403 386.349 488.316
1062 0 85.1456 12.3671 1053 81.0741 386.253 487.575
1063 0 87.0971 11.757 1024 83.6846 386.142 489.249
1064 0 91.0746 12.2427 1115 83.0825 386.279 486.481
1065 1 47.0337 10.7157 504 85.1726 385.563 507.018
1066 0 49.0651 11.8618 582 84.0979 385.912 506.428
1067 0 51.0194 12.4266 634 83.4748 386.634 504.976
1068 0 54.0436 12.0458 651 81.9985 386.435 504.017
1069 0 54.0486 11.3971 616 85.5455 386.752 503.562
1070 0 55.1187 12.5003 689 84.672 386.363 502.669
1071 0 56.0783 11.9476 670 86.6119 386.415 502.278
1072 0 56.1156 12.8485 721 85.147 386.404 501.074
1073 0 61.0719 12.297 751 84.1238 386.438 499.59
1074 0 63.1256 12.2296 772 84.456 386.915 499.948
1075 0 63.0546 12.1641 767 85.5919 385.902 498.066
1076 0 66.0381 12.2656 810 85.0778 386.479 497.349
1077 0 67.0418 12.3505 828 87.7198 386.366 496.246
1078 0 71.0472 12.6958 902 86.9169 386.677 495.579
1079 0 74.0923 12.7274 943 86.8749 386.328 495.439
1080 0 77.0766 13.4541 1037 86.2932 386.562 493.877
1081 0 79.0485 13.4727 1065 87.5099 386.738 492.109
1082 0 79.0345 12.6147 997 92.0201 385.877 492.197
1083 0 83.061 13.2192 1098 91.5829 385.53 489.95
1084 0 84.0624 12.6216 1061 93.4816 385.811 489.955
1085 0 89.0368 13.0508 1162 92.7797 385.664 489.281
1086 0 91.0446 13.3231 1213 92.972 386.955 487.248
1087 0 92.1071 12.5289 1154 96.7929 386.359 487.049
1088 0 98.0317 13.2508 1299 105.002 386.242 484.694
1089 0 100.051 12.7535 1276 119.495 386.1 484.654
1090 0 101.059 12.6955 1283 122.366 386.708 481.602
1091 1 54.0484 11.1937 605 117.055 386.03 505.683
1092 0 58.0758 11.9499 694 112.667 385.597 505.097
1093 0 60.0825 13.2485 796 108.366 385.764 502.907
1094 0 61.1084 12.8297 784 106.268 386.417 502.126
1095 0 60.0247 11.7785 707 110.762 386.123 504.366
1096 0 63.0952 12.1087 764 108.526 385.432 502.518
1097 0 66.0382 11.6448 769 110.278 386.839 501.277
1098 0 68.1011 11.7472 800 109.536 386.164 501.156
1099 0 69.0514 12.1648 840 107.735 387.646 502.308
1100 0 74.0596 12.0443 892 108.111 386.901 498.518
1101 0 74.1114 12.6701 939 107.51 386.153 496.321
1102 0 78.0647 12.3872 967 108.069 386.224 494.82
1103 0 81.0975 12.3185 999 108.523 386.515 492.189
1104 0 84.0731 12.9887 1092 106.999 385.975 491.897
1105 0 85.1026 12.3733 1053 110.301 385.98 492.159
1106 0 89.1152 12.8261 1143 107.187 386.058 490.082
1107 0 91.1523 12.4736 1137 109.026 386.351 489.612
1108 0 94.087 12.9561 1219 108.265 386.701 487.689
1109 0 97.1601 12.7007 1234 107.861 386.635 486.028
1110 0 100.118 12.5851 1260 110.763 386.68 484.529
1111 1 53.0231 11.0329 585 106.885 385.956 508.515
1112 0 56.0354 10.886 610 107.538 385.395 506.734
1113 0 57.044 11.7804 672 103.787 384.897 505.071
1114 0 60.0165 11.7634 706 104.483 384.768 504.627
1115 0 59.0665 11.614 686 104.085 385.178 503.37
1116 0 62.0606 11.9399 741 102.544 386.239 501.893
1117 0 64.0729 11.7678 754 101.451 385.646 500.955
1118 0 65.0514 11.5908 754 102.385 385.749 500.371
1119 0 67.0644 11.8095 792 100.814 385.586 497.982
1120 0 70.1103 12.0382 844 99.8969 385.718 496.342
1121 0 72.0751 12.0985 872 99.4106 385.588 496.275
1122 0 76.1402 12.0567 918 97.7582 385.375 494.671
1123 0 80.076 12.2009 977 96.1433 385.489 493.815
1124 0 81.1045 11.8243 959 97.5454 385.557 491.9
1125 0 82.104 11.8386 972 96.9372 385.444 491.96
1126 0 85.1337 11.3938 970 97.6124 386.165 489.776
1127 0 87.0904 11.6431 1014 98.001 385.821 488.205
1128 0 90.1628 11.7676 1061 97.1819 385.368 485.459
1129 0 93.1303 11.5859 1079 96.4606 386.019 484.977
1130 0 98.1141 11.772 1155 95.4286 385.427 483.904
1131 1 51.1105 11.0349 564 100.367 385.426 507.098
1132 0 51.0614 11.5547 590 99.9729 385.734 506.254
1133 0 52.1081 12.0902 630 96.5254 386.008 505.759
1134 0 53.0988 11.5069 611 98.0475 385.358 505.591
1135 0 54.0716 11.1704 604 99.7632 385.157 504.563
1136 0 55.0611 11.9504 658 98.804 385.202 504.737
1137 0 59.0803 12.5761 743 95.1211 385.843 503.382
1138 0 60.0963 12.1971 733 96.0819 385.184 502.506
1139 0 61.036 12.7793 780 95.5179 385.645 501.603
1140 0 64.0803 12.7964 820 95.4817 385.561 501.717
1141 0 64.0606 12.7848 819 97.5238 385.254 500.973
1142 0 66.1272 12.0223 795 99.3245 385.083 498.322
1143 0 67.0357 12.4411 834 92.8885 385.112 499.213
1144 0 68.0562 12.1517 827 94.867 385.167 498.95
1145 0 72.0372 12.1743 877 94.8746 385.12 495.426
1146 0 75.0607 12.4033 931 95.3802 384.966 496.808
1147 0 76.0397 12.6381 961 96.1186 385.027 495.187
1148 0 77.0516 12.6539 975 98.4626 385.417 493.571
1149 0 80.0523 13.1414 1052 86.9629 385.79 492.768
1150 0 81.0683 12.619 1023 89.1349 385.374 492.126
1151 0 85.0487 12.6163 1073 89.3514 385.308 487.906
1152 0 88.1054 12.7234 1121 90.066 384.738 486.592
1153 0 90.0905 12.7982 1153 98.4068 385.434 486.615
1154 0 91.0689 13.2867 1210 97.2711 384.742 485.507
1155 0 95.1101 12.8167 1219 97.7785 384.831 483.535
1156 0 99.1391 13.1129 1300 95.0262 384.032 481.752
1157 0 99.1411 12.5579 1245 96.7253 384.565 477.701
1158 0 102.2 12.5636 1284 95.9634 385.164 477.641
1159 0 106.17 12.885 1368 95.0643 384.838 477.92
1160 0 108.137 12.5951 1362 96.301 384.977 476.09
1161 0 115.187 12.7445 1468 95.4762 385.036 475.403
1162 1 59.1256 12.2451 724 95.4351 384.529 501.202
1163 0 59.0226 12.0971 714 98.5952 384.499 501.594
1164 0 61.0144 12.7347 777 97.6486 384.109 499.843
1165 0 62.091 13.287 825 94.4933 384.392 500.813
1166 0 66.0916 13.3149 880 93.5148 384.725 500.381
1167 0 66.0916 13.2997 879 146.94 384.732 500.287
1168 0 69.0583 13.742 949 93.8303 384.448 498.297
1169 0 72.0566 13.2812 957 95.3292 384.425 497.021
1170 0 73.0643 13.9877 1022 94.4628 383.995 496.164
1171 0 75.0617 13.4956 1013 95.9526 383.991 495.032
1172 0 79.0877 13.9465 1103 94.5231 383.984 493.979
1173 0 80.0836 13.0988 1049 96.8465 384.046 494.821
1174 0 81.0531 13.2999 1078 97.2115 384.395 490.179
1175 0 84.0758 13.0715 1099 96.9445 383.618 491.29
1176 0 88.092 13.2816 1170 95.8342 384.293 488.097
1177 0 88.0564 13.1166 1155 97.4606 384.308 487.221
1178 0 93.0889 13.428 1250 95.5656 383.529 485.839
1179 0 96.0601 13.2729 1275 95.2996 384.019 485.496
1180 0 99.056 13.4671 1334 93.7376 384.298 483.129
1181 0 100.103 13.2164 1323 93.4777 384.25 481.349
1182 0 104.06 12.9252 1345 94.2944 384.18 478.926
1183 0 107.077 12.9346 1385 94.1394 384.107 476.283
1184 0 112.043 12.7897 1433 92.88 384.215 475.194
1185 1 59.0662 11.648 688 96.3619 384.66 497.608
1186 0 61.0591 12.5289 765 96.3699 384.796 495.055
1187 0 63.0755 12.2393 772 94.6658 384.335 495.483
1188 0 67.0468 12.8716 863 96.226 383.696 495.53
1189 0 68.0732 13.1182 893 95.5465 383.533 494.852
1190 0 71.0806 13.8153 982 95.8024 383.795 494.301
1191 0 73.089 13.3673 977 96.8311 384.399 491.754
1192 0 75.0859 13.2115 992 99.0716 384.694 491.298
1193 0 78.0829 14.4846 1131 95.6967 384.371 488.575
1194 0 79.0766 14.1508 1119 98.8391 384.458 485.845
1195 0 82.0685 13.4887 1107 97.3631 384.638 487.858
1196 0 83.0801 13.6856 1137 100.683 384.661 484.982
1197 0 86.0765 13.8249 1190 101.939 384.076 482.992
1198 0 89.0913 14.1316 1259 100.237 383.894 481.51
1199 0 88.1448 12.7631 1125 105.31 383.817 482.457
1200 0 92.1386 13.2192 1218 105.217 383.942 481.494
1201 0 95.0877 13.4823 1282 104.722 384.047 481.079
1202 0 97.1077 13.9124 1351 104.954 384.146 479.019
1203 0 101.079 14.1177 1427 105.067 383.708 476.353
1204 0 103.13 13.8661 1430 105.438 384.155 474.918
1205 0 109.174 13.8678 1514 104.567 384.571 473.037
1206 0 113.153 14.2021 1607 102.985 384.761 472.259
1207 0 115.082 13.8075 1589 104.529 385.265 471.176
1208 0 119.188 13.5585 1616 105.512 384.989 469.298
1209 0 124.133 13.7675 1709 104.911 385.021 467.603
1210 0 127.084 13.7232 1744 104.575 384.881 468.481
1211 0 131.157 13.5258 1774 104.091 384.547 466.876
1212 0 134.072 13.0079 1744 106.505 384.589 465.411
1213 0 138.15 13.1741 1820 106.88 385.159 462.655
1214 0 144.17 13.2898 1916 104.465 384.428 461.902
1215 0 146.206 12.9407 1892 106.616 384.811 457.323
1216 0 152.281 12.8841 1962 105.783 385.038 454.076
1217 0 159.158 13.1567 2094 104.019 384.476 452.167
1218 0 163.139 13.6142 2221 102.731 384.494 449.066
1219 0 168.202 13.2341 2226 104.417 384.446 445.719
1220 0 173.222 13.3643 2315 106.066 384.486 443.953
1221 0 179.135 13.6656 2448 105.939 384.905 437.638
1222 0 188.334 13.8955 2617 104.327 384.488 436.11
1223 0 194.219 13.7114 2663 105.335 384.733 432.235
1224 0 200.281 13.7657 2757 104.316 384.851 430.243
1225 0 205.169 13.3402 2737 105.587 385.248 429.2
1226 0 212.215 13.3638 2836 106.774 385.371 425.023
1227 0 219.238 13.2641 2908 107.21 385.18 422.63
1228 0 227.24 13.1535 2989 108.044 384.8 415.06
1229 0 231.326 12.8822 2980 108.109 384.84 413.811
1230 1 56.0163 12.5856 705 105.113 384.328 499.655
1231 0 56.0325 11.5647 648 101.093 383.89 500.076
1232 0 58.0281 12.1665 706 100.387 384.826 498.057
1233 0 59.0189 12.3011 726 102.225 384.69 498.372
1234 0 62.0844 11.9676 743 106.681 384.662 499.429
1235 0 65.0478 12.2218 795 105.358 384.936 498.372
1236 0 64.0596 12.1137 776 107.207 384.995 498.821
1237 0 67.0386 12.724 853 105.012 384.797 496.279
1238 0 69.0357 12.7615 881 104.622 384.704 493.988
1239 0 70.0262 12.8809 902 105.379 384.69 492.646
1240 0 72.0616 12.2812 885 107.288 384.407 490.582
1241 0 75.0839 12.5992 946 105.554 384.752 490.214
1242 0 79.0542 12.9531 1024 103.715 384.789 488.365
1243 0 82.0704 13.0132 1068 103.808 384.796 486.456
1244 0 86.1007 12.6944 1093 103.899 385.467 486.253
1245 0 86.0598 12.5843 1083 104.891 385.476 483.541
1246 0 93.0496 13.3262 1240 100.158 385.027 480.855
1247 1 47.0429 11.7977 555 106.532 384.014 502.301
1248 0 49.0174 12.1793 597 107.365 384.439 502.412
1249 0 51.1622 12.4311 636 106.057 384.561 504.14
1250 0 52.1187 12.3564 644 107.637 384.823 502.172
1251 0 53.097 12.7314 676 106.121 384.2 502.355
1252 0 55.0685 13.5286 745 101.121 384.929 502.84
1253 0 55.1149 12.1746 671 105.186 385.319 501.222
1254 0 56.0768 12.0549 676 105.254 385.325 499.351
1255 0 58.062 12.435 722 103.043 386.108 494.259
1256 0 60.0427 12.4078 745 102.566 385.085 493.173
1257 0 61.1395 12.0217 735 104.437 385.479 493.366
1258 0 64.1003 12.3556 792 103.511 384.585 491.186
1259 0 66.1046 11.8297 782 104.976 384.324 491.014
1260 0 66.137 11.6879 773 106.04 384.687 491.288
1261 0 68.1343 12.3726 843 105.412 384.582 490.146
1262 0 72.1397 12.7114 917 104.39 384.469 487.848
1263 0 76.1124 13.3881 1019 100.345 384.16 487.382
1264 0 78.1316 13.2213 1033 101.52 385.141 486.083
1265 0 80.1565 13.3863 1073 101.329 384.945 485.24
1266 0 84.1664 13.2832 1118 101.792 385.002 484.64
1267 0 84.1509 12.2756 1033 105.449 385.019 485.995
1268 0 86.1992 12.4595 1074 105.777 384.828 483.488
1269 0 89.2429 12.6173 1126 106.308 384.228 483.133
1270 0 92.1963 11.7901 1087 107.533 384.649 482.069
1271 0 94.2261 12.2259 1152 106.952 384.209 478.977
1272 1 54.0369 11.9918 648 107.264 383.577 498.309
1273 0 55.1086 12.1578 670 105.327 383.527 499.736
1274 0 58.1038 12.4949 726 104.477 384.752 498.844
1275 0 58.0998 12.6506 735 103.679 385.136 500.644
1276 0 58.0311 11.7006 679 108.286 385.314 500.046
1277 0 59.0403 12.1273 716 108.5 385.147 498.291
1278 0 60.1124 12.2271 735 108.739 385.23 498.45
1279 0 64.1525 12.4391 798 107.921 385.751 496.347
1280 0 65.096 12.904 840 106.674 385.136 493.681
1281 0 67.1993 12.4853 839 107.714 384.166 492.723
1282 0 69.1846 12.734 881 106.661 385.073 491.798
1283 0 73.0805 12.7394 931 105.666 385.591 490.957
1284 0 74.2401 12.9714 963 106.386 385.916 488.805
1285 0 75.1186 12.3272 926 108.538 385.537 488.816
1286 0 78.0981 12.894 1007 105.682 385.768 488.194
1287 0 80.1475 12.3772 992 106.66 385.705 487.791
1288 0 83.1872 12.4779 1038 107.159 385.973 485.76
1289 0 84.2041 11.6859 984 108.648 385.552 485.893
1290 0 89.3555 12.5454 1121 105.436 386.054 483.358
1291 0 92.3554 12.257 1132 105.222 385.892 482.805
1292 1 50.0466 11.2295 562 105.956 384.47 501.053
1293 0 53.0536 12.2706 651 104.201 383.837 501.567
1294 0 54.0466 12.7113 687 104.055 384.924 502.15
1295 0 57.0381 13.1491 750 101.671 384.981 501.513
1296 0 59.1538 13.0845 774 101.828 384.779 502.523
1297 0 59.1399 13.0369 771 102.51 384.244 500.909
1298 0 61.1002 13.4206 820 100.774 384.512 500.69
1299 0 62.1367 13.1323 816 101.686 385.246 500.287
1300 0 65.1081 13.3624 870 100.245 385.339 499.622
1301 0 65.0554 13.6499 888 101.053 385.159 497.493
1302 0 66.0783 12.7122 840 104.583 385.177 497.675
1303 0 68.0549 13.063 889 104.728 384.402 494.538
1304 0 69.1328 12.6568 875 105.915 384.937 494.008
1305 0 69.0714 12.2627 847 108.506 384.77 493.651
1306 0 71.0654 12.4111 882 108.155 384.591 492.857
1307 0 74.1546 12.9055 957 105.69 384.519 492.607
1308 0 76.0838 13.1303 999 106.782 383.88 489.836
1309 0 78.0862 12.9728 1013 106.279 383.868 487.963
1310 0 81.1119 12.7232 1032 106.493 384.179 484.248
1311 0 82.0988 13.094 1075 106.333 384.637 483.07
1312 0 85.1129 12.8653 1095 105.947 384.672 484.545
1313 0 88.1306 13.0261 1148 105.303 383.858 483.449
1314 0 88.1019 12.5082 1102 106.878 384.445 481.163
1315 0 94.156 12.766 1202 104.498 384.323 481.522
1316 0 96.1546 13.1663 1266 103.963 383.906 480.348
1317 1 54.0493 10.6754 577 99.6291 383.494 500.118
1318 0 58.0689 11.848 688 101.225 383.452 502.42
1319 0 58.0598 12.246 711 101.321 382.902 501.736
1320 0 57.0789 11.2125 640 100.023 383.658 503.63
1321 0 62.0503 12.6349 784 94.1212 383.144 502.839
1322 0 63.0845 11.4133 720 97.3694 384.636 501.825
1323 0 66.0454 12.4914 825 94.1964 384.308 499.6
1324 0 67.047 12.1258 813 95.7589 385.943 498.675
1325 0 70.0598 12.3038 862 94.6752 386.372 497.564
1326 0 72.1206 12.1463 876 95.3527 385.264 496.711
1327 0 72.0485 11.7421 846 96.4905 386.5 495.479
1328 0 76.0623 11.8061 898 96.0757 384.367 491.458
1329 0 78.0591 10.9532 855 98.4667 384.297 489.989
1330 0 80.0651 11.2533 901 97.5161 383.997 488.391
1331 0 84.0574 12.3011 1034 94.764 384.044 487.604
1332 1 46.0409 9.73048 448 100.1 383.571 506.884
1333 0 48.0132 11.601 557 93.6894 384.092 507.77
1334 0 48.0386 10.7622 517 92.6228 383.977 505.395
1335 0 52.0111 12.0167 625 91.2736 383.328 506.461
1336 0 52.028 12.378 644 91.0652 383.186 503.957
1337 0 53.0665 11.4762 609 93.8916 383.908 509.309
1338 0 54.0556 11.7287 634 93.9243 383.782 507.711
1339 0 55.0698 11.8395 652 95.8972 383.752 506.04
1340 0 58.0548 11.6269 675 95.6237 383.507 505.227
1341 0 60.0724 13.0176 782 93.3939 384.743 505.904
1342 0 61.0495 12.1541 742 96.9879 384.096 505.589
1343 0 62.1143 12.3321 766 97.2063 383.886 505.436
1344 0 64.0518 12.6304 809 97.7676 383.489 504.32
1345 0 66.0294 12.9942 858 97.6259 383.239 501.686
1346 0 67.0975 11.8484 795 102.27 383.019 501.823
1347 0 71.0675 12.8329 912 100.663 383.318 500.951
1348 0 72.0791 13.1661 949 100.924 383.549 500.24
1349 0 75.0852 12.9187 970 102.291 382.918 499.03
1350 0 77.0628 12.7558 983 104.966 383.543 496.489
1351 0 81.0961 13.1696 1068 103.375 383.872 494.811
1352 0 80.123 12.8053 1026 105.949 383.381 493.472
1353 0 84.0679 13.1679 1107 106.194 383.493 492.066
1354 0 88.05 13.0267 1147 106.673 383.212 492.403
1355 0 91.1154 13.0055 1185 107.964 383.689 490.868
1356 1 48.0577 12.2977 591 109.533 383.286 510.567
1357 0 49.0684 11.861 582 111.095 383.395 508.96
1358 0 51.1102 12.4046 634 109.412 383.027 507.68
1359 0 51.0497 12.8502 656 109.082 383.527 506.53
1360 0 53.1364 12.9478 688 101.048 383.161 507.725
1361 0 53.0334 12.5393 665 102.672 382.717 507.82
1362 0 53.0298 11.6727 619 106.877 383.331 508.087
1363 0 54.0338 11.9185 644 106.275 383.533 506.697
1364 0 55.0583 11.9146 656 105.919 383.54 506.593
1365 0 58.0524 11.4552 665 106.177 383.738 505.552
1366 0 60.0765 12.3509 742 102.163 383.836 507.221
1367 0 62.0431 12.9104 801 100.667 383.633 504.939
1368 0 65.0474 12.4063 807 101.387 383.447 503.18
1369 0 67.0349 12.9485 868 101.136 383.426 502.51
1370 0 67.0373 12.9182 866 144.566 382.441 502.303
1371 0 72.047 13.7271 989 99.0344 382.627 500.448
1372 0 74.0941 13.1589 975 99.7579 383.413 498.786
1373 0 75.1028 13.395 1006 98.2982 383.104 499.315
1374 0 80.0607 14.0893 1128 97.406 382.952 496.148
1375 0 83.1153 13.5114 1123 106.357 382.934 495.573
1376 0 83.1095 13.3438 1109 107.195 383.008 494.026
1377 0 86.0639 13.6062 1171 100.453 382.781 492.86
1378 0 88.1603 13.4641 1187 103.14 382.845 493.766
1379 0 88.0966 13.5193 1191 102.715 383.115 492.264
1380 0 89.1586 13.7059 1222 104.579 383.676 492.486
1381 0 88.1115 13.1084 1155 109.268 383.261 489.741
1382 0 91.0885 13.4046 1221 108.058 383.353 489.516
1383 0 95.0473 13.73 1305 104.318 383.158 488.785
1384 1 49.044 11.5407 566 103.196 382.203 511.124
1385 0 51.0819 11.5892 592 98.8514 382.48 510.542
1386 0 53.0769 11.9073 632 95.6899 382.206 510.358
1387 0 53.0623 11.8917 631 93.8859 382.528 507.642
1388 0 56.0707 12.3416 692 91.0448 382.668 507.585
1389 0 57.0424 12.7098 725 89.0621 383.161 506.126
1390 0 58.0257 12.1153 703 89.9189 382.05 504.568
1391 0 60.0424 12.9242 776 88.3518 382.214 504.611
1392 0 63.0688 12.6053 795 88.1384 382.821 503.898
1393 0 63.0221 12.567 792 89.6351 382.451 503.051
1394 0 65.03 12.8556 836 89.9127 382.682 501.635
1395 0 69.0353 12.3995 856 91.007 382.912 500.867
1396 0 71.031 12.755 906 90.404 382.649 500.539
1397 0 72.0776 12.7918 922 91.7354 382.833 498.96
1398 0 73.0309 12.4605 910 93.5495 383.11 498.8
1399 0 76.0192 12.7336 968 90.7862 382.709 497.251
1400 0 77.0427 12.188 939 86.1416 382.809 498.199
1401 0 77.044 12.2138 941 127.97 382.79 498.165
1402 0 80.111 11.9834 960 89.5396 382.977 492.442
1403 0 84.0806 11.6793 982 90.8167 382.623 493.709
1404 0 86.0768 11.8383 1019 90.6762 382.042 492.683
1405 0 88.0399 11.5516 1017 93.1209 382.159 492.398
1406 1 51.0486 10.7544 549 92.1785 382.632 512.208
1407 0 49.0138 11.8742 582 93.2371 382.387 510.486
1408 0 53.0129 12.1669 645 98.1628 382.288 509.34
1409 0 52.0114 11.5552 601 94.3078 382.253 509.574
1410 0 54.0141 11.6081 627 95.6188 383.116 508.357
1411 0 56.0284 12.101 678 95.0074 382.642 506.611
1412 0 58.0332 11.8381 687 94.5298 383.124 507.741
1413 0 59.0344 11.163 659 96.9211 383.156 506.445
1414 0 60.0128 11.0976 666 97.3739 382.91 505.168
1415 0 63.044 11.6585 735 96.1048 382.886 503.454
1416 0 64.0232 11.6364 745 97.5436 382.765 503.795
1417 0 65.0169 11.8584 771 98.0778 382.842 503.093
1418 0 70.0292 12.609 883 92.3046 382.657 498.367
1419 0 72.0172 12.3998 893 97.6002 382.962 498.534
1420 0 74.0371 12.6018 933 96.7546 382.667 499.3
1421 0 78.0469 12.8256 1001 96.1029 383.187 498.268
1422 0 80.0428 12.3934 992 98.371 383.094 495.896
1423 0 83.0828 13.1676 1094 97.1042 383.351 494.416
1424 0 86.1188 13.0517 1124 97.2749 383.286 492.796
1425 0 88.1084 13.0067 1146 104.569 383.434 491.541
1426 0 90.1717 13.2081 1191 104.719 383.095 489.638
1427 1 50.0428 10.6509 533 101.349 383.784 510.692
1428 0 51.0608 11.359 580 98.8621 382.943 508.376
1429 0 52.0561 11.3339 590 95.8525 382.824 509.697
1430 0 53.0281 11.9371 633 94.1058 383.227 508.539
1431 0 53.0315 11.974 635 129.282 384.239 508.512
1432 0 57.0732 11.897 679 102.39 383.49 505.191
1433 0 58.0289 11.7355 681 101.909 383.737 503.458
1434 0 62.0688 11.6806 725 100.359 383.967 502.761
1435 0 63.0455 11.6107 732 98.9057 382.847 501.98
1436 0 65.0932 11.9982 781 96.8054 383.867 500.997
1437 0 67.1069 11.5487 775 96.3097 383.222 499.493
1438 0 67.0674 11.3319 760 90.2763 383.116 496.403
1439 0 68.0165 11.3502 772 91.4573 383.527 494.926
1440 0 70.0363 11.5512 809 92.3646 383.548 493.349
1441 0 72.0576 11.5047 829 92.4415 383.407 494.086
1442 0 76.0263 11.7854 896 95.2087 383.481 494.039
1443 0 78.0304 11.4827 896 95.6931 384.03 491.972
1444 0 79.0547 11.4604 906 96.489 384.368 490.091
1445 0 84.0345 12.5544 1055 89.8758 383.92 489.913
1446 0 86.0818 12.0583 1038 92.5048 383.797 488.995
1447 0 88.025 12.0534 1061 93.3035 384.132 487.415
1448 0 90.05 12.2932 1107 93.6405 382.901 484.934
1449 0 92.0426 12.592 1159 94.9612 383.884 485.379
1450 0 95.038 12.4792 1186 95.9848 383.949 482.92
1451 0 98.0395 12.7602 1251 95.4013 383.631 481.687
1452 0 102.138 12.3851 1265 96.6759 383.161 478.933
1453 0 105.109 12.0351 1265 97.9344 383.874 476.213
1454 0 107.165 12.756 1367 97.305 383.911 475.554
1455 0 109.199 12.4452 1359 98.7322 384.289 473.853
1456 0 113.169 12.1323 1373 99.5157 383.822 471.318
1457 0 117.269 12.2027 1431 99.8651 384.751 470.48
1458 0 122.194 13.4622 1645 96.2802 384.348 467.913
1459 0 124.164 13.168 1635 98.6807 383.746 465.192
1460 0 124.164 13.1116 1628 147.708 382.741 465.139
1461 0 131.389 13.1594 1729 100.34 383.534 460.947
1462 0 136.191 12.8716 1753 101.172 384.011 458.9
1463 0 140.136 13.494 1891 100.323 383.434 456.405
1464 0 144.238 13.3252 1922 102.011 383.264 453.688
1465 0 149.255 13.7751 2056 102.096 383.616 451.613
1466 0 153.273 13.4531 2062 103.253 383.146 447.953
1467 0 161.222 13.807 2226 103 383.18 445.203
1468 0 164.208 13.5012 2217 104.355 383.56 441.584
1469 0 172.229 14.2543 2455 101.573 383.975 439.597
1470 0 176.385 14.2586 2515 102.497 383.438 438.665
1471 0 180.203 13.9287 2510 105.162 383.251 433.664
1472 0 180.203 13.8954 2504 158.092 383.255 433.614
1473 0 190.128 13.2647 2522 109.151 382.99 430.083
1474 0 196.264 14.4601 2838 106.668 383.16 428.665
1475 0 203.411 15.2056 3093 104.478 383.316 422.602
1476 0 208.403 14.8366 3092 105.811 382.953 419.436
1477 0 212.283 14.834 3149 106.544 383.418 416.343
1478 0 217.432 14.1791 3083 109.415 383.626 414.308
1479 0 223.222 14.5729 3253 107.693 383.811 414.605
1480 0 230.303 14.7284 3392 108.059 384.32 409.876
1481 0 237.172 14.4494 3427 110.784 383.318 406.207
1482 1 178.138 12.9001 2298 113.738 383.72 436.511
1483 0 183.232 12.9999 2382 114.251 383.56 434.318
1484 0 189.196 13.6366 2580 115.556 383.467 427.839
1485 0 197.18 13.4953 2661 113.736 383.876 423.924
1486 0 203.117 13.8935 2822 114.906 385.134 420.754
1487 0 207.145 13.1792 2730 117.091 384.354 417.382
1488 0 215.164 13.0923 2817 116.491 383.978 415.785
1489 0 222.123 13.533 3006 115.14 384.15 410.616
1490 0 229.197 13.316 3052 117.033 384.037 407.163
1491 0 237.21 13.2161 3135 118.129 384.055 399.976
1492 0 244.233 13.1513 3212 122.85 384.053 394.549
1493 1 177.239 10.8102 1916 123.747 383.602 432.588
1494 1 70.0985 10.956 768 109.819 383.126 485.039
1495 0 73.2055 12.1849 892 102.189 383.238 489.201
1496 0 76.0366 10.4555 795 90.8541 385.113 493.401
1497 0 79.0628 10.7762 852 106.196 385.128 490.579
1498 0 83.1415 11.294 939 104.52 384.217 489.594
1499 0 83.1268 11.0193 916 106.831 384.317 486.995
1500 0 85.1594 11.0029 937 106.62 384.029 483.45
1501 0 89.089 10.6186 946 103.572 385.155 484.462
1502 0 92.0482 10.8204 996 101.251 385.049 481.502
1503 0 98.155 10.4427 1025 101.06 385.434 479.686
1504 0 98.0881 10.7862 1058 99.638 384.969 480.507
1505 0 98.1124 10.8447 1064 99.8205 385.203 478.596
1506 0 100.079 10.6816 1069 99.4331 384.6 474.963
1507 0 104.194 11.2771 1175 97.1651 384.601 474.198
1508 0 109.126 11.1522 1217 92.2605 384.8 472.264
1509 0 111.191 10.4775 1165 96.8386 384.9 470.227
1510 0 116.214 11.0399 1283 94.3531 384.806 469.695
1511 0 118.285 10.9819 1299 96.4072 384.989 468.149
1512 0 126.252 11.9682 1511 91.7558 384.208 465.571
1513 0 129.254 12.3013 1590 91.9447 383.974 464.474
1514 0 132.32 12.1826 1612 93.2959 384.511 460.192
1515 0 136.336 11.8604 1617 93.9338 384.706 460.784
1516 0 141.251 12.3185 1740 93.181 384.746 457.166
1517 0 144.359 11.9563 1726 95.6611 384.612 454.114
1518 0 147.233 12.1847 1794 94.8317 384.116 452.013
1519 0 151.336 11.9799 1813 95.0298 384.154 450.687
1520 0 156.35 12.5168 1957 93.6924 384.912 447.695
1521 0 160.224 12.1892 1953 93.2381 384.475 446.52
1522 0 165.238 12.6847 2096 93.7156 384.777 441.291
1523 0 167.341 13.0871 2190 94.0032 384.658 439.991
1524 0 174.327 12.9928 2265 93.9121 384.772 440.161
1525 0 179.204 13.9115 2493 92.2575 384.172 433.085
1526 0 183.327 13.2878 2436 93.9889 384.347 432.006
1527 0 191.347 13.29 2543 91.4318 384.449 429.932
1528 0 200.244 15.8707 3178 83.9711 384.073 419.846
1529 0 203.266 13.3618 2716 94.2588 384.287 425.694
1530 1 146.191 11.9638 1749 95.0475 384.491 453.72
1531 0 153.15 12.5563 1923 95.1456 384.81 453.624
1532 0 158.248 12.5183 1981 96.6507 385.045 451.732
1533 0 161.194 12.2647 1977 98.655 385.105 449.048
1534 0 165.235 12.2553 2025 100.638 385.143 446.635
1535 0 171.204 12.0558 2064 102.879 384.423 444.213
1536 1 182.194 11.7128 2134 101.782 384.283 444.022
1537 0 179.285 12.2319 2193 102.294 383.712 438.819
1538 0 184.324 13.563 2500 98.1824 384.249 434.224
1539 0 192.284 13.8389 2661 97.3063 384.638 432.81
1540 1 88.1674 11.0699 976 91.6742 384.329 483.644
1541 0 92.1472 11.9483 1101 91.149 384.224 481.496
1542 0 93.1825 12.2233 1139 91.4039 384.325 480.414
1543 0 96.1785 11.697 1125 94.2409 384.764 480.697
1544 0 99.1072 12.4108 1230 93.5878 384.794 477.111
1545 0 101.186 12.2151 1236 93.9976 384.322 474.562
1546 0 105.144 12.1167 1274 94.2088 383.951 472.682
1547 0 106.259 12.1684 1293 95.6489 384.404 472.655
1548 0 108.225 11.8087 1278 96.9257 384.61 472.976
1549 0 110.225 12.157 1340 96.6463 384.39 469.584
1550 0 114.224 12.7469 1456 95.7459 384.025 467.389
1551 0 118.243 12.4574 1473 96.6775 383.996 466.066
1552 0 123.258 12.8186 1580 94.7215 384.151 465.649
1553 0 126.177 13.1007 1653 95.1283 383.537 463.341
1554 0 128.319 12.6638 1625 97.0554 383.746 462.095
1555 0 132.394 12.8026 1695 97.0938 383.667 461.195
1556 0 136.238 12.5369 1708 98.3378 383.555 459.034
1557 0 140.24 12.5071 1754 98.9413 384.255 459.498
1558 0 143.309 12.7556 1828 99.9809 384.319 455.305
1559 0 148.293 12.8597 1907 100.09 385.128 454.007
1560 0 154.185 12.7769 1970 100.994 384.535 451.001
1561 0 158.414 12.5304 1985 102.003 384.261 448.84
1562 0 162.336 12.1538 1973 104.318 384.459 445.977
1563 0 168.307 12.8753 2167 103.772 384.611 444.135
1564 0 172.253 13.1609 2267 102.141 384.101 440.689
1565 0 176.284 12.7465 2247 103.866 384.337 439.081
1566 0 180.254 12.8597 2318 103.902 384.113 437.561
1567 0 185.301 13.2595 2457 103.428 384.174 437.256
1568 0 191.275 13.0232 2491 104.238 384.477 433.774
1569 0 197.383 13.0963 2585 104.409 384.9 431.803
1570 0 202.284 12.7741 2584 105.661 384.108 426.498
1571 0 207.322 12.5216 2596 106.025 384.454 426.255
1572 0 213.194 12.9928 2770 105.138 384.896 424.669
1573 0 219.389 12.5212 2747 107.627 385.302 422.98
1574 0 227.271 12.8613 2923 106.83 385.034 418.494
1575 0 233.288 12.9325 3017 107.768 384.326 415.298
1576 0 239.401 12.7903 3062 109.688 384 413.854
1577 1 191.286 12.8656 2461 108.942 384.064 436.278
1578 0 195.204 13.0172 2541 109.326 384.085 432.828
1579 0 201.273 13.5537 2728 107.818 383.982 429.19
1580 0 207.298 12.4507 2581 111.408 383.441 430.22
1581 0 212.27 12.3428 2620 112.682 384.174 425.842
1582 1 276.264 12.9803 3586 113.307 384.083 394.696
1583 0 283.309 12.9823 3678 112.99 384.033 392.362
1584 0 290.377 14.4984 4210 111.029 384.472 377.725
1585 0 295.381 13.0171 3845 115.993 384.237 384.257
1586 1 242.295 12.5591 3043 114.834 384.447 405.873
1587 0 248.246 12.1211 3009 116.976 383.937 404.967
1588 0 255.256 12.2818 3135 118.789 384.032 402.323
1589 0 263.311 12.9239 3403 117.077 383.78 396.974
1590 0 267.272 12.6126 3371 120.095 383.737 397.188
1591 0 273.3 12.199 3334 122.27 383.499 393.906
1592 0 280.342 12.5169 3509 121.88 383.197 391.046
1593 0 289.363 13.3224 3855 123.413 383.747 389.216
1594 0 296.326 12.9317 3832 125.473 383.886 383.346
1595 0 296.175 12.6277 3740 122.705 383.923 368.987
1596 1 333.317 7.14336 2381 135.947 383.702 403.242
1597 0 332.231 18.9868 6308 101.559 382.848 335.243
1598 0 337.301 18.8259 6350 103.021 383.369 331.476
1599 0 342.137 16.1222 5516 112.646 383.495 336.281
1600 0 350.217 15.5675 5452 113.216 383.728 344.461
1601 1 43.0069 8.99855 387 79.876 385.207 500.687
1602 0 45.0413 9.10275 410 79.2659 384.82 499.449
1603 0 45.024 9.48384 427 77.6464 384.628 500.593
1604 0 48.0378 11.033 530 86.8698 383.602 505.268
1605 0 48.0378 11.033 530 119.217 382.602 505.268
1606 0 49.0443 11.4998 564 88.8227 383.642 505.867
1607 0 49.0485 10.9484 537 90.1993 383.268 507.142
1608 0 48.0419 10.8447 521 92.4722 383.33 506.388
1609 0 49.0324 11.3802 558 93.4642 383.36 505.419
1610 0 49.0149 11.0783 543 96.0239 383.937 507.858
1611 0 49.0497 10.3568 508 98.689 384.219 508.478
1612 0 48.0169 10.4546 502 100.201 383.803 506.38
1613 0 49.0223 10.3626 508 100.246 384.307 507.949
1614 0 49.0213 10.118 496 101.692 384.367 506.685
1615 0 49.0403 10.6443 522 101.556 383.222 506.492
1616 0 51.0527 10.5773 540 101.78 383.217 505.87
1617 1 65.1139 11.8408 771 85.2763 383.712 499.97
1618 0 66.0795 12.0612 797 84.9097 384.001 500.45
1619 0 60.0639 13.6854 822 84.2372 384.268 500.617
1620 0 58.0246 12.9945 754 88.5782 384.442 500.664
1621 0 56.0554 13.5758 761 89.8673 384.66 502.84
1622 0 49.0109 10.4467 512 106.068 384.744 506.064
1623 0 54.0857 12.8315 694 91.7839 383.432 500.731
1624 0 56.0511 13.0417 731 91.3064 383.947 502.204
1625 0 53.1387 11.724 623 97.4462 384.555 502.554
1626 0 55.1224 12.1729 671 96.0313 384.623 504.501
1627 0 53.0411 11.9153 632 96.3054 384.312 504.009
1628 0 57.0524 12.4272 709 91.3441 384.406 503.848
