time division length width area intensity CMx CMy
0 0 133.142 14.5033 1931 135.79 693.36 453.671
1 0 139.173 14.6365 2037 132.496 693.84 451.235
2 0 143.177 14.4297 2066 130.291 693.422 449.545
3 0 145.151 14.013 2034 129.649 693.502 446.928
4 0 150.158 14.3782 2159 120.518 693.693 446.036
5 0 152.244 13.1433 2001 122.697 694.367 441.22
6 1 96.0779 13.5411 1301 122.569 694.023 471.424
7 0 99.129 14.3147 1419 122.02 694.323 471.168
8 0 102.138 14.1573 1446 120.894 694.249 469.64
9 0 104.171 14.8986 1552 117.466 693.976 468.639
10 0 107.136 13.2168 1416 114.965 693.169 469.083
11 0 112.161 13.329 1495 111.334 693.722 467.197
12 0 114.09 13.2877 1516 109.437 693.796 466.039
13 0 120.163 13.5899 1633 106.309 693.126 463.224
14 0 124.116 13.8822 1723 109.616 692.3 459.842
15 0 128.198 14.15 1814 105.662 693.273 456.632
16 1 70.1362 12.932 907 103.35 692.776 485.859
17 0 72.1545 13.2909 959 101.09 692.735 484.466
18 0 75.1154 13.7255 1031 99.0514 692.811 483.452
19 0 79.0666 13.7732 1089 100.051 692.391 482.091
20 0 80.1533 13.4367 1077 99.7874 692.354 481.695
21 0 84.1138 13.8503 1165 96.7193 691.221 480.703
22 0 88.1253 14.0709 1240 95.3137 691.336 478.74
23 0 89.1524 13.9312 1242 94.6852 691.568 477.367
24 0 92.1921 13.7539 1268 93.4708 691.349 473.935
25 0 95.1509 13.61 1295 92.9691 691.562 472.859
26 0 98.0386 13.8823 1361 91.6657 691.512 470.815
27 0 102.115 13.7493 1404 91.2714 691.765 470.21
28 0 103.125 13.5176 1394 91.193 691.793 467.751
29 0 109.075 13.6695 1491 89.2106 691.761 465.842
30 0 113.099 13.7579 1556 89.5713 691.68 464.299
31 1 59.0821 11.8141 698 89.1905 690.94 489.269
32 0 63.0915 11.8717 749 88.9386 690.744 489.833
33 0 64.037 12.5865 806 88.9355 690.904 487.584
34 0 63.04 12.2938 775 90.6568 690.965 485.095
35 0 66.022 11.996 792 93.7538 691.287 483.807
36 0 69.0606 12.9451 894 91.2461 690.771 484.383
37 0 72.0569 12.9203 931 92.3534 691.019 482.927
38 0 75.0913 13.3704 1004 92.2281 691.027 481.713
39 0 79.0451 12.9799 1026 94.7534 691.627 480.116
40 0 80.0693 12.4018 993 98.0997 691.495 479.735
41 0 82.072 12.9764 1065 97.1333 690.81 479.783
42 0 86.0453 12.6329 1087 98.4683 691.108 479.099
43 0 87.1326 12.9228 1126 98.7718 690.777 476.8
44 0 91.0742 13.5713 1236 96.6019 690.553 476.43
45 0 94.0911 13.4657 1267 97.9708 691.206 474.059
46 0 98.0751 13.4795 1322 99.0741 690.815 472.362
47 0 101.068 13.6838 1383 98.9046 691.62 468.419
48 0 106.027 14.0624 1491 96.9363 691.004 467.888
49 1 54.0332 11.3634 614 93.9609 691.05 494.98
50 0 53.0807 10.6442 565 83.6513 691.232 489.204
51 0 55.0352 11.0293 607 83.6442 691.331 489.733
52 0 59.0383 12.5681 742 84.5714 690.716 494.137
53 0 60.0387 11.9756 719 87.4798 690.828 493.74
54 0 60.1668 11.6343 700 89.5743 690.477 492.409
55 0 64.047 12.6938 813 85.8684 691.237 491.823
56 0 65.0343 12.3012 800 87.0325 691.092 490.324
57 0 68.0419 12.3306 839 87.1025 691.913 490.076
58 0 71.079 12.5635 893 86.2139 692.618 487.813
59 0 73.0775 12.9041 943 84.8865 691.304 488.135
60 0 75.1222 13.6045 1022 83.8601 691.851 486.464
61 0 78.0882 13.3439 1042 85.9501 692.708 485.126
62 0 81.1285 12.6466 1026 87.8528 691.714 483.878
63 0 82.1356 12.8811 1058 88.7439 691.453 482.549
64 0 86.1015 13.7744 1186 87.156 691.498 481.151
65 0 88.1161 12.6197 1112 89.8894 692.327 480.563
66 0 91.074 12.2757 1118 89.7308 692.351 478.539
67 0 94.0651 12.3957 1166 90.3491 692.063 477.115
68 0 98.0706 13.3679 1311 87.91 692.032 475.674
69 0 100.105 12.387 1240 89.5298 692.527 475.152
70 0 103.106 12.5308 1292 89.6618 692.764 474.828
71 0 105.074 12.0486 1266 91.2733 693.213 471.595
72 0 106.118 11.6097 1232 91.8742 692.95 469.12
73 0 112.115 12.2464 1373 88.9366 692.841 467.962
74 0 116.226 11.7186 1362 91.2247 692.427 465.109
75 0 117.093 11.5122 1348 91.1157 693.094 459.604
76 0 119.167 11.0685 1319 92.0053 692.408 456.519
77 0 125.074 11.681 1461 89.6194 692.778 454.763
78 1 61.0348 9.53554 582 90.2509 693.265 481.431
79 0 66.054 10.9002 720 84.7375 692.968 480.717
80 0 70.0588 11.2192 786 86.626 693.032 488.153
81 0 71.0684 11.1301 791 87.5765 693.043 488.915
82 0 74.1495 11.3015 838 87.1372 692.983 487.389
83 0 77.1006 11.0764 854 87.2049 692.6 485.474
84 0 79.1065 11.4782 908 86.8238 693.063 482.735
85 0 81.0866 11.4322 927 86.9881 692.813 482.513
86 0 84.0764 11.7631 989 85.1294 692.966 481.425
87 0 88.0576 11.8332 1042 85.2438 693.677 478.205
88 0 91.0786 12.2312 1114 81.8968 693.644 478.623
89 0 93.117 11.7701 1096 84.8248 693.133 476.916
90 0 96.0646 12.1169 1164 83.1538 693.265 472.232
91 0 98.1104 12.0476 1182 83.7521 692.885 472.143
92 0 103.183 12.3663 1276 83.1324 692.887 470.608
93 0 106.092 12.6399 1341 82.821 692.922 468.424
94 1 60.0523 10.4909 630 84.4206 692.746 492.249
95 0 61.0401 11.0092 672 82.6458 692.195 492.618
96 0 62.0535 11.5868 719 82.0223 692.068 491.566
97 0 60.0593 10.14 609 74.7603 692.997 493.959
98 0 61.1522 9.45184 578 75.3495 693.19 494.599
99 0 66.0444 10.281 679 73.2548 692.508 491.966
100 0 68.0836 10.5312 717 73.145 692.658 490.584
101 0 69.1094 10.7221 741 73.6019 692.704 488.622
102 0 71.0728 10.0179 712 75.5786 692.472 488.899
103 0 73.0471 10.0483 734 76.827 692.91 486.252
104 0 75.0737 10.0968 758 77.5343 692.887 485.103
105 0 78.0595 10.1589 793 77.7894 692.965 483.353
106 0 82.079 10.0757 827 78.9069 692.53 481.571
107 0 85.0832 10.237 871 79.8014 692.476 480.734
108 0 90.112 10.8088 974 79.9938 692.507 478.787
109 0 92.2025 11.8869 1096 80.4735 692.019 477.703
110 0 96.1392 11.4834 1104 80.9583 692.417 476.313
111 1 51.0565 10.3807 530 80.4755 691.849 498.072
112 0 51.0864 10.5507 539 81.6549 691.432 494.861
113 0 52.031 10.5322 548 83.0383 692.086 497.179
114 0 57.0292 12.1517 693 78.9221 692.727 494.83
115 0 58.0706 12.5537 729 79.8189 692.391 494.16
116 0 60.0401 12.1252 728 80.8503 692.677 495.199
117 0 62.0622 12.1008 751 80.7177 692.775 493.732
118 0 63.0416 11.3259 714 83.5014 692.525 492.611
119 0 65.0478 11.7452 764 82.9084 692.81 492.038
120 0 66.0608 12.2917 812 82.5542 692.124 490.659
121 0 67.0755 11.4498 768 84.8789 691.984 489.565
122 0 70.0779 12.2007 855 82.6515 692.227 487.69
123 0 75.066 12.1093 909 81.1573 693.162 487.514
124 0 76.0519 11.8077 898 82.4287 693.948 484.551
125 0 76.0519 11.8077 898 140.326 694.948 484.34
126 0 82.0997 12.0098 986 85.4959 693.148 483.052
127 0 83.1651 11.3028 940 87.6074 692.965 480.939
128 0 87.1158 11.0657 964 86.8672 692.672 479.708
129 1 47.0609 10.242 482 85.2884 693.16 498.832
130 0 49.0896 10.7558 528 83.4148 692.703 497.693
131 0 51.0847 10.923 558 82.8996 692.744 497.735
132 0 53.1034 11.2234 596 82.6376 693.218 497.107
133 0 53.0341 11.5209 611 79.6792 693.332 495.494
134 0 55.1218 10.9938 606 81.9026 693.286 495.281
135 0 57.1591 11.4942 657 81.9467 693.277 494.699
136 0 55.1097 11.2321 619 83.2536 693.512 495.908
137 0 54.1816 10.6863 579 84.5389 692.81 496.834
138 0 55.164 10.6954 590 87.5576 692.446 495.414
139 0 59.1249 11.6195 687 84.9505 692.05 494.33
140 0 59.084 11.509 680 85.8559 691.421 493.544
141 0 64.1081 11.543 740 84.7216 691.789 492.293
142 0 65.1785 11.9671 780 85.1769 691.815 490.972
143 0 66.0666 11.5944 766 87.9687 692.223 489.577
144 0 69.0714 11.727 810 87.0901 692.399 488.302
145 0 73.0787 12.0966 884 85.2772 691.937 488.658
146 0 74.0612 12.3141 912 85.8114 691.943 486.104
147 0 75.1992 11.5161 866 85.7737 691.209 484.977
148 0 79.1326 11.8282 936 79.8889 691.969 484.69
149 0 82.0409 11.799 968 80.5682 691.922 484.028
150 0 86.0482 12.0281 1035 81.1227 692.261 482.695
151 0 88.0658 11.9343 1051 81.8002 691.519 478.445
152 0 91.1479 13.0228 1187 80.7734 691.486 477.965
153 0 95.1134 12.5429 1193 83.2305 691.599 476.171
154 0 97.1001 12.8012 1243 84.0113 691.664 474.794
155 0 100.16 12.3103 1233 87.1411 691.839 472.59
156 0 103.18 12.6284 1303 93.9877 691.985 470.013
157 0 108.221 12.5484 1358 93.3881 691.853 469.49
158 0 109.165 12.3025 1343 95.2092 691.074 468.366
159 0 116.152 12.8796 1496 88.8188 691.46 465.916
160 1 60.0451 10.159 610 89.0246 691.888 493.756
161 0 62.0849 10.985 682 87.9648 691.481 492.235
162 0 63.0719 11.2094 707 84.7765 690.662 490.393
163 0 65.1121 12.0561 785 83.7694 690.945 488.904
164 0 66.0402 11.9018 786 78.0662 691.558 488.761
165 0 70.0878 11.5284 808 79.0012 691.411 487.063
166 0 71.1063 11.8274 841 79.7206 691.203 486.019
167 0 74.0434 11.4797 850 80.8059 691.264 484.698
168 0 76.0927 11.9854 912 80.4518 691.622 483.594
169 0 80.1572 12.7624 1023 79.8397 692.035 481.801
170 0 80.1245 11.6444 933 83.5423 691.64 480.541
171 0 86.1132 12.0539 1038 84.4306 692.272 478.868
172 0 87.1999 12.0757 1053 90.7388 691.921 476.654
173 0 92.163 12.5213 1154 88.8605 691.985 474.452
174 0 96.1077 12.2467 1177 88.1088 691.958 473.76
175 0 98.1545 11.8181 1160 88.7655 691.281 472.465
176 1 49.086 10.6751 524 85.5534 690.156 497.578
177 0 49.0499 10.8053 530 85.9264 690.168 495.806
178 0 52.0111 11.3245 589 81.837 690.971 495.649
179 0 53.0242 10.9007 578 83.3945 691.791 495.343
180 0 51.0367 10.5414 538 84.9814 692.602 497.409
181 0 53.0433 9.99184 530 85.1302 692.713 497.332
182 0 54.0386 10.437 564 83.9096 691.803 495.674
183 0 56.046 10.8839 610 83.7639 692.479 495.397
184 0 57.0268 10.9072 622 83.0756 691.883 494.331
185 0 57.0375 10.4668 597 84.0938 692.23 492.598
186 0 62.0321 10.3334 641 82.6053 692.044 491.552
187 0 63.1113 11.2341 709 81.0226 691.973 492.405
188 0 63.0893 10.8418 684 83.8085 692.396 489.132
189 0 66.0708 10.625 702 82.6667 693.091 489.909
190 0 70.1178 10.4681 734 79.1771 691.853 486.914
191 0 72.1123 10.2202 737 80.3826 691.814 485.963
192 0 75.0446 11.3133 849 78.7691 691.139 483.895
193 0 77.0461 11.4088 879 79.2457 691.051 483.578
194 0 82.1288 11.9934 985 78.1107 690.757 481.797
195 0 82.1469 11.5525 949 79.7555 690.842 480.53
196 0 84.1033 11.5097 968 79.6364 690.914 478.643
197 0 89.1901 11.9408 1065 79.2638 690.884 475.235
198 0 91.0571 12.0474 1097 79.6117 691.016 475.142
199 0 94.0699 12.1824 1146 78.7557 691.045 472.711
200 0 97.117 11.6972 1136 80.3636 691.047 473.018
201 0 102.08 12.3237 1258 80.2234 690.766 470.948
202 0 103.057 12.2748 1265 103.215 690.575 469.544
203 0 107.097 12.1199 1298 103.708 690.562 466.99
204 0 108.083 12.2221 1321 103.523 691.075 465.578
205 0 113.109 12.2802 1389 102.359 690.52 464.976
206 0 114.113 12.2773 1401 103.136 690.961 462.691
207 0 120.103 12.5809 1511 102.146 690.791 460.63
208 0 125.226 12.0103 1504 102.874 690.554 458.127
209 0 129.145 11.5993 1498 105.142 690.248 455.218
210 0 134.126 12.2422 1642 104.019 690.465 454.337
211 0 137.157 12.1466 1666 107.102 690.53 451.169
212 0 143.127 12.7788 1829 105.948 690.918 449.415
213 0 148.094 12.6542 1874 107.447 690.671 447.744
214 0 151.229 12.934 1956 106.891 691.042 444.546
215 0 158.206 13.2549 2097 107.382 690.917 441.52
216 0 163.079 13.7234 2238 107.351 690.822 439.948
217 0 169.248 12.9278 2188 110.53 691.917 437.212
218 0 169.254 12.9391 2190 152.643 692.912 437.264
219 1 91.1755 11.6259 1060 102.855 690.117 475.711
220 0 94.1412 12.3857 1166 100.885 690.561 474.83
221 0 93.1157 10.3957 968 91.5393 690.182 477.659
222 0 95.1039 10.3676 986 93.9544 690.234 475
223 0 99.1426 10.964 1087 92.7764 690.541 472.396
224 0 101.194 9.98078 1010 95.596 690.823 471.253
225 0 104.211 10.8434 1130 94.162 690.599 467.254
226 0 107.111 11.0446 1183 93.6881 690.695 467.202
227 0 110.092 11.3996 1255 90.9195 689.898 465.51
228 0 113.064 11.2326 1270 89.6606 690.406 464.624
229 0 118.133 10.8521 1282 90.4579 690.234 463.602
230 0 122.181 10.8282 1323 87.5246 690.409 460.184
231 0 126.124 9.96641 1257 88.5418 690.495 458.887
232 0 130.111 10.9445 1424 88.8841 690.327 454.683
233 0 133.232 10.3279 1376 91.1519 690.458 454.748
234 0 137.23 9.96136 1367 91.4696 690.542 450.521
235 1 76.1408 9.57437 729 87.5034 689.8 482.187
236 0 79.0943 9.63407 762 94.4055 691.189 481.169
237 0 83.0842 11.049 918 90.8039 690.228 479.878
238 0 82.0796 10.2462 841 81.4292 690.044 482.332
239 0 84.1156 10.2478 862 80.094 689.367 482.194
240 0 87.0769 10.5079 915 82.8951 690.118 479.115
241 0 91.117 10.3384 942 83.1146 689.787 478.161
242 0 92.1049 10.0755 928 82.9127 689.934 477.766
243 0 95.1119 10.4929 998 83.8677 689.063 474.04
244 0 97.1353 10.1199 983 85.5473 689.345 475.048
245 0 99.0694 9.993 990 86.0252 689.961 470.96
246 0 104.079 10.9243 1137 84.1539 690.324 471.258
247 0 105.096 10.0289 1054 86.4535 690.384 468.82
248 0 110.056 10.3402 1138 86.1634 690.368 467.082
249 0 113.124 10.9791 1242 85.6385 690.308 463.715
250 0 118.08 10.9332 1291 84.4942 690.34 464.034
251 0 121.099 11.3874 1379 83.0421 690.122 461.031
252 1 66.0071 9.62018 635 81.8567 688.539 490.564
253 0 67.0312 9.54779 640 81.5094 688.7 487.686
254 0 70.031 10.1098 708 84.6568 688.92 487.177
255 0 69.0371 10.7189 740 87.5865 689.058 485.223
256 0 74.0432 11.2097 830 86.1 690.801 483.252
257 0 75.0652 11.2436 844 86.1019 690.557 481.89
258 0 76.0566 11.1759 850 86.3588 690.7 481.385
259 0 79.1565 11.4583 907 85.4994 689.496 480.088
260 0 80.1621 11.6639 935 85.9508 689.416 477.952
261 0 84.0505 11.969 1006 84.669 690.406 478.053
262 0 82.0657 9.7361 799 79.3805 690.166 480.215
263 0 85.065 10.6154 903 78.381 690.918 479.984
264 0 88.1347 11.142 982 78.6874 691.122 477.937
265 0 90.0555 10.2048 919 81.6997 690.602 475.38
266 0 92.0722 9.87269 909 81.9428 690.783 473.714
267 0 95.0794 11.5062 1094 79.1764 690.464 473.566
268 0 99.0889 10.4452 1035 82.7295 690.397 472.668
269 0 99.0907 11.2725 1117 85.949 688.987 470.363
270 0 104.192 11.2869 1176 83.5689 689.178 468.883
271 0 104.197 10.4514 1089 86.0652 689.376 466.667
272 1 57.0252 9.50456 542 82.4594 689.118 494.755
273 0 57.0459 9.67642 552 79.6467 690.77 493.344
274 0 59.0752 10.0042 591 79.3029 690.545 491.447
275 0 60.0801 10.1365 609 81.5058 690.172 490.882
276 0 62.2311 10.9591 682 81.8754 689.484 486.755
277 0 63.0314 10.5503 665 82.9233 690.686 487.72
278 0 64.0485 10.5857 678 83.8127 690.768 487.667
279 0 66.1053 10.6799 706 74.364 689.341 486.967
280 0 64.0851 9.9087 635 76.9827 689.792 489.413
281 0 64.0851 9.9243 636 112.421 690.791 489.318
282 0 69.1172 10.5618 730 77.1192 689.751 486.505
283 0 71.0334 10.4317 741 80.1255 690.022 486.018
284 0 72.0509 10.326 744 81.4583 690.083 487.13
285 0 74.0537 10.5464 781 82.096 689.808 485.907
286 0 77.0354 10.8262 834 81.9832 690.406 482.147
287 0 77.0627 10.485 808 83.4183 690.068 482.405
288 0 83.0812 11.7837 979 80.8968 689.802 481.696
289 0 86.0582 11.5038 990 82.2273 689.819 478.907
290 0 89.0798 11.877 1058 79.706 689.576 478.645
291 0 91.1142 11.3045 1030 80.5738 689.265 477.197
292 0 95.0644 11.9708 1138 80.2979 689.855 475.418
293 1 44.0831 10.4575 461 81.7137 689.466 498.334
294 0 46.0426 10.6423 490 80.3898 689.269 497.178
295 0 49.0839 10.8182 531 74.5838 689.39 497.245
296 0 50.031 11.333 567 73.1111 689.33 496.564
297 0 49.0147 11.3231 555 74.0414 689.148 497.458
298 0 51.0275 11.9347 609 72.9869 689.966 496.33
299 0 53.06 12.2126 648 72.2623 689.625 496.273
300 0 53.0709 11.4375 607 75.2636 689.45 496.684
301 0 57.0714 12.6333 721 72.2746 689.411 495.232
302 0 58.1056 12.8215 745 72.3248 689.235 494.792
303 0 60.1831 12.5617 756 74.3982 690.144 493.673
304 0 61.1337 12.2518 749 76.4246 689.199 493.076
305 0 64.1252 12.382 794 75.9811 689.441 491.326
306 0 65.0524 12.8973 839 77.1764 689.284 491.716
307 0 65.0694 12.94 842 79.785 688.929 491.014
308 0 70.1369 12.2332 858 87.9825 688.936 488.434
309 0 70.1713 12.4837 876 89.1027 688.934 486.332
310 0 71.1696 12.1119 862 91.0499 689.363 485.668
311 0 74.113 13.0207 965 90.0839 689.504 485.599
312 0 74.1711 12.8352 952 92.48 689.337 485.057
313 0 78.1198 12.5832 983 92.4496 689.629 485.111
314 0 80.0912 13.0102 1042 92.5633 689.231 484.366
315 0 82.1197 13.0054 1068 92.9541 689.253 483.424
316 0 83.0773 12.8194 1065 95.0009 689.401 482.113
317 0 83.1102 13.1753 1095 95.0064 689.117 480.109
318 0 89.1001 12.514 1115 96.3094 689.038 479.551
319 0 92.1318 12.3193 1135 97.0044 688.996 480.144
320 0 94.1577 12.6171 1188 96.7374 689.505 478.844
321 0 97.0661 12.6409 1227 96.3162 689.529 477.468
322 0 100.22 13.3906 1342 95.0753 688.8 476.078
323 0 103.177 13.3169 1374 96.0429 689.23 474.739
324 0 106.229 13.1979 1402 96.9636 688.506 473.248
325 0 108.335 13.5137 1464 98.1735 688.264 471.702
326 0 112.235 14.0775 1580 96.5418 688.092 470.193
327 0 116.17 13.661 1587 98.8551 688.379 468.579
328 0 117.264 13.3715 1568 100.619 687.927 466.682
329 0 122.194 13.9532 1705 99.5108 688.429 463.791
330 0 125.184 13.8356 1732 101.191 688.495 460.124
331 0 131.282 14.2442 1870 105.96 688.536 459.249
332 0 132.154 13.5145 1786 101.744 688.256 455.746
333 1 61.0958 10.6554 651 96.7942 688.091 488.96
334 0 63.0445 10.8336 683 96.4495 687.217 489.299
335 0 65.0627 11.6349 757 95.325 687.185 487.287
336 0 68.0121 11.3509 772 92.285 687.593 494.367
337 0 72.043 11.3266 816 93.2843 687.743 492.739
338 0 73.0499 11.8823 868 97.7477 687.515 490.907
339 0 74.1096 11.9418 885 99.3424 687.603 490.302
340 0 76.0665 11.9369 908 100.773 687.624 487.775
341 0 81.0878 12.5543 1018 99.5491 687.9 486.057
342 0 82.118 11.727 963 102.565 687.293 485.735
343 0 86.0931 12.3936 1067 101.009 686.365 484.091
344 0 87.1774 12.3082 1073 101.797 686.786 483.127
345 0 92.1683 12.4989 1152 101.659 686.19 481.392
346 0 93.1569 12.2267 1139 102.698 686.63 479.545
347 0 95.1127 12.501 1189 102.627 686.405 477.849
348 0 98.1333 12.2283 1200 102.418 686.022 476.519
349 0 100.217 12.6227 1265 101.791 685.944 475.598
350 0 103.212 12.0141 1240 101.427 686.714 472.402
351 0 108.152 11.8907 1286 100.534 686.375 470.01
352 0 111.181 12.0434 1339 101.454 686.485 469.082
353 0 113.197 11.8996 1347 105.002 686.572 466.545
354 0 117.2 12.5853 1475 103.401 686.666 463.114
355 0 121.221 12.0689 1463 104.327 686.545 461.465
356 0 124.148 11.889 1476 104.45 687.022 457.459
357 0 123.085 11.5449 1421 104.11 687.12 453.396
358 0 129.098 11.5648 1493 103.399 687.741 452.255
359 1 77.1124 11.0229 850 103.702 687.442 486.506
360 0 80.075 11.5517 925 101.941 687.309 485.364
361 0 82.0891 11.7068 961 102.482 687.009 481.801
362 0 84.0725 11.3117 951 102.123 686.276 480.63
363 0 84.0823 11.3222 952 127.119 685.282 480.65
364 0 89.1339 11.2864 1006 102.414 686.849 477.11
365 0 92.076 11.9032 1096 100.035 686.64 476.149
366 0 95.066 11.1817 1063 101.983 686.098 474.255
367 0 96.1686 11.0119 1059 103.289 686.306 473.37
368 0 100.121 11.4761 1149 101.56 686.516 471.668
369 0 103.256 10.5369 1088 103.337 687.107 469.243
370 1 54.0304 9.86481 533 100.741 686.908 494.514
371 0 56.0206 10.0499 563 95.8615 686.488 494.137
372 0 57.0257 9.76753 557 88.8241 686.549 494.851
373 0 63.0943 11.7919 744 82.1196 686.918 497.534
374 0 65.1181 12.2393 797 81.4856 686.974 495.181
375 0 66.1057 12.1018 800 82.8975 686.676 493.662
376 0 68.1125 11.9802 816 82.9902 686.779 492.533
377 0 69.137 12.2655 848 82.8455 687.113 491.991
378 0 71.0936 12.1389 863 83.8042 687.161 490.461
379 0 72.0503 12.6578 912 83.7116 688.019 490.216
380 0 74.0898 12.2554 908 85.6784 687.529 487.844
381 0 76.0696 12.2519 932 86.8573 687.246 488.016
382 0 78.0735 12.4242 970 87.7485 687.578 486.841
383 0 82.0735 12.9396 1062 99.7655 687.624 484.26
384 0 85.0494 12.5927 1071 101.612 687.987 484.229
385 0 84.116 12.4471 1047 103.649 687.943 482.766
386 0 89.0718 12.3384 1099 104.061 687.99 481.665
387 0 91.0645 12.9139 1176 103.205 688.556 480.247
388 0 94.1211 12.9833 1222 103.057 689.124 479.067
389 0 97.0915 12.3492 1199 104.148 688.148 477.023
390 0 100.092 12.8182 1283 103.733 688.234 474.814
391 0 102.097 12.5959 1286 103.793 687.893 472.187
392 0 105.13 12.8983 1356 102.829 687.816 470.941
393 0 110.183 12.2069 1345 101.532 687.684 469.132
394 1 58.0523 10.3183 599 98.3489 687.361 493.391
395 0 60.1256 10.7109 644 93.4068 687.75 493.449
396 0 62.0763 11.0831 688 92.1337 687.804 492.917
397 0 63.1332 11.8163 746 93.9196 688.115 491.736
398 0 65.1162 11.6407 758 94.7784 688.723 489.504
399 0 68.1064 11.1443 759 95.498 688.559 488.889
400 0 71.1096 11.6581 829 92.3028 689.144 487.524
401 0 72.1226 12.0073 866 90.552 688.588 486.021
402 0 75.0993 11.0787 832 91.4231 688.286 485.04
403 0 76.1268 11.1262 847 90.3577 688.571 483.009
404 0 79.0926 11.8848 940 87.2926 688.413 485.448
405 0 82.0948 11.9983 985 86.7939 688.381 484.197
406 0 83.0813 11.5911 963 87.3634 688.123 481.636
407 0 84.0661 11.5266 969 86.1713 688.506 481.194
408 0 89.0784 11.4281 1018 85.2397 688.635 479.523
409 0 90.0732 11.7349 1057 82.6793 689.458 477.826
410 0 93.0861 11.6236 1082 82.9778 689.719 476.53
411 0 98.0666 12.053 1182 81.4146 689.754 475.174
412 0 101.055 11.6768 1180 81.6373 689.038 473.027
413 0 100.06 11.9729 1198 132.912 689.053 472.927
414 0 105.139 11.8891 1250 80.92 689.466 468.892
415 0 109.118 11.8954 1298 79.1649 689.077 467.826
416 0 112.102 12.0337 1349 81.169 689.606 466.468
417 0 115.091 11.9558 1376 80.8125 689.602 465.642
418 1 59.0465 10.4155 615 74.9024 688.18 494.937
419 0 60.0357 10.044 603 68.6634 688.904 495.096
420 0 59.0177 10.5223 621 69.4654 688.552 496.823
421 0 59.0306 8.85981 523 72.5602 688.577 496.824
422 0 64.061 9.63145 617 72.2107 688.866 493.765
423 0 66.0938 10.2733 679 72.461 687.92 492.166
424 0 67.0627 10.3038 691 73.9768 687.421 492.269
425 0 71.0987 10.0564 715 74.5035 687.712 492.341
426 0 73.0494 10.6503 778 75.8123 687.617 488.521
427 0 75.0892 10.694 803 77.1009 687.959 487.623
428 0 78.1275 10.4445 816 78.3885 687.849 487.63
429 0 80.0694 11.5025 921 78.3225 687.157 486.23
430 0 81.15 10.7702 874 81.095 687.281 484.186
431 0 85.0946 11.5989 987 80.5988 687.09 481.351
432 0 88.1547 12.081 1065 81.1728 687.191 480.693
433 0 90.1913 11.4313 1031 85.354 687.596 479.74
434 0 95.1459 12.0762 1149 83.9234 687.69 477.468
435 0 96.1276 11.4015 1096 85.9234 687.735 477.993
436 0 99.0975 11.2717 1117 86.5586 687.458 474.961
437 0 104.323 12.0971 1262 84.8645 687.116 474.671
438 0 106.145 11.3242 1202 87.4792 687.394 471.278
439 0 111.27 11.7822 1311 85.0618 687.088 471.873
440 0 113.234 11.8869 1346 85.8997 686.768 469.383
441 1 58.1149 10.2211 594 80.3249 686.825 498.51
442 0 59.128 10.621 628 79.6354 687.097 497.616
443 0 63.1212 10.5036 663 80.457 687.406 495.421
444 0 65.1647 11.141 726 79.9642 687.234 493.424
445 0 64.1141 10.9648 703 79.7767 687.578 492.498
446 0 67.1235 11.1883 751 78.5446 687.668 491.507
447 0 71.0621 11.3563 807 76.4597 686.823 491.337
448 0 71.0626 11.0466 785 78.3567 686.896 489.211
449 0 73.0772 11.9873 876 77.1119 687.065 488.054
450 0 75.0875 11.4666 861 78.396 687.115 486.825
451 0 77.0847 11.5328 889 78.892 687.182 484.876
452 0 80.1101 11.996 961 78.3736 687.13 484.096
453 0 82.0766 11.5746 950 79.9842 687.09 484.151
454 0 83.079 12.0488 1001 81.0869 687.368 482.035
455 0 87.1195 11.0882 966 88.9544 687.687 479.785
456 0 90.154 11.314 1020 83.7578 687.518 478.642
457 0 91.1463 11.1798 1019 86.4652 687.59 477.92
458 0 96.1295 10.6835 1027 86.2493 687.662 477.458
459 0 97.1727 11.1554 1084 91.1042 687.773 475.007
460 1 54.0674 10.5239 569 80.9156 687.833 496.835
461 0 58.0213 11.7026 679 77.408 688.11 496.057
462 0 58.0744 11.5369 670 80.5776 688.29 493.879
463 0 60.0719 12.0023 721 77.4757 688.445 494.243
464 0 62.0727 11.5671 718 78.2368 688.769 493.167
465 0 64.0314 10.7291 687 92.8865 688.726 491.607
466 0 67.0268 11.7416 787 89.7205 688.925 489.489
467 0 69.0483 11.7454 811 90.0777 687.594 490.517
468 0 71.0909 12.0269 855 90.655 687.754 488.801
469 0 72.0848 11.5558 833 92.0252 688.415 487.897
470 0 74.2816 12.0622 896 92.0134 688.29 485.963
471 0 76.0387 12.3753 941 89.8491 688.212 483.512
472 0 77.065 11.8861 916 90.8046 687.862 483.176
473 0 81.1057 12.0953 981 90.367 688.42 481.875
474 0 82.0654 11.6127 953 91.7188 688.034 481.489
475 0 86.0932 11.8244 1018 92.0982 687.918 479.994
476 0 88.1029 12.4967 1101 90.7893 688.015 477.942
477 0 90.0888 12.188 1098 91.1858 687.547 478.088
478 0 92.1498 11.6224 1071 93.451 687.495 478.121
479 0 94.0697 12.225 1150 85.747 687.178 476.037
480 0 95.0338 11.5222 1095 89.684 687.267 473.716
481 0 99.1322 12.0344 1193 88.2733 687.324 472.336
482 0 103.094 11.96 1233 88.5045 687.007 470.148
483 0 104.091 11.7109 1219 88.5677 686.902 465.206
484 0 106.089 11.5658 1227 91.1508 686.956 468.645
485 0 109.12 11.9227 1301 89.1622 686.493 466.051
486 0 115.133 12.212 1406 89.5654 686.242 466.996
487 0 118.127 11.4876 1357 90.3574 686.749 461.981
488 0 123.153 11.2219 1382 90.7938 686.889 460.46
489 0 123.153 11.1975 1379 153.35 686.897 460.336
490 0 132.134 10.951 1447 89.7892 687.006 453.988
491 0 132.134 10.9359 1445 149.331 687.017 453.884
492 1 73.1276 10.6253 777 86.5573 687.136 488.005
493 0 75.1946 10.8119 813 86.2817 687.007 487.021
494 0 78.093 12.1522 949 85.6027 687.364 485.152
495 0 80.1575 11.8766 952 90.5347 687.506 483.936
496 0 81.0922 11.2835 915 91.9902 686.903 483.028
497 0 84.1271 11.8273 995 91.1166 686.891 480.879
498 0 87.1363 12.1419 1058 91.7561 686.622 481.523
499 0 87.1363 12.073 1052 149.182 685.609 481.505
500 0 93.1639 11.9467 1113 91.9308 686.457 478.5
501 0 94.1107 11.4121 1074 93.3855 686.816 476.867
502 0 97.0915 12.102 1175 91.9617 687.187 476.243
503 0 99.1508 11.5279 1143 91.6553 687.43 473.728
504 0 101.1 11.6815 1181 90.1694 687.158 472.237
505 0 106.106 12.0445 1278 90.3232 686.501 471.05
506 0 108.15 12.1406 1313 90.719 686.611 469.195
507 0 109.079 11.0287 1203 85.0515 686.648 468.934
508 0 113.073 11.0459 1249 84.0552 686.956 468.319
509 0 116.11 10.9035 1266 85.0924 686.957 465.6
510 0 119.055 11.3981 1357 84.3847 686.902 466.379
511 0 122.073 11.3703 1388 85.7298 686.918 462.626
512 0 125.173 11.1686 1398 88.166 686.976 460.725
513 0 129.133 11.2055 1447 90.4375 686.786 458.892
514 0 134.095 11.9841 1607 90.5818 686.914 456.138
515 0 135.105 11.1173 1502 94.6851 686.848 453.519
516 0 142.12 12.0883 1718 92.7125 686.887 452.302
517 0 143.158 11.6864 1673 95.5326 687.163 449.606
518 0 149.173 11.852 1768 96.2149 686.889 447.41
519 0 154.261 11.863 1830 97.3661 687.118 444.712
520 0 158.189 11.6886 1849 98.0692 687.105 442.018
521 0 162.257 11.3524 1842 99.7687 687.179 440.051
522 0 169.22 11.3166 1915 100.233 687.461 436.9
523 0 175.165 11.2237 1966 101.48 687.383 435.706
524 0 181.215 11.9526 2166 99.9534 687.262 433.944
525 0 186.126 11.7286 2183 101.019 687.814 429.407
526 0 192.254 11.5108 2213 102.9 687.294 426.492
527 0 197.264 11.3604 2241 104.654 687.311 423.85
528 0 202.199 11.4689 2319 106.214 687.461 421.014
529 0 209.258 12.3914 2593 103.917 687.657 417.457
530 0 214.16 11.7015 2506 106.356 686.971 414.453
531 0 221.186 12.0623 2668 106.421 686.949 408.918
532 0 227.252 11.9559 2717 108.313 687.684 405.506
533 0 236.376 12.2136 2887 108.039 686.769 403.774
534 0 242.415 11.963 2900 109.846 686.992 395.672
535 1 49.0641 8.78443 431 90.1137 688.661 500.819
536 0 50.0501 8.47151 424 95.1297 688.389 500.179
537 0 51.0915 8.9643 458 95.6965 688.011 495.644
538 0 56.0864 9.93111 557 115.503 686.206 499.89
539 0 59.0462 11.0591 653 90.1899 685.847 497.292
540 0 61.179 10.739 657 90.554 687.373 495.126
541 0 62.1862 10.8384 674 92.0994 687.389 496.815
542 0 62.0837 11.2268 697 92.9756 685.855 497.199
543 0 63.0783 11.0815 699 95.3305 685.68 495.682
544 0 67.0789 10.5547 708 94.7316 685.582 495.572
545 0 68.0801 11.4277 778 94.644 685.739 493.711
546 0 70.1061 11.2686 790 94.743 685.357 492.558
547 0 74.0792 11.3527 841 93.9453 686.174 491.937
548 0 68.0515 10.0953 687 88.8195 687.227 495.17
549 0 74.0469 10.1557 752 92.0944 686.803 494.021
550 0 77.1319 10.3459 798 90.515 688.391 492.145
551 0 77.0877 10.4816 808 95.2252 687.333 491.249
552 0 81.0645 10.7939 875 93.9531 686.256 489.155
553 0 83.187 10.3502 861 94.7445 686.726 489.071
554 0 84.0557 10.1718 855 96.5251 686.533 488.136
555 0 86.0803 10.1998 878 95.426 685.894 487.436
556 0 91.101 10.7902 983 93.9247 684.623 479.552
557 0 93.1504 10.6924 996 94.5351 684.568 481.903
558 0 102.155 12.432 1270 86.7008 684.82 477.039
559 0 111.1 13.4653 1496 79.9699 685.35 471.524
560 0 110.073 14.6993 1618 80.8628 684.653 474.482
561 1 62.1452 11.795 733 90.4488 687.04 498.413
562 0 58.0973 8.1071 471 72.8153 686.437 496.501
563 0 58.0821 8.55685 497 74.495 685.92 495.954
564 0 64.0276 10.7454 688 69.0596 685.44 495.217
565 0 64.0989 9.04852 580 73.531 685.71 493.409
566 0 66.1046 9.2883 614 74.4674 685.979 493.055
567 0 67.1254 9.81744 659 73.5599 686.061 493.575
568 0 68.1667 9.88753 674 75.8442 685.509 490.737
569 0 69.1283 9.59086 663 78.6667 686.303 495.596
570 0 72.1204 9.5812 691 76.6932 685.705 491.117
571 0 72.0594 8.70116 627 78.3939 685.63 490.097
572 0 75.1326 9.15714 688 77.4462 685.564 490.125
573 0 79.0446 10.6396 841 77.4197 686.284 486.916
574 0 83.0657 12.0146 998 73.7585 686.415 485.532
575 0 87.0332 11.7886 1026 74.729 685.879 482.737
576 0 85.0389 10.2894 875 79.1657 686.367 484.807
577 0 87.0362 9.67414 842 85.8373 685.989 482.064
578 1 48.0523 9.19832 442 84.3688 686.446 501.357
579 0 49.0465 10.6022 520 89.6038 685.79 501.008
580 0 51.0364 10.4827 535 90.1776 685.411 500.415
581 0 52.0134 9.74748 507 80.8481 686.026 502.746
582 0 55.0734 11.5664 637 89.2182 686.055 504.67
583 0 56.0453 11.2409 630 90.0952 685.562 503.686
584 0 58.0758 11.1062 645 89.845 685.992 503.2
585 0 59.0669 11.5801 684 90.2003 685.901 502.348
586 0 61.0849 11.6886 714 90.1961 685.727 501.031
587 0 62.1083 11.7859 732 89.1544 685.865 502.027
588 0 63.0601 11.3225 714 90.6429 685.059 499.78
589 0 66.0705 11.4423 756 88.6561 685.697 499.317
590 0 69.1019 11.7942 815 85.7816 684.993 499.098
591 0 70.0973 11.7123 821 86.7576 685.024 496.856
592 0 72.0665 11.5033 829 88.5983 685.063 496.665
593 0 73.0366 11.7201 856 87.8937 685.275 496.056
594 0 75.0725 11.9618 898 86.8842 685.05 496.233
595 0 77.0511 11.7325 904 86.8153 684.506 492.664
596 0 79.1258 11.9557 946 86.1416 685.149 492.218
597 0 83.0444 12.114 1006 85.5378 684.808 492.022
598 0 84.1198 12.2563 1031 86.3453 684.882 488.731
599 0 89.1501 12.2827 1095 85.0776 684.494 488.55
600 0 91.1036 11.679 1064 85.1335 684.745 486.227
601 0 93.0972 11.4289 1064 83.891 685.44 485.904
602 1 49.0423 10.5827 519 81.8208 686.031 505.844
603 0 51.0354 10.8944 556 79.6331 685.764 504.917
604 0 51.0358 10.7376 548 79.2354 685.969 504.606
605 0 51.0865 10.8835 556 80.286 685.507 502.732
606 0 56.0633 11.3443 636 77.0959 685.098 502.44
607 0 54.0442 10.6209 574 79.8902 685.139 500.883
608 0 56.0398 10.8494 608 79.4836 685.523 500.727
609 0 58.0378 11.4064 662 78.0982 684.437 500.822
610 0 58.074 11.1065 645 79.2388 684.837 500.983
611 0 60.0402 10.4763 629 80.2591 685.261 502.526
612 0 61.0202 11.0291 673 79.6092 685.814 501.221
613 0 63.037 11.295 712 79.9438 685.496 499.638
614 0 64.1039 10.5298 675 80.5096 684.68 499.347
615 0 68.0345 11.4942 782 78.2903 684.774 497.279
616 0 70.0581 10.8481 760 78.729 684.86 496.109
617 0 73.0945 11.4099 834 77.2074 684.718 495.102
618 0 75.042 10.9938 825 78.0242 685.126 494.115
619 0 78.0594 11.3888 889 78.0371 684.565 490.463
620 0 81.1138 11.3914 924 78.2879 685.356 488.734
621 0 84.0458 12.517 1052 75.3023 684.696 488.058
622 0 87.0584 11.4176 994 76.6861 685.342 485.124
623 0 91.0429 11.9175 1085 76.0747 685.38 485.044
624 0 92.1289 11.549 1064 77.921 684.985 483.206
625 0 96.0427 12.786 1228 76.8803 685.296 480.225
626 0 100.072 12.6109 1262 78.122 685.21 478.742
627 0 103.106 11.6482 1201 78.2165 684.61 479.668
628 1 53.0371 10.8792 577 81.3449 683.52 503.418
629 0 54.0921 10.8519 587 76.494 684.981 499.034
630 0 53.0589 10.3093 547 75.0238 685.656 495.152
631 0 56.0379 11.5636 648 77.7963 685.458 499.56
632 0 58.0859 12.7397 740 75.9703 685.507 499.315
633 0 58.0519 12.0409 699 78.2117 685.491 498.785
634 0 62.1105 11.7371 729 77.9808 686.066 497.745
635 0 65.1072 12.1031 788 78.231 685.634 496.218
636 0 66.0979 11.7704 778 78.5527 685.447 495.461
637 0 71.1263 12.3021 875 76.544 686.249 495.677
638 0 72.1038 12.1353 875 78.4023 685.489 492.971
639 0 75.1029 13.3683 1004 75.4402 685.703 491.026
640 0 78.0674 12.9503 1011 76.3838 685.81 490.52
641 0 81.0421 12.6724 1027 84.3106 685.807 488.147
642 0 83.08 12.8912 1071 84.1802 686.162 488.995
643 0 87.133 13.072 1139 85.324 686.367 485.564
644 0 88.0401 12.8578 1132 86.5221 686.338 483.748
645 0 94.1214 13.0257 1226 85.9617 686.461 483.139
646 1 50.1336 12.0877 606 85.6617 686.637 503.639
647 0 53.058 11.9303 633 86.3412 686.199 503.288
648 0 50.061 10.7868 540 78.5648 686.83 498.556
649 0 54.061 12.7633 690 81.1609 686.516 501.526
650 0 54.0652 12.1335 656 85.9329 686.774 501.072
651 0 55.0445 12.4808 687 86.0582 686.534 500.562
652 0 56.011 11.3906 638 89.4154 686.969 498.798
653 0 59.0218 12.8766 760 85.5395 686.771 499.05
654 0 60.0374 12.5755 755 86.6649 686.727 497.605
655 0 63.043 12.4518 785 87.4395 686.288 497.317
656 0 65.0654 12.5566 817 87.5936 686.868 496.517
657 0 67.0334 12.0835 810 88.9432 687.133 496.431
658 0 66.022 12.3747 817 90.6352 686.362 495.286
659 0 70.0383 12.7216 891 88.7643 687.112 494.38
660 0 72.0847 12.1801 878 89.9658 686.298 493.465
661 0 74.0481 12.5459 929 90.7287 686.634 492.198
662 0 76.0411 11.8752 903 92.8051 686.805 490.34
663 0 80.0926 12.5355 1004 89.8386 687.097 489.331
664 0 82.0863 12.1214 995 92.0724 686.373 486.554
665 0 84.0531 11.7783 990 93.7505 686.941 487.324
666 0 88.0759 12.7277 1121 92.8421 687.228 484.977
667 0 91.0517 12.762 1162 92.605 686.832 483.441
668 0 93.0698 12.582 1171 93.5687 686.966 482.422
669 0 97.1043 12.7698 1240 93.0936 686.562 480.944
670 0 100.111 13.1454 1316 92.4643 686.734 478.588
671 0 103.057 13.0704 1347 94.271 687.183 477.696
672 0 107.058 13.0397 1396 98.1476 686.973 475.201
673 0 111.096 13.3939 1488 97.1828 686.97 471.884
674 0 114.154 13.3065 1519 97.7064 686.92 470.03
675 1 60.0607 13.0701 785 92.9656 686.11 496.596
676 0 64.0235 13.2607 849 90.6349 686.873 496.351
677 0 65.0496 13.359 869 91.0437 686.502 495.076
678 0 65.0463 13.0676 850 92.5306 686.278 493.948
679 0 68.053 12.887 877 102.066 686.274 491.266
680 0 71.0457 13.4561 956 93.1841 686.451 491.227
681 0 75.043 12.806 961 99.0916 686.584 489.21
682 0 75.0273 13.0619 980 97.6449 687.317 487.986
683 0 80.0759 13.4373 1076 95.4498 687.602 487.221
684 0 82.0772 13.6944 1124 95.6076 687.476 485.889
685 0 85.0367 13.6882 1164 94.4828 687.643 484.869
686 0 87.0683 12.806 1115 94.4054 686.978 482.988
687 0 90.0312 12.7289 1146 96.8569 687.79 480.95
688 0 90.04 12.7055 1144 143.924 688.779 480.895
689 0 97.0499 13.3127 1292 96.8228 687.276 479.466
690 0 99.0989 13.0879 1297 95.7325 687.46 478.721
691 0 102.071 12.4521 1271 98.7459 687.019 476.654
692 0 106.089 12.8288 1361 97.4842 687.777 475.105
693 0 110.072 13.6638 1504 97.2547 687.334 473.52
694 0 114.147 13.7717 1572 95.8836 687.022 472.4
695 0 116.086 13.0507 1515 96.5947 687.226 469.433
696 1 63.0257 11.646 734 94.3079 687.591 498.567
697 0 63.0354 10.7717 679 85.2798 687.862 495.487
698 0 67.0348 11.4269 766 87.7663 687.362 493.333
699 0 68.0428 12.5068 851 87.9824 686.994 496.187
700 0 71.0667 12.7627 907 86.4498 686.95 494.766
701 0 71.0667 12.7908 909 131.89 686.955 494.711
702 0 76.0436 12.8216 975 96.4872 686.59 493.37
703 0 79.0165 13.4782 1065 95.1681 686.502 491.856
704 0 81.0452 12.7707 1035 96.4126 686.462 491.172
705 0 81.0478 12.1903 988 90.8249 686.916 493.878
706 0 84.0375 11.8638 997 92.681 685.92 490.399
707 0 86.0344 11.8325 1018 92.8222 686.449 489.201
708 0 88.0529 12.5038 1101 91.2216 686.163 487.522
709 0 91.0628 12.0686 1099 92.3312 685.779 487.582
710 0 92.041 11.9729 1102 92.9719 686.52 486.537
711 0 96.0819 12.7391 1224 92.0727 685.817 482.569
712 0 101.101 12.8188 1296 90.9012 685.838 480.879
713 0 102.102 12.5855 1285 92.5767 685.927 481.846
714 0 107.112 13.3692 1432 90.1432 686.724 478.762
715 0 109.165 13.1911 1440 92.6965 686.671 476.258
716 0 114.036 13.6185 1553 91.5731 685.885 474.321
717 0 115.111 13.0744 1505 100.746 685.753 472.024
718 0 117.115 12.2786 1438 97.1398 686.099 467.594
719 0 123.146 12.1644 1498 97.9212 686.262 465.126
720 0 125.243 11.6333 1457 99.906 686.27 462.491
721 0 129.131 11.9027 1537 99.5771 686.757 461.984
722 0 134.137 12.1965 1636 99.1773 686.303 461.424
723 0 139.07 11.39 1584 100.722 686.354 458.184
724 1 74.078 10.9884 814 93.4066 685.945 494.553
725 0 78.1233 12.3523 965 92.4238 685.148 494.277
726 0 79.1025 12.1109 958 93.975 685.448 491.275
727 0 83.1204 12.127 1008 94.1706 685.61 489.932
728 0 87.1086 13.3052 1159 93.6851 685.431 489.445
729 0 90.1251 12.7933 1153 95.8777 685.069 488.321
730 0 92.0809 13.2384 1219 95.7662 685.429 487.163
731 0 94.1253 13.2908 1251 97.6874 685.608 485.964
732 0 96.0802 13.2181 1270 100.152 685.411 483.555
733 0 99.1264 12.9935 1288 105.039 685.484 482.716
734 0 103.13 12.9836 1339 104.934 686.248 481.535
735 0 104.095 13.3916 1394 104.734 685.007 478.598
736 0 107.09 13.9695 1496 102.61 685.124 477.719
737 0 109.076 13.376 1459 105.173 685.569 477.628
738 0 112.106 12.729 1427 104.419 685.477 471.71
739 0 117.058 12.3956 1451 105.125 686.05 470.025
740 0 120.057 13.5185 1623 101.872 685.637 465.229
741 0 121.147 12.976 1572 104.764 685.419 462.258
742 0 125.108 12.8928 1613 106.343 685.164 459.374
743 0 128.118 12.9647 1661 107.004 685.316 459.609
744 0 134.118 13.4657 1806 107.513 685.849 458.324
745 0 139.099 13.8247 1923 107.439 685.314 454.844
746 0 140.13 13.2449 1856 110.003 686.086 452.691
747 0 145.144 13.5727 1970 110.787 686.091 450.378
748 0 149.115 13.4393 2004 113.283 685.692 448.926
749 0 154.18 13.4518 2074 113.189 686.028 447.191
750 0 158.141 13.7599 2176 113.145 686.161 442.456
751 0 162.097 13.6955 2220 114.003 686.155 440.307
752 0 168.184 13.5447 2278 116.059 686.297 436.089
753 0 174.16 13.9527 2430 115.708 686.214 436.012
754 0 178.263 13.6989 2442 119.912 686.416 431.947
755 0 184.154 13.8905 2558 117.925 686.616 431.15
756 0 191.207 13.9535 2668 117.808 686.341 427.629
757 0 196.234 13.6827 2685 121.56 686.278 425.05
758 1 44.0201 9.83643 433 102.476 687.797 506.182
759 0 46.0695 10.9834 506 98.8775 687.267 506.03
760 0 47.0738 11.1739 526 99.5665 687.108 505.464
761 0 49.0426 11.8672 582 99.4347 687.653 503.899
762 0 51.074 11.3756 581 101.861 687.809 502.275
763 0 53.0089 11.3 599 103.12 687.696 501.589
764 0 54.0178 11.6258 628 102.623 686.941 500.892
765 0 56.049 10.7584 603 104.959 685.536 500.799
766 0 58.0601 10.6786 620 104.313 685.561 500.413
767 0 58.0148 11.6867 678 102.121 685.075 499.885
768 0 61.0595 11.6935 714 101.62 685.23 498.819
769 0 62.0834 11.5651 718 102.404 685.503 497.084
770 0 63.0197 11.5519 728 102.688 685.477 496.084
771 0 66.0746 10.6546 704 103.305 685.8 494.756
772 0 68.024 11.6429 792 101.67 686.158 494.259
773 0 70.0715 11.4597 803 102.655 685.648 494.321
774 0 72.06 11.4488 825 101.964 685.423 493.939
775 1 36.0465 10.7916 389 99.9949 685.956 509.483
776 0 39.0351 10.7852 421 97.3373 686.24 508.261
777 0 38.0769 11.1616 425 85.8824 686.734 508.967
778 0 40.0506 10.9861 440 85.3591 686.252 508.893
779 0 41.037 11.0632 454 84.4207 686.333 507.674
780 0 42.0265 11.2072 471 85.138 686.304 508.178
781 0 44.0495 11.192 493 85.2637 685.578 506.456
782 0 45.0295 10.6153 478 86.3996 686.253 506.029
783 0 46.0435 11.8366 545 84.0716 685.62 504.464
784 0 46.0124 11.3665 523 86.5162 685.945 504.53
785 0 48.028 11.4933 552 87.1069 685.759 503.406
786 0 50.0189 11.8955 595 86.2269 686.198 502.761
787 0 50.0595 11.3865 570 88.7754 686.321 502.161
788 0 54.0491 12.1926 659 86.4036 686.66 501.763
789 0 54.0701 12.1139 655 88.1572 687.104 501.453
790 0 56.0876 12.1239 680 89.1868 687.747 500.444
791 0 59.063 12.5121 739 87.5562 686.966 500.539
792 0 60.1019 12.2958 739 88.318 687.813 498.828
793 0 61.0802 11.9515 730 102.725 687.364 498.178
794 0 65.1716 12.2906 801 101.381 687.231 496.665
795 0 65.0754 12.8159 834 100.211 687.752 494.572
796 0 67.0903 12.7142 853 101.208 688.138 493.536
797 0 68.1084 12.5682 856 100.325 687.391 495.605
798 0 73.0739 13.1784 963 97.3146 688.019 494.079
799 0 72.0727 12.9036 930 99.1043 688.056 493.783
800 0 76.0893 13.0242 991 96.776 688.5 493.987
801 0 76.1427 13.1464 1001 97.5195 688.333 493.116
802 0 80.18 13.2327 1061 99.3252 688.038 492.361
803 0 81.1543 13.4435 1091 100.359 688.521 491.332
804 0 84.1716 12.8072 1078 102.258 687.956 490.876
805 0 86.0758 14.0574 1210 100.539 687.382 489.668
806 0 88.1213 13.8559 1221 100.584 687.458 488.498
807 0 92.1364 13.7188 1264 101.857 687.203 487.867
808 0 95.1432 14.063 1338 101.615 687.054 486.469
809 1 51.0807 12.9012 659 103.147 687.467 507.947
810 0 51.0264 12.5817 642 104.947 687.115 507.665
811 0 51.0104 12.8013 653 105.496 686.887 506.806
812 0 56.0942 13.0138 730 104.551 687.659 505.536
813 0 56.082 13.1771 739 104.161 686.886 505.384
814 0 58.0772 12.9999 755 104.128 686.437 504.883
815 0 61.0368 12.7464 778 103.929 686.757 503.584
816 0 60.057 13.1708 791 103.657 686.918 504.578
817 0 65.1033 13.0408 849 101.876 686.002 503.077
818 0 66.0716 13.5308 894 99.4855 686.521 502.739
819 0 67.0524 12.0801 810 104.405 687.012 500.291
820 0 70.1301 12.8476 901 100.503 686.78 499.903
821 0 73.047 13.0464 953 99.4323 686.51 498.126
822 0 75.1323 13.2965 999 98.2152 686.805 497.015
823 0 78.1142 13.6083 1063 93.5851 685.794 495.631
824 0 78.1043 13.6484 1066 91.4071 686.107 494.191
825 0 82.0376 13.3597 1096 98.2208 686.047 494.453
826 0 85.0531 12.6156 1073 100.753 685.787 493.669
827 0 89.1225 12.7914 1140 99.8947 685.785 491.896
828 0 93.0725 13.3659 1244 97.3706 686.255 488.153
829 0 93.0866 13.4176 1249 137.535 687.259 488.186
830 1 49.0549 12.0681 592 98.7213 685.666 510.539
831 0 52.048 12.6614 659 100.819 685.874 509.354
832 0 52.0556 12.6595 659 103.077 685.578 508.52
833 0 55.0151 12.9783 714 97.4468 685.878 508.766
834 0 56.0329 13.0816 733 106.171 686.061 508.929
835 0 58.0203 12.9438 751 106.37 686.234 506.878
836 0 60.0286 13.227 794 105.918 686.086 505.991
837 0 63.0285 13.1369 828 104.591 686.401 503.768
838 0 64.0447 12.7879 819 105.711 685.827 503.032
839 0 67.051 12.7515 855 104.255 685.068 502.233
840 0 68.0315 12.9499 881 103.904 684.797 500.725
841 0 70.0334 13.0652 915 103.504 684.75 499.589
842 0 72.057 12.9064 930 101.973 685.617 498.186
843 0 74.1065 12.9138 957 100.224 685.103 495.475
844 0 79.0773 12.6206 998 99.1964 685.236 494.721
845 1 38.08 11.5809 441 98.9048 685.424 513.823
846 0 41.0229 12.1396 498 96.1687 685.05 512.235
847 0 40.0212 11.8937 476 99.771 685.668 511.651
848 0 43.0301 12.8979 555 97.5387 685.699 509.079
849 0 46.0258 13.6228 627 98.7225 684.933 508.627
850 0 47.0724 13.6173 641 100.39 685.693 508.172
851 0 48.0483 13.5072 649 101.27 685.348 508.062
852 0 47.0964 13.6741 644 103.042 685.112 508.017
853 0 52.0218 13.3406 694 101.523 685.569 508.465
854 0 53.0658 13.5115 717 102.665 686 506.653
855 0 56.0771 13.5706 761 101.687 685.427 506.654
856 0 56.058 13.9855 784 103.673 685.88 504.318
857 0 59.0246 14.1297 834 103.066 685.453 503.536
858 0 60.036 13.925 836 105.471 684.862 502.738
859 0 62.0502 13.5213 839 107.216 685.807 502.175
860 0 65.0457 14.2976 930 105.771 685.896 501.257
861 0 66.0526 14.3371 947 106.408 685.706 500.275
862 0 68.0981 13.8477 943 109.38 685.754 499.107
863 0 71.0583 14.4248 1025 109.136 686.736 498.253
864 0 74.0527 15.0433 1114 108.321 685.797 496.976
865 0 75.0418 14.5119 1089 112.244 685.638 496.166
866 0 77.1197 14.86 1146 114.062 685.57 493.555
867 0 80.0698 15.4865 1240 111.401 685.848 492.144
868 0 82.0945 14.9218 1225 116.807 685.989 491.777
869 0 84.0383 14.8742 1250 118.989 685.96 489.686
870 0 88.0379 15.0049 1321 118.484 685.724 488.747
871 0 89.0773 15.7391 1402 118.177 685.391 487.651
872 0 91.0364 15.2137 1385 119.786 684.884 487.205
873 0 94.0326 15.3245 1441 120.426 685.309 484.072
874 0 97.0623 15.4643 1501 119.892 685.528 483.526
875 0 101.091 15.758 1593 119.272 685.235 483.219
876 0 103.07 15.6204 1610 121.055 685.908 479.342
877 0 106.167 15.5698 1653 120.347 685.739 478.944
878 0 109.086 16.18 1765 119.065 685.815 476.913
879 0 114.125 15.5356 1773 119.288 686.172 476.901
880 0 117.144 15.3572 1799 120.337 685.445 471.436
881 0 123.132 16.0885 1981 114.007 685.644 470.637
882 1 62.0635 14.3885 893 127.817 684.983 500.18
883 0 63.0363 15.0072 946 129.323 685.095 497.559
884 0 68.079 15.7611 1073 125.08 684.981 496.365
885 0 69.0523 15.4955 1070 126.677 684.964 495.078
886 0 72.0959 15.8123 1140 125.063 685.546 493.294
887 0 74.1145 15.5435 1152 125.212 685.604 493.003
888 0 77.0496 15.9378 1228 124.015 685.787 491.339
889 0 78.0991 15.4291 1205 126.712 685.157 490.578
890 0 82.0357 15.5542 1276 125.768 685.19 487.813
891 0 83.0578 15.6999 1304 125.374 685.261 488.149
892 0 86.1023 15.83 1363 124.563 685.555 487.015
893 0 89.0739 15.6275 1392 125.231 685.815 484.748
894 0 92.0572 16.0118 1474 123.576 685.957 482.628
895 0 97.0476 15.9509 1548 121.267 685.824 481.683
896 0 98.0668 15.4384 1514 123.131 685.44 479.04
897 0 103.082 15.8902 1638 120.203 685.983 477.156
898 0 106.042 16.0502 1702 119.426 686.456 473.72
899 0 110.064 16.1997 1783 116.675 687.022 472.381
900 0 114.041 15.7136 1792 118.244 686.562 470.17
901 0 118.123 16.0257 1893 118.093 685.894 468.234
902 0 121.087 16.3353 1978 116.993 686.302 467.027
903 0 123.133 15.7635 1941 119.126 686.5 464.159
904 0 127.046 15.8447 2013 118.876 686.291 462.743
905 0 129.125 15.5044 2002 121.073 686.845 459.763
906 0 136.109 16.2223 2208 117.567 686.757 457.986
907 0 141.085 16.2668 2295 117.676 686.702 455.653
908 0 143.119 16.3081 2334 119.06 686.805 453.419
909 0 149.072 16.3344 2435 118.754 686.572 450.857
910 0 153.113 16.1123 2467 119.939 686.578 449.218
911 0 157.108 16.3327 2566 119.214 686.571 445.982
912 0 164.123 16.8593 2767 117.361 686.597 444.647
913 0 170.166 16.243 2764 119.821 686.572 441.645
914 1 83.0674 13.158 1093 126.859 686.475 483.457
915 0 85.1163 14.0396 1195 125.064 686.76 481.65
916 0 89.0672 14.9213 1329 123.501 686.923 479.802
917 0 89.0406 14.3418 1277 127.562 686.359 477.896
918 0 95.0777 15.0614 1432 125.466 686.349 476.478
919 0 98.1046 15.1165 1483 125.966 686.434 473.894
920 0 101.14 14.6925 1486 127.097 686.062 473.828
921 0 105.087 14.7116 1546 128.384 686.263 471.49
922 0 109.103 15.215 1660 126.149 686.449 470.861
923 0 111.065 15.0182 1668 129.425 686.01 469.302
924 0 116.155 15.5051 1801 127.057 686.091 467.592
925 0 122.078 15.3672 1876 127.528 686.082 464.517
926 0 123.122 14.8633 1830 129.972 686.306 462.198
927 0 130.086 15.2668 1986 128.405 686.164 461.868
928 0 133.081 15.3214 2039 128.343 685.21 459.93
929 0 138.077 14.9119 2059 129.543 685.017 457.016
930 0 141.218 14.8564 2098 130.322 685.561 454.998
931 0 146.139 15.0337 2197 130.362 685.402 452.341
932 0 152.18 14.8048 2253 130.286 685.134 450.609
933 0 156.172 15.0924 2357 129.266 684.656 448.233
934 0 163.079 14.8763 2426 129.011 685.254 444.192
935 0 170.19 15.183 2584 127.841 684.963 442.604
936 0 174.222 14.8661 2590 129.849 684.662 438.105
937 0 179.173 14.7065 2635 130.753 684.372 436.38
938 0 187.229 15.1312 2833 129.444 683.982 431.784
939 0 193.32 14.1423 2734 133.364 683.95 429.366
940 0 198.282 14.8626 2947 130.82 683.936 425.5
941 1 41.0181 11.5315 473 107.628 682.966 510.808
942 0 39.0911 10.2325 400 101.942 683.628 514.025
943 0 39.0618 9.26737 362 103.218 684.094 514.279
944 0 39.0461 9.39914 367 115.965 684.095 514.06
945 1 96.0845 8.11786 780 115.751 683.95 488.814
946 0 95.0724 8.57242 815 113.504 684.125 489.986
947 0 99.2064 9.36431 929 113.755 683.93 484.665
948 0 101.067 8.69717 879 115.157 684.469 483.92
949 0 100.06 7.9652 797 115.675 684.856 484.54
950 0 110.085 9.67431 1065 118.799 685.084 479.834
951 0 113.185 10.0985 1143 121.18 684.709 480.871
952 0 119.155 9.16452 1092 121.482 686.363 477.996
953 1 30.1231 10.5235 317 115.88 685.71 518.05
954 0 33.0551 11.3749 376 113.162 686.138 516.942
955 0 32.1094 10.2774 330 108.188 685.218 516.279
956 0 34.0488 10.7786 367 114.025 685.109 514.7
957 0 30.0509 10.3158 310 112.019 685.594 516.603
958 0 31.051 9.85477 306 112.863 685.458 515.99
959 0 35.043 10.7011 375 106.304 685.752 513.549
960 0 37.0921 9.8134 364 108.047 685.371 513.81
961 0 37.1184 10.0759 374 108.12 685.377 513.19
962 0 38.034 10.3066 392 107.138 685.561 512.036
963 0 40.0368 10.1906 408 108.461 686.135 513.113
964 0 44.034 9.35641 412 109.333 685.704 512.568
965 0 44.0444 10.3532 456 109.978 686.096 511.151
966 0 46.0725 10.9176 503 109.004 686.01 509.626
967 0 48.0151 10.705 514 109.679 685.877 508.535
968 0 47.1135 10.1669 479 112.714 685.877 509.134
969 0 55.053 8.99134 495 114.754 686.081 508.745
970 0 54.0199 11.7364 634 116.069 686.011 503.279
971 0 57.1106 12.1694 695 117.964 686.433 498.833
972 0 58.1092 12.27 713 118.269 686.644 498.348
973 0 61.0864 13.1126 801 114.884 686.935 497.429
974 0 62.0571 12.2468 760 117.9 687.401 496.895
975 0 63.1516 12.4146 784 117.652 687.024 495.991
976 0 65.1885 12.9471 844 115.941 687.975 495.937
977 0 67.1366 13.0629 877 115.69 687.656 495.503
978 0 68.1495 12.8541 876 123.501 687.397 494.58
979 0 72.2024 13.0328 941 126.705 688.087 494.48
980 0 72.2224 12.7384 920 130.178 688.336 493.804
981 0 72.2219 12.7662 922 132.849 687.761 492.344
982 0 75.1544 12.5741 945 123.473 688.068 493.104
983 0 79.2047 12.9033 1022 123.626 687.758 488.923
984 0 80.1531 13.6738 1096 119.54 687.291 491.663
985 0 84.2463 13.0095 1096 125.829 687.464 486.412
986 0 83.2378 12.3261 1026 127.942 686.912 488.039
987 0 89.137 12.8454 1145 126.743 687.665 483.871
988 0 90.1868 12.7957 1154 128.34 687.833 482.721
989 0 96.2968 13.2611 1277 125.991 686.934 482.319
990 0 99.1633 13.4425 1333 125.272 686.965 480.073
991 0 102.215 12.9335 1322 126.817 687.492 478.324
992 0 104.201 12.5239 1305 128.29 687.792 478.057
993 0 105.185 12.4163 1306 127.724 687.142 478.508
994 0 114.264 12.5849 1438 126.524 686.782 473.608
995 0 116.266 13.1165 1525 124.718 687.083 473.628
996 0 121.405 13.4343 1631 125.836 686.895 470.007
997 1 62.2347 11.7459 731 121.851 687.201 499.011
998 0 63.1003 12.9318 816 119.506 686.583 497.621
999 0 65.1538 13.046 850 119.693 687.118 495.824
1000 0 69.2522 13.1693 912 116.35 686.791 495.935
1001 0 70.2114 12.4481 874 118.359 687.046 494.31
1002 0 71.1758 13.0522 929 116.432 687.084 493.755
1003 0 76.151 12.6459 963 114.356 687.301 493.162
1004 0 78.2186 13.2322 1035 112.013 687.577 491.828
1005 0 78.1887 13.6337 1066 111.771 687.637 491.304
1006 0 81.2744 12.8946 1048 112.639 688.157 489.572
1007 1 40.1225 11.5895 465 112.34 688.297 509.176
1008 0 41.1249 11.8906 489 109.086 687.928 510.202
1009 0 43.2041 10.948 473 110.573 687.482 508.647
1010 0 42.082 12.1905 513 109.741 688.349 506.887
1011 0 45.0961 12.1518 548 108.628 687.732 505.954
1012 0 47.1046 12.2706 578 106.187 687.059 505.739
1013 0 49.2178 11.4796 565 107.46 687.069 504.993
1014 0 50.217 11.7888 592 110.231 687.307 503.846
1015 0 51.1806 12.3289 631 111.857 686.678 502.342
1016 0 53.1096 12.1635 646 104.135 687.197 505.113
1017 0 54.0457 12.2304 661 105.561 687.74 505.395
1018 0 55.0768 12.419 684 106.357 688.012 503.43
1019 0 55.098 11.779 649 109.971 687.974 503.715
1020 0 57.1339 12.5495 717 110.185 688.116 501.371
1021 0 60.1312 13.1047 788 107.364 689.034 500.85
1022 0 62.23 12.5663 782 109.191 688.646 499.26
1023 0 64.1954 13.1941 847 107.519 689.699 498.174
1024 0 66.1942 12.2518 811 109.924 689.508 496.781
1025 0 67.0896 13.0572 876 108.598 688.438 495.269
1026 0 69.0948 12.6059 871 110.145 688.216 494.404
1027 0 70.1311 12.8046 898 110.285 688.494 492.453
1028 0 73.1115 12.734 931 110.603 687.623 491.117
1029 0 76.2602 13.2704 1012 108.262 687.913 490.104
1030 0 79.3803 12.8621 1021 108.814 687.013 489.565
1031 0 82.1544 12.866 1057 108.656 688.747 488.222
1032 0 85.2558 13.1956 1125 107.876 688.152 486.999
1033 0 88.1107 13.4603 1186 108.835 688.047 484.775
1034 0 90.1878 13.1725 1188 110.942 689.017 484.702
1035 0 92.2495 13.5936 1254 112.093 687.813 484.745
1036 1 47.0648 11.7073 551 113.209 689.029 506.868
1037 0 49.096 12.7505 626 111.949 688.828 505.457
1038 0 50.2076 13.0458 655 113.647 688.453 505.994
1039 0 51.1586 12.862 658 114.894 687.746 504.813
1040 0 54.0705 13.7228 742 112.491 688.42 503.969
1041 0 54.1116 13.3428 722 115.014 688.199 503.273
1042 0 58.1123 13.2158 768 114.324 688.54 500.168
1043 0 59.2022 13.6988 811 113.732 689.037 499.7
1044 0 61.126 13.4313 821 115.245 688.544 498.407
1045 0 63.1516 13.8872 877 114.398 688.746 497.68
1046 0 64.2031 14.127 907 115.063 688.861 496.68
1047 0 65.1102 13.8842 904 117.023 688.927 496.205
1048 0 65.1529 13.3839 872 120.539 688.237 494.915
1049 0 70.1685 13.8381 971 117.658 688.899 492.772
1050 0 72.1521 13.7487 992 117.722 688.32 491.35
1051 0 75.2162 13.3083 1001 118.041 687.732 490.811
1052 0 78.1162 13.5311 1057 116.929 687.987 489.086
1053 0 80.1469 14.0118 1123 114.467 687.722 489.346
1054 0 81.1867 13.9924 1136 120.648 688.254 487.167
1055 0 86.1486 14.2312 1226 118.881 688.024 486.537
1056 0 89.0788 14.2121 1266 118.611 688.514 487.985
1057 0 90.1409 14.6216 1318 118.388 688.123 486.279
1058 0 92.1831 14.5688 1343 118.777 688.698 485.232
1059 0 92.1022 13.941 1284 122.057 688.416 484.84
1060 0 98.1408 14.1531 1389 120.564 687.822 482.533
1061 0 98.0768 14.193 1392 122.466 687.953 482.269
1062 0 103.1 14.6847 1514 120.384 687.821 481.822
1063 0 104.092 14.1702 1475 123.203 687.991 478.867
1064 0 108.094 14.6539 1584 121.794 687.793 478.57
1065 0 109.099 14.5648 1589 123.755 687.398 476.81
1066 0 114.161 15.0314 1716 123.224 687.276 474.601
1067 0 116.093 14.3334 1664 127.394 687.902 471.769
1068 0 120.102 14.904 1790 125.682 687.368 470.345
1069 0 124.105 15.2854 1897 124.657 687.544 468.634
1070 0 128.091 15.2079 1948 125.345 687.351 466.682
1071 0 131.154 14.8986 1954 128.063 687.372 464.794
1072 0 136.13 14.8535 2022 128.74 687.386 462.009
1073 0 140.186 14.6591 2055 129.806 687.318 458.731
1074 0 144.102 14.2469 2053 130.718 687.751 457.536
1075 0 151.168 15.0958 2282 127.966 686.904 453.303
1076 0 154.191 14.7869 2280 129.306 687.568 451.369
1077 0 160.161 14.5416 2329 130.766 687.326 448.125
1078 0 164.183 14.2585 2341 129.985 687.508 446.306
1079 0 170.154 14.1812 2413 128.741 687.244 442.952
1080 1 46.0211 10.5386 485 121.037 686.977 505
1081 0 47.032 11.3965 536 119.276 687.64 504.17
1082 0 48.0086 11.6646 560 112.13 687.641 505.341
1083 0 50.0466 10.5502 528 113.441 687.449 505.093
1084 0 50.0342 11.0724 554 110.823 687.601 504.565
1085 0 53.0258 11.0701 587 109.528 687.46 503.934
1086 0 55.0665 11.132 613 108.615 688.67 502.333
1087 0 55.047 11.1359 613 109.706 688.033 501.103
1088 0 58.081 11.2601 654 108.521 688.266 499.034
1089 0 59.0495 11.194 661 122.265 688.113 499.089
1090 0 62.0473 11.0883 688 120.846 688.554 497.546
1091 0 63.0248 11.2654 710 119.786 687.965 495.811
1092 0 63.085 10.5255 664 121.804 687.962 496.911
1093 0 69.0783 10.9731 758 118 688.136 495.409
1094 0 69.0674 10.526 727 119.254 688.715 493.468
1095 0 72.121 11.4668 827 115.867 688.313 492.409
1096 0 73.0291 10.489 766 117.205 687.732 490.189
1097 0 74.0646 10.1938 755 117.205 689.065 490.367
1098 0 78.0303 11.5084 898 112.538 688.386 488.589
1099 0 80.0443 10.9814 879 113.024 689.881 488.35
1100 0 83.1082 11.0097 915 113.278 689.083 486.011
1101 0 87.0315 11.2028 975 112.112 688.348 483.417
1102 0 88.0461 10.9034 960 114.01 688.433 482.556
1103 0 90.0722 10.6692 961 115.22 688.744 480.701
1104 0 91.0495 10.6535 970 116.184 687.909 479.886
1105 1 46.0434 9.81682 452 111.049 688.122 502.938
1106 0 48.0436 10.1574 488 109.613 688.365 501.092
1107 0 48.0794 9.73389 468 111.605 688.718 499.959
1108 0 46.0994 9.37105 432 108.794 689.127 504.731
1109 0 50.1425 9.83197 493 106.205 688.931 504.221
1110 0 49.136 9.48388 466 109.264 689 503.401
1111 0 51.031 9.30807 475 107.627 688.682 502.825
1112 0 51.099 9.19783 470 108.13 688.094 503.428
1113 0 55.043 9.08381 500 106.66 687.8 501.958
1114 0 57.0851 9.24935 528 104.659 687.526 501.273
1115 0 59.0736 9.32734 551 104.47 687.757 498.013
1116 0 60.0511 9.22548 554 104.906 688.379 498.348
1117 0 62.0526 9.74979 605 104.193 687.681 495.82
1118 0 62.042 9.39686 583 104.902 688.009 495.509
1119 0 65.0346 9.87167 642 103.916 687.749 493.326
1120 0 66.0333 9.31348 615 105.107 687.58 491.672
1121 0 68.026 8.62906 587 105.249 687.23 493.721
1122 0 70.0223 8.8686 621 105.1 687.105 490.351
1123 1 38.0099 8.10315 308 106.867 686.955 505.127
1124 0 40.02 9.27037 371 103.092 686.782 504.445
1125 0 41.0114 9.80216 402 101.336 685.433 503.341
1126 0 42.1016 9.6671 407 101.283 687.327 501.6
1127 0 43.1198 9.53158 411 102.058 686.808 501.538
1128 0 44.1646 10.2344 452 101.124 686.405 501.066
1129 0 45.1046 9.77727 441 102.057 686.769 501.717
1130 0 46.1582 9.44578 436 102.404 686.179 500.495
1131 0 47.1268 10.1641 479 100.102 686.564 499.572
1132 0 48.1094 9.68626 466 102.23 686.605 498.931
1133 0 49.1099 9.77399 480 102.494 686.938 498.221
1134 0 49.1097 9.50932 467 104.107 686.388 497.653
1135 0 50.1032 9.66006 484 103.455 686.112 495.903
1136 0 53.142 10.1803 541 102.096 686.133 495.819
1137 0 57.1249 9.99564 571 102.937 686.685 494.555
1138 0 58.0706 9.9534 578 102.28 685.597 500.159
1139 0 62.0838 10.0026 621 101.319 686.048 498.224
1140 0 63.0555 9.65816 609 101.701 685.734 498.519
1141 0 68.0714 10.9297 744 98.8253 685.522 497.13
1142 0 68.1138 10.2622 699 102.237 685.209 495.496
1143 1 35.0055 9.34138 327 105.021 684.177 511.783
1144 0 35.0268 9.56411 335 104.618 684.185 509.731
1145 0 34.0088 9.08589 309 103.728 684.223 507.489
1146 0 33.0119 8.14856 269 93.8253 684.532 504.238
1147 0 36.0392 9.21218 332 99.7199 686.422 513.497
1148 0 36.024 9.10504 328 101.686 686.637 512.043
1149 0 40.0186 9.79545 392 86.7755 687.329 511.508
1150 0 39.0378 10.5539 412 86.2913 687.136 510.476
1151 0 39.0353 9.11996 356 90.0618 686.98 509.581
1152 0 40.0181 9.59567 384 89.2448 685.833 510.831
1153 0 41.0193 9.7759 401 89.5711 686.98 509.204
1154 0 43.0608 10.5432 454 88.4141 686.251 508.815
1155 0 44.0754 10.2325 451 89.6785 685.942 509.494
1156 0 44.0278 9.60757 423 91.7778 685.903 507.811
1157 0 45.0149 10.2188 460 91.3261 685.759 507.609
1158 0 48.0539 10.5507 507 88.9211 686.742 507.095
1159 0 49.0285 10.5857 519 90.0906 685.936 506.299
1160 0 52.0252 11.5329 600 87.9017 686.11 504.42
1161 0 52.063 11.198 583 89.3156 686.17 505.468
1162 0 53.0632 11.2507 597 90.2228 686.079 504.015
1163 0 56.0325 10.833 607 90.8402 686.339 503.288
1164 0 59.0308 11.6041 685 88.8847 685.711 502.378
1165 0 59.0145 10.8448 640 90.5141 686.259 502.261
1166 0 61.0604 11.2839 689 90.8766 685.742 502.058
1167 0 62.0733 11.3253 703 139.074 685.808 501.676
1168 0 66.0628 11.2923 746 89.2185 684.855 500.495
1169 0 67.0973 11.4014 765 90.464 684.927 500.126
1170 0 70.0429 10.8219 758 92.8509 684.496 498.127
1171 0 72.0699 10.7535 775 94.6594 684.452 497.507
1172 0 74.0951 10.689 792 96.4533 684.515 497.504
1173 1 40.0353 10.8154 433 98.6328 684.21 512.321
1174 0 41.0263 11.3829 467 99.2248 684.908 510.891
1175 0 44.0426 12.0792 532 98.9041 683.906 510.353
1176 0 47.0185 11.8889 559 99.1109 684.513 509.637
1177 0 47.0196 12.2502 576 101.465 684.479 509.306
1178 0 49.2031 12.4992 615 102.174 684.122 507.828
1179 0 51.0173 12.5252 639 102.324 683.953 509.05
1180 0 50.0078 12.2981 615 105.293 684.135 507.709
1181 0 51.0245 11.955 610 106.608 683.995 507.582
1182 0 55.0254 12.4306 684 104.813 684 506.651
1183 0 54.0167 12.0703 652 108.054 683.794 505.138
1184 0 56.0555 12.2736 688 106.244 684.368 503.548
1185 0 59.0558 12.0564 712 106.68 684.735 503.125
1186 0 61.1472 12.6907 776 105.682 684.769 501.455
1187 0 63.1666 12.3008 777 104.876 684.713 500.356
1188 0 63.1356 12.386 782 107.771 684.404 499.275
1189 0 65.0772 12.4314 809 106.161 684.15 498.791
1190 0 68.1618 12.7491 869 105.673 684.605 497.039
1191 0 71.0815 12.2957 874 106.438 684.94 496.894
1192 0 72.1014 12.1357 875 108.591 685.248 495.75
1193 0 75.0835 12.3729 929 107.884 685.092 492.632
1194 0 77.1294 12.6022 972 107.686 685.181 492.369
1195 0 79.1275 12.4104 982 108.943 685.206 491.986
1196 0 80.0594 12.4283 995 109.591 685.143 491.38
1197 0 83.2028 12.103 1007 111.97 684.739 487.886
1198 0 85.164 12.0356 1025 111.825 684.73 485.998
1199 0 89.0796 11.2147 999 105.305 684.352 486.64
1200 0 92.1491 11.3837 1049 105.665 684.315 486.792
1201 0 93.1331 11.242 1047 106.793 684.521 486.868
1202 0 97.1269 10.6973 1039 106.487 684.514 484.526
1203 1 49.0401 9.70635 476 94.3782 684.3 506.303
1204 0 50.0139 9.31741 466 93.8476 684.826 504.519
1205 0 53.0592 10.2338 543 95.1289 684.75 505.118
1206 0 50.0467 9.77087 489 100.331 684.838 507.454
1207 0 53.0425 9.86002 523 99.3843 685.447 506.849
1208 0 56.041 9.24324 518 99.5792 685.228 506.614
1209 0 56.02 10.0321 562 99.1548 685.422 504.475
1210 0 57.0466 9.799 559 97.8927 685.243 504.943
1211 0 59.0959 10.356 612 95.8219 684.993 503.564
1212 0 62.0852 10.3567 643 96.3655 685.176 501.345
1213 0 65.0789 10.5718 688 96.0669 685.75 499.855
1214 0 66.0502 10.8554 717 94.622 685.428 499.895
1215 0 71.1497 11.6234 827 92.1874 685.279 498.125
1216 0 72.0692 10.8229 780 94.3641 685.587 497.87
1217 0 74.0949 11.2423 833 94.1116 685.076 494.406
1218 0 75.0616 11.6438 874 94.0389 685.197 494.42
1219 0 79.112 11.5659 915 94.5749 685.248 492.75
1220 0 80.0808 11.1512 893 97.5241 685.297 491.763
1221 0 82.0894 11.926 979 96.998 685.831 490.421
1222 0 84.115 10.6996 900 99.7989 685.104 487.432
1223 0 88.1111 11.4741 1011 98.1187 685.194 482.819
1224 0 90.1706 10.9459 987 98.9737 685.304 481.509
1225 0 95.1465 11.1407 1060 97.7981 685.842 480.307
1226 0 98.2146 10.9352 1074 98.662 686.034 477.547
1227 0 101.166 10.7447 1087 99.1417 685.835 477.085
1228 1 51.1243 9.87789 505 92.402 685.337 502.352
1229 0 54.1095 10.5712 572 90.3339 685.198 503.495
1230 0 54.0553 10.6188 574 90.1672 685.519 504.929
1231 0 53.0749 11.1164 590 91.5864 684.405 502.417
1232 0 55.0557 11.2068 617 90.0583 685.397 503.167
1233 0 60.1134 11.2953 679 87.9278 685.492 500.08
1234 0 60.0458 11.0416 663 88.2066 685.195 500.354
1235 0 64.051 11.4752 735 86.2109 686.521 498.641
1236 0 65.038 11.5471 751 85.6099 686.623 499.114
1237 0 66.0292 10.9951 726 86.4174 686.218 498.191
1238 0 69.0272 11.6621 805 84.8559 686.006 495.27
1239 0 70.0666 10.961 768 87.0716 685.975 495.16
1240 0 73.0936 10.6576 779 99 685.813 493.6
1241 0 75.1076 11.357 853 97.3552 685.979 492.11
1242 0 77.1607 11.4825 886 97.8883 686.01 489.94
1243 0 79.0954 10.9615 867 98.6805 686.035 488.693
1244 0 81.087 10.4579 848 99.2123 686.682 488.254
1245 0 85.068 10.8854 926 98.4017 687.292 485.269
1246 0 88.0306 11.3483 999 96.5736 686.921 484.255
1247 0 89.1114 11.2331 1001 97.5784 685.856 483.51
1248 0 90.0606 10.9371 985 100.259 686.272 483.161
1249 0 90.1142 9.67661 872 96.2041 686.482 478.226
1250 0 94.0762 9.84308 926 95.9201 686.663 476.247
1251 0 96.0397 10.4332 1002 95.3693 686.165 475.556
1252 0 99.1072 10.2818 1019 95.0186 686.696 477.995
1253 0 102.088 10.0012 1021 96.6836 686.953 473.95
1254 0 107.086 11.0472 1183 94.3795 687.016 476.301
1255 0 110.096 10.5999 1167 95.0497 687.727 473.863
1256 0 111.121 10.7631 1196 95.24 686.563 471.84
1257 0 116.084 10.4321 1211 96.4459 686.951 470.076
1258 0 117.201 10.2644 1203 96.9767 686.039 467.889
1259 0 122.178 10.8858 1330 94.8609 685.714 468.064
1260 0 123.226 10.2657 1265 99.747 686.116 466.81
1261 0 129.267 11.1707 1444 97.1593 685.882 463.284
1262 0 133.253 11.1217 1482 97.6903 685.779 461.485
1263 0 137.205 10.867 1491 97.4896 685.516 460.041
1264 0 143.295 11.2425 1611 97.4376 686.473 457.49
1265 0 146.236 10.5993 1550 99.729 686.381 455.25
1266 0 151.334 11.022 1668 100.512 686.363 452.652
1267 0 157.289 11.4947 1808 101.612 686.49 450.341
1268 0 161.282 11.452 1847 101.948 686.203 449.736
1269 0 168.277 11.9327 2008 102.24 685.698 446.219
1270 0 170.222 11.8434 2016 103.426 686.128 441.87
1271 0 178.253 12.6281 2251 101.665 685.845 438.765
1272 0 182.304 12.9235 2356 101.784 685.648 435.093
1273 0 188.223 12.9262 2433 101.24 685.57 432.838
1274 0 194.296 12.9802 2522 101.585 686.51 428.957
1275 0 200.319 13.3787 2680 100.059 686.644 427.256
1276 0 205.289 13.2009 2710 102.07 686.79 420.94
1277 0 212.301 13.3254 2829 100.387 686.551 420.525
1278 0 217.295 12.9639 2817 102.686 686.64 417.626
1279 0 221.211 12.9017 2854 104.541 687.075 416.121
1280 0 230.241 12.9821 2989 104.024 686.451 409.719
1281 1 63.0978 10.1905 643 90.21 685.714 488.003
1282 0 66.0374 10.8423 716 92.2277 687 492.683
1283 0 70.0729 11.0599 775 91.9123 687.568 491.556
1284 0 73.1605 12.4521 911 89.9034 686.236 485.315
1285 0 74.1172 11.8056 875 90.496 685.967 490.533
1286 0 77.1088 10.7121 826 89.345 686.557 489.748
1287 0 81.1234 11.6859 948 89.1973 686.319 487.289
1288 0 83.2164 11.2237 934 87.5203 686.421 488.972
1289 0 86.1591 10.9913 947 88.4393 686.078 486.225
1290 0 89.1514 11.0598 986 87.3053 686.48 485.757
1291 1 50.0188 9.69635 485 77.8969 686.171 506.466
1292 0 50.0415 9.9917 500 76.922 685.462 506.216
1293 0 53.015 10.0538 533 75.8105 684.938 504.159
1294 0 54.045 9.62161 520 77.075 685.217 503.267
1295 0 55.1034 10.6527 587 76.3646 685.177 501.799
1296 0 55.1481 10.2995 568 75.7377 685.468 501.852
1297 0 59.132 10.7556 636 72.7264 685.167 498.973
1298 0 61.1114 9.98176 610 74.1574 685.215 499.875
1299 0 63.1416 10.7219 677 72.6425 686.148 498.904
1300 0 64.2285 10.2447 658 72.9134 686.217 498.643
1301 0 65.0962 10.231 666 73.2372 686.104 495.904
1302 0 69.1759 10.3071 713 73.195 686.177 496.035
1303 0 70.1183 11.4806 805 74.6708 685.375 494.16
1304 0 73.1182 10.9549 801 73.4095 685.799 492.011
1305 0 74.1672 10.6786 792 72.63 685.72 491.381
1306 0 76.0984 9.96079 758 74.6161 685.606 490.478
1307 0 79.1428 10.4368 826 74.1283 685.439 488.841
1308 0 74.0733 14.1617 1049 80.571 684.825 401.352
1309 1 34.1054 6.71447 229 69.4323 685.865 505.214
1310 0 42.0232 9.32817 392 73.8597 685.878 460.87
1311 0 37.0709 8.41631 312 69.7532 685.942 500.811
1312 0 39.0692 8.88168 347 72.9798 686.53 500.248
1313 0 41.0355 9.89388 406 73.3522 686.002 502.138
1314 0 43.0632 9.52089 410 66.9512 685.91 499.939
1315 0 45.0396 9.85799 444 66.5811 686.356 500.065
1316 0 44.0292 9.8798 435 67.6874 685.241 501.701
1317 0 49.0382 10.0942 495 66.3899 684.937 501.152
1318 0 50.0475 10.7698 539 65.9833 685.147 499.998
1319 0 51.0527 10.5969 541 66.8743 684.582 500.372
1320 0 52.0621 11.1021 578 66.2336 685.215 499.498
1321 0 54.1157 11.0504 598 66.1154 684.796 498.905
1322 0 55.0645 10.1881 561 68.246 684.845 498.697
1323 0 53.0485 10.2171 542 69.0461 684.437 496.764
1324 0 54.06 8.82354 477 72.3417 685.904 500.013
1325 0 57.0473 11.0961 633 82.0032 686.166 503.591
1326 0 61.033 11.0104 672 81.1161 685.211 503.079
1327 0 62.056 11.2157 696 79.4684 686.772 502.141
1328 0 65.0975 11.7516 765 78.6575 685.136 500.526
1329 0 67.0876 11.3434 761 78.8108 685.095 501.265
1330 0 68.0337 11.3326 771 79.0493 684.665 498.156
1331 0 70.0595 11.5616 810 78.5889 684.843 498.26
1332 0 71.0801 11.8458 842 78.867 684.853 496.156
1333 0 74.0657 11.1253 824 80.4672 685.153 495.085
1334 0 76.0798 11.8034 898 79.6147 684.833 494.646
1335 0 80.0728 11.1524 893 81.047 684.52 493.52
1336 0 83.0408 11.9098 989 79.913 684.547 490.975
1337 0 88.0977 12.9061 1137 76.9288 684.968 488.477
1338 0 86.0409 11.5526 994 81.6217 684.604 488.219
1339 0 90.0829 11.3562 1023 83.1075 684.55 485.514
1340 0 94.1177 10.71 1008 84.9395 684.596 485.513
1341 0 94.037 10.9425 1029 86.5646 685.656 484.158
1342 0 99.0585 11.0844 1098 86.694 685.117 482.824
1343 1 52.0285 9.99452 520 88.9288 684.265 504.402
1344 0 53.0601 10.7048 568 85.6162 683.87 505.262
1345 0 55.033 11.6476 641 84.2574 683.718 504.114
1346 0 56.053 11.1145 623 78.5072 683.868 499.247
1347 0 56.0672 9.79181 549 74.3734 684.612 500.53
1348 0 58.0617 10.6094 616 72.4075 684.847 500.127
1349 0 59.0665 9.92102 586 74.4096 684.276 498.8
1350 0 63.0592 9.86375 622 75.5 684.68 496.952
1351 0 64.0311 10.1513 650 75.4523 685.112 497.268
1352 0 66.022 10.8752 718 74.6518 684.565 495.18
1353 0 70.0195 10.6827 748 75.762 684.562 494.032
1354 0 71.0595 10.9064 775 75.9536 684.488 492.782
1355 0 73.0368 10.0497 734 77.733 684.866 492.413
1356 0 75.0618 10.3914 780 77.5218 684.835 490.845
1357 0 76.0718 10.1483 772 78.4586 684.944 488.977
1358 0 80.0769 10.7896 864 77.5417 684.351 488.603
1359 0 83.04 10.3926 863 78.8146 684.941 485.302
1360 0 85.0419 9.87749 840 79.9774 684.424 485.526
1361 0 88.0425 10.2337 901 79.5771 684.011 483.502
1362 0 92.1412 9.83274 906 79.6755 684.479 484.363
1363 0 93.1253 9.93285 925 81.3027 684.663 480.832
1364 0 96.0932 10.2088 981 82.0744 684.784 477.859
1365 0 98.128 10.2112 1002 84.3303 684.964 478.771
1366 1 53.0456 9.9914 530 83.117 684.734 503.238
1367 0 54.0772 9.72683 526 78.23 684.818 500.848
1368 0 55.0601 10.2797 566 77.9859 684.602 500.951
1369 0 58.0846 11.0012 639 76.77 684.725 499.491
1370 0 58.0846 11.0356 641 109.023 684.724 499.502
1371 0 65.0593 11.5279 750 85.9493 683.18 501.481
1372 0 68.092 12.5712 856 84.1168 684.154 500.953
1373 0 71.0439 11.8518 842 86.1069 684.336 501.671
1374 0 71.0665 12.6642 900 84.6978 683.823 500.234
1375 0 76.0986 12.3261 938 84.404 683.606 499.173
1376 0 77.0994 11.2452 867 81.7266 683.985 494.584
1377 0 81.0576 11.424 926 78.77 683.83 495.329
1378 0 80.1302 11.7434 941 82.0595 683.908 495.604
1379 1 42.0321 10.6109 446 83.2063 684.076 515.253
1380 0 42.0226 10.304 433 86.0346 684.621 514.337
1381 0 41.0632 10.6908 439 88.2528 684.467 513.15
1382 0 44.0435 10.5578 465 86.2473 684.996 512.757
1383 0 42.0531 10.6056 446 84.0269 684.173 509.561
1384 0 44.0547 11.0998 489 81.2679 683.511 508.693
1385 0 46.0961 10.912 503 79.7256 683.688 508.658
1386 0 47.0625 10.8792 512 79.3164 683.549 508.361
1387 0 49.0852 10.8994 535 78.1944 683.688 508.041
1388 0 49.044 10.8474 532 78.3346 683.726 507.263
1389 0 52.0629 10.6602 555 77.8198 684.086 505.387
1390 0 52.0947 11.4791 598 76.7274 683.013 505.671
1391 0 54.0501 11.1748 604 78.4205 683.162 504.538
1392 0 55.0353 11.0293 607 79.1928 683.817 503.216
1393 0 59.0817 11.8649 701 83.98 683.037 504.803
1394 0 61.0378 11.8943 726 101.304 682.938 505.554
1395 0 62.1183 12.4118 771 101.78 683.353 505.066
1396 0 64.1612 12.4218 797 102.995 682.892 503.245
1397 0 65.1147 12.455 811 104.959 682.933 503.491
1398 0 65.1522 12.4171 809 106.897 683.222 501.237
1399 0 68.0979 12.482 850 107.494 682.928 500.731
1400 0 69.1522 12.3206 852 110.219 682.785 500.818
1401 0 69.1627 12.3043 851 142.776 682.778 500.793
1402 0 74.0949 12.0116 890 112.674 682.796 498.411
1403 0 75.0792 12.4402 934 112.79 682.491 496.619
1404 0 78.0451 12.2621 957 114.504 682.786 496.353
1405 0 80.0792 12.65 1013 114.668 683.426 494.134
1406 1 37.1199 10.4257 387 117.863 682.406 515.217
1407 0 37.0867 10.6777 396 115.965 682.46 514.485
1408 0 35.03 10.1342 355 107.955 682.256 511.008
1409 0 36.0071 10.3035 371 96.965 682.876 511.369
1410 0 37.0133 10.2396 379 94.905 683.681 510.375
1411 0 38.034 10.254 390 96.6333 683.559 508.869
1412 0 43.0828 11.0253 475 103.806 683.101 512.213
1413 0 45.0336 11.7024 527 104.86 684.207 511.731
1414 0 46.0377 11.8164 544 106.051 684.189 511.338
1415 0 46.0371 11.7514 541 107.366 684.026 510.54
1416 0 48.0357 11.9494 574 105.699 683.862 510.528
1417 0 49.0625 11.9847 588 106.238 683.869 509.522
1418 0 51.0373 11.4622 585 105.779 683.6 508.614
1419 0 52.0832 11.6352 606 104.432 683.99 508.198
1420 0 55.071 12.0753 665 100.668 683.591 508.257
1421 0 55.0607 11.006 606 104.635 684.271 506.318
1422 0 58.0607 11.8841 690 101.552 684.128 506.087
1423 0 60.0376 12.1424 729 100.75 684.322 503.546
1424 0 61.022 11.2255 685 103.047 684.493 503.877
1425 0 63.0571 11.5927 731 101.735 684.792 503.241
1426 0 63.055 11.038 696 103.922 684.32 502.767
1427 0 67.03 11.01 738 103.39 684.889 501.768
1428 0 69.0722 10.9451 756 96.6944 684.19 499.316
1429 0 67.029 9.50336 637 100.945 684.181 500.071
1430 0 72.0989 10.5272 759 99.6983 684.174 499.765
1431 0 72.0989 10.5133 758 125.216 685.169 499.81
1432 0 76.0568 10.5185 800 97.4775 684.84 497.374
1433 0 78.0553 9.96729 778 99.8972 685.152 497.508
1434 0 81.0328 9.78617 793 100.933 684.673 494.115
1435 0 86.0609 10.0975 869 94.8849 683.988 493.182
1436 0 88.0811 10.479 923 93.9328 684.765 490.07
1437 1 44.0341 9.56077 421 94.7292 684.147 510.549
1438 0 47.0672 11.473 540 93.3796 683.376 512.181
1439 0 47.0586 11.6238 547 91.6033 684.371 509.623
1440 0 50.0682 12.2433 613 89.8336 684.051 508.411
1441 0 51.151 12.2578 627 96.7831 683.844 507.305
1442 0 51.0359 11.3254 578 91.7664 684.337 508.154
1443 0 54.0257 11.513 622 89.6592 684.937 506.367
1444 0 55.0552 11.3341 624 89.9295 684.973 505.248
1445 0 57.0484 11.4289 652 89.8022 684.75 504.025
1446 0 59.0391 11.45 676 88.8284 684.7 504.732
1447 0 60.0912 11.6157 698 87.6146 685.016 502.405
1448 0 63.0492 11.5307 727 86.4704 683.741 499.326
1449 0 64.0498 11.0227 706 87.4079 684.715 499.459
1450 0 68.0225 11.5844 788 98.1586 685.023 497.515
1451 0 70.0774 11.1876 784 99.8444 684.746 497.312
1452 0 70.0744 11.1881 784 128.186 683.746 497.312
1453 0 75.0671 11.2166 842 97.8741 684.322 494.02
1454 0 75.0893 10.7872 810 98.237 684.336 492.305
1455 0 77.1401 10.8633 838 96.8413 684.607 491.223
1456 0 82.196 11.4361 940 93.9862 684.296 489.567
1457 0 84.1736 10.312 868 96.0956 685.286 489.19
1458 0 85.2599 10.8961 929 95.4489 684.962 488.409
1459 1 51.0438 10.0502 513 94.5068 684.499 505.166
1460 0 50.0444 10.091 505 114.78 684.485 505.465
1461 0 56.1098 10.8715 610 93.8246 684.169 501.033
1462 0 58.0629 11.1431 647 95.6291 684.706 498.89
1463 0 55.0564 10.5891 583 90.1818 683.551 497.115
1464 0 57.0707 10.1979 582 91.646 683.431 496.122
1465 0 61.0619 11.3983 696 97.0733 684.03 499.591
1466 0 63.0639 11.4963 725 96.4166 683.578 497.454
1467 0 66.1046 11.7541 777 94.2922 683.596 496.417
1468 0 67.1064 11.9363 801 94.442 684.056 495.285
1469 0 70.0867 12.2563 859 92.0698 684.434 495.306
1470 0 71.133 12.2166 869 92.7698 683.994 493.315
1471 0 75.2113 12.4449 936 92.0962 683.738 492.681
1472 0 75.1856 12.3694 930 120.195 684.766 492.684
1473 0 78.09 12.0502 941 92.9777 683.523 489.756
1474 0 82.1543 11.7705 967 92.4302 683.766 489.255
1475 0 87.1839 12.3303 1075 90.0791 683.963 486.391
1476 0 94.2009 10.5095 990 93.8657 683.554 486.999
1477 0 94.1069 11.5826 1090 92.1239 684.046 482.904
1478 0 99.1821 10.6572 1057 93.2668 684.191 481.099
1479 0 100.182 11.5091 1153 92.5195 684.391 478.608
1480 0 103.155 11.2355 1159 93.6342 685.254 476.453
1481 1 38.0188 11.1261 423 91.1749 684.768 505.132
1482 0 40.0221 10.6191 425 95.0894 685.292 504.266
1483 0 43.03 11.5733 498 93.7209 685.147 506.02
1484 0 43.0444 11.8715 511 95.6478 684.859 502.994
1485 0 44.0548 11.8262 521 97.7793 684.403 505.956
1486 0 42.074 11.2659 474 101.559 685.819 504.804
1487 0 47.1098 12.3329 581 96.6988 685.3 505.275
1488 0 48.0945 12.4754 600 96.7967 685.122 505.35
1489 0 50.1534 12.7409 639 95.1393 685.407 505.213
1490 0 49.1047 12.5039 614 95.8225 685.324 504.831
1491 0 51.0773 12.6279 645 96.0977 685.465 502.718
1492 0 52.0441 12.8929 671 96.0388 685.393 501.699
1493 0 53.1048 12.3341 655 97.3344 685.221 500.579
1494 0 54.07 12.9647 701 96.8816 685.171 498.97
1495 0 59.0846 12.4567 736 94.9171 684.81 498.978
1496 0 60.0853 12.6487 760 94.421 685.741 500.636
1497 0 62.1085 12.5104 777 95.2793 685.4 498.762
1498 0 62.0906 13.2226 821 93.5956 685.1 498.946
1499 0 66.0689 13.3497 882 93.7381 685.308 496.771
1500 0 64.1157 12.8674 825 96.143 685.135 494.224
1501 0 68.0838 13.0281 887 94.6674 685.498 494.425
1502 0 70.1129 13.7492 964 93.0073 685.091 493.473
1503 0 74.1332 13.5162 1002 92.3343 685.45 492.294
1504 0 74.0965 13.28 984 91.4797 684.88 490.916
1505 0 74.0951 12.6729 939 94.0777 685.182 489.745
1506 0 78.061 13.387 1045 93.045 685.339 489.719
1507 0 80.1143 13.4558 1078 94.1725 685.468 488.188
1508 0 82.0793 13.487 1107 94.8175 685.385 488.199
1509 0 85.0868 13.9035 1183 96.0769 685.84 486.76
1510 0 88.1228 13.311 1173 97.7962 685.735 486.159
1511 0 91.084 13.7126 1249 97.3411 686.052 486.64
1512 0 93.0883 13.8363 1288 97.9433 685.169 484.28
1513 0 95.1078 14.226 1353 99.0517 684.827 483.496
1514 0 95.1987 14.0233 1335 101.514 685.803 482.43
1515 0 99.0943 14.3702 1424 101.2 685.743 480.888
1516 0 99.1386 14.394 1427 103.242 685.92 479.521
1517 0 97.0628 12.1571 1180 102.342 686.146 483.414
1518 0 101.036 13.035 1317 101.948 685.604 480.771
1519 0 104.099 12.5649 1308 103.586 685.692 479.965
1520 0 107.117 12.5938 1349 104.45 686.34 478.228
1521 0 111.088 13.4669 1496 102.235 685.826 475.393
1522 0 115.079 13.3126 1532 104.627 686.03 472.755
1523 0 117.048 13.4304 1572 105.656 685.892 473.538
1524 0 122.086 13.9819 1707 105.342 685.941 470.343
1525 0 123.065 13.3019 1637 108.665 685.411 469.031
1526 0 127.091 13.5965 1728 109.964 685.767 466.691
1527 0 131.071 14.0001 1835 109.507 685.834 463.822
1528 0 136.159 14.3435 1953 110.667 685.397 461.18
1529 0 140.136 14.1149 1978 111.454 685.798 463.761
1530 0 144.153 15.3239 2209 119.44 686.021 457.354
1531 0 149.116 14.7201 2195 120.767 686.287 457.578
1532 0 155.08 15.1986 2357 116.609 686.496 455.266
1533 0 157.149 14.0758 2212 115.313 686.467 455.755
1534 0 161.21 13.8453 2232 116.407 686.456 454.383
1535 0 165.143 14.5995 2411 116.735 685.974 450.065
1536 0 169.108 14.1685 2396 119.497 685.629 449.558
1537 0 174.167 14.9913 2611 121.177 684.867 445.883
1538 0 177.143 14.5758 2582 123.452 685.321 443.454
1539 0 182.274 14.9171 2719 123.446 685.951 440.296
1540 0 184.219 14.7053 2709 125.202 685.439 438.248
1541 0 192.193 15.6145 3001 121.834 685.254 438.141
1542 0 197.279 15.141 2987 126.252 685.449 435.2
1543 0 202.215 14.9593 3025 127.881 686.01 430.121
1544 0 209.205 15.4251 3227 123.646 686.016 426.469
1545 0 214.223 14.933 3199 128.225 685.392 423.624
1546 0 222.278 14.9768 3329 126.809 685.041 419.626
1547 1 180.193 13.8019 2487 137.165 685.327 443.934
1548 0 185.126 13.715 2539 139.393 685.446 438.424
1549 0 189.134 13.1282 2483 143.849 685.21 436.555
1550 0 195.254 14.3045 2793 143.509 684.853 431.777
1551 0 199.262 13.7005 2730 147.778 684.815 430.705
1552 0 204.134 13.5695 2770 149.736 684.943 428.739
1553 0 210.186 13.6641 2872 151.62 684.478 423.904
1554 0 217.197 13.9919 3039 151.057 684.644 421.132
1555 0 221.21 13.8466 3063 151.389 684.587 418.583
1556 0 228.209 13.6147 3107 151.78 684.515 414.608
1557 0 233.252 13.4661 3141 152.224 685.139 414.268
1558 0 241.222 14.2441 3436 147.797 685.144 412.45
1559 0 246.331 12.9947 3201 153.265 685.979 407.044
1560 1 205.243 12.3464 2534 152.546 685.354 432.227
1561 0 212.184 14.0067 2972 147.89 685.152 427.021
1562 0 218.319 14.0437 3066 148.592 685.37 422.022
1563 0 220.276 13.6646 3010 153.889 685.588 417.617
1564 0 226.24 13.6979 3099 151.329 685.096 416.71
1565 0 233.171 13.8096 3220 151.707 685.301 414.769
1566 0 238.211 13.9708 3328 151.208 684.974 411.204
1567 0 244.206 13.5991 3321 154.134 685.072 408.948
1568 0 253.252 13.9584 3535 152.438 685.349 403.253
1569 0 262.199 14.1229 3703 151.029 685.858 399.19
1570 1 206.151 13.4173 2766 150.97 685.081 429.208
1571 0 210.206 13.5296 2844 148.488 685.759 424.408
1572 0 218.161 13.8247 3016 146.718 686.07 421.273
1573 0 225.186 13.9174 3134 147.265 686.442 415.173
1574 0 231.135 13.5938 3142 149.233 686.426 412.467
1575 0 240.252 14.4474 3471 148.746 685.849 408.458
1576 0 247.151 14.3151 3538 149.727 685.49 406.65
1577 0 256.281 13.8325 3545 148.911 685.362 403.924
1578 0 263.152 14.4175 3794 147.703 685.267 398.105
1579 1 197.279 12.8853 2542 151.979 685.266 429.539
1580 0 202.209 13.5652 2743 150.849 684.542 424.63
1581 0 206.22 13.2626 2735 156.54 685.434 419.778
1582 0 215.27 13.6944 2948 154.426 685.437 415.774
1583 0 219.2 13.8412 3034 153.595 685.261 412.766
1584 0 227.256 13.7378 3122 154.537 685.766 409.758
1585 0 232.278 13.8627 3220 155.772 685.596 408.062
1586 0 237.306 13.451 3192 158.152 685.744 405.576
1587 0 244.193 14.0872 3440 155.858 685.07 403.608
1588 0 250.274 13.8648 3470 156.931 684.994 405.617
1589 0 257.329 13.8383 3561 154.822 684.973 404.787
1590 1 199.264 12.3253 2456 157.509 685.162 433.029
1591 0 207.216 12.9286 2679 153.399 684.957 427.652
1592 0 213.2 13.1426 2802 151.592 684.727 423.789
1593 0 220.168 13.3035 2929 149.667 685.288 418.954
1594 0 227.236 13.8842 3155 147.332 685.338 414.473
1595 0 233.288 13.5026 3150 148.284 685.2 410.021
1596 0 238.324 13.8257 3295 147.241 684.914 406.256
1597 0 243.249 13.3032 3236 149.981 684.17 404.479
1598 0 250.243 13.5548 3392 148.825 684.638 401.101
1599 0 256.267 13.6147 3489 148.697 684.607 396.52
1600 0 263.299 13.6309 3589 147.342 684.859 393.235
1601 0 270.258 13.8497 3743 144.333 685.255 387.565
1602 0 275.371 13.8323 3809 143.483 684.775 383.224
1603 0 283.291 13.9786 3960 139.857 685.184 380.513
1604 0 288.284 12.9768 3741 144.801 684.831 377.784
1605 0 288.289 13.0251 3755 165.342 684.819 378.023
1606 1 245.275 12.4554 3055 141.376 685.075 402.282
1607 0 250.265 13.4537 3367 137.943 684.643 396.328
1608 0 259.271 13.6305 3534 137.703 684.651 394.958
1609 0 265.259 13.2474 3514 139.794 684.673 389.001
1610 0 270.421 12.8134 3465 142.774 684.169 387.304
1611 0 277.331 13.4677 3735 141.907 684.549 380.903
1612 0 286.392 13.712 3927 142.123 684.562 374.709
1613 0 294.404 13.8789 4086 144.251 684.765 375.45
1614 0 302.453 13.8864 4200 145.792 684.794 369.783
1615 0 310.508 13.9449 4330 147.561 684.16 363.092
1616 0 314.452 14.0944 4432 150.544 684.229 360.741
1617 0 323.47 14.7649 4776 148.114 683.883 353.585
1618 0 330.51 13.8483 4577 152.516 684.073 355.586
1619 0 335.38 13.7396 4608 154.428 684.334 349.095
1620 0 343.41 14.8103 5086 147.866 684.679 343.793
1621 0 353.527 15.6282 5525 143.95 684.799 339.374
1622 0 363.399 16.0678 5839 145.452 685.009 333.856
1623 0 372.423 15.716 5853 144.819 683.86 331.496
1624 0 379.507 15.5307 5894 144.666 684.033 330.076
1625 0 391.467 15.2759 5980 146.744 684.722 321.787
1626 0 403.439 16.0793 6487 143.227 685.018 316.504
1627 0 409.563 15.3481 6286 145.901 684.762 307.617
1628 0 392.81 15.1295 5943 149.894 684.833 306.102
1629 0 402.392 14.3765 5785 158.434 685.108 310.871
1630 0 401.636 15.2825 6138 153.713 685.291 315.133
1631 0 399.51 15.1586 6056 154.843 684.659 311.934
1632 0 407.888 15.2909 6237 151.786 685.044 306.754
1633 0 48.1495 10.1766 490 128.996 685.314 496.888
1634 0 49.0504 10.3567 508 128.809 684.915 496.085
1635 0 51.0295 11.072 565 129.29 684.062 497.995
1636 0 52.0447 11.2788 587 131.83 682.175 462.681
1637 0 55.0544 13.5321 745 110.47 682.055 468.91
1638 0 57.1822 14.6024 835 115.564 682.695 473.053
1639 0 59.2361 14.0624 833 117.206 683.369 475.605
1640 0 59.1942 14.1399 837 118.049 683.366 489.816
1641 0 61.228 14.2255 871 117.618 683.331 488.659
1642 0 62.1943 14.6637 912 115.905 683.428 492.499
1643 0 63.202 14.2875 903 117.047 683.115 489.76
1644 0 66.259 15.2885 1013 112.608 682.962 490.523
1645 0 67.2715 14.2854 961 116.063 683.408 489.638
1646 0 69.2091 14.3045 990 115.38 683.006 488.833
1647 0 71.2072 14.7597 1051 112.788 683.617 487.714
1648 0 71.1439 14.562 1036 106.267 684.098 491.093
1649 0 73.1141 14.8672 1087 104.84 684.976 491.401
1650 0 75.1595 14.5158 1091 105.085 684.593 489.514
1651 0 78.1157 14.4913 1132 104.883 684.253 487.357
1652 0 80.0755 14.1866 1136 106.6 684.362 487.874
1653 1 41.0496 11.279 463 116.423 683.778 506.065
1654 0 44.048 11.8734 523 111.816 684.545 505.579
1655 0 45.0354 12.3014 554 110.527 684.601 504.088
1656 0 46.0331 12.9255 595 109.55 683.358 503.98
1657 0 50.0741 11.7825 590 111.856 682.78 504.056
1658 0 45.0992 11.6853 527 111.6 683.476 506.865
1659 0 47.0811 11.7245 552 107.596 684.562 508.4
1660 0 51.1351 12.555 642 102.497 684.375 506.572
1661 0 51.0395 12.9703 662 102.527 683.864 506.118
1662 0 52.1143 12.8372 669 104.096 683.559 503.969
1663 0 54.1268 13.2467 717 101.215 684.351 504.364
1664 0 55.1075 13.3194 734 101.747 683.632 503.311
1665 0 55.0966 12.2512 675 105.523 683.942 502.686
1666 0 56.0586 12.1837 683 104.772 684.272 502.906
1667 0 56.0526 11.9709 671 105.972 683.694 501.364
1668 0 58.068 12.5198 727 103.146 684.059 500.259
1669 0 60.0682 12.569 755 101.367 684.319 499.502
1670 0 61.0492 12.6128 770 100.978 683.822 498.76
1671 0 64.0954 12.341 791 99.3843 684.125 498.85
1672 0 64.0689 12.2368 784 100.378 684.156 498.462
1673 0 67.0776 12.8359 861 97.065 684.621 496.438
1674 0 68.0442 12.3743 842 98.0808 683.798 495.099
1675 0 70.0616 12.3748 867 96.8051 684.013 494.07
1676 0 73.0582 11.8946 869 96.9033 683.544 492.823
1677 0 73.1501 12.1941 892 96.8251 684.366 492.235
1678 0 76.0275 12.4955 950 94.399 684.239 491.109
1679 0 79.1013 12.819 1014 92.9793 684.094 489.421
1680 0 81.0393 12.5988 1021 92.669 683.726 489.629
1681 0 83.0286 12.2367 1016 93.2864 683.857 486.566
1682 0 86.0388 12.4827 1074 92.459 683.66 484.556
1683 0 88.0868 12.3742 1090 90.8881 683.987 482.39
1684 1 43.0145 11.159 480 95.8771 683.858 504.548
1685 0 45.0204 11.7724 530 93.1396 683.434 503.421
1686 0 49.053 12.8025 628 92.9968 684.384 502.975
1687 0 47.0569 12.6655 596 91.2215 684.807 500.539
1688 0 51.0443 11.4998 587 93.3867 684.494 500.387
1689 0 53.0647 12.7015 674 93.3131 684.874 500.129
1690 0 56.1596 12.5357 704 87.0682 684.625 501.615
1691 0 56.0409 12.6515 709 93.4711 684.656 499.74
1692 0 57.0375 13.0791 746 93.2574 684.157 498.017
1693 0 60.0241 12.7449 765 92.5556 684.246 498.136
1694 0 61.0928 12.0636 737 94.1872 684.152 498.106
1695 0 61.0641 13.0027 794 92.8665 683.941 497.423
1696 0 63.0388 12.2623 773 94.4243 684.512 496.115
1697 0 66.0763 13.2423 875 92.0126 684.425 495.25
1698 0 68.0386 13.2131 899 93.0323 684.481 494.755
1699 0 70.0328 13.051 914 92.407 684.97 494.207
1700 0 72.1095 13.424 968 92.4473 685.189 492.49
1701 0 72.0639 13.377 964 92.6483 684.702 493.019
1702 0 76.0549 12.8986 981 94.8267 685.587 490.12
1703 0 78.1412 13.6164 1064 92.89 686.123 489.143
1704 0 79.1192 12.7908 1012 95.3824 685.456 488.989
1705 0 83.0626 13.2671 1102 93.4501 685.429 485.951
1706 0 86.0424 13.2841 1143 92.6457 685.395 486.085
1707 0 88.0435 13.5615 1194 92.5251 684.774 483.97
1708 0 91.1032 13.0511 1189 93.5299 683.514 482.146
1709 0 93.0646 13.6357 1269 92.3121 684.038 482.019
1710 0 97.0948 13.3375 1295 91.3598 684.811 480.112
1711 0 100.092 13.2578 1327 91.0799 684.332 476.556
1712 0 103.155 13.0386 1345 90.8305 684.259 474.703
1713 0 106.09 12.857 1364 88.7133 684.756 473.993
1714 0 110.167 12.8441 1415 88.1011 685.11 471.832
1715 0 111.114 12.4826 1387 89.0187 685.21 471.035
1716 0 116.061 12.5106 1452 88.0599 685.251 469.574
1717 0 121.133 12.3088 1491 88.2287 685.468 467.269
1718 0 126.096 12.4349 1568 88.8661 685.23 464.724
1719 1 62.045 11.7334 728 90.4231 684.981 494.751
1720 0 66.033 11.9789 791 92.2781 685.083 494.024
1721 0 68.0211 12.8784 876 91.3288 685.137 491.015
1722 0 70.0569 11.9903 840 93.3405 685.013 490.415
1723 0 73.0725 12.686 927 91.6969 685.211 488.616
1724 0 74.0586 12.5846 932 84.0118 685.136 490.012
1725 0 75.099 11.9842 900 83.2667 685.254 490.711
1726 0 79.1084 12.2237 967 83.5326 685.325 488.76
1727 0 79.1084 12.1858 964 120.794 685.32 488.937
1728 0 81.0531 12.1895 988 85.1073 685.309 487.214
1729 0 85.0926 12.0457 1025 86.2878 685.004 483.152
1730 0 88.183 12.5194 1104 88.8116 685.329 480.966
1731 0 91.0346 11.9295 1086 86.1869 685.049 480.832
1732 0 93.0469 12.2734 1142 86.6331 684.334 477.736
1733 0 97.086 12.0615 1171 87.1708 685.482 477.608
1734 0 100.058 12.043 1205 88.2456 684.69 474.46
1735 0 105.068 13.496 1418 87.1989 684.336 473.004
1736 0 108.056 13.021 1407 88.9645 684.34 472.41
1737 0 113.097 12.3345 1395 88.372 684.743 470.123
1738 0 116.062 12.4761 1448 88.5476 685.012 466.781
1739 0 120.049 12.8447 1542 87.4617 685.907 468.073
1740 0 125.118 12.3084 1540 88.939 685.787 464.355
1741 0 131.069 13.0161 1706 87.6841 686.087 462.53
1742 1 67.0505 12.1699 816 92.6348 685.248 493.299
1743 0 70.0511 12.2767 860 94.2395 685.435 490.496
1744 0 72.0434 12.6868 914 92.0908 684.754 486.835
1745 0 73.0475 12.5535 917 95.1778 684.195 486.359
1746 0 75.098 12.6368 949 93.8693 685.157 489.491
1747 0 77.0496 11.9533 921 96.1466 685.934 487.744
1748 0 79.084 11.6964 925 96.3081 685.755 487.239
1749 0 85.0339 13.3006 1131 92.7241 685.742 485.69
1750 0 85.0468 12.7107 1081 94.8816 684.808 485.223
1751 0 89.1359 13.1597 1173 93.5916 684.883 483.128
1752 0 90.0966 12.7086 1145 95.2507 685.493 482.528
1753 0 93.0481 12.8966 1200 95.1008 685.234 481.728
1754 0 97.103 12.9244 1255 94.6478 684.913 479.307
1755 0 99.0579 12.952 1283 94.2993 684.542 479.07
1756 0 103.074 12.981 1338 93.42 684.932 475.891
1757 0 105.11 11.6925 1229 95.323 684.99 476.634
1758 0 111.108 12.6454 1405 93.3829 684.72 472.092
1759 0 112.085 11.7946 1322 94.8714 684.795 470.07
1760 0 118.105 12.1671 1437 92.8532 685.224 467.268
1761 0 120.125 12.1624 1461 92.7495 685.325 465.532
1762 0 126.086 12.4677 1572 92.5331 685.335 462.438
1763 1 65.0399 10.7319 698 93.4785 684.769 489.148
1764 0 66.0267 10.6926 706 93.8952 685.398 487.629
1765 0 71.0661 12.0733 858 90.9837 685.753 487.131
1766 0 73.0434 12.5405 916 91.5044 685.025 485.512
1767 0 77.068 12.2359 943 91.1782 685.27 485.276
1768 0 80.1187 12.7686 1023 90.4018 684.994 483.244
1769 0 82.0947 11.1457 915 94.3421 685.321 482.619
1770 0 81.0855 11.4447 928 95.0323 684.856 480.894
1771 0 85.0452 11.5115 979 95.1185 685.072 478.262
1772 0 88.1011 11.6798 1029 95.3537 684.996 478.28
1773 0 91.1495 12.1558 1108 95.518 685.071 476.841
1774 0 94.0797 12.4044 1167 95.9906 685.149 476.565
1775 0 96.0676 12.1061 1163 98.0396 685.164 475.997
1776 0 99.1902 12.3298 1223 98.3172 685.218 472.896
1777 0 101.128 12.2815 1242 98.6948 685.359 471.425
1778 0 103.103 12.3565 1274 99.7268 685.693 469.011
1779 0 103.114 12.3262 1271 149.838 684.688 469.027
1780 0 112.12 13.2715 1488 94.6452 684.982 465.503
1781 0 114.127 12.6789 1447 98.0035 684.704 460.616
1782 0 118.123 12.6478 1494 98.2597 684.465 460.669
1783 0 123.163 12.4551 1534 99.9042 684.325 456.765
1784 0 127.148 12.4894 1588 98.3904 683.827 456.05
1785 0 131.184 12.593 1652 97.2676 684.086 452.182
1786 1 67.0288 11.6517 781 96.5992 683.538 482.978
1787 0 68.0848 11.5738 788 98.2221 685.216 485.122
1788 0 71.0381 12.0076 853 97.1149 684.898 486.237
1789 0 76.0693 12.5018 951 95.1041 685.61 485.344
1790 0 81.1318 13.4596 1092 93.348 685.281 486.254
1791 0 79.1206 13.0181 1030 165.35 685.308 484.926
1792 0 84.1482 13.7258 1155 93.9377 685.245 483.298
1793 0 87.1907 13.2698 1157 94.9551 685.485 481.194
1794 0 90.1478 12.9898 1171 97.8941 684.61 483.031
1795 0 90.0739 12.3454 1112 100.085 684.166 481.797
1796 0 94.2407 12.4999 1178 98.2521 684.921 480.171
1797 0 97.2061 12.8284 1247 98.6087 683.547 478.072
1798 0 98.0993 12.3141 1208 98.1349 684.419 475.553
1799 0 104.182 12.4013 1292 95.8715 684.266 476.558
1800 0 105.067 12.3255 1295 97.5598 684.056 473.136
1801 0 107.083 12.2242 1309 97.8571 683.974 472.318
1802 0 112.172 12.5967 1413 95.7325 684.291 469.87
1803 1 60.1069 10.5146 632 92.5079 683.193 496.911
1804 0 61.1242 11.3048 691 95.3285 683.506 496.041
1805 0 63.1339 11.0717 699 92.5751 683.33 492.103
1806 0 66.1336 11.5826 766 90.5118 684.038 490.192
1807 0 69.085 12.5208 865 91.7665 683.688 495.99
1808 0 69.0623 11.6417 804 91.9838 684.206 494.218
1809 0 71.0669 12.2138 868 90.5645 684.759 493.096
1810 0 71.0669 12.1998 867 156.764 685.752 492.961
1811 0 71.0652 12.186 866 156.366 686.764 492.908
1812 0 71.0671 12.1857 866 156.014 687.764 492.908
1813 0 79.0422 12.3731 978 88.9775 684.284 490.268
1814 0 82.0569 11.8576 973 91.3165 684.037 488.551
1815 0 83.091 12.3599 1027 91.2347 684.103 486.563
1816 0 87.081 12.7123 1107 90.6965 683.898 485.426
1817 0 89.153 11.5868 1033 93.4995 684.073 484.946
1818 0 88.0654 12.0138 1058 93.5359 684.063 484.067
1819 0 94.0882 11.9144 1121 93.8903 683.83 481.3
1820 0 98.0764 11.6542 1143 93.7769 684.05 480.783
1821 0 100.095 11.6089 1162 94.6076 684.476 480.187
1822 0 107.102 11.7925 1263 93.1172 684.514 476.894
1823 0 109.031 11.8681 1294 91.7805 684.786 475.538
1824 1 57.0414 11.2199 640 93.2156 684.695 499.286
1825 0 58.0233 10.8405 629 95.3132 683.548 497.302
1826 0 60.0551 10.8567 652 91.4264 683.195 495.629
1827 0 59.0305 10.3167 609 84.9163 684.094 499.095
1828 0 60.0487 10.1251 608 86.3898 683.704 498.495
1829 0 60.0763 10.1205 608 86.8355 683.96 498.508
1830 0 66.1135 10.6786 706 85.1006 683.521 496.979
1831 0 67.1064 10.2673 689 86.1655 682.907 496.627
1832 0 68.0746 10.5179 716 87.0992 683.511 494.527
1833 0 71.1185 11.4597 815 85.227 683.734 493.015
1834 0 74.047 10.6554 789 86.1648 683.876 491.494
1835 0 76.0572 10.5447 802 87.1509 684.151 490.793
1836 0 76.0585 10.3736 789 91.5564 684.156 488.749
1837 0 80.0467 10.2065 817 91.0257 683.898 488.99
1838 0 83.1062 11.2627 936 89.8793 683.722 486.203
1839 0 83.1138 10.9128 907 91.8798 683.634 484.894
1840 0 88.0917 10.8523 956 92.8034 684.02 483.394
1841 0 91.0582 11.8386 1078 90.474 684.271 482.111
1842 0 95.0943 12.0617 1147 86.3025 684.276 478.949
1843 0 98.2246 11.942 1173 86.2165 684.148 478.591
1844 0 100.131 12.0941 1211 86.9191 684.603 475.191
1845 0 101.111 12.0759 1221 87.9378 684.504 475.356
1846 0 105.17 11.7715 1238 84.769 685.156 471.519
1847 0 109.103 12.5203 1366 86.3097 685.176 471.38
1848 0 111.148 12.6678 1408 86.1832 684.758 469.675
1849 0 112.117 11.2828 1265 89.8111 685.653 473.047
1850 0 115.174 10.8184 1246 89.512 685.252 470.571
1851 0 120.175 11.1005 1334 88.8478 685.191 468.16
1852 0 124.178 11.5077 1429 87.4871 684.584 467.598
1853 0 127.188 11.0388 1404 88.015 684.565 464.137
1854 0 131.117 11.3334 1486 88.535 684.793 461.188
1855 0 137.099 11.933 1636 88.1669 685.443 459.146
1856 0 145.261 13.3002 1932 92.7759 684.363 453.302
1857 0 151.131 13.4982 2040 92.5446 685.306 452.621
1858 1 86.0409 11.2272 966 88.4265 685.859 486.524
1859 0 88.0638 11.821 1041 83.8809 685.419 485.966
1860 0 89.0644 11.5984 1033 78.8451 684.619 483.392
1861 0 91.0645 11.6072 1057 80.1116 684.999 482.622
1862 0 93.1582 11.6254 1083 81.0018 684.875 479.151
1863 0 95.1159 10.5766 1006 90.4394 685.72 475.211
1864 0 98.101 10.5911 1039 90.666 685.35 473.057
1865 0 103.13 11.1025 1145 90.0087 686.037 473.951
1866 0 110.12 11.6146 1279 98.2916 685.734 475.541
1867 0 112.107 11.8458 1328 100.118 685.062 473.497
1868 0 115.095 11.9293 1373 101.782 684.702 471.164
1869 0 119.138 12.1036 1442 102.178 684.92 468.908
1870 0 123.124 12.0042 1478 101.254 684.728 466.603
1871 0 128.195 11.8492 1519 100.793 684.62 467.372
1872 1 67.1224 12.142 815 91.4319 684.671 493.313
1873 0 71.1495 12.031 856 88.6647 683.824 491.848
1874 0 70.1514 12.3447 866 88.9619 684.025 489.848
1875 0 72.0483 12.8525 926 88.5864 684.576 490.821
1876 0 74.0918 12.7005 941 87.2891 684.793 488.408
1877 0 80.1142 13.0064 1042 85.4203 684.681 488.046
1878 0 82.0274 12.9347 1061 86.1489 685.173 487.186
1879 0 84.0925 12.9262 1087 86.5989 684.773 485.54
1880 0 87.0626 13.1859 1148 86.5732 685.254 483.435
1881 0 88.0528 12.731 1121 88.4978 685.136 482.621
1882 0 92.0512 13.1123 1207 87.3728 685.36 480.806
1883 0 96.0791 12.6875 1219 88.2059 684.906 479.17
1884 0 99.164 13.3315 1322 86.8003 685.468 477.942
1885 0 100.112 13.0453 1306 88.7297 685.175 476.899
1886 0 104.095 12.8633 1339 89.3122 685.031 474.665
1887 0 104.092 12.8252 1335 140.703 685.031 474.667
1888 0 110.092 13.1072 1443 90.2841 684.274 472.089
1889 0 112.183 13.2017 1481 90.3295 683.72 470.707
1890 0 112.164 13.3109 1493 132.798 683.713 470.654
1891 0 115.141 11.0386 1271 97.9512 684.895 466.764
1892 1 59.0525 12.0063 709 100.092 685.276 492.093
1893 0 62.0669 12.4221 771 98.9637 685.468 491.711
1894 0 64.1242 12.8345 823 97.1774 685.444 491.493
1895 0 65.0722 12.5245 815 98.5706 685.204 490.437
1896 0 67.03 12.3527 828 99.2947 685.871 489.85
1897 0 69.1256 11.0668 765 88.0654 685.077 490.901
1898 0 71.1632 11.4666 816 87.1042 684.295 488.134
1899 0 74.1708 11.6892 867 85.0127 684.828 490.268
1900 0 77.1573 12.0403 929 86.4887 684.075 486.042
1901 0 78.1161 11.5853 905 87.2497 684.166 485.519
1902 0 82.2027 11.3987 937 86.7748 684.162 484.978
1903 0 85.1121 12.2309 1041 85.6071 683.677 484.603
1904 0 87.1209 12.3392 1075 85.4567 684.148 483.649
1905 0 88.2087 11.6315 1026 87.3655 683.887 482.181
1906 0 92.1348 11.8196 1089 86.1818 684.286 479.456
1907 0 95.0588 11.5928 1102 86.7486 683.497 477.957
1908 0 99.1058 12.0175 1191 85.4937 683.702 476.006
1909 0 102.116 11.438 1168 86.9598 684.503 474.58
1910 1 51.1224 11.3649 581 84.3632 684.176 499.683
1911 0 53.1065 11.5805 615 86.9041 684.424 499.049
1912 0 57.1601 12.5087 715 92.7273 683.487 500.498
1913 0 57.0478 12.9365 738 91.2304 683.5 499.318
1914 0 60.1079 12.6772 762 91.2388 683.42 498.264
1915 0 63.1266 12.8947 814 89.3563 684.221 498.88
1916 0 65.1181 13.0686 851 88.9894 682.968 498.186
1917 0 66.1584 13.241 876 87.9863 683.202 496.082
1918 0 66.097 13.5861 898 89.3085 683.857 496.053
1919 0 71.0608 13.0733 929 87.4693 683.488 494.707
1920 0 73.08 12.671 926 88.8164 683.779 494.672
1921 0 75.0317 13.1678 988 88.3138 684.038 492.998
1922 0 75.0336 13.1674 988 136.019 684.053 492.987
1923 0 77.0894 13.2573 1022 90.4794 683.863 491.072
1924 0 79.0774 12.6079 997 94.5356 684.098 491.75
1925 0 82.1035 12.6182 1036 95.1795 684.099 490.419
1926 0 87.0766 12.9886 1131 95.4748 684.11 490.512
1927 0 90.098 13.1412 1184 96.3885 684.231 488.791
1928 0 93.0822 12.9778 1208 97.7748 684.243 488.424
1929 0 97.1425 13.1456 1277 97.8379 684.054 487.403
1930 0 97.2429 12.6385 1229 100.88 683.526 485.789
1931 0 100.129 13.0332 1305 100.579 683.195 483.423
1932 0 103.163 12.2427 1263 102.828 682.53 482.125
1933 1 55.1067 12.6119 695 100.613 682.747 500.983
1934 0 55.098 12.0875 666 99.7613 682.38 498.471
1935 0 58.0922 12.4974 726 87.0441 683.357 498.129
1936 0 60.0884 10.9339 657 88.6941 683.475 498.212
1937 0 61.1013 10.9654 670 88.4761 683.215 496.973
1938 0 62.0431 11.2502 698 88.6246 682.785 496.276
1939 0 65.0719 11.0339 718 88.4234 683.046 496.281
1940 0 66.0224 11.3143 747 89.4418 683.256 493.929
1941 0 70.0804 11.6438 816 87.2696 683.741 493.172
1942 0 72.0686 11.7804 849 87.0424 683.958 492.763
1943 0 76.0705 11.4893 874 87.516 683.763 489.957
1944 0 77.0406 11.7341 904 86.9712 683.853 489.143
1945 0 82.0626 10.7966 886 88.6749 683.019 486.564
1946 0 84.1069 11.3546 955 88.0953 682.9 486.276
1947 0 86.0556 11.1556 960 89.3406 683.558 484.876
1948 0 90.0616 11.0147 992 90.4143 683.525 482.472
1949 1 47.0614 10.7094 504 88.131 683.236 501.169
1950 0 51.0642 12.122 619 97.2876 683.074 501.325
1951 0 53.0441 12.631 670 98.5746 683.255 502.407
1952 0 54.1707 12.3314 668 98.0734 683.015 503.383
1953 0 53.0368 11.0301 585 90.4205 683.426 503.887
1954 0 54.043 11.2688 609 88.4778 683.209 502.159
1955 0 55.1473 11.4239 630 90.6714 683.603 502.029
1956 0 57.0534 11.0072 628 90.8726 682.718 503.067
1957 0 61.049 12.0395 735 88.117 681.901 500.223
1958 0 61.0771 11.6738 713 89.9327 682.633 498.93
1959 0 61.0771 11.6901 714 134.227 682.647 498.922
1960 0 65.1286 12.007 782 88.8056 682.67 498.146
1961 0 68.0524 11.8732 808 89.9394 683.043 496.5
1962 0 70.0425 12.2783 860 89.1837 682.195 495.178
1963 0 74.0372 12.4262 920 88.5054 683.163 494.846
1964 0 74.0401 12.4662 923 90.4344 683 494.554
1965 0 76.0132 12.3268 937 91.1782 683.602 492.049
1966 0 80.0882 12.3739 991 91.4733 683.524 492.537
1967 0 83.0484 12.7877 1062 91.3362 683.156 490.908
1968 0 85.104 13.1369 1118 92.5474 683.744 488.525
1969 0 90.0495 13.4593 1212 94.448 682.561 487.756
1970 0 92.0974 13.1274 1209 100.825 682.678 486.891
1971 0 96.0533 12.9095 1240 101.38 682.673 485.099
1972 1 47.0312 10.9927 517 96.3888 682.364 508.59
1973 0 48.1064 11.0588 532 96.9041 682.524 507.744
1974 0 51.0304 11.6205 593 95.7234 682.9 503.843
1975 0 53.0666 11.9096 632 95.8734 682.589 502.484
1976 0 56.0808 11.8757 666 95.8453 683.134 501.515
1977 0 58.0535 12.7813 742 93.3396 683.093 501.011
1978 0 57.0929 12.9964 742 94.4367 682.952 502.411
1979 0 62.0263 12.8816 799 93.2441 682.9 501.773
1980 0 64.0297 12.2287 783 103.143 682.934 500.174
1981 0 65.0819 12.5842 819 101.95 682.785 498.751
1982 0 66.0364 12.5234 827 99.2455 683.175 498.319
1983 0 71.056 12.3142 875 100.144 683.143 497.209
1984 0 73.1039 12.9542 947 98.4403 683.751 496.658
1985 0 73.025 12.2835 897 100.599 683.502 494.899
1986 0 75.068 12.0557 905 101.219 683.319 493.586
1987 0 79.1274 12.0312 952 100.047 683.328 493.974
1988 0 79.073 12.6086 997 99.0642 682.786 491.975
1989 0 82.0455 12.6149 1035 98.3923 683.266 490.098
1990 0 84.0809 12.6188 1061 98.7078 683.251 488.616
1991 0 85.0989 12.2916 1046 99.1807 683.215 487.07
1992 0 89.1135 12.2316 1090 98.4431 682.075 481.96
1993 0 92.0596 11.7967 1086 98.0147 682.575 481.28
1994 0 95.1464 12.3809 1178 97.6961 682.254 479.929
1995 0 97.0921 12.0195 1167 99.1242 682.187 478.481
1996 0 100.042 12.5948 1260 97.2976 682.346 479.505
1997 0 104.172 12.5562 1308 96.9664 682.17 477.914
1998 0 107.078 12.8411 1375 95.368 682.299 475.937
1999 1 51.0807 11.7265 599 96.1118 681.693 504.199
2000 0 51.0971 11.6445 595 96.0521 682.909 503.047
2001 0 55.0486 12.5707 692 93.9682 682.026 499.179
2002 0 56.0422 12.3657 693 96.1241 682.688 500.232
2003 0 60.0473 13.1563 790 100.944 682.463 501.061
2004 0 62.0448 13.0551 810 100.915 682.273 498.716
2005 0 61.0981 12.7827 781 103.086 682.741 498.059
2006 0 63.0557 13.6546 861 102.372 682.206 497.138
2007 0 67.0864 13.4006 899 101.675 681.828 496.606
2008 0 68.1254 13.5339 922 102.013 682.574 495.386
2009 0 71.0993 13.5304 962 103.559 682.272 493.506
2010 0 72.1012 13.3424 962 106.094 682.854 493.089
2011 0 76.1092 13.796 1050 104.43 682.458 490.435
2012 0 79.0672 13.849 1095 104.078 682.495 489.911
2013 0 81.0571 13.7927 1118 104.843 682.588 489.315
2014 0 85.0651 14.2127 1209 103.79 682.356 488.492
2015 0 86.0446 13.8533 1192 106.162 681.847 486.996
2016 0 87.0814 14.0328 1222 107.281 682.536 485.494
2017 0 90.0357 14.2166 1280 106.628 682.741 484.614
2018 0 92.1908 13.049 1203 100.085 682.549 484.709
2019 0 94.1787 12.9541 1220 101.466 681.945 484.63
2020 0 95.1377 12.855 1223 103.815 682.249 482.081
2021 0 98.1196 13.1268 1288 103.799 681.524 481.861
2022 0 103.194 13.712 1415 101.201 682.203 481.028
2023 0 106.088 14.0732 1493 102.91 681.606 477.195
2024 0 108.172 13.2659 1435 103.145 682.189 476.762
2025 0 111.145 13.064 1452 103.178 682.07 474.64
2026 0 115.134 13.1933 1519 103.961 682.01 473.034
2027 0 119.176 13.2912 1584 101.928 682.658 470.492
2028 1 60.0897 10.9503 658 93.459 682.049 495.36
2029 0 63.1015 11.8698 749 93.0814 682.634 494.437
2030 0 66.121 12.2503 810 90.9704 682.23 492.725
2031 0 69.1952 11.8072 817 88.153 682.402 492.169
2032 0 70.1551 11.4176 801 89.9351 682.749 494.896
2033 0 73.1517 12.0708 883 88.3658 682.94 493.077
2034 0 74.147 11.14 826 88.8075 682.706 492.025
2035 0 78.1946 12.6863 992 85.369 683.047 491.418
2036 0 79.2213 11.5626 916 87.4083 682.224 491.105
2037 0 83.1546 11.5929 964 85.9917 682.121 487.773
2038 0 85.1283 12.1816 1037 85.3896 682.809 484.954
2039 0 86.1218 11.7276 1010 85.9495 682.834 484.439
2040 0 89.2423 12.2924 1097 83.484 682.751 484.582
2041 0 92.149 12.1434 1119 84.9053 682.966 481.755
2042 0 95.0424 12.0157 1142 85.7627 683.238 475.771
2043 0 99.0813 12.3535 1224 88.4158 683.374 470.221
2044 0 102.121 11.6822 1193 86.9514 683.101 474.979
2045 1 49.1518 10.315 507 86.0217 683.471 503.617
2046 0 50.1099 10.018 502 85.8267 682.663 502.572
2047 0 52.1118 11.0915 578 81.0865 681.993 500.86
2048 0 54.0667 11.5228 623 79.825 682.008 499.594
2049 0 56.0612 11.755 659 75.61 682.346 497.178
2050 0 58.2167 12.0756 703 76.9203 681.622 498.306
2051 0 59.1025 11.59 685 77.7343 681.933 497.978
2052 0 61.0823 11.7546 718 77.8398 682.199 496.496
2053 0 63.1236 12.1666 768 77.444 682.506 494.664
2054 0 64.0732 11.8302 758 79.1385 682.489 493.773
2055 0 68.0873 11.8084 804 80.3632 683.141 492.511
2056 0 70.1724 12.0988 849 82.5253 683.006 491.477
2057 0 71.1954 11.5878 825 93.3285 682.838 489.103
2058 0 74.115 11.6845 866 93.5023 682.141 487.552
2059 0 76.133 11.3748 866 92.5 681.903 486.314
2060 0 79.1436 11.0053 871 93.062 682.052 485.285
2061 0 81.0788 11.2976 916 92.7893 682.39 484.569
2062 0 83.1025 11.3595 944 92.7966 682.454 481.249
2063 0 85.1011 11.1279 947 94.3464 682.542 479.882
2064 0 87.0999 10.9644 955 94.4838 682.365 478.909
2065 0 92.1228 10.2038 940 94.3628 682.573 475.62
2066 0 93.1479 10.4565 974 93.8152 683.043 475.011
2067 0 98.125 11.0675 1086 92.0534 682.533 474.379
2068 1 53.0177 10.8266 574 86.716 683.019 500.162
2069 0 51.0499 10.5583 539 88.7922 682.959 498.169
2070 0 53.0473 10.8205 574 89.5104 682.739 497.017
2071 0 57.034 11.572 660 86.103 682.62 496.329
2072 0 56.0511 10.9543 614 83.9414 682.378 496.13
2073 0 58.0495 10.9906 638 84.268 682.55 497.619
2074 0 60.0541 11.423 686 83.7464 681.886 494.966
2075 0 61.0634 10.8903 665 85.779 682.286 493.725
2076 0 64.0573 10.9746 703 85.8435 682.201 492.22
2077 0 65.0466 11.6224 756 84.918 681.847 490.96
2078 0 68.0799 11.839 806 92.7196 681.274 490.775
2079 0 70.0909 11.2996 792 89.4735 682.088 487.833
2080 0 72.0651 11.8643 855 92.4725 681.344 486.344
2081 0 73.0954 10.9583 801 91.8077 681.84 485.006
2082 0 76.1065 11.3262 862 91.4107 681.501 485.42
2083 0 76.1061 11.3526 864 123.837 681.498 485.303
2084 0 81.1021 11.2821 915 92.7956 682.186 483.957
2085 0 85.0556 11.9099 1013 91.4215 682.698 480.913
2086 0 84.0496 10.6961 899 94.9299 683.189 479.775
2087 0 88.0738 10.9794 967 93.4809 682.991 478.68
2088 1 44.026 9.19912 405 88.7012 682.469 500.909
2089 0 48.0124 11.4554 550 85.7127 683.578 499.915
2090 0 48.0386 11.0952 533 91.1313 683.234 498.041
2091 0 47.0561 11.3694 535 96.1458 683.08 498.66
2092 0 50.0908 10.8603 544 84.9724 682.744 500.945
2093 0 50.071 10.2455 513 86.7115 683.156 498.903
2094 0 51.0169 10.5651 539 85.2523 684.035 499.482
2095 0 53.0593 10.9877 583 85.6707 683.75 498.168
2096 0 55.0691 10.6957 589 85.2852 683.431 496.078
2097 0 58.0489 10.8529 630 84.3714 683.659 495.008
2098 0 61.0278 11.3227 691 83.2258 683.715 492.97
2099 0 64.0428 12.4448 797 81.803 683.891 491.284
2100 0 65.0624 11.8963 774 83.5775 683.698 489.769
2101 0 68.0432 11.8895 809 93.7293 683.524 489.941
2102 0 71.0656 12.0171 854 93.0492 682.857 488.514
2103 0 72.1821 12.1083 874 92.6178 683.808 487.526
2104 0 73.0849 11.2882 825 94.2376 683.674 484.869
2105 0 78.1365 11.5055 899 92.9889 683.347 484.844
2106 0 79.1285 11.0959 878 93.4362 683.39 481.722
2107 0 82.2156 11.6888 961 91.821 683.274 482.036
2108 0 85.1007 11.833 1007 90.7249 683.775 481.844
2109 0 87.2421 11.4967 1003 90.5274 683.235 480.069
2110 0 92.1365 12.373 1140 88.3658 684.22 477.726
2111 0 94.1781 12.7631 1202 85.7537 683.71 474.95
2112 0 96.2138 11.3913 1096 89.2099 683.86 474.825
2113 0 99.1629 11.4962 1140 88.571 683.748 471.955
2114 0 99.1062 10.514 1042 87.2639 683.404 472.745
2115 0 102.091 10.2751 1049 85.4061 683.208 471.813
2116 0 107.077 8.86279 949 85.5427 683.462 471.419
2117 0 108.165 10.6781 1155 86.7394 683.379 468.625
2118 0 110.082 9.96532 1097 88.0684 684.014 467.624
2119 0 114.148 10.4338 1191 86.8673 683.562 466.593
2120 0 114.126 8.64835 987 91.5552 683.803 463.518
2121 1 126.12 11.6952 1475 83.2908 683.86 456.176
2122 0 127.088 11.1576 1418 86.4386 683.743 457.853
2123 0 131.231 10.1806 1336 88.2672 683.954 457.321
2124 0 135.228 10.5378 1425 88.1944 683.881 452.918
2125 0 142.153 10.7138 1523 87.4905 683.089 449.915
2126 0 146.246 9.89427 1447 89.425 683.326 448.737
2127 1 79.0315 9.31274 736 79.4715 684.674 484.231
2128 0 80.0903 9.85138 789 79.5982 684.703 481.916
2129 0 86.1146 10.9737 945 77.8868 683.91 476.961
2130 0 85.1006 8.91886 759 81.3096 684.584 477.192
2131 0 92.0989 10.0218 923 78.429 684.219 474.499
2132 0 94.087 9.72504 915 79.3825 684.058 474.892
2133 1 50.1042 9.69979 486 81.644 684.045 496.126
2134 0 51.0364 10.1104 516 80.7616 684.289 495.533
2135 0 53.0232 10.4671 555 79.1009 684.84 492.64
2136 0 55.0878 11.8175 651 76.7957 684.187 493.111
2137 0 59.0623 10.9376 646 73.5155 683.328 493.272
2138 0 58.0446 11.2844 655 74.0061 683 491.795
2139 0 61.0759 12.1324 741 73.4939 684.034 490.292
2140 0 64.0774 12.2196 783 73.7663 684.157 490.134
2141 0 66.0903 11.681 772 74.8938 684.053 488.755
2142 0 67.0392 11.3963 764 75.5929 682.732 488.492
2143 0 66.1077 11.451 757 76.2761 683.036 487.803
2144 0 71.125 12.232 870 74.8828 682.923 483.628
2145 0 75.0674 11.7761 884 76.2183 682.905 483.266
2146 0 77.115 12.7602 984 73.6606 683.224 484.106
2147 0 79.1792 12.7559 1010 77.4178 683.721 482.091
2148 0 82.083 11.7686 966 79.8044 684.548 481.693
2149 0 87.0431 12.3272 1073 88.1976 684.363 481.3
2150 0 88.048 12.2433 1078 89.3711 684.291 479.536
2151 0 92.0833 12.5539 1156 87.9377 684.478 476.164
2152 0 94.0292 12.2728 1154 88.3943 685.027 478.774
2153 0 97.0391 12.0879 1173 89.5303 684.286 476.021
2154 0 99.1039 11.7755 1167 90.0943 685.09 474.042
2155 1 49.0319 10.9113 535 88.4878 682.916 499.658
2156 0 51.0328 11.1301 568 88.2606 683.954 500.692
2157 0 52.0279 11.3785 592 89.1943 682.949 497.752
2158 0 54.0734 12.4091 671 86.0462 683.675 497.171
2159 0 53.0121 12.0161 637 84.2119 684.863 496.242
2160 0 56.0389 12.9553 726 78.4008 685.154 494.583
2161 0 57.0251 11.9947 684 81.1637 684.69 493.613
2162 0 59.035 11.8574 700 80.8229 684.29 493.306
2163 0 63.0623 12.8127 808 77.7723 685.301 491.592
2164 0 65.0151 12.9662 843 78.5409 684.84 489.676
2165 0 66.026 12.3285 814 79.8428 685.348 489.802
2166 0 68.0312 12.4649 848 80.1321 685.348 489.033
2167 0 69.0558 13.2357 914 79.1805 684.964 487.92
2168 0 71.0391 12.6691 900 80.79 685.126 486.916
2169 0 75.0495 12.6983 953 80.2392 684.458 485.215
2170 0 76.0724 12.4881 950 80.2874 685.385 483.333
2171 0 80.061 13.0026 1041 78.0922 684.75 483.018
2172 0 80.0627 12.1904 976 81.2377 684.712 480.191
2173 0 84.0443 12.7195 1069 80.1291 684.554 480.224
2174 0 85.0623 12.0382 1024 81.416 685.154 478.909
2175 0 86.1038 12.0668 1039 82.2137 685.192 477.518
2176 0 89.0236 12.053 1073 82.4893 685.062 476.214
2177 0 92.1038 12.3665 1139 81.295 685.54 473.14
2178 0 93.0904 11.6661 1086 81.8619 685.337 471.594
2179 0 97.0516 12.4573 1209 80.0273 684.926 472.129
2180 0 103.074 12.5735 1296 78.9668 685.265 468.938
2181 0 105.044 11.9569 1256 80.4825 684.393 465.646
2182 1 53.0311 10.1261 537 86.0074 685.706 495.382
2183 0 58.0462 12.1972 708 82.2542 685.582 494.537
2184 0 58.03 11.0288 640 75.8734 685.372 490.289
2185 0 60.0514 12.1063 727 69.2325 684.11 492.835
2186 0 62.0425 11.7339 728 69.6621 684.01 490.751
2187 0 64.049 11.6317 745 70.1758 684.329 488.728
2188 0 67.0572 11.5722 776 69.9472 684.443 487.758
2189 0 68.0429 12.3892 843 69.21 683.926 490.413
2190 0 72.0243 12.0237 866 71.3337 684.611 489.523
2191 0 72.0406 11.8128 851 70.7509 684.551 487.101
2192 0 75.0308 11.9018 893 70.3292 684.25 485.036
2193 0 78.0526 11.7613 918 70.8954 684.761 484.139
2194 0 82.0313 11.6663 957 70.6792 684.734 482.782
2195 0 83.048 11.5716 961 71.9313 685.232 481.901
2196 0 86.0566 12.6196 1086 70.6114 685.303 480.762
2197 0 89.0768 12.0233 1071 71.7498 685.077 479.019
2198 0 92.0711 12.1319 1117 72.5891 684.749 478.108
2199 0 95.0699 12.3278 1172 72.494 684.814 477.292
2200 0 96.0786 11.7716 1131 73.8117 684.445 476.927
2201 0 99.0631 12.0933 1198 74.6085 684.506 474.183
2202 0 99.0631 12.1438 1203 112.783 684.521 474.214
2203 0 104.181 12.2672 1278 79.9061 684.032 471.466
2204 0 110.106 12.0884 1331 81.2404 683.95 470.749
2205 0 113.088 12.2294 1383 82.1215 684.295 462.614
2206 0 117.136 11.3884 1334 84.4865 684.067 463.26
2207 1 57.061 10.5852 604 79.4106 684.308 494.535
2208 0 60.0645 10.8383 651 78.8326 684.825 495.128
2209 0 63.0589 11.5923 731 77.394 684.885 495.625
2210 0 63.0847 11.0328 696 79.5848 684.829 494.45
2211 0 63.0148 10.9022 687 81.9287 685.164 494.147
2212 0 66.0205 11.3753 751 81.0666 683.948 492.875
2213 0 67.102 11.5496 775 82.0245 684.03 492.027
2214 0 70.076 11.0594 775 83.5884 684.565 491.853
2215 0 73.1291 11.7737 861 83.0418 684.271 489.022
2216 0 73.0678 11.6193 849 85.0071 684.17 487.62
2217 0 82.077 12.3299 1012 82.9032 684.171 487.779
2218 0 82.0867 12.6695 1040 84.3875 684.297 485.704
2219 0 85.082 12.6231 1074 84.3147 684.15 484.764
2220 0 87.1467 12.3585 1077 86.0065 684.782 483.604
2221 0 91.0602 12.7608 1162 84.9845 684.208 482.926
2222 0 92.0587 12.253 1128 86.0754 684.907 482.329
2223 1 44.0558 10.5775 466 83.3197 684.517 506.635
2224 0 47.034 10.8007 508 82.4902 684.726 506.589
2225 0 48.0373 11.0123 529 82.9887 683.885 505.28
2226 0 48.0341 11.5751 556 82.6996 683.597 504.414
2227 0 50.0566 11.7267 587 82.494 683.388 502.283
2228 0 53.056 11.8554 629 83.213 683.491 501.652
2229 0 55.0623 11.7322 646 82.5805 683.404 501.633
2230 0 56.0308 12.6002 706 81.0382 683.824 500.924
2231 0 59.0766 12.4923 738 80.5786 683.691 499.816
2232 0 61.061 12.7086 776 81.1869 684 499.702
2233 0 62.0559 12.4404 772 81.8135 683.488 498.935
2234 0 65.031 12.3787 805 81.8932 683.303 498.871
2235 0 67.075 11.6288 780 83.7359 683.395 498.335
2236 0 69.0421 12.6445 873 82.5601 682.92 496.253
2237 0 68.0722 12.002 817 86.2509 683.209 493.67
2238 0 68.1027 12.0994 824 115.186 683.244 493.826
2239 0 71.0494 11.8228 840 89.4107 683.231 492.156
2240 0 75.0583 12.2172 917 88.9542 682.538 491.882
2241 0 75.0412 11.4737 861 92.5923 683.286 491.001
2242 0 79.0329 11.5901 916 93.6834 683.479 489.258
2243 0 81.0516 11.104 900 99.5733 683.447 488.52
2244 0 83.0367 11.0313 916 99.2587 683.176 487.183
2245 0 86.0551 11.8296 1018 98.1778 682.333 484.865
2246 0 88.0568 11.2314 989 99.8857 682.732 481.979
2247 0 90.0331 10.9182 983 100.606 682.226 481.784
2248 1 47.0424 11.4577 539 93.4156 682.883 504.601
2249 0 47.0282 10.7595 506 95.4624 682.188 502.462
2250 0 50.0718 11.7631 589 94.2547 683.071 500.75
2251 0 49.0287 11.3607 557 95.5835 682.616 499.223
2252 0 52.0958 11.2485 586 95.7577 683.031 500.787
2253 0 55.0199 11.7594 647 94.6816 683.165 498.34
2254 0 58.0823 11.7075 680 94.1118 683.598 497.072
2255 0 60.0547 12.1056 727 94.0825 683.667 495.849
2256 0 61.0444 11.7947 720 94.4014 683.46 495.596
2257 0 65.0585 11.6203 756 95.209 683.888 494.955
2258 0 66.0765 11.865 784 95.3036 683.691 492.907
2259 0 70.0466 12.0063 841 94.6278 683.102 490.585
2260 0 72.0534 11.5886 835 96.5198 683.405 489.799
2261 0 73.0584 10.7859 788 98.4277 682.862 487.579
2262 0 76.0453 11.5195 876 97.024 682.815 486.818
2263 0 78.0893 11.5381 901 96.9878 683.222 486.846
2264 0 83.1118 11.3823 946 97.8118 683.376 485.421
2265 1 41.034 10.8934 447 97.9128 682.89 505.801
2266 0 42.0082 10.7836 453 98.989 683.333 504.413
2267 0 43.0136 11.4847 494 98.7571 683.136 505.336
2268 0 45.0135 11.4188 514 100.94 683.535 503.325
2269 0 47.0303 12.1411 571 102.277 683.606 502.473
2270 0 49.0101 12.5076 613 98.7635 683.948 501.32
2271 0 50.026 13.1931 660 97.9864 683.297 500.555
2272 0 52.0875 12.5558 654 100.922 683.142 499.734
2273 0 52.03 12.6081 656 102.125 683.044 499.921
2274 0 55.0426 12.5902 693 102.336 683.431 499.163
2275 0 53.0872 12.3947 658 95.4635 683.284 496.038
2276 0 54.0089 12.6646 684 94.5497 683.256 493.779
2277 0 55.0343 12.5376 690 96.3058 683.283 494.119
2278 0 59.0951 12.573 743 95.4778 683.332 493.594
2279 0 62.0375 11.9444 741 96.8893 683.787 492.015
2280 0 64.0244 12.8701 824 96.4102 683.974 491.16
2281 0 66.0696 12.5474 829 99.2014 683.463 489.924
2282 0 66.1608 12.394 820 101.713 683.972 490.256
2283 0 70.059 12.6608 887 101.769 684.05 488.745
2284 0 73.1326 13.2089 966 101.896 683.777 488.231
2285 0 75.0487 13.3513 1002 101.99 684.102 485.646
2286 0 79.1209 14.0292 1110 100.595 683.332 485.243
2287 0 81.0978 13.9708 1133 102.523 683.337 484.244
2288 0 84.1153 14.2186 1196 102.852 683.275 482.453
2289 0 88.1642 14.3369 1264 102.485 682.828 483.412
2290 0 88.1649 13.8831 1224 105.543 682.988 483.257
2291 0 92.1026 14.2124 1309 103.607 682.83 481.548
2292 0 95.1698 13.7754 1311 103.58 682.355 480.486
2293 0 97.1273 14.4038 1399 104.643 682.189 479.817
2294 0 99.0752 14.1004 1397 99.4596 682.623 478.098
2295 0 102.211 13.795 1410 100.982 682.834 476.06
2296 1 54.0643 11.0054 595 107.677 683.482 499.726
2297 0 54.0643 11.3199 612 148.292 685.511 500.064
2298 0 58.1148 13.2496 770 104.143 683.001 497.501
2299 0 62.0482 13.6668 848 103.241 683.367 498.016
2300 0 61.0596 13.5769 829 101.387 682.68 495.439
2301 0 63.1043 13.3588 843 101.588 682.905 493.954
2302 0 64.0963 12.8869 826 104.081 682.517 492.961
2303 0 69.1329 13.9152 962 100.737 683.254 491.948
2304 0 71.102 14.0502 999 100.128 683.556 491.604
2305 0 72.0712 13.9862 1008 100.7 682.817 489.656
2306 0 74.1227 13.653 1012 102.394 682.489 488.593
2307 0 75.0857 14.1572 1063 101.682 682.575 487.995
2308 0 80.0456 14.8041 1185 98.4937 683.361 487.813
2309 0 80.135 14.4257 1156 101.543 683.518 486.429
2310 0 83.0959 14.0922 1171 102.748 683.668 484.872
2311 0 86.0753 14.3131 1232 101.873 682.928 481.902
2312 0 88.1898 14.0379 1238 102.032 682.815 481.68
2313 0 90.1134 14.1045 1271 101.316 682.275 480.019
2314 0 95.1184 14.3085 1361 98.504 681.761 476.458
2315 0 97.0913 13.7087 1331 100.594 682.7 476.023
2316 0 101.099 13.4521 1360 100.46 682.377 474.677
2317 1 47.0175 10.7407 505 103.713 682.024 501.626
2318 0 49.0461 12.6208 619 98.6042 682.102 500.714
2319 0 52.0409 12.74 663 98.5747 682.876 499.311
2320 0 54.0208 13.4393 726 97.7149 682.398 497.18
2321 0 54.0762 12.8337 694 101.177 682.519 495.154
2322 0 55.0723 12.9466 713 101.934 682.87 493.743
2323 0 58.06 13.1416 763 100.996 682.278 493.1
2324 0 59.0437 13.1259 775 101.994 683.212 492.101
2325 0 59.0287 11.4012 673 99.8574 682.08 492.59
2326 0 61.0735 11.7891 720 100.664 682.96 491.188
2327 0 64.106 12.4637 799 104.184 683.309 491.073
2328 0 66.111 12.4336 822 105.263 682.865 488.971
2329 0 67.1014 12.3246 827 107.443 683.121 488.487
2330 0 68.0537 12.6959 864 105.205 683.087 485.081
2331 0 72.0969 13.1628 949 103.132 683.55 485.173
2332 0 74.0126 13.0653 967 102.961 683.395 484.228
2333 0 78.0615 13.0026 1015 102.701 683.391 481.88
2334 0 80.1421 13.1891 1057 101.889 683.776 480.885
2335 0 82.0643 12.9654 1064 102.187 684.418 480.588
2336 0 86.0735 13.0238 1121 101.005 685.051 480.04
2337 0 86.059 12.9911 1118 102.606 685.084 476.801
2338 0 90.1728 12.9973 1172 101.083 685.254 476.841
2339 0 92.071 12.6207 1162 101.99 685.014 474.694
2340 0 97.1318 12.7867 1242 99.5797 685.931 474.592
2341 0 100.035 12.7655 1277 98.8598 685.759 473.513
2342 0 105.095 13.0358 1370 97.9482 685.496 470.634
2343 0 108.073 12.5841 1360 98.186 684.965 469.899
2344 1 60.0773 10.7029 643 95.14 684.269 493.173
2345 0 61.0863 11.6556 712 92.8722 684.594 491.41
2346 0 62.0948 11.8528 736 91.6698 684.773 490.265
2347 0 64.0193 12.1213 776 92.4807 683.689 490.522
2348 0 67.028 12.0845 810 92.1877 683.357 488.948
2349 0 69.072 12.6679 875 90.8663 683.518 488.713
2350 0 72.1568 11.9046 859 92.3085 683.298 487.863
2351 0 74.1092 12.3332 914 91.4147 683.274 486.888
2352 0 76.0818 11.9214 907 92.7288 682.932 485.724
2353 0 79.0798 11.6465 921 93.81 682.942 484.621
2354 0 83.1189 12.7528 1060 90.4481 681.945 485.209
2355 0 86.1522 12.6868 1093 91.6633 683.165 484.593
2356 0 88.1168 12.7558 1124 91.9982 682.862 484.549
2357 0 91.1301 12.1914 1111 94.0567 682.758 482.559
2358 0 94.21 12.5889 1186 93.4191 682.519 481.619
2359 0 98.1599 13.0705 1283 94.742 682.145 481.567
2360 0 101.152 13.02 1317 92.8679 681.942 479.364
2361 0 105.244 13.255 1395 94.6788 682.161 479.123
2362 0 108.183 13.0611 1413 93.4912 681.19 475.723
2363 0 114.205 12.5301 1431 94.8903 680.894 475.797
2364 1 58.0569 11.0237 640 92.0156 681.014 506.484
2365 0 60.1092 11.7287 705 91.339 681.078 502.745
2366 0 62.0871 11.8221 734 89.9074 680.357 501.396
2367 0 63.074 12.081 762 87.4593 680.436 504.299
2368 0 65.1659 11.9848 781 88.4891 680.493 501.44
2369 0 67.2363 11.4224 768 90.099 681.874 501.108
2370 0 70.1798 11.6273 816 90.0772 681.055 499.406
2371 0 72.1614 11.3911 822 92.41 680.929 496.481
2372 0 73.1546 11.3048 827 93.3277 681.728 496.267
2373 0 75.0641 11.6567 875 93.8137 681.057 494.381
2374 0 77.1576 12.0403 929 93.7718 680.66 492.741
2375 0 80.0968 12.6347 1012 93.6166 680.347 491.619
2376 0 84.1637 11.8816 1000 95.898 680.894 488.833
2377 0 87.1527 12.6789 1105 95.9276 680.545 486.952
2378 0 90.1441 12.0141 1083 98.4617 681.195 483.816
2379 0 91.12 12.0171 1095 102.816 681.281 484.631
2380 0 93.1904 12.1257 1130 101.431 681.237 483.529
2381 0 98.2028 12.4233 1220 99.1746 681.523 482.802
2382 0 99.0811 12.2829 1217 99.8496 681.571 479.137
2383 0 102.091 12.1558 1241 99.1273 681.251 478.338
2384 0 104.166 11.7408 1223 100.522 681.587 475.705
2385 1 54.0308 10.3459 559 94.1288 681.352 502.068
2386 0 56.111 11.2812 633 90.7994 681.496 501.667
2387 0 59.0475 11.8549 700 89.1657 681.431 498.699
2388 0 60.0448 11.8412 711 86.3235 681.091 494.997
2389 0 61.1024 12.0781 738 88.603 681.385 495.32
2390 0 63.1073 12.2173 771 86.8093 681.51 495.416
2391 0 67.1816 11.9378 802 85.4726 682.096 493.233
2392 0 68.1433 12.0922 824 84.7002 681.411 494.88
2393 0 72.0668 12.1693 877 84.4105 681.79 490.299
2394 0 75.119 11.9144 895 83.4525 681.612 489.763
2395 0 75.0472 11.9391 896 84.1429 681.814 486.419
2396 0 80.1978 12.3195 988 82.3057 682.025 485.27
2397 0 80.1753 11.6869 937 83.715 682.245 483.866
2398 0 86.1019 12.4852 1075 82.146 681.749 482.61
2399 0 88.1679 12.5329 1105 82.5421 682.316 479.902
2400 0 90.2146 11.8717 1071 84.1018 682.585 478.664
2401 0 95.1772 12.545 1194 82.9472 682.377 478.814
2402 0 96.1957 12.0899 1163 83 682.512 476.173
2403 0 100.152 12.1416 1216 83.2245 682.4 475.933
2404 1 52.0762 11.6944 609 79.9409 683.525 498.314
2405 0 56.0522 11.9353 669 79.577 683.41 497.691
2406 0 57.0944 11.6999 668 79.1662 683.485 496.332
2407 0 62.025 11.9952 744 76.9946 683.257 495.438
2408 0 62.0282 11.8172 733 78.6166 683.153 494.337
2409 0 65.0788 12.0316 783 77.1188 683.931 492.621
2410 0 67.0275 11.9951 804 77.1965 683.77 493.045
2411 0 69.1222 12.8468 888 76.4786 683.351 492.105
2412 0 70.2535 12.5403 881 78.0465 682.988 489.818
2413 0 71.0749 12.3672 879 79.3572 682.887 490.769
2414 0 72.0812 12.3611 891 79.5971 683.611 488.502
2415 0 78.0866 12.2812 959 79.2179 683.603 488.174
2416 0 80.2143 12.7035 1019 78.5868 683.328 487.614
2417 0 82.148 12.8548 1056 79.0947 683.281 485.977
2418 0 82.2045 12.5054 1028 80.5263 682.976 485.338
2419 0 86.1944 12.7038 1095 79.7589 683.122 482.059
2420 0 89.0641 11.9914 1068 81.7303 683.256 481.243
2421 0 93.1963 12.3288 1149 82.0792 682.805 481.8
2422 0 93.0699 11.9802 1115 83.8628 683.029 478.63
2423 0 98.0722 12.2155 1198 83.2095 683.081 479.794
2424 0 101.289 12.025 1218 84.4803 683.438 477.039
2425 1 53.1004 10.9227 580 85.7362 683.778 501.91
2426 0 55.2246 11.9331 659 84.0531 683.669 501.299
2427 0 57.0786 11.6506 665 84.0617 683.484 499.408
2428 0 58.1134 12.424 722 84.6814 682.638 497.006
2429 0 61.2088 13.3314 816 83.9252 682.974 498.032
2430 0 62.0881 13.1587 817 85.4566 683.378 498.501
2431 0 66.1826 13.6894 906 85.0397 683.568 496.693
2432 0 68.1743 13.4361 916 84.5884 683.409 495.961
2433 0 68.1669 13.2616 904 89.7179 683.607 495.671
2434 0 72.2696 13.6295 985 85.8447 683.159 493.808
2435 0 75.4644 13.6488 1030 87.2 683.701 494.412
2436 0 77.3045 13.2334 1023 89.8426 683.376 493.141
2437 0 78.3553 13.4005 1050 90.6305 683.599 491.946
2438 0 80.2035 13.2663 1064 91.5273 683.42 490.008
2439 0 83.101 13.261 1102 92.1715 683.486 489.53
2440 0 86.1387 13.664 1177 91.4809 683.728 488.038
2441 0 87.1454 13.6668 1191 93.2015 683.532 487.412
2442 0 90.1455 12.3578 1114 100.319 682.818 484.403
2443 0 95.0727 13.1899 1254 100.969 683.051 484.3
2444 0 96.0798 13.1141 1260 102.406 683.339 481.477
2445 0 99.2306 13.776 1367 101.163 683.172 481.516
2446 0 101.144 14.1679 1433 99.799 683.285 479.131
2447 0 105.138 13.6012 1430 101.156 682.843 477.871
2448 0 106.217 13.3218 1415 102.013 683.319 477.483
2449 0 111.122 12.6528 1406 102.766 683.452 476
2450 0 114.166 12.6746 1447 103.869 683.167 474.033
2451 1 60.1483 12.0369 724 96.4033 683.832 501.399
2452 0 64.0882 12.436 797 96.1443 683.833 500.767
2453 0 66.0775 13.0907 865 97.4948 683.046 498.862
2454 0 67.1464 13.3887 899 93.0245 683.294 498.051
2455 0 69.0563 13.4962 932 92.5622 683.244 497.796
2456 0 73.0496 14.0863 1029 90.1623 682.679 496.419
2457 0 75.1051 13.9138 1045 90.0727 683.53 495.457
2458 0 77.1179 13.4729 1039 92.411 682.675 493.131
2459 0 80.1763 12.8716 1032 93.4729 683.653 492.687
2460 0 82.1404 13.2213 1086 92.6271 683.808 491.029
2461 0 85.0975 13.6197 1159 91.8257 683.263 490.11
2462 0 87.1405 14.0692 1226 90.7316 683.426 488.392
2463 0 89.2487 13.6473 1218 91.5952 684.296 487.047
2464 0 93.2355 13.2889 1239 92.0307 684.113 484.574
2465 0 96.2821 13.2008 1271 90.9992 683.812 484.023
2466 0 98.3303 13.1394 1292 94.0039 683.938 482.691
2467 0 103.212 12.6729 1308 98.2064 683.953 481.265
2468 0 107.337 13.1455 1411 98.6315 683.826 480.874
2469 1 54.1854 12.4941 677 97.1329 683.845 504.009
2470 0 57.3967 12.8579 738 95.061 683.497 503.182
2471 0 61.313 13.3577 819 91.3834 683.674 501.324
2472 0 61.3889 12.9665 796 97.6734 683.552 501.407
2473 0 65.1412 12.8337 836 96.8708 683.154 500.044
2474 0 67.2292 12.6879 853 96.8523 682.882 499.369
2475 0 68.2788 13.152 898 95.5301 682.594 498.949
2476 0 72.1719 13.3986 967 93.9142 683.401 496.515
2477 0 74.2955 13.7963 1025 92.0585 683.756 495.432
2478 0 74.2734 13.5042 1003 93.329 683.168 493.621
2479 0 76.3162 13.431 1025 92.1805 682.854 493.413
2480 0 80.2725 13.641 1095 90.6712 683.711 491.748
2481 0 81.2408 14.1062 1146 90.4686 683.458 491.25
2482 0 85.4455 14.1494 1209 89.5434 683.058 489.778
2483 0 84.3309 13.6842 1154 88.7357 683.232 488.555
2484 0 89.2689 14.1147 1260 88.8873 683.366 488.816
2485 0 93.444 13.7944 1289 88.9488 683.355 487.571
2486 0 95.3228 13.9631 1331 86.9887 683.414 484.043
2487 0 94.3503 12.443 1174 93.0145 682.962 485.898
2488 0 97.3079 12.8664 1252 92.6174 682.853 481.814
2489 0 100.309 12.2022 1224 91.5564 683.378 481.924
2490 0 103.262 12.7346 1315 89.9392 683.254 476.91
2491 1 54.3161 12.1879 662 89.0786 683.32 502.373
2492 0 55.1531 12.5469 692 88.4566 683.162 502.129
2493 0 59.3922 12.8636 764 87.5432 682.726 501.514
2494 0 60.1937 12.709 765 88.6549 683.17 501.318
2495 0 61.2318 12.4935 765 91.6471 683.349 500.328
2496 0 62.1435 12.8734 800 91.12 683.09 499.456
2497 0 67.2744 13.2889 894 91.1767 682.681 497.826
2498 0 69.232 13.3175 922 89.756 683.092 496.386
2499 0 72.2191 13.3206 962 88.9231 682.913 495.518
2500 0 73.2187 12.8792 943 90.017 682.7 494.981
2501 0 75.1826 11.9975 902 90.6973 682.739 491.982
2502 0 78.2555 11.9864 938 89.6855 682.493 492.311
2503 0 82.236 11.771 968 87.9628 683.003 490.565
2504 0 85.2143 12.3219 1050 87.0867 682.516 488.79
2505 0 88.3099 11.9239 1053 86.6895 682.265 487.258
2506 0 89.0719 12.0914 1077 86.9248 682.136 486.031
2507 0 91.17 11.6595 1063 87.2888 682.323 485.044
2508 0 93.1321 12.1118 1128 86.352 682.993 484.835
2509 0 99.2144 11.9237 1183 86.5292 683.171 483.006
2510 0 103.271 12.3559 1276 85.5157 682.803 481.663
2511 0 104.178 11.9987 1250 86.748 682.294 479.762
2512 0 105.241 11.3454 1194 88.2111 682.63 477.977
2513 0 110.219 11.5588 1274 87.0942 683.699 475.913
2514 0 115.153 11.9319 1374 86.8675 682.831 475.274
2515 0 120.197 11.5394 1387 86.4946 682.61 472.815
2516 0 124.197 11.1275 1382 87.555 683.039 470.884
2517 0 126.17 11.001 1388 88.2161 682.8 467.329
2518 1 66.1695 11.6066 768 83.7839 682.413 497.021
2519 0 69.274 12.0825 837 84.9415 682.563 494.539
2520 0 73.2811 12.145 890 85.0348 682.204 493.636
2521 0 72.1927 11.8849 858 89.5221 682.057 490.789
2522 0 74.253 11.9995 891 87.7464 682.339 491.259
2523 0 76.1248 12.2562 933 88.3237 682.632 489.024
2524 0 78.1235 12.0706 943 89.9735 682.505 489.842
2525 0 84.1254 12.9925 1093 86.7859 682.038 488.657
2526 0 85.0728 12.4246 1057 88.8657 681.655 487.719
2527 0 88.1249 12.8454 1132 88.5344 682.98 484.879
2528 0 89.0936 12.6833 1130 91.2664 682.568 484.796
2529 0 91.155 11.8918 1084 93.6098 682.904 482.291
2530 0 93.0471 13.0686 1216 94.4688 682.627 483.22
2531 0 96.0921 13.4975 1297 96.1426 682.379 482.212
2532 0 99.0904 12.6753 1256 98.0334 682.498 478.83
2533 0 103.047 13.4307 1384 98.2616 682.199 479.261
2534 0 107.103 12.9315 1385 96.7199 681.879 478.635
2535 0 110.036 13.2411 1457 96.3994 682.111 476.082
2536 1 56.0322 12.118 679 95.0191 681.38 501.3
2537 0 59.069 12.9848 767 90.4928 682.082 499.28
2538 0 63.2346 12.5564 794 89.806 682.96 497.377
2539 0 64.1604 12.9675 832 90.9615 681.934 496.445
2540 0 65.0795 13.1531 856 91.4007 682.348 495.443
2541 0 70.2921 14.0983 991 87.6458 682.096 496.11
2542 0 71.2259 13.4361 957 90.2278 682.336 495.298
2543 0 72.2864 13.0868 946 93.075 682.172 493.154
2544 0 75.2291 13.7314 1033 91.607 681.442 491.849
2545 0 76.3561 12.9525 989 92.9323 681.658 490.643
2546 0 79.3411 13.1458 1043 92.1755 682.077 490.304
2547 0 80.2236 13.4873 1082 91.8789 682.291 489.833
2548 0 81.2367 13.3437 1084 94.2103 682.328 489.027
2549 0 85.3464 13.7557 1174 93.5741 681.204 486.219
2550 0 87.278 12.9357 1129 96.3074 681.804 486.666
2551 0 88.1984 12.7213 1122 98.7469 681.668 485.332
2552 0 90.2424 12.7435 1150 100.717 682.371 484.98
2553 0 92.3042 13.2713 1225 99.9371 683.78 484.035
2554 0 93.3666 12.799 1195 102.187 683.931 481.648
2555 0 102.322 13.6138 1393 109.939 684.46 480.06
2556 0 105.232 13.3324 1403 111.304 684.074 477.879
2557 1 54.3926 12.9246 703 111.296 683.213 499.953
2558 0 56.2945 12.7366 717 114.02 683.466 497.06
2559 0 57.1144 13.4117 766 112.717 682.775 495.867
2560 0 59.0689 13.1711 778 113.197 682.08 494.907
2561 0 62.1523 13.129 816 114.991 682.839 495.58
2562 0 63.24 13.5832 859 116.707 683.229 494.296
2563 0 65.3963 13.6705 894 116.266 683.102 494.111
2564 0 65.22 13.9068 907 118.923 683.398 493.23
2565 0 68.2371 14.0539 959 117.535 682.892 492.495
2566 0 71.3625 14.1251 1008 118.537 683.594 491.347
2567 0 71.1877 14.1176 1005 121.091 682.734 489.847
2568 0 74.2785 13.5571 1007 120.601 683.163 488.972
2569 0 75.3098 13.5175 1018 121.763 683.125 489.959
2570 0 77.0726 13.6365 1051 121.618 682.662 488.175
2571 0 79.0842 13.3655 1057 125.014 682.961 486.979
2572 0 81.1289 13.7682 1117 121.701 683.143 486.268
2573 0 82.0622 14.0869 1156 121.788 683.771 484.497
2574 0 86.1137 14.4925 1248 118.68 683.992 484.899
2575 0 88.0423 14.4249 1270 120.59 683.823 483.066
2576 0 91.0589 14.3863 1310 119.692 683.698 482.169
2577 0 91.1476 14.0322 1279 122.411 683.8 479.834
2578 0 93.1527 13.7194 1278 123.527 683.674 478.739
2579 0 98.0984 14.3631 1409 120.103 683.928 477.117
2580 0 100.069 14.2701 1428 120.846 684.29 477.893
2581 0 103.045 14.0133 1444 122.033 683.838 475.197
2582 0 106.081 14.3947 1527 120.487 683.558 472.648
2583 1 55.0516 12.352 680 121.941 683.918 499.282
2584 0 57.058 13.0218 743 120.902 683.53 498.293
2585 0 58.0276 13.5625 787 125.163 684.005 497.741
2586 0 60.054 14.6535 880 121.84 684.123 496.486
2587 0 63.0495 14.7503 930 120.198 684.101 494.934
2588 0 63.0677 14.1435 892 122.991 684.504 494.242
2589 0 67.0863 14.5484 976 120.848 684.096 493.263
2590 0 65.0881 14.273 929 125.031 684.538 492.033
2591 0 68.0531 14.4446 983 122.874 684.367 491.121
2592 0 71.0195 14.9818 1064 119.488 684.134 491.517
2593 0 74.0744 14.5664 1079 118.558 684.607 490.654
2594 0 75.0175 14.7699 1108 117.249 684.714 489.468
2595 0 76.0647 14.1984 1080 118.684 684.181 489.231
2596 0 78.0947 14.38 1123 118.045 683.76 488.205
2597 0 83.1054 14.1627 1177 115.978 683.775 487.63
2598 0 83.1041 14.2111 1181 115.268 683.711 486.38
2599 0 85.0732 14.2583 1213 115.704 683.459 484.786
2600 0 87.1073 13.9713 1217 117.148 683.686 483.22
2601 0 89.0675 14.0567 1252 116.159 683.665 480.98
2602 0 92.1238 13.5796 1251 116.823 683.942 479.632
2603 0 95.1221 14.0346 1335 114.302 683.946 478.137
2604 0 99.218 14.2615 1415 112.742 684.069 477.409
2605 0 100.123 14.7219 1474 110.915 683.374 475.887
2606 0 107.079 14.5967 1563 107.322 683.847 472.763
2607 1 52.0976 11.4401 596 110.903 683.886 499.857
2608 0 55.139 12.6408 697 105.707 683.506 498.667
2609 0 58.0331 13.0271 756 105.075 683.139 497.872
2610 0 60.0546 12.9382 777 104.946 683.42 495.936
2611 0 63.0924 13.5674 856 109.764 683.618 492.94
2612 0 64.0533 13.6137 872 110.719 683.249 492.211
2613 0 69.0872 14.4745 1000 106.778 683.295 491.664
2614 0 69.1055 13.9207 962 110.703 683.688 487.352
2615 0 71.1007 14.5568 1035 107.93 683.588 487.627
2616 0 74.1652 14.3868 1067 106.891 683.176 488.877
2617 0 76.149 14.0645 1071 108.841 683.72 487.163
2618 0 78.0458 14.8118 1156 107.374 683.972 487.079
2619 0 79.051 14.2819 1129 108.272 683.773 486.826
2620 0 81.0787 14.5784 1182 107.159 684.497 485.232
2621 0 83.0585 14.3032 1188 107.758 684.098 484.622
2622 0 86.0654 14.8027 1274 106.491 683.984 482.754
2623 0 88.0844 13.9979 1233 108.732 683.464 482.74
2624 0 90.0561 13.7692 1240 109.573 683.297 479.876
2625 0 92.0813 14.5632 1341 106.376 682.916 479.408
2626 0 95.0661 13.864 1318 107.761 683.039 477.019
2627 0 98.0924 13.8849 1362 107.977 683.355 476.778
2628 0 103.178 14.4508 1491 105.661 683.262 473.783
2629 0 106.189 14.3895 1528 106.115 683.427 472.503
2630 0 108.087 14.0165 1515 107.933 683.539 469.148
2631 0 112.087 14.0249 1572 106.327 683.802 468.104
2632 0 117.127 14.5569 1705 106.008 683.885 465.977
2633 1 60.0884 12.3152 740 107.495 683.781 493.215
2634 0 63.0546 12.7984 807 107.325 684.204 493.053
2635 0 63.0625 13.6055 858 107.554 683.638 489.79
2636 0 67.0867 13.6987 919 106.554 683.435 489.115
2637 0 69.164 14.0535 972 106.071 684.129 488.663
2638 0 72.1881 14.0051 1011 106.336 683.592 487.524
2639 0 74.1274 14.3267 1062 104.657 683.778 485.878
2640 0 73.0825 13.9432 1019 107.455 683.762 484.771
2641 0 78.1356 14.1421 1105 105.161 683.502 484.214
2642 0 79.0788 14.0872 1114 105.701 683.454 483.212
2643 0 83.1506 14.1069 1173 104.194 683.643 480.619
2644 0 85.1824 13.8878 1183 105.293 683.786 478.361
2645 0 88.0813 14.4299 1271 102.392 683.44 479.69
2646 0 90.0826 13.854 1248 103.45 682.857 477.308
2647 0 93.0509 13.6807 1273 103.037 683.985 474.899
2648 0 97.1893 13.6846 1330 101.813 684.347 474.607
2649 0 100.076 13.7296 1374 101.057 683.712 473.33
2650 0 102.108 13.711 1400 100.219 683.434 471.708
2651 0 107.065 13.0948 1402 97.6912 683.924 468.692
2652 0 112.163 13.5606 1521 97.3222 683.007 468.515
2653 1 54.0572 11.4508 619 98.3296 682.937 496.496
2654 0 58.0622 12.6416 734 96.8161 682.455 494.643
2655 0 61.0385 13.4341 820 93.9341 682.27 493.363
2656 0 61.0706 12.2318 747 91.3762 682.47 494.307
2657 0 62.0805 11.9039 739 91.6252 683.353 493.709
2658 0 66.0755 12.0317 795 90.7182 683.221 491.991
2659 0 67.1207 12.3956 832 89.893 683.552 491.238
2660 0 68.2362 12.0757 824 90.8689 683.266 490.839
2661 0 69.1007 12.0259 831 92.4007 682.958 488.625
2662 0 75.085 12.9986 976 87.8965 683.391 486.546
2663 0 77.0466 13.1349 1012 88.1206 682.984 485.636
2664 0 80.0318 12.7824 1023 89.2884 683.167 484.294
2665 0 82.0284 12.4835 1024 89.3047 682.959 482.877
2666 0 84.0684 12.5493 1055 89.4265 683.079 480.282
2667 0 86.0635 12.6186 1086 89.7937 682.744 479.274
2668 0 91.0515 13.6846 1246 86.4864 682.132 474.476
2669 0 91.0392 12.6649 1153 89.9298 682.506 474.443
2670 0 94.0844 12.6057 1186 90.4123 682.804 475.862
2671 0 95.0823 12.3367 1173 91.7212 683.535 472.913
2672 0 100.049 12.7438 1275 90.6816 683.856 470.635
2673 0 103.146 11.7406 1211 93.7498 684.205 471.004
2674 0 105.059 12.0504 1266 94.7749 684.185 468.376
2675 0 109.048 12.9026 1407 93.9815 683.913 466.964
2676 0 114.104 12.5062 1427 94.8837 683.664 462.952
2677 0 118.148 12.9414 1529 94.089 683.3 461.211
2678 0 124.241 12.9345 1607 93.5439 683.723 459.459
2679 1 65.1579 12.6615 825 98.5503 683.459 487.379
2680 0 69.1442 13.132 908 99.4703 683.06 484.927
2681 0 71.1274 13.7781 980 99.2694 682.795 485.334
2682 0 74.2606 13.8162 1026 99.4864 682.987 485.053
2683 0 75.1962 13.365 1005 102.18 682.283 483.798
2684 0 79.119 14.5098 1148 100.055 682.662 482.418
2685 0 83.2937 13.1222 1093 104.855 682.064 481.658
2686 0 85.1736 14.0771 1199 103.264 682.644 479.233
2687 0 86.1288 14.7221 1268 103.002 682.319 477.641
2688 0 89.2191 14.5036 1294 103.947 682.408 476.761
2689 0 88.1719 14.5625 1284 104.666 683.062 475.864
2690 0 94.3631 14.9529 1411 102.945 683.128 474.617
2691 0 97.211 14.2268 1383 105.456 683.405 472.903
2692 0 99.4152 14.2735 1419 106.548 682.954 472.106
2693 0 102.168 14.1825 1449 106.977 683.485 470.978
2694 0 106.11 14.6641 1556 105.576 683.473 471.297
2695 0 111.299 15.3191 1705 102.265 683.255 469.327
2696 0 114.169 15.1267 1727 103.564 683.192 467.468
2697 0 116.208 14.6462 1702 106.422 683.101 465.715
2698 0 122.203 15.2451 1863 104.173 683.323 464.626
2699 0 124.177 14.7934 1837 107.127 682.922 461.782
2700 0 128.288 15.1456 1943 105.608 683.321 460.783
2701 0 133.192 15.1135 2013 104.951 682.721 458.531
2702 0 137.177 15.0973 2071 106.358 682.919 457.042
2703 0 140.135 15.114 2118 106.24 683.044 454.369
2704 0 145.122 15.0149 2179 104.739 683.238 452.206
2705 0 149.179 15.2502 2275 104.97 683.078 449.592
2706 0 155.202 14.5165 2253 105.466 683.342 448.099
2707 0 159.253 15.0202 2392 103.434 684.419 444.746
2708 0 162.21 14.5182 2355 105.158 684.504 442.594
2709 0 168.307 14.735 2480 104.488 683.808 439.99
2710 0 170.179 14.5847 2482 106.455 684.155 436.436
2711 0 174.207 14.3737 2504 107.944 683.713 434.636
2712 0 180.244 14.5802 2628 107.78 682.942 431.446
2713 0 186.226 14.3911 2680 104.374 682.751 429.365
2714 0 191.193 14.3415 2742 108.706 682.755 424.232
2715 0 196.218 13.9488 2737 110.142 682.699 424.732
2716 0 203.287 14.1672 2880 110.173 682.918 418.297
2717 0 212.194 14.6234 3103 107.756 682.877 416.17
2718 1 44.1621 11.2087 495 106.436 683.416 496.566
2719 0 46.1905 12.3402 570 104.079 683.116 497.195
2720 0 47.0888 12.8905 607 104.946 682.486 496
2721 0 47.048 13.4756 634 105.29 682.809 495.738
2722 0 47.0499 14.0914 663 107.548 682.356 499.644
2723 0 50.1641 13.6352 684 104.806 682.785 500.801
2724 0 51.2702 13.3606 685 106.654 682.607 499.667
2725 0 53.1409 13.1349 698 107.335 682.931 497.345
2726 0 55.3764 14.88 824 101.782 683.051 497.911
2727 0 56.1943 13.9872 786 105.08 683.589 497.074
2728 0 57.1894 13.5515 775 107.057 683.301 496.098
2729 0 59.0614 13.3251 787 108.156 682.817 494.976
2730 0 61.0801 14.3091 874 105.508 683.452 493.669
2731 0 62.0246 14.7038 912 105.634 683.086 493.44
2732 0 65.106 14.9602 974 105.26 683.305 491.414
2733 0 65.1691 14.6542 955 108.334 683.239 490.578
2734 0 68.1536 14.5847 994 106.913 682.881 487.048
2735 0 69.1259 15.0595 1041 106.201 683.079 485.499
2736 0 69.1084 15.3816 1063 106.092 683.246 483.287
2737 0 74.0909 14.8466 1100 105.156 683.071 480.8
2738 0 75.189 15.2017 1143 105.708 683.06 481.133
2739 0 77.2069 14.5453 1123 107.681 683.368 479.875
2740 0 79.0788 14.6942 1162 109.054 683.111 480.079
2741 0 81.2686 14.4828 1177 108.982 683.306 478.137
2742 0 86.1296 14.8962 1283 107.724 683.042 477.065
2743 0 87.0466 14.7507 1284 108.28 682.918 475.751
2744 0 88.0725 14.6243 1288 109.479 683.14 475.656
2745 0 93.2414 14.5536 1357 108.909 683.881 472.559
2746 0 94.1504 14.9336 1406 107.164 683.724 472.164
2747 0 100.212 15.3574 1539 106.007 683.336 470.807
2748 0 103.103 15.2372 1571 106.07 683.572 468.885
2749 0 107.12 15.2726 1636 106.809 683.186 467.751
2750 0 112.083 16.4967 1849 97.1282 683.422 466.213
2751 1 61.0822 13.5064 825 105.036 683.402 491.315
2752 0 63.0834 13.6803 863 102.764 683.837 490.957
2753 0 68.1346 14.8676 1013 97.2162 683.741 490.922
2754 0 69.1791 15.7707 1091 95.7654 683.729 489.889
2755 0 69.0754 15.3166 1058 98.9064 684.194 490.812
2756 0 69.2477 14.7442 1021 101.775 683.663 489.515
2757 0 70.1907 14.888 1045 101.47 683.891 488.411
2758 0 71.2764 15.4329 1100 100.875 683.934 489.047
2759 0 74.1638 15.1691 1125 100.552 683.909 487.098
2760 0 76.0763 15.1953 1156 99.9818 684.221 485.282
2761 0 76.0458 14.7148 1119 101.719 684.399 484.999
2762 0 79.0937 15.1339 1197 99.8947 683.957 483.604
2763 0 81.0674 15.0369 1219 99.9573 684.167 482.871
2764 0 82.0802 15.1437 1243 99.4932 683.834 482.381
2765 0 85.0516 15.1202 1286 99.0607 684.302 481.583
2766 0 87.0601 15.0471 1310 98.6519 683.685 479.305
2767 0 90.1374 15.1768 1368 96.9466 684.022 479.882
2768 0 94.2022 15.0421 1417 96.2322 684.388 478.038
2769 0 94.0422 15.5356 1461 95.2361 685.025 476.421
2770 0 99.1007 14.793 1466 94.7763 684.358 474.99
2771 0 103.172 15.1882 1567 92.9145 683.916 471.877
2772 0 106.238 14.9853 1592 92.5546 684.201 469.815
2773 0 110.155 14.7973 1630 93.5546 683.579 465.775
2774 0 114.125 15.5005 1769 89.9842 683.421 465.443
2775 1 57.1572 12.5794 719 95.3533 683.242 494.519
2776 0 56.1219 12.2768 689 97.1176 683.165 494.022
2777 0 60.16 13.0319 784 92.9719 682.585 492.398
2778 0 61.1299 13.0215 796 93.9962 682.692 491.176
2779 0 64.1454 14.358 921 90.8252 683.1 489.938
2780 0 69.1031 13.3858 925 88.8368 682.387 489.325
2781 0 67.1535 14.0871 946 88.4841 682.472 486.436
2782 0 69.0862 14.3878 994 87.5956 682.92 487.703
2783 0 69.1606 13.7361 950 88.1 683.114 487.219
2784 0 72.1228 14.3367 1034 85.3569 683.026 484.905
2785 0 77.0805 14.5951 1125 82.4453 683.194 483.966
2786 0 78.0738 15.0499 1175 81.8519 683.648 481.262
2787 1 87.0868 12.987 1131 90.6322 683.023 396.148
2788 0 82.0901 14.2039 1166 81.3928 683.196 481.379
2789 0 82.0957 14.7876 1214 80.6409 683.334 479.604
2790 0 88.0979 14.6655 1292 78.6981 682.993 478.33
2791 0 87.0792 14.3088 1246 79.1637 683.451 477.93
2792 0 90.0608 14.4014 1297 78.8759 683.317 477.124
2793 0 90.0737 13.5778 1223 80.8675 683.355 475.684
2794 0 92.0792 12.8911 1187 80.5013 683.382 474.197
2795 0 95.1091 13.637 1297 77.919 682.926 473.39
2796 0 98.0589 13.5735 1331 76.5049 683.377 472.228
2797 0 100.057 12.7828 1279 77.5684 683.068 469.039
2798 0 103.067 13.2439 1365 75.5868 682.812 468.668
2799 0 105.083 12.7328 1338 75.2489 683.053 468.564
2800 0 111.087 13.656 1517 72.8187 683.255 467.016
2801 0 113.105 13.0675 1478 73.0264 683.122 465.543
2802 0 115.167 12.7207 1465 72.1768 682.802 463.269
2803 0 118.112 12.9538 1530 71.7333 683.027 454.925
2804 0 121.092 12.6598 1533 70.6569 683.104 454.838
2805 0 123.071 12.2531 1508 69.7135 682.569 455.525
2806 0 124.036 11.8111 1465 70.2041 682.902 454.111
2807 0 129.07 11.6061 1498 69.7697 683.061 450.501
2808 0 131.103 12.9059 1692 68.1288 683.416 450.716
2809 0 135.079 12.3335 1666 67.7203 683.259 449.466
2810 0 140.084 13.185 1847 66.3303 682.888 448.44
2811 0 145.067 13.2283 1919 64.4346 682.965 446.25
2812 0 146.124 13.3927 1957 63.9831 683.46 447.321
2813 0 152.081 13.7492 2091 63.3764 683.587 442.645
2814 0 152.168 12.4796 1899 65.0111 683.129 442.964
2815 0 155.114 12.9776 2013 63.9126 683.362 439.172
2816 0 157.138 12.2249 1921 64.6627 683.376 439.686
2817 0 160.121 11.66 1867 64.4863 682.807 436.626
2818 0 164.073 12.6042 2068 61.8835 682.044 435.03
2819 0 167.181 9.7798 1635 64.5835 682.793 439.423
2820 0 171.164 11.7139 2005 62.1885 682.774 430.052
2821 0 175.093 10.8457 1899 61.9368 682.879 430.547
2822 0 176.145 9.24805 1629 62.628 683.122 428.246
2823 1 0 0 0 -nan -nan -nan
2824 1 183.195 7.34189 1345 61.861 682.877 423.152
2825 1 290.096 2.89214 839 110.248 682.977 345.093
2826 0 288.082 2.8846 831 120.928 682.436 303.325
2827 1 93.0625 14.2807 1329 112.641 681.971 267.166
2828 0 104.118 20.8705 2173 87.0561 682.423 255.952
2829 0 100.053 17.6506 1766 98.3873 682.676 253.123
2830 0 102.099 16.2 1654 104.063 682.894 249.205
2831 0 102.131 14.0408 1434 114.271 682.589 245.011
2832 1 51.0521 12.5754 642 115.424 682.478 262.075
2833 0 53.0662 12.1358 644 114.267 681.873 258.803
2834 0 55.0276 12.7209 700 111.56 681.694 252.633
2835 0 55.0705 12.9652 714 118.324 681.23 247.254
2836 0 58.0409 14.5931 847 120.019 681.604 239.342
2837 0 59.0752 16.0135 946 112.221 681.35 233.383
2838 0 61.0649 16.4252 1003 110.757 681.299 227.615
2839 0 62.0629 16.2899 1011 113.398 681.189 221.213
2840 0 64.0445 16.5198 1058 113.893 681.459 214.812
2841 0 66.0688 16.4071 1084 115.894 681.4 210.714
2842 0 70.0737 18.0524 1265 107.663 681.378 204.028
2843 0 71.0642 16.9424 1204 111.942 681.545 196.205
2844 0 71.0752 17.4463 1240 111.104 681.431 176.756
2845 0 74.0199 16.8333 1246 113.386 681.959 176.213
2846 0 75.3388 18.304 1379 114.16 683.185 148.676
2847 0 74.3544 18.3849 1367 114.32 682.914 148.252
2848 0 75.3368 18.0124 1357 115.475 683.398 148.379
2849 0 75.3147 18.3231 1380 114.663 683.333 148.335
2850 0 75.244 18.6859 1406 115.057 683.335 148.462
2851 0 75.2742 18.3728 1383 114.102 683.215 148.406
2852 0 333.29 18.3234 6107 48.7411 682.839 347.854
2853 0 339.332 17.4519 5922 50.4368 682.782 347.774
2854 0 345.324 17.8615 6168 51.3259 683.177 344.263
2855 0 354.34 18.3101 6488 51.3972 682.673 341.585
2856 0 360.288 18.9293 6820 51.2236 682.669 336.761
2857 0 366.347 19.1867 7029 51.4605 682.783 333.103
2858 0 381.339 19.0539 7266 50.8207 682.362 329.609
2859 0 376.28 18.0557 6794 55.3491 683.98 332.192
2860 0 385.262 17.9748 6925 56.3596 682.852 325.598
2861 0 390.318 18.0263 7036 57.4424 684.022 320.376
2862 0 398.45 19.2622 7675 56.4194 683.887 317.694
2863 0 403.506 17.3083 6984 60.2875 682.594 316.559
2864 0 409.3 17.9868 7362 60.5306 682.731 309.404
2865 0 410.513 19.1979 7881 59.8165 682.894 308.443
2866 0 409.468 18.2114 7457 62.6099 682.175 307.775
2867 0 409.421 18.172 7440 63.0337 682.277 308.197
2868 0 408.411 17.9696 7339 64.175 682.056 306.612
2869 0 409.365 18.5775 7605 64.4066 682.443 305.953
2870 0 409.239 18.2974 7488 65.6719 682.379 304.981
2871 0 410.265 18.8975 7753 65.8446 682.728 304.185
2872 0 410.39 18.0706 7416 67.226 682.688 303.495
2873 0 410.513 18.5427 7612 66.7319 683.186 302.587
2874 0 410.412 18.0428 7405 68.8409 683.577 302.06
2875 0 407.454 17.4572 7113 70.4691 683.438 302.03
2876 0 410.527 18.9318 7772 68.552 682.886 303.33
2877 0 410.363 18.4982 7591 69.9004 683.198 303.08
2878 0 408.466 17.4898 7144 71.4296 682.344 302.854
2879 0 407.694 17.6358 7190 74.0079 682.497 301.394
2880 0 410.801 17.8188 7320 70.5157 683.364 305.311
2881 0 412.019 20.1908 8319 66.0676 682.823 306.522
