time division length width area intensity CMx CMy
0 0 65.1018 12.0273 783 53.6143 286.235 456.969
1 0 67.0917 10.8508 728 55.0522 285.78 455.427
2 0 73.0639 10.8946 796 53.7462 285.339 455.366
3 0 71.0222 11.771 836 53.0156 285.856 454.681
4 0 75.0964 11.3321 851 53.0752 285.78 454.538
5 0 80.1511 10.9917 881 52.9092 285.565 453.101
6 0 80.0802 11.6383 932 52.2811 285.13 453.818
7 0 84.1251 10.9718 923 53.0834 284.594 450.426
8 0 85.0518 11.4401 973 52.6557 285.252 449.239
9 0 88.1116 11.3152 997 52.677 284.739 449.175
10 1 44.0356 11.4453 504 51.7143 284.96 470.276
11 0 49.0548 10.5392 517 52.3443 284.758 470.315
12 0 51.0204 10.8192 552 52.1413 283.643 469.114
13 0 49.08 10.9413 537 52.7263 283.393 468.801
14 0 50.0631 11.1659 559 52.4043 283.147 468.113
15 0 52.0861 11.769 613 51.6705 282.626 466.625
16 0 54.0492 11.0085 595 52.6571 282.788 465.605
17 0 58.0899 10.6043 616 52.2565 282.466 464.985
18 0 57.0403 11.5182 657 51.2055 282.636 463.788
19 0 61.0734 11.609 709 50.574 282.722 463.372
20 0 61.1521 11.2833 690 51.0884 282.535 462.478
21 0 65.0891 11.0003 716 50.8031 281.75 461.306
22 0 68.1707 11.4419 780 49.8923 282.29 461.765
23 0 66.2292 11.43 757 50.3633 282.275 459.768
24 0 70.1752 11.3145 794 50.4912 281.996 458.877
25 0 73.118 10.9959 804 50.6866 282.598 457.53
26 0 76.173 11.9334 909 49.1276 282.384 456.979
27 0 78.1141 10.9199 853 50.7667 282.183 455.821
28 0 78.1266 11.0206 861 50.8513 282.483 455.412
29 0 81.2114 11.3654 923 50.4789 282.485 453.648
30 0 85.1342 11.2528 958 50.5209 282.265 451.528
31 0 88.1823 11.5783 1021 49.8247 281.777 450.678
32 1 44.0097 10.1569 447 50.0425 281.333 472.119
33 0 43.023 9.92493 427 50.8103 281.698 470.311
34 0 49.026 9.74994 478 50.1967 281.573 470.992
35 0 51.0325 10.6207 542 49.6402 281.978 470.533
36 0 51.0317 11.1499 569 49.638 281.668 469.575
37 0 53.0567 11.2144 595 49.0639 281.766 468.523
38 0 54.0495 11.471 620 48.7742 281.803 467.082
39 0 54.0427 11.3429 613 210.232 281.793 466.928
40 0 58.0688 11.2108 651 49.8049 281.708 467.175
41 0 61.1187 10.4878 641 50.5289 281.559 465.443
42 0 60.0447 11.0751 665 50.5038 281.397 462.791
43 0 61.0928 11.2779 689 50.434 281.395 463.412
44 0 66.0843 10.986 726 49.9256 281.466 462.249
45 0 67.1306 11.6042 779 49.3196 280.923 461.995
46 0 70.0466 11.2211 786 49.4898 280.863 460.674
47 0 71.1105 11.3767 809 49.3931 280.685 458.104
48 0 72.0816 11.487 828 49.3816 280.592 457.581
49 0 76.1415 11.7676 896 48.3449 280.307 457.554
50 0 77.1671 11.4816 886 48.9029 280.419 454.48
51 1 39.0631 9.44626 369 49.3902 279.989 472.837
52 0 39.1038 10.0502 393 48.8448 280.244 472.333
53 0 42.0471 9.89367 416 49.0264 280.906 472.726
54 0 44.1229 10.0855 445 48.3056 280.82 471.521
55 0 43.0213 11.0875 477 47.5681 280.6 470.136
56 0 46.0296 10.6236 489 47.9734 280.053 469.9
57 0 46.032 11.6006 534 47.0037 280.09 469.301
58 0 48.0696 10.6096 510 48.4549 279.959 467.824
59 0 50.037 10.5322 527 48.1252 280.161 467.573
60 0 51.027 10.9158 557 47.7756 280.21 465.806
61 0 52.0263 10.9176 568 47.7623 280.486 466.018
62 0 56.0622 10.97 615 47.4748 279.793 464.758
63 0 57.062 10.3046 588 48.665 280.141 463.658
64 0 59.0356 11.2136 662 47.0529 280.414 463.84
65 0 61.1335 11.2541 688 47.202 280.812 463.4
66 0 61.1261 11.6481 712 47.3455 280.041 461.067
67 0 64.2671 11.1254 715 47.3077 279.758 458.829
68 0 63.0977 10.983 693 48.3276 279.453 455.713
69 0 63.1241 10.9784 693 48.9711 280.192 454.737
70 0 71.1934 11.5601 823 47.1932 279.674 455.866
71 0 75.2305 11.724 882 46.4512 279.416 454.166
72 0 75.1735 11.8659 892 47.1693 279.557 453.25
73 0 76.2275 11.8855 906 47.4106 279.329 450.756
74 0 78.2701 11.9458 935 47.8888 279.88 450.649
75 0 81.2573 12.1835 990 47.4848 279.816 449.539
76 0 85.1668 11.906 1014 48.001 280.409 446.609
77 0 89.2938 11.7477 1049 47.8999 280.499 445.337
78 0 90.1973 11.9072 1074 48.2393 280.46 443.588
79 0 93.2693 12.362 1153 47.68 280.283 442.984
80 1 49.0598 10.2732 504 48.5794 280.067 463.885
81 0 47.1348 10.5654 498 48.5783 280.004 462.624
82 0 51.0944 10.2164 522 49.1149 280.151 461.872
83 0 53.1065 10.2247 543 49.3923 279.46 462.602
84 0 53.1338 11.2734 599 48.803 280.412 462.738
85 0 52.0285 10.5135 547 50.6271 281.256 463.027
86 0 58.106 11.3069 657 48.6575 280.486 462.683
87 0 57.0111 10.9452 624 49.9583 279.998 461.856
88 0 59.0311 11.1128 656 49.4451 280.43 461.453
89 0 59.0438 11.6862 690 49.4362 280.736 461.306
90 0 63.0285 10.8681 685 50.4248 281.124 458.162
91 0 66.0276 11.1469 736 49.7568 280.629 458.486
92 0 63.0485 11.8797 749 50.1362 280.772 457.515
93 0 68.0931 11.499 783 49.9119 280.337 457.737
94 0 66.0876 11.4394 756 51.0079 281.197 455.19
95 0 70.1726 12.0417 845 50.0154 280.973 455.859
96 0 71.1099 12.0096 854 50.3677 281.255 454.16
97 0 74.1359 11.7622 872 50.0092 281.279 453.158
98 0 79.0809 10.9761 868 49.2074 281.381 451.289
99 0 79.0824 11.0012 870 49.3678 281.926 451.587
100 0 82.1216 11.1298 914 49.0241 281.531 449.325
101 0 85.1692 10.6964 911 49.3074 281.689 448.811
102 0 89.1045 10.9871 979 48.5608 280.748 448.234
103 0 90.18 11.2109 1011 48.5015 281.131 448.439
104 1 52.0485 9.81777 511 47.3757 281.74 467.667
105 0 52.0892 9.56051 498 47.9538 281.643 465.303
106 0 54.121 10.2733 556 47.2878 282.047 464.522
107 0 54.0738 10.8001 584 47.2962 281.854 464.384
108 0 58.0975 10.5168 611 46.6498 282.437 464.807
109 0 56.2132 10.727 603 47.7496 281.796 463.4
110 1 85.5809 9.93212 850 41.1141 281.504 469.448
111 1 58.1686 10.9853 639 46.7997 281.718 462.487
112 0 62.1708 10.9698 682 46.7111 281.701 462.506
113 0 65.1444 10.9449 713 46.4306 281.858 460.783
114 0 65.1197 11.0719 721 46.423 281.979 459.205
115 0 66.1362 11.2949 747 46.3467 282.126 460.914
116 0 68.2084 11.2156 765 46.5647 282.761 459.66
117 0 71.1504 11.567 823 46.1993 282.962 457.162
118 0 70.258 11.4293 803 46.6663 283.006 455.535
119 0 74.3273 11.7992 877 46.1471 283.285 455.361
120 0 76.2228 11.6238 886 46.3555 282.23 452.787
121 0 78.1519 11.7847 921 46.1683 282.522 453.219
122 0 82.2129 11.604 954 46.2348 282.648 452.134
123 0 84.2565 12.4026 1045 44.9722 282.656 450.958
124 0 87.298 11.3405 990 46.3384 282.316 447.741
125 0 89.2831 11.0099 983 46.8169 282.425 445.369
126 0 93.3354 11.3998 1064 46.0818 281.424 446.055
127 0 96.3609 11.7371 1131 45.6242 282.099 445.615
128 0 98.208 11.5062 1130 46.2115 282.257 442.568
129 1 51.2284 9.52597 488 46.0492 282.529 465.361
130 0 53.2437 10.4613 557 45.2962 282.53 465.862
131 1 76.6382 10.0472 770 40.287 282.113 469.853
132 1 55.0169 10.7785 593 44.9022 281.405 466.155
133 0 55.1106 10.1251 558 45.7867 281.849 464.565
134 0 57.1382 10.6759 610 45.3639 282.415 462.187
135 0 60.0999 11.0316 663 44.1538 281.992 462.908
136 0 60.1934 11.3634 684 44.0058 281.737 461.472
137 0 62.1244 10.6399 661 45.0378 281.852 460.213
138 0 66.0966 10.757 711 44.1913 282.205 460.224
139 0 65.1054 11.658 759 43.3847 282.701 459.797
140 0 67.1407 11.4387 768 43.7331 282.503 457.582
141 0 71.1814 11.281 803 43.5866 282.227 455.587
142 0 72.1944 11.5244 832 43.238 281.742 454.312
143 0 73.264 12.2297 896 43.25 281.445 452.165
144 0 73.2543 11.2485 824 44.5206 281.449 449.356
145 0 77.1733 12.1286 936 43.5972 280.952 447.326
146 0 84.2261 11.4691 966 43.6004 281.285 444.856
147 0 86.4354 11.7892 1019 43.2022 281.961 442.921
148 0 84.3745 11.4727 968 44.6364 282.582 442.68
149 0 90.3573 11.1225 1005 44.8179 282.717 439.573
150 0 91.2939 11.5889 1058 44.4896 282.753 439.422
151 0 96.2609 11.0637 1065 44.9775 282.539 439.94
152 1 69.333 9.60581 666 39.0075 282.371 468.601
153 1 49.0607 10.5583 518 43.9459 282.863 465.676
154 0 50.035 10.8324 542 43.155 283.679 465.734
155 0 52.0364 10.4734 545 43.0936 282.976 465.185
156 0 52.0301 11.0513 575 44.633 282.838 463.944
157 0 54.0238 10.8471 586 45.0478 283.005 462.251
158 0 58.0438 11.1984 650 44.1631 282.665 462.1
159 0 58.0531 10.8521 630 44.854 283.735 462.587
160 0 60.1148 10.2637 617 44.3387 282.919 461.434
161 0 60.0602 11.272 677 43.7917 282.217 461.592
162 0 63.1822 10.8417 685 43.8891 282.496 461.035
163 0 62.1481 10.4911 652 44.7086 281.887 458.344
164 0 67.175 10.8374 728 43.9396 283.124 459.223
165 0 69.2037 10.0717 697 44.1521 283.052 456.666
166 0 71.1146 10.4479 743 43.9583 282.013 455.976
167 0 71.3313 11.2013 799 43.5995 281.77 457.637
168 0 76.0764 11.3833 866 42.6617 281.266 456.375
169 0 79.0923 10.1653 804 43.8072 280.891 454.639
170 0 80.1129 11.3465 909 43.4389 281.921 455.215
171 0 81.195 10.9982 893 44.1579 282.385 453.273
172 0 84.08 11.382 957 43.2936 281.567 454.028
173 0 88.1006 10.5675 931 43.8378 281.816 452.34
174 0 89.144 10.8364 966 43.1874 281.982 450.908
175 0 92.1709 11.2942 1041 42.6129 281.381 449.222
176 1 45.1272 9.81669 443 43.2393 281.397 471.555
177 0 45.1092 10.4857 473 41.8266 281.068 471.408
178 0 47.155 10.7942 509 41.3851 280.786 471.674
179 0 52.1161 10.1696 530 40.934 281.238 469.791
180 0 50.0776 10.4238 522 41.5709 281.464 469.153
181 0 55.1224 10.4858 578 40.737 281.576 468.403
182 0 53.1143 10.5056 558 40.8495 281.378 467.389
183 0 55.1495 10.6801 589 40.4397 281.117 467.183
184 0 55.0932 10.8906 600 40.5983 281.243 467.15
185 0 60.1873 10.6169 639 40.1111 281.07 464.845
186 0 60.1181 10.679 642 40.2118 280.682 464.874
187 0 61.1074 10.5061 642 40.2991 280.84 463.698
188 0 66.1851 10.8333 717 39.2385 281.191 463.021
189 0 65.0984 11.1831 728 39.4409 281.42 462.228
190 0 69.2738 10.4224 722 39.9488 281.363 460.774
191 0 69.1628 11.1476 771 40.1971 281.425 459.786
192 0 71.2265 10.9089 777 40.148 281.184 458.516
193 0 75.1373 11.3525 853 39.3236 280.462 457.625
194 0 76.2608 10.9362 834 39.9724 280.584 456.258
195 0 79.2755 11.0879 879 39.8066 280.306 454.38
196 1 45.1081 9.11144 411 39.6496 279.915 473.212
197 0 47.0632 9.6041 452 38.958 281.131 469.544
198 0 44.1784 10.0275 443 40.228 281.738 469.56
199 0 47.1654 10.0709 475 40.1158 280.72 467.739
200 0 48.1199 10.3491 498 40.5161 279.968 467.237
201 1 75.0759 9.11079 684 36.652 280.792 470.784
202 1 51.1157 11.2099 573 40.1344 281.176 465.831
203 0 51.0905 11.0392 564 40.8191 280.406 465.544
204 0 54.2357 10.9522 594 40.5135 280.722 464.222
205 0 54.2006 11.3467 615 40.8114 280.61 462.663
206 0 60.2165 10.7778 649 40.5547 280.268 463.376
207 0 61.1633 10.6273 650 40.82 281.052 462.32
208 0 62.2993 10.7224 668 40.9716 280.606 460.708
209 0 63.1657 11.0345 697 40.6557 281.204 460.369
210 0 66.247 11.3062 749 40.5941 281.191 459.447
211 0 68.1789 11.4992 784 40.213 280.612 458.776
212 0 71.1731 10.8608 773 40.8124 281.123 456.871
213 0 69.1638 11.1185 769 41.0507 280.728 456.077
214 0 70.0934 11.9127 835 40.2826 282.263 453.855
215 0 72.1501 11.8364 854 40.8677 281.9 454.46
216 0 76.1088 11.339 863 40.5353 281.097 455.382
217 0 78.3208 11.504 901 40.3563 281.393 453.042
218 0 79.2873 12.3853 982 39.7077 281.532 452.299
219 0 80.1933 11.1356 893 41.3046 280.943 450.985
220 0 85.3228 11.2045 956 40.7259 281.322 450.285
221 0 87.2201 11.4194 996 40.755 281.19 449.949
222 0 90.2173 10.9292 986 41.0669 281.139 448.946
223 0 89.3199 11.3077 1010 41.3416 281.716 444.927
224 0 96.263 11.1465 1073 41.0829 281.728 445.977
225 1 47.119 10.6114 500 40.508 281.12 469.818
226 0 52.1251 10.2062 532 40.8985 282.085 468.492
227 0 51.039 10.0511 513 40.7778 281.285 465.897
228 0 53.0512 10.9705 582 39.7732 281.103 467.469
229 0 54.1933 10.481 568 40.5317 281.319 467.134
230 0 54.0363 10.9371 591 40.4535 281.846 467.357
231 0 59.0615 10.7346 634 39.8691 282.129 466.632
232 0 60.0667 10.6715 641 40.1966 282.1 466.165
233 0 63.126 10.8196 683 40.1406 281.801 465.042
234 0 63.0512 10.4994 662 40.6964 281.65 463.554
235 0 66.1131 11.0568 731 40.1368 282.116 463.064
236 0 68.0793 11.3397 772 40.0583 281.644 462.846
237 0 66.087 11.5303 762 40.084 281.979 461.189
238 0 69.135 11.5426 798 40.2531 281.955 460.902
239 0 70.1106 12.1808 854 39.6522 282.047 460.461
240 0 74.0542 11.7617 871 39.69 281.822 459.78
241 0 75.0674 11.2965 848 40.4941 281.679 458.382
242 0 75.144 11.804 887 40.5242 281.694 456.673
243 0 80.1179 11.8076 946 40.0571 281.187 456.397
244 0 79.1364 11.8782 940 40.5883 280.803 455.117
245 0 82.126 11.7746 967 40.879 280.71 453.01
246 0 86.2052 12.0642 1040 40.5952 279.772 454.012
247 1 50.1458 9.99087 501 41.1337 280.092 471.762
248 0 49.0875 10.5322 517 41.9342 280.756 469.582
249 0 50.11 11.1355 558 41.5699 280.735 470.26
250 0 50.0909 11.4791 575 41.8922 279.814 469.292
251 0 54.0268 11.0501 597 43.2496 279.846 469.337
252 0 57.1085 11.0842 633 43.5355 279.87 468.155
253 0 55.0952 10.8902 600 45.2 280.087 466.73
254 0 60.0518 11.4568 688 44.0392 280.131 467.08
255 0 62.1374 11.6194 722 44.3338 279.92 466.001
256 0 63.1058 11.8848 750 44.4747 280.197 465.535
257 0 64.0597 11.099 711 45.9466 279.176 464.893
258 0 67.1102 11.7717 790 45.1418 278.944 463.153
259 0 68.1128 12.0389 820 45.2915 279.151 463.261
260 0 68.0616 12.3124 838 45.568 279.992 461.982
261 0 72.105 12.5927 908 44.9427 280.068 461.343
262 0 72.1216 12.2987 887 46.0248 279.55 458.709
263 0 75.1384 12.0444 905 46.8564 280.218 456.936
264 0 76.2236 12.1616 927 47.0453 280.7 456.184
265 0 80.1339 12.3418 989 46.814 280.509 456.292
266 0 84.086 12.1067 1018 46.9568 280.44 453.764
267 0 88.2378 12.3076 1086 46.8076 279.886 452.803
268 0 90.1095 12.5625 1132 47.0106 279.958 451.035
269 0 90.1171 12.2396 1103 48.233 279.791 448.619
270 0 97.1382 12.3741 1202 47.8186 279.45 448.369
271 0 95.1829 12.4707 1187 48.9023 279.768 444.845
272 0 98.1102 12.4656 1223 49.341 279.567 443.917
273 0 102.128 12.8662 1314 48.5799 279.776 443.368
274 0 106.296 12.2393 1301 49.5527 279.995 441.905
275 1 55.083 10.8019 595 50.7412 279.187 465.094
276 0 57.066 11.513 657 50.6027 279.808 464.143
277 0 56.0704 11.0397 619 51.7464 280.191 463.089
278 0 60.0693 11.5367 693 51.1688 280.052 461.644
279 0 62.0703 12.2925 763 50.1573 280.185 461.911
280 0 63.0632 11.766 742 50.3774 280.612 459.659
281 0 64.0842 12.0467 772 50.2034 279.585 457.795
282 0 67.0719 12.1511 815 49.3632 280.669 457.091
283 0 70.1048 11.7538 824 49.4296 280.703 456.831
284 0 73.1743 12.0671 883 48.4813 280.068 455.52
285 0 75.0405 12.1401 911 48.5752 280.7 454.468
286 0 78.1139 11.9953 937 48.3831 280.501 451.863
287 0 81.137 12.4358 1009 47.5243 280.946 452.189
288 0 84.2147 12.4206 1046 47.4168 280.108 450.268
289 0 86.2208 12.0737 1041 47.7378 280.42 448.254
290 0 90.1546 12.2678 1106 47.7568 280.379 447.298
291 0 92.09 12.238 1127 48.0763 280.531 444.705
292 0 96.1563 12.5733 1209 47.1596 280.467 444.728
293 0 97.1328 12.6322 1227 47.5656 280.826 442.744
294 0 99.1401 12.2453 1214 48.1985 281.673 440.058
295 0 103.169 12.8139 1322 47.6248 280.965 439.56
296 0 106.287 12.3251 1310 48.6405 281.556 436.623
297 1 54.1471 10.7485 582 47.5825 281.213 462.557
298 0 55.1123 10.9957 606 47.5066 280.884 462.01
299 0 54.1055 11.4591 620 47.9016 280.366 460.903
300 0 59.1223 11.6031 686 47.3776 280.794 460.382
301 0 58.0927 11.7399 682 47.9956 280.396 460.17
302 0 61.0668 11.5447 705 47.9943 280.515 459.136
303 0 63.1368 10.9128 689 48.6197 279.997 457.202
304 0 64.1135 11.4328 733 48.1323 281.055 458.269
305 0 68.0583 11.4314 778 48.0231 281.506 456.676
306 0 70.062 12.5318 878 47.0877 281.979 457.326
307 0 70.0544 12.5759 881 47.8048 282.316 454.782
308 0 74.0444 11.8172 875 48.376 281.451 453.269
309 0 76.1165 12.0736 919 48.2655 281.568 452.868
310 0 77.203 12.927 998 47.8387 281.227 451.059
311 0 78.1116 12.5333 979 48.8519 282.049 450.853
312 0 81.0948 12.2943 997 49.6861 281.78 447.853
313 0 86.056 12.8056 1102 48.6851 281.44 448.335
314 0 83.1106 11.8396 984 51.0915 281.619 443.972
315 1 44.108 10.6783 471 49.8726 281.771 468.176
316 0 42.0448 10.5126 442 51.6878 281.713 465.561
317 0 47.1076 10.5715 498 50.494 281.472 465.363
318 0 48.0694 10.5473 507 50.8343 282.152 464.371
319 0 51.045 10.9707 560 50.0054 282.395 463.736
320 0 48.1146 11.6181 559 50.068 282.676 465.097
321 0 54.0354 11.0113 595 49.4908 283.165 463.998
322 0 54.1671 11.5014 623 48.7592 282.677 465.523
323 0 55.057 10.4801 577 50.2045 283.187 462.172
324 0 56.0927 11.6949 656 48.997 282.485 461.803
325 0 60.0809 11.5345 693 48.342 282.776 461.111
326 0 61.0946 11.1957 684 49.3509 282.798 461.357
327 0 60.1163 11.7273 705 49.6624 283.224 459.485
328 0 64.1444 11.287 724 49.3453 283.264 459.09
329 0 68.1391 11.5499 787 48.5604 283.118 458.452
330 0 70.0863 11.5144 807 43.8141 282.62 457.927
331 0 71.1799 11.9275 849 46.6761 282.953 456.637
332 0 72.1036 11.1922 807 48.1103 283.487 455.192
333 0 75.1324 11.6062 872 48.7878 282.847 454.578
334 0 80.0956 12.0356 964 47.5405 282.609 453.717
335 0 78.2399 11.7587 920 49.362 282.787 451.6
336 0 81.2196 11.6351 945 51.2169 283.007 450.898
337 0 82.0849 11.3175 929 52.9882 282.601 450.481
338 0 87.1966 11.3078 986 52.9229 281.948 448.903
339 0 91.1705 10.9685 1000 52.799 282.244 447.14
340 0 94.206 11.2519 1060 53.0717 282.464 446.504
341 1 46.1512 11.029 509 50.3576 282.281 469.908
342 0 49.1788 10.899 536 51.5336 281.761 469.701
343 0 48.0279 11.181 537 52.1788 282.035 469.099
344 0 51.0897 10.7067 547 52.6801 281.415 468.234
345 0 54.0871 10.8159 585 51.7419 281.181 468.583
346 0 55.1369 10.755 593 52.2159 281.472 467.745
347 0 56.0985 10.7133 601 53.1431 281.439 465.993
348 0 57.1314 11.6573 666 51.9384 281.276 466.227
349 0 60.1192 11.1113 668 52.5898 281.501 464.672
350 0 63.0983 11.3157 714 52.4748 281.234 464.828
351 0 65.1288 11.7613 766 51.5078 280.556 464.46
352 0 64.0648 11.4571 734 52.9523 280.591 462.905
353 0 70.0765 11.516 807 51.7708 280.91 463.154
354 0 71.1553 12.3111 876 51.1815 280.908 462.447
355 0 70.1317 11.1219 780 53.0923 280.326 458.572
356 0 74.1836 11.6063 861 51.8118 279.954 460.008
357 0 76.1351 11.2826 859 52.4005 279.793 458.638
358 0 81.0961 11.5542 937 51.1825 280.342 457.854
359 1 46.0595 9.63971 444 51.5248 279.682 473.511
360 0 45.0477 10.833 488 50.041 279.568 473.049
361 0 48.0242 10.6613 512 49.7773 280.09 473.234
362 0 48.0332 10.2846 494 50.1781 279.54 471.717
363 0 51.0668 11.2598 575 48.193 279.257 471.896
364 0 54.0525 10.8228 585 47.4444 279.824 470.499
365 0 54.0426 11.1023 600 46.865 280.05 469.807
366 0 55.0933 10.6002 584 47.6233 279.248 466.962
367 0 57.0366 10.9579 625 46.9408 279.41 468.298
368 0 59.0438 11.0935 655 46.6382 280.446 467.307
369 0 62.0542 11.071 687 45.6725 280.368 465.185
370 0 61.0719 11.1017 678 46.3732 279.279 463.795
371 0 63.0696 11.4952 725 45.5034 279.966 464.109
372 0 64.1759 11.2815 724 46.0649 280.267 461.591
373 0 68.0376 11.038 751 45.3569 279.956 461.14
374 0 72.0889 10.6951 771 45.4449 280.237 459.752
375 0 71.0871 11.5633 822 44.9501 279.655 459.288
376 0 74.0958 11.3232 839 44.9285 279.569 456.938
377 0 79.0569 11.6498 921 44.1336 280.283 455.159
378 0 80.2013 10.6607 855 45.4304 280.807 453.144
379 0 84.167 11.2633 948 44.4409 281.013 451.196
380 0 86.0516 11.5163 991 45.0212 281.014 451.891
381 0 87.1089 11.7669 1025 44.6634 281.363 450.188
382 1 49.0859 9.55468 469 44.8913 280.066 470.94
383 0 49.0101 9.58985 470 45.4234 279.738 469.617
384 0 50.0233 10.0353 502 45.745 280.303 469.95
385 0 54.0817 10.3732 561 44.1907 280.064 468.349
386 0 54.032 10.1606 549 45.0364 280.191 466.681
387 0 52.0421 10.895 567 44.9436 280.478 465.795
388 0 57.0589 10.4278 595 45.0134 280.876 465.393
389 0 58.0943 10.7067 622 45.1479 280.585 464.286
390 0 62.0346 10.5586 655 44.6397 280.479 463.473
391 0 62.0334 10.7039 664 44.9352 281.283 463.539
392 0 63.058 11.0216 695 44.9626 281.331 463.212
393 0 65.1283 10.6405 693 45.3016 281.095 460.241
394 0 70.0518 11.2203 786 43.8486 280.949 461.477
395 0 69.0871 10.3348 714 45.465 280.905 460.056
396 0 69.0492 10.688 738 45.2873 280.966 458.928
397 0 72.0681 10.8092 779 44.8524 281.055 457.625
398 0 77.1629 11.534 890 43.1978 281.094 457.56
399 0 83.1729 10.7968 898 43.5523 280.984 456.424
400 0 79.082 11.2288 888 44.0856 280.912 454.175
401 0 83.0968 10.4697 870 44.4644 280.193 453.994
402 1 120.251 11.6423 1400 37.3707 280.86 460.949
403 1 91.1793 10.4519 953 44.3767 280.644 451.217
404 0 89.1689 10.8782 970 45.8505 280.568 450.68
405 0 92.241 9.93051 916 46.9159 281.128 448.019
406 0 94.1893 10.309 971 46.6375 280.852 447.736
407 0 96.2864 11.0088 1060 46.3085 279.634 448.258
408 0 98.3786 10.6629 1049 46.5958 280.299 446.122
409 1 50.0526 10.449 523 46.2333 280.474 470.285
410 0 52.0715 10.0631 524 46.5821 279.613 469.92
411 0 55.042 10.5919 583 45.7307 278.823 469.123
412 0 53.1646 9.59285 510 47.8294 279.029 466.392
413 0 56.0733 10.7716 604 46.2119 279.06 466.917
414 0 57.042 10.4134 594 47.0118 279.428 466.658
415 0 58.0504 11.111 645 46.0915 279.257 466.371
416 0 59.0861 9.98543 590 47.2237 279.022 464.364
417 0 63.0972 10.9038 688 45.6381 279.285 465.153
418 0 64.0805 10.4868 672 45.9658 279.729 462.792
419 0 66.0949 10.9842 726 45.4435 280.253 463.627
420 0 68.065 10.8132 736 45.7541 279.962 461.166
421 0 71.0768 10.9318 777 45.5251 280.109 462.929
422 0 70.168 10.3038 723 46.7593 279.469 458.703
423 0 75.1186 11.0758 832 45.2139 279.85 458.942
424 0 78.1768 11.9473 934 44.0782 280.026 458.338
425 1 41.0636 9.5218 391 45.1867 279.253 476.46
426 0 38.0618 10.0363 382 46.411 280.212 475.647
427 0 39.0667 10.1109 395 46.4608 280.785 474.334
428 0 43.0574 10.2422 441 45.3764 280.107 474.909
429 0 41.0175 10.142 416 46.0505 279.457 474.514
430 0 46.0798 10.7205 494 44.5121 279.858 475.395
431 0 45.0451 10.5228 474 45.9789 279.549 474.489
432 0 46.038 10.5565 486 46.1955 279.395 474.29
433 0 47.0376 9.73689 458 47.417 279.681 471.991
434 0 50.0305 9.43425 472 48.0169 279.54 470.311
435 0 48.0487 10.8015 519 47.6936 279.389 470.582
436 0 52.0273 10.629 553 47.5696 279.192 470.454
437 0 52.0555 11.1035 578 47.4256 279.016 470.329
438 0 56.0225 10.942 613 47.54 278.971 469.344
439 0 58.0168 10.7383 623 47.5072 279.326 468.024
440 0 57.0605 10.778 615 48.213 279.763 467.928
441 0 60.1607 10.6548 641 48.3292 279.378 466.114
442 0 62.1564 11.648 724 47.3356 279.367 465.548
443 0 61.1068 11.1117 679 48.162 279.647 464.012
444 1 128.294 11.575 1485 50.1461 279.488 431.068
445 0 133.275 12.5229 1669 48.2756 278.96 430.099
446 0 135.251 12.1478 1643 48.9051 279.029 427.017
447 0 141.371 12.1383 1716 49.2646 279.239 426.698
448 1 67.1031 11.5792 777 48.4517 279.089 457.602
449 0 73.1748 11.8347 866 47.3938 279.083 458.47
450 0 72.2277 11.4361 826 48.4189 279.783 456.252
451 0 75.086 11.7332 881 48.0965 280.451 455.086
452 0 80.1482 11.6659 935 47.5476 280.551 454.169
453 0 82.1692 12.0483 990 47.4343 280.156 452.854
454 0 81.1419 11.1656 906 49.2693 280.462 450.285
455 1 42.0545 10.1297 426 48.7254 280.218 470.479
456 0 41.0096 10.8511 445 49.5124 279.339 471.175
457 0 43.0232 10.8779 468 49.6816 279.513 469.964
458 0 48.0939 10.3963 500 49.612 279.226 469.586
459 0 46.0405 11.1206 512 50 280.08 469.043
460 0 49.0783 11.4307 561 49.6988 279.97 470.052
461 0 50.0117 11.0174 551 50.7677 279.722 468.76
462 0 49.0494 11.3151 555 51.1784 280.438 468.095
463 0 52.0594 11.2756 587 51.3918 280.056 466.799
464 0 54.0338 11.1042 600 51.3083 280.457 465.073
465 0 54.0902 11.1296 602 51.7043 280.113 464.367
466 0 57.0402 11.8162 674 50.5282 279.545 463.967
467 0 59.0646 11.2419 664 51.0873 279.761 461.542
468 0 60.0256 11.2452 675 51.0074 280.281 459.636
469 0 62.0233 11.8181 733 50.0314 280.705 461.216
470 0 64.0415 11.4145 731 50.1012 280.494 459.979
471 0 66.0498 11.8093 780 49.4641 280.863 458.644
472 0 68.0335 12.2734 835 48.782 280.568 458.061
473 0 69.1396 11.7877 815 49.3043 281.569 456.182
474 0 73.0662 11.2227 820 49.8671 282.017 454.756
475 0 75.1504 11.6433 875 49.4217 281.387 453.205
476 0 77.1533 11.9243 920 48.7728 281.382 453.557
477 0 79.0644 11.3325 896 49.3438 281.287 451.412
478 0 82.0839 11.1228 913 49.8894 281.698 449.781
479 1 41.0573 10.5706 434 48.7926 281.339 469.074
480 0 43.0348 11.0841 477 47.9895 281.39 469.031
481 0 46.0703 11.4173 526 47.4506 281.046 468.194
482 0 49.044 10.5212 516 48.5833 281.087 466.552
483 0 48.1026 11.226 540 47.9167 280.944 464.965
484 0 49.0486 10.9891 539 48.2022 281.141 464.77
485 0 50.0455 10.99 550 48.7091 281.351 464.893
486 0 53.126 11.2374 597 48.3685 281.226 465.122
487 0 56.0999 11.7112 657 47.417 281.481 464.385
488 0 54.0139 10.9046 589 49.4261 282.343 463.11
489 0 57.0585 11.6897 667 47.8426 282.156 462.045
490 0 58.0844 11.1562 648 48.5154 281.736 460.241
491 0 59.128 10.7732 637 49.0345 281.678 460.887
492 0 64.0726 12.002 769 46.7061 281.967 461.107
493 0 64.1474 11.988 769 46.9753 282.059 460.488
494 0 65.1325 11.6839 761 47.4113 282.323 460.922
495 0 67.1233 11.1586 749 47.8745 281.927 456.529
496 0 71.0781 11.6351 827 46.7509 282.268 457.204
497 0 72.1436 11.5187 831 46.8099 281.989 456.587
498 0 73.1239 11.4053 834 47.4496 282.317 454.513
499 0 75.1281 11.3672 854 47.4192 282.911 454.105
500 0 76.127 11.7041 891 46.7722 282.294 452.899
501 0 79.1802 11.6064 919 46.2949 281.896 452.949
502 0 82.1325 11.1527 916 46.6092 281.903 450.802
503 0 86.0713 11.6647 1004 45.6046 282.314 451.026
504 1 42.0477 10.2265 430 45.9302 282.028 469.979
505 0 46.107 10.1069 466 45.4206 281.579 470.809
506 0 47.0104 10.8699 511 44.9061 281.908 470.356
507 0 46.1902 10.8681 502 44.9602 281.635 470.289
508 0 49.0468 11.0507 542 44.4133 281.609 470.441
509 0 48.0718 11.3788 547 44.8629 280.837 468.472
510 0 51.0789 11.5508 590 44.0559 281.307 469.314
511 0 50.0521 11.4281 572 44.8042 281.432 466.89
512 0 52.0444 10.9714 571 45.0701 281.671 467.151
513 0 55.0695 11.3856 627 44.3939 282.03 467.376
514 0 58.1198 11.7172 681 43.4758 281.905 466.803
515 0 60.077 11.3521 682 43.9736 281.625 466.229
516 0 62.0671 11.8904 738 43.3252 281.638 465.953
517 0 62.0715 11.6317 722 43.7147 281.938 464.748
518 0 64.1344 12.1308 778 42.865 282.013 464.288
519 0 65.0897 11.9067 775 42.9097 281.552 464.221
520 0 69.1201 12.1672 841 42.1617 281.766 462.782
521 0 68.0938 12.3653 842 42.5297 281.743 461.98
522 0 70.1667 11.5867 813 43.0689 281.401 459.237
523 0 73.1031 12.3661 904 41.7633 281.343 458.833
524 0 78.1064 12.2013 953 41.2046 281.008 459.405
525 0 76.1168 12.1261 923 41.585 280.987 457.372
526 0 79.2134 12.5736 996 40.7651 280.879 458.061
527 0 80.2868 12.0443 967 41.1468 280.683 454.672
528 0 86.1491 12.0024 1034 40.5687 279.768 454.368
529 0 88.1171 12.6196 1112 39.7428 280.536 454.243
530 0 89.089 12.3023 1096 39.9197 280.481 453.021
531 0 91.1996 12.4014 1131 39.5836 280.406 451.396
532 0 92.141 11.4173 1052 40.3032 280.005 447.303
533 1 48.0547 9.59324 461 39.7809 279.213 470.239
534 0 49.0393 10.5018 515 38.2524 279.65 471.295
535 0 50.0778 10.8831 545 38.1303 280.389 471.18
536 0 53.0792 10.3807 551 37.5372 280.289 469.55
537 0 53.2016 10.9019 580 37.2172 279.862 469.462
538 0 53.1168 10.9193 580 37.1414 279.917 468.233
539 0 54.1522 11.6339 630 36.4222 279.96 467.9
540 0 57.1377 11.5335 659 36.1351 280.308 467.542
541 0 60.1365 11.2411 676 35.6538 280.166 466.743
542 0 64.1765 10.7204 688 35.3663 280.423 465.116
543 0 61.128 11.4514 700 34.6686 280.626 463.491
544 0 60.1509 11.4545 689 34.7112 280.345 464.142
545 0 61.0666 11.5284 704 34.1634 280.212 462.124
546 0 63.1694 11.5879 732 34.4358 280.372 461.963
547 0 67.3243 11.5263 776 33.3466 280.245 462.01
548 0 64.0908 11.0468 708 34.0664 281.172 460.109
549 0 66.092 11.0755 732 35.0369 280.937 457.96
550 0 64.2258 11.5997 745 37.1369 280.914 459.608
551 0 67.1913 12.1593 817 35.7332 281.06 459.647
552 0 69.1283 11.5582 799 35.821 280.834 460.218
553 0 69.3236 11.6411 807 35.6072 281.175 460.167
554 0 71.1719 12.1537 865 34.696 281.296 461.347
555 0 72.2477 12.291 888 34.25 281.087 461.296
556 0 71.1096 11.4752 816 35.2108 281.757 458.424
557 0 72.0999 11.8585 855 34.4304 281.626 459.389
558 0 71.2946 12.1889 869 34.214 280.977 459.868
559 0 70.2005 12.1082 850 34.3729 281.249 459.238
560 0 73.3599 11.1914 821 34.6114 281.872 459.055
561 0 74.398 11.9761 891 33.8137 281.746 457.93
562 0 71.1693 11.4937 818 34.577 282.345 457.724
563 0 73.1918 11.5587 846 34.0201 282.54 457.611
564 0 76.2732 11.5244 879 33.7031 281.703 457.363
565 0 72.3308 11.2677 815 34.492 282.079 457.409
566 0 77.2055 11.9551 923 33.2297 282.052 457.352
567 0 76.2743 11.7471 896 33.375 282.334 457.339
568 0 76.4603 12.2678 938 32.822 281.81 457.537
569 0 76.244 12.0796 921 33.1509 281.936 456.825
570 0 76.3469 12.1419 927 32.7961 282.182 456.49
571 0 80.2909 12.1309 974 32.1489 281.052 458.901
572 0 79.3788 11.9805 951 32.3449 282.197 456.567
573 1 99.1124 13.4998 1338 28.4425 281.481 463.676
574 1 80.2308 12.0029 963 32.0322 282.262 457.378
575 0 77.2358 12.4554 962 32.2131 281.44 456.742
576 0 78.2761 12.0854 946 32.1332 281.494 455.458
577 0 81.4706 11.5624 942 32.0393 281.532 456.228
578 0 78.3198 11.9765 938 32.2463 282.353 455.339
579 0 78.1753 12.472 975 31.7877 281.311 456.408
580 0 80.1807 12.3471 990 31.7222 281.917 457.082
581 0 82.2839 11.2902 929 32.1582 281.67 456.825
582 0 79.3565 12.551 996 31.743 281.577 455.351
583 0 83.3093 11.7754 981 31.5158 281.491 454.299
584 0 81.1376 11.7948 957 31.5925 281.34 453.822
585 0 81.3 12.706 1033 30.971 281.495 455.782
586 0 84.2592 12.7345 1073 30.7055 280.919 455.364
587 0 83.248 12.0724 1005 31.1204 280.646 453.665
588 0 84.4128 12.5692 1061 30.7992 281.039 454.205
589 0 82.3019 12.3812 1019 30.9225 280.396 455.193
590 0 84.2054 11.8401 997 31.1936 280.518 454.653
591 0 83.339 11.2912 941 31.474 281.245 453.441
592 0 82.2375 12.0505 991 31.0293 281.415 455.679
593 0 82.3325 12.1337 999 30.981 281.127 454.444
594 1 108.121 12.8837 1393 27.1371 280.309 462.726
595 1 85.4143 11.9535 1021 30.6836 280.716 455.028
596 0 86.2157 11.5988 1000 30.963 281.07 454.06
597 0 84.2135 12.0527 1015 30.5872 280.715 455.306
598 0 87.4934 11.6237 1017 30.4494 280.48 454.886
599 0 87.2441 11.9894 1046 30.1042 281.289 455.597
600 0 87.1741 12.2972 1072 29.8983 280.312 454.927
601 0 84.3304 11.9886 1011 30.2324 280.782 454.434
602 0 87.3141 12.4379 1086 29.9319 280.872 456.353
603 0 87.2337 12.2659 1070 29.8009 280.853 455.473
604 0 83.4596 10.6159 886 31.2573 280.909 452.284
605 0 85.2454 11.461 977 30.6295 279.961 454.09
606 0 87.2367 12.0935 1055 30.0768 280.279 455.315
607 0 87.3704 11.6172 1015 30.3015 280.837 456.613
608 0 87.318 12.5862 1099 29.4504 279.785 456.308
609 0 89.3159 11.3865 1017 29.9076 279.397 455.817
610 0 86.2442 11.5254 994 30.1851 279.614 454.934
611 0 92.1819 11.6943 1078 29.987 279.825 456.545
612 0 338.47 14.081 4766 27.3384 279.898 327.74
613 1 81.132 11.13 903 32.0543 280.288 453.279
614 0 77.1184 12.0983 933 31.4459 279.89 452.753
615 0 79.0766 12.8989 1020 29.0843 280.433 455.479
616 0 80.1462 12.9638 1039 27.6256 280.571 458.843
617 0 78.1169 13.4414 1050 26.5838 279.716 458.562
618 0 79.1815 12.2503 970 26.5639 280.122 457.759
619 0 80.1174 12.9685 1039 25.8874 279.433 458.645
620 0 78.1793 11.8829 929 26.5328 280.025 457.717
621 0 78.1838 11.9206 932 26.2103 279.959 456.181
622 0 79.369 12.3852 983 25.9837 279.876 457.7
623 0 77.1362 12.2251 943 25.7709 280.369 457.291
624 0 77.4081 12.1693 942 25.7728 280.131 456.032
625 0 78.2415 11.8352 926 25.9071 280.484 456.587
626 0 77.1877 12.3465 953 25.5876 279.765 457.872
627 1 100.507 15.4417 1552 21.6856 279.743 466.793
628 1 73.1939 11.9409 874 26.0538 280.311 457.793
629 0 124.538 9.53927 1188 22.638 279.801 469.241
630 0 129.001 12.093 1560 20.7596 279.767 473.153
631 1 24.0286 13.9833 336 11.0625 274.857 529.839
