time division length width area intensity CMx CMy
0 0 49.1571 10.6394 523 49.1281 610.382 463.323
1 0 47.1708 11.257 531 49.2825 611.153 463.546
2 0 51.1088 11.2309 574 47.8449 610.014 463.578
3 0 54.1048 10.7014 579 47.6235 609.907 462.378
4 0 55.0516 10.5719 582 47.4983 609.17 463.258
5 0 56.0876 10.5727 593 47.3862 609.02 462.26
6 0 55.1088 10.8694 599 47.5292 608.74 460.72
7 0 60.122 10.9278 657 46.5266 609.201 458.508
8 0 63.0795 11.0971 700 45.3414 607.889 459.241
9 1 88.1791 11.2158 989 40.3175 607.964 464.308
10 1 63.2965 22.1339 1401 35.2227 607.839 449.746
11 0 65.1765 23.6281 1540 34.1617 607.275 450.666
12 1 160.869 13.4954 2171 40.2211 606.877 438.408
13 1 144.282 10.3062 1487 48.4506 606.025 415.771
14 0 153.275 11.2543 1725 47.3386 606.332 417.209
15 1 118.248 9.98746 1181 47.4843 607.169 434.942
16 0 123.296 10.4221 1285 46.9704 607.163 433.434
17 0 125.224 10.7088 1341 46.9828 606.063 429.655
18 0 131.401 10.7153 1408 46.2891 606.552 428.576
19 0 134.24 10.7196 1439 46.3662 607.5 426.367
20 0 134.24 11.1145 1492 210.043 608.517 427.126
21 1 75.5109 9.30991 703 39.394 607.235 469.407
22 1 49.0733 11.1466 547 43.5192 606.85 467.146
23 0 51.3721 11.1734 574 43.2509 606.697 465.136
24 0 51.2982 10.7021 549 44.3042 606.945 464.481
25 0 58.3402 11.313 660 42.5364 606.08 465.823
26 0 57.1943 11.3648 650 43.1092 606.568 464.838
27 0 57.2869 11.6955 670 42.9701 606.716 463.434
28 0 58.321 11.6768 681 43.1336 605.872 460.247
29 0 62.1781 11.1776 695 43.2475 606.57 460.426
30 0 67.1877 10.9395 735 42.9932 606.38 460.97
31 0 67.3127 11.454 771 42.6342 606.752 459.678
32 0 69.323 11.7854 817 42.5349 605.995 458.562
33 0 70.3438 11.0457 777 43.4221 605.781 455.57
34 0 72.1855 10.9994 794 43.7166 606.019 455.71
35 0 74.1939 11.7126 869 42.7457 606.105 452.838
36 0 78.3799 11.4825 900 42.8756 606.164 451.067
37 0 82.1677 11.2575 925 42.3178 606.341 449.99
38 0 82.1301 11.9079 978 41.9407 606.256 449.349
39 0 85.1933 11.8202 1007 42.0953 606.47 449.263
40 0 86.3162 11.203 967 43.0486 605.933 445.612
41 0 90.5027 11.2593 1019 42.8862 605.414 446.009
42 0 106.315 5.8035 617 36.2723 602.817 477.548
43 1 48.0764 10.2753 494 41.4818 605.83 466.632
44 0 45.0358 10.858 489 41.4049 606.305 464.628
45 0 47.1203 11.1629 526 41.2395 605.428 465.348
46 0 49.1301 10.808 531 41.145 605.109 465.055
47 0 50.1537 10.5875 531 41.2655 605.175 463.689
48 0 51.0711 10.7497 549 41.2149 605.235 463.055
49 0 54.078 10.4294 564 41.4699 605.449 462.113
50 0 55.1706 11.546 637 40.1099 604.848 463.813
51 0 59.3451 11.1382 661 40.0076 604.885 462.525
52 0 58.4076 11.1801 653 40.2343 605.478 461.804
53 0 60.3345 10.9722 662 40.1858 605.16 459.272
54 0 64.1545 11.0514 709 40.0705 605.154 459.852
55 0 63.2378 11.5121 728 40.1552 605.161 455.665
56 0 65.4261 12.0288 787 40.2109 604.113 456.266
57 0 69.3703 11.3737 789 40.5209 605.071 454.66
58 0 71.234 11.1885 797 40.9335 605.558 453.947
59 1 114.398 10.3411 1183 35.6213 605.77 462.201
60 1 276.784 11.3843 3151 42.6579 605.428 356.284
61 0 278 11.7446 3265 42.0361 606.364 358.206
62 0 278.772 11.5184 3211 42.4541 605.257 359.203
63 1 301.903 18.3999 5555 33.4923 604.703 391.972
64 1 88.3569 10.9782 970 41.6021 604.602 447.511
65 0 89.3965 11.6112 1038 41.8497 606.015 445.927
66 0 91.275 11.6023 1059 42.2502 605.546 444.141
67 0 93.3361 11.3032 1055 42.7934 605.455 443.579
68 0 97.2645 11.3813 1107 42.5863 606.348 441.355
69 1 51.1915 10.6854 547 42.6527 606.91 463.631
70 0 56.2272 10.5821 595 42.4168 606.323 463.886
71 0 55.2941 11.5021 636 42.1572 605.443 463.093
72 0 57.1143 11.0305 630 42.6984 605.286 461.492
73 0 59.2561 11.5094 682 42.1979 606.041 459.793
74 0 59.2738 10.8817 645 43.2837 605.913 458.567
75 0 63.3354 10.9102 691 42.5326 605.792 457.815
76 0 63.1433 11.8619 749 42.0988 605.854 455.474
77 0 67.24 11.7043 787 41.8958 606.053 454.695
78 0 67.1077 12.0553 809 42.0816 606.056 453.632
79 0 69.1961 12.3995 858 41.796 606.097 453.251
80 0 70.3048 11.1657 785 43.0917 605.716 452.8
81 0 74.2527 12.3228 915 41.9836 606.486 450.554
82 0 75.3649 11.2519 848 43.1757 605.244 450.496
83 1 103.504 12.7049 1315 37.3384 605.294 455.264
84 1 81.2894 11.3299 921 43.4549 605.42 446.543
85 0 80.4565 11.5342 928 43.8545 605.849 445.498
86 0 85.2316 11.0053 938 44.4883 606.723 443.541
87 1 43.1155 9.81087 423 44.8558 606.603 466.024
88 0 44.0993 10.8165 477 43.566 606.073 465.629
89 0 47.0533 10.69 503 43.9503 606.03 464.944
90 0 45.1127 11.305 510 44.1196 606.857 462.549
91 0 47.2049 10.7404 507 44.9546 606.458 462.414
92 0 49.3823 10.9351 540 44.5667 606.278 461.835
93 0 51.1687 10.612 543 45.1105 606.825 461.853
94 0 54.1749 11.0014 596 43.9933 605.935 460.671
95 0 53.1337 10.3701 551 45.6352 606.55 461.18
96 0 56.2289 11.2753 634 44.0457 606.691 462.306
97 0 58.0871 11.1901 650 44.4785 606.231 460.965
98 0 58.1089 11.7538 683 43.9268 606.678 456.854
99 0 58.0639 11.7112 680 44.1926 606.568 456.822
100 0 62.1797 11.7723 732 43.7568 606.739 457.286
101 0 65.0318 11.1792 727 44.0646 607.183 455.029
102 0 66.081 11.5767 765 44.0693 606.736 455.458
103 0 69.0793 12.4495 860 42.6535 605.84 455.69
104 0 71.0707 11.8051 839 43.3504 607.167 452.579
105 0 72.1306 12.2001 880 43.4295 606.56 450.633
106 0 76.103 12.286 935 43.3797 607.078 450.093
107 0 81.1263 11.5129 934 44.1146 606.465 448.446
108 0 81.3211 11.2271 913 44.7338 606.765 447.659
109 0 81.1058 11.4295 927 45.4876 606.665 445.995
110 0 88.2517 11.2519 993 45.4532 606.915 446.908
111 1 43.0753 9.7968 422 46.154 606.9 466.742
112 0 44.12 10.1315 447 46.4049 607.255 467.902
113 0 49.0898 10.2873 505 45.8574 607.451 466.226
114 0 48.0585 10.7993 519 46.2543 606.632 465.006
115 0 50.164 11.901 597 44.8392 607.06 466.563
116 0 48.1026 11.2468 541 46.1331 607.17 464.854
117 0 53.149 11.289 600 45.6717 607.777 463.058
118 0 52.1146 11.8201 616 45.8604 607.487 463.86
119 0 56.0621 11.4338 641 45.6459 607.468 464.083
120 0 55.095 10.7995 595 47.3681 606.891 462.247
121 0 59.1624 11.3586 672 45.8824 607.177 465.058
122 0 58.0745 11.6574 677 46.4594 607.71 463.628
123 0 57.0525 11.8487 676 46.8787 608.111 460.229
124 0 60.0865 11.7164 704 46.6562 606.446 460.111
125 0 61.1593 11.936 730 46.9548 606.704 459.558
126 0 65.0985 11.2752 734 47.0027 606.944 458.379
127 0 67.1662 11.6874 785 46.828 606.692 455.904
128 0 70.1158 11.4668 804 46.6716 606.05 454.75
129 0 71.1476 11.6378 828 46.5676 606.727 453.06
130 0 76.2075 11.0225 840 46.4798 606.932 450.769
131 0 76.2052 11.8233 901 45.9889 606.366 451.495
132 0 78.1807 11.3199 885 46.1458 606.564 450.598
133 0 80.1117 12.1955 977 45.5292 606.274 447.892
134 0 84.3891 10.8189 913 46.4315 605.725 445.438
135 0 85.2555 11.6708 995 45.2905 606.183 445.386
136 1 43.0611 9.89291 426 45.9202 606.561 466.383
137 0 45.2059 10.5075 475 45.0042 605.798 466.004
138 0 44.1575 10.2134 451 45.7738 605.45 465.55
139 0 47.1598 10.581 499 44.1603 605.182 464.427
140 0 50.1775 10.4828 526 44.019 605.8 462.749
141 0 51.2284 11.0876 568 43.6725 605.938 461.287
142 1 85.4304 9.11853 779 39.715 605.591 464.436
143 1 52.1148 11.2444 586 43.6297 606.14 459.985
144 0 53.158 11.2119 596 43.4413 606.112 459.23
145 0 56.2247 10.5292 592 43.951 606.017 457.331
146 0 58.2889 11.4773 669 43.3004 606.786 457.079
147 0 60.2228 11.1918 674 43.2745 606.209 456.337
148 0 63.1937 11.8524 749 42.4833 607.003 456.47
149 0 64.2019 10.685 686 44.1239 607.074 454.41
150 0 65.2584 11.4468 747 43.2276 607.228 452.847
151 0 70.2415 11.1473 783 43.2989 607.066 452.309
152 0 71.0918 11.6047 825 43.2461 607.118 450.821
153 0 76.3008 11.6775 891 43.101 607.375 450.896
154 0 78.2597 11.7941 923 43.0899 606.788 449.285
155 0 83.2453 11.2919 940 43.4319 607.496 449.469
156 0 83.2524 10.6784 889 44.6164 607.668 446.429
157 1 46.1785 10.4161 481 43.8898 607.11 464.48
158 0 45.1833 10.0037 452 44.5575 607.033 464.144
159 0 48.1674 10.7542 518 43.7876 606.913 464.606
160 0 50.1873 10.9191 548 43.4416 607.887 463.422
161 0 50.1998 11.4742 576 43.2517 607.79 463.583
162 0 54.2446 11.2269 609 42.8325 607.946 463.438
163 0 54.1402 10.1219 548 44.6679 606.588 461.159
164 0 56.1801 10.3239 580 44.7224 608.216 462.052
165 0 57.142 10.8852 622 44.1206 607.846 460.365
166 0 62.1636 10.5206 654 44.0352 607.287 458.471
167 1 121.285 7.74211 939 38.6177 608.294 467.162
168 1 62.0674 10.7303 666 43.9144 608.041 455.377
169 0 67.1803 11.7594 790 42.538 607.01 456.691
170 0 68.1814 11.9681 816 42.7353 606.901 455.332
171 0 72.0795 11.9174 859 42.8824 607.122 454.352
172 0 74.1771 11.8635 880 42.9875 606.762 454.384
173 0 77.114 12.5269 966 42.4648 606.898 453.461
174 0 80.1986 12.4815 1001 42.3866 606.785 451.531
175 0 81.0628 11.8057 957 43.1797 605.982 449.592
176 0 83.1158 11.887 988 43.2824 606.438 449.562
177 0 86.1823 12.2763 1058 42.827 605.929 448.454
178 0 90.1886 11.731 1058 43.086 605.496 446.302
179 0 97.2249 11.962 1163 42.5039 605.193 445.241
180 1 49.0676 10.1697 499 44.0261 606.064 467.459
181 0 50.0496 10.6694 534 44.1873 606.463 465.89
182 0 50.0496 10.4696 524 213.781 607.469 465.948
183 0 53.0311 10.1827 540 45.3667 606.254 463.098
184 0 55.0499 11.1354 613 44.6199 606.144 463.6
185 0 57.0184 11.8207 674 43.5519 606.197 463.12
186 0 60.0249 11.6618 700 43.6457 606.453 463.044
187 0 58.0967 11.1366 647 44.51 605.714 459.822
188 0 66.0519 11.279 745 43.1597 605.132 459.707
189 0 62.1712 11.4683 713 44.3268 604.827 457.969
190 0 64.124 11.1347 714 44.0714 605.398 457.496
191 1 100.038 11.3757 1138 37.6678 605.047 463.547
192 1 70.1409 11.9189 836 42.5825 604.715 455.98
193 0 70.1007 11.9685 839 42.9046 604.862 454.554
194 0 75.1028 11.5442 867 42.7128 606.217 453.483
195 0 79.0806 11.3176 895 42.7955 605.379 451.188
196 0 80.1414 11.7293 940 42.6723 605.836 449.917
197 0 84.1522 10.9445 921 43.2334 605.105 445.625
198 0 85.1388 11.5576 984 42.7043 605.566 447.042
199 0 88.1894 11.3279 999 42.964 605.937 444.427
200 0 93.1022 11.192 1042 42.9885 606.029 443.065
201 0 98.4752 12.1858 1200 42.0242 606.614 443.543
202 0 97.1237 11.1404 1082 43.5333 606.469 438.678
203 1 52.1256 9.362 488 43.6906 607.232 462.17
204 0 53.1183 10.2036 542 43.4077 607.089 460.886
205 0 55.069 10.3688 571 43.3503 607.687 459.429
206 0 55.0738 10.4587 576 43.3594 606.925 459.826
207 0 59.1109 11.3177 669 42.2481 606.707 459.614
208 0 61.0998 10.0982 617 43.5883 606.825 457.694
209 0 61.1163 11.1754 683 42.7086 606.75 457.898
210 0 62.087 11.1456 692 43.0853 607.754 456.53
211 0 70.1586 11.4455 803 41.7758 606.752 455.89
212 0 67.2268 11.6918 786 42.5751 606.136 455.014
213 0 70.2926 11.1534 784 43.0753 606.966 453.582
214 0 71.2632 11.7873 840 42.8393 607.381 451.149
215 0 74.1227 11.5484 856 43.0479 606.658 451.243
216 0 75.2045 10.651 801 44.2347 606.333 448.598
217 0 83.2845 11.6948 974 43.0893 607.824 448.065
218 0 82.1933 10.8525 892 44.4922 607.738 444.92
219 1 112.323 12.8914 1448 37.5739 607.939 453.262
220 1 89.3474 11.9421 1067 43.2474 607.853 445.305
221 0 95.4197 11.4966 1097 43.5196 607.589 443.029
222 0 98.3624 11.4475 1126 43.0639 606.973 441.885
223 1 50.0734 9.38623 470 43.6553 607.819 465.77
224 0 51.0966 9.88325 505 43.5307 606.689 465.572
225 0 53.071 10.0997 536 43.7239 605.718 463.942
226 0 54.0308 10.42 563 43.2877 606.204 461.886
227 0 56.07 11.236 630 42.7079 606.719 460.863
228 1 108.55 8.05157 874 37.8066 605.007 469.322
229 1 60.0987 10.4495 628 43.4713 605.347 460.471
230 0 61.1807 10.8694 665 42.9053 605.896 461.012
231 0 63.0396 11.4531 722 42.5679 605.982 460.38
232 0 63.0908 11.317 714 42.6471 606.777 459.776
233 0 64.0442 10.1024 647 44.0556 606.552 455.45
234 0 71.1032 11.2372 799 42.0738 606.247 457.416
235 0 70.0632 11.5182 807 42.28 606.461 456.768
236 0 73.1219 10.9817 803 41.9863 606.212 455.71
237 0 75.1588 11.6154 873 41.4971 606.293 454.937
238 1 110.325 11.4298 1261 36.5718 606.208 460.485
239 1 81.0754 11.4831 931 41.6187 606.241 452.783
240 0 79.1204 10.8316 857 42.7573 605.597 450.72
241 0 84.1106 11.1163 935 42.7219 605.537 450.245
242 0 84.1536 11.6929 984 42.3079 605.036 448.347
243 1 111.242 13.7897 1534 35.5671 605.141 456.306
244 1 93.1662 11.721 1092 41.4267 605.717 447.43
245 0 97.1072 12.1309 1178 40.1723 605.866 445.75
246 0 98.0906 11.8462 1162 41.0052 605.384 444.121
247 0 104.196 11.5455 1203 41.0283 605.333 442.983
248 1 55.0528 10.608 584 40.5908 603.885 466.865
249 0 53.0409 11.2178 595 40.7513 605.346 466.956
250 0 55.1846 11.0719 611 40.7381 605.764 464.599
251 0 58.0472 11.5595 671 40.9911 605.656 465.203
252 0 59.1801 11.4566 678 41.5752 604.388 464.248
253 0 60.0739 11.8687 713 40.9369 605.083 463.417
254 0 62.0978 11.0793 688 41.4622 604.587 460.66
255 0 64.1307 11.7105 751 40.6285 604.908 461.129
256 0 64.181 10.3925 667 42.1799 605.505 459.255
257 0 68.1963 11.159 761 41.385 605.729 459.535
258 0 71.1294 12.189 867 39.9896 604.623 458.812
259 0 73.1808 11.6424 852 40.892 604.977 456.827
260 0 77.1736 11.4936 887 40.8771 603.961 455.284
261 0 76.1558 11.1745 851 41.3772 604.839 451.798
262 0 82.3235 12.4509 1025 39.8722 604.471 452.737
263 0 84.1698 11.1441 938 41.2516 604.428 449.387
264 0 86.3537 10.9897 949 41.8746 603.436 447.781
265 0 91.3232 12.1875 1113 40.6469 603.727 448.074
266 0 95.3495 11.1904 1067 41.5604 603.934 444.589
267 0 96.4448 12.1728 1174 40.9216 603.75 444.018
268 1 49.068 10.4345 512 41.1934 604.916 467.078
269 0 51.0457 11.5387 589 40.3888 603.869 466.45
270 0 53.0547 10.7248 569 41.5202 604.09 464.473
271 0 52.0543 11.123 579 41.9016 604.522 461.794
272 0 55.0783 11.2567 620 41.8 603.827 461.279
273 0 56.0529 11.3821 638 41.2696 604.351 461.936
274 0 58.0494 11.1629 648 42.0216 604.34 460.54
275 0 61.0504 11.859 724 40.8923 604.178 460.18
276 0 64.0405 11.8519 759 40.7866 603.66 457.804
277 0 63.071 10.8132 682 42.2419 604.623 456.304
278 0 67.1016 11.4155 766 41.4112 604.183 455.482
279 0 71.1294 11.936 849 40.5453 604.816 454.389
280 0 70.2351 11.4615 805 40.9938 604.265 452.4
281 0 71.0783 10.3407 735 41.9578 603.424 449.188
282 0 76.1673 12.2231 931 39.6509 603.751 450.74
283 0 79.1799 11.6317 921 39.7134 603.936 450.127
284 0 81.1998 11.3054 918 40.0196 604.115 448.216
285 1 23.0566 12.144 280 12.225 604.204 518.2
286 1 8.20643 7.6769 63 13.0159 606.873 508.841
287 0 11.3561 5.54766 63 13.1746 607.54 508.746
288 1 93.1666 11.3882 1061 39.9029 604.51 441.446
289 0 95.1171 11.5647 1100 40.0155 605.103 439.8
290 0 99.1637 11.8693 1177 39.8063 605.042 439.465
291 0 102.105 10.8222 1105 40.7864 605.164 436.13
292 0 107.26 11.9896 1286 39.7232 605.537 436.087
293 1 53.0251 10.4667 555 40.3171 606.196 461.205
294 0 55.039 10.2473 564 40.4149 605.83 460.972
295 0 58.0336 11.1487 647 39.6832 605.017 460.269
296 0 60.0318 11.6438 699 39.3577 605.536 460.07
297 0 61.1196 11.682 714 39.4594 605.382 456.913
298 0 63.0581 10.9264 689 40.2075 605.34 454.946
299 0 68.0676 11.753 800 39.0575 605.899 457.59
300 0 66.0865 10.6527 704 40.9332 606.085 454.119
301 0 67.1017 11.8626 796 39.9912 605.818 454.073
302 0 71.0782 10.3407 735 40.9401 605.042 451.637
303 0 73.1208 11.31 827 40.2104 606.088 450.877
304 0 76.1089 12.377 942 39.3344 605.504 451.163
305 0 75.1791 11.1467 838 41.3437 605.839 447.628
306 1 109.258 12.5941 1376 35.1991 605.961 454.742
307 1 79.1211 11.3371 897 41.8685 606.147 444.758
308 0 81.2678 10.8653 883 42.4168 605.256 442.049
309 0 88.0514 10.6302 936 42.812 605.464 440.15
310 0 88.1027 11.2028 987 43.0973 604.529 440.733
311 1 40.0561 10.1358 406 42.2167 605.493 465.64
312 0 45.1352 9.394 424 42.5519 606.491 463.321
313 0 47.0978 9.59706 452 42.4535 607.128 462.338
314 0 47.0903 10.448 492 40.8801 606.963 461.553
315 0 48.0786 10.67 513 41.0994 606.522 463.503
316 0 50.0664 10.546 528 41.0928 606.345 461.583
317 0 50.0708 10.6649 534 41.5487 606.547 460.955
318 0 52.1169 10.5916 552 41.7301 607.259 460.181
319 0 51.1096 11.2308 574 41.7526 607.422 457.739
320 0 57.0376 10.1687 580 42.1086 608.074 458.853
321 0 58.1662 10.0402 584 42.6113 608.911 457.205
322 0 57.1057 11.1547 637 42.2763 607.885 458.228
323 0 59.0543 10.9391 646 42.6703 607.87 457.472
324 0 62.0932 10.9352 679 42.134 607.395 454.486
325 1 102.49 9.92295 1017 37.3255 607.652 459.152
326 0 105.662 9.96577 1053 37.1842 607.591 460.66
327 1 68.1634 11.6338 793 42.3897 607.385 454.441
328 0 72.1419 10.8536 783 42.9936 608.142 452.728
329 0 72.1665 10.6698 770 42.8494 607.871 452.294
330 1 182.344 12.8055 2335 35.2835 606.949 441.417
331 1 131.493 15.0807 1983 29.5093 607.635 425.729
332 1 175.468 12.5778 2207 33.7558 608.143 438.986
333 1 83.2902 11.2618 938 41.7484 607.701 447.615
334 0 81.2664 12.0345 978 42.409 607.168 446.781
335 0 83.2027 10.9852 914 43.9464 606.906 443.745
336 0 89.1539 11.0259 983 45.2614 607.122 443.514
337 0 89.1649 11.3385 1011 45.5124 606.617 443.167
338 0 97.0699 11.3835 1105 44.3656 606.764 442.784
339 1 131.787 12.8313 1691 37.9036 606.674 451.024
340 1 0 0 0 -nan -nan -nan
341 0 0 0 0 -nan -nan -nan
342 0 8.08522 7.91567 64 13.6562 605.781 506.906
343 1 43.1081 9.04703 390 44.259 607.364 468.056
344 0 43.1011 9.3733 404 43.7228 606.609 469.671
345 0 47.0698 9.90018 466 43.412 606.249 469.06
346 0 44.0439 9.89921 436 44.0596 606.454 468.007
347 0 46.2238 10.2328 473 43.3784 605.102 466.615
348 0 48.1542 9.84339 474 44.3397 605.538 466.196
349 0 51.2007 9.16003 469 44.838 605.486 464.921
350 0 47.1529 9.88274 466 45.0494 605.255 464.511
351 0 53.1691 9.94938 529 43.9301 605.342 465.382
352 1 83.6884 9.43978 790 38.8722 605.332 469.947
353 1 57.1079 10.2613 586 43.4181 604.364 463.669
354 0 61.2085 10.3907 636 43.0597 604.348 464.748
355 0 59.2497 9.95785 590 44.3085 605.214 462.705
356 0 63.166 10.7969 682 42.7346 604.629 464.345
357 0 64.0857 10.4548 670 43.5716 604.654 462.839
358 0 66.1584 10.7016 708 43.4181 605.592 461.972
359 0 67.1016 9.89544 664 44.247 605.197 458.822
360 0 69.1098 10.2735 710 43.762 604.807 458
361 0 71.167 10.4121 741 43.9123 604.393 457.808
362 0 74.1046 10.0264 743 43.5357 604.816 454.68
363 0 75.1596 10.8569 816 42.6544 604.923 456.289
364 0 77.1702 9.86132 761 43.435 604.769 454.428
365 0 79.2279 10.7412 851 42.6122 604.881 454.029
366 1 33.0481 9.2895 307 43.3681 605.401 472.922
367 0 36.0339 8.88052 320 43.9625 603.928 472.769
368 0 39.1517 9.16945 359 42.8329 603.872 471.688
369 0 41.1587 9.23257 380 42.8921 604.274 468.813
370 0 42.0553 9.96307 419 42.1193 604.73 467.678
371 1 69.3103 9.10398 631 37.1712 604.873 472.807
372 1 97.1784 10.2389 995 42.9467 604.431 439.473
373 0 99.1587 11.1236 1103 41.6709 604.472 438.618
374 0 105.174 11.8566 1247 40.846 605.003 438.079
375 0 105.221 11.5376 1214 40.9646 604.947 435.663
376 0 108.186 10.5836 1145 42.4061 604.939 433.309
377 0 110.151 10.6309 1171 42.4518 604.11 429.61
378 0 118.234 11.2066 1325 41.594 605.021 429.901
379 1 90.8772 9.45232 859 36.8452 604.764 465.253
380 1 60.079 11.435 687 40.8763 605.259 459.977
381 0 59.0523 12.0063 709 40.7941 605.347 459.766
382 0 58.021 11.0305 640 42.2453 604.706 457.939
383 0 60.0338 11.2936 678 42.1829 605.063 456.364
384 0 62.1634 11.5019 715 42.1776 605.425 456.839
385 0 63.1527 11.7018 739 42.1678 604.763 454.655
386 0 67.1487 10.9161 733 42.3506 604.955 452.015
387 0 66.1816 10.9698 726 42.2906 605.253 450.478
388 1 100.578 12.2691 1234 35.607 605.054 458.934
389 1 75.2562 11.7067 881 40.8161 605.522 450.678
390 0 72.113 10.6083 765 42.5752 606.114 445.689
391 0 78.2206 12.0301 941 40.8725 605.515 448.082
392 0 79.2166 11.7273 929 41.324 606.002 446.893
393 0 80.1234 11.5322 924 41.5206 605.69 443.678
394 0 87.0573 11.5326 1004 41.2629 606.042 443.953
395 0 87.1457 11.3832 992 41.7944 605.553 442.175
396 0 89.1525 11.2055 999 42.043 604.862 441.533
397 0 93.1549 11.1213 1036 42.2365 605.08 438.571
398 0 93.2154 11.0068 1026 42.3304 605.806 437.167
399 0 98.0814 11.2763 1106 42.0497 605.878 438.004
400 0 100.104 11.1584 1117 42.2954 605.886 434.555
401 1 47.0397 11.0545 520 42.8269 606.004 460.738
402 0 52.0755 11.1953 583 41.8765 605.233 460.506
403 0 53.0367 10.6341 564 42.5922 604.459 459.277
404 0 53.053 11.6299 617 42.2366 605.272 459.447
405 0 55.1623 10.6776 589 42.8998 604.885 457.949
406 0 59.0688 11.7659 695 41.7295 605.977 457.07
407 0 58.1413 11.2829 656 42.468 604.715 457.477
408 0 58.1181 11.0809 644 43.0155 603.632 454.422
409 0 64.1555 11.893 763 41.7497 604.267 455.668
410 0 68.1036 12.2607 835 40.6826 605.298 456.334
411 1 173.189 14.5737 2524 36.0741 604.798 434.976
412 1 137.182 11.9112 1634 43.1658 604.61 419.761
413 0 136.255 11.3611 1548 43.9858 604.478 418.067
414 0 137.255 12.342 1694 43.0307 604.632 420.535
415 1 116.114 11.8073 1371 35.9533 604.433 457.346
416 1 77.1093 11.996 925 41.8843 603.901 448.954
417 0 79.1559 12.6207 999 41.6907 604.522 448.739
418 0 82.1044 11.9482 981 42.1519 603.685 446.9
419 0 88.2084 12.7652 1126 41.0995 604.493 448.13
420 0 86.0576 11.2367 967 43.0796 604.29 443.796
421 0 92.1267 13.2969 1225 41.1135 604.732 447.204
422 0 94.2534 12.3285 1162 41.9966 604.476 443.871
423 0 97.107 12.3266 1197 42.2448 604.406 443.001
424 0 103.277 13.3911 1383 40.7701 603.784 443.555
425 0 103.141 11.1982 1155 43.2978 603.739 437.902
426 1 43.0972 11.2536 485 41.2474 604.621 470.082
427 0 41.0538 10.9612 450 42.2533 604.911 468.133
428 0 42.0864 10.5022 442 42.733 604.554 467.545
429 0 46.1993 10.6495 492 42.2622 604.213 467.478
430 0 46.0807 10.4816 483 42.6377 604.484 467.48
431 0 49.0331 11.4616 562 41.7349 604.327 467.865
432 0 48.097 11.1649 537 42.4898 605.007 467.061
433 0 49.1048 10.4878 515 43.4777 604.19 464.332
434 0 52.236 10.644 556 43.4173 604.043 463.667
435 0 55.1416 11.7878 650 42.2631 604.771 463.948
436 0 56.0912 11.6952 656 42.9009 604.375 463.372
437 0 60.2013 11.5114 693 42.9538 603.984 462.932
438 0 58.1159 11.6663 678 43.9071 604.018 461.398
439 0 62.0677 11.7291 728 43.6923 603.276 460.604
440 0 64.0998 12.6053 808 43.1745 603.1 461.463
441 0 66.1426 11.9439 790 43.976 603.976 458.403
442 0 69.1401 11.8021 816 43.9412 603.717 457.527
443 0 70.0892 13.1689 923 42.636 603.933 458.028
444 0 71.131 11.7249 834 44.241 603.481 455.9
445 0 71.0538 12.0753 858 44.2995 603.467 454.866
446 0 73.1188 10.9821 803 45.543 604.178 451.973
447 1 173.15 15.7494 2727 37.5915 604.271 439.161
448 1 79.1611 11.6724 924 45.3052 604.621 449.486
449 0 83.1312 12.6306 1050 44.5457 603.809 450.954
450 0 88.3085 12.4224 1097 44.4795 604.023 450.095
451 0 89.1166 11.3896 1015 45.7498 604.933 446.844
452 0 92.216 10.8875 1004 46.2092 604.49 444.296
453 0 97.2622 13.1706 1281 43.9321 604.446 445.681
454 0 99.2443 12.3634 1227 45.0147 603.734 441.747
455 0 101.218 12.1125 1226 45.292 603.702 441.166
456 0 102.223 11.1423 1139 46.5733 604.162 436.796
457 1 138.433 13.3422 1847 39.7721 604.484 447.611
458 1 51.135 11.5185 589 45.6112 604.976 465.358
459 0 51.086 11.2555 575 46.0365 605.546 462.939
460 0 53.118 10.8814 578 46.1955 605.697 463.242
461 0 54.1722 10.762 583 46.3293 605.475 462.021
462 0 59.2073 11.8398 701 44.9486 605.775 461.92
463 0 59.0607 10.8532 641 46.2184 605.833 459.902
464 0 60.2172 12.6376 761 44.8949 605.679 459.813
465 0 60.1622 11.602 698 46.2192 606.118 457.681
466 0 65.064 11.9421 777 45.7078 604.934 457.753
467 0 64.2608 11.1888 719 47.1405 605.134 454.483
468 0 72.1168 12.1886 879 45.6041 604.571 455.532
469 0 70.2506 11.402 801 47.5568 605.402 453.732
470 0 72.1914 11.7604 849 47.2179 605.583 452.57
471 0 78.2408 12.6916 993 46.3243 606.014 452.239
472 0 79.3703 11.3897 904 48.115 605.889 449.506
473 0 82.3316 12.3646 1018 47.1631 606.114 448.935
474 0 83.4039 10.8628 906 49.0155 606.156 446.163
475 0 87.1802 12.3537 1077 47.7242 605.889 446.75
476 1 44.0835 10.6162 468 49.4936 606.853 465.092
477 0 48.1805 11.0833 534 48.5019 606.521 464.577
478 0 50.1126 10.2569 514 49.5837 606.268 463.78
479 0 54.1538 12.2614 664 47.0105 605.467 463.551
480 0 52.2018 11.6279 607 48.687 606.153 461.611
481 0 53.1393 10.3501 550 50.0927 606.182 459.582
482 0 57.0769 11.2655 643 49.0809 605.942 460.4
483 0 59.0871 10.4591 618 50.0372 606.432 458.16
484 0 61.0802 12.7537 779 48.4904 606.727 458.68
485 0 63.3586 12.0583 764 49.2893 606.576 457.191
486 0 62.2748 11.7865 734 50.2738 606.91 456.128
487 0 64.5373 11.0789 715 51.1077 606.07 453.866
488 0 68.1532 10.6525 726 51.6749 606.828 452.547
489 0 68.0505 11.1094 756 51.8929 607.374 450.414
490 0 68.0942 10.8967 742 52.4353 607.042 450.174
491 0 73.2248 10.379 760 52.5684 607.433 450.793
492 0 80.2535 12.7471 1023 49.9003 607.144 454.206
493 0 83.196 11.551 961 51.2456 607.559 451.717
494 0 82.2631 10.9891 904 52.5796 607.715 449.97
495 0 85.3556 12.8287 1095 50.5397 607.367 449.002
496 1 40.2186 11.2137 451 53.133 606.576 468.472
497 0 42.0486 10.4403 439 53.1071 606.699 468.184
498 0 43.141 10.8945 470 52.7404 607.021 466.634
499 0 44.0915 11.5215 508 52.9114 606.957 467.191
500 0 48.21 12.2381 590 50.9763 607.393 466.571
501 0 50.0736 10.9439 548 52.0803 607.033 466.706
502 0 47.17 11.4692 541 52.4251 606.889 465.288
503 0 52.0475 10.721 558 52.3925 606.228 464.72
504 0 52.0518 11.1427 580 52.1241 605.929 463.324
505 0 58.126 11.7847 685 51 606.401 463.639
506 0 58.1803 12.0488 701 51.2511 606.909 462.623
507 0 61.3461 12.7962 785 49.9873 607.325 463.382
508 0 58.0928 11.3095 657 52.7078 606.72 460.922
509 0 64.1095 12.4007 795 51.7887 606.902 460.399
510 0 65.0555 12.2511 797 51.9636 606.453 460.281
511 0 69.4008 12.1901 846 51.727 606.116 456.729
512 0 66.0952 11.786 779 53.4454 606.098 456.324
513 0 69.0346 12.2837 848 53.4505 605.974 455.982
514 0 72.1695 12.4152 896 53.0848 607.067 454.912
515 0 76.1973 11.4965 876 54.0285 606.417 454.099
516 0 75.1264 12.1529 913 54.3866 605.755 452.524
517 0 83.0787 12.3858 1029 53.4072 605.2 452.787
518 0 84.1966 12.2808 1034 54.0783 605.024 450.909
519 0 84.0871 12.38 1041 54.4995 605.07 450.966
520 0 88.2917 12.8325 1133 53.8764 605.832 449.185
521 1 42.0157 11.7575 494 56.6032 605.654 471.006
522 0 46.0269 12.1885 561 55.4848 606.005 470.964
523 0 47.0509 11.3919 536 56.0373 606.121 468.53
524 0 48.0275 10.4523 502 57.241 605.57 467.45
525 0 51.2016 11.7379 601 55.1414 605.827 468.473
526 0 52.0874 12.575 655 54.6168 605.608 468.977
527 0 56.0534 11.7923 661 54.3238 606.073 466.091
528 0 54.0761 11.8352 640 55.4594 605.861 464.7
529 0 57.0604 13.2141 754 53.4761 605.211 465.302
530 0 62.0352 11.7192 727 54.8047 604.856 464.272
531 0 62.0433 12.4107 770 54.2039 605.51 463.032
532 0 66.0276 12.2828 811 54.0296 605.859 460.883
533 0 67.1371 12.0351 808 54.5965 605.167 458.952
534 0 68.065 11.8416 806 55.3176 604.764 457.326
535 0 70.2014 12.2647 861 54.9199 604.948 456.196
536 0 73.1345 12.9351 946 54.1638 604.577 455.485
537 0 76.2029 12.6373 963 54.3614 604.518 454.942
538 0 77.1608 11.8843 917 55.1832 604.894 453.142
539 0 82.1419 12.3932 1018 54.3124 604.832 452.526
540 0 85.2075 12.9449 1103 53.7869 604.633 452.583
541 1 41.1758 10.2487 422 57.4597 604.929 470.55
542 0 40.0679 11.9298 478 56.6485 604.577 470.927
543 0 42.0675 12.0521 507 55.927 604.665 469.369
544 0 45.1515 12.2477 553 55.1266 605.79 469.204
545 0 45.1155 13.0554 589 54.3701 605.733 467.182
546 0 49.0627 12.27 602 54.5947 605.568 467.332
547 0 48.1153 12.5532 604 54.6076 605.308 465.394
548 0 52.0946 12.1318 632 54.3766 605.218 463.497
549 0 51.0932 12.624 645 60.7907 606.157 462.819
550 0 57.0616 12.4076 708 59.678 605.866 462.59
551 0 58.177 12.9776 755 58.0596 605.718 462.058
552 0 60.0562 12.9379 777 57.5521 604.794 460.565
553 0 62.0904 12.965 805 57.2323 606.046 460.599
554 0 66.2 13.3686 885 56.1808 605.514 459.181
555 0 66.1844 13.4775 892 56.3274 606.279 457.936
556 0 71.0684 12.6357 898 56.7261 606.136 456.716
557 0 72.1827 13.5213 976 55.1055 606.463 457.002
558 0 78.201 12.9026 1009 55.3191 606.411 455.486
559 0 78.1664 12.6653 990 55.7707 606.03 454.73
560 0 78.1941 12.9805 1015 55.6118 605.863 452.78
561 0 81.1358 12.9906 1054 55.5019 605.736 452.037
562 0 85.1646 13.7146 1168 54.3793 605.759 450.701
563 0 90.1342 13.5354 1220 54.0861 605.934 448.943
564 1 43.0476 10.9181 470 57.9043 605.179 470.638
565 0 42.0626 12.5765 529 57.0038 605.285 470.89
566 0 45.1498 13.5327 611 55.4174 605.486 470.807
567 0 47.0761 12.6604 596 56.2584 605.04 469.493
568 0 48.0858 11.5003 553 57.7559 604.655 467.065
569 0 52.2139 13.1766 688 55.4375 605.251 468.097
570 0 54.1215 12.4165 672 55.4643 605.433 467.891
571 0 55.1584 12.872 710 55.0408 605.211 467.716
572 0 55.054 13.405 738 54.8401 605.579 465.312
573 0 58.1651 12.2754 714 55.7521 605.111 464.469
574 0 61.1115 14.3017 874 53.0961 605.279 464.588
575 0 62.0889 13.8672 861 54.0604 605.424 463.358
576 0 63.2448 13.6454 863 54.1506 605.607 462.318
577 0 67.1769 14.3651 965 52.9814 605.222 461.775
578 0 68.0505 13.3136 906 54.7108 605.433 460.008
579 0 70.2898 14.3406 1008 53.9028 605.073 459.867
580 0 68.1434 12.6498 862 56.6601 604.563 457.209
581 0 73.1519 12.932 946 55.9471 604.754 456.867
582 0 74.268 13.6802 1016 55.627 605.15 455.137
583 0 78.5259 14.0845 1106 54.7504 604.771 454.512
584 0 81.274 14.1866 1153 54.7823 604.163 453.863
585 0 84.1802 13.4117 1129 55.5961 604.486 451.389
586 0 86.2278 13.07 1127 55.9095 604.336 448.98
587 0 89.3416 13.4876 1205 55.4539 603.693 447.945
588 1 37.0826 11.9733 444 58.7207 604.268 472.489
589 0 41.0817 12.536 515 57.0116 604.252 472.94
590 0 42.0755 12.026 506 57.6423 604.613 472.227
591 0 45.0782 12.5338 565 56.5858 604.653 473.104
592 0 46.0804 12.6735 584 56.6592 604.837 472.774
593 0 46.1101 12.7955 590 56.9339 605.17 471.186
594 0 45.1005 12.1285 547 58.5814 604.558 470.307
595 0 50.2251 12.2648 616 57.8685 604.258 469.32
596 0 50.1162 13.768 690 56.3725 604.828 469.399
597 0 51.1447 11.9269 610 58.2115 603.788 467.521
598 0 55.0363 12.8279 706 56.6473 603.898 467.089
599 0 57.2541 13.0471 747 56.0415 603.85 466.854
600 0 57.1361 12.654 723 56.787 603.639 464.903
601 0 63.1444 14.0947 890 54.4124 602.908 466.182
602 0 63.0818 12.1588 767 57.6076 602.89 464.138
603 0 64.084 12.983 832 56.8161 603.969 463.262
604 0 65.1258 12.0689 786 57.7456 603.448 461.45
605 0 68.0524 13.1663 896 56.5848 603.684 461.423
606 0 70.1233 12.8203 899 57.0122 603.991 459.525
607 0 73.1706 12.833 939 56.2258 604.094 460.023
608 0 75.1102 13.2206 993 56.0786 603.317 458.097
609 0 79.1396 13.0023 1029 55.6239 603.84 458.128
610 0 81.1547 12.7534 1035 55.4686 604.162 455.443
611 0 86.0948 12.4398 1071 55.4267 604.419 455.667
612 0 85.2344 12.5536 1070 56.0514 604.759 452.575
613 1 43.1331 12.1484 524 56.5744 604.322 474.193
614 0 46.1007 12.5378 578 55.3495 604.123 473.604
615 0 46.1285 10.7742 497 58.0141 603.547 471.561
616 0 48.0936 12.2262 588 56.8129 604.42 472.519
617 0 51.1751 12.3693 633 55.7536 603.741 470.779
618 1 76.1108 11.1022 845 51.3527 604.124 474.238
619 1 52.1286 13.4283 700 56.0357 602.453 469.321
620 0 56.0791 12.839 720 55.8944 603.931 468.806
621 0 58.1158 12.3718 719 56.217 604.403 465.853
622 0 56.2296 12.7335 716 56.6173 604.278 466.108
623 0 61.1312 12.1051 740 56.7 604.822 464.564
624 0 68.1294 13.2102 900 54.2878 604.238 465.069
625 0 65.1265 12.7137 828 56.07 605.11 462.521
626 0 73.1737 11.9988 878 56.2335 604.374 460.61
627 0 72.2266 11.9347 862 57.1067 604.935 458.945
628 0 72.1616 12.3889 894 57.4351 605.718 458.57
629 0 73.2373 11.9748 877 57.9567 605.274 455.865
630 0 76.2636 12.7846 975 57.4185 604.949 456.12
631 0 80.2342 12.4884 1002 57.4082 604.982 455.426
632 0 82.2941 12.7348 1048 57.3912 604.386 453.65
633 1 35.1559 12.6863 446 58.3744 604.262 474.013
634 0 38.0397 12.3029 468 58.547 605.169 473.432
635 0 38.1361 12.5341 478 58.795 605.427 472.841
636 0 39.031 10.9913 429 60.5128 604.107 470.627
637 0 44.068 12.5034 551 57.1524 604.319 471.33
638 0 44.0778 12.4553 549 57.3552 604.301 471.648
639 0 43.0707 12.7465 549 57.5993 604.732 469.076
640 0 49.0993 12.5867 618 56.2557 605.116 468.791
641 0 47.0921 13.3568 629 56.504 605.324 468.844
642 0 51.1015 12.4458 636 57.1777 605.121 466.082
643 0 52.1718 12.7847 667 57.1889 604.655 466.289
644 0 53.1271 11.5384 613 58.3393 604.932 463.754
645 0 54.0832 13.1649 712 57.0871 605.09 463.919
646 0 56.0896 13.7459 771 56.3787 605.532 463.252
647 0 59.0723 11.4267 675 58.5156 605.126 460.481
648 0 63.1266 13.2115 834 56.446 604.805 461.45
649 0 62.0892 13.6094 845 56.6651 605.257 460.727
650 0 64.1937 13.5216 868 56.682 604.682 458.929
651 0 68.1413 13.1345 895 56.7821 605.682 457.672
652 0 71.2517 13.1646 938 56.5309 605.101 456.144
653 0 71.1503 14.4202 1026 55.7407 604.489 455.145
654 0 73.2069 14.1243 1034 56.4294 604.984 454.478
655 0 78.181 14.0699 1100 55.8673 604.263 453.209
656 0 78.0743 13.5256 1056 56.9394 604.606 450.945
657 0 80.1371 13.5019 1082 57.2255 604.953 449.536
658 0 83.1608 13.8888 1155 56.7472 605.456 448.893
659 0 86.2434 14.3431 1237 56.5635 605.201 447.12
660 0 88.1982 13.6738 1206 57.6285 605.33 445.6
661 0 91.2286 13.2305 1207 58.0754 605.208 443.632
662 0 98.16 13.804 1355 56.8081 604.844 442.919
663 0 98.1652 13.844 1359 57.6703 605.477 441.039
664 1 47.0462 12.3921 583 59.7238 605.902 467.005
665 0 46.1191 11.9907 553 61.5642 605.702 463.996
666 0 46.0858 12.6069 581 61.6334 605.625 464.704
667 0 48.022 11.224 539 63.7032 605.609 462.549
668 0 50.0437 11.9296 597 63.2663 605.975 462.318
669 0 51.0685 12.5126 639 62.8513 606.421 462.501
670 0 53.0898 12.6201 670 62.897 606.178 462.052
671 0 55.2065 13.8752 766 61.3159 606.025 460.646
672 0 55.1601 13.1436 725 62.6303 605.949 459.112
673 0 57.1099 13.01 743 63.323 606.432 459.257
674 0 64.1112 13.9445 894 60.9485 606.519 459.866
675 0 67.0968 14.0245 941 60.4686 606.719 459.596
676 0 66.1619 13.346 883 62.7497 606.646 458.099
677 0 69.2254 14.2433 986 61.5264 606.408 456.265
678 0 70.1784 13.9074 976 62.4928 607.156 455.713
679 0 73.3207 13.4614 987 63.1317 607.365 455.341
680 0 73.1244 12.9916 950 64.4568 607.841 452.609
681 0 81.2271 13.0006 1056 63.2093 607.415 451.748
682 0 80.1194 13.9292 1116 62.7509 606.72 451.321
683 0 85.1577 12.6471 1077 63.8589 606.927 449.789
684 0 87.2603 13.2936 1160 63.2172 606.999 448.508
685 0 93.1907 12.9519 1207 62.3314 606.626 447.307
686 0 93.2648 13.0918 1221 62.7281 607.097 447.355
687 0 96.1507 13.1564 1265 62.5992 606.629 446.953
688 0 101.182 13.115 1327 62.682 606.095 444.62
689 1 48.0704 12.3985 596 65.948 606.008 468.404
690 0 45.0411 11.9002 536 67.6157 606.892 466.8
691 0 51.1355 12.4375 636 65.3836 606.252 467.659
692 0 52.326 13.5879 711 63.5373 606.828 467.868
693 0 56.0452 12.936 725 64.3531 606.388 467.597
694 0 56.1333 11.7221 658 66.8754 606.719 465.422
695 0 60.0592 13.2536 796 63.3819 606.421 466.543
696 0 60.0667 12.4362 747 65.1794 605.308 463.691
697 0 62.0776 11.9206 740 65.6081 605.627 463.095
698 0 65.0669 13.5399 881 63.084 605.539 463.747
699 0 64.1951 11.2781 724 66.5801 605.325 459.269
700 0 68.0512 13.1225 893 64.3427 605.131 460.215
701 0 71.0898 13.5041 960 63.5094 605.27 460.385
702 0 73.0722 12.8229 937 64.5101 605.868 458.56
703 0 76.1022 13.968 1063 62.3556 605.278 458.386
704 0 79.1007 13.4638 1065 62.7709 604.737 457.199
705 0 79.2486 12.5428 994 64.7153 605.254 456.424
706 0 81.124 13.8184 1121 62.5272 605.287 454.742
707 0 82.1448 12.7945 1051 63.687 604.795 452.997
708 0 84.2308 12.2164 1029 65.0554 605.128 450.107
709 0 90.1756 13.7066 1236 61.9895 605.516 451.964
710 0 92.2148 12.807 1181 62.8357 605.358 451.695
711 0 96.2605 12.9129 1243 62.5776 606.198 450.412
712 1 41.1178 12.5007 514 65.716 605.586 473.91
713 0 41.0519 13.5682 557 64.8959 604.876 473.935
714 0 42.0719 13.0491 549 65.7705 605.018 472.993
715 0 46.0448 12.7919 589 65.3005 605.019 472.154
716 0 50.0589 13.3642 669 63.722 603.804 472.299
717 0 53.1359 13.776 732 62.3415 603.65 471.174
718 0 51.0997 14.1292 722 63.777 604.681 470.292
719 0 55.2243 13.9431 770 63.2571 604.339 470.243
720 0 57.0476 14.0409 801 63.563 604.112 468.401
721 0 56.1524 14.0689 790 64.2506 603.814 466.573
722 0 60.0971 14.826 891 62.6319 604.211 466.079
723 0 60.0687 13.7343 825 64.9285 604.213 463.805
724 0 62.1099 14.5226 902 63.827 603.862 464.04
725 0 65.1046 14.1772 923 63.1289 603.921 462.109
726 0 68.1373 14.823 1010 61.9713 604.007 461.875
727 0 72.2513 14.6295 1057 61.7389 603.812 460.144
728 0 72.1504 14.7054 1061 62.5485 603.632 457.822
729 0 73.2554 14.2242 1042 63.5192 603.154 456.748
730 0 77.304 14.3589 1110 62.6577 603.63 456.929
731 0 80.1818 14.5295 1165 61.8292 603.655 454.034
732 0 82.2884 14.6072 1202 61.4925 604.345 452.354
733 0 87.1714 14.2363 1241 60.6519 604.608 451.374
734 0 89.1675 14.3886 1283 60.8995 604.938 451.027
735 0 94.321 13.9099 1312 60.8849 604.313 449.945
736 0 95.1679 14.4481 1375 60.3629 604.825 447.367
737 1 45.062 13.5591 611 64.2602 604.754 470.169
738 0 48.0754 13.77 662 63.6813 603.937 469.878
739 0 51.2152 13.7459 704 62.1222 604.768 469.014
740 0 51.0912 13.6618 698 63.1146 604.933 469.001
741 0 53.0936 14.1072 749 62.6355 603.413 467.802
742 0 53.1235 14.6263 777 62.2432 603.924 466.589
743 0 56.1093 14.0975 791 62.4501 605.075 465.305
744 0 60.1068 13.7256 825 61.9406 604.601 465.535
745 0 57.1297 12.883 736 64.3859 604.599 462.359
746 0 62.1232 13.441 835 63.2359 604.446 461.957
747 0 63.1596 14.2654 901 62.8657 603.635 462.727
748 0 66.2716 14.5311 963 61.7238 604.893 461.481
749 0 68.0969 14.1416 963 62.3115 604.822 461.427
750 0 72.1167 14.7816 1066 61.4184 603.698 460.816
751 0 74.1538 15.0498 1116 60.9032 604.175 460.187
752 0 74.1636 14.8995 1105 61.838 605.158 458.619
753 0 79.0974 14.9183 1180 60.667 603.648 457.558
754 0 81.0938 15.069 1222 60.4075 603.791 457.61
755 0 84.0807 15.6278 1314 59.0244 604.084 456.217
756 0 85.2798 15.068 1285 59.814 604.741 453.342
757 0 90.1855 15.3683 1386 58.7605 605.114 452.596
758 0 91.1366 15.4822 1411 58.4833 603.697 450.818
759 0 94.1357 14.5853 1373 59.6883 603.945 448.739
760 0 98.2649 15.1529 1489 58.5299 603.445 448.95
761 0 100.136 14.3005 1432 59.8373 603.654 447.056
762 1 43.0593 13.6091 586 61.4693 604.005 474.42
763 0 45.1722 13.9024 628 60.8854 604.354 471.645
764 0 47.0351 14.2234 669 60.6726 603.698 472.42
765 0 50.1136 13.5891 681 60.8722 604.313 471.079
766 0 50.1155 13.868 695 62.3424 603.286 470.718
767 0 53.1457 13.0396 693 62.5671 603.198 469.459
768 0 55.1309 13.5677 748 62.012 603.989 469.007
769 0 55.0876 14.359 791 61.6915 604.489 468.54
770 0 58.1474 14.6868 854 60.774 603.381 467.724
771 0 62.2283 14.1093 878 61.0251 603.688 467.61
772 0 60.0873 14.0296 843 62.8458 603.565 466.676
773 0 63.3174 14.4036 912 62.3849 603.143 464.985
774 0 66.1474 14.8759 984 61.6423 604.051 463.512
775 0 66.1296 14.3808 951 63.142 603.777 462.55
776 0 70.151 14.9962 1052 61.6759 603.624 462.338
777 0 72.247 13.8829 1003 63.1147 603.3 460.698
778 0 73.0302 14.7062 1074 62.4497 604.085 459.563
779 0 76.2014 14.9079 1136 62.1637 603.969 457.898
780 0 78.0811 15.1509 1183 61.9704 604.258 457.135
781 0 81.3184 15.0765 1226 61.4062 604.211 454.11
782 0 86.3143 14.8179 1279 61.0727 604.262 453.419
783 0 88.1532 15.1101 1332 61.274 604.218 453.308
784 0 89.1528 14.6939 1310 61.8672 604.332 449.35
785 0 93.2345 15.209 1418 60.9337 604.701 449.642
786 0 95.3868 14.8134 1413 61.8372 603.849 447.792
787 0 97.1686 13.914 1352 63.929 603.684 445.768
788 0 99.2772 13.9105 1381 63.916 603.947 445.39
789 0 103.186 14.1395 1459 63.8053 603.928 443.645
790 0 107.272 13.9179 1493 63.4856 604.414 440.774
791 0 111.388 14.0051 1560 64.0359 604.109 438.606
792 0 114.246 13.4359 1535 64.7583 604.366 435.113
793 0 116.279 13.5795 1579 64.7359 604.402 434.582
794 0 121.445 14.7557 1792 63.1144 604.459 433.008
795 1 60.0992 12.6458 760 67.0434 604.638 461.049
796 0 61.1235 12.2048 746 68.6823 604.773 458.701
797 0 62.2316 12.2767 764 68.5942 604.237 458.856
798 0 63.049 12.9582 817 68.2154 604.323 459.837
799 0 63.0838 12.3962 782 68.3772 603.903 456.244
800 0 68.0849 12.881 877 67.1528 603.636 457.735
801 0 68.0748 13.1767 897 67.7358 604.783 455.509
802 0 71.1104 12.7126 904 67.4734 604.202 452.949
803 0 75.1127 11.9687 899 68.0712 604.409 452.058
804 0 78.1276 12.1468 949 67.1275 604.816 451.987
805 0 81.0907 12.8252 1040 65.5731 605.308 451.61
806 0 84.3245 12.9263 1090 65.1752 605.837 449.901
807 0 87.1969 12.9821 1132 65.3949 605.751 447.838
808 0 89.1549 12.2371 1091 66.538 605.728 446.894
809 0 95.1529 11.6865 1112 66.5899 605.741 445.715
810 0 93.0662 11.5724 1077 66.6407 606.403 443.298
811 0 98.1616 12.1432 1192 65.6871 605.681 443.212
812 0 104.065 10.9355 1138 66.4912 605.68 439.265
813 0 107.198 12.267 1315 64.9141 605.433 439.912
814 0 111.132 11.4548 1273 65.7306 605.399 437.54
815 1 52.1706 11.8841 620 68.0064 605.014 466.766
816 0 53.083 12.3957 658 67.3571 604.827 465.904
817 0 57.0852 12.3324 704 67.5398 603.794 465.81
818 0 59.3104 12.8982 765 66.5582 604.529 465.786
819 0 59.2686 12.5362 743 67.7012 604.984 463.838
820 0 63.1936 13.0235 823 66.4629 605.278 464.171
821 0 66.1978 12.7648 845 66.6852 604.576 463.563
822 0 67.1174 13.1858 885 66.1503 605.101 462.236
823 0 67.1469 12.8226 861 67.3879 604.732 459.85
824 0 72.1362 13.2943 959 65.22 605.224 460.948
825 0 71.0431 11.8379 841 67.7075 604.649 457.181
826 0 77.1005 12.9441 998 64.9709 604.227 457.706
827 0 79.1633 12.2153 967 66.88 604.348 454.603
828 0 83.147 12.977 1079 65.1075 603.645 455.361
829 0 83.2473 13.0935 1090 65.3284 603.346 452.481
830 0 86.1781 13.008 1121 64.6815 602.768 450.466
831 0 88.3158 12.376 1093 64.7594 603.74 449.67
832 0 94.1605 12.5424 1181 64.5682 603.424 448.328
833 1 41.1488 12.8315 528 64.6193 603.763 475.417
834 0 41.0731 13.829 568 63.0687 603.032 475.317
835 0 40.0896 11.8485 475 67.0884 602.394 472.202
836 0 40.052 11.8845 476 67.3782 602.357 470.559
837 0 42.0703 11.6709 491 67.3055 603.548 469.839
838 0 47.1456 12.2599 578 65.1626 604.138 469.886
839 0 48.16 11.9394 575 66.047 603.798 468.908
840 0 48.0853 13.3305 641 65.4602 604.418 469.159
841 0 49.0429 12.2342 600 67.9567 602.972 466.518
842 0 52.0342 12.1843 634 67.1609 603.756 465.23
843 0 53.1275 12.8935 685 66.6569 604.717 464.597
844 0 54.1107 11.8646 642 68.8349 603.955 463
845 0 54.0444 11.9901 648 68.7438 603.884 462.017
846 0 58.0924 12.2908 714 67.8263 603.241 461.353
847 0 58.0479 12.0935 702 68.6154 603.94 460.366
848 0 58.112 12.149 706 68.8484 603.824 457.313
849 0 61.2721 12.3547 757 68.8454 603.279 456.814
850 0 66.3335 12.1658 807 68.663 602.891 456.61
851 0 70.327 15.1578 1066 63.3096 604.246 458.28
852 0 68.2888 12.3739 845 67.4379 604.434 453.2
853 0 75.4806 13.2087 997 65.0682 604.958 454.094
854 0 77.6002 13.8015 1071 64.887 604.554 452.02
855 0 85.5348 14.7075 1258 61.5644 604.947 452.344
856 0 85.5389 14.473 1238 62.2205 605.415 451.449
857 0 89.488 14.3259 1282 61.8612 605.827 450.074
858 0 90.3663 14.6736 1326 61.5543 605.68 449.506
859 0 89.159 12.3936 1105 65.2751 605.357 443.128
860 0 98.3305 14.8886 1464 60.8347 605.261 445.898
861 0 101.398 15.1285 1534 60.4961 606.111 445.326
862 0 104.523 13.7961 1442 61.9216 606.01 441.463
863 1 49.3367 13.114 647 62.6275 604.958 468.864
864 0 50.2258 12.8619 646 63.5248 605.031 467.924
865 0 48.275 11.2895 545 67.4202 605.633 464.985
866 0 48.3421 11.8117 571 67.0333 605.648 465.133
867 0 53.4414 13.7347 734 63.3392 605.801 467.347
868 0 56.5163 13.359 755 64.1775 605.536 466.102
869 0 56.2709 14.1459 796 64.049 605.805 467.063
870 0 55.4935 14.326 795 65.2365 606.509 464.967
871 0 58.4193 14.1049 824 65.4757 606.394 464.786
872 0 59.4336 14.3017 850 65.5729 606.478 465.972
873 0 57.2301 12.9303 740 68.573 606.984 461.788
874 0 62.4322 14.4637 903 65.2658 606.249 463.45
875 0 65.5202 14.1788 929 65.0689 606.51 462.957
876 0 62.4221 14.7864 923 68.1571 606.366 462.702
877 0 63.5009 14.7085 934 68.5932 606.393 464.009
878 0 62.5318 14.0249 877 72.7047 605.912 462.737
879 0 66.4958 14.1212 939 71.2226 606.086 464.399
880 0 67.519 14.0405 948 71.1772 606.514 462.831
881 0 65.5212 14.8349 972 70.9609 605.579 462.38
882 0 64.4559 13.1563 848 74.6651 605.333 459.762
883 0 70.5165 14.7483 1040 70.4202 605.714 460.666
884 0 75.4692 14.6152 1103 69.7217 605.723 459.195
885 0 75.5925 15.1867 1148 69.4652 605.578 459.054
886 0 75.6067 14.6548 1108 71.685 605.354 457.709
887 0 80.4438 14.5319 1169 71.5038 605.566 457.423
888 1 65.0452 12.1915 793 63.8499 605.318 385.241
889 0 64.0503 12.2716 786 64.215 605.156 384.454
890 0 67.0483 12.7073 852 62.946 605.501 385.702
891 0 69.0795 12.9271 893 62.4703 605.536 387.548
892 0 70.0802 12.714 891 62.404 605.68 387.751
893 0 73.0512 12.8677 940 62.9053 605.281 389.767
894 0 77.1329 13.0295 1005 61.603 605.051 390.919
895 0 78.1718 12.9075 1009 62.1972 605.263 390.085
896 0 81.0617 12.546 1017 63.4474 603.972 390.242
