time division length width area intensity CMx CMy
902 0 96.2271 12.5225 1205 64.1743 604.698 392.856
903 0 100.221 13.1011 1313 62.7982 604.664 393.977
904 0 107.129 12.6763 1358 62.6679 604.456 395.461
905 1 52.0209 11.4569 596 61.9581 605.215 423.081
906 0 54.027 11.3647 614 62.1254 604.681 423.87
907 0 54.0625 11.8012 638 62.1912 603.846 426.603
908 0 55.0699 11.8758 654 61.8868 603.902 427.087
909 1 96.5543 8.82405 852 55.9847 604.093 431.588
910 0 102.148 9.57434 978 52.2096 605.725 437.512
911 1 59.1336 12.3618 731 60.7127 603.993 428.795
912 0 62.0727 12.2437 760 60.7342 603.801 428.663
913 0 64.0503 12.3184 789 59.725 604.179 428.471
914 0 66.0792 11.9402 789 59.7617 604.997 428.305
915 0 69.0559 12.4826 862 59.0719 605.253 428.763
916 0 72.0943 12.4282 896 58.558 604.727 427.554
917 0 76.0535 11.7549 894 58.7763 604.643 426.62
918 0 76.0546 12.2018 928 58.6196 604.698 425.551
919 0 79.0668 11.5851 916 59.202 604.5 423
920 0 83.0633 11.8223 982 58.5204 604.864 421.578
921 1 44.0199 10.3362 455 59.6462 605.376 438.424
922 0 45.0157 10.7518 484 59.2707 605.525 438.037
923 0 49.027 10.9939 539 57.9648 604.119 438.256
924 0 48.0333 11.9084 572 56.9371 604.888 438.079
925 0 51.025 10.975 560 57.3732 605.302 436.755
926 0 52.0288 12.3393 642 55.4377 604.807 434.939
927 0 55.0428 11.5183 634 55.6987 605.125 433.2
928 0 54.0365 12.288 664 54.9593 604.998 433.691
929 1 93.6803 52.978 4963 23.0157 603.848 444.125
930 0 103.128 48.7551 5028 22.5853 603.925 445.123
931 0 96.8043 9.39007 909 48.4906 605.143 437.605
932 1 0 0 0 -nan -nan -nan
933 0 0 0 0 -nan -nan -nan
934 0 19.0484 9.39713 179 13.5866 606.838 488.48
935 1 0 0 0 -nan -nan -nan
936 1 11.2326 5.96481 67 14.1194 607.761 489.209
937 0 14.1118 8.57436 121 14.314 608.083 485.438
938 1 80.0478 11.5306 923 52.7443 605.207 424.408
939 0 82.0538 11.1634 916 54.2304 604.705 424.093
940 0 85.1217 11.184 952 53.791 604.502 423.298
941 1 41.0691 10.3728 426 53.9296 604.695 443.697
942 0 42.0643 11.007 463 54.2441 604.544 442.376
943 0 45.0455 11.3885 513 53.4288 603.363 441.789
944 0 46.1532 11.2885 521 53.3647 604.236 440.194
945 0 46.066 11.3967 525 53.5371 604.84 439.888
946 0 47.0259 11.802 555 53.5027 604.809 442.121
947 0 48.0195 11.0372 530 55.0924 604.323 442.815
948 1 82.0796 9.61262 789 48.2205 604.07 446.175
949 1 53.0739 11.4369 607 53.6771 604.511 440.951
950 0 54.1296 11.9713 648 52.8395 604.167 434.832
951 0 56.0536 11.5425 647 53.5595 603.538 432.301
952 0 57.0607 11.6192 663 53.0618 604.201 431.86
953 0 61.0606 11.6933 714 52.5336 604.787 431.05
954 1 17.1965 6.10588 105 14.019 610.905 485.371
955 1 0 0 0 -nan -nan -nan
956 1 15.2107 12.4254 189 13.5556 604.646 487.857
957 1 0 0 0 -nan -nan -nan
958 1 10.0341 6.97623 70 14.1857 605.686 488.114
959 1 72.1079 12.1069 873 53.9874 604.646 426.001
960 1 38.039 9.04335 344 55.5233 604.137 444.814
961 0 39.0176 10.3543 404 53.9084 604.04 446.067
962 0 43.0228 10.1342 436 53.961 604.085 444.431
963 0 43.0378 10.5256 453 53.7638 604.183 443.671
964 1 79.3969 7.80887 620 47.1113 605.419 449.952
965 1 0 0 0 -nan -nan -nan
966 0 0 0 0 -nan -nan -nan
967 0 0 0 0 -nan -nan -nan
968 1 12.9165 8.05174 104 14.2885 604.74 488.365
969 1 48.0383 11.241 540 54.4407 604.024 443.748
970 0 53.0595 11.2892 599 53.0367 604.322 443.185
971 0 53.0463 11.4428 607 53.056 603.305 441.012
972 0 54.0516 11.5075 622 53.0209 604.191 442.556
973 0 57.0781 11.458 654 52.6713 604.185 443.184
974 0 59.0797 11.3914 673 52.945 604.312 443.226
975 0 61.0595 11.3987 696 52.6839 603.884 441.984
976 0 61.1131 11.6178 710 52.4789 604.045 440.504
977 0 64.1002 11.7784 755 51.8384 603.584 440.766
978 1 121.224 10.6002 1285 52.1946 604.142 413.882
979 1 80.1859 11.4609 919 206.326 605.212 431.257
980 0 86.2081 11.1474 961 51.3621 603.415 426.454
981 1 45.0777 10.4486 471 51.0849 603.503 446.335
982 0 48.0532 10.0514 483 51.6646 603.934 445.391
983 0 48.0488 10.5934 509 51.8723 603.937 445.053
984 0 49.0363 10.5228 516 51.9671 604.537 443.424
985 0 49.0436 11.2961 554 51.7256 604.197 443.338
986 0 50.0451 11.3498 568 51.0863 604.002 441.648
987 0 53.0324 11.427 606 50.4521 603.38 441.531
988 0 55.0323 10.9754 604 50.9536 603.283 439.916
989 0 58.0526 11.3862 661 49.6051 603.714 439.151
990 0 60.039 10.5765 635 50.5402 604.006 438.521
991 1 115.44 9.16496 1058 41.0057 606.033 446.505
992 1 62.0162 11.9001 738 49.1152 604.232 434.535
993 0 65.051 11.6678 759 49.1423 604.781 434.108
994 0 70.1064 10.9405 767 49.0183 604.552 431.896
995 0 70.1396 11.6054 814 48.8292 604.687 430.69
996 0 72.1437 11.6157 838 48.5358 604.748 428.55
997 0 77.1275 11.1504 860 48.9035 604.474 427.656
998 0 78.1272 11.3405 886 48.9424 604.405 426.523
999 1 120.263 10.0862 1213 43.2152 604.186 433.551
1000 1 82.1172 11.6784 959 48.245 604.058 423.898
1001 0 87.2023 11.0662 965 48.8425 604.232 423.073
1002 0 90.1523 11.0702 998 48.5431 603.584 420.923
1003 1 45.1181 10.3949 469 46.5928 604.537 443.006
1004 0 48.0256 10.1404 487 46.2998 604.916 441.156
1005 0 47.165 10.6647 503 46.7813 605.459 440.855
1006 0 50.0995 10.8983 546 46.1337 605.885 441.06
1007 0 57.0588 10.9536 625 44.9712 605.651 437.818
1008 0 53.2002 11.5601 615 45.0992 606.216 437.389
1009 0 57.1003 11.0332 630 43.8635 606.206 433.684
1010 1 254.424 16.8852 4296 38.023 606.335 385.068
1011 0 245.349 16.4908 4046 39.5662 605.9 378.65
1012 0 235.544 12.6771 2986 47.5764 605.677 344.223
1013 0 239.359 11.6478 2788 49.3705 605.916 338.687
1014 1 277.93 57.7196 16042 24.1456 604.894 346.451
1015 1 247.715 26.478 6559 35.3005 606.457 305.823
1016 1 282.027 16.9771 4788 39.0823 606.467 370.381
1017 1 247.504 11.7129 2899 48.466 605.857 342.372
1018 0 245.591 11.8205 2903 47.7806 605.654 343.268
1019 1 99.7485 13.2433 1321 36.0613 605.848 432.805
1020 1 77.182 11.57 893 43 607.06 425.511
1021 0 81.2047 11.7358 953 42.6579 607.333 424.142
1022 0 85.0666 10.7445 914 43.6313 606.621 422.345
1023 0 89.1314 11.9823 1068 42.4129 606.571 423.223
1024 0 91.1106 12.0842 1101 42.4051 606.404 421.42
1025 1 83.5788 7.01135 586 38.8038 604.57 447.459
1026 1 44.0588 10.4406 460 42.8065 605.711 442.278
1027 0 47.0766 9.81379 462 42.79 606.271 441.247
1028 0 45.0808 11.0247 497 42.2455 605.972 441.129
1029 0 48.0628 10.7776 518 42.3919 605.635 439.378
1030 0 48.0407 10.7201 515 42.9631 604.924 438.4
1031 0 54.0843 10.8719 588 41.534 606.463 439.537
1032 0 54.0416 10.6585 576 41.684 606.302 438.248
1033 0 54.1024 10.7389 581 42.1997 606.348 437.191
1034 0 59.1101 11.1318 658 41.2644 605.605 437.325
1035 1 10.081 9.12604 92 13.1957 614.544 488.087
1036 1 0 0 0 -nan -nan -nan
1037 0 0 0 0 -nan -nan -nan
1038 1 28.6687 4.88337 140 13.1786 608.257 490.05
1039 0 14.3396 10.4605 150 13.24 605.84 485.427
1040 0 25.8686 5.83719 151 12.9735 613.742 491.384
1041 0 17.3455 10.3197 179 13.2961 608.464 486.145
1042 1 0 0 0 -nan -nan -nan
1043 1 9.62912 11.5275 111 13.1892 608.207 489.306
1044 1 156.469 11.8873 1860 43.3016 605.594 388.526
1045 0 156.581 12.3323 1931 42.7395 606.42 389.536
1046 1 177.447 16.0668 2851 36.1568 605.805 405.587
1047 0 197.123 15.2544 3007 34.9295 606.359 410.265
1048 0 187.556 12.2363 2295 43.719 606.11 375.067
1049 1 178.504 12.5095 2233 37.9561 605.472 411.592
1050 1 94.1698 12.0846 1138 42.2856 604.669 421.883
1051 0 97.1618 10.9611 1065 43.63 606.145 419.666
1052 1 50.1136 10.2367 513 41.8441 606.09 444.429
1053 0 52.1546 10.3347 539 41.6939 605.648 442.579
1054 0 57.1537 10.2181 584 41.9743 605.873 441.361
1055 0 56.1331 10.6533 598 42.3712 605.554 441.176
1056 0 57.1004 10.788 616 41.513 605.38 441.305
1057 0 59.0608 10.667 630 41.5968 605.205 439.656
1058 0 61.0549 10.6134 648 41.0185 606.025 437.769
1059 0 63.0476 11.2931 712 40.4494 605.157 437.073
1060 0 65.0805 10.7713 701 41.1184 605.485 434.97
1061 0 68.1297 11.2726 768 39.6367 605.453 434.895
1062 0 70.0808 10.7875 756 41.0622 604.878 435.455
1063 0 74.2244 10.7647 799 40.6671 604.902 433.423
1064 0 74.159 11.4888 852 40.4143 604.979 433.937
1065 0 77.1766 11.3635 877 40.2395 605.928 432.013
1066 1 160.568 7.44857 1196 35.4975 607.413 441.375
1067 1 83.2558 11.0383 919 40.4331 605.579 428.69
1068 0 87.265 11.2187 979 40.8529 604.873 428.536
1069 0 88.2613 11.4433 1010 40.6812 605.27 426.662
1070 1 44.1151 9.8379 434 40.6682 605.32 447.288
1071 0 46.0725 10.2881 474 40.1941 605.637 447.116
1072 0 47.1804 10.4916 495 40.6202 604.248 445.98
1073 0 48.1933 10.0636 485 41.3608 604.998 445.293
1074 0 51.1149 10.0949 516 40.7733 604.942 445.779
1075 0 53.1258 9.95749 529 41.3176 604.96 445.176
1076 0 54.0941 10.7221 580 39.5466 605.631 442.448
1077 0 55.0962 10.2366 564 40.3351 605.762 442.252
1078 1 85.6663 10.2607 879 34.7827 606.348 447.006
1079 1 58.1321 10.9922 639 39.9703 605.296 441.125
1080 0 62.1533 10.2006 634 40.3612 605.509 440.473
1081 0 63.0844 10.7792 680 39.9456 604.913 439.738
1082 0 63.1162 10.9797 693 40.1587 604.797 437.612
1083 0 66.1089 10.8609 718 40.0808 605.131 437.703
1084 1 104.753 9.94718 1042 34.7303 605.013 444.663
1085 1 70.1551 10.9614 769 40.1196 605.134 435.343
1086 0 71.2062 10.8839 775 40.9032 604.959 434.48
1087 0 75.26 11.0417 831 41.6101 603.898 432.318
1088 0 75.3174 10.5288 793 41.2837 604.68 430.847
1089 0 77.1911 10.4157 804 41.7923 604.251 428.929
1090 1 211.157 13.5255 2856 36.0592 604.633 405.043
1091 1 167.603 11.1334 1866 43.2562 604.468 385.536
1092 1 128.91 10.5034 1354 36.2939 603.25 433.635
1093 1 47.1123 9.23325 435 41.069 603.938 447.788
1094 0 47.0618 9.73188 458 40.6332 604.71 445.688
1095 0 46.092 10.5441 486 41.0165 604.521 445.558
1096 0 49.147 10.1939 501 41.4311 604.487 444.854
1097 0 50.0982 10.3397 518 41.9517 603.848 443.284
1098 0 49.1222 10.7487 528 42.339 604.161 442.932
1099 0 52.1118 10.1896 531 41.8399 605.188 441.614
1100 0 54.103 10.7388 581 41.0413 605.062 441.449
1101 0 56.1168 10.3891 583 41.5232 605.415 439.976
1102 0 58.0912 10.8106 628 40.8089 605.31 438.85
1103 1 123.252 7.39945 912 33.6162 608.306 452.557
1104 1 61.1253 11.55 706 39.4929 605.193 436.18
1105 0 66.2706 11.2569 746 39.1662 604.827 435.477
1106 0 65.234 10.7919 704 40.4673 604.949 432.851
1107 0 67.066 11.6154 779 39.8588 605.511 435.064
1108 1 106.198 10.0567 1068 34.7463 607.497 442.359
1109 1 69.3398 11.4364 793 40.5095 605.677 433.139
1110 1 146.131 6.51468 952 36.416 607.767 446.988
1111 1 77.2224 10.7611 831 41.3694 606.165 426.497
1112 0 80.1487 10.9796 880 40.8659 605.197 425.855
1113 0 82.2374 11.479 944 40.4703 605.46 425.181
1114 0 86.0691 11.0725 953 40.6852 606.243 424.751
1115 0 88.1628 10.6054 935 41.0824 605.803 422.44
1116 0 89.1236 11.254 1003 40.65 605.767 421.398
1117 1 147.698 9.47879 1400 35.8143 604.426 431.717
1118 1 46.1049 10.411 480 41.4583 605.562 441.196
1119 0 46.157 10.4426 482 41.7324 606.531 439.508
1120 0 51.085 10.5902 541 40.7357 606.218 438.592
1121 0 79.0969 11.3784 900 12.1178 601.432 511.572
1122 0 52.0946 11.0568 576 40.2882 606.545 435.431
1123 0 55.0248 11.0859 610 39.8951 606.648 436.03
1124 0 57.0643 11.1628 637 40.248 607.239 438.603
1125 1 101.167 8.48103 858 36.0373 605.48 443.904
1126 1 60.0579 11.4223 686 40.0554 606.564 435.041
1127 0 61.0607 11.0546 675 40.4711 606.038 434.351
1128 0 66.0679 11.685 772 38.9391 606.223 434.464
1129 0 66.1307 11.6285 769 40.1092 606.157 433.48
1130 0 69.1174 11.0537 764 40.3351 606.801 430.774
1131 1 97.8431 10.8234 1059 35.7243 606.357 436.536
1132 1 71.1125 11.5873 824 39.9964 606.749 430.158
1133 0 71.1752 11.3382 807 41.2639 605.923 428.856
1134 1 101.863 11.1032 1131 35.794 605.906 436.7
1135 1 79.1446 11.0052 871 40.6154 605.224 426.048
1136 1 41.0617 9.13261 375 40.2613 605.437 445.741
1137 0 43.1197 8.97501 387 40.3798 606.026 445.266
1138 0 40.0773 10.1554 407 40.0295 605.715 444.835
1139 0 44.0512 10.3743 457 39.3457 605.333 443.941
1140 0 46.076 10.6129 489 39.0838 605.519 443.407
1141 0 46.1106 10.8869 502 39.1753 605.58 443.476
1142 1 79.2988 8.92826 708 35.4223 605.061 446.445
1143 1 49.077 10.616 521 39.9251 606.104 441.251
1144 0 54.0504 9.86116 533 39.818 606.039 441.336
1145 0 50.0943 10.1608 509 40.5678 605.717 439.403
1146 0 56.1214 10.0496 564 39.3511 605.254 437.895
1147 0 55.0981 10.8715 599 38.975 605.701 437.643
1148 0 56.117 10.9236 613 39.5644 606.083 437.295
1149 0 59.1488 11.2936 668 39.3563 606.347 437.5
1150 1 97.6413 9.76021 953 34.574 606.874 442.172
1151 1 66.1208 11.2219 742 38.0323 606.213 435.229
1152 0 67.1068 11.057 742 38.2857 605.778 433.675
1153 0 68.2522 11.2231 766 38.1802 605.068 433.443
1154 0 70.2151 10.9521 769 38.6528 604.311 432.685
1155 0 73.1106 11.1338 814 37.914 604.786 432.814
1156 0 75.2296 10.9133 821 38.2205 605.085 430.781
1157 0 79.1949 10.8467 859 38.6787 605.717 430.957
1158 0 81.2872 10.8996 886 38.4424 605.018 429.622
1159 0 82.3203 10.5199 866 39.4642 604.592 428.871
1160 0 91.0486 7.6882 700 31.3386 603.016 454.346
1161 1 46.1379 11.1405 514 36.2549 605.202 446.358
1162 0 49.1016 11.0383 542 36.0941 605.181 444.354
1163 0 47.1237 10.2072 481 37.2536 605.732 442.699
1164 0 52.0615 10.6605 555 36.0811 605.222 441.854
1165 0 55.1727 10.6937 590 36.2847 604.986 442.575
1166 0 55.1738 11.2191 619 36.2843 605.126 440.291
1167 0 58.064 12.6585 735 34.8844 605.258 434.233
1168 0 56.0856 10.8406 608 37.8076 604.995 432.446
1169 1 100.885 8.64353 872 33.4622 604.261 440.829
1170 1 69.4477 21.2102 1473 28.4779 605.985 425.456
1171 0 68.3281 22.1285 1512 28.2004 605.997 424.511
1172 0 67.1198 21.1711 1421 28.7931 605.87 423.543
1173 1 114.835 10.5978 1217 33.2309 602.994 436.803
1174 0 108.433 11.7491 1274 33.0597 602.882 437.672
1175 0 119.883 10.527 1262 32.4834 604.073 439.524
1176 1 71.1035 11.5887 824 38.4114 603.306 426.517
1177 0 76.064 11.3457 863 38.6257 603.442 428.621
1178 1 104.248 12.0387 1255 33.9546 603.689 434.178
1179 1 78.1414 12.3878 968 38.5424 603.55 430.011
1180 0 83.3916 10.7085 893 39.897 603.858 425.985
1181 0 83.2077 11.4052 949 39.7861 604.143 426.66
1182 0 87.1935 11.377 992 39.9123 603.923 424.944
1183 0 89.178 11.0453 985 40.5898 604.514 423.511
1184 1 45.0886 9.89164 446 39.8229 603.854 446.327
1185 0 44.0836 9.91298 437 40.6293 605.112 445.3
1186 0 47.0745 10.3241 486 40.2428 605.761 445.121
1187 0 50.0367 10.6122 531 40.0113 604.815 443.962
1188 0 48.1235 10.5977 510 41.1941 605.302 441.584
1189 0 50.0785 11.3222 567 40.3563 604.69 440.917
1190 0 49.0754 11.0239 541 41.414 605.059 439.553
1191 1 78.6728 38.6411 3040 22.049 605.11 441.199
1192 1 55.7667 23.3293 1301 30.6287 605.639 431.343
1193 1 79.4917 48.0553 3820 20.1385 603.594 444.422
1194 1 52.4795 23.4758 1232 31.22 605.334 430.188
1195 0 53.5562 24.6844 1322 30.5151 605.303 430.363
1196 0 50.3274 25.0957 1263 30.1829 605.908 429.448
1197 1 124.269 7.09753 882 36.8503 605.594 440.532
1198 1 99.5698 11.0174 1097 35.691 606.091 436.561
1199 1 73.107 10.4368 763 41.1442 606.121 430.207
1200 0 73.1177 10.6404 778 41.0604 606.238 430.905
1201 0 69.11 11.4889 794 41.0718 605.778 430.072
1202 1 127.11 8.68541 1104 35.8098 607.462 439.266
1203 1 108.05 10.5599 1141 36.0841 605.718 437.167
1204 1 76.2028 11.1151 847 41.5195 605.993 427.671
1205 0 81.1448 11.3501 921 41.2193 605.168 426.96
1206 0 86.2649 11.3835 982 40.6752 605.24 424.763
1207 0 86.1487 11.8516 1021 40.9128 605.439 424.544
1208 1 44.1083 10.3155 455 41.5187 605.277 444.081
1209 0 47.0742 10.664 502 40.5777 605.124 442.863
1210 0 49.0783 10.3916 510 41.2471 604.861 441.653
1211 0 49.0588 10.9257 536 40.5858 605.323 441.496
1212 0 52.0976 10.8834 567 40.3298 605.772 440.977
1213 1 92.3682 8.20629 758 36.2256 604.434 447.211
1214 1 78.1475 10.8641 849 12.1767 610.664 511.992
1215 0 53.0082 11.6397 617 41.1264 605.54 433.985
1216 0 54.0388 11.2697 609 41.4122 605.031 433.993
1217 0 59.0668 10.9198 645 41.0698 605.023 436.434
1218 0 59.0842 11.8306 699 40.5551 605.299 430.92
1219 0 63.1026 13.5811 857 38.3466 605.767 427.904
1220 1 16.9124 4.67112 79 13.1266 612.595 487.848
1221 0 28.8742 3.08234 89 12.9888 617 490.607
1222 1 0 0 0 -nan -nan -nan
1223 1 15.6882 5.67306 89 13.1124 613.011 488.36
1224 0 8.03414 9.70857 78 13.2308 602.923 482.962
1225 0 0 0 0 -nan -nan -nan
1226 0 0 0 0 -nan -nan -nan
1227 0 11.7043 10.8507 127 13.2126 608.937 486.441
1228 0 22.915 12.2191 280 12.55 610.975 492.75
1229 0 0 0 0 -nan -nan -nan
1230 0 0 0 0 -nan -nan -nan
1231 0 42.3122 22.0267 932 7.64592 601.044 524.903
1232 1 0 0 0 -nan -nan -nan
1233 1 0 0 0 -nan -nan -nan
1234 1 46.0639 11.2235 517 41.9033 603.975 442.986
1235 0 50.1235 10.2746 515 42.6447 604.381 441.342
1236 0 52.05 11.5274 600 41.16 604.19 441.683
1237 0 54.1369 11.6187 629 41.2814 603.733 440.358
1238 0 51.0884 10.6874 546 43.3443 603.667 440.057
1239 1 104.814 7.47988 784 38.4821 602.818 445.494
1240 1 57.0998 12.1016 691 41.5007 603.33 439.948
1241 0 56.0382 12.1167 679 42.0972 603.657 438.096
1242 1 88.234 10.1321 894 37.8557 604.633 444.094
1243 1 62.0494 11.8776 737 42.0122 603.752 436.773
1244 0 63.0774 11.8267 746 42.4517 603.732 435.054
1245 0 68.0331 11.7884 802 41.9601 603.774 433.814
1246 0 68.0867 12.4988 851 41.8143 603.718 432.647
1247 0 71.0592 12.7218 904 41.1637 603.892 431.85
1248 0 70.1084 11.7532 824 42.3592 604.373 430.865
1249 1 103.446 12.4412 1287 36.5027 604.337 437.921
1250 1 77.043 12.3697 953 41.8573 603.136 430.188
1251 0 79.0834 12.7207 1006 41.8996 603.37 429.8
1252 0 84.0554 12.5156 1052 41.8298 603.471 428.46
1253 0 83.0595 12.4609 1035 42.1729 603.553 427.04
1254 0 90.0722 11.8349 1066 42.3715 602.941 424.928
1255 1 221.99 15.9421 3539 36.0023 602.57 399.872
1256 1 95.1918 12.8583 1224 41.3913 603.252 423.26
1257 0 96.2176 12.4198 1195 42.5941 603.343 419.996
1258 0 100.27 12.3467 1238 42.3522 603.758 419.814
1259 0 105.254 12.8452 1352 41.8328 603.726 419.641
1260 0 106.175 12.2063 1296 42.7762 603.928 415.348
1261 0 109.195 13.1599 1437 42.0814 603.706 415.362
1262 1 138.836 15.0465 2089 36.2413 602.926 426.114
1263 0 131.314 12.8927 1693 42.2877 603.023 407.348
1264 0 130.378 12.5634 1638 42.6581 603.208 407.92
1265 1 216.552 10.3532 2242 37.0522 603.223 423.645
1266 1 126.233 12.881 1626 43.4078 602.841 405.225
1267 0 125.059 6.82076 853 38.4912 603.104 445.596
1268 1 79.9695 20.3203 1625 30.4566 598.881 428.275
1269 0 80.3937 20.213 1625 30.3902 598.884 427.94
1270 1 107.063 9.94745 1065 37.6282 602.782 442.829
1271 1 68.0475 12.1092 824 42.2597 602.999 433.801
1272 0 71.1249 11.1213 791 43.2465 602.724 432.889
1273 0 74.1195 11.7513 871 42.4133 603.623 431.268
1274 0 75.077 11.9344 896 42.673 603.81 431.795
1275 0 77.1771 10.897 841 44.201 603.597 429.395
1276 0 82.0741 11.6236 954 42.9224 603.424 429.375
1277 0 83.1532 11.4848 955 43.7497 603.48 428.106
1278 0 89.0873 12.0668 1075 42.8465 603.924 428.013
1279 1 44.0494 9.21692 406 43.6995 603.012 445.542
1280 0 48.0435 10.4697 503 42.4314 602.807 448.145
1281 0 49.1522 10.9049 536 42.2257 602.98 446.246
1282 0 51.1144 10.8189 553 42.2622 603.882 445.018
1283 0 51.0972 11.1161 568 42.382 603.414 444.937
1284 0 53.0918 11.4142 606 42.1782 603.71 444.698
1285 0 53.0631 11.6842 620 43.1016 602.923 442.927
1286 0 56.1461 11.5769 650 42.3031 603.245 443.398
1287 0 57.0896 11.3681 649 42.5223 603.918 441.635
1288 1 121.676 7.89805 961 34.8387 607.002 457.429
1289 1 62.0656 11.7456 729 41.3896 603.112 441.953
1290 0 61.1435 11.2522 688 41.6323 604.015 439.544
1291 0 61.0854 11.5412 705 41.5929 603.408 438.994
1292 1 172.246 14.456 2490 35.4438 604.065 420.494
1293 0 164.479 16.1054 2649 34.7063 603.767 419.577
1294 1 139.279 7.35935 1025 37.4566 603.762 442.411
1295 1 75.3146 11.2063 844 41.2382 603.276 433.928
1296 0 79.1574 11.0792 877 40.7685 604.246 432.79
1297 0 84.0447 11.2083 942 40.4437 603.937 431.688
1298 1 43.0346 9.94548 428 40.9836 603.245 450.315
1299 0 43.0361 10.9211 470 40.0638 603.064 449.357
1300 1 111.207 12.5622 1397 35.9241 603.194 435.056
1301 1 89.1914 11.5482 1030 40.6456 603.45 426.075
1302 1 48.042 11.3651 546 39.5458 603.599 447.22
1303 0 48.0581 10.841 521 41.0288 603.766 446.24
1304 0 53.0611 11.0816 588 40.2398 602.98 446.713
1305 0 55.0252 11.0495 608 40.0214 602.791 446.398
1306 0 56.1414 10.242 575 40.6765 603.532 443.157
1307 1 92.2711 43.5565 4019 19.8286 602.102 448.685
1308 1 131.494 41.424 5447 17.9159 603.141 460.97
1309 1 63.7265 21.4824 1369 30.0752 606.043 433.595
1310 0 61.1312 20.2842 1240 30.9266 606.553 432.944
1311 1 86.2093 10.1381 874 35.8112 603.96 447.15
1312 1 56.0545 12.1489 681 39.6417 604.048 441.64
1313 1 93.8179 9.12406 856 36.2839 604.652 447.513
1314 1 0 0 0 -nan -nan -nan
1315 1 13.5489 7.6021 103 13.0874 603.233 495.66
1316 1 0 0 0 -nan -nan -nan
1317 1 99.7254 11.4013 1137 36.3817 603.986 439.529
1318 1 77.1138 10.6855 824 41.432 603.347 431.977
1319 0 86.2872 11.763 1015 40.2424 603.686 429.521
1320 0 85.2246 10.1849 868 42.5968 602.968 425.882
1321 0 90.1212 10.6967 964 42.2303 603.425 426.433
1322 0 94.0868 11.0643 1041 41.7166 603.781 421.651
1323 0 91.8238 7.37282 677 37.486 604.44 451.694
1324 1 51.2401 24.8634 1274 29.9819 604.107 438.086
1325 0 52.3623 25.3618 1328 30.3374 603.501 438.748
1326 1 87.4189 9.65466 844 37.0735 604.052 448.5
1327 1 54.0663 11.8373 640 42.0625 603.641 443.541
1328 0 54.0732 11.355 614 42.5603 604.565 440.015
1329 0 58.2203 11.7657 685 41.9489 604.571 440.888
1330 0 57.0813 10.8967 622 43.5386 604.394 438.342
1331 0 57.2103 10.8372 620 43.5306 604.706 437.844
1332 0 67.0585 12.4369 834 40.6223 604.203 439.851
1333 1 161.409 13.599 2195 37.4738 604.417 419.846
1334 0 151.659 15.3437 2327 36.685 603.946 421.254
1335 1 122.163 10.9853 1342 45.8472 604.101 402.921
1336 1 108.011 11.2025 1210 36.9595 604.178 439.478
1337 1 75.175 11.3469 853 42.5346 603.415 430.417
1338 0 79.1539 11.2566 891 42.6566 603.661 430.279
1339 0 82.1511 12.0266 988 41.8178 603.48 429.788
1340 0 84.2626 11.4642 966 42.8292 603.333 428.483
1341 0 87.2284 11.8998 1038 42.5838 603.595 427.718
1342 0 91.1898 12.1505 1108 41.6426 604.527 427.611
1343 0 88.3833 7.5693 669 38.2795 604.12 449.728
1344 1 0 0 0 -nan -nan -nan
1345 0 0 0 0 -nan -nan -nan
1346 0 0 0 0 -nan -nan -nan
1347 0 0 0 0 -nan -nan -nan
1348 1 34.1322 3.72083 127 13.0866 599.032 493.764
1349 1 60.1355 11.9896 721 40.8183 604.845 441.165
1350 0 61.1239 11.583 708 41.7246 603.914 439.332
1351 0 66.0691 11.382 752 40.8684 604.297 440.166
1352 0 66.1812 11.952 791 40.9102 603.728 438.965
1353 0 68.1453 11.857 808 40.9431 603.533 436.73
1354 0 69.0725 24.0761 1663 31.1642 604.085 426.15
1355 1 0 0 10 13.1 611.9 491
1356 1 0 0 0 -nan -nan -nan
1357 0 0 0 0 -nan -nan -nan
1358 0 0 0 0 -nan -nan -nan
1359 1 9.02604 14.5136 131 13.1832 605.695 494.45
1360 1 0 0 0 -nan -nan -nan
1361 0 0 0 0 -nan -nan -nan
1362 1 78.1527 7.83083 612 37.4265 602.938 452.582
1363 1 48.0447 10.9065 524 41.063 603.996 446.031
1364 1 84.0529 9.33935 785 35.6497 602.892 453.502
1365 1 49.0845 11.6737 573 40.712 604.389 447.19
1366 0 52.2028 10.5933 553 41.4973 603.967 444.347
1367 0 52.141 11.7566 613 40.6395 604.475 445.533
1368 0 51.1428 11.0084 563 41.8366 603.899 442.776
1369 0 53.1488 10.7622 572 42.5385 604.198 442.949
1370 0 53.1774 11.3206 602 41.9585 603.952 442.409
1371 0 57.0957 12.4002 708 40.7754 603.876 442.229
1372 0 60.1175 12.6419 760 40.2224 603.666 441.375
1373 0 60.1027 12.2291 735 40.7102 603.401 439.913
1374 0 60.0678 11.5203 692 41.1922 604.306 437.996
1375 0 62.1257 12.0723 750 40.4547 604.021 439.652
1376 1 116.454 10.2358 1192 34.2903 603.352 443.98
1377 1 69.0521 12.7295 879 39.1706 604.068 437.15
1378 0 70.1754 11.9558 839 39.7747 604.511 434.752
1379 0 73.0628 12.3182 900 39.4789 603.672 433.762
1380 0 78.2558 11.9991 939 39.2897 604.152 433.292
1381 1 186.313 16.2952 3036 34.7286 603.725 410.635
1382 0 187.393 16.4361 3080 35.1692 603.794 408.741
1383 1 82.1755 11.3781 935 40.4225 603.881 427.166
1384 1 38.1189 8.91947 340 41.6794 603.994 448.321
1385 0 42.0554 10.4624 440 39.2682 604.125 448.227
1386 0 39.0567 10.3695 405 40.0099 604.479 447.835
1387 0 47.0318 10.95 515 38.5146 604.101 448.198
1388 0 44.039 10.1047 445 40.5124 604.858 445.218
1389 0 48.0594 11.8187 568 38.6637 603.741 446.655
1390 0 48.0203 10.683 513 40.232 603.583 443.782
1391 0 49.0429 10.9904 539 39.9889 604.373 444.403
1392 1 92.0267 10.5296 969 34.1796 602.862 448.639
1393 1 58.0436 10.7678 625 39.9872 603.538 441.115
1394 0 60.0681 11.0874 666 39.3003 603.125 441.255
1395 0 58.0548 12.0576 700 39.1757 603.021 441.941
1396 0 62.1277 12.4904 776 38.4807 603.317 442.231
1397 1 9.31189 9.45029 88 13.2273 608.932 493.25
1398 1 0 0 0 -nan -nan -nan
1399 0 0 0 0 -nan -nan -nan
1400 0 0 0 0 -nan -nan -nan
1401 1 16.2332 9.0555 147 13.1497 608.054 494.959
1402 0 13.9464 7.67225 107 13.3178 609.364 493.299
1403 1 71.1018 9.76066 694 43.0202 603.5 430.062
1404 0 81.1631 12.4194 1008 39.9573 602.938 433.277
1405 0 85.2634 12.608 1075 39.6567 603.038 433.62
1406 0 83.1092 12.3091 1023 40.6119 603.241 430.647
1407 0 89.2634 12.3567 1103 40.2312 602.861 431.299
1408 1 143.313 10.5224 1508 34.8236 600.259 442.851
1409 1 43.109 9.78915 422 42.718 601.969 448.275
1410 0 46.0415 10.4037 479 41.6159 601.931 446.566
1411 0 43.1012 10.8814 469 42.4819 601.972 446.192
1412 0 47.0497 10.6483 501 41.8363 602.325 445.265
1413 0 50.0233 9.8554 493 42.1521 601.785 443.385
1414 0 54.0437 12.3789 669 39.6144 601.278 446.46
1415 1 98.2313 8.69377 854 35.4297 602.101 454.198
1416 1 53.0972 11.4507 608 41.7961 601.597 443.424
1417 0 54.0399 11.1029 600 41.9467 601.71 441.535
1418 0 55.052 10.6263 585 42.4684 602.342 439.032
1419 0 56.0288 11.2264 629 41.752 602.569 440.013
1420 0 57.0601 10.7431 613 42.6884 602.171 438.687
1421 0 61.1608 10.922 668 41.9326 603.597 438.467
1422 1 98.1792 10.3892 1020 37.0314 603.329 443.844
1423 1 0 0 0 -nan -nan -nan
1424 0 0 0 0 -nan -nan -nan
1425 0 0 0 0 -nan -nan -nan
1426 0 25.8401 5.34053 138 12.7681 591.601 499.399
1427 1 38.0396 8.78032 334 42.991 602.76 447.581
1428 0 38.0706 8.93077 340 43.2559 602.444 448.241
1429 0 47.0479 11.6052 546 39.848 602.046 452.485
1430 0 40.0227 9.24476 370 43.8081 602.768 446.351
1431 0 42.0156 9.28227 390 44.1615 601.82 445.21
1432 1 52.0242 12.2635 638 39.6191 602.426 447.976
1433 0 52.054 12.391 645 40.2233 603.327 446.402
1434 0 56.0443 11.7764 660 40.4136 603.015 445.985
1435 0 58.0685 12.0719 701 40.2268 603.047 445.171
1436 0 57.0798 12.7541 728 40.2376 603.169 443.033
1437 1 97.7456 9.93395 971 35.7631 604.378 451.471
1438 1 60.1348 12.5385 754 41.1459 602.867 442.936
1439 1 84.292 11.3534 957 37.9154 603.084 446.208
1440 1 65.1251 12.7754 832 41.0108 602.879 440.327
1441 0 61.0993 10.573 646 44.2446 602.703 435.012
1442 0 69.2599 12.9801 899 41.1657 602.254 437.367
1443 0 72.1756 12.2756 886 41.9379 603.016 436.5
1444 0 75.1418 12.9089 970 41.3536 603.196 435.73
1445 0 79.2275 12.8491 1018 41.2927 603.144 434.445
1446 0 78.0672 12.4124 969 42.7018 603.354 431.754
1447 0 81.1415 13.0513 1059 41.9858 603.84 432.444
1448 0 85.2033 11.9831 1021 43.1616 603.645 429.046
1449 1 219.742 14.1393 3107 35.2704 603.666 409.348
1450 1 165.657 12.1094 2006 42.7168 603.728 393.817
1451 0 164.459 11.8084 1942 43.0463 603.834 392.845
1452 0 168.985 13.5455 2289 37.6134 603.516 416.688
1453 1 147.806 25.2763 3736 31.8274 602.856 383.616
1454 0 144.619 25.4669 3683 32.1903 602.985 383.245
1455 0 140.329 14.5301 2039 36.2943 603.443 428.358
1456 1 56.0829 12.1606 682 42.2962 603.038 441.915
1457 0 59.0349 12.3825 731 41.7141 602.882 440.36
1458 0 60.0501 12.0566 724 42.1906 603.315 439.644
1459 0 62.0443 12.1687 755 42.147 604.111 438.06
1460 0 65.1271 12.0227 783 42.1558 603.633 436.986
1461 0 72.2729 12.2729 887 40.9357 604.249 437.058
1462 0 72.0989 12.9683 935 40.7487 603.408 434.244
1463 0 73.1902 12.2421 896 41.8672 603.536 432.18
1464 0 79.2009 11.6665 924 42.2716 603.786 433
1465 0 80.1358 11.468 919 42.864 603.642 431.536
1466 0 84.1989 12.031 1013 42.7749 603.215 430.857
1467 0 84.1802 12.1406 1022 42.8963 604.067 429.408
1468 0 90.2201 12.1481 1096 42.9535 604.117 427.924
1469 1 45.0989 11.3306 511 43.2524 604.235 448.742
1470 0 48.1082 11.2455 541 43.8022 604.477 447.508
1471 0 49.0707 11.9623 587 43.1925 605.307 446.288
1472 0 52.0668 11.8502 617 43.3079 604.796 445.716
1473 0 53.0733 12.1718 646 43.2152 604.262 445.096
1474 0 57.0781 11.6332 664 43.3599 604.664 444.684
1475 0 56.0595 12.5403 703 43.4253 604.232 443.404
1476 0 59.0798 11.696 691 44.3531 604.517 442.544
1477 0 59.1004 11.692 691 45.0593 603.881 441.609
1478 1 90.3219 41.2857 3729 23.0598 604.298 442.551
1479 1 66.4684 24.1167 1603 32.8665 604.955 431.68
1480 1 88.0935 10.977 967 40.8604 603.935 445.774
1481 1 65.1681 24.1683 1575 33.3511 605.213 431.335
1482 1 117.405 32.2474 3786 23.0829 602.114 443.201
1483 1 85.1346 19.4163 1653 32.3176 600.258 430.959
1484 0 84.994 19.4131 1650 32.4042 600.005 430.867
1485 0 84.0452 18.7399 1575 32.6006 600.455 430.372
1486 1 33.4498 11.6593 390 12.7103 603.226 502.167
1487 0 0 0 0 -nan -nan -nan
1488 0 0 0 0 -nan -nan -nan
1489 0 0 0 0 -nan -nan -nan
1490 1 25.5422 8.80896 225 13.1733 610.467 495.787
1491 0 0 0 0 -nan -nan -nan
1492 1 48.1334 11.4058 549 45.1767 604.297 448.168
1493 0 51.1977 11.5435 591 44.9695 604.592 447.195
1494 0 52.1608 11.8863 620 45.0097 603.647 446.881
1495 0 54.2073 11.29 612 45.7696 603.448 444.961
1496 0 53.0737 11.9833 636 45.4009 603.013 445.263
1497 0 55.1875 11.8143 652 45.5951 603.008 444.925
1498 0 59.1319 11.3644 672 45.1905 604.049 442.263
1499 0 58.1369 12.1093 704 45.2642 603.899 441.537
1500 0 60.1031 12.4952 751 45.1518 604.471 441.274
1501 1 94.1906 10.776 1015 40.5527 604.47 446.02
1502 1 65.131 12.4211 809 44.7268 604.077 440.691
1503 0 67.1286 12.6027 846 44.9255 603.784 437.771
1504 0 71.2514 12.0559 859 45.1991 603.526 437.281
1505 0 70.163 12.528 879 45.1559 603.817 435.331
1506 0 77.2034 12.072 932 44.5966 604.322 435.251
1507 0 76.1361 12.4251 946 45.5328 603.571 434.328
1508 0 78.1054 12.5984 984 45.7022 603.264 432.488
1509 0 81.1538 12.7659 1036 45.6303 602.675 431.32
1510 0 82.1743 12.7899 1051 45.9201 603.522 430.439
1511 1 45.0356 10.8137 487 46.8357 603.838 448.505
1512 0 44.111 12.0151 530 47.5019 602.702 447.668
1513 0 49.1234 11.4202 561 47.3155 603.462 446.652
1514 0 51.1422 12.3968 634 46.1104 604.033 447.451
1515 0 51.1587 12.4905 639 195.89 604.017 447.637
1516 0 55.0884 11.89 655 46.5389 604.031 445.208
1517 0 53.0304 12.3703 656 47.1296 604.355 445.123
1518 0 55.1734 12.796 706 46.2606 603.85 443.994
1519 0 57.0825 12.5082 714 46.8431 603.769 444.172
1520 0 59.112 12.3833 732 46.7828 603.948 442.548
1521 0 60.0932 12.5638 755 46.857 603.578 440.689
1522 0 65.0671 12.0798 786 46.6985 604.472 440.74
1523 0 65.1041 12.5338 816 46.7022 605.009 438.819
1524 0 66.1406 13.0782 865 46.385 603.794 439.042
1525 0 68.1092 12.3772 843 47.433 603.419 437.108
1526 0 72.0417 12.1319 874 47.4119 603.712 437.009
1527 0 73.2139 12.3747 906 47.7064 603.131 434.738
1528 0 71.424 8.51255 608 44.778 603.293 452.171
1529 1 44.0291 11.0836 488 47.6844 603.418 449.035
1530 0 45.0374 10.5246 474 48.4599 604.7 449.584
1531 0 44.0566 10.9859 484 48.3388 603.853 449.624
1532 1 76.4998 8.58825 657 44.2801 604.212 452.212
1533 1 46.0441 12.1623 560 47.5179 604.052 448.643
1534 0 48.113 11.6185 559 48.2594 604.118 447.46
1535 0 49.082 12.0207 590 48.0322 604.251 445.741
1536 0 53.071 11.8332 628 47.6178 604.801 445.363
1537 0 52.1085 12.3972 646 47.6037 604.424 445.373
1538 0 55.0698 12.3298 679 47.5523 604.035 442.92
1539 1 107.092 9.45917 1013 40.6377 601.664 449.664
1540 0 92.9 10.2153 949 43.3825 603.051 446.497
1541 1 59.0868 12.7609 754 48.1101 603.7 441.024
1542 0 60.101 12.5955 757 48.4042 604.338 439.901
1543 0 64.0638 12.5968 807 48.2107 604.434 439.774
1544 0 66.0636 12.1247 801 48.7503 603.8 437.175
1545 0 69.0756 12.8989 891 47.8822 604.68 435.577
1546 0 71.1275 13.047 928 47.8825 604.703 435.921
1547 0 72.226 12.9178 933 48.7953 604.624 433.628
1548 0 76.1354 12.9769 988 48.7925 604.792 432.331
1549 0 78.1827 12.701 993 49.3525 604.583 430.404
1550 0 81.2083 13.176 1070 48.8841 604.642 430.756
1551 0 84.2271 13.0006 1095 49.7132 604.546 429.063
1552 0 89.1868 12.5467 1119 50.0956 604.692 428.308
1553 0 90.207 13.336 1203 50.0457 605.285 428.009
1554 0 91.2978 13.33 1217 50.4322 604.942 425.034
1555 1 48.1748 11.8112 569 50.9877 604.355 448.561
1556 0 48.1555 11.3175 545 53.0312 604.811 445.494
1557 0 49.119 12.1542 597 52.4824 603.677 445.57
1558 0 52.0587 12.3514 643 51.521 603.933 445.698
1559 0 52.084 11.7694 613 53.062 603.907 444.269
1560 0 55.1785 12.6317 697 51.5007 604.574 445.534
1561 0 56.0982 11.872 666 52.509 604.608 444.177
1562 0 57.106 12.7657 729 52.2016 603.407 443.964
1563 0 62.12 12.4115 771 51.6329 604.335 442.401
1564 0 64.1204 11.9931 769 52.5644 604.342 441.671
1565 0 63.0858 12.5543 792 51.9508 604.826 439.711
1566 0 66.0765 12.6823 838 52.2637 604.963 438.852
1567 0 67.059 12.6008 845 53.213 604.391 437.846
1568 0 69.1017 12.5178 865 53.2358 604.449 436.729
1569 0 72.0818 13.0685 942 52.8386 604.851 434.265
1570 0 74.0838 12.8908 955 53.3026 604.472 434.224
1571 0 77.0374 12.9547 998 53.518 604.966 432.876
1572 0 80.0861 12.6489 1013 53.6881 604.756 432.07
1573 0 84.0908 12.4389 1046 53.6893 605.106 430.575
1574 0 84.1493 12.6798 1067 53.8763 605.178 428.426
1575 1 44.0452 11.3747 501 53.2435 604.399 448.946
1576 0 44.0498 11.8956 524 53.3034 603.868 449.805
1577 1 79.0836 9.68596 766 48.0783 604.905 448.153
1578 1 54.0248 11.6613 630 51.9794 604.727 445.402
1579 0 54.0257 11.6056 627 51.6539 604.034 445.721
1580 0 53.0531 11.7241 622 51.8955 604.539 444.987
1581 0 51.0155 12.1924 622 51.8006 604.844 445.262
1582 0 56.0775 11.8229 663 51.2293 604.747 445.059
1583 0 56.1145 12.9735 728 50.4478 604.58 444.522
1584 0 59.172 12.3876 733 50.1937 604.768 442.24
1585 0 62.045 11.7979 732 50.6107 604.877 441.69
1586 0 62.0295 11.817 733 50.8008 605.21 439.85
1587 0 65.0271 13.1484 855 48.6573 605.058 440.333
1588 0 67.0508 12.2295 820 50.039 604.282 438.315
1589 0 66.0866 12.6198 834 49.8165 605.236 436.857
1590 0 71.1031 12.3061 875 49.5246 604.775 435.955
1591 0 72.1222 12.2847 886 49.7302 604.738 434.659
1592 0 77.1256 12.4213 958 48.8977 603.977 434.245
1593 0 79.0425 12.449 984 49.0142 603.765 433.258
1594 0 81.1791 12.6634 1028 48.715 604.152 432.816
1595 0 83.0449 12.2584 1018 49.2397 604.502 430.792
1596 1 45.0268 10.5937 477 48.4151 604.363 449.43
1597 0 46.0781 10.6341 490 48.4857 604.59 449.99
1598 0 45.0487 11.4321 515 47.9282 604.338 449.986
1599 0 47.0155 11.0176 518 48.2239 604.494 447.878
1600 0 49.0158 11.3637 557 47.5063 605.472 447.075
1601 0 51.0955 10.8229 553 47.6799 605.293 445.879
1602 0 52.1129 10.8802 567 47.7196 604.73 445.09
1603 0 53.0549 11.6295 617 47.0194 604.462 445.11
1604 0 54.0828 11.5379 624 47.4054 605.367 444.234
1605 0 55.0428 11.7182 645 47.0651 604.682 444.355
1606 0 58.0595 12.0394 699 46.3977 604.159 442.632
1607 0 59.0773 11.7135 692 47.2442 603.562 441.491
1608 0 62.0325 12.171 755 46.5682 603.821 440.136
1609 0 62.2061 11.478 714 47.6611 604.161 438.906
1610 0 66.1226 11.7055 774 47.199 604.22 438.141
1611 0 68.1699 11.486 783 47.7535 604.914 436.232
1612 0 72.3377 12.0546 872 46.8888 604.982 436.171
1613 1 109.923 11.0077 1210 41.1256 604.538 443.217
1614 1 76.257 10.976 837 48.7849 604.295 433.415
1615 0 78.1336 11.1988 875 49.0434 604.496 432.461
1616 1 41.065 10.179 418 48.9904 604.706 451.383
1617 0 43.1051 10.3932 448 48.6004 604.824 450.25
1618 0 43.2832 10.1887 441 49.127 605.417 448.95
1619 0 46.1228 10.5588 487 48.4908 605.23 448.926
1620 0 46.0892 10.5665 487 49.269 605.131 447.53
1621 0 50.1255 10.8129 542 48.1937 605.109 446.821
1622 0 47.076 11.3221 533 49.2852 604.796 445.021
1623 0 51.041 11.4418 584 47.9675 605.019 445.098
1624 0 50.0808 11.7011 586 48.9215 604.555 444.256
1625 0 52.0764 11.3487 591 48.8477 605.45 444.575
1626 0 54.0737 11.5583 625 48.7088 605.65 443.957
1627 0 54.1714 11.1498 604 49.5348 605.311 442.169
1628 0 59.0858 10.4255 616 49.5195 604.98 441.445
1629 0 62.1028 11.1428 692 48.3902 605.501 440.62
1630 0 62.1213 11.3327 704 49.446 604.3 440.027
1631 1 96.2116 10.7679 1036 43.0608 605.128 443.472
1632 1 64.1357 11.9122 764 49.2565 605.775 437.794
1633 0 65.1905 11.4281 745 50.3275 605.164 434.574
1634 0 70.0938 11.613 814 49.7494 604.855 433.676
1635 0 74.098 11.4848 851 49.5323 605.162 433.243
1636 0 73.149 11.7432 859 50.4738 604.984 432.366
1637 1 39.0603 9.62614 376 52.3644 604.513 449.434
1638 0 38.0139 10.3909 395 52.3696 604.387 449.01
1639 0 38.0231 11.1511 424 52.3892 604.858 448.474
1640 0 42.0553 10.5813 445 51.9663 604.84 447.766
1641 1 102.399 6.85551 702 40.3433 601.02 462.291
1642 1 43.067 11.4473 493 50.7343 604.767 446.377
1643 0 46.1154 11.3194 522 50.1667 605.761 446.512
1644 0 49.0523 11.131 546 50.0879 604.832 445.793
1645 0 48.1072 10.8923 524 51.0324 605.282 444.632
1646 0 49.0374 11.5218 565 50.1522 605.97 442.621
1647 0 51.0849 10.923 558 50.5269 605.706 441.903
1648 0 53.0807 11.5485 613 49.6639 605.785 441.622
1649 0 54.0726 11.8914 643 49.1477 605.275 439.596
1650 0 55.0532 11.6614 642 49.4611 606.151 439.871
1651 0 57.0907 12.016 686 49.2434 605.554 438.271
1652 0 63.0992 11.2204 708 48.524 605.576 438.018
1653 0 64.1296 11.8354 759 47.8353 605.557 436.643
1654 0 63.0768 11.8427 747 47.9973 604.34 434.926
1655 0 67.1245 12.2459 822 46.7518 604.631 435.259
1656 0 68.1043 12.2166 832 46.506 605.278 433.31
1657 0 71.1609 11.8183 841 46.3377 604.918 431.58
1658 0 77.1426 11.4593 884 45.9299 604.831 432.688
1659 0 78.1491 11.5548 903 45.7719 605.159 431.208
1660 0 79.0539 12.093 956 44.9812 605.527 430.846
1661 0 83.1466 12.1232 1008 44.5724 605.335 427.991
1662 0 87.1502 11.463 999 45.2492 604.916 427.23
1663 1 116.909 11.8041 1380 39.263 605.886 435.011
1664 1 51.0501 10.4799 535 43.1888 605.282 445.286
1665 0 52.1113 10.2665 535 43.4523 604.809 445.837
1666 0 51.1688 10.5142 538 43.3625 605.128 445.623
1667 0 50.0835 10.3627 519 43.499 606.039 445.127
1668 1 81.1079 9.40722 763 37.5452 606.914 450.709
1669 1 65.0021 19.907 1294 30.7063 610.038 434.266
1670 0 67.4709 18.482 1247 31.1267 610.15 433.475
1671 0 65.6194 21.0456 1381 29.9928 609.639 434.159
1672 0 63.9482 20.0631 1283 30.7693 610.07 433.539
1673 1 93.9053 9.55217 897 37.2375 605.825 444.223
1674 1 62.0334 11.4938 713 42.1669 606.533 438.367
1675 0 62.0615 12.1009 751 41.8309 605.631 437.141
1676 0 64.1299 11.1181 713 42.7714 605.626 435.182
1677 0 67.1111 11.3096 759 42.3439 607.036 434.208
1678 0 67.1175 11.5022 772 42.2591 606.738 431.908
1679 0 70.0702 11.988 840 41.9619 606.808 431.754
1680 0 73.071 11.701 855 42.5193 606.625 430.149
1681 0 77.0623 11.7567 906 41.8157 606.597 428.939
1682 0 79.1244 11.5262 912 42.409 606.213 427.382
1683 0 82.1414 11.1272 914 42.8326 605.945 426.094
1684 0 82.103 12.1311 996 42.2159 606.099 425.051
1685 0 85.1424 11.3457 966 42.5766 606.291 421.38
1686 0 90.2588 11.5557 1043 42.557 606.156 422.122
1687 0 94.2104 11.5062 1084 42.071 605.848 419.367
1688 0 96.1348 11.5775 1113 42.3333 605.757 419.034
1689 1 45.0319 11.3475 511 43.6928 605.07 441.812
1690 0 48.0867 11.5209 554 43.4296 605.038 441.28
1691 0 49.0979 11.0595 543 44.0755 605.54 440.455
1692 0 52.1525 12.0416 628 42.2118 605.583 440.113
1693 0 53.0504 12.064 640 42.6156 604.667 439.234
1694 0 54.1086 11.9205 645 42.6946 604.967 437.691
1695 1 76.1551 11.7261 893 37.9731 604.251 440.174
1696 0 79.9488 11.4698 917 37.7372 604.288 440.652
1697 1 60.1035 11.8795 714 42.5518 604.388 433.973
1698 0 64.0676 11.5503 740 40.6257 604.746 433.501
1699 0 62.1506 11.2951 702 41.3547 604.751 431.82
1700 0 68.0406 12.9922 884 39.1267 604.386 430.516
1701 0 71.1532 11.9039 847 40.4238 604.411 430.299
1702 0 72.2022 11.3847 822 41.2092 604.221 428.64
1703 1 151.254 12.0658 1825 40.5079 603.962 390.602
1704 1 76.1536 11.6344 886 41.4424 604.936 426.909
1705 0 75.1238 11.0751 832 42.5769 604.894 425.424
1706 0 82.2458 11.1495 917 42.0371 604.575 425.067
1707 0 83.2004 11.1538 928 42.25 604.656 422.656
1708 0 88.1424 11.7878 1039 41.5813 605.14 423
1709 0 89.065 12.4404 1108 41.3926 605.274 420.252
1710 1 112.22 12.9566 1454 36.9959 604.486 429.184
1711 1 94.1028 12.1675 1145 42.3354 604.58 417.457
1712 0 98.0838 12.1223 1189 42.3776 604.676 416.263
1713 0 99.2468 12.0608 1197 43.1596 604.248 414.466
1714 0 102.138 12.0915 1235 43.2721 604.49 412.038
1715 0 115.092 7.02916 809 39.2658 605.362 444.093
1716 1 57.1431 12.2675 701 43.3466 604.718 435.024
1717 0 57.0665 11.9159 680 44.3441 604.722 434.607
1718 0 61.0237 11.9134 727 43.9615 604.388 433.092
1719 0 60.1145 11.5779 696 44.6839 604.675 431.576
1720 0 64.1547 12.6413 811 43.4217 605.052 432.065
1721 0 67.1429 13.1362 882 43.1395 604.386 429.515
1722 0 67.1429 13.1362 882 199.829 603.386 429.515
1723 0 74.1596 15.2104 1128 40.398 604.365 425.281
1724 0 73.1517 13.3831 979 43.3596 605.034 426.307
1725 0 76.2163 11.9397 910 45.4352 604.11 426.206
1726 0 78.1376 11.9789 936 45.6613 604.154 426.098
1727 1 127.052 9.90146 1258 40.6709 602.989 433.427
1728 1 80.1445 11.6415 933 46.7192 603.83 424.237
1729 0 78.1021 11.8691 927 47.452 603.807 423.029
1730 0 79.0773 11.6215 919 47.975 603.873 422.939
1731 0 72.0775 9.24006 666 42.6396 603.862 446.784
1732 1 45.0038 11.3768 512 47.9082 603.973 443.082
1733 0 47.0296 11.7373 552 47.4638 603.185 442.145
1734 0 50.0495 11.7883 590 46.9102 604.025 442.01
1735 0 49.045 12.0705 592 47.5625 604.096 440.875
1736 0 51.0365 12.207 623 47.8571 603.453 441.189
1737 0 52.0932 12.0553 628 47.9092 604.382 440.818
1738 0 52.0391 12.1639 633 48.5656 604.063 438.738
1739 1 107.118 7.8138 837 44.4277 603.704 443.466
1740 1 56.0738 12.2339 686 48.2711 603.913 437.506
1741 0 58.0396 12.457 723 48.4481 603.953 436.722
1742 0 62.1127 13.6365 847 47.0933 603.763 434.437
1743 0 64.048 12.5375 803 48.2814 603.596 433.775
1744 0 64.095 12.4503 798 49.1216 603.14 433.648
1745 0 67.1036 12.3987 832 48.8702 603.644 431.893
1746 0 73.0766 11.5222 842 49.0321 603.964 430.58
1747 0 71.1364 12.8064 911 48.5434 603.796 427.887
1748 0 76.0862 12.0784 919 48.8281 603.75 427.859
1749 0 76.1299 12.1897 928 49.1746 603.722 426.669
1750 0 81.106 12.0583 978 48.9397 603.476 425.957
1751 1 39.0469 11.2173 438 47.7009 603.505 446.128
1752 0 37.0689 11.681 433 48.5566 603.841 445.637
1753 0 42.0063 11.5459 485 47.1423 604.414 444.887
1754 0 40.0133 11.5462 462 48.1472 604.167 442.805
1755 0 41.0576 11.3256 465 48.1204 604.624 442.576
1756 0 43.0316 12.0144 517 47.2901 604.219 443.397
1757 0 44.0094 11.9293 525 46.9295 604.404 442.328
1758 1 97.7259 7.08103 692 41.7572 605.27 449.295
1759 1 46.0243 11.9719 551 47.1543 604.044 441.201
1760 0 49.0177 11.9345 585 46.106 604.114 441.597
1761 0 53.0251 11.5794 614 45.6368 603.884 440.932
1762 0 53.0924 11.9603 635 45.4236 604.942 440.17
1763 0 52.0603 11.5635 602 47.0332 604.279 437.786
1764 0 54.0797 12.1302 656 46.6646 603.524 437.796
1765 0 59.0257 11.7576 694 46.1052 604.571 437.292
1766 0 58.0479 12.7136 738 45.2249 604.954 437.97
1767 0 62.0854 12.1446 754 45.683 605.365 437.401
1768 0 62.072 12.6627 786 45.9046 605.347 436.246
1769 0 65.0527 12.39 806 46.031 605.505 435.496
1770 0 67.0867 11.8951 798 46.4687 605.429 433.957
1771 0 68.0709 12.5751 856 46.1542 604.932 432.657
1772 0 71.1286 12.0345 856 46.4708 605.589 431.303
1773 0 75.1225 11.4879 863 47.409 605.657 430.407
1774 0 79.2422 12.039 954 46.8658 606.209 429.13
1775 1 38.0555 10.9577 417 47.0456 605.137 448.767
1776 0 41.0444 10.2572 421 47.2708 606.021 447.976
1777 0 40.0727 10.2314 410 48.5732 605.802 447.266
1778 0 42.1111 10.971 462 47.3593 604.632 447.05
1779 0 42.0591 11.6978 492 47.3252 605.427 447.553
1780 0 47.0961 10.9563 516 47.1066 605.535 446.862
1781 0 45.0391 11.5677 521 47.2111 605.507 445.896
1782 0 47.0719 11.7055 551 47.1107 605.606 446.359
1783 0 48.0588 11.2779 542 47.3911 605.094 444.889
1784 0 52.1685 10.9261 570 47.3684 605.004 444.216
1785 0 51.0964 11.8208 604 47.0083 604.662 444.391
1786 0 53.0759 10.9277 580 47.9103 605.574 441.916
1787 0 54.0631 11.0612 598 47.7057 605.38 441.898
1788 0 55.0726 11.8389 652 47.5721 604.77 440.374
1789 0 57.0955 11.8398 676 47.3713 604.525 440.596
1790 0 58.088 11.8097 686 47.7055 605.122 440.554
1791 0 61.1164 12.0099 734 47.3338 604.951 438.429
1792 0 62.1525 11.5683 719 48.0334 604.299 438.872
1793 0 65.2529 11.7543 767 47.734 604.044 436.862
1794 0 67.1248 11.933 801 47.975 603.617 437.019
1795 0 70.1326 11.7919 827 47.9625 604.329 435.021
1796 0 71.1133 11.0528 786 49.0496 603.953 435.412
1797 0 73.0839 11.2884 825 48.9648 604.143 435.513
1798 0 76.0834 11.4217 869 49.6122 603.254 432.992
1799 1 38.0508 10.6962 407 49.7887 603.688 450.319
1800 0 43.0348 11.1073 478 48.136 603.402 450.368
1801 0 42.0764 11.0275 464 48.1983 603.55 449.778
1802 0 43.0548 10.8234 466 48.573 604.18 450.094
1803 0 46.0353 11.6867 538 46.8941 603.552 449.379
1804 0 50.1567 10.8859 546 47.6136 603.354 446.641
1805 0 47.1327 11.3297 534 47.5412 604.14 447.017
1806 0 50.0913 11.3193 567 47.5344 604.342 445.093
1807 1 82.3808 9.10406 750 42.776 603.564 448.644
1808 1 50.0789 11.2822 565 48.3558 603.156 443.437
1809 0 55.1698 11.8181 652 46.5475 602.893 444.146
1810 0 55.0572 12.042 663 46.1916 603.323 440.585
1811 0 57.1305 11.535 659 46.4598 603.049 440.612
1812 0 63.0963 11.6172 733 45.3042 603.54 439.366
1813 0 60.1835 11.9302 718 45.624 602.979 436.908
1814 0 62.0607 12.0527 748 45.8048 602.727 436.025
1815 0 66.1718 11.9084 788 45.2386 602.673 435.832
1816 0 69.2023 11.9938 830 45.0253 601.713 434.3
1817 0 70.1023 11.9682 839 45.3576 602.337 433.731
1818 0 74.1933 11.5779 859 45.5367 602.694 431.418
1819 0 77.0923 11.9597 922 44.769 602.693 430.778
1820 0 79.0857 11.7215 927 45.0442 602.415 428.085
1821 0 82.1157 11.7395 964 45.0892 602.517 426.99
1822 0 84.1311 11.4702 965 45.8114 602.166 426.223
1823 0 86.2495 12.1856 1051 44.6774 602.276 425.225
1824 1 45.0293 10.904 491 44.4114 602.794 446.519
1825 0 49.0475 11.1321 546 43.1886 603.566 445.535
1826 0 50.0462 11.6093 581 43.0895 603.205 445.201
1827 0 47.0607 11.8358 557 44.088 603.338 443.102
1828 0 49.0814 11.5522 567 44.3845 602.189 442.122
1829 0 53.0367 12.0106 637 43.6672 601.764 441.758
1830 0 54.0172 11.737 634 43.7256 601.907 439.879
1831 0 55.0429 11.1004 611 44.3224 602.977 439.028
1832 0 58.0138 12.3419 716 42.8296 603.271 438.33
1833 0 59.0158 11.7087 691 43.2446 603.023 437.428
1834 0 61.0872 11.6718 713 42.9916 602.965 435.861
1835 0 65.0401 11.5006 748 43.1096 602.634 433.976
1836 0 66.1172 11.888 786 42.6501 603.202 433.531
1837 0 67.0773 11.6135 779 42.8151 602.647 431.999
1838 0 71.057 12.0185 854 42.1569 603.013 432.404
1839 0 74.1171 12.2374 907 41.5314 603.213 431.665
1840 0 76.0973 12.0372 916 41.6376 602.547 429.752
1841 0 80.2183 11.8925 954 41.2966 602.862 428.686
1842 1 41.0206 10.4826 430 42.4372 602.893 445.8
1843 0 44.099 11.2021 494 41.5445 602.575 445.012
1844 0 44.1131 11.1985 494 41.8178 602.826 444.022
1845 0 47.2032 11.5882 547 40.7367 602.618 443.618
1846 0 48.0384 10.8663 522 41.1916 603.527 443.364
1847 1 77.6468 45.7327 3551 19.9403 603.858 448.651
1848 1 51.1151 24.4938 1252 29.8738 602.407 435.47
1849 1 82.3759 11.6782 962 34.4678 602.713 446.118
1850 1 53.0543 11.3092 600 41.1033 603.815 439.62
1851 0 59.0564 11.7007 691 39.7728 603.514 439.907
1852 0 58.121 11.8718 690 40.5043 603.022 438.458
1853 0 60.1144 11.2286 675 40.9289 603.662 437.655
1854 0 62.114 11.4306 710 40.9028 603.135 435.911
1855 0 63.141 11.9099 752 40.8697 603.146 433.854
1856 0 64.0964 11.9507 766 40.9791 603.889 433.586
1857 0 66.0853 11.5306 762 41.2743 603.468 433.73
1858 0 69.1752 12.1864 843 40.7094 602.409 432.833
1859 0 75.1436 10.9657 824 41.2949 603.041 431.807
1860 0 74.1432 11.8285 877 40.8221 603.519 429.845
1861 0 80.2041 11.9321 957 40.2832 603.325 430.257
1862 0 80.2397 12.1885 978 40.6861 603.222 429.07
1863 0 85.2109 11.6534 993 41.1591 603.07 427.791
1864 0 88.1003 11.9636 1054 40.7789 602.946 426.652
1865 0 89.1833 11.5156 1027 42.0828 602.888 425.777
1866 0 95.1478 11.4348 1088 41.9081 602.261 424.72
1867 0 97.1434 11.8793 1154 41.9558 602.347 423.559
1868 0 98.106 11.8953 1167 41.6341 602.939 421.878
1869 0 103.255 11.5152 1189 41.947 603.841 420.122
1870 1 49.0429 11.7448 576 42.8993 603.083 444.247
1871 0 51.1057 12.5231 640 42.0922 602.78 443.953
1872 0 53.1265 11.8773 631 42.9778 602.239 442.815
1873 0 55.0207 13.2314 728 41.6607 602.124 441.055
1874 0 57.1072 12.5378 716 42.3561 602.158 441.337
1875 0 56.0914 10.786 605 44.1769 602.742 438.79
1876 0 60.1453 14.332 862 40.5812 602.722 436.309
1877 0 60.0509 12.7392 765 42.783 602.608 438.596
1878 0 63.052 11.9108 751 43.2916 602.636 438.061
1879 1 239.135 20.7707 4967 32.2025 602.674 391.475
1880 0 246.806 16.2314 4006 35.4923 602.019 390.45
1881 1 73.0478 12.4302 908 42.011 602.659 435.079
1882 0 75.1075 12.2358 919 42.3188 602.521 433.929
1883 0 76.1023 12.4569 948 42.2774 602.655 432.335
1884 0 78.2006 12.3912 969 42.516 603.195 430.679
1885 0 82.0384 12.4698 1023 41.8856 602.398 428.4
1886 0 84.1281 12.1719 1024 42.7627 600.383 427.385
1887 0 87.0894 11.6202 1012 43.0652 601.691 424.278
1888 0 90.1426 11.8368 1067 42.6935 602.283 422.554
1889 1 44.0142 10.8829 479 42.2422 602.117 445.405
1890 0 47.0472 11.2228 528 41.9186 602.284 444.581
1891 0 51.0457 11.5779 591 41.2656 601.14 443.985
1892 0 51.0585 10.674 545 42.855 601.459 442.844
1893 0 52.0706 11.8877 619 41.4265 601.771 442.258
1894 0 50.0444 10.8304 542 43.4613 601.208 440.566
1895 0 55.016 12.051 663 41.3258 601.253 441.575
1896 0 59.0394 11.6871 690 41.0826 601.262 442.052
1897 0 59.0242 12.7066 750 41.1147 600.448 440.965
1898 0 61.056 12.2347 747 41.1084 601.779 440.548
1899 0 59.1218 12.4489 736 41.7853 601.935 438.92
1900 0 66.1521 11.7003 774 41.6977 601.698 438.001
1901 1 87.1841 12.5252 1092 36.7308 601.962 441.125
1902 1 66.1649 11.9852 793 42.3569 601.955 435.039
1903 0 68.0805 12.4705 849 41.583 602.698 434.466
1904 0 70.1338 12.1625 853 41.8511 602.659 433.135
1905 0 72.1193 12.2991 887 41.7835 602.081 430.401
1906 0 74.1151 12.3592 916 41.8635 602.751 430.241
1907 0 75.1728 10.6687 802 43.5037 602.865 427.276
1908 1 104.4 10.9483 1143 38.5389 602.676 436.409
1909 1 78.1997 11.3939 891 43.0426 602.727 430.229
1910 1 44.2237 10.5147 465 41.1398 603.443 448.497
1911 0 43.0845 10.3053 444 42.9369 603.135 443.881
1912 0 46.033 11.4049 525 42.1924 602.785 444.219
1913 1 106.728 6.6243 707 36.8784 604.866 455.768
1914 1 46.0668 10.4848 483 43.9544 602.888 442.01
1915 0 50.183 11.757 590 42.5525 603.125 442.812
1916 0 51.1558 11.7289 600 42.38 603.865 441.053
1917 0 56.1081 11.7808 661 42.1422 603.386 440.395
1918 0 55.1101 11.4135 629 43.1018 603.186 439.908
1919 0 56.1992 12.0464 677 43.0251 602.845 439.6
1920 0 59.1766 11.9811 709 42.7913 603.113 438.945
1921 0 60.0598 11.4886 690 43.729 602.775 437.761
1922 0 61.1629 11.7064 716 43.9483 602.77 435.906
1923 0 70.1079 11.9102 835 42.5018 602.687 436.036
1924 0 66.2608 12.2244 810 43.2877 602.92 435.132
1925 1 92.2306 12.3061 1135 38.4458 602.609 441.143
1926 0 115.507 9.50595 1098 39.2022 601.392 441.317
1927 1 0 0 0 -nan -nan -nan
1928 0 0 0 0 -nan -nan -nan
1929 0 0 0 0 -nan -nan -nan
1930 1 12.0993 15.2075 184 13.2283 608.397 492.832
1931 1 41.0292 9.87102 405 44.2074 602.864 452.109
1932 0 39.0289 9.81325 383 45.436 602.614 451.272
1933 0 41.0572 10.5219 432 44.7106 603.306 452.144
1934 0 44.0702 10.211 450 44.82 603.109 450.671
1935 0 44.0614 10.2811 453 45.0177 602.92 449.695
1936 0 44.0367 10.1052 445 46.0135 601.921 448.726
1937 0 45.1616 10.5621 477 45.239 602.285 448.256
1938 0 47.065 10.6449 501 45.2335 602.287 447.87
1939 0 54.0744 10.2451 554 44.278 602.148 447.59
1940 0 50.0261 11.414 571 44.282 602.543 446.874
1941 0 50.1166 10.735 538 45.145 601.929 444.409
1942 0 53.1044 11.1479 592 44.5017 602.666 442.628
1943 0 55.0557 11.0434 608 44.3553 602.49 442.704
1944 0 56.0954 11.3735 638 44.0031 602.705 444.067
1945 0 56.0864 11.3753 638 43.9796 602.461 441.591
1946 0 60.0382 11.6759 701 42.8288 603.1 441.863
1947 0 63.1366 11.388 719 43.1878 603.958 439.997
1948 0 64.1758 11.3906 731 43.0561 603.272 438.234
1949 0 66.0683 11.5487 763 42.772 603.177 437.585
1950 0 69.0895 11.7094 809 42.7923 603.084 436.152
1951 1 135.414 9.47465 1283 35.6687 599.913 446.686
1952 1 76.2116 11.9929 914 42.4737 602.521 432.896
1953 0 75.1122 11.6093 872 43.6755 601.67 432.025
1954 0 82.1591 11.3073 929 43.3886 602.038 430.784
1955 0 80.1472 11.1046 890 44.527 601.657 427.945
1956 1 118.577 11.2754 1337 39.1825 600.961 436.251
1957 0 127.079 10.9695 1394 38.9096 601.313 433.155
1958 1 102.227 10.9853 1123 44.3001 602.182 420.152
1959 0 102.134 10.7996 1103 45.1695 601.992 419.945
1960 0 101.116 11.1654 1129 44.4987 601.896 419.552
1961 1 141.713 12.3136 1745 37.6991 602.447 430.366
1962 1 99.3497 11.0317 1096 45.0383 602.568 417.352
1963 0 101.192 10.9198 1105 44.876 602.147 417.267
1964 1 127.42 13.5144 1722 37.7178 602.261 428.286
1965 0 113.153 11.5861 1311 44.1785 602.465 414.179
1966 1 163.065 11.4249 1863 38.4498 601.283 422.075
1967 1 113.33 11.4621 1299 44.0932 602.808 410.578
1968 1 142.685 13.3791 1909 37.7129 602.792 421.804
1969 1 66.2149 11.2814 747 43.2878 601.734 434.622
1970 0 72.1346 11.2429 811 42.942 601.993 433.626
1971 0 70.0724 11.3026 792 43.7172 602.443 432.486
1972 0 75.2008 11.4361 860 43.5081 602.667 430.952
1973 0 74.3205 11.1679 830 44.5855 601.743 430.376
1974 0 79.2505 11.1671 885 44.1966 602.258 428.42
1975 0 83.3229 11.1974 933 44.5188 601.764 428.218
1976 0 85.1603 11.3668 968 44.2138 602.252 426.846
1977 0 86.0754 11.792 1015 44.33 602.805 426.009
1978 0 93.1469 11.4013 1062 44.5989 603.037 422.909
1979 0 94.2685 10.9793 1035 45.7092 603.185 422.287
1980 1 50.0317 10.8531 543 45.0939 602.945 443.873
1981 0 54.0449 10.7503 581 44.7762 602.682 442.706
1982 0 53.0883 11.0759 588 45.4626 602.696 440.866
1983 0 53.0226 11.5234 611 45.1588 602.687 440.164
1984 0 55.0568 12.1874 671 44.763 602.9 438.647
1985 0 58.062 11.7461 682 44.651 603.246 438.638
1986 0 57.0873 11.1233 635 46.5417 602.973 437.175
1987 0 64.0938 10.9839 704 45.6619 602.533 437.996
1988 0 62.0795 11.5658 718 45.5613 603.29 437.368
1989 0 64.19 11.9333 766 44.8551 603.452 437.017
1990 0 66.0872 11.4546 757 45.2325 603.198 433.848
1991 0 70.137 11.3492 796 45.1206 603.274 433.617
1992 0 71.1577 11.4253 813 44.6113 602.539 433.478
1993 1 111.043 10.6355 1181 39.1761 601.915 437.963
1994 1 74.1711 11.6218 862 44.7227 601.979 431.648
1995 0 80.1342 11.4059 914 44.4212 601.612 430.255
1996 0 80.1342 11.4433 917 205.082 601.619 430.305
1997 0 82.2414 10.9434 900 45.1689 602.824 427.131
1998 0 87.2791 11.7325 1024 44.4434 602.559 426.762
1999 0 89.1014 10.8865 970 45.6938 601.775 425.422
2000 0 85.655 6.64293 569 41.0439 603.749 454.181
2001 1 51.3586 20.9313 1075 32.5814 600.715 439.055
2002 0 52.8743 21.3904 1131 32.5544 600.44 439.458
2003 0 52.5984 20.1717 1061 33.8822 600.122 439.114
2004 0 53.9117 20.8304 1123 33.3428 600.418 439.484
2005 1 26.4361 10.0242 265 12.4566 601.396 506.838
2006 0 0 0 0 -nan -nan -nan
2007 0 0 0 0 -nan -nan -nan
2008 0 0 0 0 -nan -nan -nan
2009 1 10.0454 10.2534 103 13.0874 603.146 497.282
2010 1 60.0337 11.4769 689 43.9797 601.499 443.135
2011 0 60.0594 11.5719 695 43.9007 601.668 440.993
2012 0 60.069 11.7532 706 43.9986 601.789 439.966
2013 0 64.0522 11.3189 725 43.9945 601.692 438.828
2014 0 65.1425 12.2347 797 43.1857 601.363 437.723
2015 1 22.5089 9.81836 221 12.8597 599.552 495.38
2016 0 0 0 0 -nan -nan -nan
2017 0 0 0 0 -nan -nan -nan
2018 1 20.3665 7.16865 146 13.1781 598.13 489.068
2019 0 30.542 3.53612 108 13.1296 606.222 490.389
2020 1 0 0 0 -nan -nan -nan
2021 1 105.208 11.6721 1228 38.0138 601.338 436.23
2022 1 76.0851 11.6449 886 42.9086 601.471 428.818
2023 1 105.417 11.8293 1247 37.6046 600.999 436.071
2024 1 272.443 13.1881 3593 46.3437 600.174 325.925
2025 1 218.378 11.1733 2440 44.075 601.152 370.174
2026 0 216.707 11.061 2397 44.7981 601.987 367.531
2027 1 244.817 16.6696 4081 35.6425 602.365 390.346
2028 1 215.565 11.4304 2464 44.6778 601.496 365.195
2029 1 78.1056 10.5754 826 36.2107 601.148 444.498
2030 1 57.0952 11.1218 635 40.0819 600.943 440.436
2031 0 60.1792 11.4658 690 39.1942 601.204 438.868
2032 0 59.1062 11.2848 667 39.8726 601.241 436.01
2033 0 62.1979 10.8042 672 40.1503 601.168 434.272
2034 1 217.249 16.9897 3691 34.4814 601.485 392.59
2035 0 205.385 14.8794 3056 39.7107 601.732 358.494
2036 0 209.362 12.1178 2537 42.2767 601.955 363.372
2037 1 253.637 16.2871 4131 34.4904 602.482 388.386
2038 1 210.633 11.4702 2416 43.2065 601.512 362.409
2039 0 211.39 11.6183 2456 42.6372 601.816 365.046
2040 1 257.074 16.0771 4133 34.0854 601.43 391.022
2041 1 276.676 14.2513 3943 34.7274 602.407 388.489
2042 1 211.63 11.435 2420 42.0711 602.69 365.246
2043 0 213.406 12.3333 2632 41.3967 602.327 367.488
2044 1 240.668 16.5913 3993 34.2081 603.094 388.935
2045 0 227.637 11.3031 2573 42.6121 603.004 363.463
2046 0 234.664 11.2586 2642 43.0791 602.607 358.314
2047 0 239.805 11.4635 2749 43.3576 603.171 353.267
2048 0 251.9 11.6118 2925 43.5043 603.202 351.251
2049 1 235.802 15.5469 3666 35.1656 603.065 391.628
2050 0 238.885 16.4221 3923 34.7474 602.544 389.102
2051 1 56.1277 11.4382 642 41.3442 601.871 440.523
2052 0 56.122 11.2255 630 41.881 602.168 437.798
2053 0 61.1377 11.5804 708 40.5466 602.819 437.552
2054 0 63.1965 11.0607 699 41.2661 602.505 433.638
2055 0 65.1686 11.9229 777 40.462 602.81 433.771
2056 0 68.1274 11.7427 800 40.5525 602.748 432.809
2057 0 67.1579 11.8527 796 40.7651 603.359 431.296
2058 1 95.3194 11.7814 1123 35.9439 603.379 436.752
2059 1 69.149 11.3089 782 41.1061 602.294 430.673
2060 0 67.3033 10.4007 700 42.7771 602.346 428.573
2061 0 70.1591 11.3171 794 41.0227 602.934 430.525
2062 0 70.1189 10.91 765 41.5608 602.443 429.74
2063 1 41.1071 10.4362 429 40.6946 602.065 445.31
2064 0 43.2093 10.4376 451 40.7406 602.545 444.304
2065 0 45.1096 10.9511 494 40.4514 602.676 443.682
2066 0 42.0994 11.2116 472 41.1059 602.752 441.837
2067 0 46.2309 11.2479 520 40.0788 602.179 442.329
2068 0 47.0834 11.6177 547 40.192 602.104 442.335
2069 0 51.0988 10.92 558 40.1792 601.939 442.398
2070 0 49.1161 11.992 589 40.4635 601.596 442.365
2071 0 52.1113 11.1492 581 40.9312 601.916 440.172
2072 1 91.03 9.20576 838 35.8986 601.52 445.317
2073 1 51.1099 11.2503 575 41.3478 602.236 436.612
2074 0 56.1752 11.7668 661 40.1407 602.154 437.006
2075 0 58.1624 12.0697 702 39.8262 601.838 436.95
2076 0 59.1588 11.2578 666 40.7207 601.559 433.344
2077 0 61.2195 11.1729 684 40.6784 601.123 432.651
2078 0 63.2414 12.223 773 39.7076 601.815 431.833
2079 0 66.2467 12.3478 818 39.5941 601.385 431.566
2080 1 162.284 6.93844 1126 34.5542 597.976 446.091
2081 1 0 0 0 -nan -nan -nan
2082 0 25.4472 13.9898 356 12.2865 600.264 493.056
2083 0 19.5166 14.5517 284 12.3556 599.701 493.084
2084 1 0 0 0 -nan -nan -nan
2085 1 28.8046 7.95012 229 12.3755 594.419 491.908
2086 1 0 0 0 -nan -nan -nan
2087 0 0 0 0 -nan -nan -nan
2088 1 0 0 0 -nan -nan -nan
2089 0 3 19.6667 59 11.4407 620.407 487.593
2090 1 0 0 0 -nan -nan -nan
2091 0 0 0 0 -nan -nan -nan
2092 0 0 0 0 -nan -nan -nan
2093 0 0 0 0 -nan -nan -nan
2094 1 84.6471 9.21473 780 36.382 601.412 443.577
2095 1 121.091 39.0864 4733 18.2085 601.798 449.589
2096 1 75.4071 19.6798 1484 28.5135 606.094 427.273
2097 0 75.8266 19.993 1516 28.7553 606.272 428.146
2098 0 76.6559 19.4375 1490 29.1195 605.882 427.817
2099 1 114.295 9.72046 1111 31.6661 597.515 454.536
2100 1 79.2614 17.5495 1391 29.7807 597.009 430.356
2101 1 116.438 10.7439 1251 32.0592 603.864 448.269
2102 0 116.35 9.76368 1136 34.4991 601.209 442.805
2103 1 69.1621 11.3068 782 40.2762 602.324 434.262
2104 0 72.0793 12.07 870 39.8885 602.229 432.52
2105 0 76.0794 12.0795 919 39.3972 602.406 430.655
2106 0 74.1839 12.3881 919 39.8629 602.119 430.959
2107 0 76.1214 11.7838 897 40.7949 601.831 428.746
2108 1 107.708 48.483 5222 20.5749 601.74 431.544
2109 1 80.4257 22.8534 1838 31.4908 603.338 417.083
2110 1 255.803 15.9146 4071 36.2169 603.522 385.464
2111 0 255.259 15.8584 4048 36.5852 603.137 384.358
2112 0 277.756 12.6838 3523 45.5274 602.269 324.641
2113 1 276.862 15.961 4419 37.062 602.665 375.407
2114 0 282.029 16.4948 4652 36.6954 602.302 376.964
2115 1 56.0335 10.7793 604 41.8228 602.267 440.715
2116 1 90.7193 9.09398 825 36.9261 602.188 447.185
2117 1 56.0632 10.9341 613 41.8972 603.259 441.9
2118 0 58.0663 11.7452 682 41.4912 602.449 440.56
2119 0 58.0609 10.7473 624 43.4535 602.184 438.595
2120 0 62.0424 11.6694 724 42.2348 602.192 438.894
2121 0 61.0691 10.9548 669 43.3587 602.368 437.889
2122 0 62.1138 11.334 704 43.2031 603.143 436.729
2123 1 102.348 10.347 1059 38.5987 602.659 439.542
2124 1 68.0325 11.8179 804 43.4502 601.813 433.8
2125 0 71.1837 11.9269 849 43.3769 601.39 433.518
2126 0 72.0921 11.6102 837 44.147 601.564 432.965
2127 0 77.119 11.5665 892 43.6558 601.99 433.112
2128 0 78.1228 10.8291 846 44.5662 601.556 429.68
2129 0 79.1068 12.0849 956 43.7803 601.228 430.888
2130 1 114.74 11.9313 1369 38.5712 601.638 435.346
2131 1 87.1723 12.3319 1075 43.36 600.806 427.692
2132 1 42.1019 10.2846 433 44.9792 601.095 449.035
2133 0 44.1106 11.1538 492 43.9411 601.057 447.919
2134 0 45.0463 10.5669 476 45.208 601.044 447.088
2135 0 42.0339 11.1339 468 45.9765 600.731 444.509
2136 0 47.0413 11.6706 549 44.0146 601.79 445.574
2137 0 49.0778 11.6753 573 43.904 602.185 443.935
2138 0 53.0819 11.1337 591 43.9492 602.156 443.514
2139 1 90.6548 41.84 3793 20.7872 602.174 448.586
2140 1 57.0573 23.6078 1347 31.7468 603.322 434.013
2141 1 84.0982 10.5234 885 38.4633 601.778 445.403
2142 1 57.0565 12.1984 696 42.681 601.48 440.075
2143 0 56.0828 10.7163 601 44.5973 601.599 436.502
2144 0 60.1191 11.76 707 42.8685 601.772 437.231
2145 0 64.1332 11.9283 765 42.302 601.166 436.397
2146 0 64.0928 11.9358 765 42.5046 600.89 435.073
2147 0 63.9296 11.5596 739 12.3369 601.391 510.11
2148 1 0 0 0 -nan -nan -nan
2149 0 0 0 0 -nan -nan -nan
2150 0 17.8772 11.9146 213 13.2019 609.474 485.962
2151 1 78.2514 12.4343 973 40.741 602.794 430.125
2152 0 79.1845 11.4669 908 42.0154 601.904 426.972
2153 0 82.1804 12.5212 1029 40.8562 601.642 429.798
2154 1 42.038 10.5857 445 41.8404 601.831 446.51
2155 0 45.0428 10.7009 482 41.4564 601.778 447.944
2156 0 46.0301 11.449 527 41.0683 601.691 447.391
2157 0 49.0346 11.4001 559 40.6995 601.696 445.877
2158 0 50.1021 11.8957 596 40.854 601.371 444.758
2159 0 48.0506 11.2173 539 41.9091 602.069 442.484
2160 0 47.0676 11.3029 532 42.6335 601.008 441.464
2161 0 52.0499 11.0663 576 42.3177 600.948 441.559
2162 0 57.0297 11.4151 651 41.4409 601.29 443.109
2163 0 53.0257 10.1083 536 43.9291 600.414 438.502
2164 0 59.0255 10.7411 634 42.5237 601.819 439.205
2165 0 59.0313 11.333 669 42.0404 601.52 438.552
2166 0 60.051 11.357 682 42.2947 601.345 438.123
2167 1 111.745 8.85948 990 37.0394 601.85 446.426
2168 1 67.0362 12.0532 808 41.1658 601.27 437.223
2169 0 68.0869 11.9553 814 41.7506 600.808 435.405
2170 0 69.0187 12.0257 830 42.3434 601.308 433.178
2171 0 72.0716 11.8909 857 42.5718 601.138 433.995
2172 0 75.0943 12.0249 903 42.4596 601.186 432.415
2173 1 138.19 10.1238 1399 35.965 600.074 439.766
2174 1 78.1926 12.6099 986 42.7394 600.403 429.737
2175 0 83.1281 12.0657 1003 42.5523 600.73 428.094
2176 0 85.05 11.7931 1003 43.1994 601.422 425.364
2177 0 85.1075 11.1036 945 44.381 601.405 424.434
2178 0 93.1678 11.8925 1108 43.2085 600.942 424.432
2179 0 95.0687 11.9703 1138 43.6213 600.232 422.394
2180 1 47.0669 10.8781 512 43.3555 600.352 445.75
2181 0 49.0623 11.0472 542 43.0387 600.902 444.718
2182 0 50.096 10.959 549 43.3206 601.417 445.829
2183 0 52.0476 11.5471 601 43.0666 600.754 444.336
2184 0 50.034 10.6927 535 44.3402 601.133 441.615
2185 0 53.0521 11.5924 615 42.9154 601.252 441.741
2186 0 56.1086 12.0481 676 42.3077 600.824 440.886
2187 0 58.0612 11.8323 687 42.1368 601.243 440.608
2188 0 61.0538 11.1377 680 42.8647 601.628 439.775
2189 0 58.0421 10.613 616 44.4383 601.472 437.513
2190 0 63.1704 11.4769 725 43.3945 600.643 438.4
2191 0 66.116 11.3286 749 43.2563 600.574 437.052
2192 0 67.1553 10.8554 729 44.3265 600.894 434.757
2193 0 71.1649 11.8176 841 43.5565 601.034 434.09
2194 0 74.0632 11.1391 825 44.5527 600.901 432.142
2195 0 77.1735 11.4418 883 44.3884 601.375 430.39
2196 0 78.1592 11.7453 918 44.7593 600.976 429.158
2197 1 40.0977 9.3771 376 46.4388 601.176 447.987
2198 0 43.069 10.2162 440 45.7705 601.045 447.164
2199 0 42.115 9.97268 420 46.7286 601.457 445.679
2200 0 45.0513 11.0319 497 45.4004 601.189 445.294
2201 0 47.064 10.6876 503 46.0994 600.447 445.028
2202 0 46.0213 11.3643 523 45.6864 601.119 443.323
2203 0 53.0132 11.0916 588 45.5612 600.57 444.049
2204 0 51.0266 11.5626 590 45.9644 601.358 442.186
2205 0 52.0311 10.8589 565 46.7363 600.442 440.158
2206 0 54.0695 11.3557 614 46.2492 600.542 440.503
2207 1 93.6485 9.30074 871 40.5385 600.193 444.685
2208 1 57.1153 11.6256 664 46.0919 600.194 439.526
2209 0 58.0405 11.1302 646 46.4628 600.791 437.765
2210 0 64.109 11.9952 769 44.5241 601.073 437.71
2211 0 63.2702 10.4631 662 46.8792 601.267 435.048
2212 0 65.0356 11.2246 730 45.7616 600.882 433.526
2213 0 66.1197 11.4338 756 45.5847 600.499 432.243
2214 0 69.1825 12.0695 835 44.7844 600.36 432.491
2215 0 74.2315 11.2351 834 45.1847 600.496 430.743
2216 0 77.3138 12.0677 933 43.7299 600.916 431.768
2217 0 80.3021 11.6809 938 44.5661 600.711 429.059
2218 0 76.0893 11.6048 883 45.4304 601.528 426.954
2219 0 78.2108 10.5868 828 46.8285 600.275 424.365
2220 0 81.1651 10.5957 860 46.6802 600.883 424.345
2221 1 40.0316 9.89217 396 45.3914 600.063 446.063
2222 0 45.0726 10.3611 467 44.4111 600.737 445.657
2223 0 45.0831 10.8688 490 44.5449 601.59 445.702
2224 0 45.1141 10.684 482 45.2801 601.5 444.527
2225 0 48.0821 10.7109 515 44.9398 601.46 442.87
2226 0 49.1363 10.6846 525 44.9086 601.41 442.509
2227 0 50.1781 11.3197 568 44.0158 601.211 442.058
2228 0 50.0497 10.7094 536 45.1362 601.506 440.996
2229 0 53.05 11.1404 591 43.9036 601.567 440.475
2230 0 58.8887 28.5963 1684 11.5736 600.306 522.08
2231 0 60.0697 10.6543 640 43.5109 601.181 437.85
2232 1 84.4948 11.1841 945 37.6804 600.982 443.223
2233 1 58.099 23.3395 1356 32.6069 601.261 427.1
2234 0 60.0204 25.6579 1540 31.0273 600.738 427.747
2235 1 99.6762 8.74833 872 39.6858 600.6 440.219
2236 1 86.1698 10.9899 947 38.4087 600.846 441.889
2237 1 69.1117 11.5465 798 42.5426 600.911 432.827
2238 0 69.1657 10.8291 749 43.2897 601.247 431.462
2239 0 73.1144 11.6803 854 42.0211 601.021 431.166
2240 0 76.1344 11.1645 850 42.4012 600.864 429.876
2241 0 80.14 11.742 941 41.8342 600.592 429.513
2242 0 79.0942 11.657 922 42.7419 600.477 427.94
2243 0 81.1152 11.0953 900 43.1544 601.318 424.981
2244 0 92.6441 7.44786 690 36.1043 598.217 454.536
2245 1 45.0843 11.1791 504 42.8611 601.3 445.177
2246 0 48.1096 11.0789 533 42.5441 601.403 444.017
2247 0 49.0428 11.2555 552 42.6105 601.406 443.975
2248 0 48.0794 11.1066 534 43.5768 600.7 442.15
2249 0 54.021 11.0142 595 42.7244 601.094 442.919
2250 0 54.0275 11.4201 617 42.5818 601.887 441.955
2251 0 52.1719 11.1171 580 44.1552 601.391 439.443
2252 0 58.0784 11.5706 672 43.0521 600.372 439.772
2253 0 66.9925 21.2113 1421 32.1119 599.542 430.882
2254 1 96.8463 9.14852 886 38.6332 600.198 443.137
2255 1 59.0189 11.4878 678 43.3201 600.701 437.23
2256 1 86.0994 10.4182 897 38.8105 600.785 442.027
2257 1 57.0639 11.8288 675 43.1511 600.402 436.453
2258 0 60.0248 11.9617 718 43.2883 599.985 437.678
2259 1 0 0 0 -nan -nan -nan
2260 0 0 0 0 -nan -nan -nan
2261 0 0 0 0 -nan -nan -nan
2262 1 9.14718 10.1671 93 13.086 602.602 490.677
2263 1 81.106 12.3665 1003 41.1545 601 430.332
2264 0 86.14 11.7483 1012 41.6937 600.884 427.928
2265 0 87.1251 11.6499 1015 41.9143 601.153 427.568
2266 0 91.2057 11.5344 1052 41.73 601.376 427.238
2267 0 91.1379 12.1025 1103 41.7208 601.214 424.089
2268 0 98.1994 12.4542 1223 40.888 601.486 424.066
2269 0 99.1731 12.1606 1206 41.631 600.483 421.799
2270 1 155.062 9.99601 1550 37.4684 598.798 431.383
2271 1 57.0892 10.9128 623 42.3499 600.917 442.331
2272 0 59.0465 11.1607 659 42.4264 601.006 441.357
2273 0 58.0369 11.3204 657 43.2831 600.846 437.749
2274 0 61.0207 11.8321 722 42.4598 600.533 438.634
2275 0 62.0203 11.4801 712 43.0787 600.275 436.426
2276 0 66.0306 11.01 727 43.3659 600.495 434.624
2277 0 66.1677 11.3348 750 43.3533 600.783 434.037
2278 1 155.5 14.9454 2324 37.25 600.351 416.116
2279 1 70.1379 11.9336 837 43.4349 599.998 432.668
2280 0 71.1321 12.1886 867 43.2884 600.037 431.155
2281 0 75.3064 11.6989 881 43.3121 599.999 429.862
2282 0 80.1045 11.8221 947 43.4372 599.457 428.767
2283 0 81.086 11.272 914 43.8217 599.991 427.753
2284 0 84.1688 12.8551 1082 42.0813 600.864 427.724
2285 0 87.1657 11.9657 1043 43.5829 599.933 425.094
2286 1 190.373 16.8039 3199 36.9222 599.628 401.172
2287 1 167.154 12.7427 2130 44.4089 599.74 384.857
2288 0 169.295 13.2314 2240 43.65 600.472 386.557
2289 0 167.242 12.8138 2143 44.6202 600.418 385.301
2290 1 197.082 13.4918 2659 39.3343 599.852 402.695
2291 0 201.33 14.2949 2878 43.3186 599.754 365.008
2292 1 193.845 14.6767 2845 38.3582 599.916 403.381
2293 1 60.037 11.9593 718 43.0404 599.738 438.152
2294 0 59.0917 11.2537 665 44.1143 600.179 436.583
2295 0 63.0253 11.3923 718 43.1824 600.274 436.219
2296 0 66.0224 11.1932 739 42.8633 600.089 436.275
2297 0 68.085 11.8675 808 42.052 600.121 434.504
2298 0 71.0553 11.2588 800 42.625 600.25 433.805
2299 0 76.1223 12.0595 918 40.988 600.256 431.514
2300 0 74.0911 12.3632 916 41.0764 600.409 432.468
2301 0 80.1717 11.4754 920 41.4772 600.47 431.953
2302 0 79.0893 11.4933 909 41.9208 600.074 429.3
2303 0 82.1693 11.7562 966 41.6222 599.567 428.885
2304 0 85.0787 10.9781 934 42.1445 599.976 425.722
2305 0 87.1693 11.9308 1040 41.7519 599.298 425.802
2306 1 49.1063 10.5485 518 41.0116 600.089 445.93
2307 0 50.1019 10.2791 515 41.6039 600.833 443.546
2308 0 52.038 10.3578 539 42.1577 600.863 443.388
2309 0 52.079 11.9626 623 40.7239 600.809 442.515
2310 0 55.0386 11.7191 645 40.338 599.843 441.498
2311 0 56.0368 11.4032 639 40.5916 600.631 440.797
2312 0 55.0378 11.5012 633 199.286 600.63 440.893
2313 0 60.0224 11.529 692 40.5607 599.71 440.28
2314 0 61.0282 11.1915 683 40.9839 599.745 438.908
2315 0 62.0774 12.13 753 39.8353 599.494 437.899
2316 0 67.1022 11.5793 777 40.1145 600.407 436.242
2317 0 67.1741 11.4032 766 40.7467 600.457 435.65
2318 0 70.1111 11.0254 773 41.075 599.771 433.32
2319 1 117.953 47.129 5559 19.0588 599.612 445.101
2320 1 65.069 19.8558 1292 33.2183 600.037 420.125
2321 0 71.1142 24.6083 1750 30.3417 599.712 422.379
2322 0 72.1172 26.5263 1913 29.4182 599.778 423.672
2323 1 122.481 10.9486 1341 34.8218 599.207 439.103
2324 0 118.932 11.4855 1366 35.6179 599.351 435.108
2325 1 83.1502 10.9801 913 41.4294 600.12 427.136
2326 0 86.1708 11.0942 956 41.1224 599.881 428.14
2327 1 49.0444 9.56277 469 41.6098 599.949 443.546
2328 1 98.9937 7.80858 773 32.9314 595.797 457.653
2329 1 50.3037 24.6503 1240 29.7935 599.298 435.385
2330 0 52.2242 25.199 1316 29.6041 600.129 436.045
2331 0 52.2953 24.9927 1307 30.039 599.8 436.159
2332 1 77.1114 10.3746 800 37.6062 600.42 444.996
2333 0 100.071 9.62316 963 33.6594 602.916 452.317
2334 1 57.1218 12.3245 704 40.9858 600.128 439.572
2335 1 88.6914 10.7113 950 36.4926 600.599 443.998
2336 1 55.0608 10.3885 572 44.0542 600.542 434.666
2337 0 66.0672 12.0181 794 40.9622 600.369 435.78
2338 0 66.0556 11.5963 766 41.9817 600.36 435.941
2339 0 69.1338 11.9912 829 41.6248 599.396 434.023
2340 0 64.0323 10.8539 695 44.2432 599.662 430.216
2341 0 65.1323 11.4075 743 44.0215 600.05 429.55
2342 0 70.0713 10.2039 715 44.8587 599.902 425.98
2343 0 74.1076 11.9016 882 42.8764 599.965 427.632
2344 0 76.1001 11.774 896 43.5469 599.786 426.576
2345 0 80.03 11.0459 884 43.6403 600.679 426.777
2346 0 77.1402 10.8374 836 44.8134 600.785 424.189
2347 0 79.1773 11.2532 891 44.8204 600.094 423.515
2348 1 43.0239 8.73932 376 46.5133 600.902 441.064
2349 0 47.0663 10.2834 484 44.2996 600.614 444.578
2350 0 47.0673 10.8143 509 44.7525 600.057 442.78
2351 0 48.0707 11.1086 534 44.4101 599.725 441.815
2352 0 50.0053 11.7388 587 43.598 598.889 442.572
2353 0 53.0438 11.0286 585 43.7077 599.778 441.039
2354 0 58.1132 11.7701 684 42.0892 599.613 441.421
2355 0 56.0606 11.2735 632 43.4699 599.093 439.076
2356 0 63.0713 11.8754 749 41.9947 599.677 439.331
2357 0 60.1401 11.6395 700 43.1829 600.296 436.744
2358 0 63.0453 11.801 744 43.0417 599.991 435.667
2359 0 69.1333 11.9045 823 42.1652 600.166 435.497
2360 0 71.2628 12.2785 875 41.5566 600.192 435.131
2361 0 68.1315 11.8594 808 43.4641 599.917 432.181
2362 0 73.2762 11.0814 812 44.0751 599.83 429.759
2363 0 75.1136 11.8354 889 43.144 599.549 430.175
2364 0 79.2506 12.6561 1003 42.0379 600.229 429.524
2365 0 81.1835 12.1207 984 43.0203 600.114 427.39
2366 1 44.1049 9.86286 435 43.7724 598.94 446.536
2367 0 43.0727 10.935 471 43.7877 599.501 445.607
2368 0 45.0671 10.7395 484 44.0041 598.742 445.072
2369 0 47.035 11.0556 520 43.7538 599.169 444.112
2370 0 48.1111 10.5797 509 44.2004 600.34 442.99
2371 0 51.0308 10.621 542 44.3524 599.79 441.672
2372 0 52.0902 12.4208 647 42.6198 599.573 441.369
2373 0 51.0248 10.0735 514 45.7626 599.537 437.728
2374 0 52.0288 10.5711 550 45.4709 599.162 437.527
2375 0 56.0547 10.4184 584 44.9932 599.08 437.13
2376 0 59.0661 12.7654 754 42.0451 599.84 437.977
2377 0 60.0465 11.9574 718 43.2827 600.121 436.896
2378 0 63.1398 13.0346 823 42.0158 599.865 437.221
2379 0 61.142 11.7432 718 43.9095 599.528 434.079
2380 0 71.0791 11.3113 804 42.6667 599.98 433.55
2381 0 69.0551 12.3235 851 42.0282 599.36 432.147
2382 0 71.0726 12.2973 874 41.8638 599.464 430.914
2383 0 72.3336 8.15666 590 39.3322 598.271 448.922
2384 1 45.0411 10.4793 472 42.1674 600.112 445.072
2385 0 44.0526 10.5783 466 42.221 600.901 445.062
2386 0 45.0702 10.4726 472 42.2246 600.722 445.744
2387 0 43.0652 10.1938 439 43.713 600.692 445.055
2388 0 43.1012 11.3454 489 43.2434 600.843 444.552
2389 0 46.1238 11.0355 509 43.0118 600.503 442.918
2390 0 51.0569 11.2424 574 42.6237 599.836 443.756
2391 0 49.0458 11.8053 579 43.1174 600.421 442.174
2392 1 101.65 7.7324 786 37.7837 598.387 450.35
2393 1 51.0436 12.0093 613 44.2496 600.294 440.14
2394 0 51.0358 11.4234 583 44.4666 599.791 440.084
2395 0 54.0614 12.5043 676 43.574 599.735 441.373
2396 0 55.0521 10.8261 596 45.6997 600.399 437.864
2397 0 59.0512 12.2097 721 43.4882 600.692 439.312
2398 0 61.0495 11.9411 729 44.2332 601.484 438.029
2399 0 61.1552 12.3783 757 43.5244 600.966 437.75
2400 0 60.0785 12.5336 753 45.1514 601.324 435.651
2401 0 66.2622 12.3751 820 44.1024 600.53 435.317
2402 0 67.1577 12.3739 831 44.5439 600.354 434.876
2403 0 69.0848 13.2156 913 43.9956 599.993 435.323
2404 0 64.022 10.9962 704 47.9062 599.45 429.155
2405 0 74.1241 12.614 935 44.7604 600.311 431.476
2406 0 76.082 12.6574 963 45.2887 600.584 430.683
2407 0 79.0373 12.3233 974 46.115 600.707 429.777
2408 1 43.0274 10.4585 450 47.7222 599.916 446.391
2409 0 42.0123 11.1158 467 48.137 599.801 446.045
2410 0 46.0352 11.4695 528 47.4167 599.71 446.911
2411 0 45.072 11.8699 535 48.3551 600.209 444.875
2412 0 48.1147 11.5142 554 48.7238 600.238 444.814
2413 0 49.0411 12.2346 600 48.45 600.04 442.68
2414 0 52.0507 11.1622 581 49.8296 600.399 441.847
2415 0 44.0326 10.4014 458 53.131 600.046 438.061
2416 0 56.0502 11.8644 665 48.8361 600.263 441.18
2417 0 53.0079 12.6019 668 49.6287 599.859 440.141
2418 0 55.0144 12.8694 708 49.7203 599.935 440.263
2419 0 57.1018 12.1362 693 50.6061 600.286 438.462
2420 0 57.0719 12.6332 721 50.4313 600.43 438.155
2421 0 60.0819 13.0156 782 49.8235 600.137 437.523
2422 0 61.0999 12.5532 767 50.5684 600.185 436.104
2423 0 63.0481 12.9584 817 50.2203 599.889 434.982
2424 0 66.0239 12.9347 854 50.2845 599.684 435.992
2425 0 71.1187 12.4299 884 50.1968 599.526 433.035
2426 1 186.431 13.4205 2502 42.2178 599.708 413.769
2427 1 141.166 13.0343 1840 49.5527 599.949 398.66
2428 0 146.145 12.2823 1795 50.2429 600.414 395.085
2429 0 151.151 12.7356 1925 50.1335 599.886 394.172
2430 0 152.305 12.7114 1936 50.7536 599.78 393.011
2431 0 158.26 13.0671 2068 50.6214 599.96 391.445
2432 0 158.27 12.8957 2041 197.99 600.936 391.42
2433 0 167.147 12.8031 2140 51.0122 600.657 387.285
2434 1 74.2729 8.52262 633 46.0506 601.242 451.365
2435 1 45.0464 11.81 532 50.6109 600.46 447.976
2436 0 46.069 11.5045 530 50.617 600.642 446.685
2437 0 49.0472 11.438 561 50.6381 600.519 446.695
2438 0 47.0654 11.8134 556 50.8903 600.998 444.635
2439 0 49.0273 12.2177 599 50.1419 600.414 444.973
2440 0 51.0221 12.9356 660 49.1015 600.547 444.82
2441 0 53.0308 11.729 622 50.5257 600.945 444.241
2442 0 53.0256 12.0508 639 50.4632 600.664 442.571
2443 0 54.0307 13.2147 714 49.3109 600.936 442.283
2444 0 56.114 12.3142 691 49.8857 600.708 441.812
2445 0 58.0552 12.8843 748 49.3275 600.749 440.378
2446 0 62.0437 12.5396 778 49.4396 600.127 440.102
2447 0 62.071 12.7596 792 49.4596 600.447 439.519
2448 0 65.0615 12.7418 829 49.2919 599.633 437.31
2449 0 66.0384 12.629 834 49.9245 600.062 435.845
2450 0 69.0619 12.1196 837 49.9892 600.718 434.804
2451 0 74.1173 12.5207 928 49.4062 600.848 434.156
2452 0 72.0664 11.4894 828 51.6461 601.078 431.952
2453 0 76.1453 12.0559 918 50.8192 600.561 431.224
2454 0 81.1483 12.853 1043 49.0681 600.875 432.183
2455 0 81.0857 12.419 1007 50.7934 600.474 429.101
2456 0 83.0817 12.903 1072 50.5373 600.451 427.89
2457 0 87.1389 12.1645 1060 51.3689 600.798 426.197
2458 1 49.0916 11.9369 586 50.4778 599.517 445.604
2459 0 51.0313 11.4048 582 51.1357 599.93 444.782
2460 0 52.1032 11.9762 624 50.7051 600.317 442.984
2461 0 56.0857 12.3917 695 48.9842 599.695 443.722
2462 0 60.0674 11.7868 708 49.5353 599.881 442.251
2463 1 126.396 7.41322 937 43.4664 601.631 450.597
2464 1 60.0589 12.6709 761 48.2746 600.668 440.143
2465 0 62.1092 12.0272 747 49.3708 600.232 437.952
2466 0 62.2234 12.6801 789 48.6426 600.137 438.665
2467 0 67.0953 13.0561 876 47.4772 599.832 437.313
2468 0 70.189 13.0505 916 47.4345 600.162 437.253
2469 0 70.0972 12.4969 876 48.2192 600.566 435.092
2470 0 74.082 12.8101 949 47.6175 600.465 433.821
2471 0 76.2842 12.7025 969 47.5521 600.673 433.82
2472 0 78.1235 12.7362 995 47.1829 600.948 431.154
2473 0 83.1281 13.0882 1088 46.4035 600.745 430.796
2474 0 85.0839 12.376 1053 46.6695 601.731 429.414
2475 0 85.2353 12.7764 1089 46.8604 601.731 426.14
2476 0 92.1645 13.1612 1213 45.7131 601.225 426.618
2477 0 95.1578 12.5581 1195 46.8151 601.514 424.855
2478 0 95.1519 13.3996 1275 46.4635 601.525 423.879
2479 0 99.2044 12.9027 1280 46.6594 601.833 423.116
2480 0 99.2044 12.8623 1276 202.608 601.846 423.044
2481 0 105.298 12.9348 1362 46.9545 601.226 420.233
2482 1 35.8424 6.52858 234 12.8889 595.671 500.47
2483 0 25.0306 11.3062 283 11.3816 607.823 519.996
2484 1 60.1165 12.3094 740 45.4919 601.559 442.584
2485 0 62.117 12.1706 756 45.7143 602.452 440.368
2486 0 62.1232 11.8957 739 46.3369 602.716 439.706
2487 0 66.121 11.9175 788 46.3401 601.892 438.581
2488 0 69.1224 11.8196 817 46.0465 602.015 437.668
2489 0 70.0687 11.5173 807 46.829 601.974 436.768
2490 0 72.062 12.4337 896 45.7009 601.785 436.897
2491 0 72.0701 12.5988 908 46.4615 601.852 435.444
2492 0 75.1267 12.1927 916 46.9694 602.17 433.226
2493 0 77.1006 12.3994 956 47.0785 601.132 431.867
2494 0 84.1555 12.1323 1021 46.5406 601.228 433.658
2495 0 84.1497 12.1213 1020 47.7363 600.523 431.006
2496 0 88.1453 11.6058 1023 48.2454 601.799 429.236
2497 0 90.1064 11.9747 1079 47.8971 601.144 428.877
2498 0 91.2261 11.5976 1058 48.2306 601.635 426.712
2499 1 51.2164 10.6802 547 46.4406 601.218 447.888
2500 0 52.0266 10.4562 544 46.7482 601.474 448.066
2501 0 53.0608 11.3266 601 46.4426 601.797 447.045
2502 0 53.0778 11.323 601 46.386 601.815 446.21
2503 0 55.078 10.6576 587 46.9608 602.581 445.468
2504 0 58.0389 10.4413 606 47.0066 602.163 444.906
2505 0 57.0547 11.5679 660 46.0576 601.841 444.106
2506 0 61.0553 11.0555 675 45.9719 602.037 443.484
2507 0 60.0614 10.7723 647 46.9444 601.864 440.349
2508 0 65.1299 11.9454 778 44.8265 601.769 441.456
2509 0 69.0954 10.9559 757 45.2193 602.246 439.316
2510 0 70.0676 11.5603 810 44.9235 601.814 438.626
2511 0 71.1066 11.8836 845 44.7243 601.764 437.576
2512 0 74.1499 12.4478 923 44.0054 601.913 436.174
2513 0 74.1683 12.2424 908 44.489 602.369 433.997
2514 0 80.137 12.3788 992 44.0685 602.501 434.044
2515 0 80.092 12.0112 962 44.8389 601.906 430.55
2516 0 84.1598 11.692 984 45.4573 602.631 429.628
2517 0 88.1471 12.048 1062 44.9237 601.686 427.766
2518 0 89.1397 11.4539 1021 45.8355 601.338 427.432
2519 1 147.861 11.7205 1733 37.3641 600.264 437.572
2520 1 50.0142 10.3571 518 43.639 602.058 447.334
2521 0 49.0363 9.56434 469 45.1002 601.832 447
2522 1 79.1072 8.55801 677 39.9778 602.261 451.784
2523 1 49.0606 10.803 530 44.7377 601.355 447.072
2524 0 52.0329 11.1276 579 44.7599 601.625 447.256
2525 0 54.0884 11.6106 628 44.0239 601.651 446.914
2526 0 56.0352 11.8854 666 43.8333 600.685 447.114
2527 0 54.078 11.0211 596 45.995 600.777 443.29
2528 1 90.196 10.0781 909 39.4411 601.685 447.305
2529 1 62.115 10.8991 677 44.6292 602.069 442.516
2530 0 61.0897 10.9675 670 45.5433 600.706 441.209
2531 0 62.0836 11.6134 721 44.2164 601.379 442.082
2532 0 67.0821 10.6735 716 44.9064 601.749 439.985
2533 0 65.1354 11.7141 763 44.5832 601.332 439.008
2534 0 70.0984 12.4397 872 43.0665 601.928 439.819
2535 0 69.1908 11.3888 788 44.8579 602.682 437.588
2536 0 72.114 11.9672 863 44.117 601.881 438.117
2537 0 76.1201 11.3242 862 44.8944 602.334 435.121
2538 0 79.3032 11.4623 909 45.6953 602.262 435.267
2539 0 79.1372 11.6886 925 45.8973 602.755 433.44
2540 0 81.1671 12.3326 1001 45.2787 602.415 432.475
2541 0 84.2042 10.6646 898 47.304 602.412 429.796
2542 0 85.1954 11.5851 987 46.7984 602.108 429.838
2543 0 90.2375 11.8687 1071 46.1055 602.288 429.623
2544 0 94.1461 12.0345 1133 46.1421 601.282 428.148
2545 0 95.2413 11.4656 1092 46.913 602.017 425.53
2546 1 51.115 10.8774 556 46.7356 602.018 448.853
2547 0 52.0576 11.4873 598 46.4783 602.122 448.661
2548 0 53.0916 11.5084 611 46.4714 602.439 448.164
2549 0 53.03 11.6915 620 46.7339 602.716 446.455
2550 0 55.0732 12.0567 664 46.2455 601.979 445.548
2551 0 56.0398 11.6167 651 47.1014 601.845 445.402
2552 0 59.0276 11.8419 699 46.4492 602.217 444.532
2553 0 61.0792 11.8207 722 46.2285 601.598 442.542
2554 0 63.0673 11.9238 752 46.1064 602.037 442.016
2555 0 65.0203 12.2577 797 45.7967 602.109 441.581
2556 0 66.0766 12.1677 804 46.2326 602.361 440.896
2557 0 68.048 12.1973 830 46.6892 602.387 439.764
2558 0 73.0625 12.2908 898 45.7584 602.165 438.097
2559 0 72.0813 12.583 907 46.5998 602.082 436.063
2560 0 75.0468 11.8859 892 48.1356 601.399 434.971
2561 1 106.405 11.6818 1243 43.0097 601.546 440.431
2562 1 79.1318 12.4855 988 47.1316 602.22 434.02
2563 0 82.1524 12.6229 1037 47.0588 601.752 432.939
2564 0 83.1545 11.8935 989 47.8756 601.364 432.144
2565 0 87.1606 11.2551 981 48.63 601.738 429.469
2566 1 42.0333 10.3014 433 52.448 601.231 450.4
2567 0 43.0728 11.1439 480 51.4271 601.798 449.727
2568 0 46.0305 11.7096 539 50.7291 601.681 450.128
2569 0 48.0264 11.9518 574 50.5558 601.533 450.472
2570 0 52.068 11.2353 585 51.0085 601.368 448.212
2571 0 52.0414 11.5869 603 51.3566 601.043 446.695
2572 0 54.0341 10.9931 594 51.6549 601.993 445.217
2573 0 56.0405 12.6873 711 49.3657 601.027 446.702
2574 0 57.0265 11.521 657 51.7656 600.702 444.24
2575 0 56.0596 12.1835 683 51.7101 600.154 443.584
2576 0 59.0872 12.1008 715 51.2923 601.282 443.187
2577 0 64.0359 11.5872 742 50.938 601.674 442.437
2578 0 64.0603 12.2697 786 50.7023 601.07 441.989
2579 0 63.0668 12.3996 782 51.4847 601.588 441.274
2580 0 65.0864 12.3067 801 51.2484 601.84 439.968
2581 0 67.0601 12.3024 825 51.3394 601.549 438.625
2582 0 69.0998 11.9537 826 51.8487 601.183 436.849
2583 0 71.0297 12.6426 898 51.7873 601.115 436.542
2584 0 74.0966 12.6457 937 51.4312 601.425 435.457
2585 0 77.1167 12.0078 926 52.2073 601.458 433.884
2586 0 83.0534 12.2331 1016 51.4439 601.422 433.845
2587 0 81.0682 11.7185 950 53.1558 600.463 431.025
2588 0 85.0658 12.8959 1097 51.9417 600.793 431.386
2589 0 88.115 12.495 1101 52.3642 600.952 429.826
2590 0 88.1161 12.5403 1105 204.482 601.959 429.647
2591 0 92.0697 11.4478 1054 53.7789 601.717 425.7
2592 0 96.1427 11.9302 1147 53.2546 601.541 424.187
2593 0 97.1021 11.4313 1110 54.1162 601.799 421.361
2594 1 47.0473 10.6914 503 54.7575 601.368 448.358
2595 0 52.0575 10.815 563 54.0426 601.371 448.108
2596 0 51.0419 10.6579 544 54.9835 600.763 446.899
2597 0 52.0873 11.4039 594 53.9579 600.953 446.337
2598 0 52.0445 11.3557 591 54.0237 601.7 444.481
2599 0 56.0534 13.3444 748 50.5749 601.737 443.755
2600 0 56.0312 11.8862 666 52.9129 601.084 442.039
2601 0 55.0645 10.9326 602 54.4037 601.123 439.035
2602 0 63.0372 13.1351 828 50.1401 601.529 441.089
2603 0 64.0312 10.9166 699 53.2289 601.378 438.821
2604 0 67.0729 12.4342 834 51.3645 601.031 440.255
2605 0 66.0444 12.7793 844 52.1777 600.974 439.579
2606 0 68.0538 12.9016 878 52.3166 601.018 437.72
2607 0 69.0204 12.0109 829 53.9228 601.251 435.85
2608 0 74.0776 12.9324 958 52.6816 601.474 436.561
2609 0 78.1012 12.5222 978 52.9857 601.149 435.619
2610 0 77.0772 12.2604 945 54.128 601.647 432.877
2611 0 80.1859 13.0197 1044 54.2347 601.08 430.367
2612 0 85.0183 12.6914 1079 54.4161 601.566 429.799
2613 0 86.1223 12.3313 1062 55.629 601.658 429.28
2614 0 87.1135 11.2497 980 57.7153 601.05 425.617
2615 0 91.2632 12.6338 1153 56.248 601.265 426.936
2616 0 93.2507 12.2787 1145 57.5188 600.876 426.457
2617 1 45.0345 9.54823 430 60.7837 600.481 448.816
2618 0 49.0056 10.9579 537 57.689 600.84 449.644
2619 0 51.0426 11.4806 586 57.3259 600.705 447.807
2620 0 52.0469 11.7394 611 57.2013 600.537 447.525
2621 0 48.0309 11.1595 536 59.8694 600.104 444.3
2622 0 54.0547 12.2839 664 56.4624 600.306 445.286
2623 0 60.0616 11.9211 716 55.7137 600.127 443.145
2624 0 57.0285 12.0641 688 56.6017 599.634 442.767
2625 0 60.0482 12.5566 754 55.1499 599.834 442.704
2626 0 60.096 12.297 739 55.5007 600.847 441.41
2627 0 64.0789 12.8123 821 53.7369 601.83 441.365
2628 0 67.0336 12.9487 868 53.4516 601.762 440.509
2629 0 67.0158 12.5493 841 54.0369 602.221 437.038
2630 0 70.0499 12.8908 903 53.959 601.792 437.089
2631 0 75.0706 12.4549 935 53.7476 601.095 436.575
2632 0 75.0352 12.9539 972 53.6626 601.784 436.06
2633 0 78.1441 13.0528 1020 53.6882 601.504 435.228
2634 0 89.1517 12.8657 1147 52.8474 601.496 430.147
2635 0 88.131 12.4814 1100 53.88 601.325 428.634
2636 0 87.0529 12.8657 1120 54.7054 600.911 428.692
2637 0 90.1466 13.6555 1231 53.6889 600.762 428.998
2638 0 89.2504 12.9523 1156 55.6661 601.228 426.096
2639 0 92.0824 11.8807 1094 57.0731 601.089 422.833
2640 0 93.115 12.0603 1123 56.9786 600.787 421.293
2641 0 101.126 12.9344 1308 54.5933 601.401 422.502
2642 0 102.131 12.5428 1281 55.1772 601.531 420.065
2643 1 49.0408 12.2347 600 55.0417 602.078 445.787
2644 0 51.0784 10.944 559 56.1968 602.331 443.894
2645 0 54.0482 12.4518 673 53.6464 602.253 444.315
2646 0 57.062 13.1086 748 51.885 602.142 444.321
2647 0 59.0524 12.091 714 52.8613 602.182 440.87
2648 0 59.0322 12.3153 727 53.0138 601.739 441.58
2649 0 60.0319 12.8598 772 51.6865 602.295 441.694
2650 0 63.0492 12.3079 776 52.0387 602.693 440.057
2651 0 65.0949 12.8274 835 51.5413 601.925 438.714
2652 0 68.1114 13.0375 888 50.7815 601.77 437.778
2653 0 71.0466 12.5692 893 51.0426 602.53 436.24
2654 0 72.0459 12.381 892 51.463 601.417 435.711
2655 0 74.2118 12.8551 954 50.7966 601.573 433.794
2656 0 79.1639 12.6952 1005 50.5065 602.281 432.928
2657 0 82.1162 13.0181 1069 49.8587 602.055 431.46
2658 0 83.1286 13.3408 1109 49.89 601.687 430.208
2659 1 114.289 12.4597 1424 45.3216 601.485 436.737
2660 1 50.0613 10.9066 546 49.2912 601.656 448.258
2661 0 50.1055 10.5777 530 49.6358 601.792 448.606
2662 0 49.0821 10.8797 534 49.6067 602.286 448.687
2663 1 76.0076 9.06488 689 44.7562 601.801 451.974
2664 1 51.0704 23.4186 1196 35.8821 600.71 439.85
2665 0 50.2893 25.4726 1281 35.0507 600.51 439.966
2666 0 53.7527 24.8918 1338 34.6016 600.351 440.885
2667 1 87.5693 9.30692 815 44.2736 601.319 449.207
2668 1 54.0914 11.9058 644 48.7019 601.571 444.34
2669 0 54.0894 12.1096 655 48.6565 601.002 442.805
2670 0 59.108 11.8427 700 48.2386 600.136 442.447
2671 0 59.0605 12.1909 720 47.8125 601.414 441.082
2672 0 61.0456 11.86 724 47.9793 601.369 439.965
2673 0 62.0559 12.0375 747 47.8715 600.901 438.585
2674 0 65.097 12.4891 813 47.3038 601.442 438.497
2675 0 67.088 12.178 817 47.683 601.335 437.633
2676 0 70.0603 11.5472 809 48.3671 601.038 436.959
2677 0 72.0741 12.0848 871 47.946 600.428 436.304
2678 0 75.1152 12.4742 937 47.5667 601.239 433.946
2679 1 42.0266 9.68435 407 48.0295 601.248 452.543
2680 0 39.0511 9.70523 379 48.6702 601.161 452.401
2681 0 45.0223 10.3726 467 47.4304 601.148 451.377
2682 0 42.0405 9.77629 411 49.6472 600.328 449.158
2683 0 46.0152 10.7573 495 48.6848 599.743 448.067
2684 0 43.034 9.85268 424 50.9222 599.684 447.111
2685 0 46.0169 11.2785 519 48.4528 600.237 447.902
2686 0 50.0531 11.1881 560 47.6607 600.784 447.507
2687 1 87.5699 9.27259 812 40.8251 601.303 453.954
2688 1 52.0691 11.5423 601 47.4925 600.032 446.368
2689 0 57.0524 10.8322 618 47.1909 600.167 445.325
2690 0 57.1228 11.274 644 47.045 599.863 444.157
2691 0 59.0636 11.6993 691 46.2938 600.605 444.65
2692 0 61.0564 11.3665 694 46.2752 601.844 443.671
2693 0 61.062 11.7749 719 46.3241 601.289 442.209
2694 0 61.068 11.1024 678 47.1386 601.736 439.922
2695 0 63.0532 11.3396 715 46.7538 601.218 439.157
2696 0 67.1494 11.5265 774 45.9121 601.053 439.517
2697 0 70.083 11.7004 820 46.0341 600.744 437.987
2698 0 72.0682 11.3504 818 46.0697 600.994 436.74
2699 0 77.1535 11.7817 909 45.0418 601.435 436.303
2700 0 80.179 11.2623 903 45.7054 601.739 433.931
2701 0 80.1501 11.1416 893 46.4099 601.358 432.438
2702 1 39.1504 9.96159 390 45.5077 600.744 452.867
2703 0 33.3041 13.7521 458 12.5699 603.299 509.29
2704 1 42.0647 11.197 471 44.7155 600.291 451.773
2705 0 44.0475 11.0562 487 45.0821 600.25 450.279
2706 0 47.1099 10.5498 497 45.0483 600.332 449.312
2707 0 46.0731 10.6136 489 47.8384 600.546 448.986
2708 0 48.0465 11.1975 538 46.7993 600.349 448.844
2709 0 49.1045 11.1395 547 47.3748 599.887 447.17
2710 0 49.203 10.7514 529 48.3648 600.189 446.864
2711 0 52.0781 11.7324 611 46.5696 600.437 447.177
2712 0 54.0571 11.0069 595 47.0403 600.872 445.723
2713 0 56.0815 11.8756 666 45.8574 600.14 445.113
2714 0 57.0359 10.8528 619 46.7625 600.546 442.302
2715 0 58.0865 11.5001 668 45.4641 600.364 443.037
2716 0 59.0748 11.5786 684 45.6798 599.906 440.749
2717 0 64.1068 11.7928 756 44.3294 599.115 440.653
2718 0 66.0861 10.6225 702 45.7165 599.433 439.037
2719 0 64.0288 11.3699 728 45.0797 599.528 437.152
2720 0 66.148 11.2022 741 45.4426 599.551 437.074
2721 0 72.1368 11.9357 861 44.0035 599.684 437.367
2722 0 70.1137 10.9964 771 45.7964 600.489 433.305
2723 0 77.1749 10.8455 837 44.951 600.55 433.001
2724 1 138.363 40.3286 5580 21.2477 599.415 443.672
2725 1 79.1607 22.3596 1770 34.9158 600.859 422.99
2726 1 100.405 11.7325 1178 40.6426 600.869 438.524
2727 0 85.2468 11.4726 978 45.8098 601.605 429.256
2728 0 89.1442 11.6889 1042 45.8071 600.496 426.423
2729 1 117.472 12.8286 1507 40.01 601.035 433.73
2730 0 282.705 11.7862 3332 51.1297 600.362 333.242
2731 0 282.611 12.1687 3439 50.6042 601.375 335.454
2732 0 283.692 12.2845 3485 50.3067 601.367 336.024
2733 1 308.186 16.6134 5120 41.0141 600.784 368.718
2734 1 277.28 23.7666 6590 38.3287 600.46 301.903
2735 0 278.171 25.0997 6982 36.8187 600.548 300.588
2736 0 298.217 16.0219 4778 39.5908 601.103 380.054
2737 1 58.114 11.8216 687 45.8821 601.39 443.633
2738 0 59.045 12.211 721 44.8558 600.96 442.646
2739 0 60.0672 12.5859 756 44.631 600.61 441.888
2740 0 61.0488 11.8594 724 45.1146 600.602 439.809
2741 0 63.0945 12.1564 767 44.7771 600.851 439.269
2742 0 67.0848 12.0296 807 44.1227 600.276 439.032
2743 0 67.0766 12.2248 820 44.2963 600.745 437.516
2744 0 72.0715 11.7106 844 44.4017 600.398 436.368
2745 0 74.0654 12.3405 914 44.4792 600.136 435.074
2746 0 75.074 11.9748 899 45.0623 600.488 432.941
2747 1 75.2567 7.38804 556 41.5 599.687 453.957
2748 1 40.0336 10.5911 424 47.0708 600.908 450.255
2749 0 43.1003 10.5336 454 47.0661 600.311 449.423
2750 0 45.0586 10.3421 466 47.9635 601.019 447.846
2751 0 45.0857 10.4246 470 48.4511 600.887 446.574
2752 1 15.2925 4.38123 67 13.7015 596.955 491.851
2753 1 0 0 0 -nan -nan -nan
2754 0 0 0 0 -nan -nan -nan
2755 1 37.2004 1.85482 69 13.5507 606.986 494.913
2756 0 12.1885 4.4304 54 14.2037 606.315 487.333
2757 1 0 0 0 -nan -nan -nan
2758 0 0 0 0 -nan -nan -nan
2759 0 0 0 0 -nan -nan -nan
2760 0 0 0 0 -nan -nan -nan
2761 1 13.5549 12.1728 165 13.2242 598.727 493.461
2762 1 118.161 11.3574 1342 47.9739 600.989 408.063
2763 1 195.275 11.978 2339 39.6469 600.268 417.763
2764 1 71.1676 11.9436 850 46.5212 600.582 434.786
2765 0 70.1199 11.7513 824 47.4138 600.005 432.027
2766 0 73.1339 11.9097 871 46.7876 599.975 432.645
2767 0 77.1912 11.7889 910 46.478 600.501 433.148
2768 0 81.0769 12.112 982 45.8605 600.803 430.172
2769 0 77.308 8.75718 677 41.5864 600.869 449.483
2770 1 47.07 11.2386 529 45.2117 601.348 446.021
2771 0 47.102 10.7426 506 45.33 601.016 445.879
2772 1 74.9283 9.30222 697 39.9283 601.72 452.149
2773 1 96.0702 12.241 1176 45.5077 601.235 422.921
2774 0 97.2407 11.5281 1121 46.653 601.448 420.405
2775 0 101.253 12.0787 1223 45.8111 601.455 418.822
2776 0 100.204 11.237 1126 47.6865 601.903 415
2777 0 113.08 6.43794 728 42.0179 601.448 449.18
2778 1 57.1083 11.2418 642 45.7632 601.195 440.824
2779 0 58.0746 12.0535 700 45.2157 600.574 439.963
2780 0 58.0746 12.0535 700 198.731 599.557 439.926
2781 0 61.1904 12.2568 750 44.9347 601.005 438.115
2782 0 63.1251 12.0396 760 45.0987 601.183 437.65
2783 0 63.0836 11.3025 713 46.3955 600.878 435.325
2784 0 68.1914 12.157 829 45.2183 601.431 434.989
2785 0 70.1324 12.3909 869 44.9045 600.769 434.047
2786 0 71.1286 12.7937 910 44.611 600.714 432.596
2787 1 159.703 7.62667 1218 38.7767 602.932 446.219
2788 1 78.2212 12.5925 985 44.3726 601.432 430.779
2789 0 77.2339 12.9088 997 44.4263 601.523 429.882
2790 1 106.96 12.341 1320 39.7394 601.189 436.651
2791 1 51.1083 10.8789 556 45.3094 601.205 443.245
2792 0 51.0353 10.385 530 45.766 600.736 443.715
2793 0 51.0768 10.357 529 45.5974 601.342 443.811
2794 0 50.0832 10.6024 531 45.6761 600.857 444.576
2795 0 52.0267 10.7253 558 45.9355 601.081 443.421
2796 0 54.0734 11.6138 628 44.8264 601.497 441.416
2797 0 53.0351 11.6715 619 46.2601 600.937 441.342
2798 0 57.0971 11.6118 663 45.8944 601.059 439.769
2799 0 60.0331 11.9434 717 45.6918 601.102 439.932
2800 0 62.0379 11.6703 724 45.9696 600.789 437.753
2801 0 62.0379 11.5252 715 198.404 600.779 437.442
2802 1 90.3418 10.5267 951 41.7014 600.848 440.88
2803 1 65.1195 11.8551 772 46.5207 601.032 434.275
2804 0 66.035 11.9634 790 46.5911 600.699 433.047
2805 0 70.0277 12.1809 853 45.9426 600.749 432.977
2806 0 73.0787 12.3018 899 46.1969 600.776 431.65
2807 0 77.1212 11.5143 888 46.7601 601.106 429.756
2808 0 76.2016 12.257 934 46.6702 601.954 428.399
2809 0 81.1191 12.8823 1045 45.9713 601.016 427.193
2810 0 84.1142 13.1963 1110 45.6468 600.52 427.219
2811 0 86.0774 12.6979 1093 46.2955 601.233 425.221
2812 0 91.1794 12.097 1103 46.3608 601.319 423.788
2813 0 94.0946 12.8594 1210 45.1595 601.401 424.117
2814 1 51.1669 10.5146 538 46.4665 601.108 443.428
2815 0 54.084 10.9829 594 45.0774 600.956 443.613
2816 0 52.0598 11.0642 576 46.5747 601.04 442.047
2817 0 53.1093 11.5422 613 46.2496 600.925 440.351
2818 0 55.1513 12.6198 696 44.9914 600.342 441.152
2819 0 64.0676 11.5971 743 44.7927 601.139 440.37
2820 0 61.0635 11.3816 695 46.1799 600.581 438.468
2821 0 58.0576 11.523 669 46.4066 601.436 435.954
2822 0 64.0942 12.4972 801 44.3708 601.982 437.532
2823 0 65.0637 12.6338 822 44.2226 601.522 436.369
2824 0 68.1849 12.7741 871 43.9059 601.41 435.923
2825 0 69.0745 12.5227 865 44.5272 601.303 433.077
2826 0 70.0814 12.7281 892 44.7231 600.934 431.67
2827 0 75.1421 12.8823 968 43.5713 601.097 431.678
2828 0 76.0691 13.2248 1006 43.4722 601.465 429.114
2829 0 76.1593 12.7627 972 44.535 601.219 426.772
2830 0 82.1924 11.9841 985 44.6782 600.832 426.452
2831 0 81.0963 12.331 1000 44.929 601.313 423.891
2832 1 106.822 6.45934 690 39.642 603.429 450.148
2833 1 52.0326 11.1661 581 44.5095 601.458 441.057
2834 0 54.0559 11.1181 601 43.5574 600.915 442.679
2835 0 52.0532 11.1425 580 44.1552 600.793 441.781
2836 0 51.0849 11.6864 597 44.5863 600.717 442.159
2837 0 56.5753 25.7356 1456 31.8716 602.32 433.593
2838 1 82.6411 9.72881 804 41.0821 600.766 445.649
2839 1 56.0584 12.2729 688 44.6904 600.839 439.847
2840 0 51.0449 10.5789 540 48.3148 601.07 436.257
2841 0 58.1245 12.5937 732 44.4877 600.9 438.566
2842 0 60.0764 12.9502 778 44.4486 600.94 438.031
2843 0 65.0798 11.9238 776 45.1095 601.006 436.388
2844 0 66.1582 12.1527 804 44.7935 601.024 436.229
2845 0 69.1004 12.6049 871 44.178 601.178 435.627
2846 1 93.6072 12.5204 1172 40.0264 601.018 437.899
2847 1 70.0794 12.7141 891 45.2391 600.893 432.696
2848 0 72.1348 12.9618 935 45.3123 601.028 431.167
2849 0 72.0655 12.9882 936 47.0641 600.161 429.403
2850 0 79.2029 12.3859 981 46.6942 600.705 429.548
2851 0 83.1908 12.5975 1048 46.6155 600.472 429.814
2852 0 84.1388 12.9785 1092 46.4744 600.549 427.608
2853 1 117.645 12.7757 1503 41.022 600.721 433.143
2854 1 92.136 13.0893 1206 46.49 600.386 426.608
2855 0 92.0404 12.9834 1195 47.3364 600.982 423.964
2856 0 93.1289 13.1968 1229 47.729 601.278 423.384
2857 0 92.1246 12.6676 1167 49.1003 600.913 419.288
2858 1 51.0566 10.6744 545 47.4514 600.839 443.763
2859 0 46.029 10.9713 505 49.8713 600.333 443.115
2860 0 50.1275 12.2887 616 47.4627 600.701 443.073
2861 0 53.0271 12.371 656 47.0107 600.692 442.869
2862 0 54.0448 12.2676 663 46.8929 600.742 441.777
2863 0 56.0788 12.3398 692 46.763 600.744 440.718
2864 0 59.0361 11.891 702 46.906 600.652 438.499
2865 0 61.079 13.0651 798 45.3346 600.065 439.502
2866 0 62.0482 12.8287 796 46.2186 599.854 438.915
2867 0 65.0702 12.5557 817 45.787 600.015 436.976
2868 0 70.0969 12.5255 878 45.3918 599.948 436.386
2869 1 92.2357 12.0127 1108 41.4034 600.408 439.374
2870 1 72.0609 12.6143 909 45.6953 600.202 432.837
2871 0 70.0268 12.6237 884 46.81 599.963 431.363
2872 0 73.0298 12.4333 908 47.0121 600.152 429.507
2873 0 79.2042 12.9286 1024 45.9629 600.092 429.183
2874 0 80.1046 12.6085 1010 46.7921 599.661 428.699
2875 0 82.0892 13.3513 1096 46.1442 599.824 427.495
2876 0 85.0951 13.1147 1116 46.2787 600.672 426.604
2877 0 91.1473 12.7376 1161 46.416 600.43 425.806
2878 0 93.1382 12.8733 1199 46.422 600.172 424.31
2879 0 91.1739 12.2952 1121 47.9063 600.11 420.125
2880 1 51.039 9.81602 501 48.0978 600.018 441.892
2881 0 51.021 10.9171 557 47.8043 599.862 442.426
2882 0 54.0315 10.679 577 47.6135 600.286 440.863
2883 0 57.125 10.8534 620 47.2935 600.319 441.531
2884 0 57.0692 11.8628 677 46.7223 600.357 439.324
2885 0 60.0612 11.9878 720 46.4736 600.29 438.556
2886 1 89.6838 10.2583 920 41.6652 600.222 444.828
2887 1 0 0 0 -nan -nan -nan
2888 0 0 0 0 -nan -nan -nan
2889 0 9.36601 9.60921 90 14.1778 598.389 484.767
2890 1 70.0565 12.3329 864 45.5613 601.032 434.477
2891 0 74.0321 12.265 908 45.7742 600.582 433.41
2892 0 74.1168 12.966 961 45.563 600.073 432.143
2893 0 75.142 12.656 951 46.2776 600.148 430.501
2894 0 82.1238 12.2254 1004 45.4353 600.819 429.204
2895 0 83.1203 12.0548 1002 46.1826 600.542 428.359
2896 0 84.1194 13.2669 1116 45.0296 601.048 427.757
2897 0 89.0431 12.5894 1121 45.8787 599.982 424.968
2898 0 92.123 12.7655 1176 45.5876 599.641 424.27
2899 0 97.0741 12.5265 1216 45.3248 600.324 423.067
2900 0 97.0515 12.6222 1225 45.8482 599.767 420.253
2901 1 143.152 11.8615 1698 39.5872 600.872 430.365
2902 1 99.1142 12.8337 1272 46.0425 600.089 419.112
2903 1 147.424 11.3007 1666 40.6777 600.123 428.319
2904 1 62.0581 11.1347 691 45.2185 600.242 438.103
2905 0 64.0582 11.8174 757 44.6513 600.68 438.309
2906 0 64.0667 11.8158 757 44.8943 599.958 436.383
2907 0 67.1069 11.9809 804 44.4353 600.352 436.271
2908 0 67.1104 12.7849 858 43.9767 600.914 432.855
2909 0 74.0505 11.5867 858 44.2984 601.062 432.826
2910 0 74.0432 12.8844 954 43.4507 601.285 432.799
2911 0 76.1066 12.3642 941 44.085 601.26 431.395
2912 1 130.847 51.8392 6783 19.7999 599.938 446.196
2913 1 77.1276 25.1142 1937 33.8369 600.725 419.658
2914 0 76.1505 24.6486 1877 34.5194 600.234 418.193
2915 0 78.0778 24.117 1883 34.7637 601.196 419.857
2916 1 98.1576 11.8279 1161 42.1447 601.009 435.016
2917 1 110.238 9.83323 1084 43.2638 600.971 435.127
2918 1 78.0295 11.5982 905 46.7845 600.402 430.05
2919 1 174.173 12.8665 2241 47.6461 600.469 384.94
2920 0 175.127 12.7393 2231 48.4258 599.886 381.874
2921 0 184.215 12.8817 2373 48.2689 600.17 380.451
2922 1 218.75 13.8103 3021 43.2615 600.372 398.008
2923 1 182.328 12.5762 2293 50.0916 600.137 377.6
2924 1 208.629 16.1339 3366 42.4308 600.024 394.395
2925 1 57.0532 11.8311 675 48.9259 599.809 438.95
2926 0 59.0516 11.6339 687 49.6157 600.469 438.425
2927 0 61.0981 12.128 741 49.5142 600.776 438.038
2928 0 65.0429 12.0843 786 49.3842 600.611 437.118
2929 0 67.0886 12.5357 841 48.9727 600.483 436.132
2930 0 67.0342 12.9486 868 49.015 600.908 435.138
2931 0 69.1416 12.93 894 49.547 600.602 434.685
2932 0 73.0626 12.2361 894 49.9172 600.918 432.955
2933 0 72.0642 12.6138 909 50.0418 600.886 431.351
2934 0 76.0539 12.3465 939 50.2993 601.233 431.358
2935 1 182.644 14.4434 2638 44.1926 601.099 407.458
2936 1 82.101 12.1192 995 49.7085 601.109 427.92
2937 0 84.0915 13.1999 1110 48.3946 600.663 428.091
2938 0 87.0678 12.1974 1062 50.29 601.249 424.837
2939 0 91.0892 12.8775 1173 48.838 600.675 424.888
2940 0 92.0814 12.2609 1129 50.3242 600.325 421.042
2941 0 93.102 12.105 1127 51.2121 600.594 419.823
2942 0 96.1433 12.7518 1226 50.3687 601.149 419.455
2943 1 57.0363 10.7125 611 51.5352 599.815 440.856
2944 0 60.0521 10.8905 654 50.7661 601.057 440.521
2945 0 57.1034 11.7156 669 51.6846 600.496 438.72
2946 0 60.0966 11.0988 667 52.5667 599.757 437.067
2947 0 63.0409 11.9922 756 51.377 599.574 436.824
2948 0 65.0901 11.8912 774 50.9444 600.74 434.986
2949 0 72.0566 12.2543 883 49.658 600.528 433.314
2950 0 72.0443 12.5478 904 49.4712 600.112 433.585
2951 0 70.0996 12.2825 861 50.7816 599.426 431.309
2952 0 71.102 12.2922 874 50.6579 599.693 430.971
2953 0 77.0633 12.7298 981 48.8899 600.427 429.822
2954 0 78.0616 13.4253 1048 48.1011 600.736 428.704
2955 0 83.0629 12.5447 1042 48.3416 601.064 427.488
2956 0 82.0179 12.6558 1038 48.6368 601.333 425.454
2957 0 87.0968 12.6067 1098 47.8743 601.75 425.806
2958 0 90.1266 12.5046 1127 48.535 601.075 423.774
2959 0 94.2267 13.043 1229 47.8503 601.018 424.339
2960 0 93.1314 13.0676 1217 48.553 601.104 423.164
2961 1 49.0699 10.8213 531 49.1375 600.885 444.785
2962 0 47.0872 10.4062 490 50.2592 601.42 441.627
2963 0 50.0811 11.0621 554 49.8267 601.036 442.478
2964 0 54.0684 11.319 612 49.1618 600.443 442.332
2965 0 54.1068 12.2905 665 48.7609 600.214 440.919
2966 0 53.1262 11.2374 597 50.3735 600.923 437.469
2967 0 59.1186 11.6714 690 49.2841 600.688 437.829
2968 0 58.0378 12.1128 703 49.2888 600.771 438.498
2969 0 59.039 11.3992 673 50.1649 600.673 434.936
2970 0 61.0428 12.4175 758 48.9881 600.796 435.815
2971 0 65.0786 11.8626 772 49.2966 600.784 434.768
2972 0 65.0696 12.2945 800 49.0088 600.481 431.91
2973 0 68.0534 12.3139 838 49.0752 601.06 432.418
2974 0 74.1028 13.009 964 47.5104 600.64 432.518
2975 0 73.0815 12.7392 931 48.5897 600.505 430.314
2976 0 77.0785 12.4419 959 48.512 600.93 428.784
2977 0 81.0606 12.8299 1040 47.7894 601.436 428.694
2978 0 82.0344 12.5801 1032 48.5281 600.741 427.686
2979 0 84.0828 12.452 1047 49.2235 600.588 425.231
2980 0 84.0694 12.002 1009 50.6303 599.767 422.098
2981 1 69.295 9.42348 653 44.415 601.106 447.616
2982 0 86.9931 7.66727 667 44.1649 598.579 448.801
2983 1 47.0567 11.8155 556 49.4281 599.894 442.971
2984 0 46.0325 11.2312 517 51.118 599.439 441.816
2985 0 49.0988 11.2834 554 50.4946 599.809 441.836
2986 0 51.0594 10.7718 550 51.1018 600.151 440.771
2987 0 52.0459 11.3938 593 50.5734 599.722 439.653
2988 1 81.179 10.5569 857 41.8261 600.265 444.084
2989 1 56.1379 11.1511 626 47.2029 599.554 437.965
2990 0 57.0593 12.1453 693 46.0491 599.605 436.642
2991 0 58.0165 12.3586 717 45.5621 599.914 438.179
2992 0 58.056 11.8851 690 46.3899 599.854 436.122
2993 0 58.1116 11.4951 668 47.1946 600.192 433.612
2994 0 62.0978 12.3837 769 45.5878 599.9 434.841
2995 0 63.0612 12.2579 773 45.5498 599.652 433.329
2996 0 68.0553 12.8131 872 43.828 599.804 434.65
2997 1 109.9 8.44402 928 41.4483 599.295 440.335
2998 1 67.105 10.7145 719 45.8108 599.179 432.484
2999 1 34.0079 9.52721 324 45.5679 599.463 448.312
3000 0 37.0111 10.4563 387 44.1214 599.434 448.731
3001 0 39.0324 10.9396 427 43.3747 599.124 447.834
3002 0 41.0248 11.1396 457 43.3348 599.278 447.009
3003 0 44.0476 10.3751 457 43.5208 599.753 446.153
3004 1 74.243 8.93014 663 38.7345 599.542 450.249
3005 1 46.0615 11.007 507 43.2564 599.467 444.229
3006 0 46.1297 11.5977 535 42.8523 600.034 444.469
3007 0 44.7224 14.3776 643 12.6096 600.676 504.908
3008 1 0 0 0 -nan -nan -nan
3009 0 0 0 0 -nan -nan -nan
3010 0 0 0 0 -nan -nan -nan
3011 0 42.6908 8.3156 355 12.5775 595.575 498.456
3012 0 30.0491 6.98857 210 13.2571 603.8 493.319
3013 0 0 0 0 -nan -nan -nan
3014 0 0 0 0 -nan -nan -nan
3015 0 0 0 0 -nan -nan -nan
3016 1 14.0261 4.7768 67 12.806 584.328 494.866
3017 1 0 0 0 -nan -nan -nan
3018 0 0 0 0 -nan -nan -nan
3019 0 0 0 0 -nan -nan -nan
3020 1 37.9454 3.50504 133 12.9474 598.564 492.85
3021 1 78.1592 12.6153 986 40.786 599.561 429.758
3022 0 80.2241 13.6243 1093 40.1583 599.549 429.027
3023 0 81.0201 13.6633 1107 40.608 599.46 428.427
3024 0 82.1384 12.9781 1066 41.4953 599.469 426.182
3025 0 89.173 12.6608 1129 41.4446 599.919 425.066
3026 0 90.2278 12.9228 1166 41.2624 600.238 423.979
3027 1 47.066 11.1333 524 42.7118 598.737 446.063
3028 0 48.086 11.2299 540 42.4074 599.052 444.593
3029 0 48.0307 11.2636 541 43.1553 599.133 442.394
3030 0 52.0634 11.4668 597 42.7688 599.038 442.74
3031 0 57.0971 11.5593 660 42.0379 598.617 443.202
3032 1 92.6477 43.8219 4060 20.6741 598.482 448.02
3033 1 108.873 7.91751 862 38.6044 599.529 447.868
3034 1 56.0417 11.6699 654 43.4021 599.011 438.72
3035 0 57.0113 11.2609 642 43.9439 598.9 437.562
3036 0 62.0584 12.311 764 42.5851 598.55 438.272
3037 0 64.0184 11.9184 763 43.0695 598.11 437.429
3038 0 67.033 12.2626 822 42.2153 598.884 437.752
3039 0 71.0321 12.4732 886 41.7664 599.342 436.885
3040 1 102.755 12.4277 1277 36.9585 598.907 441.766
3041 1 72.0942 12.5253 903 42.5426 598.499 434.004
3042 0 75.0695 12.4685 936 42.7244 598.623 434.141
3043 0 80.1175 11.8077 946 43.3319 598.135 432.21
3044 0 78.1673 11.7312 917 44.4329 599.009 427.782
3045 0 83.167 11.4709 954 44.4382 598.594 427.195
3046 0 88.0779 12.3073 1084 43.4493 599.161 425.923
3047 1 53.6051 13.5248 725 12.3214 600.019 514.524
3048 0 47.0711 10.8134 509 44.7151 598.348 446.088
3049 0 47.0982 11.338 534 45.0768 598.53 446.47
3050 0 50.0362 11.7515 588 44.7789 598.328 444.842
3051 0 50.0317 12.2123 611 44.9231 597.029 444.219
3052 0 51.0359 11.9132 608 45.449 598.623 443.952
3053 0 53.0521 12.2898 652 45.477 598.63 442.702
3054 0 56.0313 12.3859 694 44.9078 598.415 442.376
3055 0 59.0553 12.192 720 44.5847 598.285 441.279
3056 0 58.0344 12.6994 737 44.6242 599.399 440.092
3057 0 61.0333 13.0748 798 44.1767 598.759 438.837
3058 0 64.0699 12.8141 821 43.7868 599.777 439.892
3059 0 64.0208 13.2613 849 44.0247 599.191 438.246
3060 1 157.683 15.658 2469 39.0081 599.006 416.789
3061 1 202.135 12.8181 2591 47.4832 599.008 371.775
3062 0 213.264 12.9417 2760 46.9634 598.802 369.826
3063 0 216.168 12.4348 2688 48.3672 598.997 362.908
3064 1 250.245 16.9994 4254 40.3413 598.39 382.788
3065 1 81.0593 12.2009 989 45.8079 599.181 430.298
3066 0 82.1495 12.0512 990 46.3636 599.206 427.447
3067 0 83.0659 12.773 1061 46.5306 598.763 428.106
3068 0 86.0956 12.7184 1095 46.695 598.39 427.089
3069 0 90.0783 12.7778 1151 46.4266 598.545 426.258
3070 0 94.0873 13.1049 1233 46.2206 598.714 423.911
3071 1 48.0381 12.0946 581 45.6799 598.422 445.425
3072 0 50.0143 11.2568 563 46.389 598.824 445.025
3073 0 48.0386 11.0536 531 47.8267 598.976 443.235
3074 0 53.0701 12.248 650 45.38 599.466 443.158
3075 0 52.0209 12.5142 651 45.8249 598.916 443.525
3076 0 56.0312 12.3324 691 45.7858 599.171 442.174
3077 1 101.105 9.09941 920 41.7467 598.234 446.436
3078 1 57.0587 11.4794 655 46.7802 599.354 439.641
3079 0 61.0518 12.7433 778 45.1414 599.332 440.433
3080 0 64.0387 12.8985 826 44.9068 599.372 439.74
3081 0 63.1278 12.2925 776 45.6778 599.674 437.844
3082 0 66.0728 11.9716 791 46.1808 599.162 436.449
3083 0 71.1064 11.6586 829 46.0277 599.081 435.448
3084 0 74.1483 12.4615 924 45.1548 599.33 434.765
3085 0 75.1616 12.7725 960 45.7229 599.4 433.434
3086 0 77.1554 12.2998 949 46.3372 599.213 432.448
3087 0 80.1796 11.7611 943 47.0445 598.704 431.069
3088 0 80.1841 12.2219 980 47.0949 599.199 429.096
3089 0 85.1079 11.8908 1012 46.9042 599.854 428.771
3090 0 89.1439 12.0592 1075 46.7516 599.237 428.492
3091 1 84.3996 7.70146 650 41.4308 600.368 453.838
3092 1 47.1085 10.4227 491 47.446 598.813 447.381
3093 0 49.0553 11.0284 541 47.1386 598.808 447.471
3094 0 49.0328 12.0531 591 46.2656 599.489 446.79
3095 0 51.0585 11.0266 563 47.1155 599.583 444.861
3096 0 53.0425 12.2355 649 46.037 599.681 445.265
3097 0 56.0966 11.5158 646 46.3669 599.401 443.817
3098 0 57.0458 11.5872 661 46.5961 599.669 443.442
3099 0 59.0578 11.1924 661 46.8033 598.731 442.339
3100 0 63.109 12.2486 773 45.3972 599.44 441.872
3101 0 64.0468 11.1481 714 46.3291 599.252 440.122
3102 0 66.0776 12.2583 810 45.0185 599.728 439.605
3103 0 70.1404 11.7193 822 45.5973 599.327 438.937
3104 0 70.1384 12.347 866 44.9769 600.07 439.095
3105 0 75.2058 11.422 859 45.7055 600.024 436.844
3106 0 73.1564 12.0837 884 45.7907 599.51 434.928
3107 0 79.1452 11.4094 903 45.8959 599.633 433.587
3108 0 78.1678 11.5265 901 46.4018 599.376 432.577
3109 0 83.1174 11.3213 941 46.4091 598.47 431.936
3110 0 88.09 11.9991 1057 45.3396 599.358 431.685
3111 0 86.179 11.3021 974 47.3409 599.685 429.95
3112 0 89.2393 11.4748 1024 46.7412 599.37 430.075
3113 0 91.0939 10.9887 1001 47.3936 599.524 428.353
3114 0 94.1239 11.3574 1069 46.7746 599.172 426.605
3115 0 97.2467 12.0107 1168 46.036 599.156 425.669
3116 0 101.185 11.6717 1181 46.3463 599.32 425.06
3117 1 126.942 13.4865 1712 40.4457 598.901 432.995
3118 0 138.896 12.4409 1728 39.8976 599.249 433.3
3119 1 103.139 12.4783 1287 45.4382 599.268 423.421
3120 0 99.1882 10.9388 1085 47.6415 599.026 420.424
3121 0 102.168 12.0977 1236 45.7193 599.182 422.498
3122 0 96.3514 10.6589 1027 40.3622 598.928 447.578
3123 1 64.077 11.7203 751 45.9321 598.682 439.493
3124 0 69.0802 11.7834 814 45.5012 598.402 438.154
3125 0 73.0623 11.8255 864 44.9884 598.363 438.046
3126 0 70.049 11.8203 828 45.9903 599.215 433.626
3127 0 79.0513 12.4603 985 44.0822 598.992 436.173
3128 0 78.1073 12.7389 995 44.7095 598.49 431.771
3129 0 80.0312 12.3702 990 45.3697 598.206 432.207
3130 0 85.1342 12.5801 1071 44.8683 599.584 431.485
3131 0 87.0976 12.0784 1052 45.77 598.946 428.284
3132 0 89.6227 8.4242 755 40.9338 599.54 452.568
3133 1 54.0508 11.4152 617 44.7942 598.465 448.044
3134 0 53.077 11.1913 594 45.8401 597.943 447.141
3135 0 51.0518 10.2053 521 47.9578 598.058 446.378
3136 0 50.0253 12.4337 622 46.2508 598.119 444.63
3137 0 53.0285 11.3524 602 47.3887 597.852 442.495
3138 0 57.0562 12.1459 693 46.3665 598.45 442.092
3139 0 58.076 12.5353 728 45.9753 598.533 443.378
3140 1 88.073 12.0355 1060 40.0679 598.906 445.707
3141 1 60.0262 12.6611 760 46.1855 599.247 439.176
3142 0 64.0322 12.5562 804 46.1567 599.507 439.122
3143 0 65.0432 12.9452 842 46.0629 599.046 437.57
3144 0 66.0716 12.2292 808 47.1287 599.172 436.391
3145 0 70.0612 12.6318 885 46.4565 598.928 436.11
3146 0 71.1612 12.6754 902 46.7262 598.946 434.048
3147 0 75.0577 13.3764 1004 45.6574 598.534 433.906
3148 0 77.0863 12.3368 951 46.9842 599.475 430.386
3149 0 80.0993 13.4458 1077 45.3677 599.498 430.999
3150 0 81.0869 11.6912 948 47.4325 599.836 427.1
3151 0 88.0357 13.1992 1162 45.309 599.449 428.751
3152 0 90.096 12.8197 1155 45.8364 599.939 427.025
3153 0 91.198 13.1911 1203 45.9052 599.465 423.961
3154 0 95.1005 13.2491 1260 45.7976 598.698 423.049
3155 0 96.1274 12.9203 1242 46.3527 599.173 420.235
3156 1 82.8293 9.01855 747 42.2731 598.398 447.803
3157 1 54.0944 11.369 615 47.1138 599.387 443.498
3158 0 59.0636 12.1056 715 45.758 599.473 443.217
3159 0 58.049 11.697 679 47.4418 598.842 440.934
3160 0 57.0199 12.1887 695 47.3597 599.007 440.027
3161 0 59.03 12.0955 714 47.7395 598.444 437.7
3162 1 119.403 8.41689 1005 41.8438 597.607 445.887
3163 1 67.0257 12.2341 820 46.278 599.435 437.561
3164 0 67.0553 13.4665 903 45.5858 599.439 435.733
3165 0 68.1642 13.3354 909 45.9681 599.678 433.845
3166 0 74.0598 12.9085 956 45.637 599.154 433.26
3167 0 73.0442 13.0332 952 45.9527 599.21 431.634
3168 0 77.0433 13.8364 1066 44.6454 598.69 431.754
3169 0 77.1106 13.0851 1009 45.8365 599.211 429.751
3170 0 82.1148 13.5786 1115 44.687 599.991 428.624
3171 0 84.0384 13.3034 1118 45.3712 599.823 428.104
3172 0 88.062 13.218 1164 45.4536 599.719 427.307
3173 0 90.043 12.4829 1124 46.6237 599.351 423.698
3174 0 90.142 12.9795 1170 46.7342 599.618 422.326
3175 0 97.2489 12.8947 1254 46.559 599.398 421.288
3176 0 100.058 13.1724 1318 46.1821 599.456 419.375
3177 0 99.1834 12.5021 1240 47.4161 600.386 417.089
3178 1 225.173 17.3333 3903 40.3802 599.808 392.81
3179 0 206.31 14.6721 3027 46.9567 600.612 369.923
3180 1 168.285 12.6096 2122 39.714 599.968 423.613
3181 1 59.0359 11.637 687 46.8428 599.94 438.556
3182 0 60.0266 11.6282 698 47.1734 600.451 436.179
3183 0 63.0456 12.4354 784 45.9821 600.735 435.523
3184 0 66.0371 12.8261 847 45.294 600.106 435.039
3185 0 67.073 12.8517 862 45.2726 600.219 433.792
3186 0 70.0372 12.3077 862 45.913 599.984 431.614
3187 0 74.0908 12.5927 933 45.1179 600.795 431.202
3188 0 78.0724 12.6933 991 44.6448 601.2 431.1
3189 0 81.1452 12.1264 984 45.2541 601.318 429.759
3190 0 83.0632 12.4965 1038 45.3497 600.25 426.819
3191 1 118.215 50.3067 5947 22.1081 599.269 432.255
3192 1 86.2533 26.0744 2249 33.6318 601.004 414.422
3193 0 86.1999 26.3922 2275 33.6765 601.085 414.523
3194 0 79.7478 8.55196 682 41.934 601.013 447.174
3195 1 50.0624 11.0063 551 45.5554 600.737 442.392
3196 0 51.0376 11.7952 602 45.0316 601.086 443.505
3197 0 52.0389 11.6836 608 45.7911 600.401 440.148
3198 0 55.0294 12.1208 667 44.7901 600.448 440.028
3199 1 0 0 0 -nan -nan -nan
3200 0 16.6346 10.0994 168 13.2143 601.905 488.375
3201 1 61.0261 12.4537 760 43.9816 600.301 438.057
3202 0 64.0425 11.5392 739 44.6942 600.7 435.532
3203 0 64.0645 12.8777 825 43.3273 600.879 435.32
3204 0 69.0746 12.0015 829 43.1797 600.375 434.385
3205 0 71.04 12.8801 915 42.1628 601.048 433.363
3206 1 105.844 47.6836 5047 21.1942 600.602 436.921
3207 0 118.201 42.14 4981 21.2582 601.602 436.146
3208 1 77.0549 24.3074 1873 31.9114 602.39 420.294
3209 0 77.0143 27.5403 2121 30.2777 602.207 420.983
3210 1 115.677 12.241 1416 36.9138 600.168 435.491
3211 1 85.9222 27.3969 2354 30.7324 600.056 414.652
3212 0 82.9649 24.5164 2034 32.5364 600.146 413.229
3213 0 85.1267 26.1962 2230 31.5269 601.015 414.187
3214 0 85.9199 23.3473 2006 33.5688 600.551 415.094
3215 1 130.997 49.3829 6469 20.5499 600.237 438.438
3216 1 85.1026 29.4115 2503 30.5581 601.148 415.732
3217 1 142.709 45.3861 6477 20.5672 599.342 439.136
3218 1 84.104 26.598 2237 32.2973 600.581 415.251
3219 1 134.179 11.8946 1596 36.5583 600.528 435.559
3220 0 112.541 14.297 1609 37.2815 600.978 433.584
3221 0 110.24 13.8788 1530 42.4288 601.546 414.097
3222 0 115.076 13.843 1593 42.371 601.043 412.444
3223 0 118.215 14.1521 1673 42.0042 600.809 412.951
3224 0 118.132 13.7728 1627 42.7357 601.986 408.329
3225 0 123.194 14.4731 1783 41.8216 601.49 409.169
3226 0 126.084 13.7845 1738 43.0017 601.025 405.443
3227 0 130.135 13.8856 1807 43.1887 600.131 403.4
3228 0 136.26 14.2228 1938 42.5155 600.875 402.555
3229 0 141.143 14.7368 2080 42.1692 601.17 401.961
3230 0 145.118 14.5468 2111 42.3278 601.167 400.222
3231 0 150.115 13.9027 2087 43.0977 600.809 398.351
3232 0 156.165 14.1453 2209 42.8293 601.111 395.786
3233 0 156.287 13.7311 2146 44.4832 600.713 391.788
3234 0 166.125 14.459 2402 43.9317 601.13 390.463
3235 0 170.12 14.4956 2466 44.1561 600.865 389.787
3236 0 172.311 14.4738 2494 45.2217 600.51 384.391
3237 0 178.086 14.4088 2566 45.6329 600.093 383.338
3238 1 303.721 19.1459 5815 39.692 600.582 368.416
3239 0 276.253 14.1718 3915 48.894 600.104 330.482
3240 1 103.133 11.4997 1186 45.9182 600.236 420.509
3241 0 108.285 12.6888 1374 44.4112 600.179 421.847
3242 0 112.116 12.5673 1409 44.7722 600.401 419.439
3243 1 151.346 13.3601 2022 38.9204 600.793 427.431
3244 1 118.17 12.6682 1497 45.2024 600.608 416.045
3245 0 119.228 12.1867 1453 45.7337 600.486 411.688
3246 0 124.212 13.0986 1627 44.8211 600.574 411.817
3247 0 128.168 12.8972 1653 45.0956 599.63 409.184
3248 1 155.589 15.5281 2416 38.5691 599.538 419.179
3249 1 136.143 13.2287 1801 44.3959 599.51 406.137
3250 1 50.0531 10.5888 530 44.4057 599.587 444.864
3251 0 52.0779 11.1372 580 43.7259 599.648 443.202
3252 0 54.0675 11.2082 606 43.7739 599.292 441.721
3253 0 56.1091 11.6202 652 43.6411 598.923 441.241
3254 0 60.0381 11.7092 703 43.0583 599.339 441.593
3255 0 63.0516 11.7047 738 43.0217 599.409 441.206
3256 0 66.0206 11.4813 758 43.4789 599.55 438.286
3257 0 65.0817 11.7084 762 43.8609 599.415 438.091
3258 1 88.0678 11.9453 1052 39.7329 599.206 441.275
3259 0 96.373 11.3725 1096 39.7874 599.182 440.804
3260 1 74.0584 13.0033 963 43.0093 599.645 432.984
3261 0 75.0742 12.6142 947 43.981 599.362 433.197
3262 0 79.1419 11.9027 942 44.6157 599.907 430.195
3263 0 79.0811 11.191 885 45.7073 600.574 427.728
3264 0 85.1256 13.0278 1109 43.4671 600.129 428.03
3265 0 88.1339 13.037 1149 43.0139 600.902 427.052
3266 1 123.024 11.8757 1461 39.1136 599.684 432.009
3267 1 0 0 0 -nan -nan -nan
3268 0 0 0 0 -nan -nan -nan
3269 0 0 0 0 -nan -nan -nan
3270 0 0 0 0 -nan -nan -nan
3271 0 16.0812 8.58147 138 13.3116 604.884 490.043
3272 0 0 0 0 -nan -nan -nan
3273 0 0 0 0 -nan -nan -nan
3274 0 0 0 0 -nan -nan -nan
3275 0 35.6274 7.15741 255 13.0431 593.741 490.396
3276 1 65.0465 11.7608 765 43.383 600.663 433.762
3277 0 70.0765 11.5445 809 43.1384 600.743 432.627
3278 0 68.0983 11.5715 788 43.8261 601.482 430.17
3279 0 69.0796 11.6967 808 44.4171 601.141 430.532
3280 0 76.0888 12.0649 918 43.1797 601.524 431.329
3281 0 77.0822 12.2207 942 43.1985 601.143 431.214
3282 0 77.0982 12.0236 927 43.9105 600.393 429.691
3283 1 115.155 11.0981 1278 38.6878 600.141 435.369
3284 1 89.1364 11.7236 1045 43.6134 601.15 424.495
3285 0 89.1207 11.5798 1032 43.813 601.661 423.772
3286 0 89.1746 11.9653 1067 44.0187 601.358 423.512
3287 0 92.0862 11.9345 1099 44.3339 601.34 422.138
3288 0 97.1566 12.0012 1166 43.6595 600.986 421.342
3289 0 97.1205 11.5835 1125 44.816 600.782 419.97
3290 0 100.072 12.0313 1204 44.4394 601.419 419.626
3291 0 101.13 12.212 1235 44.8219 600.913 417.303
3292 1 82.6646 10.1132 836 39.2739 601.117 445.303
3293 1 56.1005 10.6951 600 44.635 601.232 439.098
3294 0 58.0936 11.602 674 43.4599 602.031 439.542
3295 0 58.0839 11.9827 696 43.7945 601.339 439.003
3296 0 64.1329 11.8348 759 43.274 600.667 438.321
3297 0 66.186 11.7396 777 43.1441 601.626 437.322
3298 0 62.0695 11.9221 740 44.6514 600.522 434.532
3299 0 67.1431 12.5404 842 43.7886 600.227 435.2
3300 0 68.1551 12.5009 852 44.0493 600.622 432.847
3301 0 70.086 12.6273 885 44.2056 600.973 433.12
3302 0 74.0991 12.8881 955 43.5215 601.025 432.854
3303 0 76.0508 12.5705 956 44.1234 600.22 432.321
3304 0 76.1226 11.823 900 45.4567 600.12 429.257
3305 0 82.2011 12.2626 1008 44.0605 599.631 429.594
3306 0 85.0871 12.0817 1028 44.4805 600.421 428.198
3307 0 86.0908 12.057 1038 44.8035 600.025 427.948
3308 0 88.0833 12.2384 1078 44.795 600.09 425.011
3309 0 93.1656 12.4724 1162 44.9303 600.512 425.988
3310 0 96.1263 12.7124 1222 44.5303 600.388 424.22
3311 0 98.1095 12.8122 1257 44.7558 600.204 422.212
3312 0 98.0891 12.1216 1189 45.7275 600.918 420.669
3313 0 104.083 12.6918 1321 44.9773 600.079 419.926
3314 1 58.0416 10.7509 624 44.2228 600.011 443.955
3315 0 58.0422 10.8197 628 44.2484 600.113 443.459
3316 0 60.0381 10.4933 630 44.5444 599.127 440.887
3317 1 98.5433 10.2087 1006 37.9264 600.122 446.926
3318 1 62.0409 12.0727 749 43.5581 600.276 439.178
3319 0 64.052 12.3025 788 43.4607 599.27 439.152
3320 0 67.0691 12.3455 828 43.1196 599.349 437.686
3321 0 67.0551 12.8551 862 42.5684 598.934 435.985
3322 0 72.0357 12.4244 895 42.5184 599.39 434.533
3323 1 121.707 10.9526 1333 35.8417 598.365 445.015
3324 1 81.3388 24.6623 2006 31.1884 598.314 425.021
3325 0 78.6464 24.731 1945 31.5075 598.461 424.709
3326 1 148.478 10.4325 1549 34.8851 596.352 443.9
3327 1 84.1436 12.859 1082 42.147 598.627 428.738
3328 0 84.0743 12.596 1059 42.7904 599.154 425.801
3329 0 89.0776 13.2581 1181 41.5639 598.925 426.668
3330 0 93.0732 13.4088 1248 40.7348 598.393 425.539
3331 0 95.1066 12.8698 1224 41.1626 598.047 421.687
3332 0 101.106 12.2545 1239 41.0775 599.228 420.1
3333 0 103.138 13.0505 1346 40.1664 598.29 419.294
3334 1 11.999 7.08392 85 13.1882 599.529 489.329
3335 1 0 0 0 -nan -nan -nan
3336 1 48.7904 16.2122 791 12.2427 598.46 505.702
3337 1 0 0 0 -nan -nan -nan
3338 1 96.4652 10.6774 1030 33.8116 598.482 445.81
3339 1 66.0401 11.2507 743 38.6528 598.958 437.537
3340 1 96.791 10.3315 1000 34.27 599.765 444.38
3341 1 0 0 0 -nan -nan -nan
3342 0 0 0 0 -nan -nan -nan
3343 1 75.3795 13.2927 1002 11.983 597.492 520.614
3344 1 0 0 0 -nan -nan -nan
3345 0 0 0 0 -nan -nan -nan
3346 1 100.811 11.0207 1111 33.9163 599.329 440.986
3347 1 179.402 13.1938 2367 39.2717 599.923 381.31
3348 0 180.604 13.189 2382 39.0693 599.305 382.348
3349 0 181.364 13.1393 2383 39.0302 599.728 383.773
3350 0 183.279 14.0332 2572 38.0661 600.038 385.283
3351 1 209.759 17.2865 3626 33.2485 600.34 398.864
3352 1 106.108 11.46 1216 39.6168 600.119 417.973
3353 1 143.462 13.5297 1941 32.9979 600.751 432.076
3354 0 137.952 13.744 1896 33.7753 599.915 430.285
3355 1 55.0347 10.5206 579 40.2988 599.796 442.083
3356 0 58.0744 10.6587 619 40.517 599.796 442.884
3357 0 55.0276 9.61336 529 42.6087 599.703 439.58
3358 1 88.0761 10.4228 918 36.5218 599.255 444.668
3359 1 61.1228 12.0904 739 40.3194 600.342 439.926
3360 0 65.097 11.5827 754 40.683 600.297 438.477
3361 0 63.0678 11.4004 719 41.8067 600.017 435.221
3362 0 70.0711 11.9878 840 40.3155 600.683 436.454
3363 0 73.1279 12.6627 926 39.405 600.473 437.019
3364 1 108.429 11.436 1240 35.3492 600.939 440.725
3365 1 74.1473 11.8683 880 41.0716 599.985 432.148
3366 0 76.148 12.4494 948 40.5285 599.921 431.421
3367 0 81.2029 12.635 1026 39.8791 600.272 431.366
3368 0 85.1291 13.1212 1117 39.4208 599.496 430.046
3369 0 86.17 12.986 1119 39.672 598.886 429.996
3370 1 165.519 15.7927 2614 92.5543 597.474 470.561
3371 1 235.438 13.477 3173 42.2701 599.131 359.871
3372 0 234.542 13.5583 3180 42.5987 598.691 359.195
3373 1 88.9827 7.55203 672 37.3408 600.126 451.658
3374 1 53.0478 10.5188 558 42.1434 599.217 445.05
3375 0 53.0886 10.5484 560 42.7 599.232 443.282
3376 1 85.1135 9.10549 775 38.5703 599.079 446.84
3377 1 55.1289 27.9527 1541 29.7761 599.574 435.321
3378 0 56.0796 25.9096 1453 31.1328 599.119 435.377
3379 0 54.0372 25.501 1378 31.8164 599.479 434.75
3380 1 88.6305 9.8386 872 38.3188 598.247 447.075
3381 1 66.0543 12.1718 804 41.842 599.42 438.993
3382 0 66.0826 11.758 777 42.5714 600.031 437.47
3383 0 68.0758 12.3979 844 42.2393 598.949 437.288
3384 0 71.0448 12.2317 869 42.519 599.09 435.128
3385 0 72.032 12.1751 877 42.6682 598.933 434.937
3386 0 74.0704 12.3666 916 42.9629 598.796 434.146
3387 0 78.1151 12.3152 962 43.0249 598.43 432.606
3388 0 82.0838 13.8152 1134 41.3871 597.808 431.814
3389 0 82.1275 12.0666 991 43.3562 598.777 428.873
3390 0 84.092 12.5696 1057 43.0189 599.137 429.707
3391 0 86.0379 12.5875 1083 43.6704 599.566 427.443
3392 1 129.508 12.1382 1572 38.0744 599.855 434.395
3393 1 92.052 12.6776 1167 43.8972 599.468 425.003
3394 0 95.1986 12.5317 1193 44.4971 600.116 424.308
3395 0 100.095 12.9777 1299 43.9068 599.634 422.351
3396 1 54.0249 11.069 598 44.5953 599.545 444.589
3397 0 57.0562 10.7788 615 45.2992 600.437 442.985
3398 0 56.1467 11.3097 635 45.4504 599.556 441.909
3399 0 59.0219 11.6228 686 45.5379 599.195 440.777
3400 0 65.1025 12.104 788 43.8718 598.437 442.004
3401 0 61.0361 12.1731 743 45.93 597.856 440.093
3402 0 65.0207 12.719 827 44.555 599.154 440.713
3403 1 89.0712 12.5405 1117 39.974 598.842 444.474
3404 1 68.0521 13.137 894 44.7237 598.466 439.924
3405 0 69.0407 12.804 884 45.1256 599.686 437.929
3406 0 71.0697 13.0013 924 44.7262 599.609 436.272
3407 0 73.0234 13.0095 950 45.0758 599.479 435.363
3408 0 74.1003 12.2537 908 46.1696 599.304 432.334
3409 0 82.0826 13.2671 1089 44.0882 599.195 433.853
3410 0 78.0234 12.0092 937 46.5614 598.98 428.822
3411 0 86.1159 13.1335 1131 44.8603 598.845 429.386
3412 0 89.1621 13.8175 1232 44.1445 598.093 429.224
3413 0 92.0725 12.8703 1185 45.2717 598.676 425.808
3414 1 148.296 11.2747 1672 39.2524 597.908 435.935
3415 1 98.1212 13.0247 1278 45.7081 598.19 422.846
3416 0 101.126 12.9442 1309 45.285 598.228 421.079
3417 0 102.12 13.5332 1382 45.0557 597.891 420.143
3418 0 106.312 13.4227 1427 45.0722 598.561 419.149
3419 0 110.167 13.0348 1436 45.523 598.616 416.679
3420 0 114.138 13.0982 1495 45.412 598.465 416.395
3421 0 115.118 13.5339 1558 45.4551 597.91 414.072
3422 0 119.211 12.9267 1541 45.8955 598.469 411.018
3423 1 67.0164 12.2507 821 44.8697 598.37 436.619
3424 0 68.0597 12.9592 882 44.6848 598.508 436.291
3425 0 71.066 12.9739 922 44.7256 598.883 433.371
3426 0 73.1242 12.3762 905 45.5116 598.556 431.959
3427 0 75.0919 12.5846 945 45.1344 598.909 430.589
3428 0 77.0963 13.4507 1037 44.0569 599.338 431.602
3429 0 80.0445 12.6305 1011 44.6281 600.564 429.03
3430 0 80.1176 13.3803 1072 44.7845 599.258 428.814
3431 0 83.095 12.7445 1059 45.3815 599.096 426.783
3432 0 87.2002 13.1651 1148 44.7186 599.402 426.098
3433 1 142.363 11.8711 1690 38.2888 598.841 433.948
3434 1 93.1105 13.0275 1213 44.9052 599.48 423.017
3435 0 95.1056 13.4797 1282 44.4602 599.079 422.239
3436 0 97.1627 12.1549 1181 46.0957 600.083 418.516
3437 0 101.223 12.5565 1271 45.5405 599.831 418.47
3438 0 103.215 13.6995 1414 44.8373 599.325 416.674
3439 1 57.0803 11.2123 640 44.9625 598.933 440.52
3440 0 60.1046 11.1639 671 44.927 599.952 439.094
3441 0 59.0816 12.2373 723 44.4149 600.544 438.698
3442 0 65.0377 11.7163 762 44.1772 600.167 437.262
3443 0 67.0538 12.4825 837 42.9701 600.274 438.6
3444 0 69.0477 11.9627 826 43.6889 599.82 436.403
3445 0 68.0153 12.5707 855 43.8596 599.292 433.89
3446 0 71.05 13.2864 944 43.0826 599.02 434.776
3447 0 73.1041 12.8173 937 44.0128 599.327 431.869
3448 1 126.181 10.2709 1296 38.5756 600.901 439.366
3449 1 79.1031 12.9704 1026 43.7612 599.687 430.731
3450 0 82.1288 12.3099 1011 44.4313 599.396 429.318
3451 0 81.0854 12.6163 1023 44.8661 599.468 428.28
3452 0 85.0874 13.0454 1110 44.5874 598.951 427.534
3453 0 89.0737 12.7759 1138 44.9798 599.152 427.648
3454 0 90.152 12.5233 1129 45.6271 599.906 424.744
3455 0 95.117 13.4886 1283 44.6306 599.831 426.036
3456 0 96.0733 12.5945 1210 46.0826 599.173 421.749
3457 0 100.068 12.5215 1253 46.2865 598.539 420.839
3458 1 53.0432 10.0296 532 47.141 598.425 445.002
3459 0 55.0729 10.5315 580 47.0586 598.916 443.94
3460 0 54.0839 11.4267 618 46.8608 599.087 442.694
3461 0 57.0398 12.2371 698 46.0688 598.695 442.457
3462 0 59.0702 12.4767 737 45.7164 598.792 442.136
3463 0 62.012 12.2718 761 45.8449 598.141 441.01
3464 0 65.0815 13.0759 851 44.376 598.35 441.136
3465 0 68.071 11.7965 803 45.6501 598.278 439.611
3466 0 67.0183 12.1161 812 45.9027 598.014 437.477
3467 0 68.0368 12.9636 882 45.2608 597.776 437.324
3468 0 70.0218 12.8246 898 45.6147 598.45 436.161
3469 0 72.0887 12.3043 887 46.3935 598.655 433.788
3470 0 74.0655 12.7725 946 46.2495 598.772 433.17
3471 0 78.0453 12.3902 967 46.6153 598.503 431.215
3472 1 186.884 16.042 2998 39.7595 598.416 410.296
3473 1 82.0631 12.2467 1005 47.0836 599.003 428.644
3474 0 85.0547 12.827 1091 46.8139 599.253 427.367
3475 0 89.1151 12.1304 1081 47.2414 599.065 425.904
3476 0 92.1087 12.2247 1126 47.7211 599.21 425.612
3477 0 94.0823 13.3288 1254 47.0367 598.724 424.289
3478 0 99.0555 12.0942 1198 48.2404 598.618 422.832
3479 0 99.0536 12.3973 1228 48.5179 598.827 420.668
3480 1 54.0195 10.163 549 49.3479 598.377 442.474
3481 0 56.0695 11.7354 658 47.7812 598.383 444.018
3482 0 58.0458 10.4573 607 49.4728 598.601 441.521
3483 0 60.0465 11.7909 708 47.6907 599.083 442.192
3484 0 60.053 11.673 701 48.1441 599.019 440.053
3485 0 64.087 11.7653 754 47.6645 598.313 439.95
3486 0 65.0228 12.0881 786 47.4377 598.06 438.22
3487 0 64.0307 12.5409 803 47.7547 597.899 437.205
3488 0 70.0868 11.7568 824 49.2585 598.235 437.083
3489 0 70.05 11.7059 820 49.9524 598.244 434.345
3490 0 72.0775 12.0148 866 49.5854 598.59 434.067
3491 0 75.0412 11.9401 896 49.5826 598.56 432.587
3492 0 79.0444 12.2463 968 49.0558 598.944 432.268
3493 0 80.2015 12.3314 989 49.6512 597.577 430.812
3494 1 110.198 12.5593 1384 43.6012 597.799 437.329
3495 1 48.0436 10.1158 486 50.2654 597.671 446.823
3496 0 48.0545 10.3008 495 50.7172 596.374 447.059
3497 0 48.0165 10.0174 481 51.6279 597.428 447.647
3498 0 50.066 11.0854 555 50.7892 598.213 446.268
3499 0 51.0908 11.1175 568 50.6056 598.884 444.489
3500 0 53.046 11.4241 606 50.9554 598.256 444.482
3501 0 55.0524 10.6444 586 52.1365 597.775 442.415
3502 0 56.0376 11.7957 661 51.2103 597.941 442.626
3503 0 56.0928 11.3562 637 52.0659 598.016 440.432
3504 0 63.071 11.7962 744 50.3656 598.757 441.626
3505 0 60.0492 12.2566 736 51.1522 598.812 440.091
3506 0 62.0423 12.3464 766 51.0927 598.024 438.474
3507 0 64.0798 12.5156 802 51.0449 597.246 437.667
3508 0 66.0578 12.0501 796 51.8631 597.329 435.857
3509 0 68.0958 12.4237 846 51.2742 598.088 436.298
3510 0 70.0547 12.4902 875 51.1303 598.311 433.695
3511 0 73.0213 12.7223 929 50.972 598.394 432.95
3512 0 75.165 12.9449 973 50.7338 597.935 432.326
3513 0 75.1985 11.5029 865 53.2728 598.024 427.363
3514 1 115.099 12.6935 1461 44.4545 598.197 435.672
3515 1 83.0498 12.7995 1063 51.1834 598.689 427.214
3516 0 84.0593 12.5031 1051 51.8325 598.623 425.205
3517 0 90.0774 12.5559 1131 51.5871 598.563 424.227
3518 0 95.0742 13.1792 1253 50.0439 599.136 424.354
3519 0 94.1045 12.9112 1215 51.2996 598.914 422.761
3520 0 99.1994 13.0948 1299 50.4072 598.933 420.927
3521 0 101.168 12.2766 1242 52.2448 598.242 418.948
3522 0 107.111 12.7998 1371 51.3151 598.213 419.128
3523 1 60.0406 11.3423 681 53.0485 598.236 439.341
3524 0 61.1034 11.9306 729 52.3827 598.737 439.204
3525 0 64.0969 11.4202 732 53.3688 598.671 437.473
3526 0 66.0402 12.1744 804 52.4366 598.179 436.738
3527 0 69.0714 12.031 831 52.5162 598.36 435.239
3528 0 73.0676 12.6184 922 51.0716 598.742 433.858
3529 0 71.1015 12.222 869 52.6306 598.59 432.941
3530 0 75.0828 12.7326 956 51.5209 599.05 432.823
3531 0 76.0514 12.9386 984 51.3476 599.239 431.387
3532 0 80.0802 13.1993 1057 50.5847 599.531 430.951
3533 0 80.0389 13.306 1065 51.3427 599.462 429.411
3534 0 82.0909 12.6202 1036 52.2152 599.335 427.063
3535 0 89.0671 12.9678 1155 50.9316 599.304 426.574
3536 0 91.1211 12.3133 1122 52.6283 599.422 424.458
3537 0 94.0447 12.4728 1173 52.5524 599.929 423.839
3538 0 96.0824 12.8536 1235 52.3028 600.303 422.189
3539 0 98.1806 12.5381 1231 53.1422 599.697 420.083
3540 0 102.152 12.2857 1255 53.2574 600.25 419.97
3541 0 104.154 12.7504 1328 53.0542 600.295 418.959
3542 1 56.1228 11.8846 667 54.5922 600.465 441.519
3543 0 60.0256 11.6117 697 54.5753 600.443 439.772
3544 0 61.0595 11.8737 725 54.8166 601.058 440.19
3545 0 62.052 11.9255 740 55.027 600.146 438.796
3546 0 65.0581 12.4197 808 54.5569 599.874 437.814
3547 0 66.0452 12.0221 794 55.0088 599.515 436.277
3548 0 68.0523 12.6667 862 54.3063 599.378 435.642
3549 0 69.0443 12.8468 887 54.4611 598.718 436.267
3550 0 71.0174 12.5885 894 54.5817 599.442 435.403
3551 0 73.0998 12.5035 914 54.3271 599.497 434.864
3552 0 77.0369 13.1495 1013 53.4758 599.068 435.488
3553 0 79.1688 13.326 1055 53.3128 598.793 434.465
3554 0 85.1573 13.2461 1128 52.8635 597.965 433.387
3555 0 87.1291 13.2332 1153 52.4657 597.872 434.344
3556 0 94.0626 13.1615 1238 51.9887 597.824 433.793
3557 0 95.0487 12.9513 1231 52.7124 597.535 433.044
3558 0 97.1553 13.0307 1266 52.7172 597.753 432.712
3559 0 104.084 12.538 1305 52.9877 597.84 429.833
3560 0 107.083 13.4008 1435 51.7087 597.174 430.046
3561 0 113.16 13.4412 1521 51.6463 597.103 426.994
3562 0 112.064 13.644 1529 51.7207 597.294 427.377
3563 1 67.0258 12.1744 816 51.31 596.571 450.246
3564 0 64.0348 11.4001 730 53.1712 596.563 448.949
3565 0 64.0496 12.2561 785 52.8752 596.614 448.245
3566 0 69.0473 12.7159 878 51.7255 595.649 446.777
3567 0 71.0652 12.6363 898 52.0612 594.666 445.815
3568 0 75.035 12.8207 962 51.341 594.64 444.887
3569 0 76.0552 12.9511 985 51.3168 595.139 443.17
3570 0 79.0326 12.2608 969 52.2147 594.428 439.141
3571 0 82.0872 13.0593 1072 50.9198 594.256 438.918
3572 0 84.1076 13.1974 1110 51.0207 594.45 437.468
3573 0 86.0703 12.9545 1115 51.5184 594.137 435.844
3574 0 90.0786 13.5437 1220 50.1516 594.084 435.566
3575 0 93.1424 12.3037 1146 51.7164 593.019 431.931
3576 0 98.12 12.6478 1241 51.145 594.683 432.478
3577 0 99.1889 12.7736 1267 51.3875 594.041 430.228
3578 0 102.23 12.3741 1265 51.7874 593.756 428.351
3579 0 106.097 13.4122 1423 50.7245 594.428 426.926
3580 0 109.131 12.9845 1417 51.3839 595.249 425.582
3581 0 112.103 12.8186 1437 51.3807 595.388 424.035
3582 0 115.061 12.9323 1488 51.1378 595.63 422.626
3583 0 120.09 12.8237 1540 51.3656 595.277 420.646
3584 0 125.094 12.8543 1608 51.0255 595.432 418.315
3585 0 126.182 12.696 1602 51.3383 594.731 416.876
3586 0 129.137 13.1644 1700 50.9465 594.805 417.489
3587 0 134.128 12.585 1688 51.285 594.882 415.962
3588 1 69.0882 12.0426 832 51.5901 594.858 445.305
3589 0 74.1154 12.602 934 50.6167 594.24 446.328
3590 0 75.0883 13.2244 993 49.994 594.214 446.752
3591 0 77.0654 12.9111 995 50.4573 593.555 445.18
3592 0 78.1498 12.8727 1006 50.2416 594.635 445.282
3593 0 81.0786 13.4931 1094 49.9177 594.237 444.303
3594 0 88.0982 12.9515 1141 49.6486 594.223 442.867
3595 0 87.158 12.6667 1104 50.3243 594.562 441.673
3596 0 89.1327 13.407 1195 49.272 593.945 441.677
3597 0 96.0438 13.067 1255 49.2406 593.952 438.588
3598 0 95.1453 13.4426 1279 49.0235 594.269 438.706
3599 0 98.1028 13.4043 1315 49.0707 593.633 436.909
3600 0 101.141 13.2389 1339 49.1912 593.739 436.32
3601 0 101.131 12.2317 1237 50.5416 593.733 432.692
3602 0 106.09 12.9607 1375 49.6116 592.996 431.361
3603 0 112.106 14.4952 1625 47.32 593.34 432.406
3604 0 111.094 12.8449 1427 49.5228 593.867 427.833
3605 0 116.128 13.2526 1539 48.8843 593.383 427.37
3606 1 61.0314 10.257 626 50.4105 593.328 449.018
3607 0 64.0375 12.5395 803 47.8281 592.839 452.156
3608 0 68.0391 12.3899 843 48.6833 592.445 450.072
3609 0 69.0329 12.6172 871 48.7509 592.503 448.01
3610 0 71.053 12.737 905 48.6133 592.109 446.748
3611 0 73.0171 12.3396 901 49.1831 592.088 443.436
3612 0 77.0709 13.4422 1036 47.9257 592.061 445.468
3613 0 79.0562 13.8383 1094 47.7395 592.302 445.69
3614 0 79.0664 12.9132 1021 49.3546 593.106 442.677
3615 0 81.0473 12.832 1040 49.5817 593.456 440.399
3616 0 84.064 12.8355 1079 49.6284 592.585 440.091
3617 0 91.0602 13.8919 1265 47.6553 592.541 440.092
3618 0 88.0784 12.6024 1110 49.9162 592.936 435.526
3619 0 95.0463 13.8774 1319 47.9841 593.179 434.89
3620 0 96.0889 12.6237 1213 49.343 592.298 432.243
3621 0 98.0734 12.6334 1239 49.4584 592.622 431.027
3622 1 54.0611 11.2835 610 50.4279 592.938 453.589
3623 0 56.0556 11.6313 652 50.2623 592.794 452.856
3624 0 58.1087 12.0808 702 49.8547 592.764 452.587
3625 0 60.04 11.6089 697 50.6112 593.62 449.489
3626 0 61.0424 12.0408 735 49.917 593.713 449.257
3627 0 65.0138 12.382 805 49.6932 592.822 446.94
3628 0 67.0229 12.1451 814 49.7912 592.977 445.882
3629 0 69.0316 12.6174 871 49.5741 593.719 444.614
3630 0 69.0441 13.1365 907 49.5336 594.34 444.818
3631 0 72.0393 13.1734 949 49.549 594.413 442.945
3632 0 75.0937 13.077 982 49.6782 594.668 441.835
3633 0 77.0517 13.0691 1007 49.9355 594.177 439.012
3634 0 81.038 12.7101 1030 50.3039 594.543 436.648
3635 0 84.0756 12.8218 1078 50.6614 594.218 436.475
3636 0 89.0505 12.5996 1122 50.4537 594.549 434.752
3637 0 89.1043 12.9399 1153 50.6349 595.051 434.184
3638 0 93.1154 12.6939 1182 50.8173 594.778 431.712
3639 0 95.117 13.4361 1278 50.2817 595.362 430.598
3640 0 100.156 13.2094 1323 50.1141 595.345 429.987
3641 0 102.112 13.3775 1366 50.3082 595.165 425.713
3642 0 102.046 12.367 1262 52.0111 594.958 421.57
3643 0 107.189 12.6506 1356 51.1851 595.406 420.131
3644 0 110.153 12.764 1406 51.1131 595.676 419.644
3645 0 113.133 12.9582 1466 50.9468 595.848 418.314
3646 0 116.055 13.149 1526 50.7641 595.514 415.069
3647 0 126.092 13.6646 1723 49.1538 595.575 415.82
3648 1 69.16 13.1145 907 48.57 596.331 441.989
3649 0 68.0685 12.7959 871 49.9989 596.518 438.727
3650 0 71.087 13.2936 945 49.3746 597.05 437.688
3651 0 78.0404 13.1983 1030 47.967 597.116 435.86
3652 0 80.0275 12.7206 1018 48.9126 596.972 432.45
3653 0 81.0741 13.1731 1068 48.4728 597.597 431.061
3654 0 84.1114 13.5178 1137 47.8628 598.224 429.835
3655 0 87.1193 12.3853 1079 48.76 598.233 427.5
3656 0 91.1166 12.72 1159 48.1389 598.735 426.097
3657 0 92.1334 12.547 1156 48.5234 598.555 423.863
3658 0 96.0793 12.2919 1181 48.7815 598.826 422.822
3659 0 100.084 14.0982 1411 46.4224 598.354 424.107
3660 0 103.077 13.6597 1408 46.7749 598.344 420.678
3661 0 105.143 13.7147 1442 46.8863 597.915 418.641
3662 0 108.112 13.375 1446 47.1729 597.566 416.245
3663 0 114.21 13.5803 1551 46.5158 597.512 415.464
3664 1 63.0168 10.8384 683 47.1552 598.018 439.527
3665 0 64.0174 11.8093 756 46.4299 598.357 438.237
3666 0 65.0631 12.4956 813 46.1255 598.263 436.408
3667 0 65.0245 12.8721 837 46.0609 598.059 435.61
3668 0 70.0892 13.2117 926 44.621 598.861 435.992
3669 0 75.0571 12.1241 910 47.3593 598.842 434.468
3670 0 75.0315 13.0479 979 46.4433 598.349 433.939
3671 0 79.0281 13.375 1057 46.0587 598.515 433.563
3672 0 82.0635 13.2824 1090 45.8725 598.748 432.379
3673 0 85.1082 13.2302 1126 46.3144 598.537 431.35
3674 1 127.565 11.3668 1450 42.4062 597.865 434.132
3675 1 90.163 12.9987 1172 47.0461 598.303 427.204
3676 0 94.1988 12.4736 1175 47.7047 598.503 425.078
3677 0 97.0553 12.7865 1241 47.5689 598.318 423.753
3678 0 98.1398 13.4094 1316 47.3579 598.106 422.383
3679 0 104.094 12.4502 1296 47.7731 597.601 420.633
3680 0 107.06 13.0581 1398 47.6838 597.733 418.825
3681 0 114.129 12.3895 1414 48.1082 598.363 416.793
3682 0 112.139 13.0374 1462 47.8194 598.029 415.862
3683 0 116.1 13.1008 1521 47.9172 596.927 413.402
3684 1 144.762 14.7622 2137 41.7585 597.834 422.459
3685 1 66.0449 12.0524 796 46.4171 598.286 437.443
3686 0 70.0552 12.0762 846 46.2045 597.61 437.476
3687 0 70.0825 12.628 885 46.0633 597.481 434.946
3688 0 72.1041 12.4958 901 46.1609 598.152 433.512
3689 0 77.0701 12.2745 946 45.8446 598.276 432.734
3690 0 82.1121 12.4099 1019 45.5025 598.585 431.045
3691 0 81.0379 13.216 1071 45.2726 598.609 431.44
3692 0 83.1472 13.1814 1096 45.8175 598.741 429.796
3693 0 88.1069 13.2566 1168 45.6207 598.221 428.586
3694 0 90.1187 12.7277 1147 46.3191 598.214 426.773
3695 0 94.149 13.0432 1228 46.4552 597.4 426.445
3696 0 92.1167 12.8098 1180 47.7432 597.714 425.35
3697 0 96.2305 12.9792 1249 47.6477 598.15 423.219
3698 0 102.077 12.5983 1286 47.8888 597.838 420.943
3699 0 106.166 13.2434 1406 47.1366 597.539 420.775
3700 1 133.208 14.9016 1985 41.6423 596.884 426.534
3701 1 108.152 13.3608 1445 48.0734 597.336 418.287
3702 0 112.154 13.1248 1472 48.5666 597.822 414.537
3703 0 114.16 13.6037 1553 48.5621 597.435 413.939
3704 0 121.192 14.0274 1700 47.9206 597.266 413.372
3705 0 122.144 13.4186 1639 49.0073 597.314 409.654
3706 0 128.131 13.377 1714 48.7666 597.316 407.424
3707 0 130.132 13.809 1797 48.5481 596.934 406.608
3708 0 137.17 13.742 1885 48.3379 596.974 403.593
3709 1 79.0555 11.6753 923 48.4464 597.402 432.693
3710 0 79.0979 11.4036 902 49.2661 597.041 430.889
3711 0 85.1499 12.2842 1046 48.1663 597.157 430.332
3712 0 90.1777 12.2868 1108 47.8339 598.101 427.151
3713 0 89.0724 12.6302 1125 48.088 597.813 426.788
3714 0 91.1643 12.6475 1153 48.2888 597.19 424.417
3715 0 94.09 12.6687 1192 48.2508 597.294 422.679
3716 0 98.2185 12.6453 1242 48.3293 597.793 422.952
3717 0 99.0328 12.4706 1235 48.9603 597.809 420.615
3718 1 143.232 13.6213 1951 41.3173 598.849 428.02
3719 1 105.151 13.609 1431 47.7247 598.203 418.013
3720 0 109.195 12.7479 1392 48.6753 597.624 416.458
3721 0 112.105 12.8986 1446 48.7635 598.095 413.969
3722 0 116.057 12.8213 1488 48.9153 598.795 413.45
3723 0 115.159 12.3307 1420 50.0599 598.887 410.872
3724 1 152.87 14.6922 2246 41.5966 598.623 421.215
3725 1 70.0343 11.1945 784 49.3967 599.008 434.485
3726 0 67.0584 11.0352 740 50.1459 598.816 434.274
3727 0 70.1294 11.4075 800 49.965 598.734 433.096
3728 0 73.0443 12.3624 903 48.6944 598.455 433.951
3729 0 75.0736 12.2946 923 49.2286 598.987 431.415
3730 1 117.462 11.8677 1394 41.8508 599.867 439.43
3731 1 0 0 0 -nan -nan -nan
3732 0 0 0 0 -nan -nan -nan
3733 0 0 0 0 -nan -nan -nan
3734 0 8.05158 10.4327 84 13.7857 598.488 487.488
3735 1 92.1169 12.2236 1126 50.0275 599.333 423.942
3736 0 92.1175 13.1463 1211 49.758 599.988 422.308
3737 0 95.1219 12.9518 1232 49.9976 600.31 421.976
3738 0 98.0928 12.3455 1211 51.1998 599.513 420.28
3739 0 98.1082 12.9449 1270 50.9953 600.335 417.587
3740 0 101.106 12.7885 1293 50.8732 600.938 417.366
3741 1 208.483 13.886 2895 42.3689 601.029 412.528
3742 1 109.105 13.3725 1459 50.2269 600.739 416.091
3743 0 112.137 12.5918 1412 51.2238 600.627 415.609
3744 0 116.109 12.2557 1423 51.8454 599.705 414.484
3745 0 118.13 13.4428 1588 50.9081 599.672 413.22
3746 0 120.198 13.4861 1621 50.6823 600.076 409.536
3747 0 127.168 13.2974 1691 50.7759 599.625 407.666
3748 0 131.139 12.7193 1668 51.3615 599.378 405.888
3749 0 134.202 13.3679 1794 50.6711 599.003 402.525
3750 1 74.0591 11.5313 854 51.308 599.138 431.513
3751 0 80.0274 11.4836 919 50.7312 599.112 431.025
3752 0 83.0816 12.5058 1039 50.0202 598.855 430.108
3753 0 86.0707 12.664 1090 49.5046 598.783 428.162
3754 0 89.063 12.4294 1107 50.0714 599.306 426.772
3755 1 134.328 13.1321 1764 40.9235 600.985 438.168
3756 1 0 0 0 -nan -nan -nan
3757 1 47.1696 13.6105 642 12.5483 599.751 511.645
3758 1 99.0982 13.0779 1296 50.1821 598.832 421.553
3759 0 102.101 13.0949 1337 50.5954 598.903 420.814
3760 0 107.145 12.2264 1310 51.3962 599.525 418.544
3761 0 107.152 11.983 1284 52.2103 599.979 415.551
3762 0 113.15 13.5484 1533 50.169 599.107 416.047
3763 1 183.62 12.0248 2208 43.1241 599.242 426.663
3764 1 119.116 13.3736 1593 50.2473 599.533 412.117
3765 0 125.159 13.5587 1697 49.6788 599.964 411.572
3766 0 127.124 12.9637 1648 50.932 598.65 408.884
3767 0 136.243 12.8007 1744 50.379 599.083 406.835
3768 0 138.111 12.461 1721 50.9988 598.959 404.144
3769 0 144.214 13.272 1914 49.7941 599.471 403.533
3770 0 147.12 11.4872 1690 51.6994 599.518 398.297
3771 0 153.09 12.496 1913 50.7381 599.031 397.472
3772 0 157.243 13.6032 2139 50.0514 597.902 395.95
3773 1 202.762 16.4429 3334 40.6203 598.134 413.39
3774 1 0 0 0 -nan -nan -nan
3775 1 26.1507 7.80093 204 12.3529 587.804 507.99
3776 1 250.206 12.6456 3164 51.397 597.672 354.195
3777 0 255.268 12.0266 3070 52.486 597.789 348.136
3778 0 268.256 12.257 3288 52.09 598.235 346.644
3779 1 257.08 18.1539 4667 41.1101 597.232 389.257
3780 1 111.024 12.0514 1338 49.1876 598.255 418.647
3781 0 115.131 11.1525 1284 49.9618 597.977 416.897
3782 0 116.133 11.5126 1337 50.2244 598.221 414.614
3783 1 140.218 16.2318 2276 41.0743 598.227 426.551
3784 1 119.151 23.0716 2749 38.6395 598.472 398.103
3785 0 120.152 25.1848 3026 36.736 598.834 397.637
3786 1 179.649 15.3355 2755 39.4298 599.163 420.873
3787 1 140.195 12.5325 1757 48.4587 598.744 404.412
3788 0 140.195 12.8321 1799 214.469 599.756 405.018
3789 0 152.192 12.0111 1828 49.0749 597.306 396.049
3790 0 156.249 11.9424 1866 49.1345 598.018 391.756
3791 0 161.245 12.7942 2063 48.2235 598.126 392.179
3792 0 164.231 11.977 1967 49.3737 598.236 388.224
3793 0 171.24 12.5321 2146 48.6095 598.641 386.288
3794 1 351.678 19.5349 6870 39.2456 598.012 356.422
3795 0 356.381 19.0835 6801 39.2369 597.88 353.681
3796 1 312.502 12.8639 4020 49.7169 598.232 319.785
3797 0 310.327 12.6318 3920 50.0798 598.578 317.647
3798 0 334.326 20.7312 6931 36.7501 598.313 369.595
