time division length width area intensity CMx CMy
0 0 73.1709 10.988 804 42.3371 838.062 450.909
1 0 74.1287 10.5357 781 43.0051 838.915 449.22
2 0 77.244 10.8876 841 42.2521 837.488 449.459
3 0 80.098 10.5995 849 42.02 837.277 448.212
4 1 121.071 10.6632 1291 35.6476 835.481 458.747
5 1 131.007 9.24378 1211 37.2106 835.459 455.816
6 1 0 0 0 -nan -nan -nan
7 0 10.3081 10.6713 110 13.1273 832.518 505.164
8 1 47.0789 9.00617 424 40.9552 834.599 466.63
9 0 49.0841 9.3513 459 40.8192 835.072 468.041
10 0 52.0534 9.77842 509 40.1847 835.405 467.086
11 0 53.0757 9.51471 505 40.6475 834.754 465.913
12 0 52.0524 10.9697 571 39.4448 834.149 465.587
13 0 52.029 9.783 509 41.1906 833.658 464.377
14 0 57.1738 10.3369 591 39.6227 833.802 464.579
15 1 84.2922 10.7009 902 34.5067 834.9 467.761
16 1 56.0738 11.2352 630 40.1175 834.533 462.029
17 0 57.0403 11.6409 664 40.0075 833.376 462.176
18 0 60.0607 10.8723 653 40.3078 833.933 461.015
19 0 62.0471 10.9272 678 40.5266 834.941 460.032
20 0 65.0755 11.5712 753 39.2444 834.234 459.973
21 0 65.1587 10.8044 704 40.0355 834.139 458.23
22 0 70.1382 10.8928 764 39.6034 833.691 459.382
23 0 70.0755 11.0595 775 40.5342 833.822 458.102
24 0 73.115 11.1058 812 39.9791 833.826 457.57
25 0 72.1604 11.8763 857 38.9662 833.15 456.195
26 1 108.362 10.2066 1106 35.6049 833.495 462.519
27 1 73.2613 10.7697 789 40.7934 834.011 455.139
28 1 106.414 10.6752 1136 35.6945 833.049 461.205
29 1 82.2081 11.2033 921 39.6895 833.891 453.364
30 0 81.2433 11.7671 956 39.4351 833.674 452.15
31 0 86.1947 11.5552 996 39.0361 834.101 451.245
32 0 87.3694 10.1981 891 40.3176 833.356 447.807
33 0 88.2482 11.411 1007 39.4727 833.032 447.246
34 0 91.301 10.9309 998 39.9469 833.335 447.214
35 0 95.2279 11.6563 1110 39.1468 833.402 445.886
36 0 98.2827 11.8943 1169 38.8537 833.497 445.63
37 1 49.0338 9.64641 473 40.2875 833.858 467.11
38 0 52.0849 10.3869 541 39.3512 833.603 467.488
39 0 52.0973 10.8259 564 39.3582 833.768 468.28
40 0 53.0685 10.8727 577 39.4887 833.395 466.804
41 0 58.082 10.9845 638 39.4545 832.865 466.375
42 0 60.2756 10.7672 649 39.9738 832.35 462.687
43 0 61.0952 10.8356 662 39.6314 833.246 462.39
44 0 58.1076 10.8247 629 40.4785 833.773 460.928
45 0 63.2034 11.4551 724 39.0345 833.319 461.294
46 0 66.1304 10.9178 722 39.4848 832.964 461.476
47 0 65.2132 11.4241 745 39.1732 833.157 459.627
48 0 68.156 11.5911 790 38.7266 833.229 458.342
49 0 72.0842 11.7502 847 38.4333 833.407 458.288
50 0 72.1995 12.1054 874 38.5092 832.463 456.327
51 0 76.1739 11.2768 859 38.8743 832.536 455.238
52 0 77.1137 12.2546 945 38.0677 833.269 453.394
53 0 76.112 12.3634 941 200.058 834.261 453.227
54 0 80.2377 12.625 1013 38.0849 832.939 451.175
55 0 83.1924 11.5636 962 38.5104 832.728 448.159
56 0 85.2345 11.9318 1017 38.6922 832.01 447.648
57 0 86.2779 11.8107 1019 38.9715 832.984 445.521
58 0 91.4357 12.2053 1116 38.1317 833.336 446.46
59 0 94.2195 12.2798 1157 38.0588 833.202 444.656
60 0 98.2998 11.4548 1126 38.4787 833.753 440.499
61 0 103.381 11.269 1165 38.3451 834.487 439.821
62 0 103.204 12.2379 1263 37.6382 833.262 440.399
63 0 106.259 10.8885 1157 38.9291 832.564 437.736
64 1 88.7689 8.5165 756 33.8294 832.324 467.81
65 1 56.0711 10.2727 576 36.7969 833.552 464.068
66 0 56.1731 10.3252 580 36.6983 833.033 463.557
67 0 61.1574 10.4484 639 36.4601 833.399 462.837
68 0 62.0926 10.6937 664 37.1401 834.039 460.002
69 0 64.2322 10.462 672 37.2753 833.917 459.246
70 0 65.1183 10.6268 692 37.3136 833.306 458.698
71 0 66.2281 10.6752 707 37.2306 832.506 457.341
72 0 69.2159 10.619 735 36.9959 832.369 455.902
73 0 72.2127 11.3692 821 36.0621 833.246 455.213
74 1 186.832 46.0627 8606 20.775 832.637 427.221
75 0 190.377 45.2785 8620 20.7436 831.683 427.123
76 1 146.405 24.1863 3541 29.4482 832.972 397.251
77 1 238.088 15.0196 3576 32.8487 833.175 412.029
78 1 213.568 10.2075 2180 40.3087 833.045 390.169
79 0 221.785 10.3614 2298 40.0696 833.334 384.346
80 0 218.508 14.7226 3217 32.4168 833.095 421.561
81 1 179.611 9.79338 1759 40.7072 833.873 399.202
82 0 178.517 14.0379 2506 32.3053 832.69 432.077
83 1 149.3 10.3684 1548 39.1854 832.643 416.902
84 0 154.356 10.9876 1696 38.8367 832.768 414.592
85 1 186.671 14.1425 2640 32.5898 833.402 429.217
86 1 44.0184 14.6757 646 11.8731 832.594 527.571
87 0 45.0568 9.03304 407 33.0319 834.346 468.85
88 0 45.0202 9.10702 410 33.4024 833.963 467.324
89 0 47.0523 9.3938 442 33.7783 833.837 465.765
90 0 47.0667 9.11473 429 33.4103 833.573 464.343
91 1 32.8416 14.6461 481 12.0499 832.175 518.703
92 0 0 0 0 -nan -nan -nan
93 0 11.3418 21.1606 240 12.0833 831.617 511.488
94 0 21.1416 10.879 230 12.1609 822.674 508.643
95 0 8.16542 20.2072 165 12.1212 829.521 507.758
96 0 17.1979 16.3973 282 12.1489 830.886 510.525
97 0 0 0 0 -nan -nan -nan
98 0 0 0 0 -nan -nan -nan
99 0 10.3631 23.545 244 12.1189 833.201 510.27
100 0 15.4154 22.2505 343 12.1108 830.475 510.679
101 0 0 0 0 -nan -nan -nan
102 0 0 0 0 -nan -nan -nan
103 0 0 0 0 -nan -nan -nan
104 0 0 0 0 -nan -nan -nan
105 0 9.16757 35.342 324 12.213 832.676 506.265
106 1 74.3104 9.79674 728 34.8338 834.735 452.598
107 0 76.1851 10.4089 793 34.5296 834.364 451.931
108 0 82.1481 11.2723 926 33.3942 834.509 451.32
109 0 84.291 11.223 946 33.4926 834.475 449.881
110 0 84.1613 10.3135 868 34.3399 834.725 449.415
111 1 119.777 11.7051 1402 28.9201 833.765 459.038
112 0 96.2419 10.2762 989 33.7998 834.57 445.513
113 0 96.3144 10.4553 1007 33.8113 834.92 444.917
114 1 128.729 10.8911 1402 30.5185 833.932 450.597
115 1 96.3016 10.7059 1031 33.8506 834.663 446.086
116 0 97.2585 10.0043 973 34.6218 834.815 442.771
117 0 98.2194 10.7311 1054 34.0531 835.422 444.003
118 0 97.2469 11.0132 1071 34.2829 835.162 442.882
119 0 98.2155 7.48354 735 31.366 835.954 469.132
120 1 87.498 10.4117 911 29.8244 834.629 466.587
121 0 93.5516 9.84483 921 30.0217 834.987 467.668
122 1 60.1516 9.80856 590 35.1644 835.222 459.58
123 0 65.1815 11.0154 718 33.3719 835.735 460.067
124 0 66.074 10.3369 683 34.1757 833.988 457.452
125 1 98.3958 10.224 1006 30.3867 834.335 464.406
126 1 75.0939 10.1073 759 33.7826 834.372 457.83
127 1 104.132 9.82407 1023 30.9501 834.326 461.542
128 1 0 0 0 -nan -nan -nan
129 0 0 0 0 -nan -nan -nan
130 0 23.2157 11.1562 259 12.0656 834.317 518.479
131 0 0 0 0 -nan -nan -nan
132 0 0 0 0 -nan -nan -nan
133 0 18.2309 8.61175 157 12.2994 838.146 511.834
134 0 0 0 0 -nan -nan -nan
135 0 0 0 0 -nan -nan -nan
136 0 6 7.33333 44 13 834.091 505.455
137 0 0 0 0 -nan -nan -nan
138 0 8.01678 4.61532 37 13.0541 833.27 508.73
139 0 0 0 0 -nan -nan -nan
140 0 10.37 22.2758 231 12.2684 832.667 507.017
141 0 10.1076 5.44144 55 13.0545 835.964 505.873
142 0 13.5573 5.53206 75 12.9467 827.773 507.227
143 0 0 0 0 -nan -nan -nan
144 1 15.6708 4.08403 64 12.7188 829.469 507.875
145 0 0 0 0 -nan -nan -nan
146 0 0 0 0 -nan -nan -nan
147 0 0 0 0 -nan -nan -nan
148 0 32.7821 14.8862 488 12.1475 833.543 511.65
149 0 0 0 0 -nan -nan -nan
150 0 34.0943 5.95407 203 12.6355 829.192 511.207
151 0 0 0 0 -nan -nan -nan
152 0 0 0 0 -nan -nan -nan
153 0 0 0 0 -nan -nan -nan
154 0 0 0 0 -nan -nan -nan
155 0 9.13419 8.7583 80 13.1 834.175 502.112
156 0 0 0 0 -nan -nan -nan
157 0 0 0 0 -nan -nan -nan
158 0 0 0 0 -nan -nan -nan
159 0 8.06205 8.1865 66 13.0606 836.712 504.697
160 0 0 0 0 -nan -nan -nan
161 0 10.0299 8.27529 83 13.0723 833.361 505.084
162 1 293.837 12.8949 3789 40.0845 835.224 348.145
163 0 299.749 13.1777 3950 39.8443 833.968 340.552
164 1 51.1834 10.0228 513 39.0721 836.483 463.752
165 0 54.1976 9.72369 527 39.611 836.129 461.97
166 1 87.9674 36.4567 3207 20.3106 833.739 466.383
167 1 58.3209 26.1484 1525 27.259 835.02 454.839
168 1 81.1434 10.1179 821 34.5627 835.911 464.937
169 1 56.0671 11.076 621 38.9469 834.871 461.546
170 0 59.1128 11.791 697 38.2123 834.822 462.164
171 0 63.0589 10.8946 687 38.8486 834.764 461.943
172 0 62.0573 10.732 666 39.3724 834.411 461.023
173 0 61.0269 11.5687 706 39.3102 835.014 460.667
174 0 67.0484 10.6043 711 39.7947 834.845 460.235
175 0 68.0723 10.9883 748 39.4452 834.14 459.314
176 0 67.1571 11.3912 765 39.4497 834.22 457.929
177 0 71.0691 11.9602 850 38.4953 833.709 457.366
178 0 73.0418 11.6782 853 38.6999 833.444 455.948
179 0 77.0427 11.6429 897 38.4905 833.418 454.511
180 0 76.1571 11.6076 884 38.8088 834.292 453.376
181 0 80.2192 11.8924 954 38.3606 834.818 454.76
182 0 80.0785 11.6636 934 39.2002 834.47 451.801
183 0 82.0984 12.2292 1004 38.5906 834.347 451.679
184 0 84.1329 11.3392 954 40.1583 833.673 448.942
185 0 87.1641 11.7709 1026 39.345 834.25 449.689
186 1 48.0333 10.1388 487 38.9384 834.246 469.593
187 0 49.012 10.0588 493 39.5862 834.292 468.933
188 0 51.0177 10.3493 528 39.5852 833.769 468.201
189 0 52.043 10.8756 566 39.5442 833.284 468.132
190 0 52.043 10.7603 560 207.504 833.27 468.288
191 0 54.0408 10.6771 577 40.539 833.768 467.331
192 0 52.0258 10.7062 557 41.3734 833.122 465.391
193 0 54.0296 11.4012 616 41.0276 833.373 464.615
194 0 56.1131 11.4055 640 40.9781 833.511 463.503
195 0 61.1288 11.2549 688 40.3503 832.555 462.981
196 0 61.0664 11.6922 714 40.3179 832.847 462.042
197 0 63.2613 11.3181 716 40.5768 832.21 459.399
198 0 61.1129 11.8633 725 40.7159 832.719 459.465
199 0 64.1252 11.6647 748 40.7874 833.094 457.89
200 0 69.2445 11.7843 816 40.3517 833.3 457.768
201 0 69.3009 11.6882 810 40.9728 834.095 456.227
202 0 69.2368 11.9301 826 41.0097 834.008 454.15
203 0 71.0865 12.1261 862 41.0928 834.233 454.072
204 0 76.1733 11.5526 880 41.1852 834.105 452.202
205 0 77.2347 12.2225 944 40.5922 834.798 450.914
206 1 121.68 10.3797 1263 43.8116 834.102 432.2
207 1 80.2496 12.2991 987 41.1864 833.78 450.419
208 0 83.1951 11.2386 935 42.3882 833.825 447.911
209 0 87.3741 11.7998 1031 41.6431 834.027 447.37
210 0 89.2946 11.8596 1059 41.8782 835.025 446.396
211 1 48.0933 10.7707 518 42.3205 834.116 466.838
212 0 47.0265 11.7381 552 42.0688 833.741 465.449
213 0 50.15 11.1466 559 42.0376 834.304 464.911
214 0 51.0899 10.5305 538 42.4368 834.84 463.556
215 0 55.018 10.7419 591 41.7936 833.949 464.188
216 0 56.0373 11.3853 638 41.547 833.712 463.11
217 0 55.1619 11.0946 612 42.1454 835.163 462.404
218 0 59.1055 11.1157 657 41.3425 835.251 461.038
219 0 60.0876 11.0006 661 41.6868 835.222 461.25
220 0 58.0304 11.6835 678 41.4779 835.31 459.468
221 0 65.0864 10.9239 711 41.2827 834.993 459.283
222 0 66.0828 11.3191 748 40.9037 834.269 458.329
223 1 95.2326 42.391 4037 21.4521 832.647 462.703
224 1 71.5527 24.6951 1767 29.9955 832.797 448.434
225 1 116.857 8.54892 999 37.0581 833.787 465.717
226 1 72.0898 12.207 880 40.3625 833.667 455.806
227 0 75.0952 11.8117 887 40.9662 834.382 454.347
228 0 77.1579 12.1439 937 40.7065 833.687 453.855
229 0 81.0532 11.8317 959 41.1324 832.988 453.285
230 0 82.1225 11.8603 974 41.5462 833.539 452.873
231 0 86.1677 11.6169 1001 41.5824 833.275 451.553
232 1 44.1206 10.5166 464 42.0517 833.94 470.246
233 0 48.1023 9.97873 480 42.1667 833.715 468.567
234 0 48.0804 11.1896 538 41.4517 833.548 469.394
235 0 49.177 10.6147 522 42.1207 833.833 467.847
236 0 51.133 10.5607 540 42.1148 833.713 467.143
237 0 51.1322 10.7564 550 42.2127 833.933 467.1
238 0 53.1331 11.3489 603 41.8657 833.932 466.879
239 0 57.0593 10.8133 617 41.7974 833.744 465.452
240 0 58.0661 11.0047 639 41.7105 833.036 464.693
241 0 58.0658 11.4181 663 41.6697 833.002 464.29
242 0 61.0416 11.5167 703 40.9772 832.521 463.09
243 0 63.1207 11.9454 754 40.4509 832.838 461.878
244 0 65.1403 12.2198 796 40.3204 833.22 461.78
245 0 66.0874 11.1519 737 41.1303 833.543 459.769
246 0 69.0798 12.0006 829 40.392 833.052 460.451
247 0 68.1341 11.3453 773 41.392 833.021 457.837
248 1 102.839 41.249 4242 21.7765 831.749 462.221
249 1 75.6694 23.5498 1782 31.2082 832.775 448.442
250 0 74.9141 25.7762 1931 30.0368 833.446 447.472
251 0 74.7123 24.8553 1857 31.363 833.227 447.018
252 1 102.61 41.9354 4303 22.3723 831.68 462.855
253 1 76.5991 24.9481 1911 31.5086 832.851 447.774
254 0 76.3854 26.1045 1994 30.9689 832.36 447.89
255 1 302.576 15.8704 4802 37.8388 832.574 397.348
256 1 93.2403 12.1729 1135 42.7833 833.082 448.814
257 1 51.137 10.4425 534 42.7322 833.302 471.326
258 0 50.0688 11.3843 570 42.807 832.19 468.142
259 0 53.0813 11.002 584 43.0788 832.606 468.283
260 0 53.1683 11.3037 601 43.416 831.797 467.018
261 0 57.0402 11.2377 641 43.0499 832.677 465.835
262 0 58.1824 11.6702 679 42.2857 832.242 464.866
263 0 61.0915 11.2291 686 42.0948 832.068 464.083
264 0 61.0895 11.1803 683 43.2255 831.215 463.266
265 1 91.3705 10.9882 1004 37.999 831.57 467.363
266 1 63.1002 11.87 749 42.2296 831.712 462.628
267 0 67.0357 12.4411 834 41.6211 831.687 461.993
268 0 68.2125 11.9333 814 42.0197 832.859 459.737
269 0 70.1518 12.1308 851 42.376 831.95 458.108
270 0 72.0843 11.8472 854 42.2881 831.978 457.693
271 0 75.2591 12.4636 938 41.6535 832.372 455.053
272 0 75.1137 12.6075 947 42.2957 831.74 452.71
273 1 135.186 42.2973 5718 20.5575 830.536 468.215
274 1 81.8133 8.34828 683 38.0205 830.877 473.368
275 1 48.0128 10.1848 489 42.865 832.045 467.975
276 0 47.1084 9.87086 465 43.4258 831.763 467.697
277 0 49.0119 10.5077 515 42.2854 832.431 468.65
278 0 46.0262 10.8851 501 43.0399 832.242 468.635
279 0 50.0169 11.1562 558 42.5502 832.848 467.866
280 0 51.0553 11.0664 565 42.9947 832.365 466.789
281 0 50.0469 11.4093 571 43.4273 831.552 465.87
282 0 54.0449 11.3054 611 42.9885 831.953 464.401
283 0 54.0631 10.9872 594 43.5219 832.153 463.82
284 0 58.0921 11.2752 655 42.7634 832.293 462.624
285 0 60.0351 11.6432 699 42 832.92 462.607
286 0 61.0441 11.6965 714 42.1485 832.825 461.153
287 0 63.0907 11.4914 725 42.4759 832.883 460.953
288 0 61.0775 11.8538 724 42.6229 832.873 459.387
289 0 64.1171 11.6506 747 42.929 833.432 458.273
290 0 68.1928 11.6141 792 42.625 833.259 458.328
291 0 69.1169 11.6614 806 43.1017 833.471 456.582
292 0 72.0672 11.8778 856 42.9848 833.723 457.03
293 0 71.1162 11.5867 824 43.5255 834.478 455.45
294 0 71.148 11.961 851 44.1892 833.874 453.853
295 0 75.1217 11.6345 874 44.3478 833.027 452.106
296 0 79.0865 12.3156 974 43.6858 833.452 451.115
297 0 77.0693 11.9762 923 44.9664 833.533 448.427
298 0 80.1509 11.0666 887 45.832 833.477 446.045
299 0 85.1239 12.2645 1044 44.59 833.999 448.613
300 0 89.1281 11.8818 1059 44.899 834.068 446.455
301 0 89.1808 12.2672 1094 45.2834 833.756 445.337
302 0 92.1109 11.7358 1081 45.6975 833.04 441.457
303 0 93.3007 12.0578 1125 45.6427 834.036 441.197
304 0 97.2986 11.2746 1097 46.8022 833.636 440.225
305 0 100.266 11.7388 1177 46.2005 833.933 438.219
306 1 53.0388 11.0862 588 44.8605 834.145 462.515
307 0 53.0326 11.7286 622 44.6865 834.418 460.91
308 0 55.0522 11.6253 640 44.3344 833.398 460.291
309 0 56.0591 11.7554 659 44.5842 833.769 458.595
310 0 60.076 11.3023 679 44.7437 832.405 458.464
311 0 61.1017 10.9981 672 44.9301 833.33 458.487
312 0 62.12 11.1719 694 45.0245 833.976 456.671
313 1 99.2342 9.34154 927 40.7141 834.777 459.224
314 1 68.2064 11.2306 766 43.8316 834.487 454.261
315 0 65.2737 12.0263 785 44.0777 834.176 455.301
316 0 68.1334 11.6536 794 44.2683 834.264 452.457
317 0 71.1386 11.8642 844 43.4941 834.476 451.18
318 1 100.185 12.1974 1222 38.2831 835.08 455.866
319 1 74.0645 11.4765 850 44.4765 835.261 448.396
320 0 75.1485 11.4041 857 44.9148 834.992 448.228
321 1 41.0467 9.45264 388 44.6598 836.165 467.062
322 0 43.0571 9.84738 424 44.6368 835.012 468.533
323 0 43.0281 10.1562 437 45.2174 835.21 466.854
324 0 43.0252 10.8773 468 44.9124 834.239 465.682
325 0 44.143 10.3074 455 45.9956 834.657 464.262
326 0 46.0622 11.0286 508 45.1122 834.411 465.945
327 0 50.0914 10.5208 527 45.9791 834.338 464.313
328 0 49.0509 11.009 540 45.8222 835.22 464.874
329 0 50.0423 10.3712 519 46.3391 835.062 463.607
330 1 102.166 11.9609 1222 43.5949 834.638 440.441
331 1 155.606 15.2243 2369 30.5994 835.09 412.255
332 1 195.509 17.099 3343 33.3787 835.615 432.015
333 1 56.1018 10.9979 617 44.2836 835.134 462.877
334 0 56.1018 11.1048 623 203.801 835.154 462.648
335 0 59.1808 11.1354 659 44.9545 834.382 460.288
336 0 58.1367 11.5246 670 47.0567 834.296 459.515
337 0 61.1887 11.2929 691 47.8726 834.068 459.339
338 0 63.0602 11.6397 734 47.1049 834.245 458.256
339 0 66.1319 11.8097 781 46.735 833.852 458.864
340 0 66.2377 11.5342 764 47.9241 833.45 457.143
341 0 70.1716 11.6429 817 47.7638 833.236 455.956
342 0 70.1901 11.5401 810 48.3667 834.246 455.015
343 0 75.1393 11.5386 867 47.9377 834.434 455.085
344 0 74.1286 10.7381 796 49.5302 833.804 453.288
345 0 81.1762 10.9761 891 48.6532 833.587 453.567
346 0 82.2141 11.5552 950 48.3653 833.772 453.231
347 0 84.2131 10.9009 918 49.2396 832.821 451.471
348 1 46.0814 10.0474 463 48.7538 833.171 469.149
349 0 46.1205 10.7761 497 48.3199 833.314 468.479
350 0 48.1044 10.3733 499 48.8838 833.012 468.565
351 0 51.0916 10.902 557 47.8707 833.065 467.923
352 0 51.0724 11.141 569 48.5308 832.815 468.251
353 0 52.2168 10.2266 534 49.7228 832.39 467.069
354 0 54.1436 10.3983 563 49.5648 832.346 465.995
355 0 56.0808 11.0733 621 48.4332 833.277 465.515
356 0 57.1478 11.094 634 48.6199 832.547 466.429
357 0 58.1492 11.4877 668 47.9641 832.802 465.838
358 0 62.2006 11.2057 697 47.6829 833.603 464.848
359 0 64.1233 11.1348 714 47.4776 833.083 462.849
360 0 63.1732 11.8563 749 47.6101 832.677 462.403
361 0 64.0685 11.4253 732 48.6954 832.447 462.146
362 0 68.1786 12.2179 833 46.8151 832.917 462.086
363 0 70.1917 11.7108 822 47.4939 833.045 460.651
364 0 70.3177 11.0925 780 48.4833 832.872 458.149
365 0 72.1899 11.9961 866 47.5323 832.958 457.312
366 0 75.0765 12.1876 915 47.2087 832.577 454.764
367 0 75.123 11.7541 883 48.6342 831.259 454.153
368 0 78.241 11.6819 914 48.3446 831.219 453.177
369 0 79.262 11.6197 921 48.5885 831.62 450.034
370 0 83.1659 12.0482 1002 47.9391 832.003 450.675
371 0 86.1677 11.6517 1004 48.2968 832.17 449.766
372 1 44.0384 10.2411 451 47.1574 831.714 471.089
373 0 45.0099 10.3089 464 47.6272 831.86 470.55
374 0 46.0329 11.2963 520 46.3327 832.469 469.863
375 1 130.899 12.0169 1573 42.3586 832.315 452.427
376 1 53.0223 10.9954 583 47.4648 832.48 465.307
377 0 53.0682 10.6655 566 47.4541 831.716 465.251
378 0 51.0355 11.5018 587 47.7172 832.644 465.307
379 0 51.1193 11.6786 597 47.9095 832.338 464.789
380 0 55.1374 10.9726 605 48.4661 832.919 464.754
381 0 53.0265 11.6546 618 48.1764 833.011 463.586
382 0 53.0662 11.6458 618 48.9935 832.28 463.549
383 0 57.0208 11.6449 664 48.7199 832.673 462.157
384 0 59.0263 11.7405 693 48.5974 833.115 462.463
385 0 59.0622 12.9694 766 47.7872 832.585 461.527
386 0 63.1901 12.2013 771 47.9105 832.652 459.883
387 0 65.095 12.3819 806 47.4578 833.032 458.658
388 0 68.2699 12.5678 858 47.2051 833.155 458.244
389 0 67.0896 12.4311 834 47.6427 833.399 457.897
390 0 67.0528 12.438 834 48.2242 833.862 454.241
391 0 73.1031 12.5303 916 47.2031 833.369 454.311
392 0 74.1521 12.7171 943 47.1294 833.925 454.104
393 0 75.1318 12.4182 933 47.478 833.645 451.309
394 0 78.122 12.7749 998 46.8216 833.891 451.491
395 0 78.0625 12.5669 981 47.3751 833.552 451.096
396 0 82.1103 12.6537 1039 47.1675 832.816 449.798
397 0 85.1669 13.1624 1121 46.3229 833 448.057
398 0 87.2051 12.763 1113 46.2965 833.841 446.918
399 0 93.0425 12.7899 1190 45.9076 833.941 446.594
400 0 92.1139 12.7668 1176 46.0799 833.798 444.084
401 0 95.1807 12.8913 1227 45.7237 834.024 443.042
402 0 100.056 12.9228 1293 45.5267 833.22 442.31
403 0 102.072 11.9131 1216 46.5781 832.56 438.985
404 1 51.0584 10.4782 535 44.6692 833.447 466.505
405 0 54.0644 10.654 576 44.1719 833.009 466.74
406 0 53.0276 10.2211 542 45.0775 834.098 464.341
407 0 57.0889 10.6325 607 44.1845 832.524 465.405
408 0 58.0833 10.9842 638 44.2022 831.534 463.381
409 0 60.0364 10.7102 643 44.0482 832.222 463.428
410 0 62.0544 10.7003 664 44.1114 833.172 463.056
411 1 90.1371 10.717 966 38.9544 832.598 466.615
412 1 65.0321 11.3175 736 43.2799 832.53 460.728
413 0 68.1102 11.2905 769 43.4941 832.378 459.417
414 0 70.071 10.889 763 43.7955 832.541 458.692
415 0 72.1151 10.7744 777 43.9369 832.452 457.12
416 0 75.1559 11.7356 882 43.1111 831.645 457.549
417 0 78.1277 10.6748 834 44.2998 832.417 456.492
418 0 79.1602 10.5356 834 44.8861 831.571 454.215
419 0 81.1775 11.173 907 44.1147 832.392 455.251
420 0 83.1011 10.6617 886 45.219 832.216 452.375
421 0 87.1804 10.6216 926 45.4633 832.514 452.969
422 0 87.0877 10.0473 875 46.2743 832.24 450.315
423 0 89.0894 10.7869 961 46.2487 832.21 448.762
424 0 91.1319 10.6659 972 46.0967 831.544 446.938
425 0 97.0664 10.8379 1052 45.9087 831.343 446.439
426 1 76.1307 9.47055 721 40.3329 831.639 471.252
427 1 54.1636 10.0621 545 44.3982 832.138 466.967
428 0 53.0597 10.4411 554 44.6534 831.868 466.236
429 0 56.1337 9.92275 557 44.8564 831.451 465.934
430 0 57.1457 9.92201 567 45.0388 831.742 465.511
431 0 60.0966 10.0338 603 45.1194 831.481 464.905
432 0 63.2269 10.1539 642 45.1963 832.179 464.478
433 0 63.2097 10.2674 649 46.0262 831.522 462.952
434 1 93.1232 9.84718 917 40.8037 831.659 468.269
435 1 64.1964 10.1563 652 47.1641 832.072 461.974
436 0 64.1094 9.67097 620 48.0774 831.608 461.403
437 1 34.0301 9.37406 319 47.5737 830.549 476.483
438 0 38.1043 9.81517 374 46.5294 830.676 476.131
439 0 41.1794 9.90788 408 47.7623 831.159 474.441
440 0 40.1103 9.44895 379 49.3325 831.032 474.586
441 0 41.2584 10.0101 413 49.0291 831.673 472.714
442 0 43.1778 9.07873 392 49.6862 831.584 472.033
443 0 43.1435 9.92038 428 48.6893 831.624 471.904
444 0 44.0661 10.3481 456 48.3772 831.147 471.923
445 0 45.0635 10.23 461 48.9197 831.176 470.584
446 0 47.1261 9.69738 457 48.8337 831.766 469.578
447 0 49.1835 10.288 506 47.8794 831.858 469.727
448 0 51.2769 9.77048 501 48.0339 832.295 467.577
449 0 50.1127 10.217 512 48.3477 831.377 467.373
450 0 55.1086 9.98029 550 47.8073 831.633 466.451
451 0 54.1532 10.5442 571 47.4711 832.569 465.557
452 0 56.1506 10.3294 580 47.4879 832.102 464.998
453 0 60.1107 10.1313 609 47.1626 832.025 464.117
454 0 57.1167 10.2597 586 47.5819 831.381 460.981
455 0 62.1063 10.2405 636 47.0204 831.42 460.901
456 0 64.0918 10.0793 646 46.9644 831.893 459.045
457 0 64.2174 10.8538 697 45.9885 832.251 459.093
458 0 66.1409 10.1148 669 46.3677 832.492 456.801
459 0 67.1955 10.3132 693 46.2367 833.134 456.036
460 0 72.1818 10.6952 772 45.1528 833.31 457.819
461 0 74.0948 10.77 798 44.8383 832.971 455.798
462 1 36.1017 9.80562 354 44.8164 832.949 473.333
463 0 36.0439 9.32196 336 45.5952 832.816 471.595
464 0 40.0173 10.0207 401 44.3566 832.855 470.678
465 0 41.0702 9.66637 397 44.8741 833.343 470.388
466 0 41.1282 10.5767 435 43.9356 832.492 470.839
467 0 42.0738 9.93492 418 44.9306 832.766 468.242
468 0 44.0642 9.91735 437 44.5744 831.963 467.281
469 0 44.2101 10.8799 481 44.3347 832.927 467.387
470 0 46.1554 10.8763 502 43.9861 833.106 466.612
471 0 48.065 10.4234 501 44.2256 833.539 466.299
472 0 47.0438 11.4787 540 44.1722 833.385 464.422
473 0 49.1429 10.6221 522 44.6015 833.642 462.929
474 0 50.0798 11.3419 568 44.0299 833.618 463.87
475 0 53.1893 10.8293 576 44.2378 833.542 461.582
476 0 52.0912 10.904 568 44.6496 834.458 461.197
477 0 58.1387 11.1458 648 43.5185 834.034 460.71
478 0 58.1442 11.3683 661 43.469 833.66 460.38
479 0 58.162 11.382 662 43.707 832.983 458.352
480 0 60.127 11.5256 693 43.2843 833.654 457.241
481 0 61.1981 11.2912 691 43.8582 833.647 457.265
482 0 63.1314 11.6107 733 43.3615 833.492 456.078
483 0 64.1282 11.3367 727 43.729 833.92 455.329
484 0 65.2511 11.4941 750 43.9587 834.219 453.571
485 0 69.1412 11.2813 780 43.7231 834.147 452.654
486 0 71.1688 11.4938 818 43.511 834.658 452.425
487 0 75.1357 11.0467 830 43.4976 833.73 450.213
488 0 76.2589 11.9068 908 42.772 834.589 449.696
489 0 79.176 12.0491 954 42.6394 835.061 447.717
490 0 82.306 11.5787 953 42.9003 834.789 447.951
491 1 42.157 10.6032 447 42.7494 834.743 468.702
492 0 45.0693 9.91806 447 43.2416 834.6 468.389
493 0 45.0503 10.6104 478 43.2301 835.153 467.607
494 0 49.0973 11.2633 553 42.3255 835.371 468.26
495 0 49.0899 11.1021 545 42.6716 834.947 464.784
496 0 51.0527 11.5959 592 42.5811 834.225 465.14
497 0 50.0385 11.731 587 42.7854 834.38 463.727
498 0 53.1249 11.3318 602 42.8422 834.561 462.576
499 0 56.0971 11.5514 648 42.7978 834.466 462.529
500 0 57.0991 11.3487 648 42.9105 835.048 460.779
501 0 59.0537 11.5657 683 42.5564 834.615 461.748
502 0 60.095 12.1142 728 41.8475 834.538 461.28
503 0 61.0651 11.1029 678 43.1976 833.919 460.242
504 0 64.2201 11.1959 719 42.8261 833.78 458.032
505 0 66.1724 11.8025 781 42.3713 834.184 457.743
506 0 65.2514 11.6626 761 42.7306 834.762 456.313
507 0 68.2255 11.8138 806 42.0732 835.146 456.431
508 0 71.1147 11.615 826 42.0545 834.667 456.481
509 0 74.0517 11.8836 880 41.7477 834.716 454.355
510 0 75.1507 11.936 897 41.8384 834.376 454.62
511 0 77.1416 12.7298 982 40.9929 834.061 451.75
512 0 79.2763 12.3114 976 41.3525 833.856 451.642
513 0 81.2495 12.6401 1027 41.4479 833.686 451.003
514 0 82.0996 11.9489 981 41.8991 834.816 448.52
515 0 87.1757 12.4232 1083 41.2216 834.242 449.131
516 0 89.2067 12.0843 1078 41.9508 833.544 446.589
517 0 98.0671 11.6553 1143 41.8023 833.004 445.116
518 0 95.1799 11.7777 1121 42.5397 832.667 443.683
519 0 102.195 12.3392 1261 41.7328 832.816 444.545
520 0 102.107 12.6143 1288 42.2329 833.533 442.03
521 0 106.228 11.8989 1264 43.1733 833.388 440.521
522 0 109.13 12.3706 1350 42.7956 833.763 439.51
523 0 110.103 12.3612 1361 43.3108 833.846 437.272
524 0 115.147 12.5926 1450 43.0621 833.419 435.742
525 1 60.1032 12.4453 748 41.8422 833.428 464.622
526 0 60.0589 12.0881 726 43.1405 833.379 464.871
527 0 57.0968 11.4367 653 44.4364 833.914 461.069
528 0 63.0982 11.807 745 43.3436 833.542 461.529
529 0 64.0504 11.8344 758 43.2757 832.827 460.766
530 0 65.0919 12.3671 805 43.3801 832.548 461.569
531 0 67.0886 11.7904 791 43.6435 833.314 459.286
532 0 69.1948 12.2697 849 43.3498 833.529 457.273
533 0 74.0588 12.355 915 42.8557 832.805 456.195
534 0 73.1355 11.6633 853 44.1876 832.481 454.102
535 0 79.2373 11.8505 939 43.5059 832.634 454.525
536 0 78.0912 11.589 905 44.5359 832.364 452.266
537 1 43.0673 10.472 451 44.6519 832.095 469.033
538 0 45.0693 10.1843 459 44.6819 832.285 469.566
539 0 46.0331 11.2093 516 44.1221 832.339 468.688
540 0 49.0903 11.0816 544 44.3732 832.101 468.985
541 0 51.0323 10.5423 538 44.9721 832.307 467.703
542 0 50.1171 10.256 514 46.1868 832.033 466.486
543 0 51.0399 11.2461 574 45.4024 832.226 465.08
544 0 52.0349 11.1656 581 45.1532 833.365 464.463
545 0 56.0712 11.6102 651 44.4424 833.273 462.883
546 0 56.1155 12.0288 675 44.4474 833.101 462.767
547 0 60.0848 10.9345 657 45.1446 832.945 460.817
548 0 61.066 10.939 668 45.4566 832.817 459.079
549 0 62.1533 11.1016 690 50.8507 833.791 457.541
550 0 65.05 10.9608 713 50.3661 833.41 458.16
551 0 65.1198 11.7937 768 49.0872 833.207 457.775
552 0 68.1053 11.7171 798 48.8835 832.325 456.836
553 0 70.0527 11.8482 830 48.3446 833.628 456.917
554 0 71.1295 11.4299 813 48.7355 833.111 455.614
555 0 74.1044 11.4433 848 48.8219 833.812 452.393
556 0 76.1996 10.9974 838 49.722 833.732 451.814
557 0 79.1149 11.4391 905 48.4033 833.952 451.652
558 0 82.1312 10.1301 832 50.3293 833.871 450.505
559 0 84.104 9.89252 832 50.8245 833.588 449.465
560 0 85.137 11.2759 960 49.7594 833.445 449.234
561 0 88.1636 10.4805 924 50.987 833.365 447.403
562 0 92.1986 11.3885 1050 50.1467 833.459 446.3
563 0 96.2289 11.6493 1121 49.8118 833.721 444.149
564 1 71.0801 9.42598 670 44.9493 832.878 471.212
565 1 48.2584 10.3402 499 50.5852 833.026 467.102
566 0 48.0283 10.473 503 50.8926 833.068 466.614
567 0 51.1089 10.1743 520 51.1635 832.563 464.842
568 0 55.146 10.2637 566 50.0954 832.283 464.136
569 0 57.1555 11.2675 644 49.1693 832.846 464.716
570 0 59.0737 10.6139 627 49.177 833.128 464.359
571 0 56.1081 11.3174 635 49.3339 832.825 463.567
572 0 61.134 10.2889 629 49.8521 833.148 460.924
573 0 62.2039 10.8675 676 49.4172 832.753 460.237
574 0 66.3695 11.5565 767 48.1656 832.934 460.797
575 0 66.0499 11.1582 737 49.3256 833.119 459.51
576 0 69.0923 10.7972 746 49.1501 833.252 457.602
577 0 72.1991 9.90317 715 50.4196 833.092 455.355
578 0 72.2344 10.7982 780 49.5192 833.274 455.231
579 0 74.128 11.0754 821 49.5372 832.957 454.694
580 0 77.1634 11.3137 873 49.3643 832.473 454.058
581 1 39.0271 9.58309 374 49.631 832.505 474.251
582 0 39.0528 9.42313 368 50.2745 832.943 472.37
583 0 40.0635 10.059 403 49.8337 832.534 471.859
584 0 43.0675 10.3094 444 49.9009 831.946 472.372
585 0 41.1199 10.7734 443 49.86 832.291 471.718
586 0 47.046 10.4153 490 49.5306 832.112 470.537
587 0 46.0249 10.0598 463 50.8229 831.73 470.27
588 0 46.0764 11.0252 508 50.4055 832.394 469.774
589 0 47.1216 10.1652 479 51.9624 832.445 468.349
590 0 49.0945 11.6917 574 49.7178 832.659 468.876
591 0 51.1867 11.0966 568 50.4947 832.729 469.354
592 0 49.0669 11.3315 556 51.4676 832.892 468.079
593 0 54.128 11.8238 640 49.4484 832.691 467.456
594 0 57.1378 10.7109 612 50.719 832.253 466.031
595 0 59.217 10.9766 650 50.7985 831.918 465.277
596 0 59.1378 11.3633 672 50.7158 832.53 464.201
597 0 59.3158 11.5146 683 51.0117 831.467 463.93
598 0 63.1896 11.2993 714 50.5868 831.581 462.766
599 0 63.1587 11.5898 732 50.8934 831.525 462.693
600 0 66.1751 11.9834 793 50.5372 831.496 461.436
601 0 67.0931 11.8045 792 51.5278 830.874 460.283
602 0 70.1019 11.7828 826 52.0472 831.097 460.452
603 0 70.079 11.9865 840 51.9583 832.037 459.413
604 0 71.1032 11.9545 850 52.2906 831.731 458.249
605 0 75.1658 11.6276 874 52.6819 831.918 456.169
606 0 76.1796 12.0899 921 52.4528 832.138 455.422
607 0 79.1466 12.1547 962 52.1185 832.092 456.477
608 0 81.1295 11.4508 929 53.4349 831.338 453.785
609 0 83.145 11.2334 934 54.0364 831.961 452.673
610 0 88.2748 11.2943 997 53.3892 832.235 452.079
611 0 89.2807 11.223 1002 54.3034 832.494 451.976
612 1 48.1134 10.7247 516 54.3081 832.824 470.736
613 0 51.0563 10.5374 538 54.1822 832.439 470.281
614 0 52.066 11.2549 586 53.6604 832.225 469.256
615 0 54.0478 11.0458 597 53.8978 831.109 468.598
616 0 56.0331 11.4754 643 53.4526 832.026 468.664
617 0 60.0786 10.969 659 53.7466 831.54 466.302
618 0 58.0496 10.6116 616 54.7175 831.756 465.162
619 0 62.0928 10.9674 681 54.7386 829.981 464.043
620 0 63.1544 11.1631 705 53.9475 831.665 463.993
621 0 66.0615 11.3379 749 53.0574 832.134 462.513
622 0 68.0845 10.9276 744 53.539 831.996 462.617
623 0 67.1307 11.3361 761 53.3049 832.507 461.171
624 0 68.1517 11.1956 763 53.6632 831.912 459.797
625 0 70.1277 10.8231 759 53.9763 832.876 457.921
626 0 74.1797 10.7846 800 53.555 832.128 456.391
627 0 77.0757 10.8854 839 53.329 832.704 455.986
628 0 79.07 11.6226 919 52.3624 833.319 455.323
629 0 82.1398 11.2735 926 52.5918 832.957 452.765
630 0 84.3096 10.4852 884 53.4876 832.653 451.16
631 0 83.3043 10.3956 866 212.046 831.632 450.691
632 0 90.1743 10.9898 991 52.5772 832.042 450.129
633 1 47.133 10.3961 490 53.7082 832.159 468.571
634 0 46.0678 10.9404 504 54.1409 832.857 468.012
635 0 49.1328 11.0313 542 53.6808 833.352 467.387
636 0 50.1528 10.9665 550 54.4818 831.762 466.633
637 0 52.1918 10.8255 565 54.3575 832.129 465.536
638 0 53.162 10.91 580 54.5328 832.103 465.881
639 0 54.0859 10.3169 558 54.6326 832.448 463.998
640 0 57.1174 10.9074 623 53.1477 832.931 462.82
641 0 56.0906 11.1249 624 53.2356 833.131 463.276
642 0 58.137 10.7849 627 53.7368 832.908 461.419
643 0 60.0374 11.2263 674 53.2952 832.518 461.055
644 0 61.0713 10.8889 665 53.2105 832.877 458.547
645 0 66.1272 10.3739 686 52.8994 832.943 458.277
646 0 63.0954 11.2053 707 52.6591 833.412 457.663
647 0 66.1798 10.8795 720 52.1389 833.035 456.307
648 0 69.1576 10.758 744 51.8911 832.64 454.648
649 0 73.2532 11.0985 813 50.6421 832.99 454.882
650 0 74.0853 11.2033 830 50.3265 832.422 453.14
651 0 76.1798 11.4729 874 49.6659 833.392 451.539
652 0 78.1575 11.3361 886 49.6117 832.781 449.534
653 1 44.0609 10.1677 448 48.5938 832.147 467.48
654 0 44.0486 10.5792 466 48.7597 832.948 467.067
655 0 44.1421 10.4889 463 49.2959 832.285 466.164
656 0 46.0859 11.0012 507 47.998 832.671 465.694
657 0 48.0412 11.5318 554 47.6534 832.706 464.435
658 0 51.0165 10.3104 526 48.5323 833.399 463.654
659 0 52.0525 11.1042 578 47.6194 833.074 462.28
660 0 52.0573 11.0647 576 48.4705 833.311 461.832
661 0 56.0629 11.0768 621 47.7375 833.116 461.143
662 0 57.0373 10.9051 622 47.9502 832.645 459.444
663 0 60.0832 11.2178 674 47.2997 833.025 458.605
664 0 61.0932 11.507 703 46.9872 833.663 458.559
665 0 61.0932 11.4252 698 205.433 833.669 458.537
666 0 63.126 11.3424 716 47.4316 833.422 456.172
667 0 63.0702 11.622 733 47.4229 833.509 454.521
668 0 66.0636 11.5041 760 47.2763 833.878 453.93
669 0 71.0488 10.8939 774 47.438 834.13 452.324
670 0 73.0625 12.0171 878 45.8713 833.967 452.473
671 0 75.1263 11.86 891 45.9675 833.8 450.607
672 0 77.1021 12.4121 957 45.2957 833.388 449.357
673 0 81.1686 11.4576 930 46.0925 834.022 448.985
674 0 82.1514 11.6736 959 46.1272 834.122 447.798
675 0 82.1471 12.015 987 45.8419 834.375 447.286
676 1 44.0133 9.86066 434 47.2696 834.115 467.076
677 0 47.1522 10.6888 504 46.3472 834.03 465.855
678 0 47.1522 10.6464 502 201.299 834.028 465.771
679 0 48.093 11.5609 556 46.0881 835.122 465.018
680 0 51.0853 11.0012 562 46.0409 835.676 463.528
681 0 50.1114 11.4345 573 46.0541 835.168 463.466
682 1 85.0119 9.29281 790 41.2089 833.756 468.209
683 1 54.1768 11.7024 634 45.9685 834.765 463.257
684 0 57.1345 11.3067 646 45.8777 834.717 461.05
685 0 57.0664 11.215 640 46.6484 834.32 459.492
686 0 60.1271 11.1264 669 46.4096 834.966 460.492
687 0 62.0546 11.506 714 46.0336 834.394 460.901
688 0 63.0913 11.5864 731 46.2312 833.951 458.795
689 0 66.048 12.2184 807 45.2119 834.027 458.741
690 0 66.0784 11.7436 776 45.5863 834.972 458.242
691 0 65.1542 12.3093 802 45.6259 834.197 457.079
692 0 69.0539 12.1354 838 45.0585 834.853 456.662
693 0 71.0677 12.2418 870 45.4851 834.393 456.693
694 0 72.1244 12.52 903 45.515 834.692 455.289
695 0 75.1669 12.3459 928 45.014 834.414 454.859
696 0 77.1164 12.1764 939 45.7646 833.116 453.316
697 0 78.149 11.8748 928 46.4364 833.446 451.765
698 0 82.1907 12.7265 1046 45.2658 833.46 451.593
699 0 85.2759 12.5944 1074 45.6248 833.194 450.636
700 0 86.1063 12.2058 1051 47.1246 832.902 448.308
701 0 89.1157 12.826 1143 46.6807 832.986 448.039
702 0 93.3036 12.3254 1150 47.4026 833.711 446.307
703 1 49.065 11.2504 552 48.5652 832.745 466.192
704 0 52.0968 11.421 595 48.6672 832.314 466.008
705 0 53.0884 11.4526 608 49.5148 832.79 466.178
706 0 58.0242 11.4952 667 48.8321 832.927 463.325
707 0 56.0713 11.8064 662 49.1571 832.388 462.748
708 0 60.0633 11.8375 711 49.0295 832.917 462.633
709 0 61.0145 12.6363 771 48.1167 833.153 461.984
710 0 63.1023 12.2024 770 48.7364 833.079 461.709
711 0 66.0725 11.9414 789 48.6236 833.845 461.635
712 0 70.0677 11.9884 840 48.4024 833.244 459.737
713 0 72.2238 12.6967 917 47.5147 832.543 459.67
714 0 73.0517 11.8683 867 49.0092 832.623 457.693
715 0 75.1128 12.2083 917 48.5169 832.643 456.482
716 0 77.1055 12.632 974 48.269 831.366 455.913
717 0 79.1697 12.8079 1014 48.0473 831.268 453.348
718 0 81.1691 13.0468 1059 47.6025 832.311 454.104
719 0 86.1218 12.9932 1119 47.3923 832.03 452.872
720 0 88.1548 13.0112 1147 47.7637 831.735 450.489
721 0 91.1371 12.8049 1167 48.0643 831.444 448.301
722 0 93.0764 12.7745 1189 47.6989 832.01 447.863
723 0 96.1564 13.1452 1264 47.591 831.938 445.957
724 0 96.1425 13.0535 1255 47.788 831.553 444.057
725 1 124.959 12.3481 1543 43.1056 831.581 451.519
726 1 54.1593 11.1892 606 47.104 831.62 465.992
727 0 56.0864 11.3753 638 46.7179 831.505 464.368
728 0 58.0662 11.5041 668 46.6392 831.338 463.395
729 0 59.0335 11.5866 684 46.7266 830.67 462.965
730 0 59.0124 12.1669 718 46.2047 831.245 463.873
731 0 59.0328 12.1797 719 46.4186 831.356 460.331
732 1 92.1106 10.6937 985 41.3614 832.055 463.512
733 1 64.1187 12.4924 801 44.8402 832.202 459.181
734 0 65.0874 11.8917 774 46.2687 832.607 458.944
735 0 71.0336 12.4589 885 44.8746 832.037 459.356
736 0 70.1521 12.2306 858 45.5093 832.597 457.016
737 0 75.0708 11.8288 888 45.5687 832.645 455.615
738 0 77.2186 12.0178 928 45.6099 831.75 456.016
739 0 78.0624 11.9392 932 45.6652 832.446 453.523
740 0 83.1944 12.2845 1022 45.044 832.69 454.291
741 0 83.0989 12.5032 1039 45.7854 831.332 451.309
742 0 86.2128 12.6431 1090 45.4771 831.769 450.153
743 0 87.1412 11.9691 1043 46.2723 832.899 448.315
744 0 92.1455 11.84 1091 46.4161 832.457 448.303
745 0 92.2394 12.5651 1159 46.0699 832.38 446.16
746 0 99.1109 11.9765 1187 46.5088 832.244 444.77
747 0 100.146 12.1522 1217 47.1586 831.53 444.581
748 0 104.059 11.8778 1236 46.932 832.64 443.014
749 0 109.241 12.0193 1313 46.4707 832.574 442.122
750 1 53.0904 11.584 615 47.2 831.524 465.886
751 0 58.218 11.1306 648 46.6883 831.958 465.539
752 0 58.0766 11.0544 642 47.0888 832.849 464.393
753 0 62.1987 11.2703 701 46.525 831.398 463.324
754 0 62.1857 11.4496 712 46.6685 831.692 463.478
755 0 62.2508 11.3734 708 46.8263 831.766 461.815
756 0 67.1533 11.3918 765 45.9438 832.552 461.179
757 0 68.0803 11.5746 788 46.0914 832.826 459.326
758 0 70.1587 12.0441 845 45.574 831.33 458.93
759 0 71.0657 12.2985 874 45.706 831.751 458.612
760 1 101.18 12.1664 1231 40.55 831.034 462.149
761 1 76.1089 12.377 942 45.603 831.403 456.776
762 0 79.2433 11.7991 935 45.9551 831.868 455.747
763 0 81.0793 12.2719 995 45.5236 832.205 453.124
764 0 86.133 12.1092 1043 45.6318 831.541 453.479
765 0 85.1363 12.4154 1057 45.6405 832.091 452.264
766 0 86.0722 12.1526 1046 47.3518 831.112 449.923
767 0 88.1974 11.7691 1038 47.2543 831.007 450.198
768 1 51.235 11.418 585 45.9949 831.742 469.186
769 0 53.1166 10.957 582 46.4278 832.4 467.84
770 0 55.1564 10.8963 601 46.584 831.255 466.173
771 0 54.1395 11.5443 625 46.6064 831.496 466.664
772 0 58.1487 11.4878 668 46.3069 831.419 466.358
773 0 58.1031 12.0475 700 46.1029 830.893 465.593
774 0 62.2392 11.3594 707 46.2164 831.888 463.549
775 0 63.0796 11.2556 710 46.6873 831.525 463.039
776 0 61.2117 11.6481 713 46.7882 831.613 462.003
777 0 66.1428 11.7927 780 45.868 831.264 462.401
778 0 67.1641 12.4025 833 45.5894 832.052 461.364
779 0 66.0899 11.8172 781 46.9526 832.018 457.677
780 0 70.0207 12.1821 853 46.442 832.159 458.497
781 0 72.0951 11.998 865 46.7272 832.12 454.632
782 0 77.09 11.7006 902 46.714 832.126 453.766
783 0 78.1669 12.1663 951 46.6761 832.127 453.814
784 0 80.3597 12.8671 1034 45.6489 832.222 452.125
785 0 84.1344 12.4444 1047 46.405 832.557 450.988
786 0 86.1656 12.0582 1039 47.0154 831.82 449.736
787 0 90.2699 12.4737 1126 47.016 831.557 447.573
788 0 92.1239 12.3095 1134 47.2072 831.847 447.499
789 1 53.1034 11.0539 587 46.6167 831.748 467.164
790 0 53.1318 10.7657 572 47.2972 832.283 465.829
791 0 53.1266 11.0679 588 194.369 833.281 466.037
792 0 56.1183 11.0659 621 47.2528 832.006 463.235
793 0 57.1551 11.1101 635 47.6283 832.206 461.712
794 0 62.1645 10.9065 678 47.3569 832.139 460.024
795 0 59.0553 11.9888 708 46.7006 832.34 460.285
796 0 64.0326 11.8221 757 46.6724 832.403 459.31
797 0 65.2033 11.7172 764 47.0838 831.927 458.916
798 0 68.131 11.8008 804 46.7624 832.027 459.351
799 0 68.1166 11.7446 800 46.7525 831.642 456.94
800 0 70.1678 12.4274 872 45.6537 831.311 458.173
801 0 74.0802 11.933 884 46.2636 832.585 456.379
802 0 73.0712 12.5083 914 45.8567 832.164 454.481
803 1 132.31 8.52544 1128 41.898 832.197 462.254
804 1 81.0846 11.8395 960 45.4365 832.58 453.086
805 0 81.1085 12.1812 988 45.1113 833.198 452.254
806 0 83.2005 12.548 1044 44.6264 833.595 450.824
807 0 85.1338 12.1338 1033 45.3853 833.646 450.202
808 0 89.1228 12.1742 1085 45.6203 833.65 449.934
809 0 89.0781 12.4048 1105 45.6443 833.63 448.372
810 0 93.0496 12.5739 1170 44.988 834.412 447.942
811 0 94.1512 11.5877 1091 46.9239 833.604 445.873
812 0 96.2181 11.7545 1131 47.0088 833.669 444.66
813 0 100.061 11.8628 1187 47.139 833.417 443.977
814 0 104.107 12.103 1260 46.9325 833.351 443.104
815 0 109.217 12.1135 1323 47.1595 833.018 442.76
816 0 109.195 12.1892 1331 47.4763 832.67 439.381
817 1 58.0604 11.4191 663 46.0483 831.961 465.689
818 0 60.1418 11.4064 686 45.7857 832.723 465.525
819 0 60.0403 11.7588 706 45.3074 832.892 465.142
820 0 62.1336 11.0246 685 46.6861 833.213 464.534
821 0 63.0588 11.1325 702 47.2094 832.444 463.261
822 0 64.2166 11.4612 736 46.6562 832.97 462.803
823 0 66.1443 12.4123 821 46.0524 832.547 461.403
824 0 69.117 11.835 818 46.5746 833.115 462.339
825 0 71.139 12.0468 857 46.6651 832.503 460.75
826 0 74.0997 11.471 850 47.1635 831.931 458.639
827 0 75.1166 12.4739 937 47.1323 832.152 458.046
828 0 79.098 11.5426 913 48.0482 831.605 457.49
829 0 79.0818 11.6082 918 48.7908 831.197 454.845
830 0 80.1307 12.1676 975 48.239 830.73 453.777
831 0 85.0534 11.8984 1012 48.0138 831.602 454.221
832 0 88.1384 11.3118 997 49.5015 831.285 451.633
833 1 44.0557 10.8726 479 48.762 831.518 473.05
834 0 46.0331 10.3404 476 49.6492 830.691 471.912
835 0 47.1186 10.3993 490 50.5102 830.094 470.904
836 0 50.0577 11.1671 559 48.932 829.977 470.632
837 0 48.0158 11.1422 535 50.0505 831.28 468.267
838 0 52.0658 11.5239 600 48.77 832.193 468.83
839 0 53.0613 12.0615 640 48.1047 831.78 467.825
840 0 53.1064 11.5617 614 49.3616 832.318 466.43
841 0 53.0483 11.5367 612 49.6781 831.046 464.877
842 0 58.0491 11.0596 642 48.7586 831.444 463.844
843 0 60.1147 11.3949 685 48.0423 832.396 463.162
844 0 61.0847 11.4431 699 48.2532 831.741 462.372
845 0 61.2448 11.9357 731 47.5622 831.681 461.077
846 0 62.049 10.8946 676 48.8432 831.22 459.036
847 0 64.0568 11.4117 731 47.7332 831.839 459.464
848 0 68.0866 11.1916 762 47.3858 831.701 457.161
849 0 70.2378 11.1906 786 47.7125 831.193 455.244
850 0 72.1792 12.0672 871 46.6395 830.826 456.246
851 0 72.2222 12.1292 876 46.5205 832.241 453.776
852 0 75.1501 11.7897 886 46.6129 832.316 452.24
853 0 77.1469 11.6661 900 46.8578 832.883 451.772
854 0 78.2935 10.6395 833 48.9136 832.564 447.909
855 0 83.2758 11.4559 954 47.2904 832.935 447.276
856 0 86.0858 12.4643 1073 46.4371 833.402 447.526
857 0 91.1372 12.1246 1105 46.7059 833.867 446.597
858 0 94.1858 11.5304 1086 47.6906 833.789 445.345
859 0 95.3282 11.9482 1139 47.7744 833.331 443.652
860 1 50.0139 11.0569 553 47.0289 833.364 465.052
861 0 51.0565 11.2033 572 47.4178 834.343 464.376
862 0 54.0873 11.6109 628 46.6529 834.102 463.387
863 0 57.0527 11.2703 643 46.8709 832.762 463.434
864 0 57.0684 11.3898 650 47.2154 833.017 461.265
865 0 59.1134 11.0804 655 47.6214 833.557 461.04
866 0 62.0805 11.1951 695 47.2748 833.751 460.305
867 0 65.0516 11.4063 742 46.6779 833.717 460.112
868 0 66.1338 11.5675 765 46.9778 833.403 458.055
869 0 68.1603 11.1355 759 47.0764 833.652 457.733
870 0 67.228 11.7064 787 46.8996 834.292 454.774
871 0 69.2322 12.1764 843 46.6192 834.019 454.827
872 0 74.2675 12.3877 920 46.463 834.062 455.353
873 0 75.3528 11.3864 858 47.6632 834.434 452.415
874 0 78.3932 11.9908 940 47.2192 833.779 452.222
875 0 80.0765 12.4006 993 47.2467 834.06 451.508
876 1 40.0735 9.58239 384 50.1641 834.102 468.378
877 0 45.0332 10.0592 453 49.1391 834.033 470.002
878 0 45.1388 10.7225 484 48.9566 833.516 468.554
879 0 49.0378 10.8488 532 48.4154 833.635 468.652
880 0 49.0357 10.7881 529 48.7561 834.219 467.975
881 0 48.0471 10.7603 517 50.1934 833.375 465.807
882 0 54.0572 10.6924 578 49.4792 833.042 466.453
883 0 53.0201 10.8638 576 49.8802 833.325 464.677
884 0 56.0999 11.1587 626 49.2923 833.267 463.808
885 0 57.0594 11.6896 667 48.7631 832.882 464.13
886 0 59.0708 11.2915 667 49.051 832.466 463.07
887 0 61.0327 10.9777 670 49.0239 832.779 462.091
888 0 64.0668 10.7856 691 48.5355 832.669 461.783
889 0 65.115 11.5795 754 47.317 832.452 461.007
890 0 66.1559 11.9113 788 47.0901 832.954 459.732
891 0 70.0699 11.4314 801 46.9301 832.939 459.414
892 0 72.1312 10.8691 784 46.9375 833.181 457.561
893 0 71.1674 11.48 817 47.339 832.687 457.329
894 0 77.1124 11.4897 886 46.0824 832.59 456.281
895 0 81.07 11.4222 926 45.9449 832.886 454.97
896 0 82.209 11.5194 947 46.5956 831.678 453.137
897 0 89.1567 11.3284 1010 45.8733 831.896 451.155
898 0 87.1168 11.2263 978 46.865 832.179 450.095
899 0 89.1431 11.1057 990 46.9414 832.179 448.589
900 0 92.1612 11.7077 1079 45.8332 832.716 447.418
901 1 47.0555 10.7107 504 45.5179 831.746 468.72
902 0 47.0303 9.90851 466 47.0579 832.082 467.899
903 0 51.0774 10.6897 546 45.782 832.009 467.154
904 0 50.0263 11.1541 558 46.534 832.018 466.217
905 0 54.0298 11.253 608 45.4901 832.732 465.385
906 0 54.0678 11.0787 599 45.9766 832.102 464.165
907 0 58.0266 10.8226 628 45.9793 831.293 464.925
908 0 58.1881 10.5348 613 47.4274 831.829 461.958
909 0 59.0825 11.577 684 46.4444 832.395 460.121
910 0 60.0713 11.3365 681 46.7327 832.344 460.292
911 0 62.0574 11.6505 723 46.2185 831.927 459.072
912 0 65.1309 12.0527 785 46.0076 831.749 458.149
913 0 66.0619 11.3984 753 46.1487 831.96 456.992
914 0 67.0688 11.7044 785 45.2191 832.58 455.517
915 0 69.049 11.7453 811 45.4846 832.87 455.407
916 0 69.2087 11.3569 786 46.1718 832.341 453.511
917 0 73.0984 11.9975 877 45.3831 832.325 454.674
918 0 77.0924 11.6743 900 45.5567 832.408 452.546
919 0 77.2186 11.8624 916 45.702 832.707 451.7
920 0 78.1893 11.4466 895 46.1955 833.095 450.099
921 0 84.1879 11.4387 963 45.621 833.646 448.69
922 1 44.1285 9.65363 426 46.9624 833.822 468.634
923 0 45.0573 9.36586 422 48.0806 832.571 466.834
924 0 47.1162 9.74188 459 46.9782 833.336 466.442
925 0 48.044 9.94921 478 47.6025 833.433 466.607
926 0 48.1406 11.3626 547 46.245 832.832 465.441
927 0 51.0876 10.159 519 47.2042 833.183 464.682
928 0 52.1106 11.1686 582 46.3729 833.04 464.708
929 1 83.3823 8.91076 743 42.4953 832.061 467.961
930 1 57.158 10.8121 618 46.1796 832.927 463.5
931 0 56.0635 11.1124 623 46.3387 832.782 462.65
932 0 60.2228 11.1253 670 45.6313 832.224 461.118
933 0 62.1468 10.4591 650 46.4677 832.298 460.363
934 0 61.1148 10.8157 661 46.4992 832.596 460.38
935 0 62.1673 11.8069 734 45.5531 832.713 459.473
936 0 66.2618 11.6206 770 45.0831 832.403 458.34
937 0 66.167 11.6826 773 45.2484 833.552 456.734
938 0 70.2355 11.4187 802 45.101 833.236 456.607
939 0 71.1959 11.5456 822 45.6788 832.865 456.268
940 0 73.1277 11.7466 859 45.3353 832.255 453.65
941 0 76.0279 11.5089 875 45.6469 832.583 453.461
942 0 79.157 11.0287 873 46.1077 832.215 452.943
943 0 81.2283 11.3015 918 46.488 831.118 452.507
944 0 84.3013 11.281 951 46.1714 832.177 451.366
945 1 44.0916 9.84315 434 47.6359 832.795 469.724
946 0 47.0265 9.69665 456 47.9101 832.73 468.776
947 0 48.0796 10.337 497 48.1932 832.181 468.938
948 0 47.1657 10.9402 516 48.1298 832.058 467.82
949 0 49.2772 11.0599 545 48.178 832.367 466.844
950 0 53.1353 10.7461 571 48.9107 832.084 466.205
951 0 55.1268 10.8296 597 49.1759 831.466 465.062
952 0 56.1804 10.5731 594 49.431 832.16 464.717
953 0 57.1731 10.1971 583 49.8576 832.72 463.405
954 0 59.2478 10.9202 647 48.7898 832.461 463.771
955 0 61.0661 11.3156 691 48.4211 832.138 462.951
956 0 61.0721 11.4127 697 48.2554 832.506 462.433
957 0 65.0847 10.7552 700 48.2171 832.004 460.996
958 0 66.1214 10.9949 727 47.436 832.575 459.924
959 0 66.1681 11.229 743 47.6353 832.65 459.436
960 0 69.0983 11.2593 778 46.4332 832.099 459.198
961 0 69.0725 10.9595 757 46.8428 832.152 457.61
962 0 74.064 11.3415 840 46.1393 832.342 456.562
963 0 75.0917 11.9054 894 44.8691 832.483 455.737
964 0 77.0992 11.1415 859 45.5867 832.086 454.605
965 0 81.1187 11.2674 914 45.2768 832.173 452.5
966 0 80.0377 11.3446 908 45.8535 832.137 450.993
967 0 84.1478 11.6462 980 44.6347 832.38 451.181
968 0 85.0891 11.9404 1016 44.3996 832.818 450.529
969 0 89.092 11.5162 1026 44.7476 831.971 448.383
970 0 91.0841 11.956 1089 44.3609 832.445 445.621
971 0 94.1493 11.9597 1126 44.5 831.532 445.352
972 1 131.408 11.9323 1568 39.5338 832.313 452.455
973 1 51.0508 10.2055 521 46.2937 832.165 468.125
974 0 50.0548 11.3875 570 45.8491 832.51 468.195
975 0 53.0818 11.3033 600 46.1567 832.125 466.602
976 0 57.0583 11.0238 629 45.6407 832.34 465.808
977 0 56.0804 11.4478 642 46.2352 831.77 465.257
978 1 67.1275 12.007 806 47.4231 831.966 457.892
979 0 71.1889 11.6029 826 46.9673 831.76 455.211
980 0 75.2707 11.6114 874 47.0881 831.444 454.858
981 0 77.1265 12.0192 927 46.8242 831.398 453.679
982 0 75.2788 12.0618 908 47.8645 831.904 450.924
983 0 82.1346 11.7977 969 48.0144 831.87 450.136
984 0 82.0679 11.8804 975 47.922 832.528 448.668
985 0 84.2507 12.3441 1040 47.825 832.391 448.034
986 0 90.2549 11.1351 1005 48.0169 832.223 444.247
987 0 90.2323 12.1797 1099 47.3267 831.659 444.544
988 0 94.1393 12.1628 1145 46.8804 831.644 442.872
989 0 95.26 12.0302 1146 47.3674 832.079 441.373
990 0 99.1083 11.7447 1164 47.4588 832.43 440.525
991 0 102.371 12.1031 1239 46.7837 832.379 437.445
992 0 107.15 12.4405 1333 46.2656 832.655 436.013
993 1 57.0382 10.4842 598 47.7592 833.326 459.973
994 0 62.0711 10.9068 677 45.582 832.872 459.38
995 0 65.2141 11.0866 723 46.2324 832.566 455.205
996 0 65.06 11.9121 775 44.7716 832.587 456.348
997 0 62.0487 11.362 705 46.3759 832.414 452.976
998 0 69.1032 12.011 830 44.1229 832.346 454.528
999 0 69.1423 11.3823 787 45.6925 832.348 452.502
1000 0 71.162 12.2256 870 44.3609 831.984 451.867
1001 0 73.1677 12.4372 910 44.0538 832.126 451.332
1002 0 74.2766 12.3861 920 44.2609 831.51 449.674
1003 1 118.031 11.9545 1411 36.6591 832.434 457.286
1004 1 79.1341 12.2324 968 44.1188 833.057 446.715
1005 0 83.1773 12.2029 1015 43.8158 833.298 446.992
1006 0 84.2421 12.4878 1052 43.8184 833.515 446.28
1007 0 86.0924 12.4285 1070 44.5888 833.319 443.923
1008 0 93.1513 12.9896 1210 43.3107 833.761 443.037
1009 0 95.1752 12.167 1158 43.7703 833.566 441.511
1010 0 95.0594 13.0971 1245 43.3823 833.889 439.41
1011 0 97.1307 11.572 1124 45.4706 833.693 435.138
1012 0 101.132 12.4689 1261 44.7042 833.442 436.026
1013 0 104.354 12.6397 1319 44.9128 833.789 434.695
1014 0 108.185 11.9702 1295 45.3637 834.467 431.486
1015 0 113.28 11.8909 1347 45.1344 834.431 431.403
1016 0 114.236 12.4742 1425 45.0267 834.222 430.412
1017 1 63.1675 10.67 674 47.3724 833.685 454.55
1018 0 62.0549 11.5059 714 47.1723 833.534 452.798
1019 0 64.0726 11.7835 755 46.9775 833.691 451.683
1020 0 69.0964 11.7517 812 46.8744 834.698 454.064
1021 0 72.1379 11.7691 849 46.8822 835.053 453.624
1022 0 72.212 12.0617 871 46.0138 834.959 452.126
1023 0 72.2043 12.3815 894 45.868 835.051 451.516
1024 0 75.1727 12.5578 944 45.4714 834.942 450.262
1025 0 77.0916 12.9197 996 45.5532 833.593 449.495
1026 0 80.1062 12.5833 1008 45.5982 833.703 447.229
1027 0 83.1312 12.6186 1049 45.3546 834.276 445.474
1028 0 85.17 12.6923 1081 45.0426 833.972 444.773
1029 0 89.1398 13.1142 1169 44.6347 833.663 442.571
1030 0 90.1428 12.1474 1095 46.0274 832.837 442.52
1031 0 95.2074 11.8898 1132 45.6431 834.387 441.186
1032 0 98.1664 12.3668 1214 45.0165 834.069 439.796
1033 0 102.179 12.165 1243 45.4014 834.152 438.425
1034 0 105.176 11.6281 1223 46.1112 833.612 436.741
1035 1 53.0932 10.3591 550 46.3382 833.524 462.684
1036 0 55.1025 10.671 588 45.8061 833.837 462.197
1037 0 55.0591 11.2243 618 45.4369 834.058 461.149
1038 0 58.0371 10.9068 633 46.237 833.308 460.515
1039 0 60.0375 11.4428 687 45.7525 833.836 458.737
1040 0 60.091 10.9833 660 47.6273 834.126 457.052
1041 0 61.0683 11.8883 726 46.219 833.915 458.594
1042 0 64.0542 11.5059 737 46.8467 833.094 457.381
1043 0 64.1492 11.9565 767 46.751 832.774 455.983
1044 0 68.085 11.5591 787 47.5553 833.446 454.733
1045 0 70.1303 12.049 845 46.7349 834.413 453.795
1046 0 72.1081 12.1762 878 46.6458 833.856 452.972
1047 0 74.0353 11.5756 857 47.8413 833.655 450.498
1048 0 75.0978 12.5836 945 47.0921 834.077 449.637
1049 0 81.1086 11.6017 941 47.6493 833.36 448.96
1050 0 81.0511 11.8691 962 47.7911 832.642 448.553
1051 0 87.074 12.0128 1046 46.7792 834.054 447.989
1052 0 87.1272 12.0858 1053 47.0199 834.145 446.219
1053 0 90.0928 12.1652 1096 46.7135 833.722 444.217
1054 1 41.0204 10.9458 449 47.2383 833.828 468.637
1055 0 42.1345 10.9174 460 47.813 833.328 469.215
1056 0 45.0502 10.8768 490 47.6204 833.469 468.951
1057 0 47.0408 11.203 527 47.556 833.12 466.977
1058 0 46.105 11.1702 515 48.0544 833.841 466.198
1059 0 46.038 11.4688 528 47.8049 833.169 464.947
1060 0 52.2155 10.9929 574 46.9338 833.115 465.307
1061 0 51.0492 11.3224 578 47.0086 833.597 464.388
1062 0 53.0684 10.6089 563 48.4334 832.961 464.481
1063 0 54.064 11.8193 639 46.8216 832.909 463.717
1064 0 54.0401 11.4915 621 47.4155 832.881 464.293
1065 0 56.0875 11.4464 642 47.0452 833.815 463.072
1066 0 58.1417 11.5408 671 46.2951 833.763 461.353
1067 0 61.109 11.5859 708 45.9703 833.425 461.476
1068 0 63.1554 11.7013 739 46.3424 832.959 460.488
1069 0 66.0487 11.8246 781 45.5506 833.347 460.374
1070 0 64.0824 11.7661 754 46.5411 833.422 457.706
1071 0 67.1301 11.6937 785 46.586 833.59 457.629
1072 0 70.0577 12.1186 849 45.6537 832.673 457.028
1073 0 72.1666 11.2795 814 46.1781 833.338 454.699
1074 0 77.1064 11.2312 866 45.7748 833.389 455.445
1075 0 78.1381 11.1341 870 46.2563 833.239 454.193
1076 0 79.1386 12.1306 960 44.8406 833.47 453.103
1077 0 83.0897 11.6982 972 45.4866 833.595 452.186
1078 0 84.1701 12.1183 1020 45.098 834.015 450.901
1079 1 40.015 9.92128 397 45.5365 833.358 471.673
1080 0 45.0528 10.3434 466 44.764 833.494 471.616
1081 0 46.0312 10.406 479 44.7578 832.875 471.463
1082 0 48.0175 10.6003 509 44.6916 832.75 470.047
1083 0 48.0275 10.723 515 45.0835 832.841 470.763
1084 0 50.0478 9.99045 500 45.826 833.316 469.248
1085 0 51.0384 10.3843 530 45.9623 832.611 468.379
1086 0 52.0272 10.4368 543 46.1842 832.427 467.615
1087 0 52.0452 10.8752 566 46.4788 831.449 466.189
1088 0 58.0407 10.6822 620 45.4516 832.518 465.974
1089 0 59.0881 10.7974 638 46.116 832.119 465.444
1090 0 56.0619 11.0414 619 46.2601 832.729 462.775
1091 0 60.0295 10.9446 657 46.2283 832.365 461.907
1092 0 62.0796 10.8892 676 46.4305 831.466 461.633
1093 0 62.1102 10.7712 669 46.8326 832.312 460.825
1094 0 66.1343 11.2347 743 46.0511 832.958 459.307
1095 0 64.0874 11.141 714 46.9748 832.812 458.396
1096 0 67.0686 11.3764 763 46.8296 832.72 457.048
1097 0 74.1134 10.9832 814 47.0627 831.888 457.1
1098 0 71.1244 11.5713 823 48.3366 831.864 455.747
1099 0 75.1703 11.321 851 48.094 832.998 453.411
1100 0 77.1946 11.2443 868 48.4885 832.824 453.434
1101 0 78.2206 11.2886 883 49.1348 833.145 450.966
1102 0 84.2278 11.4926 968 48.8523 833.016 449.474
1103 0 87.2216 11.465 1000 48.961 832.962 448.685
1104 0 89.1584 10.6216 947 50.8627 832.735 446.364
1105 0 90.3214 11.4702 1036 50.4595 832.511 445.588
1106 0 95.2619 11.6836 1113 50.5319 832.595 442.393
1107 1 46.1072 10.1286 467 50.0921 832.953 468.225
1108 0 45.1778 11.0452 499 50.2044 833.393 465.868
1109 0 47.0612 11.2619 530 50.3509 832.847 465.864
1110 0 50.0412 10.8111 541 50.6543 833.242 463.201
1111 0 54.0872 10.7234 580 49.7828 833.091 462.507
1112 0 55.1004 10.4173 574 50.2909 832.146 461.033
1113 0 54.0718 11.0039 595 50.1916 832.555 460.187
1114 0 57.0883 10.9129 623 50.6806 833.128 460.801
1115 0 59.0737 11.0201 651 50.3717 832.853 459.204
1116 0 63.1513 11.0686 699 49.774 832.997 458.159
1117 0 64.0605 11.1769 716 49.3436 832.837 458.155
1118 0 64.1555 11.7059 751 48.7736 832.969 455.569
1119 1 165.342 15.4589 2556 40.8502 834.442 431.248
1120 0 156.346 11.2379 1757 49.2385 833.905 412.749
1121 0 158.364 11.4357 1811 49.4699 833.76 412.683
1122 1 181.693 15.6528 2844 40.9195 834.189 426.468
1123 1 74.1707 10.9747 814 48.1364 834.318 450.351
1124 0 77.1642 11.3006 872 47.4255 834.831 451.07
1125 0 78.2085 10.9579 857 48.5519 834.368 448.812
1126 0 82.1951 11.5457 949 47.686 833.922 448.798
1127 0 84.24 11.1348 938 48.436 833.42 446.594
1128 1 43.0155 10.6706 459 46.8998 833.218 468.606
1129 0 42.0523 10.7248 451 47.6918 833.406 467.244
1130 0 44.0962 11.4749 506 47.1285 834.686 465.943
1131 0 47.0629 10.9003 513 46.8012 834.361 465.622
1132 0 48.1159 11.119 535 46.7645 834.516 464.407
1133 0 51.0568 10.8311 553 46.8716 833.593 464.591
1134 0 49.1086 10.7924 530 47.6151 833.294 462.606
1135 1 88.4161 8.83323 781 41.4904 832.133 466.48
1136 1 53.1516 11.4766 610 46.1049 832.892 461.561
1137 0 57.1859 11.1566 638 45.3056 833.448 461.304
1138 0 57.1979 11.4165 653 45.4165 833.011 460.691
1139 0 60.1645 11.3356 682 45.261 832.595 458.978
1140 0 63.0785 11.3509 716 44.8115 832.881 458.682
1141 0 63.1622 11.0351 697 45.2539 832.811 457.977
1142 0 64.1314 11.2581 722 44.8269 832.623 456.821
1143 0 66.1153 11.2833 746 44.2279 833.574 456.572
1144 0 69.1974 11.4311 791 43.598 833.566 456.55
1145 0 69.2133 10.6916 740 44.3378 833.015 453.67
1146 0 72.3014 11.618 840 43.5048 832.488 453.244
1147 0 74.1743 11.3651 843 42.9419 832.842 452.792
1148 1 37.0373 9.69293 359 42.1699 832.708 471.304
1149 0 42.0971 10.1432 427 41.1546 833.241 471.136
1150 0 40.0273 10.1181 405 41.679 833.336 469.827
1151 0 42.0494 10.559 444 40.5135 832.944 470.086
1152 0 42.0634 10.6031 446 40.6637 832.769 468.623
1153 1 87.7053 7.39978 649 36.151 831.404 473.317
1154 1 47.1735 9.45447 446 41.5695 831.451 467.249
1155 0 47.0881 10.1087 476 41.1639 832.269 467.496
1156 0 47.0654 10.6873 503 40.7177 832.26 466.145
1157 0 50.0354 10.5725 529 40.6011 832.696 466.962
1158 0 50.0786 11.2423 563 40.4529 832.385 466.069
1159 0 51.0586 10.5369 538 41.3587 831.771 466.346
1160 0 52.1813 10.4827 547 41.7697 832.38 464.746
1161 0 54.1725 11.0942 601 41.4143 832.89 464.406
1162 0 57.0631 11.1456 636 40.7626 832.921 463.704
1163 0 59.1373 10.5517 624 41.1827 833.05 464.152
1164 0 61.0736 10.7411 656 40.5915 832.605 462.965
1165 0 60.1184 11.494 691 40.7453 832.392 463.004
1166 0 63.1682 11.1607 705 40.9518 832.22 461.705
1167 0 65.0521 10.53 685 41.4394 832.247 458.823
1168 0 65.1991 11.4572 747 41.3869 832.185 458.83
1169 0 69.0998 10.7091 740 42.077 832.335 457.047
1170 1 173.848 16.1636 2810 35.5427 831.933 436.387
1171 1 142.34 11.5006 1637 44.6891 831.639 419.44
1172 0 141.284 11.438 1616 45.203 831.398 418.72
1173 1 78.2114 11.0726 866 42.9665 830.894 452.279
1174 0 78.177 11.3205 885 43.3842 830.549 452.493
1175 0 81.1423 11.1163 902 43.0876 831.369 449.572
1176 0 85.1443 10.9931 936 43.7137 830.871 449.29
1177 0 85.1546 10.1697 866 44.9319 830.939 445.099
1178 0 86.2634 10.3868 896 44.8516 831.408 444.906
1179 0 93.1003 10.6337 990 44.5404 831.132 444.69
1180 0 94.1441 11.0788 1043 44.3845 831.58 442.912
1181 0 95.1908 11.1355 1060 44.7896 832.126 441.922
1182 0 100.175 10.881 1090 44.6862 831.893 439.166
1183 0 104.14 12.2047 1271 43.1951 832.259 434.561
1184 1 132.616 14.1084 1871 37.303 831.766 447.256
1185 1 108.174 11.4908 1243 44.4224 832.814 434.996
1186 0 107.137 11.3406 1215 44.5687 833.57 433.458
1187 1 135.074 14.0368 1896 37.4314 832.934 445.111
1188 0 120.228 11.7693 1415 44.111 832.996 427.382
1189 0 126.205 12.9234 1631 42.507 832.27 424.222
1190 1 152.475 15.2812 2330 36.2536 832.699 438.922
1191 1 64.1128 10.7155 687 42.7162 832.399 456.365
1192 0 64.1322 11.0085 706 42.5354 832.207 454.717
1193 0 66.0735 11.4418 756 42.6389 831.44 454.522
1194 0 69.157 11.2064 775 42.4155 832.453 452.959
1195 0 73.1407 11.3617 831 42.0193 832.58 451.747
1196 0 71.1716 10.9313 778 42.7674 833.275 449.382
1197 0 76.1503 10.1772 775 43.1781 832.832 447.652
1198 0 78.1997 11.0358 863 42.4531 833.498 449.299
1199 0 80.1411 11.5047 922 42.0889 833.602 450.562
1200 0 82.0807 11.1476 915 42.7104 833.785 446.635
1201 0 85.2462 11.5196 982 42.4206 833.323 445.933
1202 0 106.643 5.78566 617 34.9271 836.966 481.292
1203 1 41.0558 10.4492 429 42.6807 834.305 466.158
1204 0 42.0251 10.3272 434 42.8502 834.12 466.023
1205 0 47.0653 9.8799 465 43.271 832.363 464.944
1206 0 46.0102 10.8671 500 42.328 832.934 464.02
1207 0 48.044 10.9899 528 43.0739 833.383 463.758
1208 0 51.0777 11.4336 584 41.1747 833.495 464.156
1209 0 50.1072 11.0363 553 41.7848 833.201 462.116
1210 0 55.071 11.5124 634 40.5032 832.956 461.85
1211 0 57.1054 10.8396 619 40.3506 833.2 460.827
1212 0 56.1482 11.1313 625 40.1584 833.68 459.614
1213 0 61.1965 11.1444 682 39.6173 833.064 460.386
1214 0 61.1656 11.8531 725 39.4207 832.757 458.986
1215 1 85.3233 11.7787 1005 35.2498 832.88 463.236
1216 1 61.2078 11.8286 724 40.1961 832.301 456.554
1217 0 62.2304 11.9074 741 40.1687 832.524 456.646
1218 1 194.789 13.5685 2643 33.9205 832.461 435.085
1219 1 71.2586 10.9461 780 40.5038 833.12 454.365
1220 0 71.164 11.9442 850 40.2235 832.748 454.061
1221 0 74.2238 11.2363 834 41.3873 832.364 452.323
1222 0 78.1494 11.2349 878 41.3417 832.689 451.69
1223 0 80.1665 11.0146 883 41.9649 832.213 451.352
1224 1 41.0116 10.241 420 40.8762 832.002 470.238
1225 0 41.0206 10.4582 429 41.711 831.45 469.317
1226 0 40.0756 10.3305 414 42.1328 832.138 468.476
1227 0 42.0175 10.6384 447 41.9508 832.512 468.385
1228 0 43.0498 10.1743 438 42.8562 832.779 466.909
1229 0 47.0359 10.6514 501 42.4192 833.331 466.721
1230 1 75.7611 9.21317 698 37.9097 832.533 470.841
1231 1 51.0873 10.6876 546 42.5568 832.291 465.007
1232 0 50.1316 10.2929 516 44.0116 831.329 464.694
1233 0 54.1034 10.4614 566 43.1802 831.864 463.187
1234 0 49.214 10.1394 499 44.6754 831.609 461.415
1235 0 56.2269 10.8133 608 43.2977 832.016 462.502
1236 0 57.1813 11.3324 648 42.841 831.906 462.219
1237 0 58.2567 11.2262 654 43.159 831.555 460.587
1238 0 60.4188 11.5196 696 43.1034 831.405 461.437
1239 0 61.2495 10.3511 634 44.3943 830.961 457.489
1240 0 67.0845 11.4184 766 42.4321 831.262 460.423
1241 1 94.2901 11.6025 1094 37.4552 831.836 463.064
1242 1 67.107 11.2209 753 43.4648 832.278 455.919
1243 0 68.0967 10.0445 684 44.7164 831.75 454.583
1244 0 70.1269 10.7234 752 44.508 831.866 453.621
1245 0 74.1924 11.1467 827 43.9456 831.833 451.388
1246 0 76.3338 11.2532 859 43.9034 831.921 450.106
1247 1 104.279 12.0446 1256 38.121 832.204 456.196
1248 1 78.276 10.7185 839 44.4541 832.527 449.781
1249 1 38.042 9.5158 362 44.732 831.779 471.497
1250 0 42.0479 10.2978 433 43.9261 830.637 471.037
1251 0 40.0267 10.8677 435 44.9034 830.979 469.908
1252 0 43.0382 9.57288 412 45.6505 830.99 469.345
1253 0 43.0845 11.0016 474 44.5633 831.247 468.833
1254 0 46.0546 10.379 478 45.0649 831.182 467.854
1255 0 47.0518 10.6053 499 45.0942 830.762 467.381
1256 0 52.0559 11.0842 577 43.7712 831.466 466.787
1257 0 48.1166 11.3059 544 45.2721 831.105 465.733
1258 0 48.0975 10.7906 519 45.6994 831.235 464.079
1259 0 52.0906 11.0385 575 44.9061 831.202 465.021
1260 0 53.0903 11.0943 589 44.8574 831.263 463.941
1261 0 52.1005 11.6697 608 45.7599 831.012 463.164
1262 0 58.036 11.2 650 45.4954 830.494 463.454
1263 0 60.0764 11.3189 680 45.0221 830.948 462.197
1264 0 60.0916 11.6156 698 44.6275 831.084 461.86
1265 0 63.0921 11.6338 734 44.9986 829.946 461.304
1266 0 62.1383 11.6514 724 45.2376 830.663 460.108
1267 0 64.0693 10.114 648 46.2778 831.562 456.974
1268 0 69.0974 11.766 813 44.1722 830.602 458.363
1269 0 68.2127 12.6369 862 43.5499 830.716 457.514
1270 0 73.1397 11.6489 852 44.2324 830.941 456.512
1271 0 72.3339 11.7372 849 44.4028 831.267 453.903
1272 0 74.142 11.451 849 44.6007 830.813 453.077
1273 0 78.1903 11.9068 931 43.4264 831.688 452.264
1274 0 80.1022 11.7475 941 43.6036 831.888 451.642
1275 0 80.1391 11.4301 916 44.5098 831.524 449.329
1276 1 43.0525 9.84845 424 44.2901 830.856 469.142
1277 0 46.0082 10.3677 477 43.9874 830.874 469.847
1278 0 44.0414 10.8988 480 44.4604 831.471 469.633
1279 0 47.1276 11.4158 538 42.8383 830.667 468.19
1280 0 47.1157 11.1216 524 43.9733 830.643 468.656
1281 0 50.1582 11.3641 570 43.7754 830.96 466.44
1282 0 51.074 11.7281 599 43.6227 832.299 465.718
1283 0 53.1667 10.9091 580 44.3672 831.9 464.69
1284 0 57.0616 11.6716 666 43.4504 831.695 464.779
1285 0 54.0902 11.3699 615 45.961 830.985 462.226
1286 0 58.0641 11.3495 659 44.9348 831.09 463.953
1287 0 58.068 11.5554 671 44.9255 831.592 462.198
1288 0 62.1171 11.5427 717 44.3166 831.713 461.326
1289 0 62.1388 10.734 667 45.7871 831.021 459.903
1290 0 63.189 11.6318 735 44.4163 831.823 459.735
1291 0 66.1073 12.1772 805 43.7652 831.579 460.113
1292 0 68.0635 10.9163 743 44.6258 831.838 457.542
1293 0 72.0836 11.889 857 43.0303 831.732 457.338
1294 0 73.0714 12.0156 878 43.0296 831.899 456.163
1295 0 75.2046 12.2599 922 43.2994 831.458 455.076
1296 0 76.1106 12.4161 945 42.8127 832.358 454.917
1297 0 81.1844 11.788 957 43.0512 832.07 453.044
1298 0 80.0711 12.3016 985 43.0376 831.652 452.164
1299 0 84.2497 11.1098 936 43.8515 831.46 448.96
1300 0 88.2174 12.1291 1070 42.5794 831.191 449.692
1301 1 47.0489 11.1373 524 43.7595 831.376 467.567
1302 0 52.1047 10.6324 554 43.9513 831.496 467.453
1303 0 50.0428 11.2504 563 44.1812 831.512 466.432
1304 0 51.044 10.8926 556 44.8309 830.739 465.351
1305 0 54.0632 11.875 642 43.4268 830.484 465.944
1306 0 54.0525 10.8228 585 44.6479 831.186 462.974
1307 0 55.0359 11.12 612 44.5212 831.6 462.461
1308 0 60.2475 11.237 677 43.9217 831.533 462.854
1309 0 58.0713 11.5892 673 44.3462 831.52 461.807
1310 0 61.1457 11.2518 688 44.1177 832.231 460.894
1311 0 64.0426 11.5236 738 43.6016 831.87 460.932
1312 0 64.086 12.2804 787 43.2186 831.929 459.687
1313 0 68.1783 11.4846 783 43.7625 832.006 458.907
1314 0 69.0924 11.9984 829 43.5452 832.644 458.387
1315 0 70.1525 11.3039 793 44.5902 831.451 456.808
1316 0 73.1026 11.86 867 44.06 831.358 454.612
1317 0 78.1907 11.8684 928 43.4666 832.032 455.778
1318 0 79.1353 12.5481 993 43.4602 831.347 453.766
1319 1 40.0818 10.5035 421 43.9382 831.525 474.285
1320 0 41.0086 10.1686 417 45.1823 830.89 473.211
1321 0 40.0355 11.4648 459 44.8867 831.355 473.834
1322 0 38.0736 11.8717 452 45.5088 831.509 472.248
1323 0 43.0319 11.6658 502 45.2052 831.821 471.986
1324 0 44.0197 12.0401 530 44.5 832.424 471.381
1325 0 42.0244 10.6605 448 47.3036 831.763 468.877
1326 0 46.0663 10.3112 475 47.1368 832.074 467.806
1327 0 46.0191 11.0606 509 47.3929 831.426 468.79
1328 0 48.0168 11.3294 544 46.6489 832.226 467.366
1329 0 48.0459 11.8012 567 47.1429 832.392 467.559
1330 0 51.0883 11.5682 591 47.2284 832.181 467.029
1331 0 54.0272 11.7163 633 46.425 832.472 465.632
1332 0 54.0965 11.7198 634 46.4416 832.046 466.003
1333 0 56.0612 12.0047 673 46.364 831.893 463.99
1334 0 61.094 11.114 679 46.7437 831.573 463.726
1335 0 60.103 11.5801 696 46.9813 831.806 462.454
1336 0 64.1703 11.6721 749 46.4833 831.853 461.557
1337 0 63.0685 11.9235 752 47.1104 831.266 460.556
1338 0 67.2115 12.0366 809 47.0779 831.663 459.789
1339 0 68.1649 11.5602 788 48.1079 831.503 457.864
1340 0 71.1664 11.6769 831 48.0806 831.211 457.374
1341 0 73.1036 12.0787 883 47.581 831.283 455.496
1342 0 79.217 11.7399 930 47.5677 832.234 455.42
1343 0 78.1833 11.7928 922 47.8069 832.306 453.247
1344 1 41.0173 11.0685 454 48.0705 832.399 472.322
1345 0 41.1562 11.0554 455 48.422 832.743 472.055
1346 0 38.0575 11.1936 426 50.8779 832.42 471.073
1347 0 44.0359 10.6958 471 50.3015 831.79 471.068
1348 0 44.0092 11.9066 524 48.8073 832.149 470.647
1349 0 49.0904 10.8371 532 49.5169 832.062 470.303
1350 0 50.062 11.3459 568 49.9718 831.146 470.509
1351 0 49.0271 10.8511 532 51.0789 831.742 469.639
1352 0 53.1014 11.5251 612 50.1503 831.382 469.641
1353 0 48.045 10.9064 524 53.0248 831.311 466.546
1354 0 48.0269 10.3067 495 53.6808 832.038 465.55
1355 0 53.0465 11.4616 608 51.9128 831.618 466.059
1356 0 57.0536 11.0598 631 51.6704 831.848 465.444
1357 0 53.052 10.1033 536 53.8545 831.534 463.312
1358 0 60.0428 11.5251 692 51.1142 831.896 463.63
1359 0 62.0704 11.8414 735 50.4735 832.008 463.122
1360 0 66.0503 12.3391 815 49.8601 831.255 463.588
1361 0 65.0568 11.3593 739 51.594 831.529 460.327
1362 0 67.0738 11.6737 783 51.1711 831.591 459.706
1363 0 69.0458 11.9631 826 50.7966 831.683 459.456
1364 0 72.0817 12.1806 878 50.5057 831.624 458.962
1365 0 73.1112 11.9681 875 50.7543 832.28 458.72
1366 0 74.0535 12.464 923 50.389 831.964 456.534
1367 0 78.1402 11.7993 922 50.7017 832.269 456.089
1368 0 83.1053 11.5275 958 50.9405 831.779 455.857
1369 0 83.0341 11.694 971 51.3368 832.024 454.088
1370 0 87.0617 11.7503 1023 51.3333 831.934 451.908
1371 0 86.0404 11.2854 971 52.656 831.717 449.076
1372 1 47.0113 11.1888 526 52.1996 831.793 471.673
1373 0 49.0249 10.0357 492 53.8252 831.465 469.589
1374 0 51.0273 11.2097 572 52.0717 832.084 470.01
1375 0 50.0538 11.8872 595 52.1916 831.785 469.773
1376 0 55.0756 11.8383 652 51.296 831.822 466.957
1377 0 55.0404 12.0457 663 51.8567 831.91 467.472
1378 0 55.0236 10.8317 596 53.1913 832.386 464.916
1379 0 56.0496 11.2222 629 53.3005 831.515 464.129
1380 0 63.1507 11.6547 736 51.3845 831.948 465.19
1381 0 63.0565 12.1478 766 51.4308 831.393 463.616
1382 0 63.142 10.7377 678 53.4351 831.482 461.078
1383 0 66.0582 11.6413 769 51.8296 831.748 460.876
1384 0 69.1488 11.7862 815 51.1288 831.875 459.65
1385 0 71.1212 12.2889 874 49.1602 832.053 458.364
1386 0 74.2023 12.2233 907 48.5976 832.428 457.962
1387 1 104.13 11.8986 1239 43.3132 832.107 461.871
1388 1 80.1599 12.1258 972 48.285 832.698 455.842
1389 0 82.1787 11.8766 976 48.8576 831.632 453.635
1390 0 84.1352 12.2897 1034 48.6867 831.519 453.457
1391 0 86.0919 11.2322 967 49.637 832.302 451.903
1392 1 45.0122 10.6416 479 51.144 830.887 472.547
1393 0 46.0224 10.1472 467 52.2505 831.141 472.109
1394 0 45.0371 11.7903 531 50.5574 830.761 470.107
1395 0 47.0696 11.3237 533 51.1989 830.608 470.182
1396 0 49.0895 11.2855 554 50.7744 830.803 469.63
1397 0 50.0766 11.083 555 51.0144 831.578 467.589
1398 0 52.1292 11.2029 584 50.7945 831.476 467.334
1399 0 54.0519 11.4705 620 50.2323 831.444 467.16
1400 0 57.2109 11.2042 641 50.3682 832.409 466.482
1401 0 60.1276 10.6773 642 50.7196 831.492 465.178
1402 0 63.1403 11.7358 741 49.3644 830.565 465.039
1403 0 62.0813 11.7588 730 49.5452 831.462 463.967
1404 0 63.1457 11.6239 734 49.5627 830.899 460.713
1405 0 68.0561 11.5052 783 49.3768 830.828 459.497
1406 0 69.0689 12.0025 829 48.9964 831.065 458.558
1407 0 74.1166 11.6573 864 48.8345 830.575 459.931
1408 0 70.1129 11.2105 786 50.3346 830.083 455.77
1409 0 74.0716 11.2864 836 50.4569 829.702 455.348
1410 0 84.043 11.506 967 48.485 829.533 453.281
1411 0 83.1406 11.7271 975 49.282 829.595 452.064
1412 0 84.18 12.3307 1038 48.552 829.985 450.783
1413 0 87.1057 12.1117 1055 49.0929 829.341 449.23
1414 0 91.1503 12.4739 1137 49.0281 829.084 448.746
1415 0 95.1741 12.0726 1149 48.8233 830.001 447.594
1416 1 46.0265 10.6026 488 52.9447 829.113 470.621
1417 0 50.0215 10.4755 524 52.8187 829.189 469.036
1418 0 52.0357 10.8195 563 52.4565 829.732 467.755
1419 0 53.0193 11.4864 609 51.6059 830.056 467.79
1420 0 55.0482 11.4445 630 52.2365 829.744 467.514
1421 0 58.0621 11.7977 685 51.0248 831.123 466.8
1422 0 57.0421 11.7983 673 51.2526 831.009 464.195
1423 0 60.0913 12.4976 751 49.8455 831.045 463.446
1424 0 60.0422 11.5918 696 51.1825 830.25 460.305
1425 0 65.0934 11.399 742 50.8019 830.164 461.171
1426 0 66.0954 11.7557 777 50.5676 829.71 459.87
1427 0 66.1294 12.279 812 49.7291 830.415 458.892
1428 0 67.0717 12.3748 830 50.0229 830.022 458.188
1429 0 70.058 11.9901 840 50.3369 829.754 457.968
1430 0 71.0611 12.1445 863 50.1889 830.389 455.074
1431 0 75.1122 12.0486 905 49.8 829.568 454.513
1432 0 81.1598 12.7403 1034 47.883 830.267 452.368
1433 0 80.2089 11.7817 945 49.2772 831.175 451
1434 0 83.1085 12.1889 1013 48.7078 830.775 449.565
1435 0 87.0976 12.2621 1068 48.3698 830.874 449.159
1436 0 91.1332 12.6628 1154 47.5087 831.048 447.169
1437 1 48.0665 10.9432 526 50.8156 830.481 470.152
1438 0 46.0589 11.0294 508 51.7185 830.37 468.526
1439 0 52.1483 11.1221 580 50.4603 830.433 468.243
1440 0 51.0736 10.8275 553 51.2297 830.405 465.92
1441 0 55.0926 11.8891 655 49.3328 830.328 465.542
1442 0 56.1186 11.9034 668 49.4476 829.915 463.802
1443 0 59.1992 11.7907 698 48.8109 830.645 464.074
1444 0 56.1194 11.6715 655 49.5634 831.023 460.371
1445 0 59.1331 12.8524 760 47.6803 831.024 461.172
1446 0 62.1379 12.2309 760 48.2237 831.322 460.372
1447 0 65.1608 11.4793 748 48.0775 831.666 458.164
1448 0 66.1898 11.7087 775 47.6103 831.627 455.474
1449 0 72.2475 12.5264 905 46.1845 831.821 457.378
1450 0 74.1482 12.7717 947 45.8163 831.496 455.668
1451 0 73.1045 13.0361 953 46.0042 831.544 453.431
1452 0 77.1979 13.1351 1014 45.7012 831.378 451.027
1453 0 81.1413 13.3594 1084 45.1411 830.966 451.887
1454 0 86.1372 12.6194 1087 45.5557 831.077 450.179
1455 0 86.1267 12.4816 1075 46.16 830.913 447.446
1456 0 89.1338 12.9917 1158 45.8299 830.738 446.725
1457 0 94.2829 14.1807 1337 44.3538 830.739 444.77
1458 0 95.163 11.7588 1119 47.0777 831.265 442.182
1459 0 100.228 12.8308 1286 45.8468 831.988 443.151
1460 0 102.168 12.3326 1260 46.6349 831.573 439.133
1461 1 54.1694 11.7779 638 47.8636 831.726 465.544
1462 0 55.0983 12.033 663 48.8084 830.991 463.344
1463 0 59.1073 12.3673 731 47.5499 830.912 462.96
1464 0 61.1261 11.7626 719 48.612 831.312 461.598
1465 0 62.0423 12.2819 762 48.2585 831.234 460.411
1466 0 63.0829 11.9525 754 48.8515 830.708 459.593
1467 0 67.1801 12.3697 831 47.7822 831.736 458.404
1468 0 68.1019 13.2008 899 47.1869 831.591 457.236
1469 0 75.1433 12.23 919 47.3221 832 457.125
1470 0 77.1375 13.7806 1063 45.5964 832.174 457.009
1471 0 77.1873 12.6834 979 47.2033 832.947 454.092
1472 0 80.1182 12.9434 1037 47.0193 832.439 452.926
1473 1 114.197 13.0914 1495 40.9418 831.801 458.248
1474 1 85.1831 13.3595 1138 46.659 832.356 450.956
1475 0 91.2048 13.0804 1193 46.6555 831.895 449.47
1476 0 93.1832 12.3949 1155 47.5333 832.171 448.189
1477 0 93.1968 13.509 1259 46.9396 831.55 448.155
1478 0 98.2007 13.2993 1306 46.9694 831.27 446.446
1479 0 99.1996 13.0545 1295 47.5282 831.239 444.1
1480 0 103.131 13.4684 1389 46.8402 831.671 444.929
1481 0 106.262 13.702 1456 46.6916 831.461 442.506
1482 0 110.111 13.2502 1459 46.8472 831.539 439.716
1483 0 108.224 12.0121 1300 48.9877 831.673 433.248
1484 1 95.3844 10.1589 969 42.4644 831.11 465.758
1485 1 65.1365 12.3433 804 45.7786 831.66 461.721
1486 0 67.127 12.305 826 45.477 831.783 459.95
1487 0 67.2383 12.5524 844 45.2772 831.752 459.464
1488 0 68.1622 12.793 872 45.0826 831.667 458.81
1489 0 71.1656 12.4077 883 44.6874 831.809 457.516
1490 0 75.2535 12.2386 921 44.5624 831.517 456.581
1491 0 74.1026 12.1858 903 45.1883 831.404 454.236
1492 0 77.1872 12.6575 977 44.173 831.875 452.564
1493 0 80.2316 13.5483 1087 43.0368 832.128 452.863
1494 0 81.1353 12.6086 1023 44.4389 831.159 451.01
1495 0 85.2591 12.8197 1093 43.8417 831.052 449.31
1496 0 86.0917 12.9629 1116 43.6013 830.616 449.093
1497 0 92.314 13.8549 1279 42.2611 830.779 449.045
1498 0 96.157 13.4156 1290 42.1752 831.735 445.533
1499 0 96.1541 12.8648 1237 42.941 831.593 444.052
1500 0 99.2269 13.0307 1293 42.8871 832.199 442.72
1501 0 105.228 12.5632 1322 43.1233 832.154 442.348
1502 0 108.385 12.308 1334 43.2046 831.784 440.708
1503 1 86.0559 9.64489 830 36.9783 831.164 469.572
1504 1 58.0792 10.9333 635 41.2142 831.69 465.167
1505 0 58.1366 10.4237 606 41.8251 831.87 462.516
1506 0 60.1099 9.99835 601 41.98 832.361 461.857
1507 0 62.0449 11.1049 689 41.1509 831.537 462.231
1508 0 64.1563 11.02 707 41.4158 831.17 461.023
1509 0 67.1311 11.0232 740 41.6878 830.582 459.338
1510 1 161.599 15.8355 2559 36.3157 831.409 438.196
1511 1 133.309 12.3472 1646 43.1853 831.792 427.312
1512 0 132.177 12.4303 1643 43.6446 830.774 425.758
1513 0 132.522 11.9452 1583 43.6917 831.384 425.495
1514 1 110.631 11.1542 1234 36.5462 831.942 460.037
1515 1 78.2385 10.583 828 42.2548 832.217 451.828
1516 0 79.0886 10.5325 833 42.7635 832.194 450.394
1517 0 83.1426 11.8231 983 41.7894 832.333 452.417
1518 0 85.0355 11.8068 1004 41.988 831.83 450.521
1519 1 47.0574 10.0091 471 41.6794 831.554 470.011
1520 0 49.0932 9.87918 485 42.1381 831.573 468.845
1521 0 51.0554 10.6551 544 41.6397 830.888 467.697
1522 0 53.0495 10.575 561 41.754 831.939 468.116
1523 0 52.0366 11.0115 573 42.26 832.419 465.544
1524 0 57.0199 10.4349 595 42.9933 831.387 466.055
1525 0 55.0887 10.6011 584 43.7603 831.486 465.666
1526 0 60.1228 10.2956 619 44.0129 831.536 465.49
1527 0 58.1775 10.4852 610 44.6869 831.095 462.934
1528 0 63.0695 11.1147 701 43.4265 831.1 463.827
1529 0 63.1559 11.052 698 43.5745 831.457 462.093
1530 0 65.1448 11.083 722 43.7479 832.655 462.693
1531 0 61.0747 9.74216 595 46.3748 831.923 458.054
1532 0 67.1452 10.8273 727 44.9574 831.982 459.824
1533 0 68.1597 10.9742 748 44.8008 832.123 459.198
1534 0 70.2053 11.5234 809 44.5785 832.194 457.947
1535 0 74.1977 10.9437 812 44.9901 832.371 455.746
1536 0 74.0896 11.3916 844 45.0604 832.742 455.02
1537 0 75.2771 11.5972 873 44.9691 832.447 454.109
1538 0 80.152 11.6778 936 44.8344 832.031 452.551
1539 1 111.623 10.7505 1200 41.4633 831.208 456.862
1540 1 84.1836 11.1898 942 46.121 831.179 451.574
1541 0 87.2354 11.704 1021 45.2615 831.493 451.09
1542 0 89.0898 12.2573 1092 45.1071 832.166 448.47
1543 0 91.2852 11.9296 1089 45.8604 832.349 448.275
1544 0 93.3717 11.8451 1106 46.3183 831.699 446.15
1545 0 93.3419 10.724 1001 47.9451 832.588 442.225
1546 0 100.228 12.0626 1209 45.7792 832.629 444.591
1547 0 100.327 11.6519 1169 47.0547 832.484 441.636
1548 0 106.344 12.2339 1301 45.8832 832.73 441.322
1549 1 159.788 10.8644 1736 41.1043 832.544 448.383
1550 1 107.157 10.8159 1159 47.8188 832.671 439.088
1551 0 110.273 11.399 1257 47.2562 832.62 438.62
1552 0 110.192 11.362 1252 47.5463 832.626 439.236
1553 0 110.094 11.2268 1236 47.6675 833.246 438.887
1554 1 64.0884 10.86 696 45.3075 832.971 462.187
1555 0 63.0816 10.526 664 47.5813 832.761 461.023
1556 0 63.1059 11.8214 746 46.8284 833.067 459.249
1557 0 67.1242 11.2627 756 47.6323 832.14 458.653
1558 0 67.1806 11.9826 805 47.2708 832.554 457.786
1559 0 69.1108 11.7782 814 48.1757 832.318 456.858
1560 0 71.0952 12.1246 862 47.5847 833.014 457.231
1561 0 74.0514 12.1267 898 47.2361 833.086 455.814
1562 0 74.0293 11.3334 839 49.1609 831.759 454.244
1563 0 81.1019 11.9726 971 47.3852 832.638 453.379
1564 0 80.1948 12.3699 992 47.8286 832.438 452.822
1565 0 85.1546 12.401 1056 46.875 832.875 451.046
1566 0 85.1331 12.2044 1039 47.8431 832.802 449.838
1567 0 89.0368 12.1972 1086 47.6501 832.406 449.044
1568 0 94.1014 11.9021 1120 47.8036 832.323 447.229
1569 0 96.1159 12.256 1178 47.0722 832.855 444.633
1570 0 98.0715 12.0626 1183 47.7202 832.631 443.306
1571 0 101.129 12.7263 1287 46.5734 833.036 442.298
1572 0 105.121 12.8994 1356 46.0804 832.858 440.81
1573 1 139.545 12.3473 1723 41.0714 833.306 449.436
1574 1 57.0642 10.9175 623 46.1284 833.043 463.257
1575 0 58.0913 11.3614 660 45.9894 832.374 461.9
1576 0 61.1179 11.0769 677 46.4313 831.916 461.876
1577 0 65.0519 11.145 725 46.1572 833.295 460.568
1578 0 65.1068 11.8882 774 45.6111 832.892 459.764
1579 0 68.1253 10.9945 749 46.3151 832.128 458.841
1580 0 70.1564 11.2463 789 46.0938 832.537 457.766
1581 0 71.2042 11.4038 812 45.9126 832.695 456.309
1582 0 73.0813 11.5077 841 45.7753 832.748 455.857
1583 0 74.1013 11.6732 865 46.0636 832.716 455.158
1584 0 80.1526 10.7046 858 46.2867 832.786 453.74
1585 0 82.255 11.2212 923 46.0628 832.871 452.336
1586 0 82.103 11.2663 925 46.5049 833.183 450.636
1587 0 86.2529 11.675 1007 46.2433 833.09 448.982
1588 0 88.2768 11.5772 1022 46.684 832.222 447.828
1589 0 91.1326 12.1362 1106 46.2034 833.304 446.81
1590 0 94.172 10.7675 1014 47.8481 832.789 443.544
1591 0 97.2658 10.8157 1052 48.1492 832.736 442.568
1592 0 98.1935 11.1922 1099 48.0355 831.916 440.681
1593 0 105.423 12.0846 1274 46.4082 831.803 442.028
1594 0 105.35 11.3526 1196 47.8604 832.252 438.329
1595 0 112.264 11.3928 1279 47.283 832.452 437.704
1596 0 114.284 11.7252 1340 47.2552 832.245 435.625
1597 0 117.263 11.6064 1361 47.5371 832.581 434.516
1598 1 90.381 10.7213 969 39.549 832.613 467.992
1599 1 61.0522 11.482 701 45.3923 832.291 460.696
1600 0 63.0163 11.505 725 44.7572 833.463 459.388
1601 0 67.0929 10.791 724 45.058 833.258 458.05
1602 0 66.0516 11.1731 738 45.1233 833.156 456.119
1603 0 68.0826 10.8985 742 45.3221 832.813 455.79
1604 0 73.0914 10.8631 794 45.0466 833.625 456.025
1605 0 72.1479 10.9775 792 45.3952 833.279 454.234
1606 0 76.1885 11.1828 852 44.4272 832.73 453.448
1607 0 78.1559 11.5282 901 44.3496 832.211 451.477
1608 0 80.2232 11.0068 883 44.6489 832.474 450.024
1609 0 82.1707 11.0258 906 44.3344 832.684 449.785
1610 1 45.0524 10.1215 456 43.864 832.371 469.318
1611 0 45.0555 10.0765 454 44.6013 832.643 468.022
1612 0 46.0502 10.6406 490 44.3286 833.357 467.576
1613 0 47.0739 11.1739 526 43.5684 832.47 467.684
1614 0 48.0744 10.8998 524 44.3588 833.01 467.532
1615 0 54.0078 10.8503 586 43.5648 832.961 467.722
1616 0 52.0261 11.0329 574 44.2944 833.423 465.193
1617 0 54.0541 10.9335 591 43.9882 833.447 464.438
1618 0 56.0706 11.111 623 43.4655 833.881 463.546
1619 0 56.0332 10.9042 611 43.8887 833.71 462.52
1620 0 58.0358 10.5452 612 44.5049 833.453 461.392
1621 0 61.0977 10.8678 664 43.6114 833.496 460.283
1622 0 63.162 11.4626 724 43.2859 833.07 458.733
1623 1 92.1228 43.8762 4042 21.8676 830.846 463.577
1624 1 66.0652 24.9148 1646 31.6665 831.993 448.111
1625 0 67.0684 25.9884 1743 31.0981 832.904 448.47
1626 1 121.865 8.65714 1055 38.3033 832.718 464.169
1627 1 76.0701 11.2265 854 43.0925 833.357 454.559
1628 0 76.0628 11.6614 887 42.7655 833.058 453.6
1629 0 81.0839 11.3339 919 42.9859 833.665 451.657
1630 0 83.1165 11.1891 930 43.6871 832.477 450.23
1631 0 82.1289 11.4211 938 43.6386 833.536 448.433
1632 0 86.0982 12.0328 1036 42.6757 834.207 448.419
1633 0 87.2904 11.582 1011 43.3739 833.678 445.084
1634 0 92.2278 12.0679 1113 42.6325 833.158 444.43
1635 0 95.1576 11.9906 1141 42.5942 833.446 442.417
1636 0 99.218 11.8829 1179 42.7125 833.223 441.51
1637 0 100.18 11.8686 1189 43.3364 833.379 440.236
1638 0 104.128 12.1101 1261 43.249 833.028 438.872
1639 1 90.7466 9.10227 826 37.569 832.058 469.251
1640 1 57.0546 10.5688 603 43.6434 833.123 461.476
1641 0 60.0539 10.6571 640 43.5625 832.986 460.597
1642 0 60.088 10.8674 653 44.1317 832.407 458.801
1643 0 64.073 10.6441 682 44.0381 833.381 458.87
1644 0 64.0743 10.8156 693 44.3146 832.566 457.326
1645 0 65.0826 11.8158 769 43.8778 833.125 456.722
1646 0 69.0999 11.2591 778 44.0694 833.854 454.983
1647 0 69.1385 12.0049 830 43.6434 834.371 454.282
1648 0 72.0987 11.4704 827 44.2358 834.414 453.609
1649 0 73.135 11.6634 853 43.8359 833.818 451.919
1650 0 74.1869 11.9159 884 43.5667 834.463 452.361
1651 1 110.568 12.5353 1386 36.824 834.283 459.136
1652 1 81.0692 12.1378 984 43.1535 833.455 450.027
1653 0 82.0793 11.8057 969 43.7895 833.143 447.704
1654 0 88.0767 11.7738 1037 43.4773 831.826 446.546
1655 0 89.1853 12.1881 1087 43.1536 832.09 447.19
1656 0 90.1278 12.3491 1113 43.2444 832.633 444.584
1657 0 95.0717 11.8647 1128 43.8342 832.345 440.88
1658 0 96.1304 12.2542 1178 43.7606 832.166 442.184
1659 0 97.243 12.6384 1229 43.9951 832.599 440.121
1660 1 124.58 14.1836 1767 38.1619 833.281 447.857
1661 1 104.152 12.3378 1285 44.6926 833.072 436.07
1662 0 109.196 12.3539 1349 44.3899 832.613 435.616
1663 1 58.1299 10.8206 629 45.0525 833.375 461.285
1664 0 59.0881 11.0174 651 44.8602 833.521 458.527
1665 0 61.0499 11.4988 702 44.9687 832.721 459.023
1666 0 62.1169 11.5428 717 45.4017 832.895 457.116
1667 0 65.1338 11.5301 751 45 833.736 457.447
1668 0 64.0742 11.8925 762 45.2979 833.962 455.255
1669 0 68.1235 11.5232 785 45.0382 834.229 454.507
1670 0 70.0386 11.5793 811 45.3477 833.173 454.076
1671 0 73.0562 11.7033 855 44.9813 833.345 453.053
1672 0 75.1907 11.7302 882 45.4048 833.467 451.033
1673 0 75.1168 12.1012 909 45.1408 833.689 448.64
1674 0 80.2086 12.0935 970 44.8577 833.673 448.096
1675 0 81.232 12.1011 983 45.3561 832.875 446.321
1676 0 84.0922 12.296 1034 45.2369 832.812 445.089
1677 0 90.0958 11.7874 1062 45.1281 834.102 443.639
1678 0 90.197 12.1623 1097 45.2078 834.138 441.633
1679 0 95.1342 10.9529 1042 46.4511 834.354 440.686
1680 0 95.171 11.7263 1116 46.4812 833.935 438.743
1681 0 101.206 11.442 1158 46.2617 834.017 437.321
1682 1 53.156 10.2905 547 47.0987 833.313 460.227
1683 0 54.2652 10.8172 587 46.9302 833.336 459.342
1684 0 56.1723 11.1621 627 46.2185 833.183 457.662
1685 0 57.081 11.0194 629 46.6979 833.526 456.078
1686 0 59.0997 11.3875 673 46.3923 833.431 456.193
1687 0 61.069 11.0039 672 46.1265 832.932 455.412
1688 0 61.138 11.4168 698 46.5272 832.946 454.609
1689 0 64.0898 11.3747 729 45.9492 832.497 453.571
1690 0 66.1635 11.1693 739 46.4574 832.275 453.081
1691 0 70.088 11.457 803 45.8829 832.823 452.634
1692 0 70.174 11.8705 833 45.6939 832.898 451.327
1693 0 72.117 11.6616 841 46.1082 832.037 450.794
1694 0 74.1098 12.0362 892 45.4944 832.323 449.537
1695 0 77.1089 12.2554 945 44.7481 831.782 447.759
1696 0 79.0887 11.5819 916 45.1507 831.913 446.478
1697 0 82.1371 12.4304 1021 43.8286 831.926 445.608
1698 0 85.1236 11.8416 1008 42.0903 832.217 444.513
1699 0 88.1557 11.9902 1057 41.8448 832.364 444.017
1700 0 90.2818 12.1176 1094 41.2194 832.066 443.296
1701 0 92.2415 11.8168 1090 42.1872 832.257 439.772
1702 1 47.1269 9.95184 469 41.5672 831.399 461.829
1703 0 50.1263 10.3538 519 41.395 831.098 461.568
1704 0 58.6073 23.939 1403 28.7812 833.411 453.119
1705 1 88.1514 8.08836 713 37.0645 832.386 464.355
1706 1 54.0539 10.323 558 41.0878 831.869 459.482
1707 0 55.0526 10.935 602 40.289 831.932 458.346
1708 0 56.0698 11.8067 662 39.7991 832.411 458.476
1709 0 56.0716 11.5745 649 40.6518 832.798 456.752
1710 0 60.1 10.8153 650 41.0692 832.218 457.66
1711 0 61.1714 11.0019 673 40.6924 832.337 457.248
1712 0 61.0612 11.4967 702 40.6182 832.368 456.084
1713 0 65.0554 11.421 743 40.4145 831.942 456.241
1714 0 67.2016 11.3092 760 40.8763 832.2 453.355
1715 0 66.1966 11.7831 780 41.0436 832.728 451.99
1716 0 69.131 12.3244 852 40.4202 832.352 451.986
1717 0 70.164 11.6014 814 41.3071 832.151 451.295
1718 0 75.0634 11.457 860 41.0954 831.896 448.758
1719 0 73.1813 11.9703 876 40.9874 832.1 447.958
1720 1 103.528 13.4746 1395 34.3735 832.55 455.823
1721 1 81.137 12.522 1016 40.0482 831.945 447.524
1722 0 81.1087 12.6743 1028 39.7811 832.275 446.207
1723 0 83.1829 12.3343 1026 40.6257 832.147 446.043
1724 0 85.1344 11.3233 964 41.6224 832.576 442.556
1725 0 88.1685 12.4988 1102 41.0336 831.782 442.25
1726 0 93.0863 11.9781 1115 41.3587 832.016 442.149
1727 0 94.1782 11.9454 1125 41.6044 831.523 440.331
1728 0 95.9409 6.83754 656 38.7393 831.195 465.27
1729 1 55.1292 11.1556 615 41.1333 831.293 459.605
1730 0 57.1083 10.734 613 41.7276 831.364 460.042
1731 0 57.1661 11.5103 658 41.6307 831.286 458.742
1732 0 59.0331 11.2479 664 41.0151 832.12 460.012
1733 0 60.0701 11.6697 701 41.2939 831.392 459.016
1734 0 62.0937 11.4343 710 41.3028 832.316 457.99
1735 0 63.2036 11.4076 721 41.2885 832.433 457.288
1736 0 64.2921 12.2099 785 40.5554 831.769 457.21
1737 0 65.107 11.4888 748 40.9211 832.69 455.961
1738 0 68.1012 11.6444 793 40.6671 832.202 455.253
1739 0 69.1985 11.7199 811 41.0567 831.922 453.266
1740 0 72.1786 11.9287 861 40.2114 832.067 452.84
1741 0 75.2896 11.2233 845 40.9136 832.209 451.297
1742 0 78.2514 11.5014 900 40.7244 831.781 451.673
1743 0 80.1179 12.2819 984 39.8008 831.738 448.9
1744 0 83.1443 11.6544 969 40.743 831.299 448.638
1745 0 83.2748 11.36 946 41.2178 831.894 447.403
1746 0 84.2095 11.8514 998 40.8938 832.077 445.573
1747 0 89.131 12.2292 1090 40.5358 831.773 445.182
1748 0 90.1065 12.1523 1095 41.2877 831.807 443.371
1749 0 94.17 11.3943 1073 42.2712 831.775 441.446
1750 0 95.17 12.2202 1163 41.9665 831.479 441.838
1751 0 100.224 11.604 1163 42.1384 831.448 438.846
1752 0 105.089 11.2761 1185 42.6667 831.732 437.967
1753 1 58.0434 11.1296 646 41.7183 832.607 458.628
1754 0 60.0727 11.1365 669 43.1689 831.682 457.416
1755 0 61.0702 10.971 670 43.8 832.333 456.342
1756 0 64.0776 11.408 731 43.4637 831.881 457.06
1757 0 63.0327 12.0572 760 43.4474 832.062 455.533
1758 0 65.0868 10.6934 696 45.4454 831.898 453.088
1759 0 70.1026 11.3405 795 44.2616 831.913 453.874
1760 0 69.0962 11.5781 800 44.5538 832.022 452.738
1761 0 70.141 11.6052 814 44.4951 831.883 452.76
1762 0 74.1879 11.8213 877 43.1391 833.01 452.513
1763 0 75.0967 11.6117 872 44.0917 832.47 450.268
1764 0 76.2277 11.8723 905 44.168 831.78 450.177
1765 0 82.2502 11.6474 958 43.4186 832.7 449.298
1766 0 81.1523 11.7557 954 43.5031 832.921 447.632
1767 0 85.125 11.5125 980 43.5367 833.338 447.262
1768 0 88.1884 11.6002 1023 43.5435 833.36 446.207
1769 0 87.0937 11.4819 1000 44.188 833.521 445.088
1770 0 91.2084 11.6875 1066 44.0047 833.285 444.445
1771 0 93.2319 11.5947 1081 44.5208 832.869 441.62
1772 0 97.1916 11.7603 1143 44.1767 833.329 439.612
1773 0 99.1493 11.9517 1185 44.324 833.474 438.31
1774 0 103.28 11.4253 1180 44.4144 833.996 437.423
1775 1 56.0722 10.9502 614 44.1498 833.178 462.194
1776 0 55.0562 11.3702 626 43.6917 834.064 460.995
1777 0 59.1125 11.2836 667 43.4408 833.651 460.919
1778 0 60.0956 11.8977 715 43.0406 832.6 460.264
1779 0 61.0362 11.7307 716 43.8226 833.105 459.849
1780 0 61.085 11.4103 697 44.4347 833.339 459.08
1781 0 64.1002 12.2153 783 43.3985 833.41 457.851
1782 0 68.2151 11.6836 797 43.7353 833.605 457.803
1783 0 68.0758 11.825 805 43.8907 832.93 456.26
1784 0 70.2162 11.3079 794 44.8741 833.004 454.482
1785 0 74.1711 11.6353 863 44.0846 832.608 454.582
1786 0 76.1936 12.022 916 43.5087 833.572 452.334
1787 0 77.3134 12.4558 963 43.5202 833.426 452.461
1788 0 80.1271 11.4818 920 44.4489 832.69 450.225
1789 0 84.1623 12.1907 1026 43.5945 832.437 449.801
1790 0 85.3579 11.856 1012 44.4219 833.115 449.46
1791 0 87.2002 12.5458 1094 43.7879 832.833 447.157
1792 0 91.1744 11.7248 1069 44.6062 832.08 447.398
1793 0 92.195 12.018 1108 44.5505 831.938 444.842
1794 0 97.1377 12.0448 1170 44.7718 831.468 444.42
1795 1 52.0569 10.6038 552 44.9529 831.728 466.31
1796 0 51.0271 10.7198 547 45.7093 831.386 465.702
1797 0 53.0801 11.9442 634 44.5978 831.803 466.153
1798 0 56.1244 10.8687 610 46.3279 831.115 464.087
1799 0 56.0895 11.1073 623 45.9599 831.475 462.981
1800 0 57.0771 11.9838 684 45.5965 831.24 462.997
1801 0 60.1637 11.103 668 46.0479 831.272 461.31
1802 0 62.1354 11.8451 736 44.9212 831.845 462.122
1803 0 63.1497 11.3698 718 45.5933 831.234 459.708
1804 0 65.1381 11.56 753 45.4409 831.105 459.303
1805 0 68.1368 12.0493 821 44.2935 831.83 459.264
1806 0 67.2084 11.4718 771 45.192 831.949 457.008
1807 0 69.0747 11.8278 817 44.6903 831.629 455.395
1808 0 75.166 11.5744 870 44.3092 830.978 454.42
1809 0 76.2409 11.3587 866 44.6778 830.89 453.035
1810 0 77.3374 12.064 933 43.6313 831.293 451.074
1811 0 80.1344 11.6305 932 43.7124 830.968 450.269
1812 0 82.3024 11.6157 956 43.5324 831.65 448.01
1813 0 86.166 12.2322 1054 42.7638 830.927 447.455
1814 0 91.1854 11.5808 1056 43.4252 830.574 446.812
1815 1 48.0772 10.1711 489 43.1104 830.076 468.456
1816 0 49.1526 10.62 522 43.0536 829.201 466.584
1817 0 50.1447 10.6492 534 42.9532 829.871 466.466
1818 0 53.2629 10.9457 583 42.5249 830.283 464.633
1819 0 52.2116 11.3768 594 42.5084 830.372 465.008
1820 0 55.106 10.8155 596 42.7668 830.119 462.968
1821 0 56.2068 11.7779 662 42.2764 830.175 463.1
1822 0 59.1621 11.1389 659 42.4188 829.98 461.865
1823 0 60.2103 10.9782 661 42.3722 830.124 460.342
1824 0 59.2074 11.2486 666 42.4429 830.404 458.677
1825 0 64.3382 11.4862 739 41.4438 831.115 457.747
1826 1 0 0 0 -nan -nan -nan
1827 1 13.2097 9.00854 119 12.5378 827.983 513.151
1828 0 14.3276 8.44521 121 12.8512 826.215 508.19
1829 1 71.1415 11.6247 827 42.5889 829.813 453.255
1830 0 73.4 12.139 891 41.9068 829.994 452.666
1831 0 75.3311 12.0933 911 41.8222 831.034 451.83
1832 0 76.2484 12.3806 944 41.8506 831.306 450.028
1833 0 78.3814 11.9799 939 42.4686 830.871 448.576
1834 0 82.2489 12.3163 1013 42.616 830.722 446.866
1835 1 137.94 41.3223 5700 20.8205 828.532 458.706
1836 1 102.071 19.408 1981 32.4038 828.19 434.039
1837 1 70.3538 8.8126 620 38.8919 830.547 470.294
1838 1 44.0776 10.6403 469 43.7399 830.476 465.544
1839 0 45.083 10.7801 486 43.4794 830.597 464.105
1840 0 47.2647 11.3404 536 43.4608 830.019 463.382
1841 0 49.0992 11.4462 562 43.0053 830.34 461.632
1842 0 50.1488 11.3064 567 43.06 831.326 461.162
1843 0 53.2067 11.6527 620 42.6339 831.032 461.092
1844 0 54.115 11.6973 633 42.7172 831.071 459.605
1845 0 55.1243 11.8278 652 42.8742 830.966 458.293
1846 0 58.1257 12.4041 721 41.8377 831.92 458.241
1847 0 61.1563 12.0347 736 42.1495 831.573 457.39
1848 0 60.3906 11.4587 692 43.5275 830.799 456.371
1849 1 97.6044 11.0958 1083 37.5291 831.229 460.63
1850 1 65.3776 11.6707 763 42.713 832.444 453.758
1851 0 70.1856 12.011 843 41.9632 832.127 453.032
1852 0 72.4966 11.9178 864 42.3588 831.815 452.17
1853 0 70.3268 12.6125 887 42.3517 832.395 450.638
1854 0 72.3013 11.8532 857 43.5403 831.799 448.87
1855 0 75.3328 11.7346 884 43.7579 831.821 447.451
1856 0 79.1989 12.1466 962 43.0239 832.522 448.002
1857 0 80.1641 11.7509 942 43.9172 832.056 447.534
1858 0 83.4 12.1583 1014 43.9822 831.036 446.115
1859 1 44.2234 10.1982 451 45.6364 831.761 466.945
1860 0 43.2122 11.1774 483 45.7371 832.162 465.749
1861 0 46.2959 11.1457 516 45.6124 832.019 465.68
1862 0 47.1181 11.5667 545 45.8184 831.903 465.339
1863 0 44.1267 10.6965 472 48.0318 831.661 462.411
1864 0 48.3788 11.6167 562 46.8719 831.735 463.025
1865 0 53.2324 11.5343 614 46.6547 831.562 464.119
1866 0 54.2086 11.6771 633 46.6446 831.03 462.646
1867 0 52.1332 12.1612 634 47.1009 830.905 461.084
1868 0 58.1735 12.3596 719 45.7274 831.46 461.252
1869 0 57.2096 11.8162 676 46.6701 832.223 458.47
1870 0 62.105 12.4789 775 45.6077 831.786 458.618
1871 0 64.3426 11.9361 768 45.9141 831.521 458.53
1872 0 67.403 12.6107 850 45.1859 830.836 457.172
1873 0 68.2881 12.0665 824 46.0934 830.526 455.43
1874 0 69.2676 12.9353 896 45.7109 830.722 454.865
1875 0 69.2348 12.2915 851 46.2468 831.34 454.206
1876 0 74.362 12.2105 908 46.2632 831.148 453.244
1877 0 76.3395 12.7195 971 45.8486 831.028 450.836
1878 0 77.2886 12.5374 969 46.4912 831 451.313
1879 0 84.2158 12.658 1066 46.1276 830.668 451.94
1880 0 84.2689 12.472 1051 47.4063 830.255 448.129
1881 0 86.1618 12.8943 1111 47.1665 831.004 447.45
1882 0 89.2137 12.2515 1093 47.8783 830.836 445.303
1883 0 92.1894 13.2228 1219 47.119 830.942 446.133
1884 1 42.0826 11.0259 464 52.6121 831.636 464.696
1885 0 48.2583 12.4952 603 49.3914 831.08 465.041
1886 0 46.1758 12.6257 583 51.3997 828.928 464.118
1887 0 52.2276 12.3115 643 50.2255 830.132 463.118
1888 0 52.2413 13.4185 701 49.2268 830.776 462.725
1889 0 54.1028 13.3265 721 49.5922 830.51 462.004
1890 0 54.2896 12.4149 674 51.0875 830.493 459.444
1891 0 57.2359 13.0163 745 50.3208 829.472 459.196
1892 0 58.1521 13.1552 765 50.7386 829.71 459.003
1893 0 60.2552 13.559 817 49.6903 830.061 457.82
1894 0 64.1697 12.1864 782 51.1982 829.409 456.306
1895 0 64.2645 12.9932 835 50.0395 829.529 455.72
1896 1 159.041 15.9015 2529 42.2459 829.562 434.65
1897 1 70.2282 12.4736 876 50.8653 828.828 454.664
1898 0 70.1784 13.0809 918 49.8802 829.967 454.358
1899 0 74.2627 13.4657 1000 49.139 830.248 453.107
1900 0 74.2814 12.8969 958 49.9802 829.925 450.605
1901 0 75.2116 12.8039 963 50.1786 830.176 448.382
1902 0 80.1636 13.1855 1057 49.1561 830.054 448.972
1903 1 45.0379 10.7243 483 50.234 831.008 466.592
1904 0 44.049 10.965 483 50.6398 830.907 466.286
1905 0 46.0626 11.441 527 49.8368 830.338 464.533
1906 0 49.0821 11.6132 570 48.6789 830.875 465.584
1907 0 49.0406 11.5007 564 49.211 830.901 464.096
1908 0 50.0581 11.207 561 49.8021 830.834 463.408
1909 0 52.1326 11.8736 619 48.4976 831.039 462.554
1910 0 52.0937 12.8806 671 47.3279 831.899 463.765
1911 0 53.0602 12.5895 668 48.0973 831.344 459.516
1912 0 56.0714 12.8229 719 47.338 831.184 459.444
1913 0 58.0531 13.1087 761 46.4626 831.501 459.47
1914 0 58.0707 12.6742 736 46.8709 831.27 457.62
1915 0 64.1467 12.6585 812 45.9581 831.496 458.202
1916 0 63.0216 13.5509 854 45.0199 832.23 457.343
1917 0 63.1222 13.355 843 46.1103 831.795 454.875
1918 0 69.1391 12.9883 898 45.7205 831.667 455.138
1919 0 70.0379 12.5646 880 47.0591 831.377 453.262
1920 0 71.1497 13.2678 944 46.4703 831.627 453.132
1921 0 75.1124 12.6211 948 46.8354 831.159 451.783
1922 0 76.2155 13.7899 1051 46.1513 831.068 450.771
1923 0 76.0723 12.6064 959 48.1022 831.092 448.621
1924 0 81.2426 13.0597 1061 47.4298 831.35 449.012
1925 0 83.2478 13.5739 1130 47.4558 830.882 448.064
1926 0 85.0663 13.0369 1109 48.6574 830.393 447.748
1927 0 89.3178 13.1105 1171 48.6413 831.139 445.848
1928 0 91.1962 13.2133 1205 48.7012 831.308 446.137
1929 1 52.0589 10.5457 549 47.9945 831.974 466.592
1930 0 52.0178 10.977 571 48.401 831.359 465.979
1931 0 57.0517 11.2529 642 47.0109 831.246 466.251
1932 0 52.0254 11.6866 608 49.1086 830.799 463.403
1933 0 56.0626 12.058 676 48.5089 831.37 463.391
1934 0 58.0266 11.2018 650 48.8169 831.06 462.422
1935 0 59.08 11.8314 699 48.5551 830.908 462.72
1936 0 61.0475 11.5975 708 48.9364 830.172 460.545
1937 0 61.0974 11.7354 717 48.4463 830.569 459.676
1938 0 64.1498 11.8784 762 48.122 830.598 458.765
1939 0 68.0616 11.328 771 48.2283 830.377 457.674
1940 0 71.1047 11.4057 811 47.8496 830.6 457.42
1941 0 71.162 12.0148 855 47.4281 829.931 456.345
1942 0 70.1009 10.7987 757 49.2589 830.567 453.165
1943 0 74.0624 11.9224 883 47.752 830.529 453.079
1944 1 199.888 12.3069 2460 42.837 830.639 433.61
1945 1 146.185 12.3679 1808 49.0852 830.382 418.996
1946 0 148.23 12.6627 1877 47.9851 830.567 421.023
1947 0 147.291 12.0442 1774 48.8405 831.41 419.962
1948 0 146.168 11.5415 1687 49.2051 830.621 419.563
1949 1 48.0476 10.6769 513 45.5049 830.368 466.969
1950 0 51.0677 10.2413 523 45.8968 830.254 465.595
1951 0 54.1004 10.8872 589 45.0085 829.902 465.518
1952 0 57.0696 10.7763 615 44.8618 829.994 464.276
1953 0 56.1761 10.4315 586 44.9915 829.635 464.176
1954 0 55.1083 10.9058 601 44.9301 830.023 463.16
1955 0 58.125 10.9247 635 44.4252 829.595 461.852
1956 0 59.0726 11.7144 692 44.7717 829.168 462.84
1957 0 61.0604 10.9072 666 45.5841 829.835 459.742
1958 0 63.112 11.5509 729 44.6859 830.335 458.63
1959 0 65.2603 11.3392 740 44.9527 830.026 458.759
1960 0 69.0507 11.1512 770 45.026 829.97 455.994
1961 0 68.1044 10.7629 733 45.9113 829.726 455
1962 0 70.0743 11.9873 840 43.7536 830.639 454.692
1963 1 99.7552 10.8064 1078 39.6855 829.827 458.553
1964 1 0 0 0 -nan -nan -nan
1965 0 19.783 5.40868 107 12.8224 826.776 511.486
1966 1 78.0876 11.9353 932 44.3273 829.674 450.462
1967 0 82.0991 11.815 970 43.9423 830.59 449.742
1968 0 83.0752 12.0132 998 44.4659 830.523 448.08
1969 0 84.1739 12.1891 1026 45.0945 829.158 447.669
1970 0 87.2073 11.5701 1009 45.6551 829.477 445.417
1971 0 88.1715 11.9653 1055 45.9526 829.84 443.45
1972 0 91.1529 11.6617 1063 46.6548 830.145 442.16
1973 0 95.2137 11.868 1130 46.6699 829.154 441.671
1974 0 98.0983 12.4263 1219 46.2453 829.759 440.394
1975 0 99.1939 11.3717 1128 48.0674 829.3 439.335
1976 1 54.1 10.9242 591 46.0948 829.934 462.783
1977 0 57.0447 10.7985 616 46.1851 830.622 462.078
1978 0 58.1104 10.5833 615 46.4683 830.81 460.382
1979 0 60.0995 11.065 665 46.4662 831.159 460.582
1980 0 62.1274 11.8788 738 45.7873 830.638 460.186
1981 0 62.0958 11.0796 688 46.9593 830.757 458.844
1982 0 64.141 11.7398 753 46.1182 830.807 458.353
1983 0 65.1453 11.3899 742 46.3881 830.881 457.035
1984 0 67.1187 11.2189 753 46.4104 831.154 455.311
1985 0 69.161 11.9431 826 45.1199 831.525 455.224
1986 0 70.0694 12.2307 857 45.2252 831.056 455.302
1987 0 74.1129 11.2666 835 46.2204 830.583 454.416
1988 0 73.1264 11.8288 865 45.8925 830.706 453.468
1989 0 78.2794 11.7144 917 45.1189 830.903 452.443
1990 1 106.374 13.0013 1383 38.7939 830.582 456.136
1991 1 78.1878 11.984 937 45.5539 830.705 448.531
1992 0 84.1407 12.3008 1035 44.3478 830.279 449.15
1993 0 85.1283 13.0391 1110 43.6973 830.526 448.593
1994 0 87.1674 12.0802 1053 44.6258 830.126 446.261
1995 0 90.1688 12.1882 1099 44.0855 829.748 446.117
1996 0 94.1331 12.1105 1140 43.6281 830.518 444.371
1997 1 54.1217 10.9383 592 42.277 830.78 466.581
1998 0 52.0818 11.4627 597 42.8978 830.502 465.246
1999 0 53.1304 11.7635 625 42.5648 829.658 464.984
2000 0 58.0735 11.4338 664 42.0663 830.658 464.432
2001 0 57.0953 11.7173 669 41.8161 830.377 463.57
2002 0 61.0972 11.1134 679 42.1458 830.44 462.401
2003 1 85.2392 11.6848 996 36.8042 830.106 466.911
2004 1 61.1048 11.5376 705 42.1801 830.165 461.156
2005 0 65.0972 11.7209 763 41.3853 830.176 459.73
2006 0 68.1463 11.3286 772 41.2086 830.539 459.843
2007 0 68.0996 11.7034 797 41.059 830.743 458.915
2008 0 70.1151 11.7806 826 41.0714 830.185 457.149
2009 0 71.1994 11.9945 854 41.185 829.637 456.862
2010 0 75.0798 12.3868 930 40.3355 829.624 456.704
2011 0 78.1113 11.4452 894 40.5783 829.831 454.66
2012 0 80.0937 11.4366 916 41.0186 829.876 452.769
2013 0 81.12 12.1918 989 40.3913 829.69 452.169
2014 0 83.1829 12.0457 1002 40.6407 829.478 450.644
2015 0 87.1881 12.3067 1073 40.3113 829.02 449.674
2016 0 93.0957 11.8373 1102 39.882 830.112 448.812
2017 0 92.3432 11.3706 1050 40.98 829.746 446.093
2018 1 50.0412 10.1516 508 40.9232 830.075 468.039
2019 0 48.0359 10.2007 490 42.3388 829.312 465.535
2020 0 55.0264 11.0311 607 40.4102 829.165 464.667
2021 0 52.1209 10.0344 523 42.7228 829.49 463.776
2022 0 54.0502 12.0999 654 40.6774 829.451 464.159
2023 0 56.0429 12.3834 694 40.683 828.905 462.444
2024 0 57.1216 12.0445 688 41.2733 827.962 461.09
2025 0 57.0205 11.7151 668 41.497 828.635 461.204
2026 0 61.0404 12.074 737 40.8155 829.653 460.74
2027 0 63.035 11.9775 755 40.8954 829.784 459.736
2028 0 63.0561 12.3541 779 41.0436 829.044 458.32
2029 0 69.0794 12.0152 830 40.6301 828.837 457.187
2030 0 67.095 12.4152 833 41.018 828.515 456.898
2031 0 71.0774 12.0714 858 41.0897 828.782 455.24
2032 1 96.0587 11.7845 1132 37.1528 828.762 459.228
2033 0 101.633 11.6203 1181 36.8713 828.482 458.96
2034 1 77.0461 12.6807 977 40.7687 828.997 452.596
2035 0 77.1208 12.4999 964 41.2054 829.261 450.424
2036 0 80.0958 12.5475 1005 40.8607 829.584 449.928
2037 0 84.0481 12.5285 1053 41.0883 829.8 449.579
2038 0 87.2749 12.3059 1074 41.6518 829.332 447.269
2039 0 89.1015 12.1884 1086 41.7422 829.668 447.693
2040 0 93.08 12.4731 1161 41.6718 829.378 446.434
2041 0 91.0539 12.4871 1137 42.3316 829.891 443.904
2042 0 97.3225 12.063 1174 41.994 830.675 442.422
2043 0 100.107 12.107 1212 42.2706 830.401 441.478
2044 0 103.066 11.9341 1230 42.5472 830.928 439.626
2045 0 106.108 12.8736 1366 41.6186 831.05 440.102
2046 1 58.1823 11.0171 641 42.0421 830.427 461.392
2047 0 63.1319 11.1671 705 41.6326 831.051 460.464
2048 0 60.0763 10.8362 651 43.1598 831.104 459.08
2049 0 64.2462 11.238 722 42.4862 830.975 458.65
2050 0 66.2304 12.1394 804 41.8147 830.534 457.821
2051 0 69.0864 12.3469 853 41.6166 830.149 457.446
2052 0 67.1132 11.8159 793 43.2736 830.332 454.55
2053 0 73.0721 11.0439 807 43.005 830.928 453.849
2054 0 72.2669 11.9834 866 42.8037 830.368 453.77
2055 0 77.088 11.7139 903 42.7154 830.88 451.526
2056 0 76.075 12.5534 955 42.3864 830.821 450.891
2057 0 81.1898 12.0951 982 42.4562 831.304 450.255
2058 0 83.0605 12.7859 1062 42.0424 831.187 448.227
2059 0 85.0993 12.3973 1055 42.8521 830.164 447.572
2060 0 91.1462 12.0027 1094 42.9433 830.208 447.398
2061 0 90.1813 12.5525 1132 43.1493 830.9 444.82
2062 0 95.1244 12.142 1155 43.6935 830.432 443.375
2063 0 99.1501 12.4357 1233 43.3747 829.932 443.159
2064 0 99.1992 12.6009 1250 43.88 830.654 441.514
2065 0 104.063 12.7423 1326 43.6463 830.634 441.041
2066 1 54.0895 10.1683 550 43.9418 830.605 463.76
2067 0 57.0606 10.8832 621 43.3639 829.924 462.749
2068 0 57.0452 11.2367 641 43.9641 829.855 460.346
2069 0 59.1932 12.417 735 42.8571 829.605 460.848
2070 0 61.0864 11.7702 719 43.5216 829.305 460.072
2071 0 64.1867 12.0118 771 42.8898 829.752 460.386
2072 0 64.0866 11.7497 753 43.4728 830.029 458.15
2073 0 65.032 12.4093 807 42.943 830.213 457.767
2074 0 70.1168 11.8944 834 42.5516 830 456.333
2075 1 104.931 11.417 1198 36.6377 828.908 464.361
2076 1 71.1369 11.7239 834 43.259 829.53 454.279
2077 0 74.2354 13.3629 992 41.4587 828.892 449.79
2078 0 76.299 12.8049 977 41.869 829.558 452.665
2079 0 79.1343 12.2956 973 42.7862 829.175 450.103
2080 0 80.2081 12.1808 977 43.5814 828.484 450.017
2081 0 81.1605 12.3213 1000 43.374 829.608 448.427
2082 0 87.1467 12.5191 1091 42.2961 829.595 446.526
2083 0 90.1754 12.2095 1101 42.6267 829.41 445.436
2084 1 121.296 12.7127 1542 37.6258 829.325 451.481
2085 1 93.1781 12.0307 1121 43.4442 830.231 443.139
2086 0 99.2293 11.7405 1165 43.7871 828.785 441.55
2087 0 102.058 11.6503 1189 43.6501 828.887 439.566
2088 0 106.309 12.4167 1320 42.5811 829.11 439.555
2089 0 106.117 12.3071 1306 43.4181 829.407 436.551
2090 0 111.233 11.6872 1300 44.0331 830.019 434.706
2091 0 112.2 12.6025 1414 43.5891 829.678 432.421
2092 0 116.27 12.9612 1507 42.9887 830.065 432.285
2093 0 120.129 12.7696 1534 42.8794 830.199 431.015
2094 1 142.822 15.0537 2150 37.6512 829.907 438.009
2095 1 119.248 24.7804 2955 33.2511 829.44 413.249
2096 1 223.058 17.6097 3928 36.433 829.9 410.574
2097 0 237.119 16.1311 3825 36.8761 830.408 409.459
2098 1 182.522 13.5984 2482 37.9742 829.772 431.743
2099 1 76.1381 12.4117 945 41.9958 829.688 452.382
2100 0 81.1168 11.7238 951 42.1998 829.239 451.163
2101 0 84.1597 11.4069 960 41.9104 830.101 450.128
2102 0 84.2124 12.231 1030 41.6884 830.28 448.11
2103 0 90.1961 11.7744 1062 41.5603 830.389 447.808
2104 0 88.1218 12.3692 1090 41.744 830.3 445.848
2105 1 120.995 11.9179 1442 37.3946 830.304 450.779
2106 1 105.201 11.1976 1178 42.4499 830.127 438.627
2107 0 105.087 11.2479 1182 42.5482 829.749 438.231
2108 1 158.919 10.3072 1638 37.265 829.935 448.108
2109 1 135.09 12.9396 1748 36.5566 830.785 447.403
2110 1 54.0225 10.6252 574 42.0784 831.336 462.105
2111 0 60.1292 10.5606 635 41.8394 830.66 460.964
2112 0 59.1274 11.0609 654 41.9098 830.136 459.424
2113 1 89.3164 10.5692 944 37.5583 830.286 461.897
2114 0 94.3334 10.3569 977 37.6264 829.734 460.689
2115 1 69.4362 11.3918 791 41.531 829.833 458.046
2116 1 95.982 10.8875 1045 36.6957 829.653 462.791
2117 1 0 0 0 -nan -nan -nan
2118 0 0 0 0 -nan -nan -nan
2119 0 0 0 0 -nan -nan -nan
2120 0 0 0 0 -nan -nan -nan
2121 0 9.18714 9.36092 86 13.093 831.267 508.779
2122 1 152.292 12.3119 1875 43.0453 830.979 416.218
2123 1 184.462 16.0629 2963 36.6507 830.504 426.878
2124 1 85.2297 11.7213 999 41.9119 829.807 449.699
2125 0 85.2546 11.7765 1004 42.6524 829.485 448.531
2126 0 92.2179 11.4728 1058 42.689 829.48 448.742
2127 0 91.4923 12.2633 1122 42.344 829.729 447.813
2128 0 91.2306 12.0135 1096 43.2518 829.237 445.184
2129 0 96.2771 11.6642 1123 43.398 828.893 444.542
2130 0 100.259 11.7396 1177 43.2659 829.18 443.24
2131 0 102.294 11.3692 1163 44.4411 828.463 440.365
2132 0 107.309 11.6579 1251 43.9273 829.158 439.938
2133 1 61.0498 11.4333 698 42.4312 829.06 463.203
2134 0 64.0997 10.5305 675 44.0385 828.893 462.656
2135 0 63.1511 10.6887 675 44.6281 828.594 460.373
2136 0 65.0987 10.8451 706 43.9051 829.626 460.341
2137 0 69.1048 11.128 769 43.104 829.982 460.395
2138 0 69.0833 11.146 770 43.7662 829.947 459.157
2139 0 71.1121 11.5733 823 42.8858 829.973 458.544
2140 0 72.1378 12.795 923 42.0423 829.639 457.757
2141 1 111.049 10.2027 1133 39.226 829.268 461.498
2142 1 79.18 11.8969 942 42.6274 829.238 456.824
2143 0 82.0381 11.9701 982 42.4287 829.274 454.694
2144 0 83.1125 12.1763 1012 42.6472 829.43 453.347
2145 0 85.121 12.2297 1041 43.4755 828.829 450.692
2146 0 87.1426 12.2558 1068 43.6217 828.191 449.288
2147 0 90.0701 11.3356 1021 43.7904 828.942 448.09
2148 0 94.2108 12.4083 1169 42.4773 829.09 447.914
2149 0 95.0469 11.3838 1082 44.0453 829.469 446.055
2150 0 101.247 13.1856 1335 42.1281 830.053 443.267
2151 1 57.0125 10.5942 604 44.1209 830.305 465.187
2152 0 58.1276 11.0447 642 44.4143 829.336 464.12
2153 0 59.0691 10.7332 634 45.03 829.043 463.797
2154 0 60.0984 11.398 685 44.5591 829.155 461.185
2155 0 62.1325 11.5238 716 44.6648 829.33 460.936
2156 0 63.0702 11.4793 724 45.163 829.327 459.083
2157 0 65.0979 12.4582 811 44.3354 829.372 459.196
2158 0 70.1046 12.0962 848 44.3467 829.104 457.654
2159 0 71.1091 12.0238 855 44.6211 829.798 456.592
2160 0 72.1196 11.9662 863 45.1669 828.79 456.136
2161 0 71.1947 11.9531 851 45.9318 828.851 454.2
2162 0 75.1815 11.9976 902 45.2993 829.437 454.418
2163 0 78.0743 12.4241 970 45.0742 828.735 452.24
2164 0 79.1005 12.2755 971 45.552 829.963 450.887
2165 0 83.087 12.529 1041 45.0211 829.298 450.507
2166 0 85.141 12.6144 1074 44.7318 829.324 448.757
2167 0 87.1122 13.2473 1154 44.4177 829.454 448.768
2168 0 92.0966 12.2263 1126 45.2504 829.414 445.738
2169 0 94.0512 12.5145 1177 45.6236 828.93 444.961
2170 0 97.1012 12.9041 1253 45.6832 829.279 444.205
2171 1 52.0156 10.9583 570 46.8667 829.218 465.64
2172 0 52.0356 11.2231 584 47.3699 828.866 464.094
2173 0 53.1156 11.7668 625 47.2768 829.269 463.312
2174 0 56.0704 11.5212 646 48.1796 828.173 462.324
2175 0 54.0412 11.4912 621 48.81 828.634 460.356
2176 0 60.1459 12.0374 724 47.0539 829.207 459.809
2177 0 61.045 12.4826 762 46.71 829.188 459.656
2178 0 61.0475 12.3019 751 47.4847 828.891 458.399
2179 0 62.0636 12.6322 784 47.426 828.076 457.825
2180 0 65.1564 12.8307 836 46.8278 828.665 457.44
2181 0 67.1359 12.7205 854 46.7049 829.001 455.453
2182 0 69.0394 11.7035 808 47.9715 829.422 453.968
2183 0 74.0445 12.1954 903 47.0055 828.948 452.929
2184 0 72.2129 13.8202 998 45.5521 828.718 453.381
2185 0 75.0757 12.8271 963 46.6096 828.964 451.814
2186 0 77.0724 13.0656 1007 46.3883 828.403 451.294
2187 0 80.1296 12.8043 1026 46.4074 828.924 449.907
2188 0 82.1257 13.041 1071 46.6825 829.241 449.408
2189 0 83.2168 13.5309 1126 46.5542 828.971 448.718
2190 0 88.0421 12.5508 1105 47.3529 828.124 448
2191 0 90.1965 12.5836 1135 47.8696 828.169 447.135
2192 0 92.0937 13.5514 1248 46.7885 828.593 446.917
2193 0 94.2509 12.9017 1216 47.8528 828.841 444.399
2194 0 95.1 13.5857 1292 47.6455 828.569 442.582
2195 0 101.146 12.9318 1308 47.7217 829.11 440.665
2196 0 101.267 13.8644 1404 47.7044 828.766 440.684
2197 0 104.169 13.0077 1355 48.7808 828.88 438.889
2198 1 58.2432 11.658 679 49.4963 828.555 460.95
2199 0 60.0743 11.6356 699 49.7654 829.086 459.166
2200 0 60.1046 12.6114 758 49.1491 828.864 459.296
2201 0 64.107 12.3856 794 49.0693 828.072 459.479
2202 0 65.0541 12.0976 787 48.2478 828.934 458.011
2203 0 64.21 12.1476 780 48.8205 828.244 456.372
2204 0 68.0796 12.03 819 48.2344 828.961 454.999
2205 0 70.1686 12.9688 910 47.7286 828.056 454.863
2206 0 72.0925 12.484 900 48.4367 828.332 453.096
2207 0 75.1693 12.8111 963 47.9626 828.716 451.858
2208 0 79.1581 12.7214 1007 47.9384 828.012 452.081
2209 0 83.2372 12.6386 1052 47.5523 828.731 450.536
2210 0 83.1313 13.5569 1127 47.3558 829.044 448.918
2211 0 85.1554 12.988 1106 48.2468 829.25 447.929
2212 0 87.1418 12.8641 1121 48.5718 828.844 445.211
2213 0 90.1278 13.6806 1233 47.7332 828.393 445.474
2214 0 94.1447 12.4808 1175 49.1889 828.315 443.123
2215 0 95.1013 13.5224 1286 48.2053 828.474 442.793
2216 0 101.112 13.3416 1349 48.0104 828.993 440.521
2217 0 102.141 12.894 1317 48.9385 828.724 439.292
2218 1 56.0468 11.6867 655 47.9389 829.34 462.319
2219 0 58.0683 10.9182 634 48.6893 827.978 460.382
2220 0 60.0578 12.2549 736 46.9728 828.708 460.76
2221 0 62.0497 11.2329 697 48.2296 827.973 458.277
2222 0 63.0857 11.9679 755 47.094 828.574 458.082
2223 0 70.0804 11.5011 806 46.7481 829.313 457.04
2224 0 68.0517 11.7998 803 46.7721 829.021 456.224
2225 0 69.0565 12.0626 833 46.1897 828.916 455.271
2226 0 73.0359 11.8709 867 45.8547 829.044 453.559
2227 0 72.054 12.8098 923 45.5146 828.584 453.429
2228 1 123.655 10.8851 1346 39.8692 828.554 458.023
2229 1 79.1591 12.6075 998 45.0521 829.356 450.856
2230 0 85.1157 12.1834 1037 44.8592 829.342 449.189
2231 0 83.2448 13.0579 1087 45.0791 828.843 446.945
2232 0 86.1227 12.9931 1119 45.0938 829.116 445.805
2233 0 89.1752 13.2436 1181 45.0381 829.184 446.025
2234 0 91.1545 13.0218 1187 45.5164 829.028 444.747
2235 0 95.2134 12.8448 1223 45.4146 829.256 443.847
2236 0 98.0871 12.9885 1274 45.7433 828.918 441.144
2237 0 100.138 12.7923 1281 46.1795 829.073 439.234
2238 1 193.417 13.5666 2624 48.3338 829.486 393.513
2239 1 105.127 13.4028 1409 46.0277 829.272 437.696
2240 0 108.147 13.5833 1469 45.8237 828.95 435.938
2241 0 113.216 12.6219 1429 47.021 828.628 433.106
2242 0 116.164 12.9559 1505 46.7841 828.609 432.671
2243 0 120.284 12.6035 1516 46.8602 829.484 428.547
2244 0 124.267 13.4468 1671 46.0359 828.92 429.205
2245 0 123.164 13.4861 1661 46.4058 829.084 427.654
2246 0 129.16 13.1464 1698 46.3104 829.173 425.824
2247 1 164.567 16.595 2731 38.6331 829.473 436.667
2248 1 139.472 13.1998 1841 46.5253 828.81 422.432
2249 1 73.1586 11.3862 833 46.3986 828.971 455.238
2250 0 78.1043 11.92 931 45.4909 829.713 453.612
2251 0 77.1063 12.3855 955 45.8073 829.053 451.362
2252 0 79.0738 11.9382 944 46.5212 828.485 449.271
2253 0 83.0792 12.2052 1014 45.7199 828.841 447.193
2254 0 86.2062 11.6581 1005 46.1841 829.058 445.902
2255 0 88.1216 12.687 1118 45.1038 829.024 445.845
2256 0 90.1792 11.8542 1069 45.8653 828.964 442.759
2257 0 95.1555 11.6756 1111 45.5428 828.644 440.538
2258 0 97.1187 12.2839 1193 45.4937 828.359 442.51
2259 0 100.126 12.3644 1238 44.6995 829.388 440.341
2260 0 103.177 12.0376 1242 44.744 829.843 438.244
2261 0 107.064 11.6286 1245 44.7108 829.114 436.863
2262 1 54.0608 10.6732 577 43.5182 829.879 462.397
2263 0 55.1281 11.2284 619 43.3813 829.52 461.569
2264 0 58.0294 11.4252 663 42.5837 829.297 462.287
2265 0 60.0661 10.6882 642 43.7181 829.498 461.522
2266 0 63.0311 10.5979 668 43.2036 829.76 461.277
2267 0 66.111 11.2387 743 42.3499 829.458 459.227
2268 0 69.0446 11.6881 807 41.9628 829.851 458.938
2269 0 70.162 11.1029 779 43.0655 828.818 457.116
2270 0 70.0727 10.4463 732 44.2309 828.54 454.94
2271 0 75.1083 11.277 847 42.693 829.117 454.979
2272 0 73.1458 10.9097 798 43.5727 829.31 452.62
2273 0 78.0598 11.6834 912 42.568 828.978 450.346
2274 0 83.074 11.4597 952 42.3456 829.103 450.868
2275 0 84.0678 11.0387 928 42.9914 828.683 449.337
2276 0 87.0436 11.7412 1022 42.3894 829.038 447.589
2277 0 90.0627 10.3817 935 43.477 829.159 445.478
2278 1 45.0128 10.0416 452 42.1571 828.63 467.989
2279 0 46.0068 9.93332 457 42.628 828.287 467.576
2280 0 48.0185 10.4751 503 42.1968 827.859 467.62
2281 0 49.0804 10.3911 510 42.7137 827.476 466.42
2282 0 54.0777 10.6328 575 42.8035 826.619 466.167
2283 0 51.0373 9.9927 510 43.9471 827.061 464.684
2284 0 59.1352 10.5521 624 41.8526 827.963 464.689
2285 0 54.0692 10.0982 546 43.9139 827.112 462.513
2286 0 60.0405 10.8427 651 42.1459 826.942 462.218
2287 0 62.0876 10.9201 678 42.1504 826.976 462.094
2288 0 62.0846 11.1461 692 42.1214 827.86 460.324
2289 0 62.0901 10.2754 638 43.4906 827.922 458.317
2290 0 64.0687 10.598 679 42.9985 827.557 457.222
2291 0 65.0375 10.7477 699 43.2003 827.519 455.353
2292 0 71.0297 10.4182 740 42.7486 827.641 454.345
2293 0 74.039 10.589 784 42.6569 827.439 453.862
2294 0 76.0974 10.9991 837 42.27 827.708 453.241
2295 0 77.061 11.4844 885 41.5921 827.92 453.012
2296 0 78.0472 11.4162 891 42.0314 827.706 452.308
2297 0 82.0839 11.0619 908 42.2346 827.764 450.454
2298 0 82.0737 10.9658 900 42.5611 828.036 448.547
2299 0 87.1526 11.3594 990 41.9919 827.75 446.363
2300 0 88.0513 11.7432 1034 42.0938 828.197 447.43
2301 0 90.1154 10.6974 964 43.806 828.337 444.499
2302 0 94.1275 10.507 989 44.1678 827.885 443.756
2303 0 96.1996 10.3847 999 45.036 827.195 442.616
2304 0 98.2388 10.3829 1020 45.1206 827.618 440.43
2305 0 102.148 10.7589 1099 44.8544 827.006 439.079
2306 1 128.515 13.5859 1746 37.8797 827.651 448.158
2307 0 115.296 10.6682 1230 43.8699 828.469 435.059
2308 0 115.116 10.4069 1198 44.4341 828.515 435.313
2309 1 142.969 13.5973 1944 37.4583 828.765 445.233
2310 1 62.1225 11.2359 698 42.4212 827.576 461.059
2311 0 58.0587 10.9716 637 43.2465 828.556 459.568
2312 0 60.0467 11.4078 685 43.0496 827.955 459.828
2313 0 63.1452 11.624 734 42.6104 827.751 459.481
2314 0 67.0577 11.1993 751 42.3582 827.702 458.879
2315 0 67.0685 10.6607 715 42.9762 827.081 456.175
2316 0 68.0271 11.3043 769 42.6333 828.304 455.497
2317 0 71.1152 11.6431 828 41.6075 828.144 456.767
2318 0 74.1152 11.0773 821 41.9903 827.557 452.829
2319 0 76.0568 11.4257 869 41.3751 827.742 453.052
2320 0 76.089 11.6311 885 41.4045 827.623 450.992
2321 0 79.0971 10.3417 818 42.7005 827.029 448.708
2322 0 84.0878 11.0361 928 41.4052 827.139 448.844
2323 0 86.1924 11.3003 974 41.306 827.442 448.115
2324 0 87.1408 10.7757 939 42.1257 826.767 445.644
2325 1 124.432 11.5244 1434 35.8933 827.324 455.257
2326 1 48.1148 10.371 499 42.1383 827.717 467.106
2327 0 49.0913 10.2462 503 42.2227 828.052 465.358
2328 0 51.09 10.6675 545 41.345 828.384 465.317
2329 0 52.1313 10.8188 564 41.4557 827.418 463.443
2330 0 54.045 11.3979 616 41.2159 827.505 464.086
2331 0 54.0626 11.9306 645 41.1302 828.074 464.713
2332 0 57.0445 11.2369 641 41.4977 828.144 463.599
2333 0 56.0538 11.3819 638 41.8715 828.094 461.034
2334 0 58.1332 11.6801 679 41.7452 827.864 461.2
2335 0 60.0831 11.1845 672 41.9226 828.095 460.269
2336 0 66.1246 10.7827 713 41.5316 828.323 461
2337 0 63.0834 11.3342 715 41.8098 828.239 458.287
2338 0 64.1541 11.0827 711 42.0169 828.328 458.001
2339 0 69.056 11.7875 814 41 827.076 457.467
2340 0 70.0516 11.5486 809 41.6082 827.391 455.147
2341 0 73.0523 11.3754 831 41.586 827.68 454.996
2342 0 74.0702 11.9211 883 41.3545 827.763 453.774
2343 0 77.0842 11.7404 905 41.505 827.85 451.202
2344 0 78.1289 11.481 897 42.0334 827.9 452.318
2345 0 83.0438 11.4638 952 42.3372 828.695 451.597
2346 0 84.2609 12.1646 1025 42.2937 828.645 449.95
2347 0 87.0865 11.9881 1044 42.6954 827.874 448.423
2348 0 89.0652 11.6768 1040 42.6106 828.197 444.696
2349 0 92.1353 11.2769 1039 43.5438 827.758 445.737
2350 0 97.051 11.8597 1151 43.1451 827.207 444.529
2351 0 97.1129 11.5845 1125 43.5556 827.034 443.732
2352 1 54.0209 10.4034 562 43.4609 826.959 465.381
2353 0 57.0234 9.83807 561 43.975 827.481 462.547
2354 0 57.0475 11.2012 639 43.2175 827.457 461.897
2355 0 60.0243 10.1792 611 44.4223 827.044 460.214
2356 0 62.055 10.7969 670 44.0552 827.837 459.782
2357 0 63.1163 10.5995 669 44.2182 828.407 458.572
2358 0 66.1041 10.3927 687 44.2518 827.975 456.737
2359 0 64.2344 11.2557 723 43.982 828.152 456.177
2360 0 70.0743 10.7029 750 43.5827 827.899 454.837
2361 0 71.1122 11.8545 843 42.5148 827.629 454.73
2362 0 74.1143 10.983 814 43.5442 827.531 452.359
2363 0 74.2094 10.7938 801 44.2647 827.238 450.556
2364 1 107.283 13.4411 1442 35.932 827.68 457.616
2365 1 80.3017 11.8428 951 43.0252 827.837 448.582
2366 0 84.3414 11.5127 971 43.1658 826.843 448.479
2367 0 87.1979 11.2388 980 43.2173 827.309 446.75
2368 0 86.1913 11.5557 996 43.2872 826.545 445.66
2369 0 89.2743 11.4815 1025 43.0117 827.112 445.062
2370 1 43.1325 10.5257 454 43.0352 828.196 467.661
2371 0 46.1408 9.57937 442 44.4231 827.62 464.907
2372 0 47.1649 10.6011 500 43.398 827.438 465.032
2373 0 47.0353 11.1618 525 42.8667 827.246 464.646
2374 0 49.009 11.3244 555 42.8288 827.503 464.977
2375 0 52.0181 10.9193 568 43.0246 827.456 463.599
2376 0 53.025 11.7869 625 41.904 828.298 462.912
2377 0 56.0346 11.368 637 42.2276 828.43 462.672
2378 0 57.0369 10.7825 615 43.148 828.215 462.06
2379 0 55.0422 10.9734 604 43.5497 827.722 460.109
2380 0 58.03 12.0455 699 42.1731 828.175 460.35
2381 0 60.1127 12.0274 723 42.1176 827.616 459.123
2382 0 62.0671 11.6648 724 42.3729 827.666 458.583
2383 0 63.0485 11.4515 722 43.3366 827.321 457.512
2384 0 65.0461 11.5457 751 42.6684 828.459 455.973
2385 0 67.1449 11.6465 782 42.298 829.231 455.234
2386 0 68.1405 12.5182 853 41.8124 828.771 454.562
2387 0 71.0534 10.9917 781 43.1114 828.625 452.703
2388 0 70.0983 10.685 749 43.4913 828.637 450.674
2389 0 73.1084 11.5582 845 42.6769 828.291 447.992
2390 0 79.194 11.3898 902 42.7472 827.625 448.808
2391 0 77.0938 11.5314 889 42.9134 828.21 447.665
2392 0 82.2501 11.5015 946 43.0264 828.095 446.79
2393 0 83.1626 11.5557 961 43.82 828.026 444.671
2394 0 86.0955 11.8589 1021 43.2752 827.484 444.955
2395 0 87.1785 11.5281 1005 43.9423 827.584 444.504
2396 0 92.1451 12.1005 1115 43.278 828.08 443.256
2397 1 48.0286 10.4105 500 44.098 828.4 465.134
2398 0 48.0511 10.3015 495 45.4323 829.232 464.396
2399 0 49.0436 11.0514 542 44.2454 828.668 463.915
2400 0 49.0206 11.077 543 45.5967 828.886 462.724
2401 0 50.0326 10.8929 545 46.1853 828.139 461.73
2402 0 54.0588 10.8031 584 45.8014 827.916 461.582
2403 0 55.0744 11.7841 649 45.2727 827.815 462.949
2404 1 93.7654 9.5451 895 40.6749 826.649 466.125
2405 1 57.0782 11.0725 632 46.0538 828.323 459.611
2406 0 57.0445 11.6225 663 46.1433 828.602 458.133
2407 0 63.1079 11.1396 703 46.1579 828.656 454.448
2408 0 63.1029 11.299 713 46.6592 827.993 456.028
2409 0 61.1488 11.611 710 46.6479 827.954 455.263
2410 0 64.1224 11.7432 753 46.6879 827.823 456.32
2411 0 67.0478 11.7677 789 46.564 828.152 454.572
2412 0 69.1284 12.1802 842 45.7458 828.106 453.96
2413 0 70.1947 11.3969 800 46.9025 828.081 449.996
2414 0 75.1816 12.237 920 45.488 828.291 451.927
2415 0 76.1947 11.5887 883 46.3511 828.13 449.554
2416 0 78.1502 12.2328 956 45.5251 828.296 449.798
2417 0 82.1875 11.8144 971 46.0494 827.944 448.645
2418 1 40.0497 10.9115 437 47.9519 827.947 467.336
2419 0 43.0391 10.4091 448 48.2076 828.33 465.475
2420 0 47.041 11.4156 537 46.2309 828.54 466.389
2421 0 47.034 10.6306 500 47.918 828.144 464.938
2422 0 47.0691 10.9626 516 47.4922 827.998 463.136
2423 0 51.0549 11.7716 601 46.2413 827.584 463.522
2424 0 51.0812 11.6481 595 46.8235 827.351 464.148
2425 0 52.0435 10.472 545 48.2477 827.415 460.855
2426 0 54.0441 10.954 592 47.6115 828.086 460.115
2427 1 84.4613 11.0228 931 41.3534 827.455 464.08
2428 1 59.056 11.8701 701 46.4023 828.244 459.101
2429 0 55.0631 10.8966 600 49.26 827.852 457.053
2430 0 60.0883 12.3318 741 47.5115 827.619 458.623
2431 0 61.0404 11.3859 695 48.6432 827.858 458.082
2432 0 63.0843 11.7145 739 48.0852 828.129 456.678
2433 0 64.0413 11.4613 734 47.7616 828.373 456.523
2434 0 69.0792 11.7546 812 47.0345 828.324 455.831
2435 0 72.0605 11.6291 838 47.284 828.376 455.107
2436 0 70.1125 12.1091 849 47.0224 828.413 454.231
2437 0 72.0329 12.0223 866 47.276 828.427 453.811
2438 0 75.1758 12.0384 905 46.6541 828.832 452.147
2439 0 76.0733 12.1462 924 47.0714 828.433 451.164
2440 0 79.1249 13.3965 1060 45.4972 828.471 448.863
2441 0 81.1178 11.6867 948 47.7616 828.876 448.954
2442 0 83.0981 12.1423 1009 47.3409 828.655 447.254
2443 0 88.1019 12.3607 1089 47.1267 828.847 447.309
2444 0 89.0981 12.1215 1080 47.5352 828.537 446.465
2445 1 45.034 11.2804 508 48.9252 828.472 467.61
2446 0 47.0462 10.3515 487 50.6715 828.078 465.928
2447 0 48.0318 11.5549 555 49.3622 828.386 466.005
2448 0 48.0427 11.5522 555 50.3838 827.641 464.047
2449 0 53.0341 10.9552 581 50.4974 827.945 462.876
2450 0 53.0476 11.8761 630 49.727 828.725 462.46
2451 0 55.0456 11.2271 618 50.6537 828.693 461.222
2452 0 57.015 12.6984 724 49.2141 828.985 461.729
2453 0 57.03 12.3794 706 50.0906 828.357 459.904
2454 0 59.0512 12.3622 730 50.0575 828.781 458.641
2455 0 61.0523 12.0552 736 50.7201 828.254 457.303
2456 0 64.058 12.4887 800 50.085 828.339 456.96
2457 0 63.0488 12.3238 777 51.2407 828.629 455.936
2458 0 64.0918 11.78 755 52.5735 827.748 454.809
2459 0 68.049 12.6526 861 51.6028 827.905 455.05
2460 0 70.1111 12.1521 852 52.1937 828.412 453.031
2461 0 75.1244 12.5924 946 50.8214 827.81 453.198
2462 0 73.0364 12.5691 918 51.9532 828.134 451.038
2463 0 82.0792 12.9631 1064 50.1579 828.541 451.554
2464 1 42.0718 9.93539 418 53.7129 828.706 468.344
2465 0 41.0264 12.041 494 52.8826 828.174 468.409
2466 0 43.1128 11.5279 497 53.8773 828.137 467.819
2467 0 46.0383 12.0552 555 52.4757 827.726 467.121
2468 0 44.0392 12.9657 571 52.7128 827.986 467.238
2469 0 46.0434 12.4013 571 52.8914 828.412 466.336
2470 0 48.0575 12.4642 599 52.6077 828.371 465.646
2471 0 52.0865 11.8649 618 52.4191 828.629 466.176
2472 0 54.0525 12.2104 660 51.4379 828.791 463.985
2473 0 53.1093 12.6343 671 51.7914 828.729 463.404
2474 0 55.0628 12.8217 706 50.3244 829.615 462.885
2475 0 55.0628 12.8399 707 205.719 830.624 462.859
2476 0 58.0377 12.7676 741 50.4345 829.169 460.91
2477 0 63.0294 12.2165 770 50.2481 829.509 460.656
2478 0 62.0766 12.2913 763 50.7012 829.53 460.354
2479 0 64.1029 12.1211 777 50.5405 829.626 459.157
2480 0 68.098 12.1883 830 50.0205 829.916 458.154
2481 0 68.0356 11.9055 810 50.7642 829.272 456.177
2482 0 71.079 12.7323 905 49.6663 829.829 455.81
2483 0 73.094 12.3403 902 50.2306 829.86 455.232
2484 0 75.0988 12.9163 970 49.7093 829.837 454.316
2485 0 76.0751 13.1449 1000 49.381 830.478 452.017
2486 0 80.0347 12.8444 1028 49.4523 830.746 452.107
2487 0 84.0757 12.7147 1069 49.7381 830.011 450.493
2488 0 82.1025 13.1056 1076 50.0446 830.027 449.517
2489 0 90.0982 12.4087 1118 50.1458 830.046 449.002
2490 0 90.0956 12.7642 1150 50.0374 829.894 447.863
2491 0 93.0892 13.3098 1239 49.9169 830.01 446.76
2492 1 49.0469 11.9478 586 50.541 830.143 468.669
2493 0 50.054 11.6474 583 51.6964 829.187 466.727
2494 0 51.0352 12.2856 627 50.9936 829.262 467.973
2495 0 55.0955 12.0155 662 51.3505 828.639 465.512
2496 0 55.0937 11.8344 652 51.4248 829.934 464.799
2497 0 57.0458 12.937 738 50.2046 829.22 464.439
2498 0 57.0502 12.9886 741 50.6653 829.742 462.15
2499 0 63.0854 11.9203 752 50.8936 829.523 461.422
2500 0 65.1227 12.3152 802 50.788 829.692 461.388
2501 0 65.0602 11.743 764 52.1466 829.872 459.416
2502 0 69.0115 12.0849 834 51.4245 829.927 459.078
2503 0 69.0743 12.2622 847 52.0732 830.46 458.544
2504 0 73.1308 11.9512 874 52.6373 829.91 457.177
2505 0 77.0372 11.8644 914 52.4344 829.728 455.349
2506 0 77.0853 13.0894 1009 51.8741 829.748 455.103
2507 0 78.0537 12.5811 982 53.0784 829.49 451.334
2508 0 80.0911 12.1986 977 53.8762 829.538 451.161
2509 0 85.1505 12.2489 1043 53.0134 829.947 451.637
2510 1 45.0366 11.5906 522 53.8908 829.429 469.895
2511 0 47.052 11.2854 531 54.0847 829.467 469.185
2512 0 49.0347 11.5021 564 54.0018 829.241 468.505
2513 0 51.0294 10.7977 551 54.4809 829.753 467.276
2514 0 53.05 12.328 654 52.1743 829.768 468.486
2515 0 54.0428 11.898 643 53.0404 829.157 465.459
2516 0 56.0774 12.0726 677 52.5716 829.801 465.991
2517 0 58.0494 11.1457 647 54.0943 829.468 463.014
2518 0 58.0181 12.0997 702 53.3989 828.932 463.746
2519 0 61.0815 11.7548 718 53.5557 829.152 461.616
2520 0 63.1162 10.8055 682 54.8548 829.638 459.903
2521 0 67.0614 11.7653 789 53.2573 829.279 460.806
2522 0 72.1181 11.8833 857 52.2567 830.018 459.372
2523 0 71.1043 11.8699 844 53.3744 829.486 457.704
2524 0 75.0524 12.2981 923 52.8472 829.752 458.488
2525 0 76.0181 11.734 892 53.9641 829.82 456.391
2526 0 79.0365 12.2855 971 53.7549 828.955 456.333
2527 0 80.0689 11.9772 959 54.9958 828.984 453.189
2528 0 84.1246 11.9585 1006 54.4771 829.665 452.958
2529 1 45.0491 10.7216 483 55.9607 830.035 470.002
2530 0 46.0996 11.4318 527 56.1879 829.002 469.37
2531 0 48.0663 12.1083 582 54.6409 829.388 471.411
2532 0 48.031 11.2844 542 56.1015 829.557 468.434
2533 0 51.0661 11.8866 607 55.1631 829.247 467.285
2534 0 54.131 11.8047 639 54.2269 829.72 467.164
2535 0 57.0909 12.2787 701 53.0742 830.456 465.659
2536 0 56.1077 11.6918 656 54.2424 829.755 464.607
2537 0 60.0429 11.9081 715 53.5748 830.186 463.464
2538 0 61.0836 11.9672 731 53.6306 830.049 463.176
2539 0 65.0523 11.7444 764 53.1728 830.533 462.185
2540 0 63.0312 12.2638 773 53.304 830.18 460.67
2541 0 68.0739 12.6921 864 51.7905 830.251 460.927
2542 0 69.0487 12.7301 879 51.7702 829.935 460.736
2543 0 72.1899 11.5667 835 52.7928 830.125 457.925
2544 0 75.0676 12.0425 904 52.1538 829.1 457.271
2545 0 80.0625 11.9282 955 51.5278 829.919 455.489
2546 0 83.1408 12.0037 998 51.4719 829.686 455.086
2547 0 83.1341 13.0151 1082 50.963 829.894 454.423
2548 1 46.022 10.9295 503 51.835 830.217 473.557
2549 0 46.0823 10.6115 489 53.3333 830.654 470.736
2550 0 46.0492 11.5094 530 52.9962 829.989 470.396
2551 0 49.0248 11.382 558 53.4642 829.842 470.367
2552 0 53.1387 11.6111 617 52.5543 830.139 469.639
2553 0 53.0885 12.1119 643 52.8087 829.532 467.617
2554 0 55.0651 11.9495 658 52.8435 830 466.979
2555 0 59.0551 11.9549 706 52.4023 829.752 466.84
2556 0 60.025 12.1949 732 52.4194 830.066 466.134
2557 0 61.0166 11.5051 702 53.8291 830.037 464.809
2558 0 63.0639 11.6231 733 53.3233 829.874 462.025
2559 0 65.1517 11.2046 730 53.826 829.704 460.599
2560 0 67.0921 11.6407 781 53.525 828.996 461.096
2561 0 68.0299 12.1417 826 53.1078 829.166 460.358
2562 0 69.0834 12.4921 863 51.7961 830.05 459.313
2563 0 76.051 12.1366 923 50.9577 829.572 458.67
2564 0 76.057 12.5695 956 50.6789 829.512 457.052
2565 0 80.1095 12.6202 1011 49.9001 829.96 456.283
2566 0 80.1006 11.91 954 51.088 829.063 454.139
2567 0 83.0381 12.1992 1013 50.228 829.564 452.696
2568 0 86.0778 12.6513 1089 49.6905 829.379 453.754
2569 0 88.0572 11.4358 1007 50.9186 829.22 451.019
2570 0 91.0488 12.1693 1108 50.37 829.128 449.411
2571 0 97.1133 11.9345 1159 49.8404 828.996 447.671
2572 1 46.0233 10.4947 483 51.0663 829.778 472.097
2573 0 50.0334 10.5529 528 50.6818 828.875 471.134
2574 0 51.0305 11.4637 585 50.082 828.561 470.191
2575 0 51.0244 11.9943 612 49.8938 828.013 468.809
2576 0 56.0229 11.8344 663 48.5566 829.106 469.002
2577 0 58.0276 12.2356 710 47.5944 829.631 467.007
2578 0 58.056 12.6257 733 47.6794 828.929 466.686
2579 0 59.0232 11.3515 670 48.8 829.467 464.816
2580 0 59.0569 11.7514 694 48.2305 829.857 463.81
2581 0 63.0278 12.6135 795 46.6818 829.418 464.024
2582 0 65.128 11.654 759 47.7628 829.146 461.119
2583 0 69.1086 12.314 851 46.3737 829.047 461.546
2584 0 68.0757 12.633 860 46.4895 829.35 460.236
2585 0 70.1165 11.9515 838 46.9737 829.425 458.733
2586 0 73.2055 12.3898 907 46.1191 829.398 458.94
2587 0 77.173 12.5821 971 45.8074 828.418 458.272
2588 0 76.2419 12.3816 944 46.4206 828.69 455.744
2589 0 80.2364 12.538 1006 45.7932 828.9 455.741
2590 0 83.1814 13.3203 1108 45.0298 829.083 455.125
2591 0 85.1379 12.5091 1065 45.9793 829.555 452.466
2592 0 86.3147 13.0685 1128 45.5621 829.341 451.244
2593 0 88.1727 12.9065 1138 45.9692 829.598 450.061
2594 0 91.0495 12.3449 1124 46.5347 829.327 448.376
2595 1 47.0216 11.0162 518 47.4054 829.228 472.805
2596 0 47.0233 11.7601 553 47.7414 828.472 472.114
2597 0 48.0596 12.3597 594 46.8737 828.81 471.68
2598 0 52.0514 12.334 642 45.9969 829.364 471.132
2599 0 48.0196 12.5157 601 46.8669 829.394 469.434
2600 0 52.0705 12.8288 668 46.0674 828.638 468.843
2601 0 56.0541 11.7922 661 46.6021 828.675 466.395
2602 0 56.0552 12.1131 679 46.1988 829.267 464.071
2603 0 59.0496 12.0407 711 46.2658 828.847 464.636
2604 0 61.0555 12.8408 784 45.1722 828.556 463.565
2605 1 94.3968 11.6529 1100 40.5864 828.262 468.217
2606 1 66.1157 11.6916 773 46.5977 828.649 460.842
2607 0 66.1352 12.8373 849 46.0895 828.788 460.865
2608 0 70.0395 12.75 893 45.8522 829.113 459.653
2609 0 72.1406 12.24 883 46.59 828.785 457.426
2610 0 76.0514 12.8203 975 45.7764 829.205 457.022
2611 0 77.0734 12.3259 950 47.2011 828.593 456.084
2612 0 80.0931 12.86 1030 46.1942 829.134 454.321
2613 0 82.0626 11.479 942 48.2378 829.234 452.988
2614 1 43.0583 10.2884 443 50.465 828.289 471.382
2615 0 44.048 11.4421 504 49.5952 828.609 471.569
2616 0 49.0765 12.1035 594 49.0657 828.126 472.212
2617 0 46.0188 11.039 508 51.563 827.774 469.555
2618 0 51.0541 12.2027 623 49.5939 828.231 470.295
2619 0 55.0592 11.6057 639 49.5743 828.213 467.316
2620 0 54.0205 11.9029 643 50.3095 827.986 466.907
2621 0 57.0334 12.3962 707 49.7298 827.488 466.123
2622 0 62.0394 11.8795 737 49.0095 827.87 464.951
2623 0 62.0367 12.4281 771 49.2399 827.712 464.61
2624 0 61.0813 12.6225 771 49.7523 827.134 462.501
2625 0 66.0679 12.9866 858 48.1352 827.501 461.89
2626 0 67.0918 12.5052 839 48.4088 828.383 461.722
2627 0 68.0736 12.9419 881 47.958 829.478 460.536
2628 0 71.0455 12.7102 903 47.9468 829.316 460.013
2629 0 72.0354 12.9103 930 47.4892 829.939 456.925
2630 0 70.1586 11.1177 780 50.6846 829.364 453.712
2631 0 77.0516 12.2515 944 48.4841 828.721 455.716
2632 0 80.1713 12.8101 1027 47.7361 829.393 454.336
2633 0 83.0848 13.0349 1083 47.2678 829.112 453.905
2634 0 84.081 12.6664 1065 47.6413 829.029 451.771
2635 0 89.1188 12.1411 1082 47.8281 828.979 449.147
2636 0 91.1333 12.6737 1155 47.9801 828.68 447.039
2637 0 97.1255 12.3346 1198 47.7788 828.565 445.634
2638 0 100.127 12.7238 1274 47.325 829.023 445.034
2639 1 47.1137 11.0584 521 50.4415 828.608 465.846
2640 0 54.0389 11.4177 617 48.5964 828.284 465.961
2641 0 54.0627 11.7826 637 48.2684 829.097 464.911
2642 0 55.0352 12.2649 675 48.0444 829.271 464.554
2643 0 58.0125 11.9802 695 47.7453 829.97 463.643
2644 0 58.0552 11.5407 670 48.8493 830.198 462.078
2645 1 94.1095 11.2103 1055 42.1991 830.312 466.228
2646 1 65.0268 12.4564 810 47.0407 830.301 461.557
2647 0 65.0961 12.4892 813 47.2312 830.267 458.167
2648 0 69.0488 12.6577 874 46.746 829.67 458.816
2649 0 73.0947 11.9845 876 47.0788 830.44 457.662
2650 0 69.1572 11.9149 824 48.1056 830.813 455.709
2651 0 72.1268 11.8818 857 48.4119 830.079 453.169
2652 0 78.0955 11.8573 926 47.8488 829.83 453.722
2653 0 81.102 12.6261 1024 46.8516 830.516 452.433
2654 0 81.0308 12.1682 986 48.2789 829.568 450.634
2655 1 40.0413 9.61506 385 47.8052 829.836 470.597
2656 0 43.0235 9.15779 394 48.2386 830.53 469.756
2657 0 47.0117 10.4017 489 46.2597 830.274 470.325
2658 0 44.0449 10.8298 477 47.6562 830.023 467.776
2659 0 48.0918 11.7068 563 46.5471 829.602 470.393
2660 0 51.0181 10.5453 538 47.2565 830.058 468.171
2661 0 55.083 11.0379 608 46.9079 830.296 466.729
2662 0 53.0526 11.0079 584 48.8459 830.979 464.428
2663 0 55.0419 11.8455 652 47.7301 830.772 464.344
2664 0 61.1402 11.4491 700 47.7857 830.129 463.844
2665 0 60.0537 11.4564 688 48.189 829.892 463.725
2666 0 61.1627 11.4939 703 48.0683 829.767 462.949
2667 0 61.0434 9.97651 609 50.6798 829.652 459.862
2668 0 63.1477 10.7526 679 49.4875 829.951 459.417
2669 0 66.0787 11.3047 747 49.0549 829.276 459.308
2670 0 67.0801 10.9272 733 49.9959 828.237 457.439
2671 0 71.1017 10.7452 764 49.4594 829.691 456.514
2672 0 72.1672 11.8059 852 48.0317 829.602 456.935
2673 0 75.0838 11.0943 833 48.6555 829.108 455.106
2674 0 78.1944 11.5737 905 48.2055 829.662 454.032
2675 0 78.1402 11.8377 925 48.1449 829.463 453.279
2676 0 83.108 12.3334 1025 46.7902 829.098 454.107
2677 0 82.2856 10.8889 896 49.0379 828.444 451.757
2678 1 41.0569 10.5951 435 48.2345 829.407 473.182
2679 0 44.1423 11.1911 494 46.8644 829.755 473.403
2680 1 71.1596 8.90956 634 42.9495 829.863 476.921
2681 1 52.08 11.1559 581 46.253 829.392 470.127
2682 0 51.0844 11.1971 572 47.201 828.949 470.414
2683 0 50.0617 11.7855 590 47.1051 828.303 469.237
2684 0 50.0585 11.3068 566 48.3922 827.606 469.516
2685 0 52.0524 11.719 610 47.4213 828.369 469.057
2686 0 50.0522 10.2293 512 49.9199 828.932 465.9
2687 0 55.0812 11.7463 647 47.5394 828.06 467.325
2688 0 52.1064 10.5361 549 49.969 828.067 465.29
2689 0 57.0545 10.6565 608 48.9901 828.171 465.238
2690 0 58.1401 11.3175 658 48.7204 827.986 465.635
2691 0 59.1736 12.0324 712 47.9551 828.375 465.999
2692 0 60.2414 11.5867 698 48.3682 829.511 465.692
2693 0 64.1472 11.6451 747 48.1339 829.24 464.491
2694 0 65.115 12.2552 798 47.4073 829.447 463.904
2695 0 64.0594 11.5049 737 48.7408 828.995 461.231
2696 0 65.0476 10.9305 711 49.4219 828.796 460.262
2697 0 67.1259 11.322 760 49.2842 828.52 459.711
2698 0 73.0862 11.8627 867 47.9769 828.528 460.48
2699 0 75.1045 11.6105 872 48.055 829.015 459.181
2700 0 75.0841 11.6802 877 48.3432 829.366 458.01
2701 1 38.0546 10.5375 401 50.5436 829.008 475.404
2702 0 38.0759 11.5296 439 50.6196 828.941 474.608
2703 0 42.0048 12.1415 510 49.398 828.227 474.373
2704 0 42.0649 11.2445 473 50.888 828.3 472.199
2705 0 45.0115 11.0416 497 51.0946 828.27 471.63
2706 0 44.0215 12.1077 533 50.3246 828.113 471.651
2707 0 47.0326 12.3531 581 52.2806 828.062 471.215
2708 0 49.0117 11.2422 551 53.1742 828.065 469.793
2709 0 50.0551 12.0267 602 52.1329 827.552 468.752
2710 0 50.0171 12.4957 625 51.736 827.894 468.795
2711 0 52.0108 11.5553 601 52.3977 828.126 468.03
2712 0 52.1145 12.6069 657 51.0426 828.581 467.938
2713 0 53.0691 11.9467 634 52.1483 828.066 465.831
2714 0 55.0202 12.5772 692 50.922 828.363 464.925
2715 0 57.0956 13.1884 753 49.7756 828.224 464.537
2716 0 58.0297 13.3552 775 49.6245 827.908 463.391
2717 0 61.0489 13.4318 820 49.2671 827.402 463.462
2718 0 58.0717 11.5547 671 51.7645 827.753 459.112
2719 0 64.0441 12.1323 777 50.0837 827.655 460.4
2720 0 67.0754 12.1952 818 50.2274 827.55 459.559
2721 0 66.0597 12.9277 854 49.9239 827.652 458.054
2722 0 70.0632 13.1738 923 49.2351 828.358 457.103
2723 0 74.0988 13.0231 965 48.8902 828.304 456.626
2724 0 73.0576 12.6749 926 50.1555 828.365 455.597
2725 0 75.0528 12.9242 970 50.2124 828.315 454.431
2726 0 77.1169 12.5653 969 50.2642 828.691 452.953
2727 1 40.033 11.0909 444 52.3288 829.117 472.378
2728 0 40.07 12.004 481 52.5572 828.225 470.607
2729 0 44.0453 11.8287 521 52.3033 828.706 469.906
2730 0 45.0383 11.4569 516 53 828.231 469.205
2731 0 46.0425 11.4025 525 53.1867 829.196 468.253
2732 0 49.0243 11.8309 580 52.5569 829.026 468.369
2733 0 51.0573 13.5142 690 50.4101 828.375 468.842
2734 0 49.1015 11.4253 561 53.8556 828.56 465.203
2735 0 52.0247 13.0515 679 51.6436 828.744 466.694
2736 0 53.0507 12.8745 683 52.0278 829.085 465.01
2737 0 56.0287 12.8505 720 51.2806 828.826 464.861
2738 0 57.0348 13.0797 746 51.0603 828.95 463.618
2739 0 58.0405 12.6808 736 51.8288 828.568 462.321
2740 0 64.0306 12.822 821 50.5177 828.332 462.083
2741 0 61.1196 12.7455 779 51.6059 828.534 460.388
2742 0 65.0773 11.8474 771 52.6744 828.095 459.905
2743 0 66.0832 12.3178 814 51.9853 828.459 457.701
2744 0 70.0864 13.2408 928 50.7899 828.17 457.931
2745 0 72.2647 12.4957 903 52.4031 827.879 455.167
2746 0 75.0857 13.2515 995 51.2854 828.23 454.834
2747 0 76.1112 12.6788 965 52.1451 828.77 452.98
2748 0 79.0792 12.6582 1001 52.5115 828.674 451.973
2749 0 83.2337 13.372 1113 51.3747 828.107 452.72
2750 0 85.0736 12.7654 1086 52.1381 828.603 450.912
2751 0 86.0929 12.4633 1073 52.8062 828.588 447.869
2752 1 46.0587 11.1597 514 53.1576 828.556 469.805
2753 0 47.0218 11.2714 530 53.0491 828.889 469.647
2754 0 50.0331 11.7322 587 52.1738 828.52 468.075
2755 0 47.038 12.5005 588 52.7704 828.969 466.886
2756 0 51.0732 11.3954 582 53.5498 828.966 465.483
2757 0 52.0397 12.0293 626 53.4633 828.296 465.676
2758 0 56.1138 12.2964 690 52.2188 829.583 464.613
2759 0 57.0956 12.7681 729 51.5336 828.942 462.997
2760 0 55.0549 11.2797 621 54.6731 828.576 461.738
2761 0 62.1495 12.3734 769 52.4161 829.296 462.085
2762 0 62.2089 11.9758 745 53.7034 828.836 459.758
2763 0 64.0888 12.4983 801 53.5518 828.614 459.91
2764 0 64.1545 12.8284 823 54.068 828.46 459.067
2765 0 67.0542 12.736 854 54.2155 827.844 459.536
2766 0 71.079 12.4791 887 54.4025 827.874 458.578
2767 0 71.0966 12.4338 884 55.3959 828.32 456.949
2768 0 72.0874 12.6513 912 55.3092 828.683 455.061
2769 0 77.0535 13.1467 1013 54.0928 829.055 455.276
2770 0 78.0723 12.9623 1012 54.8557 829.424 452.636
2771 0 83.1436 11.7026 973 55.8613 828.979 451.063
2772 0 81.0342 12.0073 973 56.8541 829.144 449.69
2773 0 84.0675 12.3472 1038 56.3121 829.022 449.28
2774 0 87.0961 11.9523 1041 56.8194 829.277 447.633
2775 0 90.0537 11.5598 1041 57.0615 829.402 445.593
2776 1 51.0822 11.1585 570 56.4667 829.563 466.54
2777 0 51.0176 12.0351 614 56.114 829.223 466.371
2778 0 53.0572 11.629 617 56.6856 828.927 465.261
2779 0 56.058 11.613 651 55.917 828.555 463.774
2780 0 59.0435 11.9742 707 54.5389 828.819 462.993
2781 0 60.0451 11.8744 713 54.979 828.913 461.994
2782 0 61.1312 12.0888 739 54.7212 828.885 461.175
2783 0 62.0469 11.8942 738 55.4404 828.495 460.016
2784 0 63.0938 11.1897 706 56.7394 829.171 458.346
2785 0 67.0381 12.6048 845 54.6367 828.48 459.676
2786 0 67.0879 12.0886 811 55.6646 828.534 456.417
2787 0 70.0956 11.9266 836 55.6639 828.597 455.94
2788 0 72.0362 12.2022 879 55.0535 829.148 455.099
2789 0 75.0417 11.5403 866 55.3349 829.318 453.904
2790 0 76.027 11.2986 859 55.8056 829.169 452.221
2791 0 79.0953 12.2763 971 54.6457 829.096 450.496
2792 0 83.049 13.1489 1092 53.0998 828.564 451.612
2793 0 82.1227 12.5666 1032 54.906 829.158 448.752
2794 0 85.1948 12.7707 1088 54.3759 828.964 448.306
2795 0 90.1762 12.4312 1121 54.1213 828.939 447.396
2796 0 94.1408 12.3113 1159 53.7343 829.194 444.732
2797 1 49.0428 10.6234 521 54.1747 828.812 467.334
2798 0 49.0336 11.6043 569 53.536 828.796 466.49
2799 0 50.0365 11.9513 598 53.2558 828.972 467.04
2800 0 50.0609 11.8056 591 53.6531 828.751 464.766
2801 0 55.1358 11.9342 658 52.5562 828.839 463.848
2802 0 55.0371 12.7187 700 51.9629 829.331 463.644
2803 0 59.0602 12.0724 713 52.5863 829.241 463.073
2804 0 58.0929 11.2923 656 53.7683 828.852 461.058
2805 0 64.1311 11.6792 749 52.4139 829.043 461.397
2806 0 62.0424 11.7339 728 53.5797 828.644 459.547
2807 0 65.1189 11.3331 738 54.0339 828.909 458.005
2808 0 71.0732 11.8469 842 52.582 829.844 457.474
2809 0 69.1148 11.6328 804 54.3644 828.852 454.48
2810 0 73.0796 12.3564 903 53.8439 828.404 454.516
2811 0 77.171 12.1289 936 53.8355 829.171 452.674
2812 0 76.0886 12.0254 915 54.6699 829.145 450.481
2813 0 82.1078 13.2752 1090 52.5184 829.378 452.248
2814 0 84.0977 12.319 1036 54.5232 829.336 449.347
2815 0 88.0904 12.3055 1084 54.1937 829.208 448.593
2816 0 91.1935 12.2487 1117 54.4288 829.259 446.953
2817 0 92.1118 12.7454 1174 54.5366 829.101 445.236
2818 1 45.0197 11.0396 497 55.008 828.608 468.936
2819 0 48.0445 10.9274 525 54.8914 829.234 469.07
2820 0 48.0381 10.9913 528 55.4697 828.494 467.769
2821 0 50.0321 10.6532 533 55.4503 829.435 466.218
2822 0 50.0201 11.5554 578 54.974 829.924 466.448
2823 0 55.0256 10.7041 589 55.5501 829.548 464.934
2824 0 52.0569 11.7756 613 55.3426 829.553 465.15
2825 0 55.0322 11.1026 611 55.9607 829.484 463.26
2826 0 58.049 10.9907 638 55.7226 828.984 462.105
2827 0 62.0329 11.5906 719 54.3839 829.175 461.889
2828 0 62.0584 11.3764 706 55.0198 829.514 460.626
2829 0 63.0569 12.116 764 54.4149 829.185 459.584
2830 0 65.1252 11.7927 768 54.8529 828.857 458.397
2831 0 68.0704 12.1345 826 54.0206 829.332 457.119
2832 0 70.09 12.4269 871 54.039 829.522 455.736
2833 0 70.1251 12.0214 843 55.1945 829.666 454.533
2834 0 73.0347 11.652 851 55.1986 829.307 453.564
2835 0 76.0618 12.0823 919 54.951 829.066 452.701
2836 0 79.0678 11.4965 909 55.9978 828.866 450.256
2837 0 82.1481 12.2097 1003 54.8504 829.446 450.177
2838 0 84.1848 12.6032 1061 54.9915 829.136 449.704
2839 0 86.1551 12.0945 1042 55.6948 828.939 447.288
2840 1 45.0084 11.2646 507 56.1203 829.126 469.065
2841 0 49.073 10.9836 539 56.0649 829.07 467.295
2842 0 51.0642 11.0841 566 56.6254 828.926 466.125
2843 0 53.0255 11.3719 603 55.3085 829.038 465.768
2844 0 52.0847 11.7501 612 55.6961 828.886 464.482
2845 0 55.0577 11.6968 644 55.0994 828.961 464.415
2846 0 56.0555 11.8097 662 55.2356 828.846 463.388
2847 0 59.1127 11.605 686 55.1953 828.646 462.985
2848 0 61.0708 12.1335 741 54.2159 828.943 461.57
2849 0 61.1204 11.7964 721 56.982 827.932 460.209
2850 0 64.0612 12.0978 775 55.7445 828.744 459.874
2851 0 65.0553 12.4663 811 55.8619 828.356 459.867
2852 0 69.0741 11.7121 809 56.4536 828.409 457.472
2853 0 72.0739 11.7935 850 55.8612 828.756 456.168
2854 0 70.0956 11.684 819 57.4054 828.281 454.86
2855 0 74.1063 11.9153 883 56.3182 828.823 454.089
2856 0 76.1353 12.5041 952 55.9769 829.156 453.353
2857 0 77.2605 12.0631 932 56.5708 828.893 452.388
2858 0 81.0996 11.9606 970 56.4381 828.706 450.25
2859 0 82.0483 12.383 1016 56.8159 828.082 448.865
2860 0 87.1783 11.6657 1017 56.9902 828.637 448.141
2861 0 88.0934 12.3278 1086 56.7035 828.643 447.054
2862 0 93.2864 12.0382 1123 56.4942 828.622 445.913
2863 0 93.1489 12.625 1176 56.2364 828.71 444.632
2864 1 47.0456 10.8193 509 58.7918 828.585 465.263
2865 0 48.0374 11.1372 535 58.5832 828.071 465.551
2866 0 50.0237 10.1752 509 60.6562 827.972 463.623
2867 0 52.0479 11.0475 575 59.4644 828.096 462.609
2868 0 55.0577 11.824 651 58.3871 828.095 462.521
2869 0 56.0211 12.1204 679 57.7938 828.47 461.265
2870 0 61.1042 12.1759 744 56.4892 828.109 461.13
2871 0 59.1123 11.605 686 58.5714 827.949 459.223
2872 0 64.0432 11.9451 765 57.1634 828.124 459.401
2873 0 66.0954 11.9978 793 56.599 828.044 457.487
2874 0 67.0431 11.8282 793 57.6721 827.586 457.905
2875 0 67.0916 11.462 769 58.2926 827.887 455.304
2876 0 71.1301 12.3998 882 56.4138 828.717 455.426
2877 0 74.1157 11.7654 872 57.2672 828.452 454.961
2878 0 79.2091 12.0188 952 56.2784 828.088 454.282
2879 0 77.1432 12.0944 933 57.552 828.135 451.348
2880 0 83.1153 12.1277 1008 57.1151 828.239 449.914
2881 0 83.0769 12.2898 1021 57.7728 828.058 449.607
2882 0 85.1344 12.3687 1053 57.358 828.578 447.672
2883 1 45.0389 10.5242 474 58.4262 828.437 469.19
2884 0 44.1132 10.3824 458 60.5044 828.542 466.306
2885 0 49.0611 10.1099 496 60.3004 828.228 465.607
2886 0 49.101 11.3643 558 58.69 828.24 466.314
2887 0 50.0286 11.5334 577 58.9463 828.232 464.884
2888 0 54.0428 10.8988 589 58.6587 828.918 464.385
2889 0 52.101 11.5161 600 58.64 828.468 463.157
2890 0 57.0641 11.6536 665 56.803 829.197 463.125
2891 0 57.0763 12.2468 699 56.7797 828.667 461.292
2892 0 61.0792 11.395 696 57.2672 828.329 459.685
2893 0 61.0357 12.0749 737 56.7096 828.407 459.962
2894 0 62.1084 12.1401 754 55.9523 828.976 459.001
2895 0 65.0735 12.5704 818 55.3619 828.782 458.488
2896 0 65.1246 12.0999 788 55.9239 829.247 456.175
2897 0 67.2324 12.0924 813 56.2718 828.266 454.764
2898 0 69.1204 11.8778 821 56.5225 827.754 453.113
2899 0 74.135 13.0438 967 54.0796 828.339 454.865
2900 0 75.0884 12.9847 975 54.6195 827.946 452.044
2901 0 77.1332 12.6794 978 54.9397 827.767 450.735
2902 0 81.1221 12.475 1012 55.1581 828.159 450.783
2903 0 82.0705 13.135 1078 54.243 828.777 450.798
2904 0 85.1151 12.7474 1085 54.9438 828.285 447.959
2905 0 91.0691 12.3642 1126 55.0044 828.83 447.675
2906 0 88.0513 12.5495 1105 56.4643 827.965 444.906
2907 0 93.0629 13.0127 1211 55.5277 828.346 445.771
2908 1 45.0502 11.4317 515 59.132 828.845 464.854
2909 0 47.0898 12.7204 599 57.3589 828.908 465.79
2910 0 50.0991 12.2757 615 57.9496 829.018 465.278
2911 0 49.0612 12.78 627 57.8612 828.962 463.901
2912 0 51.0592 12.084 617 58.705 828.796 462.36
2913 0 51.0536 12.1441 620 59.3468 828.303 462.013
2914 0 56.0374 12.7593 715 57.0769 827.811 462.627
2915 0 56.1126 13.1878 740 56.5243 828.978 461.773
2916 0 61.0866 12.3268 753 56.5086 829.161 460.073
2917 0 60.0605 13.1201 788 56.1954 828.954 460.369
2918 0 62.097 12.6737 787 56.7954 828.513 457.464
2919 0 66.0625 13.1845 871 55.6602 828.396 459.473
2920 0 66.0783 12.9846 858 56.5653 827.825 456.993
2921 0 71.1097 13.4159 954 54.9654 828.276 456.318
2922 0 72.0956 13.5098 974 55.7136 828.26 455.149
2923 0 74.061 13.4484 996 56.0261 828.213 452.307
2924 0 75.0285 13.075 981 56.9297 827.948 451.16
2925 0 80.0962 13.8084 1106 55.1817 827.835 451.509
2926 0 81.0803 13.4065 1087 55.7847 828.52 450.189
2927 0 83.1073 13.9097 1156 55.5164 828.644 449.951
2928 0 87.1091 13.5348 1179 55.5768 828.572 448.273
2929 0 94.1438 13.2882 1251 54.9177 828.459 446.548
2930 0 95.0332 12.5746 1195 56.2837 828.844 444.425
2931 1 48.0188 11.5371 554 58.6931 828.504 465.756
2932 0 50.0297 11.1334 557 59.5332 828.785 463.544
2933 0 56.0302 12.0828 677 56.8848 828.725 463.366
2934 0 58.0756 12.5182 727 55.7703 829.025 463.908
2935 0 59.1039 12.0128 710 56.531 828.88 461.93
2936 0 58.0542 12.1266 704 56.5071 828.842 459.933
2937 0 61.0977 12.9137 789 55.1711 828.494 460.28
2938 0 65.1215 12.7454 830 54.9193 829.061 458.711
2939 0 67.0265 13.4872 904 53.969 828.414 458.226
2940 0 68.0322 13.1996 898 54.765 828.147 455.267
2941 0 67.0961 13.7713 924 55.1872 828.324 455.017
2942 0 72.1169 13.2563 956 54.7709 828.881 455.365
2943 0 72.0508 13.9346 1004 55.1335 827.895 454.936
2944 0 76.1744 12.6946 967 55.879 829.058 452.246
2945 0 76.1258 13.8061 1051 55.7165 828.602 451.073
2946 0 78.1146 13.8642 1083 56.2299 827.765 450.401
2947 0 81.1206 13.2519 1075 57.0186 827.609 448.485
2948 0 87.1248 13.452 1172 55.7747 828.676 448.199
2949 0 88.1183 13.6407 1202 56.3394 828.507 446.625
2950 0 90.1247 13.8586 1249 56.703 828.117 445.177
2951 0 93.1296 14.1953 1322 56.6868 827.4 444.083
2952 0 93.0672 13.5923 1265 57.8435 827.594 442.078
2953 0 97.1327 14.3206 1391 56.6139 828.441 441.228
2954 0 99.1135 13.1566 1304 58.2316 828.597 439.368
2955 0 104.122 13.465 1402 57.3003 828.906 439.121
2956 1 53.1593 11.3621 604 56.9884 828.97 464.338
2957 0 52.0833 11.6928 609 57.1987 829.33 463.591
2958 0 54.0556 11.8952 643 57.5723 828.676 462.865
2959 0 56.0136 12.5862 705 56.3943 828.627 463.759
2960 0 57.0373 12.8512 733 56.4557 828.768 462.907
2961 0 62.0592 12.0369 747 56.5047 828.616 462.683
2962 0 62.0292 12.8004 794 55.9068 829.156 459.879
2963 0 65.0891 11.4766 747 57.3521 828.806 458.506
2964 0 65.0154 12.6432 822 56.7141 828.174 457.95
2965 0 67.0353 12.6501 848 56.375 827.904 456.732
2966 0 71.0288 12.1078 860 56.6837 828.563 454.567
2967 0 72.0979 12.7882 922 56.2115 828.483 454.497
2968 0 75.0351 12.0477 904 57.3385 828.46 454.313
2969 0 77.0646 12.4441 959 56.6256 828.391 452.167
2970 0 80.0693 12.6016 1009 56.5937 828.502 453.016
2971 0 80.1121 12.4575 998 57.7655 828.446 450.685
2972 0 86.0803 13.2086 1137 55.6684 828.117 448.782
2973 0 87.0492 12.4757 1086 57.3296 828.836 448.065
2974 1 49.0814 10.5132 516 56.781 828.264 468.783
2975 0 48.0339 11.4711 551 56.3975 827.995 467.481
2976 0 49.0295 11.6256 570 56.4912 828.581 466.135
2977 0 51.0211 11.5835 591 56.2775 829.222 466.191
2978 0 55.0561 11.4247 629 56.0652 828.436 465.401
2979 0 56.0236 11.4416 641 56.4524 828.412 464.353
2980 0 56.0474 11.7401 658 56.8526 827.514 462.983
2981 0 59.022 11.9447 705 56.0752 828.241 461.851
2982 0 60.0399 12.092 726 56.084 827.525 461.101
2983 0 61.0829 12.0165 734 56.2357 827.677 460.025
2984 0 64.0413 11.7424 752 56.0971 827.263 458.485
2985 0 66.1154 12.0547 797 55.3952 827.581 458.991
2986 0 66.0354 11.7058 773 56.2342 828.089 457.784
2987 0 71.0555 12.5254 890 54.3079 827.481 457.001
2988 0 74.0445 11.9658 886 51.4368 827.783 454.823
2989 0 73.1486 11.7159 857 52.0292 827.203 453.441
2990 0 75.077 12.0943 908 51.0826 827.459 452.11
2991 0 78.0664 12.2716 958 50.7244 827.653 452.699
2992 0 78.124 10.9185 853 52.9554 827.6 449.872
2993 0 83.158 11.8329 984 51.3374 828.076 449.568
2994 0 85.0634 12.1439 1033 51.3882 827.673 449.777
2995 0 88.1448 12.1618 1072 51.4039 827.562 449.098
2996 0 90.0883 12.2102 1100 51.29 827.593 447.823
2997 1 46.0645 11.6142 535 52.6019 827.097 467.065
2998 0 48.0603 10.8822 523 53.392 827.201 465.673
2999 0 47.1062 11.3573 535 53.5346 827.437 466.488
3000 0 52.1307 10.9724 572 53.0734 827.504 466.458
3001 0 53.0747 11.6816 620 52.0726 827.311 465.648
3002 0 54.1229 11.4184 618 52.6699 827.176 465.495
3003 0 54.0534 11.7662 636 52.0755 827.668 464.325
3004 0 57.0859 11.8068 674 51.8101 827.548 462.978
3005 0 59.1011 11.1842 661 52.351 827.346 462.511
3006 0 58.0591 11.4194 663 52.6923 827.836 461.78
3007 0 62.1897 11.5292 717 51.5132 829.081 462.166
3008 0 65.0935 11.6909 761 50.7976 827.929 460.365
3009 0 64.188 11.6533 748 51.6243 827.981 458.852
3010 0 71.1126 11.6435 828 50.4408 827.906 458.281
3011 0 72.0974 11.4567 826 50.7107 828.092 457.538
3012 0 75.1433 11.2718 847 50.9067 828.135 456.59
3013 0 76.1131 12.0216 915 50.5366 827.596 454.784
3014 0 78.161 11.7578 919 50.3917 827.369 453.758
3015 0 83.2018 11.6224 967 50.7291 826.896 451.813
3016 0 84.1764 10.7869 908 51.6553 828.232 449.838
3017 1 41.0337 10.601 435 51.5816 828.122 471.828
3018 0 42.0868 10.0744 424 52.6533 827.731 469.946
3019 0 42.0423 11.3219 476 52.6029 827.445 469.179
3020 0 46.0673 11.2661 519 52.4624 827.042 469.347
3021 0 48.0796 11.0442 531 52.3503 827.493 468.638
3022 0 48.1136 11.2234 540 52.5389 827.593 468.439
3023 0 49.1323 11.1332 547 53.3163 827.455 468.411
3024 0 49.1018 11.6493 572 52.9598 827.477 468.357
3025 0 51.1538 11.006 563 53.8899 827.948 466.066
3026 0 53.0956 12.0161 638 52.5 828.309 466.072
3027 0 51.1551 11.4358 585 54.1368 827.017 464.802
3028 0 55.1108 11.7763 649 53.1202 827.27 464.991
3029 0 56.0487 11.6684 654 53.2263 827.174 462.94
3030 0 60.0734 11.4027 685 53.0832 827.185 462.512
3031 0 61.0855 12.8181 783 51.3167 826.741 462.84
3032 0 63.0619 12.0199 758 52.3021 826.67 461.48
3033 0 63.0956 12.4097 783 52.2925 826.845 460.769
3034 0 68.0839 12.1468 827 51.6034 827.014 459.93
3035 0 67.162 11.7477 789 52.5222 826.916 458.492
3036 0 69.1278 13.0483 902 51.1929 826.488 457.324
3037 0 72.1334 12.1026 873 52.1271 826.046 456.746
3038 0 75.0721 13.0008 976 50.3146 826.831 457.418
3039 0 76.0555 12.5435 954 51.1834 827.441 455.01
3040 0 78.0884 12.0761 943 51.8208 827.157 454.055
3041 0 81.1247 12.6718 1028 50.6741 826.521 453.764
3042 0 85.1099 12.4075 1056 50.5994 826.785 452.429
3043 0 87.1283 12.143 1058 51.1569 826.267 450.641
3044 0 90.0925 11.9988 1081 50.8871 827.098 448.038
3045 0 93.1343 12.3048 1146 50.3665 826.759 447.174
3046 1 45.105 12.5263 565 51.5133 827.18 468.662
3047 0 44.2234 12.3464 546 52.1685 826.901 468.381
3048 0 49.1025 12.2193 600 51.2333 826.588 467.437
3049 0 49.1207 12.5405 616 51.1526 826.778 467.373
3050 0 50.039 12.4303 622 51.4791 826.418 465.338
3051 0 51.2164 12.6913 650 51.1231 825.278 465.22
3052 0 54.0764 12.5193 677 50.387 826.694 464.007
3053 0 57.0838 12.6306 721 50.208 826.734 463.473
3054 0 60.12 12.8243 771 49.4475 826.572 463.296
3055 0 60.1012 12.479 750 49.82 826.551 461.207
3056 0 63.0489 12.07 761 50.021 827.585 461.121
3057 0 66.1531 12.4106 821 49.4872 826.935 460.32
3058 0 67.0822 12.358 829 49.5139 827.893 459.485
3059 0 70.1902 12.7083 892 49.1782 827.296 458.239
3060 0 70.2184 12.9453 909 49.198 827.221 456.09
3061 0 74.0773 12.676 939 49.8019 827.16 455.611
3062 1 38.0874 11.1585 425 53.0212 826.953 472.692
3063 0 39.018 11.3537 443 53.4989 827.156 471.695
3064 0 41.0553 11.789 484 53.6839 826.535 471.172
3065 0 41.0951 11.1449 458 54.8886 827.266 470.194
3066 0 45.0325 11.7693 530 53.5849 827.187 469.362
3067 0 48.0687 11.858 570 53.107 826.76 469.198
3068 0 49.052 11.3553 557 53.9497 826.481 467.697
3069 0 49.0704 12.0439 591 53.2386 826.545 467.102
3070 0 52.1162 12.2611 639 52.5211 826.709 466.532
3071 0 53.0374 12.3121 653 52.781 826.574 464.564
3072 0 55.0851 12.9436 713 52.0126 826.806 465.756
3073 0 56.084 12.4634 699 52.6352 827.062 464.422
3074 0 58.0518 12.8161 744 51.9126 827.648 462.478
3075 0 60.2098 13.0544 786 51.9517 826.807 462.824
3076 0 63.0754 12.2869 775 52.1471 827.323 460.681
3077 0 65.0529 12.6974 826 52.0375 826.655 461.094
3078 0 67.0653 12.9724 870 51.4586 827.16 459.503
3079 0 69.1068 12.6616 875 52.0286 827.289 457.811
3080 0 71.1252 13.2302 941 51.847 827.314 457.012
3081 0 73.0815 12.9855 949 51.6312 827.581 454.882
3082 0 77.2182 12.7302 983 51.5738 827.034 453.868
3083 0 83.1462 12.4119 1032 51.186 826.93 453.847
3084 0 83.204 12.896 1073 50.9394 827.231 452.28
3085 0 85.0998 12.6322 1075 51.4586 827.252 449.108
3086 0 90.1534 13.0222 1174 50.6295 827.003 448.882
3087 0 94.1948 13.6313 1284 49.7679 826.571 447.834
3088 1 45.0317 11.5696 521 53.1939 826.898 469.896
3089 0 49.0537 11.6811 573 52.6073 827.7 468.81
3090 0 51.0522 11.9877 612 52.1961 827.163 467.742
3091 0 54.2151 12.5242 679 51.3962 827.212 466.51
3092 0 55.2036 12.4992 690 51.042 826.559 466.767
3093 0 57.0885 12.1566 694 51.4164 826.646 466
3094 0 58.0573 13.0388 757 50.6156 827.507 464.416
3095 0 60.0817 12.8825 774 50.2235 827.381 463.95
3096 0 63.1006 13.1536 830 49.7036 827.54 463.704
3097 0 63.082 13.205 833 49.9196 827.175 460.559
3098 0 65.0588 13.5262 880 49.7011 827.635 460.6
3099 0 69.0541 12.6712 875 50.104 826.691 458.648
3100 0 71.1317 13.0462 928 49.6897 827.3 458.24
3101 0 73.1161 12.5417 917 49.7939 827.186 456.337
3102 0 74.1209 13.5319 1003 49.1087 827.786 455.001
3103 0 77.0987 13.4762 1039 49.6169 827.313 454.387
3104 0 81.0647 13.2363 1073 49.0447 828.079 452.511
3105 0 83.2478 14.2466 1186 48.2858 828.063 452.851
3106 0 86.1373 13.1999 1137 49.6236 827.617 449.926
3107 0 88.2305 13.5101 1192 49.5336 827.624 447.079
3108 0 90.1024 13.3293 1201 50.0508 827.379 445.776
3109 0 94.0895 13.8698 1305 49.6973 826.53 445.359
3110 0 94.0877 13.041 1227 50.9446 827.325 443.442
3111 1 48.2165 11.5521 557 52.86 827.661 469.018
3112 0 50.0757 11.8421 593 52.5818 827.472 467.956
3113 0 49.1166 12.847 631 52.4881 827.561 467.976
3114 0 51.0768 12.5106 639 52.7731 827.33 465.208
3115 0 54.0874 12.979 702 52.3291 827.18 465.429
3116 0 56.0472 12.8463 720 52.5639 827.262 464.538
3117 0 56.0914 12.854 721 53.0458 826.834 464.153
3118 0 62.0813 12.6608 786 51.9033 827.626 462.541
3119 0 63.1785 13.7547 869 51.0506 827.156 462.153
3120 0 63.1635 13.3305 842 52.4656 826.85 460.238
3121 0 64.1172 12.8515 824 52.7973 827.05 459.496
3122 0 69.0773 13.9264 962 51.2838 826.787 459.712
3123 0 73.0779 12.5346 916 52.4443 826.642 457.021
3124 0 74.1225 13.2753 984 52.0102 826.496 454.713
3125 0 75.1144 13.2598 996 52.3795 826.443 454.608
3126 0 80.1485 13.5623 1087 51.4333 827.276 452.481
3127 0 82.0554 13.1496 1079 51.81 827.037 452.117
3128 0 88.1187 12.9144 1138 51.5808 826.662 449.735
3129 0 87.2136 13.4956 1177 51.6703 826.436 449.654
3130 1 42.0465 11.1781 470 53.883 827.632 471.543
3131 0 46.0671 12.0259 554 52.1895 827.032 470.569
3132 0 45.08 12.0009 541 53.0924 826.769 470.39
3133 0 45.0305 12.1917 549 53.2605 826.561 470.279
3134 0 49.0748 12.5115 614 52.5668 826.065 468.261
3135 0 50.0808 12.1004 606 52.9637 826.124 468.389
3136 0 52.1135 12.492 651 52.3794 826.234 466.37
3137 0 57.0662 11.4779 655 53.1389 826.084 465.266
3138 0 53.0697 12.7568 677 52.647 826.468 463.849
3139 0 58.0244 12.3741 718 52.4513 826.655 464.634
3140 0 60.0885 12.6647 761 52.2365 826.887 462.687
3141 0 61.0977 12.701 776 52.0039 827.316 461.657
3142 0 64.1676 11.9842 769 52.7646 827.61 462.29
3143 0 65.1286 12.8361 836 52.4043 827.025 460.071
3144 0 67.1348 13.0633 877 52.3387 827.112 460.344
3145 0 68.1048 12.8332 874 53.1464 826.884 458.568
3146 0 74.0593 12.9086 956 52.8703 826.934 457.232
3147 0 75.0449 12.9123 969 53.3189 826.535 456.087
3148 0 78.1527 13.0642 1021 53.1459 827.352 455.137
3149 0 79.1024 12.389 980 54.2122 827.493 452.198
3150 0 81.1448 12.6564 1027 53.777 827.663 452.227
3151 0 85.1287 13.4972 1149 52.9678 827.359 451.108
3152 0 86.0582 12.8401 1105 53.9176 827.787 449.742
3153 0 90.0966 12.6087 1136 54.1576 827.324 446.771
3154 0 91.1184 13.7513 1253 53.5291 826.554 445.927
3155 0 94.085 12.9138 1215 54.3728 826.954 443.65
3156 1 50.0443 11.1301 557 56.1526 827.214 464.09
3157 0 54.0858 11.3339 613 55.9804 827.502 465.781
3158 0 56.0357 11.921 668 55.2111 827.43 463.783
3159 0 56.0952 11.6588 654 56.0719 826.913 462.209
3160 0 55.0385 12.4458 685 55.7401 827.019 462.134
3161 0 59.1018 12.047 712 56.111 826.416 460.501
3162 0 62.0807 12.0811 750 55.832 826.547 458.575
3163 0 67.1134 12.5459 842 54.3599 827.393 458.924
3164 0 66.1178 12.5987 833 55.3121 827.499 456.445
3165 0 69.1986 12.1968 844 55.6682 827.751 455.448
3166 0 72.0616 11.74 846 56.286 827.279 453.288
3167 0 74.0911 12.7681 946 54.9767 827.309 453.402
3168 0 76.1718 13.2201 1007 55.0109 826.804 451.898
3169 0 78.1149 12.4816 975 55.9867 827.195 449.559
3170 0 79.1468 12.5589 994 55.6378 828.082 448.649
3171 0 83.0932 12.6725 1053 55.661 827.896 448.377
3172 0 88.061 11.8554 1044 56.3602 827.834 446.502
3173 0 90.1013 12.3306 1111 56.0441 827.326 443.468
3174 0 95.2155 12.1514 1157 55.5436 827.563 443.679
3175 1 53.0336 11.2004 594 56.8552 827.429 463.409
3176 0 56.0647 12.0397 675 55.7289 827.462 461.862
3177 0 55.0322 11.9203 656 56.4177 828.369 461.566
3178 0 58.0496 12.8855 748 54.885 827.856 459.933
3179 0 60.0314 11.9104 715 55.758 828.617 459.053
3180 0 62.1187 12.6854 788 54.7843 828.734 458.34
3181 0 65.0457 12.0992 787 55.4308 828.186 457.093
3182 0 65.1045 12.5491 817 55.4088 828.532 454.942
3183 0 70.0994 12.9102 905 54.1315 828.82 453.872
3184 0 72.1121 12.0368 868 55.3134 828.325 451.96
3185 0 75.1476 12.695 954 54.6394 828.225 450.55
3186 0 79.1078 12.8559 1017 53.9036 828.063 449.887
3187 0 79.0983 13.439 1063 53.3349 828.792 449.157
3188 0 82.0719 13.3054 1092 53.2555 829.225 447.912
3189 0 85.1143 13.5935 1157 52.6932 829.387 446.47
3190 0 89.1066 13.4446 1198 52.7955 828.232 444.436
3191 0 92.1431 12.3829 1141 53.9097 828.727 443.534
3192 1 47.0148 10.6562 501 55.4112 828.112 464.942
3193 0 48.0093 11.4978 552 54.5344 828.544 464.589
3194 0 50.0409 11.9502 598 53.6321 828.697 464.226
3195 0 53.0404 11.2556 597 54.4288 828.732 462.219
3196 0 53.0325 12.1812 646 53.8034 829.02 462.611
3197 0 56.0627 12.0936 678 53.7198 828.311 460.763
3198 0 58.0696 11.8995 691 53.6426 828.489 459.573
3199 0 58.0594 13.1589 764 52.394 829.221 458.902
3200 0 62.1 12.3188 765 52.8863 829.38 458.873
3201 0 63.0626 12.1784 768 53.4219 828.312 456.516
3202 0 64.1316 12.4276 797 53.3438 828.636 456.088
3203 0 64.0308 12.9157 827 53.6143 828.931 454.44
3204 0 71.0847 12.7032 903 52.5404 828.487 453.705
3205 0 71.1388 13.6775 973 51.7338 829.034 453.413
3206 0 73.0404 12.938 945 53.0444 828.878 451.311
3207 0 75.0975 13.3826 1005 52.6816 828.668 450.183
3208 0 79.0219 13.2622 1048 52.7071 829.294 449.929
3209 0 79.0463 12.6255 998 54.1673 829.108 445.718
3210 0 82.078 13.4872 1107 53.5321 828.728 446.441
3211 0 86.0901 12.9283 1113 53.9784 828.609 445.8
3212 0 91.0811 12.4724 1136 54.3477 828.919 442.751
3213 0 93.044 13.3485 1242 53.2754 829.412 442.522
3214 0 91.0794 12.7471 1161 55.3876 828.846 440.574
3215 0 96.0918 13.3726 1285 54.393 828.612 439.64
3216 0 100.035 12.4756 1248 55.2308 829.108 437.857
3217 1 50.1093 10.9161 547 56.4479 828.598 464.499
3218 0 49.0301 11.911 584 56.4452 828.8 464.539
3219 0 53.0422 11.5946 615 56.0032 829.294 462.515
3220 0 55.082 11.8187 651 55.9432 828.997 463.627
3221 0 56.0285 11.9939 672 55.7083 829.345 460.811
3222 0 58.0308 11.1148 645 56.8326 828.901 459.51
3223 0 60.07 12.1192 728 55.6648 828.63 460.699
3224 0 64.0204 12.4492 797 54.0966 829.938 460.365
3225 0 64.0416 12.6168 808 54.3441 829.312 458.723
3226 0 66.0742 12.38 818 54.769 828.901 457.306
3227 0 66.0393 12.2806 811 55.6831 828.132 456.355
3228 0 69.1202 12.8327 887 54.1883 828.715 456.2
3229 0 69.0442 12.5716 868 55.2753 829.028 454.946
3230 0 74.0212 13.5637 1004 53.3596 829.126 454.213
3231 0 79.0777 12.5067 989 54.3114 828.831 453.475
3232 0 79.0745 13.1016 1036 53.8919 829.155 452.668
3233 0 81.0808 12.5184 1015 55.5665 828.741 451.019
3234 0 82.0243 12.9718 1064 55.7556 829.099 450.106
3235 0 85.0496 13.1218 1116 55.8665 828.858 448.675
3236 0 91.0834 12.527 1141 56.4829 828.538 447.68
3237 0 89.1201 12.7917 1140 57.3018 828.053 446.746
3238 0 93.1955 12.8976 1202 56.6306 828.346 445.821
3239 0 96.169 13.2787 1277 56.0055 828.261 444.16
3240 1 53.0552 11.177 593 57.0725 828.137 466.228
3241 0 52.0337 11.089 577 57.948 828.064 465.085
3242 0 57.0289 11.6257 663 56.5867 828.43 464.857
3243 0 57.0542 11.4102 651 57.7512 828.426 463.35
3244 0 57.1571 11.7396 671 57.2086 828.258 463.125
3245 0 59.0459 12.0923 714 56.3207 828.254 461.115
3246 0 61.0419 11.6969 714 56.2479 828.277 460.364
3247 0 65.0904 12.9666 844 54.4538 827.366 461.024
3248 0 69.0716 12.4364 859 54.1141 827.15 460.02
3249 0 68.108 12.7445 868 54.144 827.225 457.679
3250 0 71.1668 12.4356 885 54.1028 827.649 456.519
3251 0 74.0899 12.6873 940 52.6553 827.669 455.047
3252 0 76.0598 12.7268 968 53.1343 827.314 453.395
3253 0 75.029 11.9021 893 54.5689 827.035 451.077
3254 0 80.0901 12.5109 1002 52.999 827.436 451.465
3255 0 83.0612 12.9663 1077 52.454 827.538 451.086
3256 0 87.0486 12.5792 1095 52.5215 827.648 448.519
3257 0 87.0645 13.3694 1164 52.3978 827.247 447.764
3258 0 91.1537 12.8355 1170 52.6624 827.281 446.083
3259 1 49.0707 10.2913 505 54.5109 827.075 466.931
3260 0 51.271 10.8053 554 53.6588 827.495 465.032
3261 0 54.1899 10.9614 594 53.1852 827.047 465.141
3262 0 53.0808 12.3774 657 52.1507 827.54 463.965
3263 0 54.1204 12.3059 666 52.2898 828.269 463.685
3264 0 58.1371 12.1781 708 51.678 827.845 461.99
3265 0 60.1374 12.2386 736 51.1712 828.569 461.125
3266 0 63.1132 12.6598 799 50.5219 827.825 460.095
3267 0 61.1406 11.6289 711 52.2644 828.494 457.714
3268 0 67.0649 12.719 853 50.5018 827.773 456.863
3269 0 67.1775 12.3553 830 50.9193 828.587 455.4
3270 0 69.1216 12.3406 853 51.1501 828.499 454.782
3271 0 70.18 12.2684 861 51.3624 829.098 452.782
3272 0 73.1834 12.3389 903 51.5615 828.592 453.492
3273 0 74.0537 12.626 935 51.2417 828.487 451.295
3274 0 78.0711 12.463 973 51.2765 828.534 449.645
3275 0 81.0831 13.073 1060 50.8726 828.036 448.809
3276 0 84.1294 12.5045 1052 51.4762 828.301 446.598
3277 0 85.056 12.8856 1096 51.6469 828.618 445.588
3278 0 89.0436 12.8027 1140 51.6342 829.096 443.942
3279 0 95.1179 12.658 1204 51.6096 828.664 444.604
3280 0 94.0556 12.8116 1205 52.5884 829.185 441.614
3281 1 52.0668 11.1587 581 54.1876 828.589 464.583
3282 0 51.1311 10.4829 536 56.681 827.927 463.093
3283 0 56.0252 11.3699 637 54.7535 828.38 462.207
3284 0 57.0933 12.2256 698 54.404 828.742 461.656
3285 0 58.0458 11.9733 695 55.1381 829.219 459.528
3286 0 60.1502 12.7847 769 54.3394 828.87 459.874
3287 0 65.0542 12.1437 790 54.5405 828.854 458.584
3288 0 63.0829 12.222 771 55.2503 828.502 456.936
3289 0 66.0885 12.5741 831 54.5235 828.337 457.434
3290 0 67.1208 12.6041 846 54.5886 829.056 456.837
3291 0 69.0555 12.5117 864 54.6458 828.418 455.08
3292 0 71.1482 12.1718 866 55.0624 828.861 454.764
3293 0 73.0959 12.6546 925 54.3232 829.212 453.714
3294 0 75.109 13.1675 989 53.5834 829.933 452.39
3295 0 79.0949 13.4522 1064 53.0696 829.153 451.325
3296 0 81.0628 13.4217 1088 53.1691 828.44 450.496
3297 0 85.0549 13.2855 1130 52.3867 829.53 449.596
3298 0 88.0474 12.9816 1143 53.091 828.349 447.654
3299 0 89.1366 13.4961 1203 52.8504 828.078 446.278
3300 0 94.126 14.0769 1325 51.3826 828.555 443.918
3301 0 95.1278 12.4885 1188 53.4823 828.808 442.676
3302 0 98.1875 13.2502 1301 52.2875 828.939 442.757
3303 1 52.0708 10.697 557 54.6822 827.993 466.136
3304 0 49.0474 10.6224 521 55.5854 827.883 464.144
3305 0 55.0428 11.1368 613 53.4731 827.292 464.858
3306 0 56.0232 12.0307 674 52.0831 828.11 464.237
3307 0 58.1012 12.048 700 52.2286 827.843 463.506
3308 0 62.0145 11.6263 721 51.6838 828.014 462.017
3309 0 65.091 12.1829 793 51.4313 828.455 461.982
3310 0 66.1124 12.2972 813 50.8364 828.288 461.063
3311 0 66.12 11.4035 754 51.9085 828.137 457.609
3312 0 69.0792 12.9272 893 49.6383 828.713 459.513
3313 0 69.0694 13.0593 902 50.1319 828.042 458.044
3314 0 71.0554 12.5254 890 50.3719 827.989 456.921
3315 0 78.0503 13.1069 1023 48.6197 828.124 455.849
3316 0 78.0787 12.5386 979 50.1144 827.062 452.446
3317 0 81.1177 12.6729 1028 49.6722 827.386 452.199
3318 0 82.0358 13.2869 1090 49.1688 828.033 450.645
3319 0 88.0974 12.611 1111 49.7012 827.079 450.3
3320 0 87.0995 11.9863 1044 51.387 827.296 447.102
3321 0 90.0848 12.788 1152 50.6484 827.005 446.068
3322 0 97.0938 12.6064 1224 50.3521 827.38 445.198
3323 0 98.0953 12.6 1236 50.8738 827.692 444.824
3324 0 100.12 12.3452 1236 51.4264 826.917 443.544
3325 0 101.087 12.7415 1288 51.5047 827.03 441.63
3326 1 53.1223 12.01 638 52.4232 826.657 465.447
3327 0 55.0295 12.1571 669 52.4694 826.405 463.338
3328 0 58.0758 12.5009 726 51.7714 826.809 462.435
3329 0 57.052 12.7252 726 52.0193 826.737 461.069
3330 0 62.1597 12.1622 756 51.709 826.302 459.751
3331 0 66.0538 12.1113 800 51.4275 826.03 457.746
3332 0 64.0793 10.7211 687 53.7176 827.285 454.09
3333 0 69.1356 12.5984 871 50.4925 826.235 455.767
3334 0 67.0647 12.1823 817 51.9682 826.422 453.836
3335 0 73.1125 12.0226 879 51.5063 826.741 452.354
3336 0 73.1295 12.5941 921 51.6482 826.497 450.438
3337 0 75.0935 12.1449 912 51.8794 825.796 448.357
3338 0 78.0933 13.3174 1040 50.9788 825.957 449.207
3339 0 82.0982 13.8127 1134 49.8545 826.62 448.803
3340 0 85.1247 12.8517 1094 50.9872 826.809 447.387
3341 0 88.0804 12.6475 1114 51.5907 826.935 446.447
3342 0 92.2112 12.916 1191 51.3098 826.622 444.718
3343 0 92.1575 13.4769 1242 51.2939 826.537 442.875
3344 0 100.124 13.3434 1336 50.8174 826.704 441.548
3345 0 101.145 13.4658 1362 51.1894 827.11 440.239
3346 1 52.0951 11.2678 587 53.9216 826.947 462.84
3347 0 53.0604 11.4209 606 53.8135 827.112 462.272
3348 0 54.0967 11.2207 607 54.7562 826.677 459.932
3349 0 58.1307 11.4569 666 53.7042 826.953 460.249
3350 0 59.1032 12.6728 749 52.215 827.28 460.246
3351 0 63.094 13.0123 821 51.402 827.452 459.389
3352 0 66.0943 12.6788 838 51.6862 827.232 458.84
3353 0 65.0861 13.1211 854 51.3501 827.653 457.404
3354 0 70.2648 12.7945 899 50.8643 827.57 456.313
3355 0 69.1423 12.872 890 51.3933 827.507 454.185
3356 0 70.1763 13.2096 927 51.2956 827.522 454.315
3357 0 75.0987 14.0881 1058 49.3677 827.418 455.233
3358 0 79.1594 12.7212 1007 50.8044 827.087 451.474
3359 0 81.2994 13.7393 1117 49.3492 827.953 452.094
3360 0 83.1122 14.1014 1172 49.1596 827.827 450.588
3361 0 84.2088 12.7659 1075 51.426 827.434 447.207
3362 0 89.0981 12.6826 1130 50.9796 828.212 446.783
3363 0 93.1581 13.5039 1258 49.6025 828.133 446.559
3364 0 95.0828 13.5882 1292 49.781 827.953 445.45
3365 0 95.0819 14.0195 1333 50.1635 827.471 444.718
3366 0 99.1302 13.3057 1319 50.79 827.34 441.84
3367 0 101.139 13.9511 1411 50.1843 827.681 441.621
3368 0 104.104 14.0244 1460 50.4589 826.897 439.773
3369 0 111.124 13.9754 1553 49.8313 826.388 438.981
3370 0 114.098 13.9792 1595 49.7944 826.947 437.524
3371 1 59.0502 12.1422 717 52.198 826.717 462.131
3372 0 61.1106 11.9619 731 53.4692 826.285 460.74
3373 0 63.058 12.433 784 53.0204 826.045 459.85
3374 0 64.1431 12.971 832 52.3666 826.52 460.201
3375 0 67.0526 13.0793 877 52.244 826.598 459.075
3376 0 70.0751 13.0431 914 52.5077 826.289 457.128
3377 0 70.1674 12.9975 912 52.5088 826.787 456.514
3378 0 73.0499 13.0869 956 52.2301 826.413 456.666
3379 0 76.0922 13.6545 1039 51.2974 826.766 455.104
3380 0 76.0909 13.3525 1016 52.3071 826.518 453.173
3381 0 83.0893 13.3712 1111 51.0999 827.11 453.325
3382 0 83.1159 13.403 1114 51.509 827.628 451.081
3383 0 85.1263 13.7208 1168 51.6259 826.652 450.357
3384 0 89.0804 14.1894 1264 50.8663 826.92 449.073
3385 0 90.0834 13.7983 1243 51.5165 826.722 447.4
3386 0 95.0646 13.4856 1282 51.7512 826.634 447.273
3387 0 98.0701 13.9084 1364 51.5953 826.246 444.357
3388 0 98.0296 13.853 1358 51.919 825.691 442.435
3389 0 104.214 13.7121 1429 51.4948 826.561 440.953
3390 0 105.107 14.138 1486 50.9771 827.053 440.201
3391 0 109.042 13.5086 1473 51.4739 827.47 437.811
3392 0 116.081 14.7397 1711 49.2478 827.332 437.06
3393 0 117.146 13.5899 1592 50.6998 827.19 434.81
3394 0 121.288 13.637 1654 50.4976 827.838 434.105
3395 0 123.216 13.7077 1689 50.4713 827.514 430.798
3396 0 131.157 13.7698 1806 49.9186 827.324 429.901
3397 0 133.27 14.3543 1913 49.172 828.286 428.007
3398 1 75.0465 12.3923 930 50.1688 827.33 455.158
3399 0 75.0745 12.8006 961 50.411 826.968 453.011
3400 0 79.1246 13.4219 1062 48.935 826.363 454.34
3401 0 78.0654 12.9122 1008 50.9137 825.791 451.515
3402 0 82.1076 13.4579 1105 49.8081 827.153 451.118
3403 0 85.15 13.1063 1116 50.155 826.805 450.209
3404 0 85.0908 13.0919 1114 50.9865 826.425 448.909
3405 0 91.1524 13.5268 1233 49.6529 827.762 448.259
3406 0 94.2922 13.6703 1289 49.526 827.714 446.479
3407 0 98.1224 13.3303 1308 50.0719 827.528 444.905
3408 0 101.125 13.9036 1406 49.3563 827.371 444.791
3409 0 101.225 13.3267 1349 50.7717 827.421 441.338
3410 0 106.07 13.7362 1457 49.9108 827.152 440.572
3411 0 111.194 13.8227 1537 49.7794 827.039 437.56
3412 0 108.174 13.0438 1411 51.7959 826.227 434.138
3413 0 117.179 14.5163 1701 48.7984 826.71 434.907
3414 0 119.241 14.5671 1737 48.8411 827.052 434.922
3415 0 122.188 14.224 1738 49.622 826.222 431.529
3416 0 127.25 13.4224 1708 49.839 826.173 428.338
3417 1 68.1132 10.4972 715 49.2084 825.978 457.846
3418 0 69.103 11.6348 804 47.8396 826.694 457.313
3419 0 73.0882 11.6845 854 47.9637 826.847 456.514
3420 0 74.0455 12.1952 903 47.9535 826.663 456.505
3421 0 74.1599 11.9202 884 48.5724 826.174 453.445
3422 0 76.0727 12.4881 950 48.2768 826.73 450.833
3423 0 83.0589 12.9547 1076 46.921 826.808 452.38
3424 0 82.1363 12.1018 994 48.7726 826.882 449.24
3425 1 109.357 13.5519 1482 42.3259 827.287 453.532
3426 1 88.1399 12.3667 1090 48.4761 826.935 445.568
3427 0 91.2485 13.2605 1210 47.0223 827.228 445.468
3428 0 92.1794 12.5625 1158 48.2832 827.571 443.228
3429 0 97.0986 12.9868 1261 46.8763 828.906 443.065
3430 0 100.092 12.3186 1233 48.3317 827.56 441.025
3431 0 104.143 12.0123 1251 48.466 827.301 440.193
3432 0 104.177 12.6035 1313 47.8401 827.582 438.473
3433 0 107.216 12.666 1358 47.8895 828.025 436.191
3434 0 111.115 12.5275 1392 47.6703 827.589 434.541
3435 0 117.238 13.4343 1575 46.139 827.13 434.307
3436 1 103.886 10.9254 1135 38.3225 829.108 464.878
3437 1 72.0807 11.1403 803 44.6899 828.037 456.2
3438 0 71.0973 10.6896 760 44.8092 827.475 456.133
3439 0 71.1893 10.5072 748 44.8449 827.17 456.201
3440 0 70.126 11.1513 782 44.3248 828.17 456.737
3441 0 74.1431 11.1946 830 43.8024 828.684 457.157
3442 0 75.0965 12.1843 915 43.1869 828.411 456.337
3443 0 73.1007 10.0683 736 45.6807 828.501 453.698
3444 0 82.1067 11.8504 973 43.5745 828.309 453.692
3445 0 85.1034 11.8209 1006 43.1968 827.854 451.45
3446 1 202.966 13.6821 2777 39.632 827.06 429.153
3447 1 89.0618 11.8682 1057 43.6547 827.757 448.658
3448 0 91.1814 11.8884 1084 43.6061 828.486 447.328
3449 0 91.0596 11.7396 1069 44.3255 827.91 445.923
3450 0 94.0905 12.2223 1150 44.0261 827.722 444.604
3451 0 96.1679 11.5215 1108 45.1661 827.777 444.762
3452 0 99.09 12.4029 1229 44.4239 827.185 443.084
3453 0 104.223 11.9167 1242 44.9831 827.41 442.54
3454 0 105.234 11.5647 1217 45.4273 828.183 439.826
3455 0 107.088 12.0182 1287 45.2354 827.945 438.737
3456 0 111.155 12.397 1378 44.9797 827.34 436.916
3457 0 117.246 12.6316 1481 44.472 826.677 437.038
3458 0 116.093 11.3013 1312 46.3049 826.564 432.93
3459 1 93.2884 11.2447 1049 38.4528 826.717 464.817
3460 1 70.0606 11.433 801 42.4419 826.881 460.236
3461 0 71.1591 10.877 774 43.5401 826.451 457.22
3462 0 71.0938 11.5903 824 43.0425 826.558 456.973
3463 0 74.0272 11.3067 837 43.6882 826.148 455.707
3464 0 76.1942 11.5888 883 43.2877 826.35 454.497
3465 0 81.2794 12.1064 984 42.8191 826.32 453.036
3466 0 81.2373 12.2604 996 43.1245 826.167 452.564
3467 0 84.2224 12.8469 1082 42.8632 825.879 450.25
3468 0 87.2143 12.1081 1056 43.2585 826.545 447.909
3469 0 91.1758 12.262 1118 43.0402 826.66 447.617
3470 0 91.1998 12.6426 1153 42.9055 826.907 447.554
3471 0 93.1751 12.0633 1124 43.8746 826.704 445.267
3472 0 98.1635 13.1719 1293 42.3937 826.224 444.432
3473 0 103.158 12.9219 1333 42.1403 827.043 443.212
3474 0 106.175 11.8107 1254 43.4179 827.311 440.693
3475 0 105.098 12.6073 1325 43.1766 827.153 439.286
3476 0 113.107 12.6959 1436 42.5752 827.17 438.884
3477 0 114.109 11.857 1353 44.0466 826.711 434.821
3478 1 63.0468 10.8174 682 43.5982 826.713 460.584
3479 0 62.0245 10.5442 654 44.1804 826.771 459.434
3480 0 69.0315 11.9221 823 42.5516 826.567 459.868
3481 1 97.308 12.9691 1262 37.2892 826.518 462.34
3482 1 76.0281 11.5352 877 42.8483 826.828 455.838
3483 0 75.0229 11.0766 831 43.5548 826.981 454.813
3484 0 77.0251 12.2038 940 42.2223 827.076 455.983
3485 0 78.026 12.4061 968 42.4215 826.246 455.089
3486 0 81.0445 12.2895 996 42.6637 826.113 454.245
3487 0 80.0382 11.5945 928 44.5323 825.9 449.192
3488 0 83.0385 12.8133 1064 44.7105 826.084 450.004
3489 0 87.1211 12.3506 1076 45.6636 826.111 446.902
3490 0 87.0716 12.7022 1106 45.9322 826.473 447.121
3491 0 93.0623 12.6152 1174 45.8833 826.317 447.375
3492 0 94.1557 13.0422 1228 46.2647 826.927 446.269
3493 0 96.0861 12.9155 1241 47.1467 825.527 444.715
3494 0 95.0422 13.3309 1267 47.5541 825.854 443.018
3495 0 102.142 13.4617 1375 47.1644 825.774 441.7
3496 0 104.172 13.0554 1360 47.9676 824.387 440.412
3497 0 105.088 13.7313 1443 47.7956 825.514 440.942
3498 0 109.067 13.973 1524 47.6168 826.4 438.203
3499 0 111.162 13.3679 1486 47.9233 826.911 436.183
3500 0 114.146 14.0434 1603 47.6918 826.201 435.722
3501 1 60.0989 11.7639 707 46.7058 825.462 463.218
3502 0 60.0163 11.2969 678 48.1549 825.729 461.715
3503 0 63.0864 11.936 753 47.1527 825.695 460.562
3504 0 64.0746 11.8612 760 47.3908 826.41 460.539
3505 0 69.0831 12.0145 830 46.6325 826.39 460.477
3506 0 66.0466 11.825 781 48.1959 825.654 458.2
3507 0 71.1022 11.7577 836 47.927 824.909 456.98
3508 0 68.1095 12.5827 857 47.9417 824.964 455.774
3509 0 73.0912 11.5609 845 48.7976 825.741 454.387
3510 0 74.0619 12.5436 929 48.0624 825.892 453.102
3511 0 78.0782 12.6284 986 47.6947 825.896 452.946
3512 0 79.063 12.939 1023 47.6061 825.451 452.375
3513 0 82.0443 12.737 1045 48.1311 825.371 450.865
3514 0 86.0712 13.117 1129 47.2808 825.745 451.28
3515 0 84.0199 12.7946 1075 48.7033 826.226 447.628
3516 0 90.034 13.0062 1171 47.9155 826.092 447.013
3517 0 94.0573 13.3004 1251 47.5875 825.958 446.408
3518 0 93.1409 13.2058 1230 48.2472 826.778 443.665
3519 0 98.064 12.8284 1258 48.5676 826.366 443.044
3520 0 99.118 14.0237 1390 47.3863 826.436 441.542
3521 0 102.043 13.1219 1339 48.7774 825.797 440.697
3522 0 105.095 13.2547 1393 48.3654 825.784 438.217
3523 0 108.132 12.6697 1370 48.981 825.974 435.364
3524 0 113.136 14.1335 1599 47.0507 826.453 436.009
3525 0 114.089 12.8935 1471 48.7152 826.393 432.884
3526 0 120.124 13.894 1669 47.1696 825.917 434.185
3527 0 122.122 13.6912 1672 47.576 826.22 431.921
3528 1 68.1725 10.9868 749 47.6008 826.327 458.035
3529 0 71.0711 11.8473 842 46.6615 826.235 459.014
3530 0 70.0428 11.5072 806 47.7196 826.733 457.262
3531 0 75.1142 11.9285 896 46.808 826.848 456.729
3532 0 77.1353 12.1475 937 47.2956 826.971 453.385
3533 0 76.065 11.4902 874 48.3936 826.898 453.66
3534 0 77.0679 12.223 942 47.931 827.007 452.601
3535 0 79.1017 12.2248 967 48.0558 826.978 451.23
3536 0 84.0891 12.5224 1053 47.943 827.05 451.125
3537 0 85.1053 12.1849 1037 48.5583 827.361 449.54
3538 0 89.1317 12.0496 1074 48.6229 827.886 447.412
3539 0 93.2021 12.3173 1148 48.4085 827.289 445.16
3540 0 92.1556 12.4463 1147 48.8884 827.846 444.875
3541 0 97.06 13.0229 1264 48.1653 827.959 443.841
3542 0 100.064 12.1922 1220 49.2279 828.114 442.625
3543 0 102.154 12.6279 1290 49.1411 827.992 440.391
3544 0 104.161 11.7895 1228 50.4153 828.88 438.824
3545 1 59.0511 10.9735 648 49.9969 827.775 461.793
3546 0 61.1856 10.6724 653 50.5314 827.6 460.274
3547 0 65.042 11.3004 735 49.5415 827.176 459.282
3548 0 66.043 11.1442 736 50.163 827 459.284
3549 0 67.1034 10.9383 734 50.564 826.503 460.114
3550 0 70.0995 11.7547 824 49.4648 827.13 458.871
3551 0 70.0863 11.9424 837 49.7336 827.145 458.409
3552 0 74.0606 12.9354 958 48.3069 826.723 460.377
3553 0 75.0444 12.5659 943 49.1697 826.603 459.589
3554 0 77.092 11.6354 897 50.2787 825.752 456.472
3555 0 82.1149 12.2024 1002 48.991 825.625 458.425
3556 0 83.1376 13.0867 1088 48.6103 825.667 458.336
3557 0 87.1375 12.9565 1129 48.6351 825.438 459.163
3558 0 86.0664 12.6995 1093 50.0393 825.629 456.46
3559 0 91.1259 12.8942 1175 49.6587 825.799 456.456
3560 0 96.1484 12.8239 1233 49.4307 825.022 456.026
3561 0 97.1308 13.0649 1269 49.814 825.067 454.015
3562 0 102.145 13.0991 1338 49.6704 825.282 452.937
3563 0 101.062 12.9326 1307 50.2907 824.577 451.813
3564 0 112.116 12.6566 1419 49.833 824.509 448.537
3565 0 110.179 13.2148 1456 49.5371 824.534 447.48
3566 0 115.097 13.1194 1510 49.657 823.484 445.646
3567 0 119.125 14.8248 1766 47.761 822.451 446.29
3568 0 120.106 13.7378 1650 49.0267 822.426 444.073
3569 0 127.125 13.5536 1723 48.8723 823.038 441.267
3570 0 131.139 13.8098 1811 48.8194 822.325 438.004
3571 0 134.13 13.7852 1849 48.6279 822.199 436.386
3572 0 137.121 13.1635 1805 49.4138 822.397 432.989
3573 0 141.119 13.3504 1884 49.0663 822.065 431.417
3574 0 148.085 14.2824 2115 47.7149 822.104 430.87
3575 0 151.159 14.0845 2129 48.1963 821.038 426.593
3576 0 153.171 14.0562 2153 48.4073 822.732 423.974
3577 0 159.285 13.9498 2222 48.4253 821.879 422.892
3578 0 165.175 14.3969 2378 47.9003 821.651 419.864
3579 0 171.233 14.565 2494 47.4294 822.42 418.88
3580 0 174.115 13.6806 2382 48.5777 823.254 416.521
3581 1 100.069 12.7412 1275 47.5843 823.29 453.229
3582 0 98.0713 12.5317 1229 48.5346 823.578 450.325
3583 0 103.057 13.1675 1357 48.2874 823.293 448.606
3584 0 105.061 12.6974 1334 48.8373 823.392 447.211
3585 0 110.056 13.484 1484 47.5155 822.611 447.565
3586 0 112.098 13.2384 1484 48.1651 822.79 446.644
3587 0 118.13 13.028 1539 47.9903 822.703 446.337
3588 0 123.183 13.9061 1713 47.0858 822.592 446.402
3589 0 121.037 13.7479 1664 48.1514 822.023 443.675
3590 0 123.08 14.3321 1764 47.8923 821.97 444.793
3591 0 132.124 13.7673 1819 48.1754 821.342 441.508
3592 0 135.103 13.4416 1816 48.3045 822.463 440.63
3593 0 138.106 13.6055 1879 48.9063 822.088 437.47
3594 0 143.132 14.0849 2016 48.5769 822.061 436.715
3595 0 146.097 13.361 1952 49.4713 822.435 434.051
3596 0 150.12 14.5817 2189 48.6026 821.878 426.481
3597 0 158.112 16.8109 2658 46.4601 821.844 426.172
3598 0 160.127 13.3207 2133 50.1777 822.229 426.346
3599 0 162.243 13.4304 2179 50.508 821.636 425.317
3600 1 95.0635 12.4969 1188 51.1279 821.709 460.073
3601 0 94.0772 12.4472 1171 51.7523 821.582 457.681
3602 0 100.085 12.5093 1252 51.6166 820.948 455.414
3603 0 101.074 13.3269 1347 51.2457 821.297 454.007
3604 0 104.048 14.0705 1464 50.181 821.699 454.997
3605 0 108.025 12.8766 1391 51.7886 821.248 451.633
3606 0 110.037 13.3956 1474 51.4444 821.101 448.546
3607 0 113.177 13.6335 1543 51.1335 820.759 447.754
3608 0 120.126 14.2517 1712 50.9264 820.466 445.3
3609 0 123.086 12.2435 1507 53.1805 820.499 441.09
3610 0 126.111 13.4564 1697 52.1839 820.061 439.356
3611 0 130.188 12.9889 1691 52.3655 820.028 435.888
3612 0 140.155 13.4494 1885 51.1873 820.005 437.709
3613 0 139.177 13.2062 1838 51.9081 820.264 435.971
3614 0 140.084 14.0987 1975 51.0795 821.087 434.228
3615 0 148.169 13.8355 2050 50.9532 821.391 429.749
3616 1 64.0991 12.1219 777 48.0399 820.605 471.129
3617 0 65.0708 12.4326 809 47.2126 820.617 469.712
3618 0 66.0717 11.5632 764 48.6453 820.908 467.195
3619 0 69.1174 12.486 863 46.8343 821.079 466.753
3620 0 71.0604 12.1727 865 46.778 820.268 465.517
3621 0 73.0689 11.8381 865 46.7329 820.447 465.686
3622 0 76.0627 12.1742 926 46.3672 821.019 463.863
3623 0 78.081 12.09 944 46.0731 820.864 463.164
3624 0 81.0594 11.7075 949 46.4689 820.774 460.835
3625 0 83.1592 11.3517 944 46.6377 821.68 459.179
3626 0 88.0933 12.01 1058 45.4319 821.631 458.824
3627 0 88.1647 10.7526 948 46.8734 820.858 453.367
3628 1 42.0687 11.3386 477 44.8889 820.759 477.375
3629 0 45.0789 11.0917 500 44.664 821.584 475.998
3630 0 47.0582 11.1139 523 45.1262 822.266 476.201
3631 0 48.0224 11.2031 538 44.2584 822.366 475.169
3632 0 47.0329 10.9285 514 44.8502 822.58 473.922
3633 0 48.0565 10.8414 521 45.3858 821.988 471.029
3634 0 51.0364 11.9522 610 44.4393 822.298 470.862
3635 0 53.0526 11.3472 602 45.0963 822.163 470.374
3636 0 57.1294 11.1501 637 45 822.477 468.36
3637 0 56.0808 12.6781 711 44.0774 823.091 470.788
3638 0 60.1193 12.076 726 44.7107 822.764 467.486
3639 0 62.1686 11.694 727 44.0825 823.382 465.395
3640 0 61.0472 12.4002 757 44.3197 823.334 464.913
3641 0 65.083 12.8144 834 43.1223 823.134 464.507
3642 0 66.0674 12.2905 812 44.4581 822.847 462.832
3643 0 68.0413 12.9774 883 43.4202 823.288 462.202
3644 0 71.1152 13.0633 929 43.1862 823.504 461.051
3645 0 73.0854 12.1502 888 44.0417 823.782 458.494
3646 0 71.0625 12.482 887 44.5953 823.335 456.472
3647 0 75.1831 13.7132 1031 43.3919 823.558 456.861
3648 0 77.1064 12.9821 1001 43.9241 824.269 454.133
3649 0 81.0628 13.3723 1084 43.3884 824.371 453.814
3650 0 81.0551 12.4113 1006 44.4732 824.901 452.274
3651 0 82.0387 11.8724 974 44.9548 825.045 449.219
3652 0 89.1794 12.1329 1082 44.7366 824.998 447.884
3653 0 91.1351 12.0042 1094 45.1371 825.427 446.548
3654 0 90.2088 12.327 1112 45.5728 826.135 444.635
3655 1 53.0407 10.5202 558 46.681 826.147 465.848
3656 0 50.1419 11.2082 562 46.9698 826.779 465.972
3657 0 53.0972 12.1287 644 46.9348 826.531 464.943
3658 0 57.0584 12.198 696 46.9238 826.968 465.596
3659 0 56.1142 12.4389 698 47.6748 826.411 464.772
3660 0 59.1145 12.4504 736 47.894 826.495 461.458
3661 0 59.0513 12.4129 733 48.8881 825.862 460.513
3662 0 62.0478 13.2962 825 47.9455 825.484 459.091
3663 0 65.0917 12.3825 806 49.2208 825.458 457.832
3664 0 66.1091 13.1298 868 48.8698 826.152 457.691
3665 0 71.1739 11.7599 837 49.3584 826.429 455.327
3666 0 73.0814 12.3287 901 48.7481 826.366 454.206
3667 0 74.1136 11.4149 846 49.2281 826.248 452.727
3668 0 76.1388 12.556 956 48.0805 826.98 453.31
3669 0 77.0999 12.6459 975 50.6369 826.806 451.39
3670 0 81.1243 12.3021 998 50.7124 826.47 450.1
3671 0 82.0864 12.3894 1017 51.3186 826.662 449.67
3672 1 44.038 9.35556 412 53.5995 826.561 469.43
3673 0 46.1544 10.9415 505 52.0653 826.331 470.624
3674 0 47.0556 11.327 533 52.7805 825.964 468.193
3675 0 47.106 12.3551 582 52.9055 826.168 466.698
3676 0 46.0324 12.2088 562 54.1673 826.343 465.92
3677 0 49.0437 11.1941 549 55.4882 825.978 464.485
3678 0 51.1069 11.6423 595 55.6958 825.936 463.597
3679 0 52.0447 11.9705 623 56.1782 825.3 463.204
3680 0 54.0328 12.3444 667 56.2894 825.442 461.978
3681 0 60.077 12.5006 751 55.4061 826.044 461.539
3682 0 59.1311 12.4977 739 56.4871 825.892 459.689
3683 0 59.0565 12.0055 709 57.7221 824.829 457.56
3684 0 62.0375 11.8316 734 57.7888 825.613 458.572
3685 0 66.1114 12.1613 804 56.3433 826.304 456.199
3686 0 72.0871 12.9843 936 55.2618 825.859 457.092
3687 0 72.0909 12.4149 895 56.5788 825.693 453.996
3688 0 71.0805 13.2667 943 56.9852 826.068 453.241
3689 0 75.056 12.7105 954 57.3637 826.182 452.089
3690 0 77.0522 11.33 873 58.4948 826.507 448.373
3691 0 80.0974 12.7844 1024 57.0215 826.475 450.507
3692 0 83.186 12.8026 1065 57.1014 826.657 447.874
3693 0 84.1444 11.8843 1000 58.235 826.109 445.333
3694 0 89.0893 12.4706 1111 56.9046 826.164 444.681
3695 0 94.0714 13.2346 1245 55.6498 825.259 445.259
3696 1 37.0148 11.1307 412 60.8811 825.284 471.051
3697 0 39.0106 11.5353 450 60.02 825.971 470.718
3698 0 40.0208 11.4191 457 60.0766 825.6 469.094
3699 0 45.015 10.8408 488 59.5041 825.41 468.008
3700 0 46.0166 12.2347 563 58.0036 824.606 467.732
3701 0 49.0642 11.1487 547 58.4113 825.088 468.009
3702 0 48.0389 12.2193 587 57.7598 825.738 466.894
3703 0 50.0446 11.0102 551 58.9546 825.261 464.853
3704 0 51.0829 11.5303 589 58.2886 825.022 464.698
3705 0 56.1034 12.0492 676 56.5325 825.065 464.552
3706 0 55.0318 10.8119 595 58.5815 825.057 461.61
3707 0 60.0648 11.088 666 57.3168 824.691 461.087
3708 0 59.1745 11.069 655 57.6122 824.704 459.75
3709 0 64.0893 11.5152 738 56.248 825.253 459.043
3710 0 64.1275 11.3212 726 56.8568 824.915 459.194
3711 0 69.1131 11.228 776 56.6482 824.976 457.793
3712 0 72.129 11.6458 840 56 825.916 457.004
3713 1 33.0466 11.3476 375 58.216 825.555 472.211
3714 0 36.03 10.8521 391 58.133 824.862 471.432
3715 0 41.0496 11.2303 461 56.2777 825.028 471.586
3716 0 39.0143 11.483 448 56.5357 825.716 471.929
3717 0 40.1151 11.3673 456 56.7741 825.568 470.357
3718 0 41.0732 10.3717 426 57.7746 826.275 468.498
3719 0 42.0559 10.4385 439 57.3781 826.064 467.483
3720 0 43.0482 10.6625 459 57.342 825.549 466.32
3721 0 48.0729 11.7322 564 54.9096 825.991 466.096
3722 0 49.042 11.5207 565 55.2602 826.674 464.727
3723 0 50.042 10.751 538 55.9387 826.721 465.006
3724 0 52.1732 11.4618 598 54.7425 826.896 462.742
3725 0 55.1385 11.9155 657 53.9148 826.921 462.554
3726 0 57.0727 11.8796 678 53.8319 826.689 461.649
3727 0 56.0605 9.93569 557 56.6499 826.765 459.047
3728 0 58.1161 10.7543 625 55.712 826.331 459.57
3729 0 60.0546 11.2731 677 54.3545 827.003 458.722
3730 0 63.1162 11.9779 756 52.7936 827.5 459.307
3731 1 33.1309 9.90011 328 54.0823 828.128 473.174
3732 0 31.0501 10.1771 316 55.0665 827.579 471.307
3733 0 37.0929 10.7837 400 52.6 827.36 471.05
3734 0 38.0398 10.2261 389 53.3445 827.44 470.889
3735 0 36.0348 11.6554 420 52.6333 827.476 470.171
3736 0 38.064 10.7976 411 53.0073 828.068 468.272
3737 0 41.0998 10.365 426 53.0986 828.385 468.204
3738 0 42.0247 11.7074 492 52.0061 827.557 468.104
3739 0 44.0481 11.9642 527 51.1271 828.323 467.154
3740 0 42.1142 11.1364 469 52.7612 828.896 465.934
3741 0 48.1513 11.0485 532 52.032 829.235 467.118
3742 0 50.0795 10.9226 547 52.287 828.731 465.336
3743 0 47.0771 11.9591 563 52.5879 828.625 465.142
3744 0 51.1034 11.4474 585 52.959 827.677 464.051
3745 0 52.0926 11.9211 621 52.4606 827.575 464.641
3746 1 75.2215 12.4698 938 45.6716 828.05 466.96
3747 1 57.1148 11.5907 662 52.6767 827.613 462.325
3748 0 58.2018 11.0993 646 53.0635 827.21 461.074
3749 0 60.0619 11.3217 680 52.8015 826.854 457.982
3750 0 61.1797 12.0628 738 52.4729 827.074 459.144
3751 0 68.0801 11.6187 791 51.5386 827.147 458.906
3752 0 66.093 12.1193 801 51.7578 826.936 458.222
3753 0 71.09 11.4643 815 51.7386 826.791 456.48
3754 0 71.1428 11.498 818 51.599 827.278 455.841
3755 0 77.081 11.0014 848 51.4175 828.032 454.241
3756 1 39.1318 10.963 429 54.1445 827.392 471.536
3757 0 40.0433 11.3627 455 53.8791 827.365 471.393
3758 0 43.0085 10.9978 473 53.4778 826.628 470.025
3759 0 43.0844 11.3962 491 53.4155 826.855 470.291
3760 0 44.105 11.9714 528 52.5398 827.386 470.326
3761 0 45.1617 12.0678 545 52.1321 827.833 468.734
3762 0 47.0295 12.5666 591 51.5008 826.915 468.668
3763 0 50.072 12.6817 635 51.0157 827.425 468.567
3764 0 53.0214 11.6934 620 51.3097 827.505 466.818
3765 0 53.1257 11.7646 625 51.464 828.027 466.714
3766 0 53.0651 12.5318 665 51.6586 826.621 466.808
3767 0 55.1528 12.3294 680 50.9882 826.966 464.959
3768 0 59.1063 12.9766 767 49.6454 826.948 464.379
3769 0 60.171 12.1653 732 50.388 827.434 463.661
3770 0 63.0513 12.1806 768 49.8073 827.457 461.895
3771 0 65.1468 11.9576 779 50.1271 826.987 460.747
3772 0 67.0723 12.2256 820 49.761 825.978 460.435
3773 0 69.0615 13.0174 899 48.2748 825.601 459.806
3774 0 74.0975 12.605 934 47.7548 826.57 457.866
3775 0 72.1496 12.8483 927 48.1122 826.502 457.729
3776 0 78.1314 13.0293 1018 47.2299 825.86 457.406
3777 0 79.0607 12.6738 1002 47.7695 825.95 453.981
3778 0 80.185 12.8952 1034 47.266 826.451 453.431
3779 0 86.177 12.2422 1055 47.9839 825.192 452.157
3780 0 85.0928 11.8459 1008 48.3383 826.162 449.891
3781 0 90.1945 12.8944 1163 47.3611 825.919 450.193
3782 0 94.2145 12.1319 1143 47.783 826.252 448.682
3783 0 96.1312 12.7846 1229 47.524 826.223 446.756
3784 1 57.0752 13.9816 798 44.9749 826.102 473.14
3785 1 49.1011 11.7716 578 50.282 826.673 469.102
3786 0 51.141 11.8691 607 50.1087 826.726 467.572
3787 0 52.0244 11.706 609 50.1199 826.703 466.365
3788 0 54.1593 12.9064 699 49.0615 826.426 465.082
3789 0 54.1756 12.8656 697 209.466 825.405 465.126
3790 0 58.0482 11.8178 686 49.895 825.987 461.774
3791 0 60.0342 12.8593 772 48.8109 826.03 461.97
3792 0 63.1303 12.2445 773 49.2937 826.166 460.708
3793 0 65.0451 12.6681 824 48.6323 826.689 458.438
3794 0 67.0564 12.8101 859 48.3097 825.889 456.471
3795 0 70.0653 12.7453 893 47.7772 826.02 456.199
3796 0 71.1508 13.2114 940 47.4628 826.386 456.135
3797 0 74.152 12.9464 960 47.1948 826.789 453.847
3798 0 79.1304 12.6121 998 47.3868 826.465 453.076
