time division length width area intensity CMx CMy
0 0 50.1104 11.0356 553 56.5515 721.345 476.204
1 0 50.0543 11.068 554 56.1534 720.574 475.143
2 0 53.0979 11.62 617 55.1345 721.123 474.951
3 0 53.0232 11.9005 631 54.851 720.978 476.136
4 0 58.0541 11.1448 647 54.5842 720.436 475.7
5 0 59.0631 10.9036 644 55.6102 720.776 475.402
6 0 59.1363 10.9577 648 56.1944 720.106 475.904
7 0 59.0512 11.6848 690 55.6812 719.975 474.428
8 0 62.1984 11.2061 697 56.1636 720.115 474.818
9 0 62.0417 11.4117 708 56.0692 719.949 474.254
10 0 67.1793 10.9855 738 56.3049 719.702 473.607
11 0 68.0763 11.5018 783 55.7561 719.105 473.169
12 0 69.0955 11.144 770 56.5234 718.875 470.438
13 0 71.1669 11.2974 804 56.3744 718.999 471.016
14 0 72.1308 11.091 800 57.37 718.909 469.185
15 0 71.1283 11.9081 847 57.2255 719.185 469.15
16 0 76.0717 11.1868 851 57.9988 718.765 467.787
17 0 76.1319 11.1386 848 58.6792 718.107 467.149
18 0 77.0308 10.9826 846 59.5544 718.558 465.891
19 1 40.0631 10.5334 422 58.2251 717.922 485.154
20 0 39.0208 11.4811 448 57.8147 717.978 484.978
21 0 42.0949 11.1653 470 57.0085 717.532 484.583
22 0 43.0355 11.386 490 57.098 718.233 484.722
23 0 46.0659 11.3533 523 55.9159 718.011 483.962
24 0 49.0387 10.5223 516 56.562 718.607 482.767
25 0 49.0885 11.2857 554 55.4549 718.458 482.706
26 0 50.0219 11.1951 560 55.7143 717.936 481.575
27 0 49.092 11.8553 582 55.5361 717.866 481.06
28 0 55.0255 11.4674 631 55.0412 718.098 480.881
29 0 53.0916 11.3201 601 56.6522 717.516 480.576
30 0 55.0788 10.8753 599 57.601 717.456 480.613
31 0 58.1038 10.7738 626 57.3259 717.032 480.313
32 0 57.0366 10.6949 610 58.4328 717.344 478.93
33 0 59.1841 10.1041 598 59.3027 716.931 476.167
34 0 60.1869 11.1154 669 58.1883 717.625 478.106
35 0 62.1918 11.4484 712 58.7022 717.924 476.815
36 0 64.1248 11.618 745 58.5315 717.707 476.023
37 0 69.14 11.2525 778 58.2532 717.65 474.332
38 0 66.0574 10.8693 718 59.9304 718.287 474.086
39 0 69.0693 11.6405 804 58.4913 718.061 473.857
40 0 73.0752 11.235 821 58.7272 717.393 472.463
41 0 76.2584 10.989 838 58.6038 717.455 470.84
42 0 77.1045 10.9592 845 59.1444 717.911 468.862
43 0 76.069 10.7797 820 59.772 717.972 465.739
44 0 84.2315 11.2547 948 57.7289 717.578 466.935
45 1 41.029 10.7729 442 56.276 717.14 485.025
46 0 44.0625 11.166 492 54.7195 717.356 484.362
47 0 44.0658 11.0516 487 54.9055 717.01 481.932
48 0 48.0396 11.4697 551 53.5699 716.904 481.849
49 0 50.0513 11.7479 588 52.8622 717.349 481.25
50 0 52.0684 11.8114 615 52.122 716.932 481.02
51 0 53.0532 10.5743 561 53.5472 716.654 480.016
52 0 54.0939 11.48 621 52.839 716.824 478.894
53 0 57.0666 12.1437 693 51.5036 716.55 477.934
54 0 59.1027 11.6408 688 52.2456 716.993 477.151
55 0 58.0624 12.1077 703 52.3642 716.014 476.859
56 0 60.1072 11.912 716 52.8631 716.441 475.208
57 0 64.1702 11.8591 761 52.6373 715.208 474.481
58 0 63.1191 12.1833 769 52.7126 716.554 474.436
59 0 65.0879 11.7226 763 53.4194 716.971 472.573
60 0 68.0818 11.5449 786 53.7316 716.911 471.611
61 0 68.0847 12.0732 822 53.2616 716.65 471.212
62 0 71.0896 12.0974 860 53.3395 717.302 470.523
63 0 74.142 11.8287 877 53.6397 717.254 470.279
64 0 75.0541 11.7249 880 54.3057 717.627 469.636
65 0 76.0787 11.5538 879 54.4323 716.99 467.717
66 0 79.0433 12.1579 961 53.6129 715.976 466.345
67 1 40.0594 11.2333 450 53.28 716.976 484.891
68 0 41.0963 10.5606 434 54.3802 717.276 483.853
69 0 44.0475 10.3071 454 54.1542 717.98 483.093
70 0 47.0793 10.8328 510 52.7216 718.284 482.012
71 0 49.0392 10.5834 519 52.8863 717.923 481.541
72 0 47.0921 11.4244 538 52.2398 716.868 479.236
73 0 49.0272 11.8302 580 51.969 717.024 479.44
74 0 53.0256 11.4473 607 51.9127 717.486 478.806
75 1 130.201 13.556 1765 46.3513 717.585 459.81
76 1 59.1363 11.2621 666 52.2012 717.197 475.715
77 0 59.1414 11.3288 670 52.5582 716.927 475.904
78 0 56.0579 11.7379 658 53.0395 717.188 474.865
79 0 59.0758 11.7476 694 52.6556 717.182 475.15
80 0 62.0163 11.3035 701 52.9629 717.177 472.792
81 0 64.2048 11.6814 750 53.3213 717.348 472.204
82 0 64.1031 11.9183 764 53.1086 717.432 472.219
83 0 65.0588 10.8825 708 54.3616 716.853 470.177
84 0 67.0958 12.0872 811 53.0444 717.422 470.311
85 0 71.1651 11.3679 809 53.712 717.333 468.493
86 0 75.1776 11.5327 867 53.6078 718.007 468.165
87 0 74.1381 11.3976 845 54.3941 717.2 466.826
88 0 79.1965 11.503 911 54.4248 717.396 465.902
89 0 80.3177 11.4047 916 55.0371 716.98 464.165
90 1 37.0654 11.1425 413 54.8717 717.065 483.308
91 0 40.0843 11.3012 453 53.9603 717.6 483.971
92 0 41.2638 11.0509 456 54.2697 717.344 483.219
93 0 45.1226 10.5269 475 54.0063 717.482 482.438
94 0 44.1983 11.2674 498 53.9659 717.137 481.709
95 0 46.02 11.3429 522 53.8985 717.146 481.646
96 0 47.081 11.0873 522 54.4272 717.42 480.385
97 0 47.0298 12.0349 566 53.6784 717.924 481.127
98 0 51.0613 10.6343 543 54.709 717.694 479.538
99 0 50.0479 11.3092 566 54.2314 717.827 478.627
100 0 52.0412 11.9136 620 53.2984 717.44 477.521
101 0 57.013 11.1027 633 53.5561 717.978 477.403
102 0 56.064 11.8971 667 53.084 717.757 477.192
103 0 58.0483 11.1287 646 53.9845 717.711 475.472
104 0 60.184 11.8802 715 53.1007 718.347 474.748
105 0 63.0702 10.4645 660 54.2939 718.361 472.694
106 0 62.1702 11.5007 715 53.9035 718.431 472.726
107 0 68.1352 11.1249 758 53.2203 718.372 472.534
108 0 69.1301 11.4711 793 53.3947 718.531 471.014
109 0 71.0572 11.0474 785 54.1376 718.371 470.21
110 0 72.0712 11.003 793 54.7806 719.301 469.127
111 0 75.0961 11.3987 856 53.8189 719.144 468.113
112 0 77.1488 10.8621 838 54.7172 718.438 466.018
113 0 76.0647 11.7269 892 54.6278 718.844 466.657
114 1 40.1072 9.74888 391 54.2225 718.44 484.164
115 0 40.0436 10.8382 434 53.2396 718.802 484.601
116 0 40.0227 11.2936 452 52.2987 718.763 484.21
117 0 42.0296 11.016 463 52.4924 719.024 482.527
118 0 43.0252 11.1795 481 52.237 719.071 482.341
119 0 46.0287 11.319 521 51.8081 719.338 481.893
120 0 48.0793 11.3978 548 50.8467 718.394 481.069
121 0 50.0425 10.8508 543 51.8122 718.657 480.389
122 0 52.0561 10.7768 561 51.7558 718.487 478.902
123 0 51.0493 11.9884 612 51.3431 719.833 479.379
124 0 54.0511 11.6741 631 51.1648 718.746 478.762
125 0 59.0978 11.1848 661 50.938 718.469 478.337
126 0 57.0516 11.6561 665 51.3143 718.97 476.568
127 0 58.1293 11.8013 686 51.7187 719.283 475.344
128 0 62.0317 11.1233 690 50.8826 718.932 474.326
129 0 63.0475 11.4675 723 53.0443 718.485 475.55
130 0 66.0518 10.9914 726 52.9518 718.725 473.212
131 0 68.0606 10.9461 745 53.3946 718.095 471.471
132 0 69.1239 11.313 782 53.2852 717.444 471.423
133 0 72.0839 11.6115 837 52.7025 717.358 469.855
134 0 73.0725 11.646 851 53.9918 717.622 466.244
135 1 34.0325 10.2843 350 54.7029 717.229 486.397
136 0 36.0403 10.294 371 54.0323 717.472 485.458
137 0 39.0093 9.99762 390 54.1949 718.151 484.182
138 0 39.0261 10.0446 392 55.0689 718.406 483.612
139 0 39.0257 10.5059 410 54.7415 719.237 481.671
140 0 42.0378 10.7284 451 53.6053 717.798 480.368
141 0 42.0408 11.1083 467 53.4839 718.036 479.021
142 0 42.0291 11.9203 501 52.9202 718.671 479.553
143 0 46.0617 11.0287 508 53.1594 718.354 477.561
144 0 47.0293 11.8012 555 51.8198 717.905 476.91
145 0 50.073 11.1837 560 51.7375 717.852 476.507
146 0 52.0647 10.7366 559 52.4758 719.043 474.494
147 0 52.0422 10.8182 563 52.6909 718.931 473.513
148 0 54.0505 11.4153 617 52.1459 719.58 474.496
149 0 56.0293 11.1013 622 52.1206 718.963 473.466
150 0 59.0957 11.4898 679 51.3284 719.778 473.109
151 0 58.0399 10.8374 629 52.8156 719.946 473.968
152 0 63.0619 11.7345 740 51.2068 720.511 473.158
153 0 62.087 11.6288 722 51.9834 719.23 471.643
154 0 62.1201 11.2524 699 53.1903 719.546 470.455
155 0 66.0604 11.4592 757 52.9762 719.061 470.535
156 0 68.0738 12.2955 837 52.1912 719.135 469.675
157 0 68.1354 11.9468 814 53.0934 719.925 468.087
158 0 70.1162 12.1227 850 53.2106 720.159 467.629
159 0 74.0706 11.9751 887 53.4994 720.114 467.294
160 0 76.1258 11.4547 872 54.1273 719.155 465.445
161 0 79.0809 11.798 933 53.8371 720.334 463.868
162 0 80.0582 11.2543 901 55.0444 720.81 461.792
163 0 81.083 10.9887 891 55.5713 719.892 460.727
164 0 86.0612 11.9798 1031 53.7701 719.293 462.138
165 1 42.0418 10.8226 455 53.3165 720.077 482.624
166 0 43.0427 10.7568 463 54.0194 719.177 481.469
167 0 47.0488 10.5422 496 52.9012 719.52 482.083
168 0 49.0564 10.967 538 51.842 719.612 480.766
169 0 47.0365 11.1828 526 52.7053 719.684 479.808
170 0 53.0147 10.2425 543 53.0608 719.661 479.041
171 0 51.0466 11.2446 574 51.5366 719.218 478.611
172 0 53.1329 11.1983 595 52.0857 718.736 478.376
173 0 56.0109 11.1764 626 51.4042 719.692 477.577
174 0 57.0184 10.9789 626 51.5304 719.794 477.137
175 1 91.0851 11.6484 1061 44.1706 719.436 478.283
176 1 69.0837 10.8709 751 50.783 718.73 473.683
177 0 67.0758 10.8683 729 51.5391 718.87 472.789
178 0 68.0581 10.6233 723 51.4675 718.671 473.18
179 0 68.0569 11.6226 791 51.4033 718.843 472.186
180 0 67.1114 11.3542 762 52.664 719.029 473.075
181 0 70.1289 11.3933 799 52.5307 719.034 470.617
182 0 79.0374 11.7919 932 50.1502 718.888 470.534
183 0 75.1102 11.4365 859 52.5565 718.723 467.916
184 0 79.1548 11.7365 929 52.2691 718.138 466.997
185 0 82.1584 11.3439 932 52.0043 717.769 464.659
186 0 85.2108 11.9468 1018 51.3124 717.337 465.827
187 0 89.168 11.5512 1030 51.3922 717.51 462.95
188 1 44.0607 10.5536 465 51.329 717.166 483.004
189 0 44.0529 10.2604 452 52.2942 717.582 482.325
190 0 47.0623 10.7092 504 50.9127 716.849 481.808
191 0 47.0146 11.4007 536 50.722 717.394 481.03
192 0 50.0717 10.6847 535 51.2093 717.157 479.252
193 0 51.0482 10.9308 558 51.0986 717.4 477.573
194 0 51.0111 11.6445 594 49.9714 717.333 476.896
195 0 54.0202 11.94 645 48.7504 717.896 476.473
196 0 56.1318 10.6357 597 49.9146 717.759 474.73
197 0 61.0338 11.2069 684 48.0482 717.31 473.373
198 0 60.0459 10.9749 659 49.4143 717.238 471.835
199 0 63.1202 11.2484 710 47.9845 717.085 471.376
200 0 63.1448 11.0698 699 48.4034 717.24 468.096
201 0 68.1183 11.8911 810 46.8469 718.133 467.725
202 0 69.1716 10.9293 756 47.6336 718.135 466.341
203 0 75.0431 11.047 829 46.6719 717.996 465.707
204 0 72.0741 10.5031 757 47.9326 718.446 462.118
205 0 80.0562 11.8292 947 45.1183 718.024 463.717
206 0 84.113 11.0447 929 45.9677 718.219 461.969
207 0 83.1601 10.594 881 46.5176 717.586 460.008
208 1 38.0142 9.81213 373 45.4638 717.697 482.753
209 0 38.0769 9.92728 378 45.3862 718.177 481.828
210 0 42.0465 10.3219 434 44.4101 718.463 481.562
211 0 43.0802 10.2831 443 44.6095 718.312 480.962
212 0 43.0277 9.94708 428 45.4252 718.266 479.729
213 0 44.0396 10.4224 459 44.8932 718.407 478.07
214 1 74.0785 8.96346 664 39.869 718.634 481.836
215 1 50.0856 10.5419 528 43.8087 719.044 478.725
216 0 51.1114 10.076 515 44.0777 717.86 475.783
217 0 52.0589 11.1989 583 43.2521 718.744 475.894
218 0 53.0913 11.5273 612 42.9363 717.908 476.158
219 0 55.0463 11.3904 627 42.6156 718.022 474.738
220 0 56.0588 10.9528 614 43.1059 718.515 474.774
221 0 59.0654 10.3445 611 43.4419 718.568 472.671
222 0 58.0883 11.4481 665 42.8677 718.361 473.786
223 0 63.1191 10.5198 664 43.113 718.935 473.389
224 0 63.1131 10.5683 667 43.3868 718.657 474.115
225 0 62.0811 10.2286 635 44.2346 718.55 471.535
226 0 65.1207 10.0736 656 44.8171 718.235 471.587
227 0 68.0597 10.8875 741 43.6302 718.364 470.679
228 0 68.0718 10.8856 741 43.9325 718.579 469.13
229 0 69.0569 10.8316 748 44.0227 718.205 467.529
230 1 35.0657 9.29684 326 44.0368 718.791 485.037
231 0 36.0297 8.27096 298 45.3221 718.658 483.262
232 0 38.0201 9.02154 343 43.9155 719.216 483.496
233 0 37.042 10.1776 377 43.1194 717.756 482.817
234 0 42.0389 10.6092 446 41.5179 718.056 484.076
235 0 40.0552 9.21228 369 44.3089 718.087 481.596
236 0 45.0411 9.83546 443 42.7517 717.278 481.819
237 0 44.0139 10.3149 454 43.3722 717.454 480.837
238 0 50.0372 10.3923 520 42.0519 716.817 481.673
239 0 53.0785 9.42001 500 42.922 717.972 479.762
240 0 50.0435 10.2311 512 43.207 717.689 479.469
241 0 52.083 10.1377 528 43.2803 717.21 477.919
242 0 53.0246 10.4668 555 43.1297 717.959 477.986
243 0 52.0686 10.9471 570 43.2842 718.13 477.035
244 0 57.1598 10.1645 581 43.2461 717.559 475.546
245 0 59.0786 9.83436 581 44.0103 717.375 474.231
246 0 63.05 11.705 738 41.916 718.149 474.783
247 0 62.1593 10.28 639 43.8842 718.687 472.355
248 0 66.0624 10.2933 680 43.925 718.165 471.525
249 0 68.0824 10.546 718 43.7813 718.266 472.365
250 0 71.1351 11.1759 795 42.473 717.97 471.057
251 0 69.2623 10.7129 742 45.0593 717.032 468.725
252 0 76.1181 10.6282 809 44.6452 717.085 467.617
253 0 80.0831 10.8013 865 44.4439 716.869 468.287
254 0 78.1339 10.802 844 45.2607 716.925 465.12
255 0 81.1007 10.7027 868 45.9297 717.225 463.576
256 1 119.959 11.7623 1411 38.4536 715.901 472.386
257 1 42.0077 9.14119 384 44.9141 717.669 486.292
258 0 41.0167 9.24013 379 45.6781 717.921 483.718
259 0 42.0643 9.58058 403 45.7593 717.839 482.06
260 0 43.0369 9.92172 427 45.1686 717.808 483.419
261 0 45.0171 9.99621 450 44.8778 717.093 482.124
262 0 47.0138 9.55039 449 46.6125 717.532 480.321
263 0 47.0281 10.6107 499 44.8778 717.76 480.291
264 0 53.0183 11.0151 584 43.9589 718.123 480.351
265 0 50.0731 9.94546 498 46.5321 717.518 476.691
266 0 53.0346 10.3706 550 45.9927 716.871 475.802
267 0 60.0727 11.3196 680 43.4809 717.09 477.126
268 0 62.2082 11.2204 698 43.4212 717.321 475.259
269 0 60.1804 10.7012 644 45.0186 717.32 471.974
270 0 59.2245 10.5868 627 45.7608 718.1 471.142
271 0 62.1665 10.3915 646 45.757 717.132 469.652
272 0 68.1506 11.3719 775 43.809 716.859 470.939
273 0 68.2792 10.2813 702 46.3305 717.017 468.346
274 0 68.2948 10.645 727 45.5585 716.904 465.517
275 0 73.2521 11.2488 824 44.6444 717.303 465.977
276 0 73.2305 10.9654 803 45.6538 716.909 463.869
277 0 74.227 11.0607 821 45.5798 717.845 461.368
278 0 79.2691 11.8331 938 44.3881 716.784 461.03
279 0 82.2405 11.8555 975 44.3856 716.711 460.618
280 0 83.3227 11.1254 927 45.7012 717.893 460.351
281 0 83.2486 9.17734 764 48.0759 716.347 453.766
282 1 117.167 10.1735 1192 41.3171 716.63 465.954
283 1 90.2415 11.1368 1005 45.6965 716.674 458.092
284 0 85.1879 9.4497 805 48.6037 716.358 454.212
285 1 114.454 11.9262 1365 40.7758 717.144 464.564
286 1 50.0843 11.0214 552 44.3225 717.507 477.632
287 0 49.0458 9.99067 490 46.4306 717.804 475.659
288 0 52.0305 9.8596 513 46.1559 718.014 475.125
289 0 50.0511 9.51028 476 47.6303 717.345 473.979
290 0 55.0673 9.87883 544 46.5662 717.002 473.059
291 0 55.025 9.63198 530 46.9679 717.191 472.955
292 0 61.1198 11.2075 685 44.4584 717.406 472.958
293 0 62.0649 11.1013 689 44.4702 717.814 472.714
294 0 63.2119 10.2196 646 45.5728 718.413 469.432
295 0 65.1806 11.6753 761 43.385 717.323 470.654
296 0 67.112 10.7879 724 44.5912 717.355 466.29
297 0 69.1865 12.2423 847 42.7898 717.431 465.322
298 0 70.1538 11.2182 787 43.8895 717.532 463.677
299 0 71.2917 11.993 855 43.0585 716.937 463.593
300 0 70.3352 10.0234 705 45.6667 717.627 459.35
301 0 76.1657 11.6457 887 43.2807 717.265 461.286
302 0 75.426 10.5932 799 44.7622 717.249 457.406
303 1 107.609 12.0994 1302 37.8479 716.496 464.735
304 1 83.2442 10.9557 912 44.1787 717.297 457.921
305 1 39.1348 7.87024 308 46.8182 717.286 472.675
306 0 42.0924 8.69515 366 45.9754 717.454 474.617
307 0 40.0433 8.99028 360 46.5472 718.808 474.025
308 0 43.0428 10.2689 442 45.1109 718.253 473.077
309 0 48.0485 9.86503 474 44.4114 719.19 472.148
310 0 54.0676 11.0417 597 41.9883 718.544 472.417
311 0 47.0326 10.0781 474 45.4895 719.57 469.768
312 0 47.0173 10.1877 479 45.7683 719.198 468.311
313 0 55.0238 10.8317 596 43.495 719.393 469.844
314 0 54.045 10.7503 581 44.3563 719.269 468.312
315 0 59.0666 10.1919 602 44.4635 719.173 468.141
316 0 56.0308 11.0118 617 44.2739 718.663 467.379
317 0 58.0735 10.4178 605 45.0926 718.255 464.979
318 0 59.0604 10.7009 632 44.7104 719.457 464.682
319 0 62.1676 10.6647 663 44.8537 718.931 465.223
320 0 66.0679 11.4276 755 43.5947 719.334 465.305
321 0 67.0463 11.0372 740 43.9851 719.216 463.861
322 0 69.1623 10.7429 743 44.0646 719.53 462.328
323 0 76.0642 12.3711 941 41.034 719.445 465.324
324 0 76.1787 11.1317 848 42.9127 718.636 461.086
325 0 77.1728 11.2086 865 43.1757 719.861 460.988
326 0 73.1654 10.1961 746 44.8753 719.787 456.386
327 0 82.186 11.3523 933 42.9346 720.058 460.199
328 0 86.134 11.7027 1008 42.3264 720.078 460.037
329 0 87.1969 11.2963 985 42.8294 719.377 457.494
330 0 90.21 11.839 1068 42.3521 718.65 456.909
331 1 46.1093 10.1932 470 41.6106 719.389 477.581
332 0 50.0621 9.58808 480 41.2917 718.89 475.475
333 0 49.018 9.2619 454 41.4053 718.83 473.086
334 0 49.0587 9.58037 470 42.4043 719.036 472.06
335 0 49.0202 9.38388 460 45.3457 719.096 470.652
336 0 49.0267 9.58662 470 44.3043 718.772 469.777
337 0 53.0224 9.58086 508 44.4705 719.307 470.634
338 0 60.0242 10.9789 659 43.0622 718.618 471.516
339 0 57.0466 10.3249 589 44.657 719.002 470.601
340 0 57.1003 10.1576 580 45.5172 719.09 468.419
341 0 60.0155 9.54754 573 46.1693 719.656 467.913
342 0 64.0455 10.2583 657 45.3364 719.362 468.117
343 0 62.0785 10.0196 622 46.1415 719.037 466.162
344 0 65.0785 9.9111 645 45.5008 718.966 465.805
345 0 75.0791 11.2548 845 42.8568 718.147 469.085
346 0 77.082 11.3386 874 42.8066 718.884 467.554
347 0 78.1309 12.0951 945 42.4762 718.576 467.107
348 0 75.201 10.1062 760 44.85 719.255 461.449
349 0 83.113 11.4784 954 43.1918 718.858 464.819
350 0 86.3964 12.5237 1082 41.8152 718.566 464.235
351 0 89.2308 12.4509 1111 41.1422 718.469 463.152
352 0 92.1446 12.2308 1127 41.5688 717.603 461.721
353 0 94.2054 12.2711 1156 41.673 717.804 461.544
354 1 51.072 9.80968 501 41.5689 717.756 483.17
355 0 50.0478 10.0704 504 43.4524 717.988 481.881
356 0 51.0376 10.0514 513 42.9279 718.351 480.148
357 0 48.1452 8.70283 419 45.8568 718.597 475.604
358 0 55.0388 11.7372 646 41.5449 718.009 480.752
359 0 58.0666 11.8312 687 41.0349 718.55 479.987
360 0 62.0904 11.2417 698 41.5903 718.471 478.735
361 0 61.0612 11.6604 712 42.2037 718.289 478.271
362 0 61.101 11.8329 723 42.1494 716.49 477.852
363 0 61.03 11.6664 712 42.9593 717.75 476.076
364 0 63.092 11.618 733 43.3111 717.353 475.801
365 0 56.0834 9.9673 559 46.5886 716.721 469.708
366 0 68.1835 12.2904 838 42.7625 717.698 473.036
367 0 72.1571 12.1263 875 42.12 717.725 472.545
368 0 72.0704 11.7247 845 43.0556 717.714 471.039
369 0 75.0595 12.2037 916 42.4039 716.879 470.171
370 0 72.1304 10.7167 773 44.8085 716.986 466.547
371 0 71.2062 9.29694 662 46.7689 717.514 463.701
372 1 79.1267 11.8797 940 42.9936 717.738 466.259
373 0 82.1269 12.3955 1018 42.3153 717.287 466.012
374 0 85.2624 12.0217 1025 42.6029 717.263 463.481
375 1 42.1767 10.1952 430 42.9 717.57 482.933
376 0 46.1821 10.5019 485 42.5567 717.198 481.981
377 0 46.0509 11.2267 517 42.4081 717.412 480.803
378 0 48.0135 11.5384 554 42.3502 717.895 480.724
379 0 49.0184 11.8119 579 41.9741 717.642 479.983
380 0 50.0644 11.605 581 42.4768 717.511 479.456
381 0 52.0571 11.9676 623 42.1509 718.356 480.01
382 0 50.0144 9.51726 476 45.0441 717.006 475.569
383 0 54.058 11.8946 643 42.3795 717.435 478.11
384 0 48.0279 9.49447 456 46.6491 717.629 473.417
385 0 50.0267 8.99519 450 46.8533 717.793 472.327
386 0 60.0922 12.6972 763 41.4875 717.913 476.687
387 0 54.0297 9.55031 516 46.2267 717.95 469.901
388 0 54.0426 9.56653 517 47.0193 718.044 469.406
389 0 64.0676 11.722 751 43.4301 717.997 473.755
390 0 58.0614 9.71386 564 46.672 718.502 467.191
391 0 63.1428 9.80317 619 46.4685 718.69 467.003
392 0 71.123 12.7666 908 42.1696 718.649 471.905
393 0 73.1788 12.1893 892 42.8419 717.717 470.179
394 0 65.1145 10.136 660 47.003 718.377 465.441
395 1 84.1822 12.366 1041 42.1604 717.438 467.906
396 1 73.0717 9.30592 680 47.3603 717.846 461.571
397 0 80.0524 13.0789 1047 42.4002 717.355 466.614
398 0 79.0408 11.2853 892 45.6379 717.702 463.488
399 0 84.1596 12.8803 1084 43.3764 718.256 464.636
400 0 86.1236 12.7956 1102 43.6788 717.836 464.962
401 0 88.077 12.4891 1100 44.8164 718.097 463.838
402 0 89.1931 12.3552 1102 45.6407 717.459 461.789
403 0 95.0984 12.7342 1211 44.9282 718.074 463.158
404 0 95.0923 13.5763 1291 44.4663 717.926 462.05
405 0 97.1059 13.2227 1284 45.8988 716.976 458.495
406 0 100.158 12.9795 1300 46.11 717.049 457.715
407 1 55.034 11.6837 643 46.395 717.546 480.863
408 0 56.036 11.2249 629 46.663 717.787 478.539
409 0 55.0292 12.139 668 47.0793 717.644 478.599
410 0 58.0445 12.1459 705 47.1206 716.661 478.387
411 0 59.0566 12.4796 737 46.3826 716.049 477.704
412 0 61.0537 11.8912 726 47.0744 717.01 476.99
413 0 60.0318 11.294 678 49.3614 717.46 473.99
414 0 60.0857 10.9177 656 50.1067 717.759 473.122
415 0 66.1134 12.5542 830 46.6639 717.33 476.717
416 0 66.068 12.0482 796 48.049 716.923 473.661
417 0 70.0626 12.3747 867 47.7001 718.096 473.774
418 0 63.0158 10.7592 678 50.8201 717.678 469.049
419 0 69.1414 11.8164 817 48.8556 717.095 471.174
420 0 74.1687 11.6896 867 49.4072 717.036 470.319
421 0 74.0979 11.9437 885 49.7379 717.026 469.258
422 0 77.1066 12.4244 958 48.2902 716.724 469.462
423 0 79.0802 11.3303 896 50.8772 717.289 466.294
424 0 83.1903 11.9004 990 49.7747 717.16 466.576
425 0 84.1633 12.0242 1012 50.2194 717.123 464.718
426 0 86.1633 12.5575 1082 49.0555 716.839 464.792
427 0 90.1278 12.2715 1106 49.6067 717.079 463.545
428 0 93.2688 12.1584 1134 49.8007 716.937 461.525
429 0 89.148 9.84879 878 53.3804 716.867 455.082
430 1 55.0871 11.3457 625 48.8448 717.37 481.782
431 0 47.0197 10.3999 489 52.9489 717.748 478.307
432 0 57.0277 11.6785 666 49.1937 717.398 481.101
433 0 58.1206 11.4417 665 49.1805 717.033 480.711
434 0 56.0295 11.958 670 50.6776 717.263 479.785
435 0 58.1401 12.2291 711 50.1617 716.256 479.513
436 0 58.1374 11.7136 681 50.8972 716.564 477.642
437 0 61.1402 12.6104 771 49.8197 716.493 477.673
438 0 64.0645 12.6747 812 49.1847 716.917 477.112
439 0 64.0877 12.0772 774 50.3165 716.64 475.314
440 0 63.1049 12.2019 770 51.3662 716.621 474.029
441 0 72.0561 12.3376 889 49.5039 716.928 473.448
442 0 71.0887 12.6321 898 49.8742 716.255 472.275
443 0 74.2732 12.8714 956 49.5105 716.532 471.3
444 0 75.1769 12.7566 959 49.8926 716.923 470.667
445 0 79.1146 12.7157 1006 50.5825 716.588 469.116
446 0 82.1252 11.8599 974 51.2998 716.384 466.773
447 0 85.0517 12.1456 1033 51.3049 716.864 465.743
448 0 84.11 12.7333 1071 51.1671 716.89 464.428
449 0 86.1232 12.6795 1092 51.6172 717.19 463.107
450 0 91.1842 12.6228 1151 51.7185 717.764 462.496
451 1 47.045 12.0098 565 50.7398 717.204 480.671
452 0 52.1114 11.4946 599 50.6127 717.604 481.149
453 0 51.0464 11.8715 606 50.8581 717.685 478.781
454 0 55.1172 11.2669 621 51.3639 718.05 477.628
455 0 55.092 11.8529 653 50.7014 717.242 476.962
456 0 56.0407 11.8664 665 50.991 717.432 476.34
457 0 58.0493 12.4894 725 49.8703 718.04 475.542
458 0 59.0803 11.9837 708 50.7684 717.96 474.186
459 0 62.0634 11.9555 742 51.0822 718.168 474.441
460 0 64.0756 11.7986 756 51.3796 719.017 473.407
461 0 66.1047 11.8297 782 50.9194 719.056 472.731
462 0 67.1098 12.0847 811 50.8483 717.887 471.351
463 0 69.0901 11.608 802 51.591 718.273 470.162
464 0 71.0551 11.5122 818 51.9328 718.185 468.626
465 0 75.0931 12.1316 911 51.0889 718.85 467.671
466 0 76.066 12.0159 914 51.2396 717.861 467.502
467 0 77.0236 12.23 942 51.6762 718.229 464.605
468 0 80.1012 12.1846 976 51.7613 718.543 462.796
469 1 44.0655 10.2575 452 51.7212 718.741 482.655
470 0 41.0705 11.2976 464 52.3556 718.517 481.241
471 0 44.0715 11.6402 513 51.0039 718.875 481.552
472 0 47.0304 10.6739 502 51.8725 718.962 478.892
473 0 45.0481 11.632 524 52.1641 719.288 478.773
474 0 50.0791 11.1024 556 51.5809 719.133 478.155
475 0 51.0672 11.6122 593 51.1113 718.489 477.425
476 0 52.1035 12.2832 640 50.2734 718.605 477.656
477 0 54.1448 12.1526 658 50.5745 718.243 476.543
478 0 53.0311 12.1815 646 51.3173 718.512 475.724
479 0 55.0464 12.0807 665 51.2271 717.817 475.186
480 0 57.1425 11.4276 653 51.4395 717.838 473.248
481 0 59.078 11.781 696 51.1135 718.481 473.629
482 0 61.0908 11.8676 725 50.32 718.272 473.03
483 0 60.0325 12.1101 727 50.8748 718.887 471.362
484 0 64.1611 11.6581 748 50.9853 718.988 470.689
485 0 64.0922 12.2012 782 50.9233 718.931 470.252
486 0 64.0182 12.2621 785 51.3325 719.292 468.801
487 0 68.1358 12.1375 827 50.5961 719.407 467.999
488 0 69.0474 12.1221 837 50.914 720.042 466.662
489 0 70.0692 12.7588 894 50.2685 719.688 466.625
490 0 72.069 12.5713 906 50.5287 719.494 466.825
491 0 74.1598 11.8528 879 51.1035 719.477 466.13
492 0 78.1223 12.5188 978 50.3282 719.747 465.316
493 0 80.1264 12.1059 970 50.3825 719.792 464.874
494 1 44.0754 10.4594 461 49.9262 719.499 482.141
495 0 43.0806 10.6777 460 50.5348 719.622 482.239
496 0 46.0297 10.906 502 49.998 719.01 480.888
497 0 44.0344 11.4002 502 50.488 720.195 481.092
498 0 46.0326 11.4484 527 51.0569 719.899 480.454
499 0 47.0862 11.0648 521 51.1209 719.948 479.762
500 0 48.0218 11.5364 554 50.3412 719.865 478.87
501 0 52.1167 11.2248 585 49.9795 719.644 478.414
502 0 52.0821 11.5011 599 50.0534 720.255 478.549
503 0 52.0499 11.9885 624 50.5144 719.409 477.417
504 0 53.0363 11.9729 635 50.2551 719.813 477.561
505 0 56.0249 11.9947 672 49.7292 719.235 476.33
506 0 58.0798 12.1729 707 49.8232 719.629 476.636
507 0 60.0375 11.4428 687 50.9549 718.782 475.033
508 0 60.0931 12.2809 738 50.5081 719.732 476.551
509 0 62.0647 11.6814 725 51.4152 719.563 475.36
510 0 64.0541 11.7089 750 51.032 719.721 475.149
511 0 65.068 12.0028 781 51.9052 720.452 473.173
512 0 68.1043 11.9082 811 51.9285 719.499 472.565
513 0 68.0821 12.3087 838 51.8723 719.773 472.128
514 0 71.1096 11.9253 848 52.2276 719.246 471.404
515 0 73.111 12.3511 903 51.8184 719.565 471.28
516 0 75.0728 12.1482 912 51.1754 719.118 469.236
517 0 79.0912 11.885 940 52.4021 719.604 468.316
518 0 78.0799 11.9109 930 53.2129 719.467 467.368
519 0 81.0561 11.8807 963 52.7227 718.769 465.826
520 0 84.0655 12.2048 1026 52.6413 719.106 464.429
521 1 43.0086 10.4165 448 52.6875 718.27 485.527
522 0 44.0763 10.5953 467 52.6895 718.291 484.533
523 0 45.011 10.864 489 52.6237 718.1 483.566
524 0 48.0477 11.6551 560 50.9179 718.282 482.411
525 0 48.0231 11.6194 558 51.5484 718.703 482.746
526 0 51.02 11.3877 581 51.1601 717.966 483.37
527 0 52.0249 11.7252 610 50.118 717.961 481.885
528 0 54.0508 11.5817 626 50.5783 718.409 481.757
529 0 56.0585 11.381 638 50.6458 717.76 481.119
530 0 56.0565 11.4706 643 51.3406 718.154 480.316
531 0 58.0465 11.9904 696 50.3261 717.726 480.274
532 0 58.0433 12.215 709 50.5966 716.67 477.587
533 0 62.0304 11.3815 706 51.0496 716.806 477.003
534 0 62.0745 12.3239 765 49.7922 717.515 476.737
535 0 65.0288 11.8409 770 50.1792 717.879 476.071
536 0 65.0749 11.5405 751 51.3156 717.75 473.961
537 0 67.0538 11.7518 788 51.7107 717.78 473.392
538 0 67.0321 12.412 832 50.6647 717.774 473.829
539 0 68.0405 11.9782 815 51.8773 717.55 472.521
540 0 70.0898 12.5839 882 51.0193 717.298 471.923
541 0 73.0468 12.4578 910 51.3154 717.493 470.401
542 0 74.0417 11.7772 872 52.6044 717.189 468.711
543 0 75.1119 11.2765 847 53.9091 717.874 467.009
544 0 78.1156 11.4318 893 54.037 717.699 467.286
545 0 80.1227 11.6197 931 53.8636 717.617 466.794
546 0 83.133 12.077 1004 53.6384 718.566 464.928
547 0 82.1259 11.799 969 54.2921 717.959 463.05
548 1 42.1455 10.7722 454 53.9229 717.936 483.044
549 0 43.0689 11.2146 483 61.2526 718.058 482.408
550 0 44.0755 11.1853 493 60.8053 719.034 482.42
551 0 46.0543 10.531 485 59.7588 718.901 481.711
552 0 47.0787 11.3215 533 58.1088 718.253 481.88
553 0 49.1257 11.379 559 57.297 718.107 480.614
554 0 51.0185 10.9764 560 57.4179 718.446 480.241
555 0 50.0473 11.9287 597 57.0134 719.285 479.836
556 0 53.1129 10.9954 584 57.1164 718.901 478.738
557 0 55.0631 11.2416 619 56.5363 718.431 477.961
558 0 56.0518 11.4358 641 57.7145 718.858 478.103
559 0 60.0377 11.6927 702 56.0385 719.603 477.276
560 0 57.0829 12.0351 687 56.5895 719.9 476.485
561 0 60.1353 10.7757 648 57.1605 719.486 476.042
562 0 63.0987 11.9654 755 55.7841 718.534 475.113
563 0 64.1227 11.9458 766 57.0339 718.948 473.937
564 0 63.1689 11.9996 758 57.8061 718.736 474.244
565 0 67.2104 11.9178 801 57.9301 718.717 472.851
566 0 67.1285 12.4835 838 57.1265 718.356 472.115
567 0 69.1745 11.7529 813 59.3112 718.765 470.861
568 0 72.1092 11.5103 830 58.9807 718.404 470.375
569 0 75.2468 11.3493 854 59.5726 718.734 468.494
570 0 75.0719 12.468 936 57.937 718.282 468.626
571 0 78.0837 11.9231 931 59.5156 717.944 468.332
572 0 79.2899 12.0444 955 59.7393 718.449 466.33
573 0 82.0589 11.7598 965 60.1865 717.635 466.218
574 0 82.1623 12.025 988 62.2085 718.298 465.484
575 0 82.142 12.0645 991 63.0373 718.196 464.467
576 1 39.043 11.3977 445 60.0607 717.312 486.07
577 0 40.0041 10.9989 440 61.4864 717.78 485.175
578 0 42.0537 11.0573 465 61.8968 717.781 484.372
579 0 42.0177 11.1858 470 62.5255 717.638 484.738
580 0 45.0382 11.6346 524 60.0267 716.796 483.971
581 0 45.0208 11.1948 504 62.0615 717.298 482.417
582 0 49.0439 10.8882 534 61.927 717.7 481.506
583 0 49.0391 11.8069 579 60.1434 717.625 481.465
584 0 52.1281 11.702 610 60.1836 717.293 481.259
585 0 54.1005 11.1829 605 59.9471 717.155 479.888
586 0 54.1006 11.2938 611 60.162 716.943 479.516
587 0 54.0737 11.6323 629 60.7806 716.671 478.944
588 0 55.0304 11.6118 639 62.518 716.397 478.676
589 0 57.0975 11.384 650 62.04 716.766 478.588
590 0 57.0733 11.3013 645 62.7442 717.071 478.136
591 0 61.1857 11.653 713 61.5386 717.282 477.927
592 0 61.1784 11.2294 687 62.4396 717.016 476.764
593 0 62.0968 11.6914 726 62.146 716.91 476.182
594 0 68.4152 10.8163 740 62.0027 716.216 475.409
595 0 68.1032 10.6456 725 63.8262 716.225 473.695
596 0 69.0834 11.3631 785 62.4522 716.754 473.052
597 0 73.1214 11.3783 832 61.881 716.66 473.9
598 0 74.1144 11.3743 843 62.2728 716.991 471.39
599 0 75.2857 10.8121 814 64.0172 716.934 471.462
600 0 76.2509 11.6458 888 61.7466 716.829 471.028
601 0 77.1544 11.2502 868 63.7028 716.635 468.938
602 0 81.1458 11.2021 909 63.5732 717.538 467.518
603 0 84.1091 11.1878 941 62.2752 716.939 466.202
604 0 89.1287 11.3656 1013 62.152 717.311 465.071
605 1 39.0062 10.8701 424 61.1604 716.658 487.776
606 0 40.0432 10.6635 427 62.3724 717.098 486.831
607 0 44.0179 10.8138 476 60.9433 716.492 486.819
608 0 47.0175 10.1664 478 60.1004 716.715 485.762
609 0 45.0122 11.1748 503 61.4871 716.69 484.823
610 0 47.0303 11.482 540 59.5907 717.078 485.219
611 0 50.0184 10.796 540 60.05 717.465 483.311
612 0 53.0252 11.1645 592 60.0439 717.664 483.49
613 0 51.0369 11.2468 574 60.6672 717.211 482.347
614 0 55.0161 11.0877 610 59.3639 717.134 482.741
615 0 53.0432 11.5001 610 61.1475 717.118 480.674
616 0 56.0838 11.4472 642 59.8847 717.249 480.91
617 0 58.069 11.5897 673 59.2779 717.404 478.997
618 0 58.0825 11.6214 675 60.1467 716.71 478.493
619 0 61.1323 11.8922 727 58.7015 716.641 478.05
620 0 63.128 11.7539 742 59.2911 716.888 477.035
621 0 67.0345 12.1878 817 58.601 717.196 476.236
622 0 65.0842 11.9998 781 59.5647 717.065 475.143
623 0 68.0302 11.4214 777 60.3514 717.243 473.624
624 0 69.0814 11.4068 788 60.8503 717.016 473.004
625 0 69.1299 11.5001 795 61.4428 716.948 471.955
626 0 73.119 11.7616 860 61 716.72 471.593
627 0 72.1444 11.3522 819 63.2466 717.303 471.194
628 0 75.0819 10.9081 819 63.7253 717.19 470.021
629 0 77.1401 11.4856 886 63.6535 718.253 469.04
630 0 77.0677 11.4056 879 65.025 717.757 469.13
631 0 81.2437 11.3116 919 64.3732 717.445 467.851
632 0 80.1552 11.7647 943 64.6129 717.889 467.589
633 0 83.0582 11.6665 969 65.2291 717.314 465.572
634 0 87.1705 11.3915 993 65.28 717.505 464.471
635 1 42.0526 10.368 436 65.9197 717.897 484.823
636 0 42.0239 10.97 461 65.1714 717.332 484.202
637 0 44.0514 10.624 468 65.7863 717.821 484.026
638 0 44.0647 11.3016 498 65.4297 717.962 482.082
639 0 46.0989 10.369 478 66.251 718.351 481.745
640 0 46.0176 11.0175 507 66.3787 718.483 480.97
641 0 48.0272 11.4727 551 65.6969 719.038 480.8
642 0 52.0189 10.823 563 65.9574 718.849 479.171
643 0 52.0643 11.6202 605 65.919 717.501 478.417
644 0 52.0287 11.9934 624 66.2564 718.013 477.686
645 0 55.028 11.376 626 67.2077 718.585 475.687
646 0 58.0284 11.5116 668 67.6437 717.829 475.68
647 0 57.1382 11.6735 667 68.2639 718.58 474.454
648 0 59.0147 11.8615 700 68.8 718.824 473.919
649 0 60.0271 11.2449 675 70.3081 719.153 473.316
650 0 60.0692 11.004 661 71.9032 718.995 473.705
651 0 65.1013 10.7064 697 71.7791 719.31 472.935
652 0 64.0552 11.3184 725 71.9876 718.714 471.588
653 0 65.1934 11.627 758 71.8391 719.034 470.54
654 0 65.0886 11.2769 734 73.5232 719.383 470.189
655 0 70.1506 11.4183 801 72.8015 718.719 469.185
656 0 69.1023 11.2297 776 73.8235 718.827 467.711
657 0 70.0606 11.333 794 74.364 718.792 467.883
658 0 73.1373 10.8836 796 74.2286 718.637 467.015
659 0 74.0965 11.3096 838 73.9356 718.864 465.671
660 1 38.0643 10.9814 418 72.0789 719.84 481.639
661 0 39.0112 11.3044 441 71.1361 719.9 481.154
662 0 40.0312 11.4411 458 70.2511 719.675 480.013
663 0 45.0314 10.6148 478 69.5439 719.151 479.891
664 0 44.0269 11.175 492 68.126 719.081 477.829
665 0 46.0229 11.6029 534 66.5805 719.451 478.217
666 0 46.0248 11.8849 547 67.0055 719.554 477.57
667 0 49.0217 11.4439 561 66.6346 719.091 475.98
668 0 50.0796 11.322 567 65.5855 719.12 475.011
669 0 50.0863 11.7597 589 64.8862 719.309 474.598
670 0 53.1047 11.9198 633 64.6193 719.641 473.78
671 0 55.0414 11.7366 646 64.5774 719.604 472.269
672 0 59.0628 10.9883 649 64.7365 720.451 472.917
673 0 59.1247 11.535 682 65.1378 719.635 472.818
674 0 61.0851 11.4594 700 65.4171 720.437 472.331
675 0 60.0812 11.6342 699 66.5894 720.11 471.319
676 0 62.0409 11.3957 707 67.447 720.382 472.147
677 0 62.0758 11.486 713 68.23 719.581 470.56
678 0 65.0772 10.9255 711 70.6962 720.328 470.699
679 0 65.1008 11.3209 737 69.7069 720.035 470.038
680 0 68.0287 11.7597 800 69.2788 720.467 470.373
681 0 68.07 10.9446 745 72.3812 720.177 469.464
682 0 71.1507 11.3421 807 72.0533 720.058 468.866
683 0 72.1423 11.006 794 72.9521 719.623 470.074
684 0 74.1325 11.2231 832 73.1791 719.69 468.555
685 0 76.0727 10.8975 829 71.7793 719.344 467.983
686 0 76.1329 10.9677 835 71.6036 719.764 467.309
687 0 79.2123 11.0968 879 71.8555 720.172 466.015
688 1 40.0573 11.3088 453 71.7439 719.567 484.269
689 0 39.1064 11.4559 448 72.1362 719.609 483.426
690 0 43.0163 10.9493 471 71.2866 719.535 482.682
691 0 44.0539 11.3724 501 70.2475 719.599 483.078
692 0 47.0255 10.6751 502 71.0518 719.546 482.709
693 0 47.0429 11.6277 547 70.5941 719.514 482.042
694 0 48.0247 11.5357 554 71.7076 719.042 480.998
695 0 50.0381 10.6319 532 72.9248 719.041 480.897
696 0 50.0813 11.9406 598 71.5836 718.868 481.244
697 0 54.0538 11.1741 604 72.154 718.358 480.207
698 0 53.0489 11.5742 614 72.8322 718.896 479.132
699 0 54.0368 11.6587 630 73.0365 718.919 478.462
700 0 55.0375 11.3559 625 74.1296 719.021 477.752
701 0 58.0862 11.328 658 74.8343 718.95 477.71
702 0 59.0995 11.3537 671 75.7347 719.156 477.091
703 0 60.0376 11.3096 679 76.3373 719.057 475.536
704 0 63.0911 11.3645 717 75.9386 719.208 476.086
705 0 64.0596 10.9742 703 77.1294 718.7 474.45
706 0 66.087 11.5 760 76.2474 718.267 474.699
707 0 67.0674 11.0188 739 77.3708 718.701 473.058
708 0 69.0532 11.2956 780 78.1718 718.591 473.576
709 0 72.0464 11.4648 826 77.3935 718.545 473.311
710 0 73.0835 11.7674 860 77.4837 718.435 472.142
711 1 36.0096 10.4694 377 79.435 718.411 489.594
712 0 37.0828 11.2181 416 77.0264 719 488.51
713 0 40.0375 10.9647 439 76.1321 718.317 487.932
714 0 44.0722 10.6643 470 75.1553 718.251 487.134
715 0 44.0232 11.6302 512 72.9883 718.305 486.762
716 0 44.0204 11.472 505 73.6871 717.945 485.162
717 0 45.0724 11.3151 510 73.049 718.531 483.451
718 0 46.0304 11.4707 528 72.5076 718.017 484.155
719 0 47.0308 12.0134 565 70.9168 717.981 483.368
720 0 51.0203 11.9756 611 69.9362 717.748 482.921
721 0 53.0415 11.9152 632 69.1614 716.832 482.016
722 0 55.0102 12.0341 662 67.6133 716.551 480.53
723 0 55.0937 11.5077 634 69.9574 716.642 479.797
724 0 58.015 11.8245 686 68.2201 717.137 480.009
725 0 60.0199 12.146 729 66.7106 717.302 479.15
726 0 59.0518 12.0572 712 68.4228 717.376 477.709
727 0 64.0657 11.9253 764 66.5406 717.143 476.262
728 0 63.0287 12.2325 771 67.0674 717.121 475.728
729 0 65.0997 11.828 770 68.0792 717.529 474.164
730 0 66.0402 12.3107 813 67.7355 718.082 474.116
731 0 66.0581 11.5202 761 69.3824 717.31 471.731
732 0 69.0333 12.3853 855 68.1743 718.087 470.809
733 0 71.0547 11.9345 848 68.4965 717.856 469.496
734 0 74.0575 12.3553 915 68.1683 717.921 469.645
735 0 76.1227 12.2303 931 68.7916 717.967 469.271
736 0 76.048 11.6374 885 71.7537 718.481 467.607
737 0 78.0746 11.4122 891 70.991 718.18 466.213
738 1 38.0201 11.8359 450 70.3156 718.253 485.771
739 0 40.0397 12.038 482 68.7054 717.944 484.749
740 0 42.0684 11.1723 470 69.734 718.036 483.726
741 0 45.0372 11.7014 527 67.8729 718.027 482.664
742 0 47.069 11.2388 529 67.465 717.896 481.376
743 0 49.0259 12.1976 598 67.1221 717.537 481.162
744 0 48.0558 11.778 566 68.3781 718.124 481.08
745 0 53.0585 11.6475 618 65.5291 718.782 480.401
746 0 53.0827 12.0755 641 67.3105 719.094 480.328
747 0 55.0419 11.7183 645 67.7581 718.33 479.233
748 0 53.0389 12.4814 662 67.5287 718.659 477.87
749 0 62.0969 11.788 732 66.071 718.817 477.807
750 0 59.0387 12.0768 713 66.9677 718.621 476.245
751 0 60.0733 12.4015 745 66.6738 719.04 476.902
752 0 61.0874 12.2448 748 67.1417 718.13 476.32
753 0 64.0464 11.5541 740 67.3041 717.626 474.696
754 0 68.0446 11.8452 806 66.0397 718.401 474.084
755 0 69.0418 12.21 843 64.3488 718.203 473.256
756 0 72.1121 12.2726 885 65.5062 717.671 472.828
757 0 71.0273 12.4178 882 66.076 718.582 471.85
758 0 73.0647 11.8799 868 66.8813 718.579 469.355
759 0 78.0768 12.3724 966 65.5124 718.91 469.976
760 0 78.0702 12.0533 941 66.5218 718.815 467.721
761 0 80.1114 12.0457 965 66.0922 717.365 465.734
762 1 42.0399 11.3464 477 63.6373 717.612 487.937
763 0 41.0204 11.7503 482 64.0539 717.861 486.05
764 0 44.0132 10.7922 475 64.0316 718.225 486.345
765 0 47.0272 10.6534 501 63.4052 718.417 485.07
766 0 47.0316 11.7155 551 62.2831 718.018 484.773
767 0 48.0731 11.1913 538 62.8364 718.243 483.827
768 0 51.1088 10.7222 548 62.7591 717.799 482.757
769 0 52.0498 11.2777 587 61.6627 717.257 483.291
770 0 53.1977 11.3539 604 61.3013 717.224 482.982
771 0 52.0592 11.9287 621 61.4992 717.185 482.275
772 0 56.0656 11.8076 662 61.2689 717.406 481.684
773 0 58.0254 11.2882 655 62.226 716.461 480.383
774 0 59.0428 11.9066 703 61.7283 717.135 480.531
775 0 57.0306 10.9941 627 63.9394 716.923 479.262
776 0 63.0802 11.4616 723 62.4495 717.017 478.136
777 0 61.0202 11.6027 708 63.565 716.463 477.347
778 0 60.0411 10.9592 658 64.9848 717.374 476.695
779 0 65.1548 11.066 721 64.1983 717.381 475.143
780 0 67.0897 11.507 772 62.5544 717.276 474.356
781 0 67.0819 11.7766 790 62.5949 717.565 473.238
782 0 70.0956 11.3274 794 64.5214 717.8 472.218
783 0 71.0598 11.807 839 64.3313 717.312 471.903
784 0 75.0581 11.6576 875 63.224 717.767 470.678
785 0 76.0871 12.0388 916 63.9127 717.413 470.165
786 1 42.0661 11.1729 470 62.8936 717.638 484.974
787 0 43.0276 11.0162 474 63.2532 716.812 483.766
788 0 48.0315 11.0552 531 62.0885 717.296 483.411
789 0 46.0619 11.4194 526 61.462 716.962 482.814
790 0 47.0346 11.3108 532 60.968 717.63 481.515
791 0 51.0559 10.89 556 62.2158 717.919 481.432
792 0 52.0793 11.2905 588 60.4541 718.204 479.444
793 0 54.0846 11.2047 606 60.2096 718.043 478.917
794 0 53.0207 10.8637 576 63.4722 717.845 478.641
795 0 53.0468 11.0846 588 62.7058 718.243 478.626
796 0 56.0594 11.4878 644 63.1242 718.427 477.447
797 0 58.0926 11.2923 656 64.2668 718.678 477.566
798 0 56.0174 11.4607 642 64.9798 718.371 476.97
799 0 57.0834 11.7197 669 63.9118 718.538 477.031
800 0 58.0558 12.0918 702 64.9373 718.907 476.98
801 0 60.0777 12.1343 729 65.4842 718.564 475.956
802 0 61.031 11.7481 717 66.3529 718.501 474.98
803 0 64.0426 11.3831 729 68.2634 718.626 474.764
804 0 63.0534 11.7044 738 69.9959 718.518 473.026
805 0 65.0556 11.7592 765 68.8065 718.94 472.991
806 0 67.071 11.8233 793 70.7793 718.46 472.987
807 0 70.0728 11.959 838 69.9021 718.142 473.109
808 0 73.0582 11.4292 835 73.315 718.771 471.277
809 0 74.0558 11.2618 834 74.1882 719.046 469.813
810 0 76.1002 11.682 889 74.3093 718.933 469.771
811 0 76.1159 12.1131 922 74.3102 718.073 468.88
812 1 39.0256 11.0184 430 76.5163 719.042 486.516
813 0 41.0206 10.8238 444 75.6667 718.847 486.376
814 0 41.0471 10.5489 433 76.7644 718.372 485.217
815 0 43.0593 11.101 478 75.1067 718.96 485.23
816 0 46.0498 10.8795 501 74.9341 718.625 484.589
817 0 46.0483 11.3359 522 74.6609 718.331 484.103
818 0 48.0823 12.0835 581 72.136 718.401 483.503
819 0 49.0913 11.6925 574 72.453 718.573 483.321
820 0 52.0671 11.8309 616 72.4756 718.638 483.563
821 0 52.0605 11.9861 624 72.5657 717.862 482.801
822 0 53.0209 12.2405 649 73.5439 718.374 482.219
823 0 56.0683 11.379 638 74.7555 717.983 481.279
824 0 56.1347 11.7752 661 74.4009 717.572 481.846
825 0 56.0843 12.1781 683 74.8594 718.108 481.041
826 0 61.0933 11.6707 713 74.1697 717.024 480.144
827 0 62.0773 11.5823 719 75.9624 718.37 478.777
828 0 59.0831 11.9662 707 76.2362 717.625 478.123
829 0 63.0727 11.4312 721 76.3606 717.356 477.631
830 0 63.0424 11.7699 742 76.0553 717.95 476.639
831 0 67.1022 11.475 770 73.5649 718.025 475.705
832 0 69.035 11.8056 815 72.5276 716.649 475.013
833 0 71.0748 11.6075 825 75.0194 717.285 474.745
834 0 73.0759 11.6865 854 73.0422 716.744 474.293
835 0 70.1067 12.1957 855 73.9778 716.398 472.481
836 0 72.0722 12.2238 881 74.0908 716.532 471.566
837 0 74.2002 12.1833 904 74.2887 717.645 471.567
838 0 78.112 11.7652 919 73.2938 717.734 468.963
839 0 79.0452 12.1829 963 74.5348 717.482 468.383
840 1 39.0262 12.0944 472 70.6589 717.39 486.568
841 0 41.0088 12.2169 501 69.6008 716.409 485.387
842 0 42.014 11.9008 500 69.378 716.928 484.068
843 0 45.039 12.0562 543 68.0313 716.705 483.847
844 0 48.0358 10.971 527 69.6452 717.552 482.457
845 0 49.0684 11.2904 554 68.7888 717.946 481.195
846 0 48.0472 12.009 577 67.6811 717.839 480.113
847 0 52.0041 11.3645 591 68.5245 717.492 480.416
848 0 52.037 11.5111 599 69.1987 717.377 478.683
849 0 54.0739 11.8357 640 69.6031 717.806 478.511
850 0 54.0448 12.1381 656 70.0183 718.157 477.788
851 0 53.0851 11.9431 634 71.0268 718.596 476.697
852 0 57.0433 12.0084 685 70.454 717.94 475.819
853 0 59.1623 11.7812 697 71.0387 718.382 474.978
854 0 60.0289 11.8943 714 71.7269 718.636 474.185
855 0 62.0785 11.9365 741 71.7355 718.857 472.368
856 0 65.0628 11.6349 757 71.7728 718.881 471.754
857 0 66.1709 11.3343 750 72.4547 719.655 470.249
858 0 67.0435 12.4695 836 71.0766 719.745 471.593
859 0 67.0767 12.0608 809 73.1607 720.274 469.459
860 0 72.1003 12.011 866 71.6374 718.588 469.262
861 0 74.1084 12.1714 902 71.5909 719.123 468.216
862 0 77.2908 11.6702 902 72.2483 719.815 466.986
863 0 76.0295 12.5741 956 71.5554 719.38 466.315
864 0 78.1081 12.6363 987 71.616 719.427 465.797
865 0 81.1334 12.1405 985 72.731 719.35 464.102
866 0 84.0579 11.9441 1004 72.4492 719.994 463.224
867 1 37.0221 11.6417 431 71.9861 719.838 483.817
868 0 42.0256 11.6596 490 69.4898 719.055 483.247
869 0 41.0145 11.752 482 70.1888 719.761 482.402
870 0 44.02 11.4948 506 69.0949 719.982 482.304
871 0 46.0406 12.0763 556 68.5863 720.214 481.417
872 0 46.0172 11.9086 548 70.3212 719.929 481.693
873 0 49.0517 11.967 587 67.5571 719.634 480.617
874 0 52.0473 12.0467 627 67.6619 719.236 480.257
875 0 51.0349 12.2857 627 66.0112 719.032 479.876
876 0 54.0452 11.9715 647 66.796 719.104 479.051
877 0 54.0231 11.5506 624 69.1522 719.5 479.05
878 0 55.0384 11.9916 660 66.3455 719.22 478.477
879 0 60.032 11.4606 688 67.8198 718.483 477.336
880 0 60.0494 11.6404 699 67.6409 718.313 477.023
881 0 62.0309 11.5265 715 68.2993 718.048 475.751
882 0 63.0387 11.8657 748 68.4439 718.361 475.365
883 0 66.1406 11.536 763 68.9817 718.558 474.849
884 0 67.1284 11.6046 779 69.1104 718.564 475.053
885 0 68.1077 11.9517 814 69.0799 718.127 473.601
886 0 69.0778 11.8562 819 69.2393 718.139 473.068
887 0 72.1741 11.6939 844 69.7725 717.911 471.863
888 0 73.0655 11.9755 875 69.8697 718.223 471.277
889 0 74.0565 11.8828 880 70.0864 717.839 471.05
890 0 77.0676 11.3537 875 70.6126 718.303 470.239
891 0 79.0471 12.2459 968 69.5393 718.112 469.248
892 0 82.135 12.1629 999 69.0891 717.732 467.834
893 0 84.1143 11.4012 959 70.123 718.416 466.397
894 0 87.072 12.1164 1055 68.6464 718.007 465.733
895 0 91.1726 11.5166 1050 69.3371 718.506 463.67
896 0 94.0819 12.4891 1175 68.6698 718.266 462.643
897 0 96.1027 11.3212 1088 70.3051 718.307 459.482
898 0 100.141 12.8918 1291 68.3765 718.16 458.5
899 0 105.097 12.8453 1350 68.3111 717.718 457.567
900 0 106.027 12.2327 1297 70.0517 718.131 454.493
901 0 112.13 12.2002 1368 70.3655 718.026 453.512
902 0 113.135 12.189 1379 71.6867 718.302 451.351
903 0 116.083 12.2413 1421 72.525 718.404 450.135
904 0 118.068 11.8067 1394 73.632 718.466 448.433
905 0 124.187 11.9417 1483 73.1989 718.475 446.553
906 0 126.194 11.7755 1486 74.9704 718.414 444.702
907 0 131.107 11.8453 1553 72.9163 718.111 443.234
908 0 136.114 12.203 1661 74.599 717.443 442.373
909 0 136.187 12.38 1686 73.669 718.453 439.136
910 0 140.148 11.9088 1669 76.2349 717.687 436.856
911 0 145.127 11.9344 1732 75.5982 718.222 434.364
912 0 148.206 11.8889 1762 74.6725 717.68 432.791
913 0 152.175 12.5448 1909 73.8921 717.617 431.974
914 0 156.181 12.1206 1893 75.3317 717.541 427.745
915 0 163.191 12.2617 2001 74.8976 718.199 427.637
916 0 165.196 12.2461 2023 75.3233 718.545 425.543
917 1 125.163 11.9684 1498 76.3264 718.472 445.104
918 0 130.139 11.6875 1521 75.3997 718.062 442.962
919 0 135.139 11.7953 1594 75.1343 718.194 441.153
920 0 140.102 11.9699 1677 74.5468 718.528 438.876
921 0 141.093 12.4103 1751 75.3147 718.633 436.016
922 0 146.246 12.4243 1817 74.1789 718.265 434.278
923 0 153.1 12.0313 1842 74.2182 718.602 430.941
924 0 157.158 11.7079 1840 74.6092 718.815 426.887
925 0 167.168 12.2691 2051 73.8654 718.465 427.884
926 0 170.194 12.2978 2093 73.8084 718.71 423.87
927 0 177.192 11.7556 2083 75.9145 718.495 422.07
928 1 118.108 11.9128 1407 76.4954 719.165 448.176
929 0 120.16 11.8842 1428 77.2024 719.388 446.571
930 0 126.281 12.3613 1561 75.1025 719.001 445.103
931 0 129.08 12.101 1562 77.9917 718.788 445.056
932 0 132.096 12.2411 1617 76.2925 718.639 441.929
933 0 137.119 12.1573 1667 76.2975 718.688 439.214
934 0 140.205 12.2178 1713 76.7572 718.628 436.736
935 0 145.159 11.856 1721 78.6833 718.279 435.414
936 0 150.102 12.6847 1904 76.5646 718.904 435.099
937 0 153.167 12.7899 1959 77.097 718.778 432.065
938 0 159.126 12.1288 1930 76.986 719.293 428.284
939 0 164.176 12.2308 2008 77.3212 719.653 426.723
940 0 170.225 11.9665 2037 75.9926 719.159 423.72
941 1 132.149 11.5929 1532 75.329 718.511 445.328
942 0 134.183 12.1029 1624 74.7094 719.113 442.64
943 0 140.129 12.1673 1705 73.5372 718.718 439.479
944 1 92.039 11.7559 1082 71.8983 718.143 460.319
945 0 95.1131 11.9437 1136 70.8926 718.42 458.534
946 0 100.064 12.0223 1203 68.6052 718.868 458.124
947 0 103.08 11.3213 1167 70.9366 718.993 455.314
948 0 105.053 11.8321 1243 68.7208 718.908 455.361
949 0 106.056 12.0785 1281 69.2022 718.295 453.571
950 0 113.104 11.9625 1353 68.2454 718.871 451.775
951 0 113.068 12.2227 1382 69.8878 719.446 450.147
952 0 122.161 11.9924 1465 68.6935 718.202 447.915
953 0 124.12 11.5775 1437 68.6333 719.678 445.44
954 0 128.161 11.6962 1499 70.5484 718.835 443.927
955 0 133.177 12.2844 1636 69.8527 718.643 442.946
956 0 134.212 12.6367 1696 67.5914 718.749 441.505
957 0 139.231 12.2171 1701 69.4738 718.108 439.734
958 0 142.267 12.4484 1771 68.956 718.837 437.829
959 0 145.156 12.3247 1789 71.1811 719.02 436.076
960 0 148.182 12.3901 1836 71.0507 718.477 432.947
961 0 155.213 11.9771 1859 70.7617 718.259 432.21
962 0 160.235 12.6627 2029 68.8314 718.395 430.024
963 0 165.1 12.1745 2010 69.9701 718.161 427.29
964 0 172.163 12.552 2161 69.6483 718.572 426.312
965 0 178.215 12.3222 2196 70.3584 718.621 423.455
966 0 184.219 12.1974 2247 70.4272 718.136 420.973
967 1 136.099 12.028 1637 70.526 717.552 445.042
968 0 139.077 11.9934 1668 70.9359 718.234 442.37
969 0 142.137 11.8829 1689 70.3985 718.426 438.308
970 0 146.136 12.4131 1814 70.0568 718.563 436.058
971 1 100.094 11.789 1180 71.3492 718.451 459.949
972 0 101.095 11.9689 1210 70.9992 718.377 458.76
973 0 107.138 11.8352 1268 71.2192 718.495 457.397
974 0 110.104 12.1067 1333 72.0203 718.113 456.489
975 0 109.048 11.7654 1283 73.756 718.182 453.662
976 0 115.131 12.3772 1425 73.4646 718.085 453.928
977 0 120.073 12.6756 1522 73.316 717.834 453.046
978 1 144.468 12.5357 1811 74.5318 717.89 438.515
979 0 153.232 12.3081 1886 74.3123 717.99 435.483
980 0 154.217 13.0076 2006 73.5673 717.482 433.075
981 1 73.1283 12.5396 917 77.3424 716.96 469.876
982 0 77.0507 11.9012 917 78.4111 717.228 468.35
983 0 78.038 12.1607 949 78.4542 717.933 467.072
984 0 79.0641 12.4709 986 77.5314 718.015 466.766
985 0 85.1689 12.1875 1038 77.0645 717.957 465.15
986 0 83.1297 11.8249 983 78.2065 717.764 462.965
987 0 87.1838 12.7661 1113 75.655 718.061 462.524
988 0 91.1271 12.3125 1122 75.8217 717.938 460.375
989 0 95.1453 12.6438 1203 74.2743 718.444 458.692
990 1 48.0573 11.6944 562 73.6085 717.778 480.374
991 0 49.1013 12.3418 606 72.4538 717.871 478.49
992 0 49.0367 12.562 616 72.2614 718.008 478.724
993 0 54.0854 11.5928 627 73.4928 718.338 478.485
994 0 53.082 12.6973 674 71.5772 718.362 476.853
995 0 54.0332 12.4553 673 71.2184 718.018 476.042
996 0 58.0325 12.4413 722 69.9474 718.017 474.832
997 0 60.0399 11.7422 705 71.3702 718.179 472.732
998 0 63.0376 11.977 755 69.6781 718.307 472
999 0 63.0579 12.3854 781 69.5915 718.128 471.215
1000 0 65.1312 12.1601 792 70.1073 718.16 470.338
1001 0 67.0873 12.0887 811 69.8816 718.196 470.219
1002 0 69.1174 12.1532 840 69.4988 718.692 468.135
1003 0 72.2141 11.6598 842 69.1485 718.507 466.69
1004 0 72.0752 12.5147 902 68.1064 718.931 465.85
1005 0 75.0366 12.5672 943 67.5005 718.331 464.648
1006 0 78.1288 12.4538 973 67.7688 719.004 464.146
1007 0 80.0373 12.1318 971 68.4161 719.007 462.279
1008 0 82.0563 12.1136 994 68.2324 719.845 460.568
1009 0 85.0752 11.7661 1001 67.8232 719.237 459.512
1010 0 88.0775 12.1484 1070 66.5458 718.777 458.485
1011 0 92.1082 12.0076 1106 66.4222 719.216 457.174
1012 0 95.0814 12.3158 1171 65.6311 718.902 454.541
1013 1 49.0735 12.6749 622 64.3778 719.426 475.717
1014 0 51.021 11.7207 598 65.0602 719.37 475.038
1015 0 52.0683 11.869 618 65.2055 719.299 475.042
1016 0 54.0271 12.1606 657 64.4414 719.639 473.689
1017 0 57.0472 12.5335 715 63.835 719.283 473.443
1018 0 58.0521 12.0926 702 64.6567 719.547 471.585
1019 0 60.1442 11.805 710 65.5761 720.551 470.383
1020 0 64.0443 12.2571 785 65.2803 720.136 470.625
1021 0 65.0817 12.492 813 65.3653 720.502 469.828
1022 0 66.0368 11.751 776 66.991 720.058 469.289
1023 0 68.0411 12.4484 847 66.3802 719.915 468.783
1024 0 70.0665 12.6451 886 65.9131 719.23 468.247
1025 0 72.0598 12.1704 877 67.3261 719.517 466.891
1026 0 76.143 12.7786 973 66.4974 719.424 466.48
1027 0 76.053 13.3723 1017 66.0698 719.24 464.418
1028 0 78.1139 12.7762 998 67.2285 720.097 463.142
1029 0 80.1301 12.6295 1012 67.2816 719.924 461.42
1030 0 82.2121 12.6624 1041 66.8184 719.768 459.433
1031 0 85.0746 12.4126 1056 66.5398 719.338 458.562
1032 0 90.037 12.617 1136 65.75 720.267 458.71
1033 0 95.2061 12.1106 1153 65.8517 720.475 456.516
1034 0 98.142 12.9404 1270 64.4866 720.443 455.952
1035 0 99.0975 13.0074 1289 63.5943 720.272 454.379
1036 0 102.069 12.8835 1315 64.0563 719.814 452.052
1037 0 107.078 12.9625 1388 63.0245 720.11 450.63
1038 0 110.111 12.8416 1414 63.5523 719.674 447.953
1039 1 59.0616 12.3938 732 62.9768 719.462 476.111
1040 0 58.1039 12.2711 713 64.8976 720.388 474.478
1041 0 61.0361 12.2714 749 64.47 720.254 474.57
1042 0 63.0465 12.7366 803 63.7883 720.471 473.082
1043 0 62.0578 12.7945 794 65.4395 720.446 473.497
1044 0 63.0793 12.73 803 65.8755 719.692 472.63
1045 0 65.0713 12.6938 826 66.1308 720.611 471.403
1046 0 66.0631 12.7757 844 66.6173 720.083 470.456
1047 0 67.127 12.9754 871 66.9736 719.948 469.617
1048 0 71.0667 12.8893 916 66.8854 719.983 469.765
1049 0 71.1213 12.6263 898 68.6793 720.262 467.568
1050 0 73.0835 13.2588 969 67.8545 719.891 467.801
1051 0 77.0677 13.0016 1002 67.7305 720.053 467.136
1052 0 80.151 12.4265 996 68.2038 718.856 465.511
1053 0 80.1061 12.783 1024 69.0225 719.819 464.047
1054 0 83.1959 12.9333 1076 68.0911 719.225 463.941
1055 0 84.1207 12.9338 1088 68.7941 718.989 462.616
1056 0 88.1056 12.7915 1127 67.5723 718.824 460.727
1057 0 93.1316 12.9065 1202 67.1839 718.446 459.428
1058 1 45.0718 11.7812 531 68.1017 717.977 482.91
1059 0 45.0826 12.5104 564 67.594 718.149 481.511
1060 0 48.0392 12.7812 614 65.7068 718.466 480.66
1061 0 52.0976 11.8623 618 65.1715 718.558 480.461
1062 0 55.0831 12.345 680 64.3309 718.487 479.996
1063 0 53.0625 12.9093 685 64.7109 718.847 479.018
1064 0 55.0775 13.0906 721 63.9945 718.268 478.795
1065 0 54.0215 13.1614 711 65.3263 718.245 478.063
1066 0 59.0265 12.469 736 64.8764 718.315 476.629
1067 0 59.0826 12.9818 767 65.0169 718.373 475.772
1068 0 60.0667 12.4528 748 66.992 718.664 475.005
1069 0 64.0795 12.6874 813 65.2694 718.268 474.55
1070 0 68.0723 12.6042 858 65.4674 718.445 473.295
1071 0 69.0952 12.5045 864 65.9317 718.316 472.914
1072 0 71.1088 12.6004 896 66.4196 718.192 471.26
1073 0 72.0586 13.0311 939 65.6155 718.001 470.392
1074 0 74.0776 13.2834 984 65.5132 717.916 470.367
1075 0 76.0863 12.683 965 66.8705 718.084 469.597
1076 0 77.0541 12.8351 989 66.2851 718.064 467.938
1077 0 83.2208 12.605 1049 66.428 717.858 467.563
1078 1 40.0153 11.8955 476 67.1954 718.515 486.935
1079 0 41.1248 11.8663 488 67.8463 718.6 486.02
1080 0 43.0572 12.0073 517 67.3501 718.193 485.228
1081 0 44.0413 12.7153 560 65.1607 717.88 485.289
1082 0 47.0461 11.967 563 66.1812 718.163 484.519
1083 0 47.0454 12.5836 592 65.6486 717.399 484.242
1084 0 51.028 12.1306 619 64.6511 717.863 482.672
1085 0 53.0232 12.2588 650 64.0062 717.875 482.197
1086 0 54.047 11.8415 640 64.875 717.467 481.078
1087 0 52.0516 12.1994 635 65.6031 717.652 479.847
1088 0 56.0627 12.3612 693 65.8023 718.446 479.492
1089 0 56.0366 12.7952 717 64.4212 717.59 477.954
1090 0 58.052 12.73 739 64.724 717.368 476.215
1091 0 62.0582 12.1821 756 65.2738 718.192 475.237
1092 0 64.12 12.1959 782 64.8632 717.857 475.237
1093 0 65.2159 12.4049 809 64.937 717.314 474.459
1094 0 67.0764 12.6423 848 64.7771 716.805 473.374
1095 0 69.1605 12.6517 875 64.8537 718.121 473.051
1096 0 69.0148 12.7799 882 65.1009 717.868 471.952
1097 0 70.0765 13.1285 920 65.2293 717.508 470.285
1098 0 74.0508 12.5724 931 65.7637 718.242 469.015
1099 0 76.1508 12.3439 940 65.7979 717.9 468.839
1100 0 77.1362 12.99 1002 65.2495 718.166 468.179
1101 0 79.0212 12.3891 979 66.3749 718.532 464.867
1102 0 82.0773 12.8172 1052 65.8489 717.916 464.656
1103 0 83.1212 12.4397 1034 66.5977 718.733 462.617
1104 1 42.0112 11.7111 492 65.9045 719.319 482.72
1105 0 43.0441 12.1271 522 65.3333 718.241 481.686
1106 0 46.0527 11.7691 542 65.4317 718.52 480.863
1107 0 46.0844 11.9346 550 64.9018 718.18 479.529
1108 0 49.0107 12.3851 607 63.743 718.699 479.056
1109 0 49.0315 12.3186 604 64.5662 718.531 478.106
1110 0 52.0604 12.3894 645 63.7426 718.527 476.491
1111 0 54.1094 11.9942 649 63.7427 718.891 475.712
1112 0 52.0685 12.2915 640 63.9953 718.616 474.572
1113 0 58.0666 11.6418 676 64.1036 719.077 472.672
1114 0 58.0531 12.368 718 64.6476 719.444 473.524
1115 0 59.0381 12.2294 722 65.2355 719.048 473.147
1116 0 59.0423 12.4995 738 64.7507 718.389 471.957
1117 0 62.0519 12.5057 776 64.0786 719.414 472.106
1118 0 65.2192 11.7757 768 66.1836 719.04 469.555
1119 0 64.117 12.3836 794 66.4131 719.214 469.811
1120 0 69.1155 11.3867 787 67.3634 719.883 469.306
1121 0 71.031 12.0229 854 66.6136 719.773 467.906
1122 0 72.0485 11.7143 844 67.9064 720.633 466.39
1123 0 72.1462 12.1143 874 67.3192 720.165 465.697
1124 0 75.1442 12.2298 919 67.3297 720.366 466.271
1125 0 75.0657 12.6955 953 66.9622 720.608 465.45
1126 0 78.0282 12.0213 938 67.9712 720.488 464.586
1127 0 80.0659 12.3898 992 67.6472 720.116 463.303
1128 0 82.1971 12.6768 1042 67.1008 719.086 462.686
1129 0 85.0712 12.4249 1057 67.1892 719.655 461.107
1130 0 87.0894 12.8144 1116 66.2518 719.955 460.311
1131 1 44.036 12.3762 545 65.3486 718.84 479.598
1132 0 45.0568 12.6285 569 64.9666 719.429 479.118
1133 0 50.0497 11.8283 592 65.1706 719.836 478.603
1134 0 52.0434 12.1437 632 63.8196 719.717 478.036
1135 0 51.0878 12.136 620 65.1581 719.706 475.94
1136 0 54.052 12.34 667 64.5532 719.751 475.316
1137 0 57.0422 11.9561 682 65.305 719.513 474.298
1138 0 56.1223 11.9738 672 66.1682 719.198 474.519
1139 0 57.053 12.8828 735 65.7633 719.301 473.649
1140 0 58.0354 12.4752 724 66.4227 719.211 473.301
1141 0 62.0622 12.4875 775 65.8206 719.959 473.137
1142 0 65.0612 12.0348 783 66.3755 719.207 471.898
1143 0 64.0648 12.2844 787 67.1652 719.634 471.202
1144 0 67.077 11.9713 803 66.995 718.882 471.601
1145 0 67.043 12.4845 837 67.2855 718.762 469.898
1146 0 71.1251 11.9789 852 67.3627 718.42 469.19
1147 0 71.0987 12.4756 887 67.1195 718.636 468.663
1148 0 72.0734 12.2514 883 68.3239 718.563 467.702
1149 0 76.0737 12.6588 963 67.8879 718.307 467.496
1150 0 77.2096 12.7186 982 68.0886 718.21 466.532
1151 0 80.0892 12.2738 983 68.531 718.521 465.414
1152 1 39.0105 11.3816 444 68.5045 718.518 485.223
1153 0 41.0253 11.3345 465 67.9656 718.318 484.415
1154 0 43.0462 11.9406 514 66.8385 718.42 482.963
1155 0 44.0809 11.9553 527 66.5332 718.571 483.211
1156 0 45.0464 12.0542 543 65.6133 718.363 482.125
1157 0 50.0613 11.426 572 65.222 718.411 481.486
1158 0 46.0376 12.1205 558 65.8638 718.147 480.891
1159 0 50.0372 11.6313 582 66.055 718.699 481.716
1160 0 51.0632 11.7697 601 65.6972 717.955 480.597
1161 0 53.0362 11.4262 606 66.4538 718.439 479.695
1162 0 53.0133 12.0159 637 65.7535 717.805 479.708
1163 0 56.108 11.9056 668 65.0015 717.26 478.94
1164 0 57.0541 12.5495 716 63.398 717.501 478.369
1165 0 57.0465 12.6213 720 64.4667 717.769 478.597
1166 0 61.0345 12.1898 744 64.5632 717.551 478.091
1167 0 63.0244 11.9319 752 64.2779 718.156 477.036
1168 0 62.1518 12.2764 763 64.7811 717.413 474.89
1169 0 66.1359 12.4743 825 63.4121 716.972 474.492
1170 0 67.1303 12.081 811 64.5216 716.716 472.584
1171 0 71.1235 12.1619 865 63.2347 717.377 471.465
1172 0 72.1231 12.4509 898 63.2661 717.096 471.116
1173 0 75.0908 11.9988 901 63.5316 717.283 469.648
1174 0 75.198 12.3541 929 63.3961 717.448 468.383
1175 0 79.0677 12.7106 1005 62.0149 718.04 466.904
1176 0 81.1543 12.7904 1038 62.1079 717.563 466.276
1177 1 40.0198 11.2694 451 62.9623 717.226 484.171
1178 0 45.1539 11.1618 504 61.3651 717.54 483.28
1179 0 43.0474 11.9403 514 60.8482 717.774 483.037
1180 0 46.0599 11.8107 544 60.0754 717.217 481.228
1181 0 48.1212 12.0945 582 59.4124 717.345 480.806
1182 0 48.0359 12.1159 582 58.8969 716.73 479.366
1183 0 51.0192 11.4859 586 59.8464 717.693 478.741
1184 0 50.0581 12.1659 609 59.8456 717.407 477.433
1185 0 51.0215 12.3281 629 60.663 717.997 476.237
1186 0 55.0614 11.7687 648 60.8565 718.114 476.534
1187 0 54.0337 12.3812 669 60.846 718.082 475.471
1188 0 58.1184 12.4917 726 60.5468 718.131 474.27
1189 0 59.0763 12.0184 710 61.4028 717.539 473.246
1190 0 60.04 11.7588 706 62.6487 717.568 471.554
1191 0 61.0349 12.5174 764 62.4359 717.745 472.607
1192 0 66.1347 11.8546 784 62.4503 718.198 470.7
1193 0 66.0977 12.4513 823 62.5796 718.648 470.366
1194 0 68.2492 12.0441 822 63.4708 718.488 469.428
1195 0 69.107 12.1695 841 63.6635 718.382 468.012
1196 0 71.0307 12.5861 894 63.7025 718.283 467.113
1197 0 72.1287 12.5609 906 63.8234 718.19 465.235
1198 0 78.0534 12.0815 943 63.6034 718.997 465.58
1199 1 43.0287 11.0624 476 64.8613 718.784 482.288
1200 0 42.0311 11.777 495 64.2384 718.943 481.699
1201 0 48.018 11.1417 535 63.0075 718.193 480.15
1202 0 48.017 11.1835 537 63.8082 718.259 479.764
1203 0 48.0126 11.9135 572 62.5455 718.995 479.465
1204 0 49.0433 11.7039 574 62.9059 718.23 479.166
1205 0 52.0039 11.8645 617 62.3501 718.486 477.601
1206 0 53.0878 11.9236 633 62.0585 718.532 477.19
1207 0 54.0232 11.9393 645 62.3721 718.425 476.879
1208 0 56.0236 11.7093 656 62.596 718.483 477.343
1209 0 56.0357 12.4563 698 61.4269 718.523 475.143
1210 0 58.0312 12.3726 718 61.0613 719.004 474.935
1211 0 61.0663 11.7413 717 61.5091 718.957 473.018
1212 0 61.1028 12.0289 735 61.3565 719.554 471.88
1213 0 64.0782 11.9541 766 61.4817 719.269 470.338
1214 0 64.0789 12.2505 785 61.5822 718.499 470.972
1215 0 68.1254 12.3596 842 61.2791 718.909 470.423
1216 0 69.0832 11.8842 821 62.6663 718.39 469.145
1217 0 73.1094 11.9273 872 62.0585 718.525 467.962
1218 0 76.0589 11.8592 902 62.4834 718.346 467.879
1219 0 74.0508 12.4779 924 62.9729 718.744 467.646
1220 0 78.0396 12.3143 961 63.1738 719.382 466.294
1221 0 80.1247 12.0063 962 63.6102 718.853 464.479
1222 1 40.0585 10.6594 427 65.3115 718.351 483.054
1223 0 42.0152 10.8056 454 64.826 718.894 482.544
1224 0 43.078 11.9086 513 62.8226 719.435 482.598
1225 0 45.0524 11.0982 500 63.562 719.132 481.606
1226 0 45.033 12.0134 541 62.4787 718.823 482.155
1227 0 49.0488 10.6425 522 63.5958 718.875 479.211
1228 0 48.0187 11.3081 543 63.1068 719.138 478.514
1229 0 53.0817 11.5294 612 60.8546 718.552 479.175
1230 0 54.0281 11.9567 646 60.5913 718.152 477.601
1231 0 58.0593 11.1438 647 62.1917 719.014 477.167
1232 0 56.0238 11.3702 637 62.2214 718.666 475.885
1233 0 59.0169 11.6407 687 61.5386 717.927 475.198
1234 0 60.1384 10.9913 661 62.8517 717.693 474.053
1235 0 59.119 10.2674 607 65.168 718.168 473.086
1236 0 61.0988 11.7351 717 63.1967 718.344 472.764
1237 0 63.081 11.9053 751 62.9134 718.276 472.141
1238 0 68.0964 11.19 762 63.8871 718.474 472.39
1239 0 67.1311 11.2913 758 64.1821 718.177 470.294
1240 0 70.1583 11.8304 830 63.0542 717.97 471.399
1241 0 73.1237 11.6105 849 64.139 717.828 469.001
1242 0 76.0559 11.4127 868 63.8756 717.531 468.525
1243 0 79.1595 11.3947 902 64.4945 717.875 467.071
1244 1 39.131 10.9632 429 64.2541 717.392 485.119
1245 0 40.1042 11.0961 445 64.6584 717.681 483.515
1246 0 39.0336 11.0674 432 65.0903 717.278 482.426
1247 0 42.0979 11.3782 479 63.5846 717 482.614
1248 0 44.0361 11.3089 498 63.3855 717.171 482.661
1249 0 46.0382 11.6425 536 62.6623 716.989 481.448
1250 0 47.1284 11.9461 563 61.8703 716.774 481.469
1251 0 51.1352 11.6554 596 61.2534 716.96 480.518
1252 0 50.0699 11.9633 599 61.8497 717.03 480.184
1253 0 53.0413 12.3112 653 60.8315 716.698 478.913
1254 0 55.0202 11.6866 643 61.2846 716.367 478.533
1255 0 55.0325 11.8112 650 61.2508 716.188 475.858
1256 0 61.085 12.0979 739 59.7673 717.083 477.096
1257 0 59.0977 11.5741 684 62.7865 717.246 475.656
1258 0 60.1021 11.4472 688 62.9012 716.807 474.499
1259 0 61.1028 11.6852 714 63.0546 716.976 473.88
1260 0 64.0977 11.9193 764 61.9673 716.755 473.508
1261 0 68.0587 11.0787 754 62.8196 716.621 471.829
1262 0 71.1008 11.5048 818 62.2286 716.866 471.598
1263 0 69.0735 11.9728 827 62.9081 716.721 472.273
1264 1 35.009 10.7972 378 64.7593 716.913 488.32
1265 0 36.0394 11.2932 407 63.6167 717.029 487.968
1266 0 38.0252 11.1242 423 64.4941 716.634 486.882
1267 0 39.046 11.3456 443 63.3815 716.549 485.668
1268 0 40.085 11.3758 456 63.4145 716.279 485.842
1269 0 41.0723 11.9545 491 62.9837 716.69 485.878
1270 0 44.0907 11.8846 524 62.3416 716.798 485.275
1271 0 46.0415 11.381 524 62.7481 717.281 483.363
1272 0 44.0338 12.0135 529 62.5463 717.157 483.529
1273 0 46.0359 11.491 529 63.2306 717.858 481.138
1274 0 48.0362 12.5738 604 61.6325 717.624 481.944
1275 0 52.0248 11.6675 607 61.7414 717.244 480.479
1276 0 51.0537 11.7719 601 61.8935 717.062 479.792
1277 0 54.0258 11.7722 636 61.6887 717.536 478.994
1278 0 55.0202 12.4318 684 60.7003 716.852 478.798
1279 0 60.1106 11.8781 714 59.7129 717.111 477.543
1280 0 59.0283 12.3331 728 60.5069 717.1 476.368
1281 0 62.0728 12.8559 798 59.8195 717.086 475.771
1282 0 63.0163 12.3143 776 61.3827 717.256 474.603
1283 0 65.051 12.7592 830 60.7277 717.266 476.617
1284 0 64.0961 12.5749 806 62.6278 717.574 474.37
1285 0 69.1022 12.3585 854 63.8021 717.454 473.724
1286 0 70.0521 11.8055 827 64.8803 717.184 472.127
1287 0 71.0313 12.8957 916 63.8865 717.175 472.002
1288 0 75.0956 12.3975 931 65.1568 717.393 471.205
1289 0 75.0804 13.026 978 64.5266 718.151 470.778
1290 0 76.0933 13.444 1023 64.0821 718.03 469.365
1291 0 78.0595 13.3616 1043 64.1035 717.404 468.352
1292 0 82.0488 12.3463 1013 65.7522 717.655 467.41
1293 0 84.1138 12.495 1051 65.8516 717.46 465.285
1294 0 85.0934 12.88 1096 66.0666 717.55 465.28
1295 0 86.0603 12.956 1115 66.6422 716.572 463.079
1296 0 89.0811 12.9433 1153 66.7268 716.33 461.618
1297 0 94.0603 13.2362 1245 66.1574 717.012 460.267
1298 0 95.0535 13.3609 1270 66.7047 717.486 458.959
1299 0 101.081 12.7917 1293 66.4377 716.584 456.522
1300 0 103.074 13.4078 1382 65.8763 717.395 456.162
1301 0 107.132 13.4693 1443 65.3105 717.318 454.437
1302 0 111.148 12.9827 1443 66.0589 716.376 451.877
1303 0 115.108 13.0312 1500 65.6253 717.101 450.922
1304 0 119.16 13.5281 1612 64.8617 716.946 449.138
1305 0 121.097 13.3117 1612 65.5043 717.151 445.481
1306 1 56.0582 12.1838 683 65.634 717.328 478.288
1307 0 61.0252 11.8803 725 65.3297 717.677 478.697
1308 0 58.0483 12.3346 716 66.2318 717.432 477.168
1309 0 64.0326 12.3219 789 65.1267 717.385 476.251
1310 0 65.0299 12.1636 791 65.3325 717.63 474.917
1311 0 65.0474 12.6831 825 65.3867 717.536 474.4
1312 0 67.0356 12.8887 864 65.2951 717.909 473.769
1313 0 69.0443 12.6006 870 65.623 716.526 472.83
1314 0 72.0481 12.6582 912 65.1414 717.586 472.213
1315 0 75.048 12.6586 950 65.0442 717.326 470.925
1316 0 79.0523 12.4601 985 65.4914 717.953 470.163
1317 0 78.1152 12.6224 986 65.4655 717.333 468.833
1318 0 80.0326 12.8947 1032 65.062 717.661 468.675
1319 0 84.0372 12.7325 1070 64.7598 718.01 466.038
1320 0 86.1122 13.3431 1149 63.7546 718.17 465.073
1321 0 88.0317 13.0862 1152 63.8455 717.16 464.261
1322 0 90.1104 13.0617 1177 64.1351 717.641 462.946
1323 0 93.0736 12.8178 1193 64.228 718.049 460.99
1324 0 98.0817 13.2645 1301 62.7871 717.294 460.809
1325 1 52.0463 11.3745 592 63.9409 718.627 483.429
1326 0 50.0505 12.2277 612 63.9003 719.038 481.99
1327 0 53.043 12.405 658 63.5061 718.839 480
1328 0 56.0526 11.4892 644 64.368 717.8 479.012
1329 0 55.0266 12.3758 681 64.9765 718.37 479.767
1330 0 57.0183 12.6801 723 64.4592 718.274 478.491
1331 0 60.0642 12.3368 741 64.3023 718.358 477.675
1332 0 62.0584 13.1811 818 63.0526 718.208 478.176
1333 0 65.0533 12.6204 821 63.5213 717.714 476.877
1334 0 63.0645 12.8757 812 64.8732 718.335 476.213
1335 0 67.0946 12.773 857 64.3652 718.006 474.841
1336 0 67.0138 13.4301 900 63.6689 718.069 473.838
1337 0 71.0571 12.7925 909 64.2167 717.717 473.121
1338 0 70.0576 12.9037 904 65.208 718.153 471.869
1339 0 72.1405 13.3212 961 64.7347 717.462 472.511
1340 0 77.0535 12.7184 980 65.3776 717.359 471.055
1341 0 73.1694 11.6032 849 67.8634 717.031 466.998
1342 0 76.0648 13.1598 1001 65.8252 717.113 469.739
1343 0 79.1288 13.497 1068 64.9045 717.061 468.36
1344 0 82.1068 13.3119 1093 65.0457 717.34 467.112
1345 0 85.0581 13.3673 1137 64.0484 716.661 465.713
1346 0 89.0583 13.508 1203 62.995 716.42 465.258
1347 0 93.2258 12.8183 1195 63.1448 716.436 462.922
1348 0 95.1079 13.4479 1279 62.0844 716.476 461.68
1349 0 98.1511 13.1226 1288 61.7873 716.968 458.87
1350 0 100.289 12.8528 1289 61.5764 717.843 460.703
1351 1 53.0521 12.3275 654 60.1651 717.846 483.015
1352 0 53.1011 12.7116 675 59.9719 716.767 481.636
1353 0 57.0345 11.6245 663 59.7783 717.169 480.869
1354 0 56.1451 12.8417 721 59.0319 717.146 480.931
1355 0 56.1425 12.8958 724 59.4019 717.477 479.087
1356 0 60.2138 12.5054 753 59.5803 717.661 478.781
1357 0 62.0715 12.4212 771 59.4306 717.173 478.259
1358 1 95.1213 11.3539 1080 52.3843 717.712 482.345
1359 1 67.0909 12.1775 817 59.5826 716.92 477.815
1360 0 65.038 12.8079 833 60.2497 717.084 476.086
1361 0 69.0924 12.78 883 59.7961 717.153 475.615
1362 0 72.1542 12.9168 932 59.897 716.861 474.266
1363 0 76.1139 12.5207 953 59.8625 717.204 473.362
1364 0 77.1641 12.778 986 60.2191 717.034 472.795
1365 0 78.076 12.7056 992 60.6028 717.406 470.819
1366 0 79.0386 12.943 1023 60.5513 717.23 469.894
1367 0 82.0951 13.1798 1082 60.1433 717.331 468.256
1368 0 85.2248 12.778 1089 60.4059 717.127 467.814
1369 0 87.2468 13.1925 1151 60.0043 717.625 466.52
1370 1 43.0075 11.8351 509 61.442 717.54 486.941
1371 0 47.0754 11.7684 554 60.3032 717.484 486.897
1372 0 47.1468 12.1747 574 60.3763 717.503 484.965
1373 0 48.0963 12.5789 605 60.4793 716.916 484.608
1374 0 52.0458 12.2776 639 59.9124 717.182 483.947
1375 0 52.0836 12.5567 654 60.2401 717.122 483.067
1376 0 53.1217 12.669 673 60.6999 717.001 482.074
1377 0 53.0908 13.0154 691 60.8524 717.181 480.812
1378 0 56.0447 12.6149 707 61.6011 717.027 480.82
1379 0 59.0553 12.8354 758 60.715 716.975 480.719
1380 0 61.0374 12.6644 773 61.2497 717.211 479.907
1381 0 60.1135 12.7592 767 62.7171 717.154 479.025
1382 0 61.096 13.0287 796 62.7261 716.467 480.141
1383 0 66.058 12.595 832 62.9099 717.126 478.168
1384 0 67.0843 12.7004 852 62.9178 717.103 477.723
1385 0 65.0687 13.4473 875 61.2366 717.195 476.562
1386 0 68.1327 13.1068 893 61.6473 717.791 474.646
1387 0 71.1063 13.1353 934 61.6349 717.922 474.734
1388 0 74.2643 12.2535 910 62.7407 717.602 472.209
1389 0 75.1732 13.3026 1000 61.484 717.985 471.597
1390 0 77.225 13.7391 1061 61.361 718.098 470.934
1391 0 81.1883 13.0684 1061 61.4562 717.243 469.699
1392 0 82.2492 13.143 1081 61.7817 717.06 468.365
1393 0 85.1442 13.3068 1133 61.2286 717.124 467.259
1394 0 89.1341 13.3282 1188 60.4773 717.042 465.304
1395 0 91.1896 12.8962 1176 61.165 716.822 462.798
1396 0 96.1325 13.4814 1296 59.6142 717.384 462.855
1397 1 48.1692 11.7295 565 60.7805 717.393 485.165
1398 0 50.088 12.3982 621 60.124 717.37 484.644
1399 0 52.1656 12.422 648 59.7639 717.27 484.267
1400 0 53.1339 12.6285 671 59.7571 717.136 483.209
1401 0 56.0255 13.0119 729 57.8957 716.767 481.012
1402 0 59.0992 12.0814 714 59.3235 716.896 480.429
1403 0 60.0956 12.2139 734 59.203 716.853 479.599
1404 0 59.0691 13.2726 784 58.9528 716.832 480.622
1405 0 63.1004 12.6941 801 58.9313 716.973 479.387
1406 0 61.1475 12.9523 792 60.1326 717.076 477.749
1407 0 64.1913 12.6964 815 59.838 716.501 478.763
1408 0 66.1341 12.5956 833 60.9928 716.797 477.02
1409 0 68.0937 13.0115 886 60.5045 715.252 477.011
1410 0 70.0591 12.4609 873 61.2669 715.637 475.952
1411 0 70.2043 12.9764 911 61.2031 715.269 474.571
1412 0 72.1441 12.2948 887 61.9729 715.568 473.44
1413 0 75.0811 12.5331 941 61.3634 716.295 472.203
1414 0 77.103 12.6843 978 60.8967 715.823 471.47
1415 0 79.1425 13.0398 1032 60.4438 715.354 470.213
1416 0 84.1142 12.4117 1044 60.9425 715.371 468.792
1417 0 85.1035 12.3144 1048 60.73 715.731 467.016
1418 1 43.0237 11.3193 487 60.8255 715.943 487
1419 0 47.0188 11.6762 549 59.439 716.067 486.505
1420 0 46.0527 12.4423 573 60.5777 716.127 485.794
1421 0 49.0622 12.6778 622 59.6865 715.986 485.481
1422 0 51.1107 12.2479 626 60.0256 715.807 483.573
1423 0 54.1491 12.1332 657 59.4216 716.245 483.589
1424 0 52.0612 12.9271 673 60.0594 716.608 482.018
1425 0 57.0586 12.7238 726 59.6543 716.202 481.919
1426 0 59.0617 11.8351 699 60.8827 715.451 479.675
1427 0 58.1588 12.0532 701 62.0385 716.528 479.207
1428 0 60.0821 12.4163 746 61.9571 715.977 478.456
1429 0 65.1803 12.7493 831 60.8063 716.538 478.188
1430 0 63.2585 12.9785 821 62.715 716.342 476.872
1431 0 67.1819 12.3247 828 63.7053 716.005 477.507
1432 0 66.1574 12.5156 828 64.9517 716.563 476.116
1433 0 67.1907 12.472 838 65.8377 716.308 474.582
1434 0 73.1809 12.4076 908 64.8954 716.544 474.085
1435 0 71.3286 12.8139 914 66.1805 717.182 472.451
1436 0 77.2024 12.8105 989 64.9191 716.482 471.943
1437 0 77.1644 12.6224 974 65.8388 716.226 470.266
1438 0 79.1656 12.2402 969 67.194 716.689 469.716
1439 0 81.1353 12.5223 1016 67.0915 715.616 468.118
1440 1 40.0879 11.6245 466 66.5944 715.803 488.931
1441 0 39.0764 12.2324 478 67.1297 716.354 488.381
1442 0 42.2385 12.1927 515 65.9903 716.183 487.623
1443 0 41.1976 11.5783 477 67.2222 716.281 486.47
1444 0 44.1065 12.2884 542 66.2989 716.45 485.613
1445 0 45.3106 11.9177 540 65.7463 716.1 484.526
1446 0 49.2415 12.6113 621 64.343 716.795 484.734
1447 0 50.1194 12.2707 615 63.6276 716.68 483.026
1448 0 49.0693 13.1243 644 64.132 716.691 482.175
1449 0 52.1469 12.4264 648 64.6744 717.36 481.593
1450 0 54.0514 12.5621 679 63.7894 716.58 481.459
1451 0 55.1843 12.0324 664 64.0151 716.834 479.681
1452 0 56.1567 12.6254 709 63.4499 716.533 479.724
1453 0 59.204 12.8876 763 63.1638 716.841 479.497
1454 0 58.134 12.4024 721 64.6352 716.469 477.803
1455 0 62.1558 12.5813 782 62.9552 716.453 477.999
1456 0 64.1761 11.9203 765 64.451 716.444 475.863
1457 0 66.1528 12.3049 814 63.6093 716.491 475.608
1458 0 68.1941 12.5964 859 62.6647 716.106 474.364
1459 0 72.0983 12.1362 875 62.9006 716.342 472.669
1460 0 71.2249 12.4535 887 62.8715 716.857 471.79
1461 0 76.0987 12.0633 918 62.7658 716.808 470.651
1462 0 77.2008 12.6294 975 62.4031 716.433 470.042
1463 0 76.1623 12.5915 959 63.0271 717.36 468.689
1464 1 38.0423 11.5398 439 62.3895 716.806 487.089
1465 0 41.0164 11.3369 465 61.9075 716.735 486.282
1466 0 45.0482 10.9882 495 61.7596 716.149 484.968
1467 0 45.0116 11.4193 514 61.7218 717.047 485.455
1468 0 44.0443 11.7836 519 61.9904 716.516 483.892
1469 0 48.063 10.5695 508 63.3543 716.549 482.415
1470 0 47.0398 11.9686 563 62.7087 717.387 483.187
1471 0 49.0352 11.7875 578 62.1453 716.458 482.874
1472 0 52.0091 11.0558 575 63.9009 716.896 482.329
1473 0 53.0137 11.0349 585 64.1829 717.207 480.585
1474 0 57.082 11.0893 633 63.6066 717.371 479.706
1475 0 56.0345 11.7428 658 63.4878 715.913 479.804
1476 0 61.0741 11.3796 695 63.6849 716.607 478.922
1477 0 62.0878 11.3549 705 64.5972 716.231 477.843
1478 0 62.0839 10.9529 680 66.4515 716.637 476.207
1479 0 61.0236 11.6021 708 66.3319 716.799 476.777
1480 0 65.1449 11.5742 754 66.4005 716.41 475.828
1481 0 67.0216 11.5933 777 66.9691 716.592 474.891
1482 0 70.1027 11.3405 795 66.9308 716.703 473.312
1483 0 72.0456 11.0486 796 68.0641 717.043 472.259
1484 0 75.1433 11.3783 855 67.455 716.718 471.518
1485 0 75.0188 11.7037 878 68.0342 716.771 470.151
1486 0 77.042 11.5002 886 69.4571 716.421 468.035
1487 0 79.0664 11.9393 944 68.4004 716.474 468.997
1488 0 81.09 11.962 970 68.1464 716.601 467.58
1489 0 86.0813 11.8377 1019 67.6241 716.949 465.488
1490 0 86.0528 12.0159 1034 67.8259 716.675 464.129
1491 0 90.0686 11.5912 1044 68.1772 716.715 462.427
1492 0 92.0921 12.5527 1156 66.6488 716.914 462.093
1493 1 44.0553 11.4402 504 66.9206 716.474 483.413
1494 0 46.0394 11.2078 516 67.2771 716.533 482.397
1495 0 50.0289 11.2535 563 65.8792 716.718 481.659
1496 0 49.1299 11.1541 548 66.6405 716.535 480.785
1497 0 53.0435 10.8967 578 65.7647 716.753 480.467
1498 0 57.0721 11.4241 652 64.1411 717.052 480.262
1499 0 56.0843 11.1261 624 65.3542 716.647 478.771
1500 0 59.1016 11.7425 694 64.3876 717.037 477.96
1501 0 59.0732 11.1895 661 65.9652 717.481 476.747
1502 0 60.0871 11.3668 683 66.3192 716.88 477.646
1503 0 63.1219 11.1372 703 66.1124 717.027 476.033
1504 0 65.1026 11.3052 736 65.7976 717.193 474.499
1505 0 69.2506 10.7003 741 65.7935 715.912 473.256
1506 0 68.0805 11.2661 767 66.1995 716.751 473.196
1507 0 71.1084 11.4473 814 66.2518 717.479 471.356
1508 0 74.2117 11.3729 844 65.9455 717.72 470.652
1509 0 78.0565 11.1714 872 65.5768 717.587 470.591
1510 0 76.1448 11.7802 897 64.9242 716.703 468.243
1511 1 40.0313 10.9914 440 64.9523 717.768 486.795
1512 0 40.1276 10.965 440 65.2136 718.282 485.645
1513 0 41.0727 11.1753 459 64.5425 717.743 486.096
1514 0 43.0879 10.9079 470 64.7532 717.689 484.957
1515 0 44.1789 11.7477 519 62.6551 717.83 483.707
1516 0 45.0265 11.3933 513 63.2943 717.554 482.429
1517 0 46.028 11.6668 537 62.8007 717.499 482.352
1518 0 48.0269 11.4103 548 62.7865 718.108 480.586
1519 0 52.0235 11.5525 601 61.7171 718.195 480.659
1520 0 56.0231 11.406 639 60.975 717.768 479.46
1521 0 54.0358 11.9735 647 61.3957 717.947 478.003
1522 0 58.0813 12.3103 715 59.9692 717.685 477.211
1523 0 59.0711 11.5116 680 61.2044 718.043 475.55
1524 0 60.0139 11.7306 704 60.8281 717.761 474.616
1525 0 65.047 11.1304 724 60.9807 718.109 472.917
1526 0 68.0966 11.5277 785 59.758 717.433 473.563
1527 0 68.0783 11.6043 790 59.9266 717.99 471.361
1528 0 73.1199 11.6521 852 58.9836 717.974 470.792
1529 0 75.1062 11.8499 890 58.3876 718.001 469.651
1530 0 77.2581 11.7658 909 58.3817 717.655 467.821
1531 0 80.0519 11.0803 887 59.3191 718.493 465.76
1532 0 81.0403 11.8336 959 58.2409 718.127 464.734
1533 1 41.0501 10.0609 413 58.6973 718.385 484.133
1534 0 43.0527 10.2665 442 58.4344 717.552 484.124
1535 0 43.0623 10.7983 465 58.4688 717.733 482.912
1536 0 45.0259 11.1936 504 57.6171 717.468 481.788
1537 0 47.0328 11.5451 543 55.814 717.341 482.123
1538 0 54.0437 10.8246 585 55.8256 717.096 481.168
1539 0 50.0154 11.6364 582 56.0464 717.156 480.454
1540 0 53.1041 11.7129 622 55.6688 717.691 478.535
1541 0 55.0496 11.8802 654 55.1147 717.719 478.884
1542 0 58.213 11.372 662 55.1133 717.867 476.715
1543 0 59.0455 11.669 689 54.8766 718.038 477.308
1544 0 60.0545 12.2222 734 54.0327 717.995 475.977
1545 0 62.0227 12.6889 787 53.1055 718.136 475.014
1546 0 67.103 11.3408 761 54.0289 718.146 473.569
1547 0 67.0521 12.3784 830 52.8 718.294 472.22
1548 0 69.0245 12.6477 873 52.5578 718.656 472.031
1549 0 72.1265 12.0344 868 53.1118 718.651 469.902
1550 0 77.1242 12.6031 972 51.7356 718.256 469.572
1551 0 74.0663 12.4618 923 53.1723 717.964 466.191
1552 0 78.2387 12.3596 967 53.0858 719.022 466.696
1553 0 83.1495 12.1348 1009 52.9306 718.348 465.027
1554 0 85.2174 12.1102 1032 52.8547 718.005 463.954
1555 0 86.352 12.6343 1091 53.9688 718.659 462.268
1556 0 89.2198 12.1386 1083 54.9224 718.496 460.063
1557 0 94.2145 12.1107 1141 54.3365 718.374 460.54
1558 0 95.2562 12.7341 1213 53.9373 718.676 459.461
1559 1 50.0133 10.4772 524 54.2977 718.647 480.815
1560 0 52.0636 10.1606 529 54.6805 719.04 480.231
1561 0 51.0186 10.7608 549 54.7541 719.126 479.727
1562 0 53.065 11.5896 615 54.1203 718.784 478.935
1563 0 54.0487 11.1196 601 54.6889 718.426 477.606
1564 0 57.0286 11.7485 670 53.6746 718.693 477.728
1565 0 60.044 10.9087 655 54.5176 717.942 475.198
1566 0 61.0456 12.2859 750 53.24 718.351 475.115
1567 0 64.0776 11.8294 758 53.533 718.867 473.809
1568 0 68.0257 12.4218 845 51.9799 718.806 473.343
1569 0 69.0432 11.3842 786 53.0687 718.235 471.214
1570 0 70.0841 12.1854 854 52.5457 718.475 470.33
1571 0 73.0951 11.8476 866 52.7517 718.715 469.109
1572 0 76.0707 12.2781 934 52.1135 718.789 468.671
1573 0 79.1327 12.2579 970 51.8021 719.046 467.073
1574 0 81.1001 12.5031 1014 51.6607 718.688 465.664
1575 0 84.1401 12.3841 1042 51.453 719.115 463.622
1576 0 86.0695 12.2111 1051 52.0067 719.08 462.883
1577 0 89.424 12.547 1122 51.7273 719.081 460.158
1578 0 94.1958 12.8668 1212 50.9983 718.9 460.541
1579 0 97.1732 12.5858 1223 51.5258 718.953 458.924
1580 0 100.141 13.3412 1336 51.0254 718.936 454.741
1581 0 105.168 11.8858 1250 52.6808 718.601 453.87
1582 1 54.1775 10.5948 574 52.8571 718.399 480.085
1583 0 56.0564 10.9354 613 52.8548 717.989 477.946
1584 0 58.0511 11.3176 657 52.3942 717.595 477.7
1585 0 55.0805 12.0188 662 53.8006 718.316 476.792
1586 0 61.1419 11.9394 730 52.737 718.647 475.91
1587 0 60.0808 12.2668 737 53.7151 718.624 473.916
1588 0 66.1102 12.2977 813 52.5867 718.83 474.772
1589 0 66.0855 12.393 819 52.8938 718.327 472.669
1590 0 64.0629 12.5189 802 53.692 718.849 471.363
1591 0 69.0463 13.0492 901 52.2153 718.699 471.195
1592 0 70.0728 13.1007 918 52.5773 718.582 470.382
1593 0 73.0703 12.5769 919 52.9913 717.832 468.9
1594 0 74.0937 12.4977 926 53.5443 718.259 467.739
1595 0 75.0242 12.7159 954 53.7862 718.468 466.916
1596 0 79.1089 12.6534 1001 53.6024 718.039 465.076
1597 0 82.0539 12.6137 1035 53.6628 718.95 464.06
1598 0 83.0837 13.1313 1091 53.3969 718.288 463.561
1599 0 88.0247 13.144 1157 53.1478 718.855 462.564
1600 0 89.0747 12.5962 1122 54.4314 718.797 460.455
1601 0 90.0585 12.7695 1150 54.6826 719.15 457.899
1602 0 94.1576 12.6171 1188 54.8678 719.45 457.139
1603 0 95.099 13.0811 1244 54.4791 718.965 455.849
1604 1 48.0179 10.4544 502 55.3048 718.255 480.169
1605 0 52.0408 10.8377 564 54.7482 718.876 480.406
1606 0 52.0092 11.1326 579 54.9775 718.889 478.983
1607 0 52.0578 11.737 611 54.9411 719.303 477.699
1608 0 55.1114 11.5221 635 54.9591 718.669 476.231
1609 0 56.08 12.1255 680 54.3706 718.788 476.229
1610 0 58.033 12.131 704 54.2869 719.311 475.626
1611 0 61.0546 11.9729 731 53.751 718.692 474.171
1612 0 64.024 11.8705 760 53.5987 718.591 473.762
1613 0 66.0926 11.8924 786 53.827 719.201 472.678
1614 0 65.0318 11.6405 757 54.7596 719.694 472.178
1615 0 65.0467 12.4526 810 54.1543 719.66 471.319
1616 0 68.0316 12.7294 866 53.4538 719.949 471.921
1617 0 69.0607 12.4818 862 53.9223 719.021 470.068
1618 0 70.0451 12.0208 842 54.747 718.602 468.951
1619 0 73.0682 12.0162 878 54.9009 719.385 468.574
1620 0 74.144 12.0441 893 55.2318 719.071 467.241
1621 0 79.1346 12.4977 989 54.1426 718.932 466.59
1622 0 77.0724 12.339 951 55.3596 718.487 463.854
1623 0 81.1395 11.6959 949 56.2666 718.535 464.366
1624 0 80.0749 12.6631 1014 55.4753 718.408 463.363
1625 0 84.0589 12.4199 1044 55.955 719.325 462.288
1626 0 87.141 12.4281 1083 55.8864 719.337 461.012
1627 0 89.0749 12.1359 1081 56.4385 719.401 460.012
1628 0 94.0451 12.0474 1133 56.4916 719.368 457.791
1629 0 95.2088 12.0997 1152 56.7509 718.76 456.01
1630 0 98.1408 12.4006 1217 56.364 718.646 454.767
1631 0 101.286 12.5091 1267 55.9329 717.811 453.208
1632 0 104.183 12.6604 1319 56.0053 718.575 451.57
1633 1 54.1588 11.614 629 54.806 718.412 476.707
1634 0 52.1232 12.0292 627 55.5072 718.967 476.456
1635 0 55.0956 12.3966 683 54.5329 718.518 475.851
1636 0 57.0422 12.3593 705 54.9489 718.501 475.267
1637 0 58.0679 11.8999 691 55.8813 718.508 473.903
1638 0 61.0453 11.6143 709 56.1622 718.518 473.827
1639 0 63.0992 12.1396 766 55.953 719.201 471.392
1640 0 63.0985 12.536 791 56.1783 719.622 470.627
1641 0 67.077 12.0608 809 56.2485 718.845 470.867
1642 0 66.112 11.7074 774 58.0607 719.252 469.797
1643 0 68.1077 12.4215 846 57.1454 719.563 469.612
1644 0 72.1253 12.0207 867 57.4983 719.074 468.159
1645 0 74.086 12.5665 931 56.7991 719.098 467.604
1646 0 76.2194 11.9917 914 57.7637 719.014 465.969
1647 1 37.0627 10.6037 393 57.1399 719.028 484.791
1648 0 38.0482 10.3553 394 58.0964 719.845 483.815
1649 0 39.0049 10.5371 411 58.8175 719.742 482.934
1650 0 38.0896 11.8405 451 58.4257 720.204 483.262
1651 0 41.0377 11.526 473 58.1057 720.218 482.446
1652 0 42.0984 11.4969 484 57.8574 720.085 481.605
1653 0 42.0219 10.8753 457 59.674 719.333 479.182
1654 0 48.0534 11.6329 559 56.2576 719.309 480
1655 0 46.0233 10.9944 506 58.2964 719.658 478.136
1656 0 50.1235 12.4093 622 55.0756 719.596 478.99
1657 0 53.0269 11.6922 620 55.7694 719.221 476.91
1658 0 53.0614 11.628 617 56.7245 719.438 476.674
1659 0 56.1059 11.5674 649 56.6502 719.572 474.92
1660 0 58.0428 12.284 713 55.4867 719.961 475.017
1661 0 61.0557 11.252 687 56.706 720.252 473.518
1662 0 61.1814 12.2913 752 55.5612 720.427 473.484
1663 0 66.0703 12.1688 804 55.1169 719.883 472.331
1664 0 66.0291 12.237 808 55.3688 719.842 470.708
1665 0 71.127 12.4847 888 54.045 719.557 469.619
1666 0 70.0904 12.5267 878 55.1834 719.813 468.132
1667 0 75.1556 12.4276 934 53.7323 719.392 467.707
1668 0 75.05 12.4317 933 54.8521 719.332 465.418
1669 0 77.1889 12.0613 931 55.4855 719.655 463.202
1670 0 82.0984 12.7895 1050 53.3067 719.97 463.964
1671 0 84.2135 12.7533 1074 53.2989 719.371 462.269
1672 0 87.1135 12.3058 1072 54.4123 719.593 460.135
1673 1 46.0651 10.3115 475 55.2716 719.912 477.341
1674 0 47.0243 10.7604 506 54.3123 720.283 477.263
1675 0 49.0138 11.1805 548 53.6259 720.838 476.429
1676 0 52.0857 10.9819 572 53.7133 721.019 475.706
1677 0 51.0498 11.8316 604 53.2086 720.344 474.571
1678 0 52.0183 12.1111 630 52.7714 720.638 473.048
1679 0 57.0652 11.5482 659 52.6707 720.498 472.554
1680 0 56.0338 11.4931 644 53.1025 720.085 471.458
1681 0 57.0723 11.5643 660 53.1636 719.656 470.341
1682 0 63.1057 11.6313 734 51.6935 719.489 470.161
1683 0 63.0203 12.1231 764 51.6113 719.03 469.12
1684 0 64.0576 12.1922 781 51.4878 719.612 467.878
1685 0 64.0989 11.6539 747 52.5783 719.691 466.153
1686 0 68.0527 11.7409 799 51.8398 719.332 465.89
1687 0 71.0861 11.8307 841 51.2759 719.424 463.667
1688 0 78.0931 12.2418 956 49.9874 719.142 464.176
1689 0 78.0296 12.7003 991 49.4228 719.758 463.016
1690 0 81.1078 13.0567 1059 48.8895 719.873 459.519
1691 0 82.2074 12.2738 1009 50.4341 719.586 459.749
1692 0 86.2065 12.5629 1083 49.4561 719.189 458.618
1693 0 89.1238 12.4097 1106 49.1239 719.145 456.476
1694 0 91.1296 12.5755 1146 49.3202 719.199 455.382
1695 0 93.1031 11.3745 1059 50.8895 718.914 450.642
1696 0 97.0739 12.1866 1183 49.53 719.099 451.633
1697 0 104.241 12.4903 1302 48.2581 719.175 450.077
1698 1 142.22 10.3783 1476 42.9079 718.86 457.367
1699 1 57.0749 11.0206 629 44.539 718.542 473.459
1700 0 58.055 11.1102 645 44.6527 718.998 472.654
1701 0 59.1119 10.7085 633 45.2638 717.981 469.943
1702 0 58.0458 10.819 628 45.3822 718.419 468.852
1703 0 63.0947 11.8552 748 43.2139 718.693 469.269
1704 0 67.119 11.1146 746 43.6408 718.126 468.7
1705 0 65.0781 11.0175 717 44.1785 718.416 465.515
1706 0 71.0318 11.7412 834 42.2794 719.185 467.332
1707 0 70.1031 11.9966 841 42.4756 719.015 464.517
1708 0 74.0424 12.1417 899 41.792 718.471 464.686
1709 0 78.1178 11.8411 925 41.8238 719.24 463.884
1710 0 78.0833 11.6286 908 41.9857 718.728 461.605
1711 0 81.1377 12.7191 1032 40.532 719.005 462.158
1712 0 84.1008 11.9975 1009 41.0525 718.235 459.398
1713 0 85.1645 12.0473 1026 40.9659 718.528 457.736
1714 0 86.1871 10.9413 943 42.4433 718.46 454.73
1715 0 91.2553 11.7363 1071 41.4734 718.471 455.289
1716 0 93.288 11.8343 1104 41.7002 718.411 453.983
1717 0 98.2306 12.5623 1234 40.2739 718.55 452.879
1718 1 45.1495 11.03 498 40.7932 719.062 476.104
1719 0 47.0291 11.142 524 40.4676 718.351 476.406
1720 0 51.0649 11.2798 576 39.7778 718.526 475.618
1721 0 50.0718 10.8245 542 40.8303 719.07 473.934
1722 0 52.0857 11.3275 590 39.9831 718.824 473.278
1723 1 92.6355 8.32295 771 36.5914 718.514 476.922
1724 1 57.0882 10.8078 617 40.0972 718.994 473.423
1725 0 59.0702 11.3255 669 39.6906 718.419 472.161
1726 0 62.0766 11.2764 700 39.44 718.826 471.244
1727 0 63.0894 11.7294 740 39.5027 718.509 469.315
1728 0 61.1408 11.2527 688 40.4593 717.897 468.344
1729 0 67.1004 10.9537 735 40.3415 718.361 467.805
1730 0 69.112 11.5754 800 39.2925 718.129 466.502
1731 0 70.0774 11.1163 779 39.9487 718.047 466.549
1732 0 70.2103 12.0495 846 39.2128 717.061 465.973
1733 0 76.1564 12.3036 937 38.1323 716.615 466.013
1734 0 79.2214 11.9286 945 38.5598 717.147 463.758
1735 0 80.1256 12.0061 962 38.8607 717.313 462.859
1736 0 83.3885 11.3325 945 39.6222 717.286 461.157
1737 0 84.1739 11.4881 967 39.9028 717.881 459.519
1738 0 87.2732 12.0426 1051 38.9886 717.327 459.755
1739 0 89.2468 11.4178 1019 40.1305 717.646 456.501
1740 1 49.0722 9.86302 484 39.7397 717.576 477.711
1741 0 49.1709 10.372 510 40.7843 717.931 477.092
1742 0 51.1104 11.1523 570 39.5035 718.023 477.346
1743 0 51.2141 10.4659 536 40.9347 718.155 475.545
1744 0 51.2416 10.8896 558 40.8566 717.475 474.421
1745 0 56.1633 11.6446 654 39.708 717.37 473.213
1746 0 56.1679 11.6615 655 39.4977 717.795 473.096
1747 0 61.0804 10.5926 647 40.2705 717.648 471.031
1748 0 60.1245 11.5926 697 39.8307 717.544 471.189
1749 0 60.1253 12.2411 736 39.1821 717.853 471.25
1750 0 61.1854 11.6531 713 39.9523 717.717 469.536
1751 0 67.1521 11.7494 789 38.9316 717.53 469.365
1752 0 64.1741 12.4661 800 39.0962 718.347 468.191
1753 0 69.1046 11.7792 814 39.3538 717.842 466.848
1754 0 68.1341 11.3893 776 39.942 717.903 464.501
1755 0 74.1498 12.178 903 38.763 718.011 464.688
1756 0 75.1207 11.5148 865 39.5387 718.363 462.695
1757 0 76.1636 12.0136 915 39.2732 718.556 462.859
1758 0 78.182 11.8697 928 39.6972 718.443 460.667
1759 0 81.2794 12.0203 977 39.696 718.341 459.208
1760 0 84.3073 11.9088 1004 39.9771 719.151 459.453
1761 1 42.0561 10.6049 446 39.6031 718.796 478.61
1762 0 46.0532 10.401 479 39.7119 719.228 478.432
1763 0 46.0851 10.1117 466 40.8069 719.388 475.942
1764 0 48.0548 10.7586 517 40.8259 719.217 475.948
1765 0 49.0972 11.0801 544 40.8915 719.18 474.654
1766 0 50.05 10.1099 506 42.3261 719.354 474.569
1767 0 53.1594 10.666 567 41.3915 718.889 474.709
1768 0 57.0964 11.4193 652 41.0752 719.83 473.868
1769 0 54.0953 11.8679 642 41.5047 719.925 473.623
1770 0 56.045 11.6157 651 41.9616 719.88 472.773
1771 0 57.1219 11.4317 653 42.6998 720.026 471.717
1772 0 62.1686 11.0828 689 42.103 720.138 470.502
1773 0 61.0515 11.5476 705 42.5518 720.488 469.991
1774 0 65.0953 11.5984 755 42.1099 719.841 469.677
1775 0 64.1051 10.7168 687 43.6594 719.215 466.92
1776 0 69.1072 11.692 808 41.7884 719.056 467.637
1777 0 70.0929 11.3992 799 42.3605 719.243 466.569
1778 0 74.1922 11.4702 851 42.0047 720.196 465.691
1779 0 75.2058 11.1029 835 42.9234 719.529 465.625
1780 0 80.1144 12.1202 971 41.8568 719.561 463.539
1781 0 80.2117 11.3948 914 42.7943 719.425 459.547
1782 0 81.1389 11.4372 928 43.0571 719.545 460.487
1783 0 86.1054 12.3105 1060 41.2208 719.5 461.864
1784 0 91.0934 12.0206 1095 41.5744 719.364 460.111
1785 0 90.0879 11.7663 1060 42.4255 719.123 457.738
1786 1 80.671 8.4293 680 36.825 718.722 483.975
1787 1 48.0897 10.7508 517 41.6054 719.574 478.957
1788 0 52.0299 10.8015 562 41.3381 719.055 477.477
1789 0 53.0699 10.9667 582 40.8162 718.797 478.526
1790 0 50.0457 10.2906 515 42.8816 718.586 475.817
1791 0 52.0395 10.665 555 42.4523 718.386 475.677
1792 0 56.15 10.7035 601 42.0649 718.807 475.28
1793 0 58.1171 12.0963 703 40.4936 718.653 474.963
1794 0 58.0553 11.5752 672 41.5015 718.592 473.357
1795 1 95.9446 13.7892 1323 33.1852 718.816 477.546
1796 1 63.0431 12.7373 803 40.1482 718.483 470.588
1797 0 62.1165 11.5428 717 41.8215 718.912 471.729
1798 0 68.1544 11.2979 770 41.6312 718.179 471.025
1799 0 69.0803 12.29 849 40.0848 718.029 471.22
1800 0 70.0333 11.5945 812 41.1552 717.55 468.919
1801 0 76.1079 11.799 898 40.3096 718.295 469.108
1802 0 77.1387 11.2784 870 41.2011 717.794 467.444
1803 0 78.1102 11.2405 878 41.3257 717.976 465.01
1804 0 79.0637 11.8259 935 41.0845 718.082 464.188
1805 0 80.1056 11.4099 914 41.5394 717.605 462.563
1806 1 42.1368 9.84887 415 41.6892 718.439 483.766
1807 0 41.0434 9.50214 390 42.6846 718.2 481.649
1808 0 39.0298 10.1461 396 43.2854 718.215 480.477
1809 0 45.0226 10.4614 471 42.0318 718.304 480.476
1810 0 47.0237 10.0375 472 42.6949 717.773 478.669
1811 0 49.0331 10.2176 501 42.2555 717.637 478.002
1812 0 44.0285 10.584 466 43.573 717.539 476.719
1813 0 53.0516 11.4228 606 41.2888 718 478.394
1814 0 55.0651 12.0948 666 40.5826 718.153 478.276
1815 0 54.0749 11.595 627 41.7656 717.528 475.841
1816 0 55.0605 11.4056 628 42.4172 716.221 473.876
1817 0 61.1538 11.7572 719 41.2656 716.912 474.253
1818 0 61.0527 11.5802 707 41.8925 717.035 472.727
1819 0 61.0816 12.0167 734 41.3542 717.174 472.067
1820 0 65.0395 12.2233 795 41.2365 716.836 470.789
1821 0 64.2715 11.0002 707 43.5771 717.303 468.451
1822 0 64.0997 10.6865 685 43.7197 717.486 465.679
1823 0 71.1493 13.2819 945 40.3937 717.29 468.593
1824 0 70.1805 11.7982 828 42.5942 716.95 466.493
1825 0 73.1678 13.1069 959 41.3754 717.278 466.584
1826 0 75.0964 12.8768 967 41.607 717.321 466.217
1827 0 74.193 11.2544 835 44.3222 717.274 462.337
1828 0 77.1116 11.9956 925 43.5189 716.794 461.494
1829 0 81.1328 12.1776 988 43.3593 716.839 461.234
1830 0 85.1015 12.2677 1044 43.2366 716.659 460.801
1831 1 44.0328 11.1508 491 43.7454 716.969 479.878
1832 0 47.0553 11.0296 519 43.8092 716.75 478.985
1833 0 51.0836 11.0211 563 43.7087 716.726 478.815
1834 0 49.0463 11.4789 563 44.508 716.885 476.128
1835 0 50.0311 11.9925 600 44.3 716.507 475.415
1836 0 54.0797 11.5385 624 44.867 716.263 474.391
1837 0 55.0354 12.3739 681 43.9515 716.874 474.16
1838 0 56.0248 10.7095 600 46.1867 717.42 471.547
1839 0 57.0329 11.4846 655 45.5466 717.545 470.656
1840 0 62.0481 12.0552 748 44.389 716.862 470.983
1841 0 63.0653 12.5901 794 43.9181 717.188 469.572
1842 0 65.0817 11.9696 779 44.5109 717.205 468.267
1843 0 66.0528 12.0207 794 44.8829 716.569 467.916
1844 0 68.0571 12.225 832 44.6719 715.996 467.093
1845 0 74.0278 12.063 893 44.2184 716.437 466.159
1846 0 75.0515 12.5514 942 43.845 717.277 466.174
1847 0 77.0647 11.9121 918 44.9085 717.387 464.22
1848 0 78.1089 12.0601 942 45.2028 717.225 463.588
1849 0 80.0884 12.1366 972 45.5761 717.113 461.221
1850 0 82.0984 12.2414 1005 45.5005 717.022 460.004
1851 0 85.1817 12.4088 1057 45.8619 718.098 459.504
1852 1 42.0316 10.2542 431 46.5847 717.675 480.03
1853 0 45.0204 11.3504 511 45.1389 717.82 480.196
1854 0 44.0848 11.1376 491 46.5193 717.619 477.862
1855 0 49.0124 11.1808 548 45.9781 717.796 477.974
1856 0 51.0722 11.3173 578 45.9446 718.128 477.413
1857 0 51.039 11.3835 581 46.6764 717.862 477.157
1858 0 54.0292 11.1977 605 47.1223 718.405 475.886
1859 0 54.0292 11.1421 602 194.661 718.417 475.809
1860 0 54.0419 12.2127 660 46.8758 718.138 474.98
1861 0 57.0376 11.2031 639 48.0986 717.731 473.881
1862 0 58.0375 11.5443 670 47.8194 717.564 474.551
1863 0 61.0337 11.3708 694 48.1816 718.357 472.821
1864 0 61.1016 11.6691 713 48.2062 718.122 471.506
1865 0 62.0517 11.99 744 47.9503 718.718 471.497
1866 0 68.0535 11.6085 790 47.4304 718.558 471.906
1867 0 71.0305 12.023 854 46.6183 718.295 470.884
1868 0 70.0669 11.8173 828 47.7271 717.883 469.686
1869 0 73.0427 11.637 850 47.3412 717.107 468.46
1870 0 73.0165 11.7645 859 48 718.062 467.366
1871 0 76.0711 12.2386 931 46.9689 717.302 466.54
1872 0 80.0958 12.2354 980 47.1439 717.628 466.153
1873 0 79.1129 12.1725 963 47.7362 717.715 464.454
1874 1 43.0157 9.5314 410 48.7049 718.139 482.361
1875 0 42.0216 10.0662 423 48.3593 717.586 481.473
1876 0 45.0119 11.1526 502 47 717.297 481.875
1877 0 46.0539 11.1608 514 47.4358 717.041 481.095
1878 0 49.0172 10.8941 534 47.7285 716.955 480.865
1879 0 48.0208 11.1202 534 48.5225 716.987 480.288
1880 0 53.018 10.9208 579 48.1192 716.316 478.58
1881 0 51.0538 11.2626 575 48.8974 716.529 477.697
1882 0 53.0919 11.5083 611 48.7971 716.601 477.286
1883 0 56.0363 11.7959 661 49.0635 716.608 476.554
1884 0 56.08 11.7867 661 49.8396 716.626 475.92
1885 0 60.1074 11.3963 685 49.9022 716.696 475.289
1886 0 60.0597 11.8549 712 50.2177 715.973 473.636
1887 0 62.036 12.0414 747 50.2918 715.398 473.108
1888 0 64.0634 10.8174 693 51.7691 715.482 470.345
1889 0 66.0595 11.8227 781 50.6556 716.181 471.496
1890 0 68.1684 12.2784 837 50.5902 715.869 470.345
1891 0 72.1452 12.1699 878 49.9089 714.998 469.358
1892 0 71.0826 11.4937 817 51.5594 714.989 466.122
1893 0 75.1258 11.8867 893 50.7178 715.521 466.41
1894 0 77.1625 11.56 892 51.3072 715.93 464.705
1895 0 82.101 12.0583 990 50.5697 715.639 463.675
1896 1 43.0737 10.1454 437 49.7002 715.183 483.551
1897 0 42.0869 10.6684 449 49.5256 715.401 482.383
1898 0 44.0334 11.0144 485 48.866 716.049 481.662
1899 0 45.0537 11.2976 509 48.5462 715.261 480.843
1900 0 47.0256 11.0153 518 49.1486 715.531 479.654
1901 0 49.0358 11.2163 550 48.8855 716.415 478.773
1902 0 50.1303 10.9116 547 49.7587 716.377 478.095
1903 0 50.019 11.2557 563 49.4796 715.286 477.046
1904 0 53.0528 11.7242 622 49.5096 717.05 476.043
1905 0 57.0717 11.1088 634 50.1593 717.024 474.779
1906 0 56.0439 11.5445 647 50.2303 717.011 474.238
1907 0 59.0694 11.4272 675 50.2415 716.495 473.769
1908 0 61.1136 11.2577 688 50.359 717.451 473.452
1909 0 63.0512 11.5145 726 50.2961 717.719 473.116
1910 0 63.1178 11.9459 754 50.1592 717.741 472.245
1911 0 66.0725 10.8971 720 51.5347 718.126 470.082
1912 0 68.111 11.4666 781 50.4277 718.213 470.337
1913 0 68.135 11.8441 807 50.0545 717.492 470.285
1914 0 71.147 10.9211 777 51.0644 717.185 467.23
1915 0 72.0872 11.6387 839 50.2026 717.373 467.311
1916 0 76.1149 11.5877 882 49.5612 717.421 467.026
1917 0 77.1331 11.9404 921 49.9707 717.333 466.101
1918 0 79.1487 11.51 911 50.6125 717.745 464.498
1919 0 81.1408 10.9932 892 51.1939 717.497 463.422
1920 1 44.0887 10.4789 462 50.0649 718.327 482.253
1921 0 43.0126 10.834 466 50.7403 717.951 480.835
1922 0 48.108 10.8922 524 49.8989 717.645 480.429
1923 0 47.0236 11.675 549 49.5738 716.588 479.193
1924 0 46.0181 10.5393 485 52.5918 717.184 477.493
1925 0 50.1316 11.4299 573 49.7871 717.124 477.344
1926 0 54.0167 10.9781 593 49.715 717.545 478.234
1927 0 54.077 11.7795 637 49.135 717.264 477.732
1928 0 56.0917 11.713 657 48.9787 717.268 477.683
1929 0 58.0601 11.1609 648 49.7531 717.165 475.647
1930 0 56.0551 12.0417 675 49.5007 716.71 476.963
1931 0 59.0873 11.6946 691 49.3965 717.275 475.2
1932 0 62.0351 11.8965 738 49.1721 717.286 474.954
1933 0 63.0923 12.03 759 48.9486 716.736 473.074
1934 0 63.0492 11.8003 744 49.5202 716.571 472.208
1935 0 66.0716 11.6843 772 49.1438 716.981 472.482
1936 0 70.1626 11.6159 815 48.5644 717.031 472.252
1937 0 70.0908 11.799 827 48.63 716.717 469.567
1938 0 73.1129 11.8857 869 48.0713 716.519 469.611
1939 0 75.1923 11.6501 876 48.3025 716.203 468.881
1940 1 41.012 9.24119 379 49.2296 716.361 484.715
1941 0 39.093 9.72042 380 49.2816 716.203 484.358
1942 0 44.0532 10.4419 460 48.2152 716.393 483.809
1943 0 47.1058 10.6569 502 47.3825 716.185 483.279
1944 0 48.0289 10.7435 516 47.1298 717.138 483.864
1945 0 46.0473 11.4665 528 46.7708 716.907 483.176
1946 0 46.0226 11.4726 528 47.1534 716.356 481.994
1947 0 50.1343 11.4492 574 46.7352 715.976 480.913
1948 0 51.0912 10.9021 557 47.6481 716.734 481.332
1949 0 52.1261 11.7408 612 46.817 716.391 480.309
1950 0 54.1052 11.0895 600 48.0517 716.645 478.797
1951 0 56.1301 11.7228 658 46.6353 716.22 477.848
1952 0 57.1595 11.5641 661 47.4478 715.561 476.188
1953 0 58.069 12.0374 699 47.1516 715.744 475.383
1954 0 61.1046 11.5867 708 46.6949 715.897 474.024
1955 0 61.1004 11.4893 702 47.094 715.996 473.433
1956 0 63.0891 11.9672 755 47.1629 715.278 472.819
1957 0 67.0353 11.5163 772 46.5648 715.79 471.912
1958 0 69.0931 11.6944 808 46.0359 715.094 470.796
1959 0 69.1728 11.9122 824 46.3968 715.515 469.383
1960 0 72.1761 11.9292 861 45.5761 715.585 467.282
1961 0 74.2137 11.7499 872 46.1284 715.625 466.265
1962 0 77.1923 11.6074 896 45.9286 715.403 465.19
1963 0 78.1794 10.9108 853 47.0363 716.14 462.348
1964 0 81.1612 12.2719 996 44.6566 716.556 463.54
1965 0 82.2328 11.5526 950 46.4853 716.574 460.631
1966 0 86.0852 11.7674 1013 45.5479 715.865 460.459
1967 0 90.1112 11.6079 1046 45.4837 716.454 459.549
1968 1 48.0851 10.5854 509 46.0766 716.804 476.519
1969 0 49.0449 11.0919 544 45.3768 716.752 476.996
1970 0 50.0719 11.0441 553 45.8752 717.099 476.108
1971 0 56.1095 11.228 630 44.9016 716.67 474.862
1972 0 56.0904 11.6954 656 45.0655 717.062 473.274
1973 0 59.1059 12.0123 710 44.2887 716.418 473.28
1974 0 59.0944 11.8793 702 44.3846 716.939 472.393
1975 0 63.0505 11.6098 732 44.612 716.44 472.13
1976 0 66.1158 11.6311 769 43.9922 716.575 471.744
1977 0 65.0639 12.7567 830 43.1566 716.387 470.942
1978 0 70.0663 11.5748 811 43.9186 717.445 469.414
1979 0 68.0618 12.1066 824 44.1517 717.307 467.004
1980 0 75.108 11.7298 881 43.8717 717.846 468.367
1981 0 74.0845 11.6219 861 44.3229 717.763 465.857
1982 0 79.0536 11.6756 923 43.5894 717.685 465.17
1983 0 78.1315 12.0182 939 43.6613 717.119 464.136
1984 0 82.1645 12.0733 992 43.8881 717.405 462.799
1985 0 81.0605 12.0774 979 44.0695 716.734 461.658
1986 0 87.1174 11.9609 1042 43.8119 717.53 460.595
1987 0 90.1718 12.1102 1092 43.7454 717.337 459.642
1988 1 48.0741 10.1094 486 45.0329 717.368 479.451
1989 0 49.0514 10.6827 524 45.084 717.66 478.821
1990 0 50.0584 11.127 557 44.8923 717.84 476.811
1991 0 53.07 11.4566 608 44.5576 717.151 477.436
1992 0 55.0375 11.3741 626 44.2173 717.955 476.783
1993 0 54.0599 11.7462 635 44.515 717.816 475.756
1994 0 57.0302 11.6605 665 44.8271 716.997 475.513
1995 0 59.0598 11.2428 664 45.2771 717.128 474.23
1996 0 60.0701 11.703 703 44.9673 717.145 473.623
1997 0 61.063 11.9221 728 44.7473 717.713 474.216
1998 0 64.0717 11.7993 756 45.1852 717.914 472.71
1999 0 63.1212 11.9611 755 45.7457 717.84 471.715
2000 0 70.0325 11.5946 812 44.9495 717.005 471.034
2001 0 70.088 12.0277 843 44.9359 717.482 470.675
2002 0 69.0515 12.6138 871 44.8243 717.313 470.587
2003 0 75.1051 11.9566 898 45.4499 717.366 469.472
2004 0 74.0874 12.3638 916 45.6703 717.061 469.163
2005 0 79.109 12.1604 962 45.2339 717.215 468.012
2006 0 79.1234 12.7775 1011 45.1978 717.148 466.817
2007 0 83.0502 11.8844 987 45.923 716.531 465.971
2008 0 82.1112 12.5561 1031 45.7876 717.282 464.689
2009 0 86.0398 12.4129 1068 46.264 717.565 463.873
2010 0 88.1005 12.6901 1118 46.1968 716.917 462.991
2011 0 92.0811 12.3587 1138 46.5369 717.029 461.199
2012 0 93.1637 11.7213 1092 47.7656 716.351 458.878
2013 0 94.2022 11.8044 1112 48.6295 716.411 458.247
2014 0 96.1844 12.2889 1182 47.7936 716.32 456.541
2015 0 101.101 12.1957 1233 47.7867 716.187 455.911
2016 1 51.0356 11.9525 610 46.2541 717.205 479.664
2017 0 51.0102 11.88 606 47.4356 717.04 479.977
2018 0 53.0505 11.555 613 47.6509 716.723 477.062
2019 0 56.1274 12.1688 683 46.5124 716.365 478.391
2020 0 55.0398 12.5182 689 46.7518 715.549 475.733
2021 0 55.1123 12.9009 711 47.4599 716.301 475.962
2022 0 58.0233 12.2192 709 47.8886 716.079 474.681
2023 0 60.0207 12.479 749 47.6742 715.591 473.895
2024 0 63.0212 12.5831 793 47.3846 716.318 472.976
2025 0 62.0449 12.91 801 47.8989 715.724 472.089
2026 0 65.0832 12.4917 813 48.5289 715.798 471.419
2027 0 67.0947 12.2961 825 48.64 715.572 470.697
2028 0 69.2396 12.5217 867 48.8662 715.676 469.441
2029 0 71.1725 12.6875 903 48.6567 715.192 469.549
2030 0 69.0994 12.8945 891 49.7329 715.47 468.522
2031 0 72.1349 12.7262 918 50.4902 715.906 467.582
2032 0 76.0658 12.2657 933 51.3323 715.902 466.598
2033 0 74.2088 12.1684 903 52.3145 715.796 464.801
2034 0 80.1156 12.5693 1007 51.6822 716.186 464.719
2035 0 80.0666 11.7402 940 53.4128 715.987 463.048
2036 1 39.0431 11.2696 440 54.6909 716.132 481.918
2037 0 41.0217 11.4817 471 55.0042 716.594 481.168
2038 0 41.0815 11.7571 483 55.2195 716.348 480.909
2039 0 42.0287 12.1822 512 54.7734 716.344 481.098
2040 0 47.1125 11.7379 553 54.443 717.083 480.141
2041 0 47.0283 12.2054 574 54.7509 716.617 479.256
2042 0 49.0907 12.3852 608 54.6266 717.127 478.324
2043 0 48.0879 12.7267 612 55.0114 717.521 477.382
2044 0 48.083 12.0001 577 56.8336 717.461 476.549
2045 0 53.1077 11.9003 632 55.9304 717.824 476.748
2046 0 55.0248 12.9578 713 54.6269 717.369 475.795
2047 0 57.0617 12.0396 687 56.2227 717.85 475.562
2048 0 60.0875 12.4651 749 55.9132 717.923 474.127
2049 0 60.0831 12.6991 763 56.2503 717.917 473.089
2050 0 61.1617 12.655 774 56.7506 717.833 472.305
2051 0 63.0869 12.6809 800 57.3013 717.454 472.074
2052 0 65.122 12.6992 827 57.5707 717.802 471.82
2053 0 69.1562 12.7104 879 56.8805 717.543 471.668
2054 0 68.1065 12.686 864 58.5833 718.007 469.91
2055 0 71.1844 11.8846 846 59.7128 717.435 469.548
2056 0 73.1738 12.2721 898 59.4432 717.42 469.011
2057 0 76.2328 12.3044 938 59.7388 717.33 468.602
2058 0 79.1544 12.0524 954 60.1803 716.805 467.5
2059 1 41.0515 11.5221 473 60.0655 716.357 484.381
2060 0 42.0256 11.8023 496 61.1673 716.579 484.115
2061 0 45.0352 11.2134 505 60.8891 716.56 483.418
2062 0 45.0591 11.7845 531 61.5537 716.996 483.26
2063 0 45.028 12.2812 553 60.3816 716.535 483.076
2064 0 45.0953 12.0412 543 62.5193 715.54 481.144
2065 0 47.0538 12.2413 576 61.3438 716.262 480.92
2066 0 50.0461 12.3087 616 60.2808 716.526 480.188
2067 0 49.0332 12.257 601 61.4992 715.88 479.186
2068 0 54.0937 11.8128 639 60.9124 716.36 478.831
2069 0 55.0494 12.625 695 60.1669 716.629 478.206
2070 0 56.0494 12.828 719 59.9458 715.595 478.024
2071 0 59.0341 11.8576 700 61.61 715.993 476.447
2072 0 60.0929 12.2643 737 60.886 715.662 476.362
2073 0 60.032 12.1102 727 61.3012 716.144 476.047
2074 0 63.0745 12.5407 791 60.7282 715.679 474.791
2075 0 65.0555 12.3587 804 61.4453 715.188 473.085
2076 0 67.0778 12.165 816 61.3725 714.38 471.801
2077 0 71.0629 12.2849 873 60.7125 714.78 470.748
2078 0 70.0702 12.8015 897 61.5452 715.086 469.071
2079 0 71.0399 12.5282 890 61.9169 714.927 468.103
2080 0 74.1404 12.4898 926 61.7711 715.34 466.34
2081 0 76.1605 12.1848 928 62.9494 714.912 465.927
2082 0 78.1093 13.1354 1026 61.5556 714.945 464.493
2083 0 82.095 12.5586 1031 62.0514 714.804 463.379
2084 1 43.043 11.2446 484 61.7376 714.963 483.031
2085 0 43.0246 11.9699 515 61.2524 714.977 482.441
2086 0 46.0322 12.1002 557 60.3106 715.384 481.065
2087 0 47.0278 11.6527 548 60.5 714.922 479.292
2088 0 49.0334 12.624 619 58.378 714.977 479.611
2089 0 50.0271 12.0734 604 59.5662 715.189 478.763
2090 0 52.0403 12.4327 647 58.9243 715.516 477.893
2091 0 54.045 12.6006 681 58.5154 715.592 476.313
2092 0 57.0213 11.7851 672 59.7381 715.158 475.659
2093 0 57.0386 12.4828 712 59.3469 715.368 474.926
2094 0 57.0633 12.565 717 59.3543 716.095 474.551
2095 0 61.0593 12.365 755 58.8411 715.274 473.299
2096 0 61.0311 12.9606 791 58.6536 715.42 472.475
2097 0 63.0762 12.2233 771 59.8988 714.536 470.738
2098 0 67.1091 12.2338 821 59.4361 716.337 469.851
2099 0 69.1274 12.1659 841 59.6147 716.584 470.693
2100 0 68.0259 12.804 871 59.8175 716.982 471.15
2101 0 69.1871 12.5023 865 59.8555 716.439 469.486
2102 0 70.0523 12.3479 865 61.1283 716.215 467.294
2103 0 73.0826 13.3411 975 59.3928 716.655 468.632
2104 0 77.0571 12.7178 980 60.2235 716.003 466.676
2105 0 79.1756 12.9459 1025 59.4732 716.128 465.052
2106 0 80.038 13.0188 1042 59.8215 716.462 464.044
2107 0 84.0526 13.0752 1099 59.3157 717.261 462.819
2108 0 86.0536 13.2592 1141 58.943 716.592 461.33
2109 0 90.2187 12.8133 1156 59.5138 717.05 460.006
2110 0 97.0679 12.8673 1249 58.4948 717.253 458.209
2111 0 96.1004 12.8615 1236 59.3058 717.053 456.316
2112 1 51.0594 12.2994 628 58.1051 716.541 478.068
2113 0 53.0956 12.5246 665 57.6195 716.574 477.714
2114 0 57.1185 12.0276 687 57.246 717.207 477.412
2115 0 57.1735 12.3659 707 57.7058 716.649 476.641
2116 0 57.135 12.6717 724 57.1464 716.576 476.258
2117 0 64.1054 11.8087 757 57.4201 716.283 474.568
2118 0 59.1165 12.9913 768 57.5182 716.523 473.436
2119 0 64.0965 12.5124 802 57.4239 716.475 474.11
2120 0 66.0501 12.6116 833 57.5642 716.257 473.958
2121 0 69.0682 12.0895 835 57.8862 715.687 472.343
2122 0 70.2146 12.5615 882 57.5272 715.621 472.046
2123 0 72.1544 11.6833 843 60.2467 715.601 470.301
2124 0 71.0758 12.8314 912 58.6425 715.694 470.117
2125 0 74.2801 12.4394 924 59.3571 715.43 468.605
2126 0 76.0796 13.3807 1018 58.3615 715.745 468.86
2127 0 78.0781 12.718 993 59.575 715.537 466.234
2128 0 81.1314 11.9066 966 60.7536 715.642 463.936
2129 1 45.1071 11.2177 506 58.7806 715.943 484.237
2130 0 43.0263 11.8532 510 59.6745 715.737 482.629
2131 0 47.105 10.8056 509 60.9273 715.226 482.511
2132 0 47.0803 11.576 545 59.9248 715.094 481.461
2133 0 49.0439 11.9485 586 58.9437 715.418 480.852
2134 0 51.1251 12.1858 623 58.573 715.385 481.416
2135 0 51.1422 11.8689 607 59.9407 715.537 479.061
2136 0 55.122 12.0823 666 59.1471 715.578 479.081
2137 0 55.0705 12.257 675 59.2785 715.664 478.807
2138 0 59.0776 12.1027 715 58.449 715.021 477.573
2139 0 60.0535 12.289 738 59.2304 715.481 477.217
2140 0 62.1637 12.1132 753 59.2258 715.206 476.009
2141 0 61.1048 12.5522 767 59.8827 715.278 475.005
2142 0 63.0908 12.6801 800 59.9275 715.346 475.076
2143 0 65.1564 12.8307 836 59.8612 715.342 473.959
2144 0 69.0983 11.925 824 60.8629 715.932 472.546
2145 0 69.0893 12.2161 844 61.7832 716.18 472.089
2146 0 70.1397 12.2327 858 61.7226 715.474 471.04
2147 0 75.1355 12.0316 904 61.479 715.409 470.515
2148 0 74.2176 12.0457 894 62.8221 715.752 469.291
2149 0 78.1451 12.0161 939 62.7263 715.593 468.251
2150 0 80.2394 12.2508 983 62.5921 715.254 467.746
2151 1 41.0682 10.8356 445 63.5416 715.44 485.885
2152 0 41.0582 10.6191 436 64.8555 715.722 484.264
2153 0 44.0558 11.6443 513 61.9084 715.602 485.232
2154 0 44.0533 11.872 523 62.3652 715.627 484.432
2155 0 46.1537 11.5484 533 62.152 714.923 483.278
2156 0 46.0551 12.2245 563 61.6714 715.643 482.517
2157 0 47.13 12.2003 575 61.9652 715.591 481.847
2158 0 49.0826 12.0206 590 62.1593 714.761 480.886
2159 0 49.0343 12.4607 611 61.8101 715.609 480.718
2160 0 52.1945 12.1086 632 61.5047 715.465 480.492
2161 0 53.199 12.3499 657 61.7945 715.686 478.686
2162 0 57.1629 12.4206 710 60.3662 715.942 477.844
2163 0 56.1091 12.85 721 61.4646 715.748 476.834
2164 0 59.0793 12.3901 732 60.9822 715.963 475.959
2165 0 59.1258 12.3973 733 61.955 715.442 475.924
2166 0 59.0584 12.6654 748 62.0214 715.099 476.13
2167 0 62.0894 12.9652 805 60.6348 715.222 474.985
2168 0 64.052 13.0363 835 61.0659 715.126 473.554
2169 0 65.0801 12.5845 819 62.0879 714.364 472.353
2170 0 68.0558 12.4457 847 62.0602 714.926 471.475
2171 0 71.0753 12.2405 870 61.8287 715.223 470.618
2172 0 70.1148 12.5366 879 62.132 714.978 470.039
2173 0 73.0712 12.7547 932 62.1309 714.936 468.797
2174 0 78.0793 12.1159 946 62.0423 715.074 467.465
2175 0 78.1982 12.9671 1014 61.4014 714.657 466.927
2176 0 80.1302 13.0413 1045 60.8077 714.452 464.971
2177 0 82.0743 12.5252 1028 61.071 714.289 464.259
2178 0 84.0283 12.6981 1067 60.9747 715.147 463.012
2179 0 88.2366 12.8291 1132 60.4947 715.025 461.732
2180 0 91.0954 12.8766 1173 59.5004 715.332 459.314
2181 1 49.0146 11.8536 581 58.6713 715.596 481.635
2182 0 46.0585 11.8111 544 60.1195 715.588 480.129
2183 0 50.052 11.7678 589 59.4482 715.234 479.102
2184 0 50.0415 12.2698 614 58.5163 714.896 478.552
2185 0 55.0221 11.6317 640 59.0172 714.945 478.117
2186 0 57.0419 12.2542 699 57.2504 714.814 477.823
2187 0 55.1108 12.7743 704 57.7259 714.98 477.139
2188 0 60.0624 11.4714 689 59.1887 714.581 475.438
2189 0 62.0731 12.2436 760 58.3539 714.526 475.345
2190 0 62.0448 12.1042 751 60.0439 715.45 474.756
2191 0 60.0625 12.2872 738 60.0813 715.627 473.076
2192 0 64.0139 12.591 806 59.0471 714.591 472.64
2193 0 65.0687 12.8787 838 58.9666 715.845 472.615
2194 0 67.0262 12.6369 847 59.7084 715.645 471.784
2195 0 69.1522 12.5086 865 60.0139 716.28 470.452
2196 0 69.1128 12.7907 884 60.595 715.348 469.107
2197 0 74.0592 12.1659 901 60.4251 715.83 468.245
2198 0 72.0555 12.9345 932 61.0107 715.223 466.939
2199 0 78.0691 13.1294 1025 59.5161 715.447 467.237
2200 0 77.0891 12.8812 993 61.0091 715.828 465.706
2201 0 80.1178 13.0433 1045 60.0641 715.567 464.517
2202 0 85.102 13.0197 1108 57.7608 715.041 463.241
2203 0 84.0783 12.9998 1093 58.6404 714.655 461.498
2204 0 86.0464 13.0046 1119 58.8231 715.352 460.346
2205 0 89.1536 12.6972 1132 58.4929 715.398 458.223
2206 0 92.0683 13.2836 1223 57.6566 715.703 457.208
2207 0 94.2011 13.1739 1241 57.8727 715.774 456.259
2208 0 97.114 12.7994 1243 57.8697 715.633 455.543
2209 1 52.0379 11.5109 599 57.374 716.239 478.274
2210 0 54.1211 11.4004 617 57.6499 715.853 477.888
2211 0 57.0313 11.6252 663 56.9382 715.569 476.686
2212 0 57.0233 12.4861 712 56.4129 716.015 475.27
2213 0 56.0606 11.6481 653 57.8361 715.652 473.251
2214 0 63.03 12.026 758 56.1464 715.476 473.863
2215 0 60.091 12.1649 731 57.2982 714.945 471.473
2216 0 61.0838 12.3273 753 57.7649 715.203 471.098
2217 0 66.0556 12.5198 827 57.2019 714.8 470.027
2218 0 66.116 12.6293 835 58.2647 715.44 470.01
2219 0 71.0329 11.6847 830 58.7699 715.088 469.101
2220 0 72.1239 12.118 874 58.7311 715.23 468.538
2221 0 71.1728 12.3924 882 59.6531 714.525 466.915
2222 0 73.1272 12.4304 909 59.6568 715.45 467.134
2223 0 76.0248 12.5617 955 60.7204 715.284 466.401
2224 0 79.0595 12.3704 978 59.956 715.387 464.422
2225 0 80.1118 12.857 1030 60.3194 715.382 464.363
2226 0 82.1094 11.8013 969 61.1847 716.236 461.633
2227 0 85.2224 12.1916 1039 60.9557 715.983 460.647
2228 0 86.1514 12.3503 1064 60.7124 715.303 458.906
2229 0 92.1131 12.7995 1179 60.1891 715.236 457.932
2230 1 47.0991 11.8686 559 60.1878 715.292 478.707
2231 0 52.123 11.6647 608 58.7451 715.123 479.209
2232 0 49.0529 11.9463 586 60.2099 715.531 477.896
2233 0 50.0733 12.0024 601 60.4509 715.681 476.899
2234 0 54.0861 11.5372 624 61.9183 715.897 476.402
2235 0 57.0286 11.766 671 60.9583 715.095 476.095
2236 0 56.103 11.6928 656 61.8659 715.181 474.797
2237 0 56.2059 12.383 696 61.6092 715.664 474.121
2238 0 63.0958 11.7282 740 61.1743 716.116 473.922
2239 0 60.103 12.7281 765 61.6288 716.119 473.516
2240 0 66.0912 11.938 789 61.4766 716.207 472.312
2241 0 66.0314 12.0549 796 62.4497 716.294 471.627
2242 0 69.0973 12.4318 859 61.518 716.168 471.112
2243 0 69.0632 11.9311 824 62.3556 715.608 468.022
2244 0 74.163 11.5826 859 62.6601 715.97 467.021
2245 0 76.0521 12.807 974 61.037 715.572 466.474
2246 0 81.0396 11.9571 969 60.4727 715.644 464.414
2247 0 83.1534 11.7614 978 61.2352 715.225 464.39
2248 0 82.0959 12.254 1006 61.7455 715.623 462.137
2249 0 87.0958 12.0787 1052 60.8042 715.679 461.164
2250 0 89.1509 11.7666 1049 61.061 715.052 459.474
2251 1 45.1283 11.5227 520 60.6712 715.287 480.852
2252 0 47.081 11.2572 530 60.6415 715.283 480.623
2253 0 50.065 11.9245 597 59.2697 715.688 478.908
2254 0 52.0871 11.6535 607 59.5519 715.498 478.189
2255 0 53.1137 12.3885 658 58.3739 715.65 478.384
2256 0 53.0658 12.3243 654 58.5183 715.656 476.653
2257 0 55.0608 12.5498 691 58.6093 715.428 476.709
2258 0 56.0173 12.1212 679 59.1753 715.527 476.029
2259 0 57.0979 12.1195 692 59.4408 715.087 475.968
2260 0 60.1788 12.5459 755 58.5947 715.388 474.066
2261 0 62.1975 12.7658 794 57.9773 715.22 474.678
2262 0 65.1888 12.3948 808 58.4641 715.244 472.739
2263 0 66.0469 12.5214 827 58.266 715.005 473.291
2264 0 66.1226 12.2197 808 59.2686 714.969 471.073
2265 0 69.0699 12.0458 832 59.5288 715.069 469.617
2266 0 72.1353 12.6845 915 58.1781 714.562 469.424
2267 0 75.0951 12.4109 932 58.4131 714.661 468.159
2268 0 77.2591 12.5293 968 58.6684 715.42 466.981
2269 0 81.2179 11.8939 966 59.0538 714.293 465.056
2270 1 37.0678 10.872 403 60.6154 714.993 485.067
2271 0 42.0239 10.9461 460 59.7739 715.348 484.826
2272 0 38.0255 11.5712 440 61.9955 715.066 483.689
2273 0 44.0405 11.4667 505 59.9129 715.166 482.812
2274 0 43.0187 12.7154 547 58.8318 715.399 483.059
2275 0 46.0773 12.3922 571 59.1068 714.783 481.802
2276 0 47.0402 12.5425 590 58.9763 715.327 480.434
2277 0 52.0779 11.8476 617 58.5219 715.345 480.272
2278 0 53.1338 12.4591 662 58.0136 714.4 478.802
2279 0 51.0574 12.7112 649 59.3159 714.718 478.513
2280 0 56.0979 12.3534 693 58.9509 714.501 477.592
2281 0 57.0866 12.3672 706 58.9079 714.37 476.671
2282 0 57.0831 12.8059 731 59.3064 714.479 475.345
2283 0 60.0683 12.5024 751 58.8136 714.839 476.097
2284 0 63.1148 11.9148 752 59.2234 714.011 474.414
2285 0 61.0513 12.3994 757 59.7966 715.003 473.469
2286 0 65.2523 12.1528 793 60.2484 714.987 472.201
2287 0 65.1022 13.1178 854 59.2248 714.91 472.087
2288 0 70.1873 12.4951 877 58.6123 714.556 471.042
2289 0 70.1152 12.779 896 58.8661 715.494 469.837
2290 0 72.0724 12.4597 898 59.4388 715.71 468.661
2291 0 74.041 12.2365 906 59.9382 715.349 467.071
2292 0 75.0995 12.783 960 59.1729 714.795 466.735
2293 1 36.0868 11.2784 407 60.8428 714.324 486.197
2294 0 40.0184 10.7451 430 59.9814 714.651 485.46
2295 0 37.0648 11.3045 419 60.7422 714.074 485.227
2296 0 40.0504 11.7851 472 59.1017 714.727 485.422
2297 0 38.0425 11.6974 445 60.6787 715.009 483.061
2298 0 43.0289 11.9687 515 58.4854 715.237 482.544
2299 0 46.0343 11.4263 526 58.3802 714.255 481.601
2300 0 45.0814 11.8674 535 58.6355 714.32 481.785
2301 0 46.0858 12.0428 555 57.9261 714.921 481.086
2302 0 48.0398 11.7195 563 57.9236 714.826 479.62
2303 0 49.1561 11.5347 567 57.6402 714.755 477.621
2304 0 52.1218 12.5667 655 56.2901 714.835 478.75
2305 0 51.0431 11.8723 606 58.1832 715.185 477.251
2306 0 54.1733 12.257 664 56.0407 714.884 477.605
2307 0 58.091 11.964 695 55.9871 714.576 476.315
2308 0 59.056 11.2944 667 56.9085 715.202 474.78
2309 0 61.0492 11.4498 699 57.4163 715.027 474.383
2310 0 64.0502 12.0843 774 55.6615 714.928 474.633
2311 0 64.0265 12.0887 774 55.5556 714.584 472.667
2312 0 65.1178 11.6712 760 57.3237 714.254 472.112
2313 0 69.1216 12.0223 831 56.0602 714.529 471.653
2314 0 69.0802 12.4348 859 55.7648 714.164 470.974
2315 0 72.1861 12.1769 879 55.8407 714.547 468.676
2316 0 74.0881 12.0802 895 56.7006 714.289 466.417
2317 0 74.198 11.7119 869 57.3659 714.464 467.136
2318 0 78.2401 12.2188 956 56.1119 714.283 466.526
2319 0 79.1294 12.0688 955 56.6921 714.228 465.004
2320 1 40.1268 10.8157 434 56.6475 714.613 485.166
2321 0 39.063 12.0831 472 55.9936 714.178 484.708
2322 0 42.0586 10.9847 462 56.7944 714.459 483.015
2323 0 42.1231 11.87 500 55.624 714.62 483.248
2324 0 44.0698 12.1172 534 54.5749 714.886 482.751
2325 0 44.0766 12.5463 553 54.2857 713.629 481.141
2326 0 46.0143 12.2571 564 54.0887 714.082 480.209
2327 0 51.1598 11.2002 573 54.3019 714.14 479.599
2328 0 53.1078 12.0698 641 52.9423 714.565 479.198
2329 0 54.0856 12.1289 656 52.3857 714.502 478.223
2330 0 56.033 11.5646 648 53.267 714.9 476.074
2331 0 58.0383 11.7336 681 52.6344 714.818 475.93
2332 0 58.1287 12.0767 702 53.1154 714.553 476.211
2333 0 58.1563 11.8474 689 53.7533 714.852 475.311
2334 0 62.0275 12.1398 753 52.4356 714.378 474.571
2335 0 62.0876 11.7093 727 53.7524 714.546 474.662
2336 0 61.0817 11.4601 700 54.88 714.646 473.123
2337 0 63.1318 12.8461 811 53.4538 714.454 472.983
2338 0 68.0672 11.6502 793 54.3619 714.482 472.712
2339 0 66.0993 11.7702 778 54.6902 714.581 471.075
2340 0 70.1764 12.3688 868 53.871 714.475 470.036
2341 0 71.1606 11.467 816 55.2328 714.272 467.995
2342 0 75.1639 11.7743 885 54.5311 713.851 467.444
2343 0 80.0835 12.0249 963 53.8339 714.459 466.818
2344 0 79.1557 11.6858 925 54.5286 714.232 465.747
2345 1 40.0668 11.2812 452 55.5442 714.25 484.812
2346 0 42.0373 12.0607 507 54.3274 714.327 484.479
2347 0 46.0947 11.2811 520 54.8558 714.662 482.638
2348 0 45.1122 11.1721 504 55.0873 713.925 480.935
2349 0 48.1341 11.7796 567 53.4497 714.564 480.025
2350 0 49.079 11.4306 561 53.7059 714.537 479.512
2351 0 50.0525 12.0873 605 52.4413 714.678 479.388
2352 0 53.1096 12.3518 656 52.2988 714.605 478.14
2353 0 56.0619 11.6835 655 51.9847 714.521 476.527
2354 0 56.0946 12.0511 676 52.105 713.916 475.673
2355 0 58.0771 12.5006 726 50.8499 714.165 474.702
2356 0 61.0531 12.5628 767 50.6219 714.12 473.239
2357 0 62.1911 11.5772 720 52.0903 714.306 472.201
2358 0 64.2257 12.3159 791 51.3047 713.783 472.636
2359 0 66.0758 12.1376 802 51.8915 714.238 470.718
2360 0 70.1779 11.8698 833 51.7659 713.964 470.014
2361 0 73.0526 11.5807 846 51.9267 713.707 469.349
2362 0 71.1689 12.4774 888 51.7117 713.461 469.082
2363 0 77.1131 11.6452 898 51.7428 714.022 466.288
2364 0 79.1755 11.1903 886 52.9266 714.04 464.842
2365 0 79.0645 12.0282 951 52.1262 713.729 464.125
2366 0 81.0695 12.2487 993 52.3223 714.106 464.153
2367 1 40.0331 11.0658 443 54.3679 714.451 482.977
2368 0 44.2297 10.3324 457 54.3501 714.357 481.895
2369 0 42.1721 12.0933 510 53.4314 713.996 481.3
2370 0 45.1036 11.8838 536 53.0504 714.647 480.881
2371 0 46.1319 12.0307 555 53.3622 714.78 480.162
2372 0 48.1048 12.2649 590 52.478 714.724 478.402
2373 0 50.0364 12.2311 612 52.0131 714.283 476.407
2374 0 53.0219 11.5424 612 52.6699 714.137 476.69
2375 0 55.0555 12.0061 661 51.5764 714.138 476.421
2376 0 54.0633 11.69 632 51.8861 713.484 474.824
2377 0 58.0697 11.8306 687 51.7278 714.083 474.927
2378 0 57.1047 12.2932 702 51.9687 714.796 473.92
2379 0 63.144 11.941 754 52.248 714.826 472.542
2380 0 64.0786 11.9072 763 51.8309 714.191 470.861
2381 0 67.1504 12.1518 816 51.0221 714.461 470.316
2382 0 69.0968 12.345 853 50.796 715.178 470.374
2383 0 70.1594 12.7567 895 51.2883 715.419 469.438
2384 0 74.1166 11.9811 888 51.8502 714.946 467.884
2385 0 74.0948 12.0791 895 52.4704 715.476 465.161
2386 0 77.2791 12.2025 943 52.4878 715.304 465.506
2387 0 79.122 12.5123 990 52.3758 714.928 465.172
2388 0 82.2558 12.5584 1033 52.5276 715.191 463.77
2389 1 40.0486 10.9367 438 54.9886 715.84 483.468
2390 0 40.1812 11.4979 462 54.6623 715.461 482.649
2391 0 45.0494 11.4541 516 55.2074 714.527 481.841
2392 0 44.107 11.9482 527 54.9962 714.894 481.104
2393 0 43.1118 11.6673 503 56.165 714.41 479.751
2394 0 46.0864 11.0662 510 56.2196 714.616 479.082
2395 0 47.0369 12.267 577 54.4835 715.513 478.172
2396 0 49.0321 11.5639 567 54.6384 715.026 477.286
2397 0 51.0639 12.455 636 52.6132 715.774 477.118
2398 0 52.0821 11.8083 615 54.5691 715.405 475.393
2399 0 54.0842 11.593 627 53.9394 715.281 475.139
2400 0 53.0992 11.9776 636 55.6745 714.77 475.428
2401 0 56.1027 12.0315 675 56.0459 714.886 475.104
2402 0 59.0335 11.8916 702 55.5085 715.271 475.057
2403 0 61.0789 12.0009 733 56.1924 715.075 474.284
2404 0 61.1332 11.9248 729 57.3539 714.75 472.989
2405 0 62.1724 12.8192 797 55.8683 714.208 472.422
2406 0 65.0529 12.5898 819 56.3346 714.004 470.891
2407 0 66.2146 11.8252 783 57.8927 714.355 470.318
2408 0 70.1475 11.4901 806 58.7779 713.826 468.744
2409 0 74.1243 11.4942 852 58.3674 713.729 468.239
2410 0 73.0699 12.0433 880 59.4273 713.288 467.001
2411 1 36.0801 10.8647 392 62.9235 714.52 485.819
2412 0 38.0587 11.3509 432 61.6181 714.41 484.562
2413 0 37.0289 11.2615 417 63.6091 713.983 483.52
2414 0 39.0822 11.8468 463 62.1922 714.585 483.143
2415 0 39.0911 11.9465 467 62.1777 714.801 481.835
2416 0 41.0924 12.192 501 62.1697 714.735 481.808
2417 0 42.0497 11.9382 502 62.1135 714.386 480.145
2418 0 46.0509 11.9867 552 61.0743 714.428 480.161
2419 0 47.0245 12.1639 572 61.0769 713.993 479.191
2420 0 48.0392 12.1984 586 60.7372 713.514 478.094
2421 0 49.0524 12.3337 605 60.4066 713.853 477.569
2422 0 50.0466 12.2086 611 60.964 714.218 477.077
2423 0 53.0424 12.7068 674 60.3843 714.639 476.341
2424 0 54.0303 12.2709 663 61.2655 713.633 475.821
2425 0 56.0949 11.9797 672 61.5446 713.958 474.634
2426 0 55.0587 12.5139 689 61.4136 713.94 473.361
2427 0 57.0651 11.7936 673 62.1902 714.484 472.478
2428 0 58.061 12.5902 731 61.6457 714.848 472.96
2429 0 62.2447 12.5794 783 61.3372 714.535 472.16
2430 0 62.0753 12.6137 783 61.6552 714.488 472.186
2431 0 65.0719 12.8934 839 60.6567 715.255 471.999
2432 0 66.1348 12.157 804 61.8682 715.617 469.611
2433 0 68.0279 12.6713 862 60.2622 715.426 469.542
2434 0 73.1136 12.4601 911 59.944 715.221 468.979
2435 0 72.0901 13.2334 954 59.6709 715.336 468.415
2436 0 78.0659 12.2973 960 59.7938 715.103 467.051
2437 0 76.0765 12.1851 927 60.068 715.004 465.395
2438 0 80.216 12.6409 1014 59.3442 714.405 465.048
2439 0 82.1491 12.4773 1025 58.6049 715.07 464.2
2440 0 84.1067 12.5555 1056 58.1979 714.869 462.883
2441 1 39.0354 11.7329 458 59.5393 714.64 486.094
2442 0 40.0262 11.6924 468 58.515 715.103 484.303
2443 0 41.0225 11.8959 488 57.9959 715.451 483.518
2444 0 44.0399 11.2171 494 57.5486 714.352 481.743
2445 0 45.0969 12.4177 560 56.0071 714.938 481.707
2446 0 46.0344 12.7296 586 55.5717 714.282 480.759
2447 0 49.0786 12.6328 620 54.7242 714.877 479.676
2448 0 50.0596 12.9446 648 53.7377 715.412 478.856
2449 0 53.1266 12.2538 651 54.6959 715.716 477.662
2450 0 56.1018 11.9782 672 54.3929 715.188 476.692
2451 0 56.1303 12.9164 725 54.4138 715.055 476.828
2452 0 58.1836 12.959 754 54.5398 714.455 476.537
2453 0 59.1312 13.2248 782 54.3529 714.529 474.995
2454 0 59.1601 12.9986 769 56.0507 714.534 473.806
2455 0 62.1158 12.9758 806 55.8846 714.272 473.426
2456 0 67.0357 12.6052 845 55.4994 714.322 472.244
2457 0 67.1337 13.0933 879 55.9659 714.184 471.52
2458 0 70.1102 12.68 889 56.5332 714.729 470.84
2459 0 72.1877 12.7445 920 56.3793 715.068 470.865
2460 0 75.1517 12.5746 945 56.7873 714.384 470.285
2461 0 74.0625 12.3004 911 57.8397 714.825 468.143
2462 0 79.1075 12.818 1014 56.5631 715.599 468.142
2463 0 79.1672 12.2652 971 58.0175 714.839 466.033
2464 1 40.0503 11.8102 473 58.8795 714.744 485.569
2465 0 39.1462 12.134 475 59.2442 714.398 484.619
2466 0 42.1539 12.0748 509 59.22 714.358 484.232
2467 0 42.0599 12.4346 523 58.9293 714.815 483.524
2468 0 44.0259 11.9021 524 59.3473 715.01 483.046
2469 0 48.038 12.4068 596 57.4413 715.138 482.195
2470 0 48.0186 12.4118 596 57.9027 715.076 480.268
2471 0 48.0698 12.8771 619 58.1438 715.444 481.178
2472 0 51.0935 11.6649 596 60.1091 715.339 479.299
2473 0 49.0515 11.9262 585 61.494 715.602 478.812
2474 0 53.0427 12.9518 687 59.3537 714.754 479.782
2475 0 53.0907 12.6953 674 60.6202 715.654 477.702
2476 0 59.1026 11.7084 692 61.2283 716.074 476.958
2477 0 56.072 12.1808 683 62.5373 716.312 475.924
2478 0 60.0391 11.8423 711 62.6385 715.865 475.446
2479 0 61.0652 12.2983 751 63.1105 716.403 475.264
2480 0 63.1393 12.2111 771 63.297 716.811 474.185
2481 0 67.0967 12.0721 810 62.9654 717.037 473.894
2482 0 68.0669 11.4446 779 64.5263 716.175 472.524
2483 0 68.1223 11.5381 786 64.8817 716.084 471.319
2484 0 69.0766 12.1315 838 64.4069 716.745 470.759
2485 0 74.1293 11.8037 875 64.2663 716.359 470.481
2486 0 73.12 12.1581 889 64.6434 716.366 469.039
2487 1 36.0641 10.62 383 65.4413 716.371 486.948
2488 0 37.0792 11.2732 418 64.7416 716.749 486.378
2489 0 37.056 11.8739 440 64.5705 715.045 486.532
2490 0 39.0758 12.2326 478 63.3494 715.427 485.862
2491 0 42.0669 11.6006 488 64.0943 715.705 484.08
2492 0 42.0699 12.0276 506 62.9565 715.854 483.411
2493 0 46.0679 11.3094 521 63.1459 716.042 481.768
2494 0 47.0954 12.1456 572 61.6451 715.781 482.411
2495 0 49.117 11.7271 576 62.4149 716.016 481.663
2496 0 50.0952 11.8175 592 62.1351 716.034 480.736
2497 0 49.0392 11.7253 575 62.9896 715.487 479.353
2498 0 52.0555 12.0833 629 62.5183 715.477 480.488
2499 0 54.0759 11.6133 628 63.0764 715.796 479.874
2500 0 54.0249 11.3466 613 63.7896 715.697 479.974
2501 0 56.0364 12.2242 685 63.1985 715.911 479.346
2502 0 57.056 11.6026 662 64.8112 715.989 478.569
2503 0 59.0994 11.6922 691 65.1331 715.864 478.961
2504 0 60.1352 11.1249 669 66.574 715.499 477.722
2505 0 61.0983 11.7188 716 65.6997 715.032 476.413
2506 0 63.0687 11.7015 738 66.1599 715.541 476.075
2507 0 64.0464 11.1794 716 68.1788 715.419 474.547
2508 0 66.063 11.0046 727 68.8707 715.732 473.157
2509 0 71.1335 11.1199 791 67.469 715.645 473.149
2510 0 74.2208 11.4658 851 66.8884 715.494 471.82
2511 0 73.0621 11.1412 814 68.0713 715.966 470.638
2512 0 75.1393 11.6717 877 67.3637 715.715 469.826
2513 0 77.137 11.7064 903 67.8516 715.43 469.309
2514 0 80.0723 11.1399 892 68.0034 715.585 467.63
2515 0 82.11 11.7891 968 66.9329 715.065 466.541
2516 0 85.0753 10.955 932 68.3777 715.307 464.648
2517 0 88.1041 11.9064 1049 66.5262 715.522 465.339
2518 0 93.1308 11.865 1105 66.0262 715.316 463.918
2519 0 95.1201 12.2056 1161 66.0827 715.373 461.887
2520 0 97.2736 11.8943 1157 66.4806 715.008 460.271
2521 0 99.1634 11.9802 1188 66.7609 715.255 458.975
2522 0 103.17 11.3696 1173 67.2276 715.32 457.349
2523 1 51.0534 11.2235 573 64.7766 715.325 482.717
2524 0 55.0414 11.0281 607 65.2043 716.318 482.31
2525 0 54.0483 11.6562 630 65.2841 715.867 480.79
2526 0 56.042 11.3486 636 66.3097 715.865 480.06
2527 0 58.0703 11.6411 676 65.9512 715.855 479.793
2528 0 60.0828 10.9848 660 67.2909 715.895 478.997
2529 0 59.1215 10.9267 646 69.3731 715.639 476.851
2530 0 61.0731 11.7892 720 68.6417 716.124 478.151
2531 0 66.067 11.0343 729 69.1193 715.679 476.86
2532 0 66.1003 10.6807 706 70.262 715.863 475.935
2533 0 65.0585 11.5281 750 70.6333 715.801 474.452
2534 0 69.0842 11.1169 768 70.5547 715.475 474.065
2535 0 70.2053 10.7542 755 71.5868 715.689 472.678
2536 0 74.1623 11.5018 853 70.0996 715.572 472.472
2537 0 77.0997 10.9987 848 70.7134 715.979 470.469
2538 0 76.154 11.4767 874 70.4588 716.427 469.276
2539 1 35.1577 11.0076 387 69.6589 715.398 489.708
2540 0 38.1744 11.6046 443 67.4424 716.086 489.321
2541 0 38.0583 11.5875 441 67.9909 715.825 487.941
2542 0 39.0494 11.8312 462 66.342 716.264 487.723
2543 0 41.0209 11.7014 480 66.3667 716.638 487.371
2544 0 42.0249 12.0405 506 65.9269 716.619 486.496
2545 0 42.0583 12.1498 511 65.411 715.977 485.628
2546 0 45.0496 12.2532 552 64.0815 714.966 485.101
2547 0 46.0918 12.3883 571 63.8424 714.986 483.744
2548 0 49.0776 12.4904 613 63.2104 715.715 482.512
2549 0 51.1 12.0939 618 63.7443 715.076 482.246
2550 0 51.0603 12.1229 619 64.0953 715.43 481.115
2551 0 54.0516 11.2855 610 65.941 715.279 481.22
2552 0 56.0988 11.8897 667 64.8441 714.799 481.681
2553 0 58.0859 11.4486 665 65.2586 715.018 478.97
2554 0 58.1021 11.8584 689 64.6763 715.18 478.488
2555 0 60.114 11.5281 693 65.2006 715.991 478.092
2556 0 60.0505 12.2564 736 65.0435 715.087 478.984
2557 0 64.0268 11.5889 742 65.1388 715.092 477.69
2558 0 66.1345 11.401 754 65.4735 715.69 475.725
2559 0 68.118 11.2745 768 65.8411 715.784 475.095
2560 0 68.1215 11.9052 811 65.0617 715.831 475.044
2561 1 33.0587 11.6762 386 66.7902 715.837 490.922
2562 0 35.0156 11.5092 403 65.0993 716.365 490.61
2563 0 37.071 11.5724 429 64.3893 715.629 491.147
2564 0 40.198 11.4434 460 63.2022 715.072 490.117
2565 0 37.0357 11.7454 435 64.7103 715.285 488.938
2566 0 41.0186 11.6532 478 63.0669 715.487 488.483
2567 0 44.05 11.714 516 62.2364 715.835 487.512
2568 0 44.1198 12.1034 534 61.5056 714.65 485.637
2569 0 44.0689 12.1174 534 61.8521 715.039 486.753
2570 0 48.0309 12.3462 593 60.7116 715.575 485.319
2571 0 48.1528 12.045 580 61.2431 715.657 483.371
2572 0 50.0215 12.0348 602 61.3488 715.189 482.405
2573 0 50.0645 12.0245 602 61.6312 715.965 481.738
2574 0 55.059 11.9871 660 60.6394 715.329 481.826
2575 0 54.0871 12.4059 671 61.0015 715.608 481.888
2576 0 55.17 12.5612 693 61.4589 715.296 481.339
2577 0 58.0476 12.3175 715 61.8951 715.421 480.621
2578 0 58.0444 12.8005 743 61.3217 715.497 480.715
2579 0 59.0329 12.6201 745 62.1396 715.048 478.952
2580 0 64.0798 12.0319 771 61.8859 715.089 478.22
2581 0 67.1743 12.2666 824 61.2087 715.223 477.297
2582 0 70.1194 12.3218 864 61.7998 715.376 476.745
2583 0 69.1366 11.7449 812 63.9286 715.712 474.853
2584 0 70.0602 11.5329 808 64.0557 714.718 473.179
2585 0 72.0948 12.1229 874 63.7872 715.836 472.865
2586 0 72.0266 11.9956 864 64.7326 715.84 471.152
2587 0 75.1611 11.788 886 65.4108 716.142 471.479
2588 0 79.0525 12.3083 973 64.9219 715.677 472.082
2589 1 35.056 11.3247 397 66.7179 715.353 491.68
2590 0 37.0598 11.1442 413 66.3632 715.818 490.487
2591 0 38.0626 10.9556 417 66.3717 715.839 488.456
2592 0 38.0774 12.4483 474 64.4241 715.289 487.903
2593 0 40.1148 11.8161 474 65.1624 715.076 488.219
2594 0 44.0438 11.6021 511 64.4207 715.059 487.487
2595 0 46.0541 11.0522 509 65.11 714.927 486.544
2596 0 45.0855 12.3321 556 64.0252 715.457 486.863
2597 0 46.0252 12.3411 568 64.169 714.632 485.766
2598 0 49.0401 12.2349 600 64.665 714.297 484.882
2599 0 51.1024 12.2108 624 64.2676 714.806 484.107
2600 0 52.0574 12.3902 645 65.155 714.358 482.82
2601 0 57.0501 11.8317 675 65.1304 714.95 482.039
2602 0 53.0826 12.019 638 67.5361 714.903 481.702
2603 0 57.0136 12.2602 699 67.2961 714.325 481.601
2604 0 59.0787 11.6286 687 68.7176 714.594 481.007
2605 0 58.0315 12.7345 739 68.9053 715.049 480.585
2606 0 63.0791 12.0642 761 69.7727 715.332 478.84
2607 0 64.0717 12.0178 770 70.6182 714.869 478.483
2608 0 65.0504 11.8062 768 71.3659 714.759 477.615
2609 0 68.0541 12.1227 825 71.3164 715.179 477.578
2610 0 69.1192 12.2542 847 71.9953 714.915 476.772
2611 0 70.1403 12.0758 847 72.6682 714.416 474.745
2612 0 74.1165 11.7248 869 72.8032 714.036 473.259
2613 0 79.054 11.4479 905 72.8011 714.419 472.799
2614 0 76.08 11.7114 891 73.9113 714.837 472.145
2615 0 79.065 11.5854 916 73.8057 714.153 471.476
2616 1 39.0306 10.8889 425 75.5976 714.299 491.285
2617 0 39.0359 11.0155 430 75.2744 713.633 489.658
2618 0 41.0495 11.4252 469 74.5565 714.62 490.07
2619 0 42.0174 12.1616 511 73.0607 714.397 487.796
2620 0 45.0376 10.9464 493 73.9209 714.351 486.844
2621 0 45.0558 11.6744 526 73.3441 714.662 484.981
2622 0 47.0465 12.0094 565 72.3469 714.754 485.807
2623 0 49.0541 12.6391 620 70.3774 713.882 484.944
2624 0 51.0376 11.6777 596 71.7567 713.904 483.523
2625 0 50.0472 12.0686 604 72.2434 714.157 482.619
2626 0 52.0637 12.1198 631 72.1965 714.864 483.913
2627 0 52.0453 12.1433 632 72.7722 714.761 482.579
2628 0 58.0347 12.0962 702 72.0242 715.204 482.053
2629 0 56.0634 12.1826 683 73.4627 715.051 480.447
2630 0 56.0795 12.7319 714 74.1148 714.524 480.689
2631 0 58.0484 12.3862 719 74.3143 714.702 479.651
2632 0 63.0895 11.5709 730 74.6329 714.734 478.7
2633 0 61.0838 12.9658 792 74.2386 715.216 478.701
2634 0 67.0498 12.2148 819 73.9988 715.219 476.569
2635 0 67.1201 11.2634 756 77.4537 714.89 474.471
2636 0 68.2159 11.4489 781 77.3393 715.86 473.504
2637 0 69.0978 12.1422 839 77.441 715.439 473.335
2638 0 71.1244 12.0071 854 77.6604 715.574 473.226
2639 0 75.0628 11.2706 846 79.1348 716.147 471.92
2640 0 74.0201 11.9832 887 79.124 716.101 469.977
2641 0 75.1716 12.1589 914 79.1346 716.196 470.868
2642 0 79.1482 11.4469 906 80.2991 716.663 468.514
2643 1 38.0597 12.0075 457 78.9387 716.138 488.158
2644 0 39.007 11.5108 449 80.657 716.241 487.385
2645 1 83.136 12.1007 1006 80.3807 716.424 465.968
2646 0 85.1028 12.4085 1056 79.7566 716.784 465.585
2647 1 41.0258 11.7974 484 80.438 716.715 485.159
2648 0 44.0645 12.2094 538 78.5967 717.219 485.805
2649 0 47.0269 12.0569 567 78.1287 717.402 484.758
2650 0 49.0827 12.2446 601 77.1431 717.11 483.777
2651 0 52.0601 11.7941 614 77.4886 716.194 483.05
2652 0 53.0271 11.7676 624 77.8974 716.772 481.532
2653 0 53.0848 12.2257 649 78.1125 717.29 481.223
2654 0 57.0085 11.5948 661 79.2345 716.847 480.793
2655 0 55.0632 12.0952 666 79.1291 716.814 479.213
2656 0 57.0745 12.51 714 79.2507 717.076 479.23
2657 0 56.0741 11.8236 663 81.5837 716.517 477.327
2658 0 59.0846 10.6965 632 83.3987 716.85 476.946
2659 0 61.0373 12.222 746 80.8499 716.323 477.244
2660 0 62.0309 11.8328 734 82.1131 716.823 476.332
2661 0 63.1152 11.7404 741 82.4291 716.85 475.642
2662 0 67.1785 11.8788 798 81.4712 715.974 475.034
2663 0 67.1039 12.3391 828 82.0411 716.432 474.877
2664 0 69.1266 11.573 800 83.2225 716.947 474.179
2665 0 72.0553 11.4634 826 83.0944 716.976 472.811
2666 0 72.0877 11.7357 846 82.5236 716.623 472.119
2667 0 77.0563 11.7057 902 81.6718 716.032 470.979
2668 0 75.1583 11.8949 894 81.8143 716.629 470.829
2669 0 81.0885 11.9252 967 79.819 716.663 468.676
2670 0 82.0676 11.6002 952 79.9076 716.564 467.879
2671 0 86.0583 12.1313 1044 77.5718 716.191 465.747
2672 0 86.0649 11.9212 1026 78.0565 716.519 463.916
2673 1 43.0197 11.8783 511 75.8669 716.423 485.074
2674 0 44.0309 11.9234 525 75.6667 716.103 483.945
2675 0 47.0532 11.7739 554 74.5108 716.731 484.632
2676 0 49.0137 11.2622 552 76.6739 716.946 483.98
2677 0 48.0495 11.1344 535 77.9308 716.85 483.563
2678 0 49.0282 11.1161 545 78.1101 715.745 482.499
2679 0 50.0284 11.6534 583 77.8988 716.528 482.232
2680 0 52.0987 11.1903 583 78.4889 716.492 480.954
2681 0 54.0178 11.7554 635 77.4913 716.732 479.195
2682 0 56.0532 11.2393 630 78.1683 715.905 479.573
2683 0 57.0705 11.442 653 78.4701 716.45 478.861
2684 0 61.0573 11.4483 699 77.4607 716.269 479.054
2685 0 65.1169 11.2413 732 77.2801 716.25 477.512
2686 0 63.0482 11.7212 739 78.2043 716.207 476.046
2687 0 65.0356 10.9632 713 79.7658 716.576 475.557
2688 0 65.0401 11.2238 730 80.3452 716.1 475.17
2689 0 69.0613 11.8301 817 79.2313 715.871 474.826
2690 0 73.0271 11.2424 821 78.4519 716.402 473.736
2691 0 74.0628 11.2202 831 78.6799 715.637 472.318
2692 0 75.0983 11.9177 895 77.3911 715.603 472.434
2693 0 78.0609 11.3885 889 77.9989 715.4 470.699
2694 0 83.1068 10.9859 913 77.103 715.524 469.415
2695 1 39.1325 11.6527 456 75.2829 715.632 488.86
2696 0 38.0112 11.102 422 76.4739 714.998 488.076
2697 0 41.0521 12.3258 506 73.2885 715.047 487.399
2698 0 45.0501 11.2319 506 73.6028 715.551 485.526
2699 0 44.0301 11.4013 502 73.6414 715.769 484.645
2700 0 47.034 11.7149 551 72.5281 715.902 484.301
2701 0 48.0429 11.7603 565 72.0301 715.135 483.722
2702 0 55.0739 10.8037 595 70.8034 715.608 483.239
2703 0 52.0658 12.1385 632 70.2168 714.65 482.078
2704 0 55.0589 11.2425 619 71.1454 714.648 480.292
2705 0 55.0308 11.8479 652 70.3788 714.87 480.009
2706 0 56.0469 11.419 640 71.0484 714.614 478.469
2707 0 59.0574 12.3778 731 73.6224 714.464 478.294
2708 0 61.0365 11.5832 707 74.0976 714.621 477.095
2709 0 61.0409 11.8609 724 74.3909 714.461 475.939
2710 0 66.0111 11.9828 791 73.2566 713.521 477.088
2711 0 66.0749 11.7442 776 74.5374 714.349 475.66
2712 0 69.1288 11.6883 808 74.172 713.75 474.661
2713 0 70.0784 11.4871 805 74.7342 714.196 473.104
2714 0 70.0437 12.1067 848 75.3007 714.251 472.868
2715 0 74.0861 11.4057 845 75.1609 714.193 471.779
2716 1 35.1062 11.3085 397 76.9698 713.985 488.327
2717 0 39.0537 11.1385 435 75.7839 713.938 487.922
2718 0 40.0412 10.664 427 76.5269 714.44 487.52
2719 0 39.025 11.5823 452 75.6925 714.009 486.436
2720 0 42.0587 11.5315 485 75.2289 714.198 486.763
2721 0 44.0409 11.8299 521 73.7083 713.451 483.925
2722 0 45.0492 11.6983 527 73.296 713.467 482.569
2723 0 47.0557 12.2408 576 72.1701 713.264 482.597
2724 0 49.0342 12.2771 602 71.696 714.156 482.57
2725 0 50.0257 12.0938 605 71.8727 714.418 481.225
2726 0 52.0338 12.146 632 71.6187 714.415 479.843
2727 0 54.0899 11.4994 622 72.1865 714.569 478.947
2728 0 62.0517 11.7322 728 69.9863 715.08 479.111
2729 0 60.0549 12.0889 726 70.095 714.729 477.777
2730 0 62.0659 11.4556 711 71.1477 714.443 476.432
2731 0 61.0956 11.9485 730 72.1055 714.763 475.953
2732 0 66.0435 11.2804 745 71.7785 714.907 474.447
2733 0 66.0673 11.7153 774 71.792 715.163 473.744
2734 0 67.0457 11.7979 791 71.3679 715.511 472.828
2735 0 71.0986 11.688 831 71.0746 714.665 471.803
2736 0 72.1427 11.7683 849 71.3051 715.011 470.707
2737 1 36.0129 10.6351 383 72.953 714.744 488.444
2738 0 38.0722 10.7165 408 72.4461 714.941 487.211
2739 0 37.0866 11.3248 420 72.1952 714.031 487.064
2740 0 39.0225 11.4037 445 71.0652 714.155 485.982
2741 0 40.0141 11.6459 466 70.8197 714.18 485.232
2742 0 45.0059 11.1985 504 69.3909 714.601 484.647
2743 0 41.0208 11.5307 473 70.9154 715.08 484.101
2744 0 43.0194 12.1108 521 69.6334 714.065 483.094
2745 0 50.0164 11.1963 560 68.8446 714.696 481.152
2746 0 49.0488 11.9473 586 68.1382 714.48 480.558
2747 0 52.03 11.4165 594 68.0774 714.072 479.022
2748 0 53.0583 11.1764 593 68.4958 714.108 479.177
2749 0 55.0678 12.4392 685 66.4146 714.777 479.232
2750 0 56.0672 11.5397 647 67.9382 713.977 477.777
2751 0 56.0735 12.3944 695 67.5079 714.866 476.576
2752 0 60.1033 11.7464 706 67.7705 714.771 475.732
2753 0 60.086 12.2158 734 67.2411 714.691 476.026
2754 0 63.0225 12.0909 762 66.8018 714.499 475.01
2755 0 65.1125 12.4093 808 66.573 715.121 474.041
2756 0 69.0683 11.409 788 67.4327 714.339 472.421
2757 0 67.0562 11.8408 794 67.6071 714.786 471.626
2758 0 73.0736 12.3574 903 65.9557 714.265 471.205
2759 1 35.0013 10.0282 351 69.1282 714.39 487.162
2760 0 35.059 10.7533 377 68.9814 714.854 486.504
2761 0 39.0204 10.4561 408 68.7132 714.49 486.841
2762 0 39.0134 11.3807 444 68.2275 714.342 485.155
2763 0 38.0147 10.9694 417 69.7074 714.99 484.93
2764 0 40.014 11.346 454 68.6938 715.022 484.67
2765 0 41.0521 11.6437 478 68.0795 714.992 483.657
2766 0 43.0531 11.4974 495 67.5879 714.592 482.782
2767 0 48.0137 10.4345 501 67.5948 714.515 481.764
2768 0 48.0134 11.5384 554 66.1318 714.803 481.816
2769 0 50.0467 12.4883 625 64.4912 714.494 480.712
2770 0 53.0673 11.8152 627 64.7464 714.617 479.946
2771 0 51.0361 11.9131 608 65.8717 715.691 477.916
2772 0 57.0314 11.257 642 65.0639 715.972 478.083
2773 0 55.0208 11.6683 642 65.3411 714.808 476.871
2774 0 59.0517 11.3121 668 64.9521 714.775 476.139
2775 0 62.0582 12.2466 760 63.9868 715.374 475.692
2776 0 64.0557 11.6773 748 64.2634 715.469 474.139
2777 0 66.1107 12.0707 798 63.4799 715.729 473.782
2778 0 66.1058 11.6631 771 64.9287 715.078 473.187
2779 0 66.0314 12.0549 796 64.4812 715.067 471.088
2780 0 71.0772 11.8603 843 64.3215 715.32 470.141
2781 0 75.1448 11.7373 882 64.254 714.583 469.057
2782 0 76.0855 12.2231 930 63.7516 714.375 468.897
2783 0 78.0981 11.9081 930 64.4688 714.928 466.285
2784 0 78.1258 11.6607 911 65.6026 714.813 465.633
2785 0 81.0509 11.7457 952 65.4853 714.397 464.417
2786 0 84.0603 11.9319 1003 65.3509 714.1 463.185
2787 1 41.0119 11.8746 487 64.039 714.491 484.259
2788 0 42.052 11.248 473 64.5095 714.848 482.666
2789 0 47.0918 10.3627 488 64.7971 714.918 481.504
2790 0 46.0164 11.5176 530 63.3226 714.917 482.734
2791 0 47.0191 11.6974 550 63.3127 714.925 481.553
2792 0 49.0186 11.567 567 63.425 714.815 479.418
2793 0 55.037 11.1925 616 62.2792 715.188 479.091
2794 0 54.0282 11.8457 640 61.7672 714.616 477.597
2795 0 56.0817 11.3763 638 62.2116 715.045 477.227
2796 0 57.0461 12.3058 702 60.9259 715.178 476.434
2797 0 62.0291 12.0427 747 60.7711 715.161 475.574
2798 0 63.0419 11.992 756 60.8479 714.567 473.626
2799 0 66.0326 12.0546 796 60.8492 714.611 472.737
2800 0 64.0504 11.7876 755 62.0397 714.706 471.984
2801 0 70.0716 11.2028 785 62.1745 714.746 470.169
2802 0 71.0297 11.812 839 61.6532 714.592 468.577
2803 0 73.0402 12.1714 889 61.5186 715.009 468.336
2804 0 75.028 11.8756 891 61.4411 714.627 468.012
2805 0 78.0273 11.701 913 61.9146 715.258 465.876
2806 0 81.0932 11.8999 965 60.9969 715.062 465.62
2807 0 80.0495 12.1425 972 61.6101 714.828 463.795
2808 0 83.0642 11.8583 985 62.3411 715.609 462.269
2809 0 85.0481 11.7463 999 63.1031 715.165 461.178
2810 0 88.0714 12.1492 1070 62.2607 714.579 461.065
2811 0 92.0778 12.1528 1119 62.1019 715.049 460.342
2812 0 92.1141 11.996 1105 62.8615 714.887 458.471
2813 0 93.048 12.069 1123 62.6438 715.304 458.128
2814 0 98.1505 12.3586 1213 62.0585 715.224 456.414
2815 0 99.0584 12.2655 1215 62.0189 714.9 454.193
2816 1 52.0329 10.3973 541 60.9704 715.107 478.669
2817 0 52.0313 11.3009 588 60.4167 714.823 478.517
2818 0 54.0438 11.4352 618 60.3997 714.558 476.853
2819 0 54.0223 11.2916 610 60.2197 714.179 475.861
2820 0 59.0618 11.6996 691 59.0999 714.848 476.182
2821 0 60.0611 12.0044 721 58.6103 715.001 474.399
2822 0 65.0501 11.3605 739 58.7104 714.968 473.107
2823 0 65.0819 11.5239 750 58.6987 714.799 472.079
2824 0 68.0936 10.9261 744 58.9785 715.483 470.989
2825 0 70.1077 11.2969 792 58.4154 715.455 469.532
2826 0 74.0816 11.9328 884 57.2839 715.36 470.207
2827 0 74.1161 11.5629 857 58.2812 714.792 467.424
2828 0 75.1284 11.7399 882 58.3469 715.29 467.132
2829 0 77.0524 11.5376 889 58.8718 715.228 466.19
2830 0 80.043 10.8816 871 59.504 715.033 464.272
2831 1 40.0451 10.0387 402 58.2537 715.269 484.816
2832 0 37.0058 10.5659 391 59.2941 715.054 484.419
2833 0 42.034 10.5153 442 58.6719 714.554 483.023
2834 0 42.037 10.7049 450 58.5156 714.969 483.698
2835 0 43.0727 11.2833 486 57.5556 714.879 482.481
2836 0 45.0188 10.7066 482 58.5104 714.724 481.183
2837 0 47.0332 11.4387 538 56.8848 715.258 481.387
2838 0 49.0237 11.3414 556 56.9065 714.899 480.975
2839 0 49.0635 11.8622 582 56.3814 714.875 480.107
2840 0 53.0978 11.5447 613 56.1762 714.69 480.01
2841 0 53.0527 11.3849 604 56.5215 714.647 478.565
2842 0 55.051 11.7891 649 55.8444 714.995 477.814
2843 0 56.0283 11.7798 660 56.1818 715.25 476.329
2844 0 59.0867 11.0854 655 56.3237 715.409 475.522
2845 0 63.0195 11.1712 704 55.4318 715.116 474.967
2846 0 61.0347 11.6819 713 55.4572 714.9 474.241
2847 0 64.0979 11.3888 730 55.5658 715.071 473.085
2848 0 66.0473 11.8854 785 55.1172 714.857 470.983
2849 0 67.0316 11.4274 766 56.9856 715.251 470.386
2850 0 70.0747 11.3879 798 56.6805 715.051 469.105
2851 0 72.0723 11.4746 827 56.7932 714.654 468.655
2852 0 76.1326 11.9397 909 55.8834 715.667 467.519
2853 1 35.0102 10.3684 363 57.0882 714.749 486.639
2854 0 39.0082 10.0748 393 57.2443 715.216 486.252
2855 0 35.0243 10.1929 357 58.9776 714.501 484.924
2856 0 39.0065 11.1776 436 57.2362 714.899 484.53
2857 0 38.0274 11.2025 426 58.2817 715.554 484.359
2858 0 41.0537 11.3266 465 58.0237 716.191 483.492
2859 0 43.026 10.9469 471 58.8089 715.208 483.119
2860 0 43.0331 10.8521 467 59.4882 714.737 482.604
2861 0 43.1061 11.5761 499 59.519 714.86 481.16
2862 0 48.0283 10.6396 511 59.3523 715.065 480.992
2863 0 46.0423 11.2288 517 59.9865 714.708 479.644
2864 0 48.0502 11.5921 557 58.9623 715.348 479.53
2865 0 49.0578 11.6801 573 59.4258 715.37 478.394
2866 0 50.0721 11.5833 580 59.8983 715.65 478.448
2867 0 53.0516 11.3286 601 59.3394 714.401 477.544
2868 0 55.0237 10.8499 597 59.8476 714.476 476.457
2869 0 55.1446 11.1344 614 60.1743 714.893 476.114
2870 0 58.1783 11.6538 678 59.056 715.428 475.004
2871 0 58.0832 11.363 660 59.8788 715.285 474.094
2872 0 61.0605 11.7425 717 59.2734 715.093 473.275
2873 0 65.0983 11.5825 754 58.557 715.145 472.269
2874 0 67.0868 11.4628 769 58.9428 715.372 471.84
2875 0 67.0635 11.5413 774 59.0943 714.96 470.842
2876 0 69.0666 11.612 802 59.0362 714.651 469.476
2877 0 75.0765 11.748 882 57.9433 714.819 469.06
2878 0 77.0559 11.2126 864 58.8877 714.403 467.888
2879 0 78.0576 11.4018 890 59.0326 714.249 466.282
2880 1 40.0395 10.5396 422 60.7559 714.467 485.185
2881 0 42.0752 10.3149 434 61.9286 714.447 483.986
2882 0 42.0077 11.3789 478 60.7929 713.839 483.013
2883 0 44.0564 10.9632 483 61.9275 714.085 481.977
2884 0 46.0432 11.4675 528 60.6856 714.58 481.223
2885 0 48.0133 11.6843 561 60.4617 714.52 480.26
2886 0 47.0573 11.9216 561 60.3494 714.75 479.563
2887 0 47.0161 11.528 542 61.31 714.889 478.74
2888 0 50.0216 11.7549 588 60.1837 714.918 477.553
2889 0 55.0358 11.3199 623 60.1332 714.64 478.006
2890 0 53.0471 12.7057 674 58.6736 714.598 477.24
2891 0 54.0441 12.1012 654 59.8089 714.546 475.644
2892 0 57.0657 12.6346 721 58.2191 714.147 475.452
2893 0 58.07 12.2783 713 58.6017 714.394 474.411
2894 0 61.0231 12.1102 739 58.4479 714.261 473.249
2895 0 64.0337 12.0249 770 58.3091 714.025 472.118
2896 0 67.0569 12.4521 835 57.1293 714.714 471.263
2897 0 68.0766 12.1481 827 57.9589 714.647 469.707
2898 0 69.0384 13.1376 907 57.1246 714.299 469.187
2899 0 69.061 11.7577 812 59.1453 714.014 466.062
2900 0 73.0532 12.265 896 58.0391 714.487 465.127
2901 0 77.1208 12.8889 994 57.2294 714.816 465.793
2902 0 79.0907 12.1127 958 58.8768 714.782 463.709
2903 0 81.0561 12.7813 1036 57.667 714.364 463.224
2904 0 83.1219 12.6681 1053 58.1054 714.97 462.098
2905 0 86.0771 12.2913 1058 58.6503 714.859 459.693
2906 0 87.1212 12.9016 1124 58.2696 715.14 459.468
2907 0 90.1243 12.4384 1121 58.3595 714.889 458.623
2908 0 91.0894 11.8345 1078 59.5427 714.304 454.712
2909 0 96.1134 12.5581 1207 58.0994 713.964 455.592
2910 1 48.0787 10.8988 524 60.5305 714.874 480.212
2911 0 47.0524 11.5828 545 60.389 714.927 479.272
2912 0 53.0522 11.3285 601 59.5923 715.22 478.636
2913 0 51.066 12.4936 638 58.5141 714.879 478.133
2914 0 53.0565 12.0061 637 59.157 715.163 476.826
2915 0 56.0581 12.719 713 56.9958 714.628 475.942
2916 0 60.021 11.9958 720 57.2917 714.764 474.351
2917 0 61.0912 12.3749 756 56.9656 715.21 474.812
2918 0 61.0905 12.1623 743 57.8183 715.431 472.526
2919 0 64.0951 12.0758 774 58.0452 715.815 472.832
2920 0 63.0881 12.4112 783 58.3895 715.393 472.043
2921 0 66.0852 12.5898 832 58.2656 714.734 470.62
2922 0 69.0816 12.8688 889 58.198 715.172 470.073
2923 0 69.0741 13.015 899 59.0812 714.721 468.685
2924 0 69.1472 12.0901 836 60.9605 714.806 466.443
2925 0 74.0316 12.0624 893 60.9776 714.532 464.856
2926 0 76.0633 12.2661 933 60.9357 714.558 466.009
2927 0 80.1294 12.2302 980 61.2357 714.853 464.982
2928 1 38.014 10.2331 389 64.4602 714.378 483.972
2929 0 40.0621 11.0079 441 63.8912 715.113 483.338
2930 0 42.067 11.5055 484 63.6591 715.068 482.087
2931 0 41.0939 11.3642 467 65.6403 715.251 481.807
2932 0 43.0168 11.9488 514 64.1887 715.65 480.016
2933 0 43.0321 11.9678 515 64.4524 715.233 479.212
2934 0 46.0731 11.7856 543 63.9484 715.416 478.993
2935 0 48.0318 12.4085 596 62.2634 715.497 478.77
2936 0 51.0304 12.4044 633 61.2006 715.158 477.972
2937 0 50.0325 12.8117 641 61.2761 715.42 476.382
2938 0 51.0147 12.5846 642 62.3209 715.375 474.944
2939 0 54.0714 12.4095 671 62.0626 714.75 474.936
2940 0 56.0774 12.0548 676 62.5 715.658 473.788
2941 0 56.136 13.0041 730 62.3849 715.478 474.23
2942 0 60.0763 12.4342 747 63.0013 715.604 473.278
2943 0 61.0191 12.8157 782 62.789 714.939 473.136
2944 0 60.039 12.3586 742 64.8464 714.775 472.094
2945 0 64.1354 12.1462 779 65.0873 715.072 471.434
2946 0 67.093 12.3858 831 64.1925 715.025 470.245
2947 0 68.1334 13.136 895 63.524 714.733 469.57
2948 0 69.0516 12.9758 896 64.4676 714.084 468.144
2949 0 71.1083 13.2333 941 65.255 715.051 468.118
2950 0 72.0553 12.6292 910 66.6692 715.948 466.592
2951 0 77.0679 13.3519 1029 65.0214 715.24 465.431
2952 0 78.0445 12.6979 991 66.9455 715.451 463.741
2953 0 80.0895 12.3737 991 67.6963 715.506 463.489
2954 0 81.0234 12.7864 1036 66.9942 715.675 462.798
2955 0 85.086 12.9281 1100 66.5545 715.445 461.453
2956 1 40.0667 11.1065 445 68.3528 714.757 481.573
2957 0 42.0075 11.4265 480 67.8104 715.65 481.35
2958 0 44.1042 12.2891 542 66.5793 716.192 480.714
2959 0 47.0307 11.5031 541 67.3993 715.684 480.427
2960 0 47.0252 12.3976 583 66.2916 715.928 479.617
2961 0 50.0409 12.6696 634 64.9574 714.546 479.871
2962 0 48.0166 12.5582 603 66.6418 715.317 477.614
2963 0 51.0474 12.6549 646 65.7539 715.771 478.093
2964 0 54.0772 11.761 636 66.8475 715.131 476.017
2965 0 55.0272 12.5029 688 66.266 714.721 475.673
2966 0 58.0617 12.6934 737 65.8847 715.204 474.908
2967 0 57.0435 11.9207 680 68.1897 714.796 473.659
2968 0 59.0745 12.3403 729 67.9781 714.412 474.015
2969 0 63.065 12.5268 790 67.3494 714.818 473.924
2970 0 62.0847 12.6601 786 68.5585 715.279 473.36
2971 0 64.0296 12.869 824 69.0218 714.921 473.603
2972 0 67.0741 12.0911 811 70.2676 715.309 471.734
2973 0 68.0709 12.5017 851 70.3537 715.027 470.35
2974 0 70.1104 12.3947 869 71.5351 714.712 470.252
2975 0 69.099 12.6485 874 71.9851 713.78 469.068
2976 0 73.0387 12.1032 884 72.8224 714.64 468.038
2977 0 72.0493 12.3804 892 73.7881 714.55 467.906
2978 0 73.083 12.78 934 73.6713 714.102 467.753
2979 0 78.1486 12.1307 948 74.1097 714.93 467.104
2980 0 77.0477 12.356 952 75.1796 714.783 465.35
2981 0 77.1773 11.9336 921 76.9577 714.847 464.315
2982 0 81.0576 12.1148 982 76.4257 714.378 463.952
2983 0 82.0672 12.5994 1034 76.705 714.739 462.913
2984 0 85.0877 12.0817 1028 77.1615 714.448 462.26
2985 0 84.0417 12.2796 1032 78.5116 714.583 461.383
2986 0 87.0821 12.3906 1079 77.6803 714.289 460.246
2987 0 91.1042 12.6558 1153 77.3938 714.373 458.78
2988 0 93.1518 12.6997 1183 72.2933 714.681 455.82
2989 1 47.1253 11.289 532 72.6165 714.256 480.712
2990 0 49.1229 11.5832 569 71.4411 714.257 479.097
2991 0 49.065 11.6988 574 73.054 714.052 479.15
2992 0 49.026 12.218 599 72.7963 714.818 478.651
2993 0 53.0093 11.2999 599 73.99 714.858 477.466
2994 0 54.0547 11.6364 629 74.2576 714.598 476.935
2995 0 54.016 11.6262 628 74.8487 714.081 476.694
2996 0 54.0458 11.7493 635 74.4409 713.762 476.006
2997 0 60.091 12.1982 733 73.0191 714.187 476.462
2998 0 59.1413 12.2419 724 74.6298 714.046 476.264
2999 0 61.0284 11.978 731 75.0164 714.051 475.286
3000 0 62.0552 12.2472 760 74.7882 714.022 475.038
3001 0 62.1446 12.31 765 75.2078 714.239 473.363
3002 0 65.019 11.6889 760 75.6776 714.493 471.229
3003 0 68.0425 11.6251 791 74.2819 713.908 471.74
3004 0 68.1843 12.4222 847 74.1027 713.966 470.719
3005 0 71.0626 12.3553 878 73.5626 714.076 470.349
3006 0 73.0781 11.6861 854 74.863 713.721 469.067
3007 0 73.0678 12.0984 884 73.7602 714.027 469.778
3008 0 75.1192 12.0875 908 72.8789 714.568 468.719
3009 0 77.0492 11.8885 916 72.9094 714.325 467.153
3010 0 78.1668 12.1407 949 73.0253 713.743 465.511
3011 0 79.05 11.575 915 74.3246 714.031 465.404
3012 0 83.0179 12.4792 1036 71.7442 713.393 463.935
3013 0 85.0658 11.9672 1018 72.7456 714.006 461.394
3014 0 90.0802 12.722 1146 70.8002 714.315 461.558
3015 0 92.0791 12.9128 1189 70.2918 714.023 458.807
3016 0 96.088 12.2492 1177 70.5242 713.739 457.901
3017 0 99.0733 12.3747 1226 69.8116 714.197 455.521
3018 0 104.145 12.8955 1343 68.7893 714.182 454.509
3019 0 108.212 12.0874 1308 69.8073 713.894 453.004
3020 0 112.086 12.3834 1388 69.3739 714.25 450.714
3021 0 112.109 12.577 1410 69.078 714.349 449.973
3022 1 57.0801 11.2649 643 68.5521 714.034 477.521
3023 0 58.0585 11.8157 686 68.0948 713.87 477.825
3024 0 63.0883 11.5711 730 67.8493 713.663 475.277
3025 0 61.0825 11.8856 726 68.4091 713.357 475.015
3026 1 137.109 11.9176 1634 68.9547 713.376 439.345
3027 0 139.106 12.7025 1767 67.8653 713.015 438.513
3028 0 144.128 12.8011 1845 67.2656 713.41 436.784
3029 0 149.232 12.7989 1910 67.0419 713.415 434.885
3030 0 150.24 12.3136 1850 67.8319 713.618 430.889
3031 0 159.281 12.795 2038 66.2287 713.842 429.388
3032 0 163.273 12.4761 2037 66.5734 713.628 425.575
3033 0 167.251 12.8968 2157 66.166 713.365 423.464
3034 0 175.155 11.9037 2085 67.0034 713.845 421.533
3035 0 185.107 12.3766 2291 65.6556 713.941 417.342
3036 0 185.164 12.8427 2378 65.1308 714.053 417.764
3037 0 189.294 12.1134 2293 66.1622 713.981 416.287
3038 0 194.214 12.6407 2455 64.8648 714.285 413.375
3039 0 200.216 12.4765 2498 64.4231 713.494 408.88
3040 1 151.164 12.3243 1863 64.4852 713.61 434.862
3041 0 158.18 12.3972 1961 63.5859 713.498 432.885
3042 0 163.149 12.1852 1988 63.9794 713.838 431.445
3043 0 167.203 11.9376 1996 64.3467 713.349 426.878
3044 0 173.352 11.9929 2079 64.2708 713.161 423.384
3045 0 179.198 12.2658 2198 63.359 713.294 420.038
3046 0 183.221 11.9037 2181 63.7813 713.966 416.359
3047 0 192.33 12.7489 2452 62.5245 714.101 414.89
3048 0 199.168 12.738 2537 62.6543 712.193 411.076
3049 0 204.312 12.2705 2507 63.4691 713.617 407.589
3050 0 206.144 12.6416 2606 63.6266 714.137 405.964
3051 1 137.294 11.7631 1615 64.4755 713.929 440.637
3052 0 143.17 12.0556 1726 64.007 714.037 439.18
3053 0 145.164 12.1862 1769 64.5122 713.952 436.298
3054 0 153.203 11.7882 1806 64.2625 713.965 433.227
3055 0 154.153 11.255 1735 65.0622 713.506 430.361
3056 0 159.377 12.1411 1935 63.5612 713.33 428.55
3057 1 73.1151 11.5434 844 64.8258 714.259 470.421
3058 0 75.0818 11.8271 888 64.277 713.414 470.499
3059 0 79.1695 11.8606 939 63.9851 714.183 468.356
3060 0 78.1328 12.3508 965 63.5565 714.061 466.835
3061 0 83.1134 12.1641 1011 63.185 713.831 465.88
3062 0 86.2237 12.108 1044 62.9215 714.285 465.276
3063 0 87.2312 12.1402 1059 63.1492 714.056 463.649
3064 0 94.1588 11.9373 1124 61.8399 713.976 462.325
3065 0 93.1599 12.1297 1130 62.5027 713.775 460.112
3066 0 100.202 12.2851 1231 61.6734 713.219 459.074
3067 1 50.0459 11.2696 564 62.4326 713.209 483.223
3068 0 49.079 12.5716 617 61 713.032 482.297
3069 0 52.1329 12.5832 656 59.9863 713.425 481.184
3070 0 51.0705 11.8659 606 61.8399 713.825 479.568
3071 0 55.0881 12.0171 662 60.7689 714.095 479.394
3072 0 54.0585 12.394 670 60.8224 713.225 478.346
3073 0 59.0584 12.4792 737 59.5129 712.806 477.727
3074 0 60.0532 11.9894 720 60.7139 713.153 476.29
3075 0 62.1563 11.9216 741 60.3549 713.308 476.52
3076 0 62.0633 12.7128 789 59.5551 713.101 476.161
3077 0 65.0783 11.8319 770 60.9429 713.034 473.803
3078 0 66.102 12.7076 840 59.8714 712.571 472.569
3079 0 71.1747 12.083 860 60.0419 713.116 472.619
3080 0 72.099 12.6909 915 59.7224 713.044 471.322
3081 0 77.1251 12.7715 985 59.2569 713.883 471.178
3082 0 78.1661 11.5139 900 61.3033 713.319 468.268
3083 0 80.0879 12.4363 996 60.1235 713.039 468.298
3084 1 39.0612 10.8548 424 61.5212 713.017 487.682
3085 0 37.0677 10.9799 407 62.7125 713.027 487.236
3086 0 39.0521 12.1376 474 60.7342 712.462 486.268
3087 0 40.0143 11.5959 464 61.4569 713.017 485.849
3088 0 42.0695 11.79 496 61.1754 713.024 484.669
3089 0 41.0837 11.5618 475 61.8568 713.16 482.611
3090 0 44.0083 12.2931 541 60.2421 713.573 482.59
3091 0 44.0278 11.7426 517 61.4352 712.843 481.731
3092 0 48.03 12.3256 592 59.6064 712.826 482.647
3093 0 48.0444 12.2179 587 59.7496 712.826 480.33
3094 0 51.0127 12.3695 631 59.1062 713.089 480.01
3095 0 52.0212 12.5334 652 59.0767 713.836 479.086
3096 0 54.053 12.4137 671 59.3607 713.301 479.282
3097 0 56.0382 12.0989 678 59.3142 713.195 479.001
3098 0 59.0383 12.0769 713 60.1403 713.595 477.363
3099 0 59.0817 12.2373 723 59.5768 713.658 475.812
3100 0 63.0445 11.9598 754 60.4377 713.654 474.897
3101 0 61.0458 12.6626 773 60.1009 712.873 474.345
3102 0 66.0642 12.0943 799 60.4293 712.877 473.827
3103 0 68.0322 12.3618 841 59.5315 713.083 472.495
3104 0 70.0275 12.2666 859 59.5285 712.929 471.364
3105 0 74.0326 12.3594 915 59.1672 712.884 470.823
3106 0 75.0352 12.9672 973 58.5406 713.173 470.425
3107 0 75.1288 12.046 905 60.2331 713.582 468.09
3108 0 77.07 11.6128 895 60.7028 713.475 466.913
3109 0 79.0592 11.308 894 61.0403 713.173 463.245
3110 0 83.0768 11.8926 988 59.7065 713.264 463.193
3111 1 41.0371 11.0875 455 60.4308 713.248 484.068
3112 0 43.022 12.3425 531 57.9171 712.58 484.301
3113 0 44.0569 12.098 533 58.0675 712.919 483.178
3114 0 47.0233 11.5687 544 58.0221 713.026 481.597
3115 0 47.0482 12.3703 582 57.5876 713.254 482.024
3116 0 49.0173 12.3018 603 57.7446 713.607 481.264
3117 0 52.0208 11.3032 588 58.4439 713.197 480.405
3118 0 52.1339 12.5446 654 56.9587 713.433 479.235
3119 0 56.0341 12.7958 717 56.2524 713.032 479.128
3120 0 56.0468 12.4182 696 57.9325 712.681 477.839
3121 0 60.1068 12.0785 726 58.2851 713.36 477.14
3122 0 58.0415 11.7847 684 60.2529 712.253 475.281
3123 0 59.0802 11.7467 694 61.1225 713.036 474.576
3124 0 58.0834 11.8795 690 213.739 714.033 474.462
3125 0 62.0172 11.4646 711 62.301 712.864 471.765
3126 0 67.0367 12.784 857 60.3291 713.393 473.036
3127 0 66.0756 12.0014 793 62.3266 712.96 470.25
3128 0 74.0486 11.8706 879 62.041 713.006 469.973
3129 0 70.0417 12.3641 866 62.6813 713.118 469.247
3130 0 73.0297 12.2279 893 63.355 712.833 468.171
3131 1 34.014 9.9665 339 65.7611 713.018 486.522
3132 0 38.0196 10.2316 389 65.2468 713.509 486.542
3133 0 36.0222 10.6046 382 64.9738 712.445 485.361
3134 0 38.0103 11.4969 437 63.7735 712.735 483.577
3135 0 41.0308 10.9186 448 63.3438 712.897 483.007
3136 0 42.0324 11.1105 467 62.7901 712.486 482.34
3137 0 45.0398 11.4565 516 61.345 712.955 481.678
3138 0 46.0344 10.7745 496 62.0544 712.94 479.177
3139 0 48.0213 11.8905 571 60.0683 712.895 480.352
3140 0 53.0207 11.0146 584 60.0753 713.606 478
3141 0 53.0894 11.3959 605 59.7554 712.838 477.509
3142 0 57.0345 11.7648 671 58.2325 713.644 477.408
3143 0 56.0367 12.3312 691 58.1013 714.511 476.535
3144 0 58.0833 12.5337 728 57.9863 713.521 476.735
3145 0 59.05 12.3455 729 58.4458 713.802 475.487
3146 0 61.0256 12.6668 773 57.8202 714.335 475.106
3147 0 64.0431 12.757 817 58.3341 714.28 474.574
3148 0 68.09 11.9841 816 58.2255 714.782 472.989
3149 0 68.184 11.5423 787 59.1334 713.903 471.06
3150 0 70.1063 12.5952 883 58.0997 714.463 472.061
3151 0 69.0882 12.3465 853 59.415 714.077 469.545
3152 0 71.129 11.6549 829 59.9421 714.16 467.041
3153 0 72.0565 11.0469 796 61.4435 714.214 464.72
3154 0 78.1131 12.3667 966 59.0973 714.602 464.659
3155 0 80.0925 12.8851 1032 58.343 714.27 465.511
3156 0 83.0683 11.6531 968 59.7169 714.009 462.362
3157 0 84.1261 11.8513 997 60.3952 714.364 461.811
3158 1 44.0749 11.2309 495 58.3475 714.271 482.943
3159 0 46.2036 10.4321 482 59.5124 714.886 480.411
3160 0 46.0636 11.0499 509 60.4479 714.308 479.407
3161 0 50.0224 11.3149 566 58.4682 714.643 479.574
3162 0 47.0292 10.7593 506 60.4723 714.285 476.846
3163 0 51.1295 11.8523 606 58.0297 714.523 477.315
3164 0 55.1015 11.3609 626 57.3738 713.668 475.778
3165 0 55.0692 11.6581 642 57.7399 714.819 474.335
3166 0 60.1308 12.1069 728 56.0618 714.374 474.714
3167 0 56.0338 11.2432 630 58.4095 714.084 470.983
3168 0 66.0396 12.0382 795 56.0642 714.601 471.909
3169 0 65.0245 10.9497 712 57.1896 714.202 469.16
3170 0 69.0557 11.3966 787 56.2122 714.062 468.497
3171 0 70.0242 12.31 862 55.7181 714.287 467.115
3172 0 73.1016 11.4772 839 56.503 714.973 465.635
3173 0 79.0962 12.1371 960 54.6323 714.47 465.271
3174 0 81.0463 11.3886 923 55.6674 714.638 461.995
3175 0 83.1151 12.7053 1056 53.6127 714.355 462.737
3176 0 84.1039 12.437 1046 54.1252 714.054 460.967
3177 0 87.0746 11.4729 999 55.3413 714.831 458.43
3178 0 84.0835 10.775 906 56.4724 715.096 454.352
3179 0 92.0902 11.7168 1079 54.3985 715.795 454.677
3180 0 98.0736 12.7149 1247 52.1267 715.101 455.727
3181 0 99.0759 11.1632 1106 55.5497 715.077 450.987
3182 0 96.0594 10.7642 1034 55.4739 714.381 448.102
3183 0 105.117 11.3968 1198 53.8731 714.946 448.007
3184 0 107.121 12.0331 1289 52.8425 714.793 447.883
3185 1 53.0425 10.5953 562 52.5854 714.642 472.493
3186 0 57.0968 10.0356 573 53.2408 714.862 471.677
3187 0 55.1232 10.5763 583 53.6364 715.575 470.47
3188 0 56.1718 11.0198 619 52.2407 715.058 469.447
3189 0 59.0525 10.4653 618 52.445 715.782 468.099
3190 0 67.1245 12.0224 807 49.3135 715.333 470.141
3191 0 63.0703 10.956 691 51.5051 715.372 466.074
3192 0 68.1065 11.7757 802 49.793 715.271 467.138
3193 0 71.0337 12.1914 866 49.0416 714.562 465.865
3194 0 69.0929 11.1444 770 50.8039 714.957 463.209
3195 0 76.0599 12.0957 920 49.1359 715.711 464.003
3196 0 75.1333 11.6194 873 50.1993 715.731 461.795
3197 0 79.0627 12.4205 982 49.0733 715.668 461.045
3198 0 82.0788 12.2687 1007 49.7825 715.066 459.924
3199 0 84.0902 12.2725 1032 50.0271 714.649 459.315
3200 0 88.0734 12.7507 1123 48.9662 714.811 458.798
3201 0 88.1133 12.2796 1082 50.1396 715.058 455.71
3202 0 97.0342 12.3153 1195 49.9682 715.218 455.951
3203 0 97.0751 12.9384 1256 49.6648 715.482 454.092
3204 0 101.077 13.0495 1319 48.8984 715.365 453.283
3205 1 52.0379 10.4923 546 48.8791 715.652 476.87
3206 0 53.0568 11.1202 590 49.5814 715.447 476.163
3207 0 53.1166 9.73329 517 51.207 715.033 472.818
3208 0 55.1621 11.5659 638 48.652 716.135 474.219
3209 0 58.1209 11.304 657 48.6728 715.909 472.718
3210 0 58.092 10.8104 628 49.7866 716.285 471.785
3211 0 60.027 12.1945 732 47.4399 716.343 473.183
3212 0 62.0405 11.6053 720 47.8611 716.533 471.186
3213 0 63.136 10.7546 679 49.2297 716.084 470.06
3214 0 66.029 11.4495 756 48.0357 715.702 470.255
3215 0 64.0371 10.8218 693 49.2554 715.584 467.685
3216 0 61.1615 10.1207 619 50.4863 715.801 465.095
3217 0 67.1248 11.8585 796 48.0603 715.46 467.667
3218 0 74.0637 12.1517 900 46.9644 715.393 468.081
3219 0 70.0428 10.3794 727 50.055 715.498 463.806
3220 0 72.062 11.1432 803 49.8742 716.257 463.796
3221 0 74.1052 10.9169 809 49.4759 716.031 461.459
3222 0 79.0739 11.2806 892 48.6491 715.034 462.598
3223 0 84.1458 12.407 1044 47.2481 715.64 463.869
3224 0 83.0485 11.2464 934 48.7366 715.502 458.555
3225 0 85.06 11.9798 1019 47.5545 715.673 459.724
3226 0 88.0609 12.0939 1065 48.3831 716.146 458.78
3227 1 48.0083 11.1439 535 46.443 716.015 480.804
3228 0 48.0351 10.8462 521 47.3704 715.691 479.301
3229 0 49.0641 11.1283 546 46.5421 715.841 478.35
3230 0 53.0544 11.6296 617 45.047 715.977 478.439
3231 0 56.0186 10.3001 577 46.6083 715.678 475.913
3232 0 51.0445 10.2655 524 48.3492 715.55 473.588
3233 0 61.0425 10.9596 669 45.9686 715.634 474.658
3234 0 61.0491 12.0231 734 45.9428 714.96 474.661
3235 0 62.0215 11.2864 700 46.8671 715.329 473.06
3236 0 66.0288 11.9493 789 47.2294 716.008 473.15
3237 0 65.0504 11.1606 726 47.8526 716.183 470.168
3238 0 69.0496 10.7749 744 47.7944 715.176 469.191
3239 1 118.027 9.98927 1179 41.3265 715.696 473.762
3240 1 101.262 12.4727 1263 40.4101 715.836 473.823
3241 1 76.0283 11.1932 851 47.0811 715.498 466.839
3242 0 77.0997 11.2063 864 47.8403 715.648 465.51
3243 0 80.0753 11.102 889 48.3588 715.765 461.712
3244 0 82.1515 11.3327 931 48.1321 715.744 462.582
3245 0 87.0223 11.5488 1005 47.5224 714.815 460.956
3246 0 87.0464 11.3043 984 49.2937 715.038 459.351
3247 0 90.0512 11.7933 1062 49.113 715.194 458.518
3248 0 93.1106 11.438 1065 48.9624 714.303 457.407
3249 0 96.101 11.5608 1111 48.8965 714.092 455.065
3250 0 99.0911 11.2926 1119 50.2627 713.918 453.877
3251 0 103.162 13.0863 1350 47.1941 714.027 454.086
3252 0 105.061 11.8122 1241 49.0064 714.115 450.948
3253 0 111.057 12.8583 1428 47.7549 713.487 451.523
3254 0 112.061 12.6182 1414 48.7574 713.873 450.317
3255 1 59.0426 10.5686 624 48.9663 714.394 473.316
3256 0 63.041 10.6439 671 48.5216 714.852 471.364
3257 0 63.1421 10.4368 659 49.2625 714.149 470.297
3258 0 67.1057 10.3717 696 48.9655 713.886 469.609
3259 0 70.1813 11.342 796 47.892 714.212 468.901
3260 0 75.0949 11.9981 901 46.0622 713.96 469.265
3261 0 77.0829 11.3514 875 47.1943 714.478 467.366
3262 0 77.139 11.395 879 47.4494 714.787 465.131
3263 0 82.1463 11.2239 922 46.8764 714.323 464.382
3264 0 84.1694 12.558 1057 45.6263 714.553 463.57
3265 0 88.1062 11.3726 1002 46.3892 714.585 461.773
3266 0 90.1518 11.3142 1020 46.9657 714.943 459.648
3267 0 92.0987 10.8145 996 47.3986 714.873 456.993
3268 1 48.0657 10.5273 506 46.4941 714.49 478.565
3269 0 50.0576 10.6477 533 46.2889 715.103 477.831
3270 0 49.0809 9.94277 488 47.9385 715.061 474.961
3271 0 52.0549 10.2968 536 47.2556 714.884 474.578
3272 0 57.017 11.0493 630 45.5651 714.846 474.681
3273 0 57.0483 10.6927 610 46.5672 715.151 472.036
3274 0 60.0399 11.3758 683 44.8697 715.564 473.392
3275 0 60.0266 10.7786 647 46.2334 714.431 470.173
3276 0 60.0205 9.99659 600 47.5217 715.193 467.772
3277 0 63.0292 11.2646 710 45.8141 715.177 468.318
3278 0 66.0696 11.8814 785 44.4968 714.999 468.399
3279 0 69.0673 11.5105 795 45.4164 715.309 467.316
3280 0 68.1495 11.0052 750 46.2813 715.468 465.537
3281 0 72.1599 11.1281 803 45.5093 715.608 464.788
3282 0 71.1134 10.8559 772 45.9313 715.355 462.648
3283 0 77.0918 12.4138 957 43.7419 715.447 464.48
3284 0 81.0622 10.6955 867 45.0992 715.115 461.276
3285 0 83.0891 12.1436 1009 43.9475 715.403 460.666
3286 0 84.1158 10.8184 910 45.6835 715.816 457.958
3287 1 41.0334 9.33386 383 46.2689 716.07 478.193
3288 0 46.0612 10.7031 493 44.14 716.278 479.4
3289 0 44.0194 9.15505 403 46.8139 716.027 477.672
3290 0 46.0921 9.6329 444 47.455 716.101 476.66
3291 0 47.0444 10.0543 473 47.3615 716.042 475.983
3292 0 50.0263 10.1946 510 46.0765 715.686 474.22
3293 0 54.0298 10.7533 581 44.9604 715.649 475.489
3294 0 55.0611 12.4226 684 44.4064 715.472 476.402
3295 0 54.028 10.9388 591 45.9391 715.061 473.157
3296 0 56.0677 11.2899 633 46.6414 715.651 472.755
3297 0 56.0497 10.1696 570 46.8386 714.93 470.975
3298 0 54.0299 10.2166 552 47.6413 715.105 469.857
3299 0 57.0169 10.9441 624 46.9936 715.383 470.261
3300 0 57.0128 10.3135 588 48.7942 715.379 467.099
3301 0 61.1514 11.0382 675 46.8741 714.723 468.081
3302 0 64.087 10.907 699 46.8684 714.652 468.05
3303 0 72.0514 12.1996 879 44.0978 714.133 470.214
3304 0 64.0497 10.367 664 47.2982 714.83 464.657
3305 0 69.0899 10.7541 743 46.4886 714.729 465.042
3306 0 70.0802 10.3025 722 46.8449 714.672 462.252
3307 0 77.0766 11.6767 900 45.7933 715.239 465.081
3308 0 81.0475 12.2891 996 43.8966 715.05 465.124
3309 1 35.0195 10.0801 353 46.4023 714.527 483.082
3310 0 39.0615 9.98426 390 45.8821 714.51 482.674
3311 0 42.0203 11.0661 465 44.2538 714.183 483.892
3312 0 42.0176 11.0668 465 45.4538 713.703 483.327
3313 0 41.0254 9.94506 408 46.8113 713.998 481.11
3314 0 38.0173 9.83762 374 48.8128 714.16 479.743
3315 0 47.0414 10.6715 502 45.3506 714.305 481.131
3316 0 47.0443 11.3297 533 45.5797 714.674 480.317
3317 0 48.0455 12.3425 593 44.3659 714.388 480.128
3318 0 50.0225 11.4948 575 45.4174 714.129 478.468
3319 0 49.1147 11.1372 547 47.2413 714.305 477.508
3320 0 54.0577 12.1352 656 45.407 714.314 478.447
3321 0 56.053 11.6854 655 45.2137 714.493 476.098
3322 0 53.0392 11.2181 595 47.6824 714.111 474.523
3323 0 56.0406 12.3304 691 46.4761 713.912 477.486
3324 0 59.0463 12.5495 741 45.2955 713.888 476.776
3325 0 56.0493 11.258 631 47.7813 713.764 472.992
3326 0 56.1071 10.9434 614 48.5945 713.366 471.303
3327 0 59.0309 12.0445 711 48.6498 713.551 471.722
3328 0 61.0899 10.0671 615 50.1317 713.111 468.784
3329 0 61.1183 10.5042 642 50.4502 713.419 467.379
3330 0 64.1096 10.638 682 50.7141 713.868 466.469
3331 0 66.0747 11.1843 739 50.1231 713.587 466.982
3332 0 71.0787 11.4239 812 49.4901 713.347 465.193
3333 0 70.1326 11.1788 784 50.3112 713.93 464.133
3334 0 76.0832 11.5531 879 49.3652 713.759 464.812
3335 0 76.0588 10.3473 787 52.108 714.098 461.024
3336 0 81.1289 12.2644 995 49.599 713.956 464.425
3337 0 78.214 11.2256 878 51.5068 713.584 459.631
3338 0 79.1358 10.5136 832 52.3365 713.228 456.688
3339 0 82.0816 11.1962 919 52.4614 713.593 456.765
3340 0 88.1004 10.8286 954 51.9958 713.314 455.961
3341 0 90.1412 11.726 1057 50.7531 714.032 456.651
3342 0 95.1095 13.2479 1260 48.9198 714.985 456.968
3343 1 45.0238 10.7054 482 52.7718 715.058 476.064
3344 0 48.0548 10.8626 522 51.8602 714.236 474.529
3345 0 51.0485 10.8328 553 52.3146 714.559 474.228
3346 0 50.0166 10.7364 537 53.1713 714.585 472.896
3347 0 55.0388 10.5925 583 52.8593 714.503 474.328
3348 0 53.0322 11.5024 610 53.2902 714.457 473.116
3349 0 57.0333 10.6254 606 53.7558 715.284 472.776
3350 0 62.066 12.5028 776 52.1147 714.005 475.148
3351 0 61.0483 11.0732 676 54.4364 714.811 471.615
3352 0 62.099 12.5445 779 53.5237 714.855 472.295
3353 0 64.0561 11.006 705 55.4752 713.935 469.146
3354 0 68.1313 12.608 859 53.4936 714.354 471.352
3355 0 70.0611 11.4614 803 55.5305 714.552 469.656
3356 0 68.0101 10.2632 698 58.1734 714.274 467.083
3357 0 71.1574 10.259 730 58.6288 714.721 465.948
3358 1 32.0206 10.1497 325 57.2492 714.129 486.043
3359 0 35.0955 9.37443 329 58.769 713.884 485.374
3360 0 37.016 10.6711 395 56.8051 713.314 485.894
3361 0 36.0422 10.4045 375 57.9387 713.587 484.288
3362 0 36.0187 10.3557 373 58.0992 713.611 483.603
3363 0 35.0182 9.59502 336 60.1696 712.952 480.417
3364 0 40.0507 10.5616 423 58.4586 712.522 483
3365 0 44.1278 11.3534 501 55.475 713.349 483.579
3366 0 42.1596 10.6974 451 58.0554 713.761 481.162
3367 0 43.0842 10.4911 452 57.9292 713.874 479.425
3368 0 48.1164 10.9942 529 56.0416 713.344 480.624
3369 0 44.0864 10.0711 444 59.4482 713.57 477.34
3370 0 51.0673 9.5756 489 58.2004 713.665 477.35
3371 0 50.0736 10.7043 536 56.3433 713.582 477.709
3372 0 49.079 10.9212 536 57.4571 713.295 475.451
3373 0 51.0363 11.0901 566 56.6484 713.173 476.659
3374 0 57.0823 12.4382 710 53.7873 713.642 477.325
3375 0 59.0793 11.8316 699 54.578 713.828 474.801
3376 0 61.0592 10.7437 656 56.1067 713.694 473.538
3377 0 65.0214 11.8115 768 53.7083 713.723 473.34
3378 0 61.027 10.651 650 56.7785 713.503 468.96
3379 0 66.0731 10.5641 698 56.7665 713.58 468.842
3380 0 70.0489 11.6062 813 54.9779 713.711 468.8
3381 0 71.0616 11.0468 785 55.5694 713.628 466.915
3382 0 75.0581 12.084 907 53.6251 713.768 465.442
3383 0 75.0555 10.792 810 56.1765 713.481 464.436
3384 0 78.0805 11.3473 886 54.7833 713.594 463.074
3385 1 37.0109 10.4834 388 54.7345 713.474 481.845
3386 0 44.059 10.1001 445 53.6787 713.416 482.351
3387 0 44.0684 10.3929 458 53.8231 713.266 480.376
3388 0 48.0806 10.9608 527 52.3036 713.442 480.924
3389 0 45.0074 10.7093 482 54.2884 713.573 479.602
3390 0 47.0391 11.1822 526 53.3327 713.819 480.236
3391 0 49.0314 10.3811 509 54.3026 713.566 478.603
3392 0 50.0285 11.4335 572 53.4895 714.093 478.072
3393 0 49.0522 11.3756 558 53.457 713.824 476.719
3394 0 53.0261 10.2402 543 54.8029 713.488 476.56
3395 0 54.0965 10.9434 592 52.9747 713.708 476.135
3396 0 60.0819 11.1514 670 51.7612 713.875 475.345
3397 0 57.0117 11.2082 639 52.9969 713.712 473.072
3398 0 61.0403 12.3197 752 51.4867 713.677 473.614
3399 0 60.0715 11.1534 670 52.5687 713.539 471.713
3400 0 63.0912 11.84 747 51.498 714.266 472.612
3401 0 65.0412 11.608 755 51.8172 713.991 471.85
3402 0 63.0972 11.3793 718 52.5919 714.182 469.894
3403 0 69.0618 11.4535 791 51.9697 713.724 469.527
3404 0 68.0597 10.8287 737 53.3799 713.92 467.866
3405 0 68.0622 10.9899 748 53.5976 713.96 466.168
3406 0 67.1346 9.92037 666 55.2523 713.515 463.413
3407 0 75.0704 12.0154 902 52.2905 713.328 466.655
3408 0 78.1807 11.5885 906 52.1788 713.249 465.677
3409 1 38.0361 9.43841 359 53.8106 713.025 482.705
3410 0 45.0181 10.5069 473 51.4123 713.357 483.772
3411 0 42.0297 9.61224 404 54.396 713.448 480.97
3412 0 44.0249 10.5395 464 52.7414 712.696 480.668
3413 0 43.0189 10.3908 447 52.5928 712.609 479.031
3414 0 44.0311 10.2655 452 52.5376 712.916 478.091
3415 0 51.0419 11.2457 574 50.3571 712.666 479.127
3416 0 52.0713 10.7161 558 50.4427 713.256 477.056
3417 0 52.0108 11.5361 600 50.02 712.997 477.125
3418 0 54.1279 11.5652 626 49.655 713.286 475.738
3419 0 55.0502 10.8446 597 50.794 712.836 474.663
3420 0 61.046 11.778 719 48.185 713.143 474.523
3421 0 59.0616 11.2425 664 50 713.191 472.672
3422 0 62.1177 10.9792 682 50.1994 713.182 470.485
3423 0 64.0461 10.8672 696 50.8046 712.691 469.829
3424 0 68.1006 10.8222 737 49.9322 713.312 468.676
3425 0 69.1109 11.2428 777 50.0605 712.933 467.147
3426 0 70.095 10.928 766 50.4569 713.666 465.428
3427 0 74.0549 11.5185 853 50.0106 713.508 463.328
3428 0 79.097 12.3013 973 48.3165 713.985 464.416
3429 0 79.0992 11.1126 879 49.8714 714.15 461.241
3430 0 81.1445 12.0895 981 49.0928 714.67 462.047
3431 1 42.0541 10.5578 444 49.4099 714.191 481.245
3432 0 44.0846 10.1169 446 50.0919 714.453 480.989
3433 0 44.0459 10.4436 460 50.2891 714.024 479.413
3434 0 46.0517 11.0745 510 48.7275 713.916 478.798
3435 0 46.0199 11.1474 513 48.7524 714.177 477.442
3436 0 48.0618 10.6738 513 48.7018 714.324 475.733
3437 0 50.0468 10.8498 543 48.2173 714.47 474.387
3438 0 53.024 9.63714 511 49.4775 714.896 472.945
3439 0 57.0454 10.6932 610 47.6787 714.525 474.521
3440 0 58.0542 10.9553 636 47.4575 714.198 472.263
3441 0 58.1206 10.96 637 47.5212 714.779 472.83
3442 0 61.0599 10.9401 668 47.1482 714.775 471.296
3443 0 64.0536 11.5216 738 45.9472 715.199 471.566
3444 0 66.108 11.0274 729 46.6132 715.299 470.092
3445 0 63.1062 10.8864 687 47.3115 714.838 468.183
3446 0 70.1175 11.7945 827 45.283 714.693 467.913
3447 0 68.19 9.94281 678 48.1018 714.378 462.422
3448 0 76.1317 11.9924 913 44.7612 713.765 465.409
3449 0 78.1155 12.0847 944 44.5074 714.699 464.821
3450 0 78.0523 12.1329 947 44.9968 714.691 463.707
3451 0 81.1098 10.9728 890 46.6169 714.109 461.883
3452 0 83.1721 10.8811 905 45.9094 714.545 461.41
3453 0 87.1627 12.3333 1075 44.6056 713.694 461.677
3454 1 45.0614 11.096 500 45.364 713.616 482.85
3455 0 48.0675 10.194 490 45.498 713.849 480.818
3456 0 48.0699 10.6304 511 45.8376 713.838 479.971
3457 0 48.0721 10.5675 508 46.9862 713.667 478.248
3458 0 48.1248 9.99485 481 47.0042 714.204 477.638
3459 0 51.0682 11.4944 587 45.8092 713.664 477.852
3460 0 52.0785 11.1562 581 45.599 713.699 476.63
3461 0 55.0531 11.4798 632 44.8782 714.388 476.195
3462 0 55.1039 11.9229 657 44.9148 713.912 474.98
3463 0 60.0848 11.0178 662 45.0634 713.71 473.823
3464 0 61.1174 11.437 699 44.5923 713.309 473.617
3465 0 62.1003 12.2383 760 43.3013 712.978 473.349
3466 0 68.1005 12.2466 834 42.5588 712.783 472.791
3467 0 64.097 11.5138 738 44.2967 713.085 470.825
3468 0 69.1382 11.1516 771 43.8119 713.315 468.715
3469 0 69.1631 12.3765 856 42.8855 712.891 469.114
3470 0 72.2039 11.9523 863 43.0742 713.83 469.02
3471 0 74.0788 11.5688 857 43.3559 713.487 467.228
3472 0 78.0828 11.3085 883 43.0396 712.733 465.804
3473 0 80.0824 11.638 932 42.8487 712.636 463.734
3474 0 83.0539 11.0169 915 43.8645 713.375 461.487
3475 0 87.158 11.9438 1041 42.7032 713.476 461.711
3476 0 90.2411 11.8239 1067 42.0684 712.918 461.098
3477 0 92.2131 11.2674 1039 43.0491 713.033 458.294
3478 0 94.2357 12.3838 1167 41.8346 713.416 457.616
3479 1 46.1538 10.6384 491 42.7963 713.043 480.198
3480 0 46.091 10.783 497 42.7626 713.163 479.243
3481 0 49.0601 11.3534 557 42 713.185 478.149
3482 0 51.0976 11.39 582 41.9708 713.201 477.443
3483 0 53.0578 11.7231 622 41.6431 712.777 477.979
3484 0 54.1018 11.6077 628 41.586 712.124 477.091
3485 0 57.1692 10.95 626 41.9409 712.709 475.35
3486 0 59.0396 12.0258 710 40.7366 712.849 476.301
3487 0 56.0279 10.1913 571 43.5552 712.916 472.135
3488 0 61.0917 11.7201 716 42.3268 712.763 473.722
3489 0 63.0618 12.7494 804 42.4092 713.255 473.731
3490 0 63.1301 10.8823 687 43.7773 713.124 469.76
3491 0 64.0791 10.6743 684 43.712 712.569 467.564
3492 0 68.1984 11.9944 818 43.0465 711.993 469.994
3493 0 74.023 11.9963 888 41.848 711.93 469.354
3494 0 71.079 12.0007 853 42.687 712.531 467.411
3495 0 78.1591 11.6429 910 43.2813 712.709 466.721
3496 0 79.1622 12.4554 986 42.4848 712.221 465.212
3497 0 82.148 11.9175 979 42.621 711.964 464.835
3498 0 81.0626 12.1141 982 43.3625 712.146 463.632
3499 0 84.0743 10.7524 904 44.5343 712.247 460.405
3500 1 44.0067 10.1121 445 45.8584 712.184 480.009
3501 0 49.0281 11.0957 544 44.4761 712.333 481.307
3502 0 50.0646 11.8048 591 44.577 712.547 479.629
3503 0 47.0109 11.7207 551 45.6987 712.236 477.459
3504 0 51.0076 11.0572 564 46.1897 712.535 476.496
3505 0 51.0393 10.9523 559 47.0143 712.447 476.12
3506 0 54.0257 11.1984 605 46.362 711.818 475.083
3507 0 58.0646 11.6422 676 46.2204 712.432 475.849
3508 0 56.0568 11.5597 648 47.2006 712.915 474.64
3509 0 57.0529 12.0239 686 47.4708 712.548 473.978
3510 0 61.1081 12.4697 762 46.8005 712.172 474.175
3511 0 59.1258 11.6362 688 48.7485 712.222 471.353
3512 0 60.0645 11.2712 677 49.5953 713.064 469.687
3513 0 67.0459 12.5884 844 47.8472 713.069 471.236
3514 0 65.1208 12.0545 785 49.7554 713.073 469.53
3515 0 65.0358 11.1631 726 51.4298 713.501 467.171
3516 0 71.0677 12.4107 882 49.8345 713.083 468.289
3517 0 72.0486 12.4361 896 50.2478 712.934 467.518
3518 0 74.0645 13.3802 991 50.1917 712.791 467.541
3519 0 73.1351 10.2687 751 54.3822 713.316 463.362
3520 0 80.1773 12.1855 977 51.955 712.632 464.976
3521 0 79.1426 12.6481 1001 52.8292 712.747 463.015
3522 0 80.1482 12.3646 991 53.6216 713.489 460.768
3523 0 86.0966 12.1375 1045 53.7177 713.251 460.404
3524 0 89.1207 13.2405 1180 52.5136 712.604 460.253
3525 0 89.0612 11.5089 1025 55.4215 713.33 456.285
3526 0 93.1016 12.3521 1150 54.3609 713.839 456.217
3527 1 46.0731 11.7205 540 55.6352 713.607 479.526
3528 0 47.0609 11.432 538 55.9033 713.359 476.805
3529 0 46.039 11.6206 535 56.3196 712.923 475.441
3530 0 51.0117 11.7228 598 55.801 713.401 475.644
3531 0 53.0159 12.5811 667 54.985 713.609 475.733
3532 0 53.028 10.9565 581 57.9243 713.081 474.06
3533 0 54.0192 11.6625 630 57.6063 713.822 473.849
3534 0 53.0454 10.7455 570 59.0298 714.028 471.914
3535 0 58.0834 11.9656 695 57.1568 713.029 473.717
3536 0 57.0403 11.8337 675 58.1274 713.412 469.113
3537 0 62.0241 12.5596 779 57.0193 713.547 471.196
3538 0 63.0234 12.8682 811 57.8039 714.2 468.53
3539 0 67.0283 12.3828 830 57.3747 714.235 466.26
3540 0 65.0986 12.7345 829 58.0326 713.712 464.9
3541 0 71.0146 13.7718 978 56.2526 713.554 464.332
3542 0 70.0942 13.7529 964 57.2656 713.637 463.044
3543 0 73.0208 13.5441 989 58.3428 714.067 462.151
3544 0 76.0824 13.6037 1035 57.6319 714.242 461.44
3545 0 75.0656 12.7755 959 59.4619 714.291 459.497
3546 0 80.0664 13.4389 1076 58.4322 713.974 460.97
3547 0 81.0746 12.0136 974 60.1704 713.375 458.507
3548 0 84.1577 12.738 1072 59.1502 713.059 459.924
3549 1 40.0273 10.5428 422 60.4739 712.737 481.012
3550 0 44.0897 9.93429 438 60.774 712.621 481.059
3551 0 47.059 11.1562 525 58.2705 712.35 482.909
3552 0 45.0664 10.54 475 60.0442 712.415 481.463
3553 0 47.0477 11.3077 532 58.1992 712.367 482.59
3554 0 52.0284 10.994 572 58.2063 711.68 482.58
3555 0 52.0547 12.2563 638 57.0972 712.15 484.265
3556 0 52.0482 11.1819 582 58.1031 711.679 482.826
3557 0 57.0327 12.0107 685 56.6847 711.399 484.082
3558 0 60.0778 11.3519 682 56.7522 711.128 483.415
3559 0 59.0655 11.682 690 58.6377 711.255 483.207
3560 0 61.0816 12.1313 741 57.7139 711.02 483.872
3561 0 64.0656 12.0033 769 57.9259 711.228 482.503
3562 0 66.0306 10.9949 726 59.4394 711.063 480.846
3563 0 66.0379 10.2063 674 60.5979 710.525 477.926
3564 0 73.1043 11.5862 847 58.2102 710.073 478.417
3565 0 73.1469 11.142 815 59.4687 710.454 476.252
3566 0 76.1986 11.1551 850 58.9541 709.615 476.645
3567 0 78.0499 10.2242 798 59.3459 709.277 472.781
3568 1 42.022 10.5659 444 58.0563 709.446 494.011
3569 0 42.0311 11.4915 483 57.2298 708.768 492.867
3570 0 41.0608 9.98518 410 58.6463 708.18 490.515
3571 0 46.0153 11.1267 512 56.6582 708.086 491.256
3572 0 43.0377 11.1995 482 57.1515 708.274 489.147
3573 0 45.0335 10.3479 466 57.1459 708.082 487.476
3574 0 50.0794 10.5632 529 56.2722 708.645 487.214
3575 0 47.0278 11.3763 535 55.9271 708.746 486.65
3576 0 50.0579 11.5067 576 55.842 709.064 485.99
3577 0 50.0701 10.1058 506 57.8379 709.109 483.532
3578 0 52.0592 11.3332 590 57.3576 708.91 484.373
3579 0 56.0783 11.6444 653 55.5299 708.783 483.634
3580 0 55.1081 11.1054 612 56.7108 708.637 482.209
3581 0 58.0549 11.3341 658 55.5213 708.881 481.807
3582 0 60.0856 10.7846 648 57.0602 709.356 480.87
3583 0 63.0131 12.0292 758 55.0884 709.309 480.077
3584 0 61.0796 11.2312 686 56.519 709.054 478.258
3585 0 64.0606 10.9428 701 57.4465 708.475 479.472
3586 0 69.1935 11.8653 821 55.7978 708.477 480.734
3587 0 67.0295 11.7113 785 56.0917 708.531 479.046
3588 0 71.0212 11.2361 798 56.1165 709.026 478.236
3589 0 73.1575 10.7576 787 56.4206 708.785 476.268
3590 0 77.1457 11.9514 922 54.3796 709.425 478.539
3591 0 77.1107 10.9194 842 56.1354 709.023 475.71
3592 1 39.1428 9.35037 366 57.2322 708.735 495.09
3593 0 40.0461 9.41415 377 59.1936 708.3 493.767
3594 0 45.02 10.7286 483 55.3975 708.128 494.867
3595 0 48.0269 10.8689 522 54.841 708.238 492.937
3596 0 48.1015 9.72944 468 56.8654 707.81 489.979
3597 0 54.0318 10.7159 579 53.266 707.934 491.026
3598 0 50.0678 10.4259 522 54.408 707.784 488.582
3599 0 50.0549 10.3486 518 54.9286 707.73 487.768
3600 0 53.026 11.5038 610 54.1951 707.62 489.105
3601 0 53.1609 10.7786 573 54.6911 707.494 486.586
3602 0 55.1116 11.1773 616 54.2338 708.422 486.476
3603 0 58.0748 11.0203 640 54.0078 707.495 485.625
3604 0 61.1128 11.8142 722 52.8283 707.771 484.439
3605 0 62.0974 11.0955 689 54.0319 707.689 481.984
3606 0 65.0622 10.9741 714 54.1457 707.843 481.077
3607 0 67.0947 10.9547 735 53.9837 707.43 479.325
3608 0 69.114 11.4883 794 54.3665 707.273 478.312
3609 0 73.1336 10.9936 804 54.8731 707.022 476.93
3610 0 76.1309 11.2963 860 54.6884 706.743 475.871
3611 0 78.1357 10.1874 796 55.2915 706.523 471.873
3612 0 81.1117 11.478 931 53.9946 706.422 473.523
3613 1 38.0719 8.27382 315 57.781 706.917 491.889
3614 0 40.0031 8.94931 358 56.743 706.302 491.006
3615 0 44.0407 10.3086 454 54.5947 706.923 490.068
3616 0 45.0147 10.1967 459 54.9608 707.083 488.593
3617 0 49.0371 11.3791 558 52.4319 707.195 487.625
3618 0 51.0424 11.8333 604 52.3427 705.998 487.419
3619 0 51.0258 10.3281 527 53.6812 707.6 484.017
3620 0 51.0053 11.2929 576 52.6649 707.757 483.054
3621 0 57.0074 12.665 722 49.892 707.96 484.33
3622 0 56.0559 9.72244 545 53.145 707.996 478.901
3623 0 63.0435 12.071 761 49.1301 707.962 482.067
3624 0 67.0566 12.3478 828 48.2029 708.484 481.035
3625 0 67.0534 12.3633 829 48.684 707.899 478.343
3626 0 70.0792 13.5704 951 46.6793 708.498 479.455
3627 0 73.1014 12.7494 932 47.8562 708.175 476.206
3628 0 75.1408 13.335 1002 46.8992 708.927 476.209
3629 0 75.0613 11.1642 838 49.7124 709.18 470.952
3630 0 76.0965 11.0649 842 49.842 708.688 470.03
3631 0 84.0788 12.9284 1087 46.8776 708.797 470.967
3632 0 81.1305 11.7342 952 49.458 709.15 466.95
3633 0 86.0344 12.5415 1079 48.5542 709.046 467.723
3634 0 90.1138 12.34 1112 48.7257 709.431 464.861
3635 0 94.1443 12.7145 1197 48.3743 709.668 465.477
3636 0 93.0951 12.933 1204 48.3538 709.34 463.215
3637 1 50.0435 10.8505 543 49.1989 708.713 485.072
3638 0 50.0102 11.6976 585 49.1265 709.07 483.255
3639 0 57.038 11.7816 672 47.4211 709.045 483.057
3640 0 55.0375 12.0645 664 48.1747 709.114 481.248
3641 0 56.0169 11.8714 665 48.4632 709.668 478.171
3642 0 62.0879 12.4501 773 46.8952 709.752 478.169
3643 0 61.0535 11.7438 717 48.258 709.469 474.901
3644 0 62.0317 11.9133 739 48.1258 709.671 474.258
3645 0 71.1503 12.8179 912 45.3246 710.125 474.436
3646 0 71.1452 12.0036 854 46.7295 710.363 471.667
3647 0 70.1003 12.2967 862 46.8898 710.382 470.753
3648 0 76.0203 13.4175 1020 44.7892 710.796 471.911
3649 0 75.0503 12.4317 933 46.6324 711.329 465.874
3650 0 80.1228 11.6696 935 46.8717 711.366 465.863
3651 0 79.2385 10.8533 860 47.9756 711.216 461.107
3652 0 85.2167 13.3307 1136 45.1408 711.919 463.935
3653 0 88.0639 12.9679 1142 45.7137 712.183 462.313
3654 0 91.1607 11.8911 1084 46.8413 712.586 459.423
3655 0 92.1127 13.2012 1216 45.7377 711.949 458.471
3656 0 94.251 11.915 1123 47.2226 711.804 454.102
3657 0 98.1386 12.3295 1210 46.9322 712.381 453.305
3658 0 103.295 12.9629 1339 46.3241 712.616 453.04
3659 1 59.0431 11.6356 687 44.8486 712.732 478.303
3660 0 57.092 10.5444 602 47.7359 712.556 473.027
3661 0 59.1096 11.7409 694 46.9798 712.814 474.369
3662 0 62.0184 10.9484 679 47.433 711.887 470.479
3663 0 64.106 12.6821 813 45.5781 712.364 471.165
3664 0 67.0431 11.2614 755 47.0662 712.464 467.429
3665 0 66.1121 11.1931 740 47.4932 713.409 465.559
3666 0 71.0642 12.5661 893 45.6069 713.629 467.559
3667 0 74.1464 12.4888 926 45.3942 713.795 465.757
3668 0 74.0496 11.2762 835 47.3054 713.98 461.962
3669 0 79.0861 12.9226 1022 46.5861 713.919 463.446
3670 0 80.1394 11.8044 946 48.037 713.066 460.52
3671 0 86.1842 12.9838 1119 45.916 713.5 461.514
3672 0 84.1582 11.11 935 48.8374 712.927 457.437
3673 0 93.1201 13.1443 1224 45.7173 712.848 458.81
3674 0 91.0916 12.2843 1119 47.7793 713.084 455.009
3675 1 49.0482 11.0911 544 46.3493 712.903 479.235
3676 0 50.0765 11.2029 561 47.1729 712.747 477.478
3677 0 49.0423 10.5623 518 47.971 712.726 475.237
3678 0 54.1075 12.0131 650 45.1354 712.775 475.922
3679 0 58.0349 11.8205 686 45.2988 713.138 475.525
3680 0 56.1089 11.1034 623 46.7416 712.579 472.528
3681 0 60.0757 10.3869 624 47.2356 712.912 470.351
3682 0 61.071 11.9042 727 45.4704 713.297 472.567
3683 0 65.1438 11.774 767 44.9622 713.031 471.49
3684 0 64.1161 10.8709 697 46.5968 712.769 468.195
3685 0 64.0374 10.5407 675 47.5007 712.502 466.581
3686 0 66.1208 11.5546 764 45.6283 712.517 466.505
3687 0 69.1194 10.3589 716 46.6215 713.081 464.324
3688 0 69.1011 10.3182 713 46.7574 712.452 462.405
3689 0 70.0708 10.8176 758 47.0013 712.606 461.272
3690 1 82.108 13.3239 1094 41.7514 711.546 465.516
3691 0 80.0624 11.2537 901 45.0178 711.918 461.069
3692 0 81.0777 10.8538 880 45.3773 712.061 459.12
3693 0 82.0846 11.2445 923 44.6154 712.159 458.483
3694 0 87.134 11.2356 979 45.1001 712.034 457.315
3695 0 91.1189 12.2916 1120 43.7518 711.974 458.309
3696 0 97.1906 13.0157 1265 41.9462 712.351 457.968
3697 0 96.2718 12.2673 1181 43.0618 711.424 455.477
3698 1 48.0816 9.08872 437 44.6178 711.517 475.426
3699 0 51.0383 11.0701 565 43.0779 711.881 478.002
3700 0 51.0277 10.4649 534 44.3614 712.184 474.39
3701 0 48.039 9.638 463 45.3499 711.821 472.754
3702 0 50.0773 10.364 519 44.7919 711.418 473.1
3703 0 57.1273 11.3606 649 42.7966 711.398 472.948
3704 0 55.0239 10.7771 593 44.2209 711.895 471.776
3705 0 59.0189 10.4882 619 43.8659 711.305 471.189
3706 0 63.0714 11.051 697 42.8321 711.178 471.103
3707 0 62.0839 11.2106 696 43.4296 711.231 469.898
3708 0 65.1645 12.4608 812 41.6145 710.403 469.603
3709 0 70.0807 11.7008 820 41.8049 710.928 468.221
3710 0 66.1439 10.5074 695 43.9281 711.268 465.229
3711 0 67.0893 10.9108 732 44.2281 711.652 464.146
3712 0 68.0934 10.9996 749 44.0467 711.039 462.441
3713 1 14.9635 4.67807 70 12.7714 708.514 526
3714 1 0 0 0 -nan -nan -nan
3715 1 13.1397 7.07781 93 12.5699 706.86 526.333
3716 1 77.1501 11.1989 864 44.4317 711.874 459.032
3717 0 82.1981 11.9589 983 43.6796 712.605 459.962
3718 0 84.1646 11.6082 977 44.2989 712.76 458.008
3719 0 87.1596 12.5402 1093 44.0137 712.145 458.248
3720 1 116.4 12.7406 1483 37.9069 712.564 466.055
3721 1 88.121 12.0516 1062 44.6761 713.005 455.728
3722 0 85.1091 10.5864 901 46.8291 712.33 451.531
3723 0 88.2539 12.1808 1075 44.9554 712.786 455.407
3724 0 83.1533 9.41634 783 48.7854 712.826 449.121
3725 0 73.2487 10.0207 734 37.6144 713.341 481.691
3726 1 44.0689 9.84821 434 45.0991 712.988 474.995
3727 0 49.0667 12.0856 593 42.3423 713.393 475.393
3728 0 46.1678 10.7434 496 44.3407 712.865 472.669
3729 0 49.0662 11.5151 565 43.4796 713.196 472.251
3730 0 52.0672 10.7169 558 44.1667 712.726 471.124
3731 0 52.0443 11.9706 623 43.3965 713.467 470.718
3732 0 51.0106 10.7233 547 44.8611 713.276 468.936
3733 0 56.0626 11.3801 638 44.0768 713.314 468.315
3734 0 54.042 10.7509 581 45.0723 712.687 467.342
3735 0 60.0481 11.8072 709 43.5021 712.783 468.058
3736 0 61.055 11.678 713 44.0771 712.346 466.231
3737 0 61.0454 10.0745 615 45.9561 712.974 464.262
3738 0 64.2326 11.1314 715 45.042 712.853 464.857
3739 0 65.088 10.6932 696 46.3333 713.717 463.724
3740 0 69.0867 12.0139 830 44.6651 713.717 464.367
3741 0 65.0417 10.8392 705 46.8199 713.482 461.878
3742 0 67.0764 10.8235 726 46.7879 713.656 461.409
3743 0 67.1062 9.3583 628 48.5717 713.5 459.197
3744 0 72.1151 10.9686 791 46.3628 713.335 460.707
3745 0 72.1466 10.0767 727 47.8102 713.07 457.828
3746 0 79.0779 11.2547 890 46.7011 713.143 458.755
3747 0 79.0703 10.4337 825 47.7224 713.395 457.097
3748 0 79.1326 10.5772 837 48.0944 712.836 455.093
3749 1 44.0671 10.7109 472 47.0254 713.089 477.903
3750 0 45.0351 11.4355 515 45.6563 713.208 477.386
3751 0 44.0336 10.3784 457 47.4639 713.451 474.744
3752 0 46.0609 9.48743 437 48.1076 713.375 474.076
3753 0 47.0267 10.292 484 48.3719 712.944 474.878
3754 0 50.0226 10.4753 524 46.6393 712.33 473.954
3755 0 52.0446 11.2019 583 46.0086 712.554 473.003
3756 0 57.056 11.9181 680 44.0426 713.228 474.626
3757 0 53.0249 9.50496 504 47.2718 713.399 469.29
3758 0 54.019 10.3667 560 46.7018 713.246 469.059
3759 0 55.0121 11.0521 608 46.0164 713.423 469.727
3760 0 61.0116 12.5222 764 43.8233 713.462 471.559
3761 0 60.0767 10.7696 647 45.5641 713.453 466.685
3762 0 62.1368 9.80096 609 46.5665 714.092 465.205
3763 0 67.1009 11.356 762 44.8425 713.43 467.483
3764 0 66.0487 10.462 691 45.5239 713.476 466.343
3765 0 70.0549 11.2198 786 44.7099 712.925 467.429
3766 0 74.0814 11.2849 836 44.7895 713.016 465.675
3767 0 76.2277 10.6523 812 45.1416 713.411 462.143
3768 0 78.1788 11.0132 861 44.5935 713.266 463.909
3769 0 78.0965 10.7303 838 45.2768 712.636 462.099
3770 0 83.0576 10.884 904 44.8529 712.848 460.327
3771 0 87.0372 10.9149 950 45.4168 713.38 458.474
3772 1 44.0465 10.33 455 45.422 712.409 480.91
3773 0 46.0613 10.8551 500 45.23 711.942 481.544
3774 1 124.289 12.5192 1556 39.1497 712.932 466.461
3775 1 46.0633 10.5073 484 45.5578 712.585 478.533
3776 0 49.039 10.094 495 45.7556 712.679 476.503
3777 0 54.1765 12.2009 661 43.0151 712.587 478.862
3778 0 48.0185 10.6626 512 45.9434 712.412 475.553
3779 0 51.0974 10.2549 524 47.3645 711.41 474.406
3780 0 56.0618 11.2911 633 45.1216 711.725 474.126
3781 0 53.1092 11.015 585 46.7607 711.344 472.482
3782 0 59.0258 11.8762 701 45.6705 711.548 474.805
3783 0 55.0464 10.2822 566 48.364 711.542 471.094
3784 0 61.0402 12.3197 752 46.3324 711.238 472.616
3785 0 60.0608 10.9556 658 47.9346 711.562 470.459
3786 0 62.1586 10.8915 677 49.7725 712.219 469.126
3787 0 68.0456 11.7568 800 47.8388 712.132 469.46
3788 0 66.1247 11.4178 755 49.0132 711.92 467.336
3789 0 72.0944 12.5668 906 47.8885 712.233 467.134
3790 0 72.2182 10.5791 764 50.7775 712.4 463.331
3791 0 76.0408 11.3492 863 49.8969 711.977 464.243
3792 0 76.0522 11.6367 885 49.5876 712.713 461.938
3793 0 79.0923 11.0757 876 50.4212 712.474 459.333
3794 0 80.1934 11.4598 919 50.3384 712.516 457.792
3795 0 85.0871 11.6939 995 49.6744 712.471 456.955
3796 0 89.1256 12.1289 1081 49.235 713.196 456.072
3797 1 45.044 11.3667 512 49.707 712.975 477.82
3798 0 46.0929 12.2362 564 49.2145 712.972 477.14
