time division length width area intensity CMx CMy
147 0 57.1524 11.5656 661 50.5234 597.241 229.812
148 0 139.337 15.6025 2174 41.7875 598.083 212.051
149 0 115.214 13.0974 1509 50.0245 597.535 201.44
150 0 119.182 13.0053 1550 49.7942 598.666 200.623
151 1 186.309 8.30343 1547 11.4421 599.692 400.92
152 0 177.6 6.11486 1086 40.5635 597.586 248.309
153 0 68.2502 12.7179 868 47.4482 598.892 229.033
154 0 69.1678 12.7516 882 47.3186 598.859 229.838
155 0 72.1678 12.9836 937 46.8751 598.764 230.075
156 0 75.1289 13.0043 977 46.5916 598.731 227.449
157 0 76.1155 12.7438 970 47.501 598.315 224.815
158 1 39.0448 9.55313 373 50.5308 597.874 245.721
159 0 42.0418 9.84733 414 49.8986 598.297 246.374
160 0 40.0327 11.066 443 49.4786 598.339 248.42
161 0 43.0189 11.3903 490 48.3347 598.68 249.453
162 1 244.296 2.38236 582 42.1649 598.149 291.916
163 1 92.1971 7.46227 688 42.561 598.725 260.049
164 0 94.0601 7.24005 681 43.928 598.687 258.501
165 1 53.0505 22.4126 1189 35.2304 598.189 245.511
166 1 107.524 6.80779 732 43.5109 597.265 260.515
167 1 54.0432 10.6396 575 48.2643 597.899 257.483
168 0 55.0512 11.1714 615 47.5577 597.446 259.42
169 0 56.0188 11.2998 633 47.218 597.479 261.692
170 0 60.0717 11.2532 676 46.9379 597.151 263.445
171 0 62.1536 11.0854 689 46.8142 597.594 263.848
172 1 23.5114 9.99513 235 12.1064 595.911 331.685
173 1 55.3685 10.981 608 11.7352 593.497 348.561
174 0 0 0 0 -nan -nan -nan
175 0 0 0 0 -nan -nan -nan
176 1 57.2436 11.5646 662 11.7145 595.112 346.548
177 1 233.516 6.26938 1464 36.6195 596.275 278.9
178 0 233.609 4.77721 1116 41.8065 595.665 266.993
179 1 80.2678 11.9849 962 46.7245 596.412 242.007
180 1 123.431 10.6699 1317 41.1519 596.981 250.679
181 1 240.989 5.20771 1255 42.3371 596.59 260.673
182 1 92.2064 11.3983 1051 46.7593 596.621 244.542
183 0 91.2251 10.9948 1003 46.6989 597.064 245.846
184 0 94.1407 11.5147 1084 46.0839 596.738 247.445
185 1 105.027 16.7767 1762 11.3814 596.691 372.669
186 1 0 0 0 -nan -nan -nan
187 0 0 0 0 -nan -nan -nan
188 1 52.9588 13.2745 703 11.7653 595.091 343.515
189 1 17.4433 10.0898 176 12.3636 599.227 329.233
190 1 48.2678 8.07993 390 11.9462 596.595 344.672
191 0 0 0 0 -nan -nan -nan
192 1 30.4265 6.73754 205 12.122 595.82 334.098
193 0 18.2914 13.6676 250 12.196 597.504 324.284
194 1 176.44 11.2219 1980 11.3419 594.812 415.691
195 1 0 0 0 -nan -nan -nan
196 1 27.8392 11.0276 307 12.0651 592.241 337.013
197 0 25.6339 8.2703 212 12.3585 599.274 330.425
198 1 158.236 8.6074 1362 11.4369 597.131 407.84
199 1 0 0 0 -nan -nan -nan
200 1 107.027 15.6129 1671 11.3998 595.458 383.974
201 1 0 0 0 -nan -nan -nan
202 0 0 0 0 -nan -nan -nan
203 1 11.3159 4.77204 54 12.8148 602.815 328.148
204 1 139.958 16.6121 2325 11.4047 596.56 394.157
205 1 52.1163 12.2419 638 12.0987 597.082 338.252
206 1 0 0 0 -nan -nan -nan
207 1 113.62 16.5288 1878 11.4036 595.195 380.961
208 1 37.508 14.5836 547 12.1865 591.878 330
209 0 0 0 0 -nan -nan -nan
210 0 34.5506 4.34146 150 12 594.513 343.527
211 1 0 0 0 -nan -nan -nan
212 1 97.0213 18.3053 1776 11.201 594.117 388.968
213 1 0 0 0 -nan -nan -nan
214 1 70.5527 16.3424 1153 11.3261 595.379 377.557
215 1 13.4525 6.39284 86 12.0233 592.814 343.884
216 1 0 0 0 -nan -nan -nan
217 1 10.2177 4.40414 45 11.6889 581.6 337.711
218 1 66.5367 16.3368 1087 11.3855 596.205 370.025
219 1 100.398 19.5821 1966 11.2375 595.261 393.37
220 1 0 0 0 -nan -nan -nan
221 0 0 0 0 -nan -nan -nan
222 0 45.7598 15.3628 703 11.4595 595.518 373.508
223 0 0 0 0 -nan -nan -nan
224 1 20.2342 10.2302 207 12.0676 598.314 341.676
225 1 113.047 13.7907 1559 11.4368 594.977 396.581
226 1 79.2316 12.7853 1013 11.5972 594.772 370.887
227 0 68.537 19.1284 1311 11.5095 595.603 371.285
228 1 0 0 0 -nan -nan -nan
229 1 71.3247 11.9734 854 11.7131 598.049 364.137
230 1 171.5 14.6239 2508 11.3238 599.018 419.344
231 1 196.5 10.916 2145 11.3478 600.985 437.233
232 1 171.899 24.3225 4181 11.1318 596.325 400.234
233 1 0 0 0 -nan -nan -nan
234 0 0 0 0 -nan -nan -nan
235 1 170.528 14.3848 2453 11.2099 595.743 418.063
236 1 194.572 12.0932 2353 11.2444 595.22 439.206
237 1 0 0 0 -nan -nan -nan
238 0 51.9609 11.1622 580 11.5517 592.479 365.105
239 1 123.009 12.6332 1554 11.4736 595.624 400.579
240 1 16.8031 17.3777 292 12.137 595.74 343.223
241 0 0 0 0 -nan -nan -nan
242 1 105.498 17.4886 1845 11.432 595.121 381.569
243 1 135.198 16.4425 2223 11.3914 595.799 404.168
244 0 141.039 14.4499 2038 11.4647 594.847 400.632
245 0 202.355 18.5714 3758 32.0676 596.289 258.556
246 1 265.468 9.41734 2500 38.3272 595.438 256.083
247 1 147.317 11.0918 1634 43.2821 595.546 251.479
248 0 146.147 10.0105 1463 44.9494 595.001 250.866
249 0 148.381 11.2885 1675 43.7182 595.667 253.494
250 1 265.359 5.03846 1337 39.8676 596.515 287.906
251 0 264.107 2.68452 709 37.3949 596.55 343.684
252 1 0 0 0 -nan -nan -nan
253 1 56.2167 18.7311 1053 11.3989 592.864 376.816
254 1 134.773 13.2816 1790 11.3084 593.805 416.794
255 1 0 0 0 -nan -nan -nan
256 1 13.1314 13.9361 183 12.0383 597.339 354.525
257 1 176.638 11.6792 2063 11.3442 592.715 441.148
258 1 0 0 0 -nan -nan -nan
259 1 17.2718 10.5374 182 12.0385 591.665 354.632
260 1 198.034 8.41774 1667 11.3437 593.295 454.43
261 1 7.01036 5.84849 41 13.0488 596 347.561
262 1 118.086 6.35975 751 11.8149 593.952 406.788
263 1 0 0 0 -nan -nan -nan
264 0 0 0 0 -nan -nan -nan
265 1 74.5559 19.4619 1451 11.4404 593.97 397.476
266 1 163.76 13.4648 2205 11.3424 593.741 437.211
267 1 202.104 11.8404 2393 11.3414 593.533 453.234
268 1 101.614 6.81006 692 41.2803 594.179 312.763
269 1 47.0311 11.099 522 46.3295 594.649 307.107
270 1 124.028 6.65173 825 36.9685 597.469 328.467
271 1 52.0771 10.9069 568 46.2799 594.416 309.673
272 0 52.0199 10.7459 559 46.6887 595.009 310.386
273 1 226.292 3.71202 840 37.1679 594.032 356.89
274 1 97.298 8.87994 864 40.0567 594.435 321.154
275 0 99.2442 8.79648 873 40.9175 595.044 319.163
276 1 59.0747 12.3742 731 44.5964 595.185 314.989
277 0 62.0979 10.8377 673 45.9049 595.242 315.19
278 1 228.804 4.1258 944 39.0858 595.836 346.929
279 1 72.3545 24.3523 1762 32.6232 596.76 309.04
280 0 73.4786 23.5443 1730 33.2104 597.051 308.862
281 1 124.78 43.1879 5389 20.5006 595.302 333.337
282 1 234.469 32.5416 7630 18.0423 593.016 368.581
283 1 77.1516 27.0377 2086 31.4856 594.988 311.139
284 1 124.735 3.84015 479 38.1378 594.472 359.77
285 1 38.0886 10.6594 406 44.335 595.665 342.67
286 0 41.0324 10.0896 414 44.4179 595.884 344.43
287 0 43.0767 10.9108 470 43.0383 595.849 346.396
288 0 42.0638 10.912 459 43.9739 596.022 346.501
289 0 45.0395 11.279 508 43.2559 596.516 350.445
290 0 47.1331 11.6479 549 42.7851 596.851 351.443
291 0 47.0888 10.7244 505 43.4178 597.683 353.455
292 1 121.284 11.873 1440 11.4438 597.319 474.149
293 1 57.5308 20.3891 1173 11.4749 596.46 441.5
294 0 53.0494 11.4422 607 42.2191 597.708 358.85
295 0 56.0272 10.8876 610 42.4131 596.715 358.844
296 1 92.8757 9.88418 918 36.8987 596.224 364.16
297 1 64.0606 10.5993 679 41.9558 597.324 357.839
298 1 109.643 8.48211 930 37.9387 597.591 363.312
299 1 62.1998 12.2187 760 41.6303 596.924 357.238
300 0 63.1381 11.6887 738 42.3672 597.875 356.118
301 1 207.472 4.70425 976 37.5799 596.513 378.977
302 1 221.471 12.2409 2711 45.0203 595.977 282.936
303 0 219.46 12.1161 2659 44.9929 596.76 281.752
304 1 261.021 15.8455 4136 36.9632 596.94 304.652
305 1 77.1351 12.1346 936 43.109 597.505 351.673
306 0 79.2143 12.2579 971 43.1092 597.688 351.947
307 0 82.2095 12.237 1006 43.1899 598.16 351.565
308 1 43.1069 10.4624 451 43.7494 597.078 369.455
309 0 42.0885 11.2857 475 44.1768 597.728 369.404
310 0 47.1202 10.5899 499 44.8377 596.465 366.671
311 0 45.0227 11.5053 518 44.5116 597.127 368.498
312 0 47.0851 11.1288 524 45.1679 597.613 368.609
313 0 50.0093 11.8978 595 43.3782 597.708 370.218
314 0 49.0195 11.6076 569 44.6854 597.12 369.128
315 1 136.589 12.534 1712 39.264 597.607 353.922
316 1 103.08 12.5437 1293 44.9018 596.93 344.728
317 0 102.131 12.435 1270 45.0181 596.69 344.017
318 0 104.096 12.4501 1296 44.7014 597.968 344.282
319 0 104.132 12.0232 1252 45.4353 598.238 343.978
320 1 60.0466 11.4078 685 45.5255 598.206 367.18
321 0 63.0515 12.4184 783 43.7625 599.185 370.475
322 0 65.0366 11.3936 741 45.2497 598.42 370.884
323 0 67.0404 11.8287 793 45.43 597.513 372.217
324 0 72.094 11.2908 814 45.7322 597.572 373.065
325 0 72.1087 12.3841 893 44.3303 598.206 375.776
326 0 79.1575 11.8498 938 44.5874 598.017 376.728
327 1 159.734 7.21824 1153 41.9523 597.467 383.948
328 1 83.1671 10.7013 890 44.973 598.149 376.884
329 0 89.154 11.4072 1017 44.6008 597.921 380.335
330 1 121.175 11.5783 1403 38.8033 598.572 387.539
331 1 163.772 7.91343 1296 38.5154 598.646 387.956
332 1 93.1952 12.5436 1169 41.1771 598.139 384.258
333 0 98.0894 11.1021 1089 43.0275 598.073 383.325
334 0 104.142 11.9452 1244 42.2476 598.744 385.127
335 1 138.332 11.4074 1578 39.5551 598.245 392.703
336 1 57.1392 11.0257 630 42.4381 598.64 411.364
337 0 57.0989 11.8741 678 42.2537 598.006 413.96
338 0 60.0439 11.2418 675 43.0311 597.859 414.587
339 0 61.0515 10.9252 667 43.5757 598.249 416.546
340 0 61.0935 11.376 695 43.5683 597.643 416.528
341 0 66.1163 10.8143 715 43.6587 597.421 414.729
342 0 69.156 11.8139 817 42.6377 597.995 416.486
343 0 69.1249 10.6329 735 44.0639 598.018 415.693
344 0 72.0577 11.7683 848 43.0696 597.729 417.216
345 0 74.1683 11.1233 825 43.7176 597.804 418.045
346 1 164.271 6.22144 1022 40.1429 597.9 430.068
347 1 78.224 10.6489 833 44.5246 597.203 418.894
348 0 84.2232 10.5078 885 44.278 598.092 420.27
349 0 85.0954 11.1169 946 43.851 597.92 420.65
350 0 90.2354 11.8246 1067 43.1799 597.259 421.565
351 0 88.155 11.2302 990 44.4303 597.509 420.4
352 0 94.26 10.9803 1035 44.3188 597.259 421.651
353 0 97.3459 12.0498 1173 43.3154 596.929 422.809
354 0 99.2738 11.151 1107 44.8356 596.446 419.146
355 1 92.8053 8.37237 777 38.0283 595.685 448.601
356 1 54.1158 10.1264 548 43.5237 596.704 443.951
357 1 87.9183 8.82637 776 38.8389 595.606 449.168
358 1 57.088 10.6853 610 42.2721 596.952 445.372
359 0 57.0333 11.4845 655 41.571 596.356 444.898
360 0 61.0816 10.9526 669 42.1839 595.86 442.619
361 0 60.117 11.6772 702 41.3319 596.06 443.16
362 0 62.1718 10.9535 681 42.1557 596.095 440.652
363 0 64.1149 11.7913 756 41.1151 596.03 442.081
364 0 70.114 11.3101 793 40.8298 595.797 440.422
365 0 71.2728 11.477 818 41.1039 595.969 437.346
366 0 70.1361 10.1802 714 42.8529 595.655 433.176
367 0 75.1752 11.5863 871 41.2962 594.623 434.899
368 0 76.0748 11.7122 891 41.7239 594.46 434.153
369 0 82.2131 11.5918 953 41.1878 595.532 433.518
370 1 202.28 13.6494 2761 38.1547 595.386 404.796
371 1 86.2656 11.6964 1009 41.3697 595.815 430.418
372 0 91.1864 11.6136 1059 41.3692 596.013 428.243
373 0 92.1812 10.4685 965 43.2041 595.625 424.128
374 0 94.1962 11.5716 1090 41.8972 596.121 423.963
375 0 98.1018 10.642 1044 42.8391 595.537 422.039
376 0 101.041 11.4013 1152 42.5078 595.523 420.634
377 0 103.107 10.6006 1093 43.3156 595.116 417.487
378 1 155.734 11.3527 1768 35.6182 594.215 431.452
379 1 54.0285 10.4945 567 41.9065 596.654 441.106
380 0 55.0182 11.4689 631 41.4913 596.661 442.198
381 0 58.1235 11.011 640 41.6234 596.169 440.839
382 0 58.1574 11.8472 689 41.1945 596.463 438.804
383 0 58.1645 11.3987 663 41.9336 596.971 437.502
384 0 63.0864 11.4922 725 41.4676 596.556 438.113
385 1 91.267 11.3404 1035 36.2493 596.442 442.882
386 1 67.1761 11.6857 785 41.0866 596.924 435.341
387 0 69.1274 9.90923 685 42.7664 596.347 431.674
388 0 72.1159 11.9668 863 40.8969 596.849 432.983
389 0 77.0716 11.6775 900 40.6289 596.633 433.429
390 0 78.1423 10.2633 802 42.2668 596.931 428.557
391 0 80.108 10.9228 875 42.0423 596.707 428.015
392 0 85.0566 10.9457 931 41.8486 596.578 427.055
393 0 86.1207 10.8569 935 42.2866 596.631 424.63
394 0 90.1024 11.3205 1020 41.7676 596.86 425.44
395 0 93.1636 10.5406 982 42.6283 596.444 422.103
396 0 98.1365 11.4127 1120 41.9223 596.081 420.611
397 0 96.1066 10.6756 1026 42.8314 596.408 418.056
398 0 102.087 10.9123 1114 41.9129 596.658 416.19
399 1 48.0854 10.4398 502 41.8546 596.036 441.689
400 0 49.0314 11.666 572 40.8094 596.409 441.673
401 0 49.0671 11.1888 549 41.4481 596.865 440.69
402 0 48.0511 10.6345 511 42.2074 596.092 437.816
403 0 56.0666 12.61 707 39.7723 595.747 441.402
404 0 55.0363 10.266 565 42.046 596.365 438.552
405 0 55.0353 10.1935 561 42.3226 596.374 436.52
406 0 58.1519 11.4012 663 41.3801 596.875 436.836
407 0 65.0332 11.3173 736 40.3261 596.583 436.16
408 0 59.0431 9.23054 545 43.6367 595.666 431.919
409 0 64.1332 11.0239 707 42.0297 596.294 433.829
410 0 70.1531 11.1328 781 41.4763 595.489 434.256
411 1 103.791 9.64439 1001 38.2198 594.675 438.702
412 1 35.0224 11.307 396 41.202 595.624 450.783
413 0 36.0322 11.2399 405 42.242 595.677 450.42
414 0 39.0252 10.8135 422 42.2986 595.618 449.723
415 0 39.0111 10.4586 408 43.1667 595.137 449.699
416 0 41.0975 11.2416 462 42.2143 594.903 449.935
417 0 44.0477 10.9881 484 42.4773 595.116 449.081
418 0 43.0562 11.3573 489 42.726 595.247 447.607
419 0 46.0278 10.9065 502 42.7729 595.807 448.209
420 0 48.0262 10.5984 509 42.8507 596.385 446.947
421 0 48.0473 11.78 566 42.4894 596.007 446.848
422 0 50.0525 11.3081 566 42.7703 595.961 447.267
423 0 52.0706 11.35 591 42.8917 596.382 446.195
424 0 51.0235 11.3869 581 43.6059 595.325 445.675
425 1 110.116 6.76559 745 39.9436 594.874 450.887
426 1 59.0427 12.1268 716 42.0405 596.55 444.725
427 0 57.1439 11.6198 664 43.4157 596.33 442.97
428 0 59.1904 11.5559 684 43.5687 596.155 442.004
429 0 65.0465 10.9768 714 43.3978 595.703 441.039
430 0 64.0687 11.9559 766 43.0836 595.424 441.242
431 0 63.0155 10.4736 660 45.1318 595.802 437.648
432 0 72.0963 11.5124 830 42.9277 596.513 440.087
433 1 34.0636 11.1262 379 43.7916 595.763 455.048
434 0 38.0861 9.74108 371 45.4447 595.453 454.105
435 0 36.015 9.94029 358 45.986 595.598 452.29
436 0 42.0218 10.9943 462 43.5303 595.868 453.552
437 0 39.0137 10.3297 403 46.0819 594.938 451.357
438 0 42.0046 11.6178 488 43.7275 595.213 451.992
439 1 73.3582 36.7648 2697 21.8951 594.429 456.21
440 0 74.8163 8.84834 662 39.494 595.967 455.949
441 1 269.564 8.9515 2413 51.0203 595.856 329.285
442 1 97.1138 11.4196 1109 44.395 596.126 426.968
443 1 50.0604 11.3063 566 43.7597 595.784 449.002
444 0 52.0412 11.0874 577 44.1404 595.165 447.22
445 0 53.0156 12.3171 653 42.5911 595.051 446.775
446 0 55.0622 11.6595 642 43.2492 595.405 445.206
447 0 55.063 12.2768 676 43.1198 594.899 444.821
448 0 58.0621 12.1249 704 42.9815 595.443 442.455
449 0 61.1718 12.2442 749 42.5581 594.894 441.563
450 0 63.0359 12.5325 790 42.0481 595.703 441.257
451 0 64.0499 12.3654 792 42.4646 596.149 439.052
452 0 67.1369 12.4671 837 41.8973 596.231 437.704
453 0 70.1011 12.2965 862 42.435 595.775 433.999
454 0 73.1125 11.9815 876 42.597 595.338 432.515
455 0 72.1155 12.2858 886 42.9526 596.018 431.45
456 0 79.0727 12.0269 951 42.4879 595.848 431.328
457 0 78.1644 12.1539 950 43.3695 595.944 427.776
458 0 83.1045 12.3098 1023 42.7224 595.787 428.842
459 0 85.1309 12.5219 1066 43.2636 595.627 427.088
460 1 47.0722 12.279 578 43.0554 596.298 445.365
461 0 50.1175 11.5528 579 43.5268 595.82 444.466
462 0 50.0747 11.9222 597 44.1122 595.868 443.127
463 0 51.1265 11.8529 606 43.7706 596.949 441.741
464 0 54.0514 11.9886 648 43.8642 596.13 440.978
465 0 55.1475 12.3487 681 43.3568 597.015 437.793
466 0 58.0762 12.4147 721 43.1956 596.101 438.687
467 0 59.131 12.4469 736 43.1753 596.287 436.196
468 0 60.1049 12.994 781 42.758 596.076 436.289
469 0 64.0265 11.9169 763 43.4312 596.38 434.923
470 0 66.0272 12.1011 799 43.2065 596.182 433.28
471 0 69.1363 12.4681 862 42.5487 596.442 432.618
472 0 69.1105 12.7477 881 42.504 596.766 430.537
473 0 72.1309 13.0041 938 42.1748 597.301 429.622
474 0 76.0656 12.3052 936 42.5534 596.918 429.236
475 1 24.7878 6.29341 156 12.8269 597.378 487.013
476 1 65.1983 9.55547 623 11.8026 596.064 513.066
477 1 83.1221 13.1373 1092 42.2262 597.362 424.615
478 0 85.2267 12.8363 1094 42.8464 597.573 423.418
479 0 90.1056 12.3189 1110 43.4072 596.936 421.336
480 0 92.085 12.9011 1188 43.0774 597.626 419.666
481 0 96.0984 13.0699 1256 42.7842 597.431 419.156
482 0 99.2278 12.6577 1256 43.4936 597.274 416.101
483 0 102.148 13.0204 1330 43.0098 597.514 414.286
484 1 89.2774 10.193 910 39.367 597.83 438.22
485 1 63.0454 11.579 730 43.2548 597.555 435.607
486 0 62.0455 12.4425 772 42.715 597.846 434.723
487 0 61.0851 12.4417 760 43.4855 597.02 433.734
488 0 66.101 12.1027 800 43.5988 597.452 433.564
489 0 68.0866 12.675 863 42.9826 597.452 432.312
490 0 69.1197 13.0209 900 42.6889 597.859 431.078
491 0 74.1717 12.2553 909 43.0528 598.495 431.369
492 0 75.1205 11.9808 900 43.39 598.37 429.799
493 0 77.1073 12.4242 958 43.2912 598.208 428.597
494 0 82.1007 12.6065 1035 42.6908 599.047 427.077
495 0 84.0723 12.6558 1064 42.6889 598.468 425.754
496 0 84.2387 12.5121 1054 43.7087 598.115 423.508
497 0 90.1357 12.5921 1135 43.3207 597.95 423.766
498 0 93.1531 12.4204 1157 43.382 598.407 422.545
499 0 94.1167 13.1326 1236 43.4968 598.351 421.926
500 0 96.199 12.7964 1231 43.883 598.064 421.046
501 1 51.043 11.5393 589 43.8506 597.562 443.285
502 0 51.079 11.5312 589 44.4924 598.122 442.783
503 0 54.0411 11.5838 626 44.7875 597.275 441.839
504 0 55.114 11.7756 649 44.4684 597.661 441.293
505 0 57.0686 12.3711 706 43.8201 598.22 441.248
506 1 166.055 12.6705 2104 38.2367 597.533 423.718
507 1 64.0477 11.5851 742 43.872 598.554 438.266
508 0 63.0592 12.4962 788 43.7931 597.947 438.94
509 0 67.1468 11.9886 805 44.1963 597.537 437.593
510 0 65.1288 12.2987 801 44.7615 596.918 436.91
511 0 71.0542 11.7516 835 44.8515 596.799 435.908
512 0 70.057 12.3899 868 44.5438 597.294 435.132
513 0 75.1362 12.3243 926 44.3402 596.922 433.848
514 0 74.0146 12.5921 932 44.6416 596.984 433.116
515 0 78.0863 12.3197 962 44.6736 597.382 432.959
516 0 83.0851 12.0238 999 44.8368 597.139 431.452
517 0 86.0772 12.2448 1054 44.6689 596.483 430.577
518 0 89.083 11.6072 1034 45.3898 596.542 428.506
519 0 93.1788 11.1828 1042 45.5528 596.979 428.566
520 0 92.151 11.7308 1081 45.5402 597.16 426.749
521 0 96.1274 11.5888 1114 45.7989 596.257 425.723
522 0 99.1683 11.7275 1163 45.4781 597.121 423.754
523 0 103.097 11.8821 1225 45.3902 596.647 421.429
524 1 54.0497 11.5449 624 45.0705 596.607 445.016
525 0 58.0809 11.3807 661 44.5356 596.519 446.684
526 0 61.0526 11.3836 695 44.5554 596.387 445.478
527 0 60.1588 12.0514 725 43.989 596.283 444.141
528 0 63.0552 11.8309 746 44.1997 595.869 443.121
529 0 64.0999 12.1217 777 43.9974 595.876 441.698
530 0 65.1107 12.3021 801 43.6979 596.276 441.981
531 0 70.0399 11.779 825 43.3406 597.045 439.488
532 0 73.0465 12.1019 884 42.991 596.081 438.838
533 0 74.0326 11.8596 878 43.4772 596.092 436.931
534 0 75.1183 12.2873 923 43.1744 596.525 436.735
535 0 79.1623 12.1143 959 43.1032 596.051 435.439
536 0 83.0945 12.4437 1034 42.7563 595.75 434.12
537 0 82.0841 11.1715 917 44.3261 595.568 431.587
538 0 88.1643 11.989 1057 43.3008 596.204 431.38
539 0 90.1977 11.8517 1069 43.348 596.069 430.912
540 0 95.1925 12.2068 1162 43.0706 595.421 429.583
541 0 97.1629 12.0313 1169 43.0753 595.94 426.948
542 0 99.2117 11.2991 1121 44.0152 595.879 425.125
543 0 104.1 11.7771 1226 43.6134 595.61 424.698
544 0 106.196 12.2227 1298 43.473 596.754 421.457
545 0 109.228 12.3503 1349 43.3395 595.969 421.074
546 0 114.084 11.8159 1348 43.9436 596.04 420.07
547 1 79.0954 11.1764 884 39.1267 595.506 447.5
548 1 59.1859 11.9623 708 43.0508 595.706 443.719
549 0 62.0922 11.3058 702 48.8433 596.836 441.558
550 0 64.1494 11.5667 742 48.5013 596.61 441.745
551 0 67.0841 12.1787 817 47.4174 596.355 440.324
552 1 134.752 7.45814 1005 43.8587 596.362 445.14
553 1 70.1276 12.2491 859 47.8335 596.692 437.168
554 0 72.0965 12.2752 885 48.3966 596.105 435.775
555 0 75.1459 12.2695 922 48.0325 597.185 435.629
556 0 78.1328 12.6835 991 48.2321 596.917 434.787
557 0 84.1859 12.0804 1017 48.6303 596.121 433.028
558 0 84.2043 13.1822 1110 48.0324 596.098 433.705
559 1 125.32 11.4746 1438 43.9812 596.083 435.731
560 1 90.1357 12.7918 1153 49.1128 596.079 429.525
561 0 93.1667 12.2254 1139 50.1387 595.522 428.371
562 0 97.2274 12.3113 1197 50.2047 596.385 427.661
563 0 97.1957 12.2125 1187 51.0632 596.796 425.094
564 0 103.131 12.3242 1271 50.86 595.782 424.773
565 0 104.122 12.5526 1307 50.9648 596.008 422.119
566 0 108.263 12.8945 1396 50.7478 596.086 421.269
567 0 110.237 11.6657 1286 52.5886 595.822 418.208
568 1 50.0419 10.4113 521 52.4415 595.038 448.125
569 0 52.0913 11.4415 596 50.9799 596.104 447.718
570 0 53.0518 11.2532 597 51.5745 595.828 446.318
571 0 60.0598 11.0057 661 50.4826 595.766 446.03
572 0 60.1029 11.4138 686 50.277 596.353 444.093
573 0 62.0648 11.2947 701 51.1997 595.21 442.787
574 0 64.1186 11.7439 753 50.5618 595.299 442.869
575 0 66.1133 11.1929 740 51.8581 595.666 441.791
576 0 68.0276 11.5394 785 51.4293 595.507 440.138
577 0 70.0995 11.9259 836 51.012 594.65 438.989
578 0 72.115 12.4523 898 50.4499 594.93 438.891
579 0 75.0263 12.2357 918 51.1198 595.51 437.196
580 0 78.0348 11.418 891 52.1526 595.168 436.438
581 0 78.1503 12.2072 954 51.5681 595.307 434.494
582 0 83.0761 12.1816 1012 51.4289 595.704 433.683
583 0 87.1583 11.634 1014 51.6243 595.483 432.563
584 0 86.086 11.7441 1011 52.641 595.21 431.41
585 0 92.0391 11.8428 1090 51.4697 595.412 431.406
586 0 93.0607 11.4334 1064 52.7274 594.571 427.088
587 0 99.078 11.8291 1172 52.1024 593.593 425.471
588 0 98.1377 11.8303 1161 52.6141 594.179 425.295
589 0 104.064 11.7331 1221 52.1368 594.46 423.627
590 0 105.082 11.905 1251 52.1239 594.796 420.955
591 0 109.098 12.585 1373 51.276 594.602 419.837
592 0 113.168 12.5477 1420 50.2761 595.412 418.449
593 0 118.112 12.2935 1452 51.7128 594.8 414.528
594 0 121.142 12.5968 1526 51.3742 594.323 414.664
595 0 125.109 12.6529 1583 51.3733 595.188 411.661
596 0 129.091 12.4873 1612 51.6768 595.318 410.568
597 0 134.153 12.9852 1742 51.2761 594.92 409.102
598 0 140.105 12.3622 1732 52.0785 595.352 406.62
599 0 146.121 12.0106 1755 52.3145 594.644 402.54
600 0 152.098 12.4525 1894 51.8654 594.095 401.515
601 0 154.151 12.4878 1925 52.6322 593.804 399.748
602 1 82.1433 10.8104 888 51.375 594.588 435.539
603 0 82.0752 11.4529 940 50.8149 594.452 434.342
604 0 86.2818 11.4624 989 50.6603 594.835 433.489
605 0 89.05 11.3532 1011 50.5569 594.971 432.191
606 0 91.1596 11.3647 1036 50.4971 595.148 430.63
607 0 94.0464 10.5586 993 51.5831 595.155 427.26
608 0 98.0647 10.9418 1073 51.4017 593.611 427.181
609 0 99.2507 10.7506 1067 52.194 593.991 423.871
610 0 103.128 11.7039 1207 50.6139 594.067 423.858
611 0 104.129 11.6202 1210 51.2802 594.198 420.96
612 0 110.179 10.8551 1196 51.6714 594.705 420.554
613 1 51.0187 9.80032 500 51.726 594.45 447.118
614 0 52.1573 10.5642 551 50.8185 594.476 446.922
615 0 55.0589 11.0427 608 49.7484 593.829 445.342
616 0 57.0823 11.2644 643 49.098 594.434 444.732
617 0 59.1377 10.9744 649 49 594.838 442.596
618 0 62.0682 11.0846 688 48.5044 594.16 441.685
619 0 64.0564 11.5055 737 47.8792 593.374 439.318
620 0 66.0917 11.242 743 47.8331 594.081 438.882
621 0 67.095 10.9546 735 48.2435 594.65 437.216
622 0 69.1659 11.2483 778 48.0386 594.436 435.916
623 0 72.0745 11.8627 855 46.9193 594.281 435.025
624 0 75.1363 11.3793 855 47.4795 594.437 432.538
625 0 77.1091 11.0752 854 47.6639 593.83 430.662
626 0 79.12 11.2867 893 47.3247 594.266 429.971
627 0 82.1983 11.7034 962 47.0156 594.595 428.868
628 0 85.2102 11.0785 944 47.5498 595.065 427.289
629 0 88.2124 11.3023 997 46.989 595.005 426.723
630 0 93.1763 10.8826 1014 47.6558 594.847 424.25
631 0 93.1043 11.6966 1089 46.6446 594.741 420.843
632 0 95.2205 11.0375 1051 48.0419 594.555 419.382
633 1 48.0671 10.1109 486 47.3416 594.85 442.994
634 0 47.0808 10.8962 513 46.8519 595.431 442.251
635 0 51.0762 11.3947 582 46.0017 595.112 442.399
636 0 52.1123 10.8036 563 46.5595 595.343 440.423
637 0 50.1469 10.569 530 47.5019 595.228 438.87
638 0 51.0509 11.1262 568 46.963 594.986 437.005
639 0 56.0494 11.6861 655 45.3878 595.927 437.513
640 0 55.1146 12.0476 664 45.5015 596.246 435.876
641 0 57.0583 11.5145 657 45.4216 596.525 435.819
642 1 104.975 9.2117 967 39.847 595.688 438.511
643 1 65.073 11.0491 719 45.4103 595.624 431.814
644 0 62.127 11.4926 714 45.6345 595.704 432.515
645 0 64.1997 10.9969 706 46.1728 595.986 429.983
646 0 66.1821 11.3626 752 45.8178 596.036 429.572
647 0 69.0546 12.1788 841 44.5422 595.7 429.326
648 0 71.1185 11.6707 830 44.9325 595.645 428.03
649 0 74.1729 11.0418 819 45.0061 596.022 427.122
650 0 76.1687 10.805 823 45.4156 595.904 425.164
651 1 39.0458 10.5005 410 44.0805 596.641 446.251
652 0 40.0328 10.5164 421 44.3492 595.325 445.667
653 0 43.0231 10.4595 450 44.0622 595.418 444.167
654 0 43.0638 10.6818 460 44.1174 595.676 443.987
655 0 45.0931 10.1568 458 44.3603 595.421 442.225
656 0 45.0461 10.4559 471 44.4841 595.851 442.217
657 0 45.0371 10.5913 477 44.8134 595.83 440.901
658 1 80.6036 8.98223 724 39.5097 595.46 443.664
659 1 48.1145 11.3687 547 43.6856 596.049 439.565
660 0 49.0258 11.5041 564 43.6312 596.199 438.844
661 0 51.0978 11.2138 573 44.0908 595.754 438.047
662 0 54.051 11.7667 636 43.1557 595.607 438.168
663 0 57.049 11.3937 650 42.8508 596.468 437.006
664 0 57.04 10.9572 625 43.544 596.725 433.646
665 0 60.0947 10.7663 647 43.7542 596.226 433.949
666 0 60.0603 11.5717 695 42.8964 596.823 433.399
667 0 65.0453 10.5004 683 43.1537 596.464 432.665
668 0 65.0808 11.1554 726 42.8292 596.776 431.142
669 0 69.1298 11.0806 766 42.3159 597.595 429.932
670 0 70.0801 11.1587 782 42.5895 597.202 428.765
671 0 73.1342 10.5149 769 43.1756 597.785 427.177
672 1 38.0769 9.40202 358 43.5391 598.078 445.402
673 0 36.1131 10.4394 377 44.565 597.618 444.679
674 0 38.0499 10.1183 385 44.4935 598.151 444.608
675 0 42.0286 10.3025 433 44.1778 597.73 444.725
676 0 39.1008 10.588 414 45.3599 597.544 444.973
677 0 42.0376 10.6333 447 45.1186 596.494 443.899
678 0 46.0442 10.1642 468 45.203 597.667 443.917
679 0 51.048 10.2453 523 44.4417 597.981 442.954
680 0 47.037 11.1402 524 45.0916 598.324 441.559
681 0 49.0362 10.9511 537 45.7523 597.739 441.886
682 0 49.0359 11.4814 563 45.8686 597.572 441.142
683 0 49.2379 10.9266 538 46.6097 597.552 441.545
684 0 56.0651 10.791 605 46.195 597.864 440.712
685 0 55.0604 11.5328 635 45.8094 598.05 439.956
686 0 54.0827 11.4824 621 46.2432 598.05 439.446
687 0 57.0902 11.0177 629 46.7758 597.399 437.836
688 0 60.0921 11.5989 697 46.1535 596.825 439.197
689 0 62.0856 11.0976 689 46.6444 597.065 437.504
690 0 62.1761 10.6954 665 47.197 596.871 435.722
691 0 65.1164 10.9803 715 46.4587 596.8 435.594
692 0 68.1062 11.5261 785 45.856 597.366 435.33
693 0 69.1374 11.1372 770 46.5117 596.601 433.796
694 0 76.6186 7.21757 553 41.7034 596.597 452.678
695 1 42.0395 10.4901 441 46.2698 597.093 448.662
696 0 41.0601 10.6917 439 46.0706 596.1 448.866
697 0 41.0422 10.6232 436 45.8165 596.583 449.099
698 0 41.0485 9.7202 399 47.5263 596.055 449.514
699 0 41.0648 10.4226 428 47.5748 596.675 448.675
700 0 42.03 9.61218 404 48.5644 596.099 447.757
701 0 44.0103 10.8156 476 47.2437 595.529 447.666
702 0 44.0181 21.4912 946 36.3658 596.433 439.441
703 1 75.1934 8.89706 669 42.8909 596.069 449.629
704 1 50.1355 10.2123 512 47.7324 595.623 446.191
705 0 51.0092 10.6255 542 47.3469 595.648 444.865
706 0 51.0773 11.649 595 46.5311 595.573 444.427
707 0 53.151 11.4955 611 47.0082 594.553 444.295
708 0 54.19 11.2013 607 47.598 594.929 441.735
709 0 54.2493 10.8757 590 48.0746 595.434 442.28
710 0 59.1551 11.1909 662 47.1873 595.801 442.521
711 0 61.1304 11.042 675 47.4904 595.901 440.85
712 0 61.3097 11.0586 678 47.5605 595.777 440.041
713 0 66.1716 10.5332 697 47.6901 595.727 439.459
714 0 68.1736 11.3094 771 46.3904 595.807 438.848
715 0 69.1557 10.9174 755 47.8066 595.638 435.583
716 0 75.3214 11.2319 846 46.6572 594.852 434.966
717 0 76.2668 10.9746 837 47.1947 594.685 434.062
718 0 78.2446 11.3874 891 46.8642 594.48 432.49
719 0 80.2165 11.0825 889 47.2486 594.9 430.325
720 0 83.197 10.9499 911 47.5631 594.869 428.003
721 0 88.246 10.8447 957 47.5465 595.036 427.426
722 0 89.2262 10.5911 945 48.3418 595.051 424.681
723 0 92.2688 10.8379 1000 47.753 595.494 425.142
724 1 44.0765 11.6162 512 47.0684 595.34 446.978
725 0 45.029 11.5481 520 47.2577 595.819 444.731
726 0 50.087 11.0408 553 47.0669 595.237 444.756
727 0 47.1331 11.4993 542 47.9225 595.78 442.869
728 0 50.0706 11.4838 575 47.8643 595.297 440.717
729 0 50.0501 10.969 549 49.0018 594.763 439.579
730 0 51.0252 10.9358 558 48.9283 595.183 438.509
731 0 55.0615 11.6415 641 47.5959 595.201 438.041
732 0 57.051 11.4108 651 47.8725 595.399 437.558
733 0 57.06 11.374 649 47.7658 596.069 436.25
734 0 61.0381 11.9434 729 46.5734 596.058 436.955
735 0 60.029 11.5777 695 47.7237 595.459 435.239
736 0 64.0788 11.6263 745 46.9396 595.945 434.524
737 0 63.0601 12.4009 782 46.6624 596.402 434.206
738 0 67.1536 12.2555 823 46.8736 595.566 433.249
739 0 70.102 12.2393 858 46.6224 596.038 431.921
740 0 73.0801 11.809 863 47.2294 596.533 431.072
741 0 72.0208 11.941 860 47.9174 595.313 428.821
742 0 76.0914 11.6045 883 48.0442 595.55 427.744
743 0 82.0788 12.0007 985 46.9919 596.351 427.291
744 0 82.1365 11.9801 984 47.8404 595.551 425.5
745 0 84.1154 11.9598 1006 47.83 596.01 423.956
746 0 89.0982 12.5367 1117 47.8362 595.782 424.07
747 0 93.1896 11.7824 1098 48.5282 595.556 422.54
748 0 96.049 11.7544 1129 48.7484 596.317 421.155
749 0 98.099 12.0592 1183 48.5655 595.511 419.828
750 0 100.073 12.0512 1206 49.3027 595.2 418.047
751 1 80.1168 11.0214 883 43.0351 595.388 446.502
752 1 54.0165 11.9223 644 49.5916 596.073 440.415
753 0 56.0694 12.3062 690 48.9638 594.726 440.781
754 0 56.0348 11.8855 666 50.0796 595.218 438.486
755 0 61.0309 11.0436 674 49.6899 595.383 437.411
756 0 62.0414 12.4272 771 48.0389 595.285 437.765
757 0 64.0866 12.1398 778 48.4332 595.445 436.629
758 0 67.156 12.0615 810 48.2296 595.209 435.631
759 0 67.0552 11.662 782 48.9847 595.3 434.339
760 0 70.0837 12.3852 868 48.2108 594.794 433.376
761 0 74.129 12.1005 897 47.7659 595.382 432.046
762 0 73.0523 11.7724 860 48.8546 595.206 431.936
763 0 80.182 11.8979 954 47.805 595.221 429.976
764 0 81.1813 11.9239 968 48.2056 594.812 427.764
765 0 86.0948 11.9055 1025 47.9424 595.074 427.892
766 0 86.0684 11.4792 988 49.0455 594.138 425.376
767 0 92.0781 12.131 1117 47.9848 594.177 424.948
768 1 48.0531 10.7797 518 49.0135 595.384 445.867
769 0 48.0926 11.2491 541 49.7856 595.011 445.368
770 0 54.0548 11.0813 599 48.3706 595.202 443.798
771 0 55.0675 11.6221 640 47.8141 595.447 444.766
772 0 56.1467 11.1137 624 48.9343 594.917 442.394
773 0 58.017 11.6862 678 48.7773 594.68 443.1
774 0 57.0807 12.0006 685 48.9197 595.534 442.596
775 0 59.0753 11.8831 702 48.6724 595.205 440.782
776 0 63.0878 11.9992 757 48.6235 594.757 439.799
777 0 62.0649 12.6642 786 48.6667 594.282 439.598
778 0 63.1307 12.4028 783 48.9796 594.808 439.258
779 1 90.2786 12.6054 1138 43.377 594.352 440.614
780 1 67.0474 12.6329 847 49.5561 595.701 435.978
781 0 69.0463 12.4409 859 50 595.134 433.964
782 0 74.0614 12.4896 925 49.5859 595.205 432.827
783 0 73.0984 12.7773 934 50.076 595.47 432.121
784 0 78.0456 12.4286 970 50.0423 595.781 430.614
785 0 79.1415 12.4082 982 50.6141 595.735 428.891
786 0 85.0647 12.8373 1092 49.2848 594.842 427.896
787 0 84.1644 12.5587 1057 51.263 594.538 425.931
788 0 87.0841 12.2525 1067 51.4536 594.833 426.153
789 0 89.1141 12.9385 1153 50.7918 595.137 425.03
790 0 93.1291 12.8424 1196 50.6848 595.202 423.245
791 0 97.1535 12.753 1239 50.7958 595.278 420.325
792 0 98.1727 12.8141 1258 50.8847 594.597 418.156
793 0 101.17 12.8102 1296 50.76 595.423 417.554
794 0 105.06 12.9926 1365 50.4974 595.687 416.968
795 0 110.104 12.4246 1368 50.7105 595.722 415.561
796 0 111.115 12.8785 1431 50.4689 595.595 413.263
797 0 114.374 13.045 1492 50.4625 596.052 412.263
798 0 117.158 13.1361 1539 50.0981 595.621 410.926
799 0 122.344 13.4457 1645 49.3726 595.391 410.57
800 0 127.295 13.0013 1655 49.797 595.769 408.956
801 0 128.173 12.7484 1634 50.3488 596.102 406.528
802 0 131.133 13.5358 1775 49.6197 595.735 404.928
803 0 138.19 13.1486 1817 49.9395 595.99 403.692
804 0 141.174 12.9981 1835 50.303 596.605 400.549
805 0 144.149 13.6525 1968 49.5915 596.401 400.252
806 0 149.239 12.9658 1935 50.7338 596.561 398.492
807 0 153.204 13.2047 2023 50.7296 596.414 397.772
808 0 155.099 13.1529 2040 51.6745 596.421 394.485
809 0 159.228 13.1447 2093 52.1366 596.058 393.48
810 0 162.209 13.5381 2196 52.0346 596.016 391.443
811 0 170.192 12.7973 2178 53.2612 595.668 389.23
812 0 170.172 13.1044 2230 53.2534 596.227 388.211
813 0 172.193 13.1539 2265 53.8856 595.986 385.554
814 0 179.216 13.2968 2383 53.6656 595.969 384.761
815 0 184.242 13.4388 2476 53.4677 596 382.979
816 0 189.137 12.7421 2410 54.8917 595.617 381.827
817 0 191.181 12.7628 2440 55.4709 595.106 379.117
818 0 194.158 12.4692 2421 55.6204 595.491 378.18
819 0 199.29 13.1266 2616 54.8524 595.367 375.078
820 0 204.286 13.3392 2725 54.8341 595.194 375.385
821 0 208.14 12.8855 2682 55.6141 594.811 371.906
822 0 212.177 13.352 2833 54.8578 595.268 371.166
823 0 220.149 12.9004 2840 55.5722 595.096 367.221
824 0 223.14 13.0277 2907 55.2153 595.648 365.079
825 0 229.249 13.5617 3109 54.5838 595.681 363.501
826 0 233.134 13.3228 3106 55.2907 594.524 360.707
827 1 265.6 17.2026 4569 46.7967 595.317 375.968
828 1 243.296 13.2678 3228 55.8147 594.744 355.099
829 0 249.361 13.8434 3452 54.6199 594.758 354.185
830 0 252.186 14.0492 3543 54.4355 594.327 351.356
831 0 256.379 13.2421 3395 55.6492 595.082 346.908
832 0 262.314 13.8994 3646 55.0148 594.573 345.955
833 0 265.258 15.1136 4009 53.1442 594.695 340.072
834 0 272.277 15.7376 4285 51.9505 594.262 337.228
835 0 275.301 15.0417 4141 53.4931 593.07 331.519
836 0 282.225 15.8668 4478 52.1858 593.303 330.54
837 0 287.241 15.1197 4343 52.7868 594.11 325.494
838 0 291.249 14.3554 4181 53.7941 594.288 323.58
839 0 297.217 14.6627 4358 53.6016 593.848 321.673
840 0 303.276 15.6623 4750 51.9752 594.594 320.481
841 0 306.233 14.2669 4369 54.2529 593.579 314.466
842 0 315.289 15.5413 4900 52.0853 593.81 313.55
843 0 319.293 15.9227 5084 51.0867 594.857 313.127
844 0 324.346 14.9007 4833 52.9446 594.648 306.334
845 0 328.612 14.3908 4729 53.3191 594.688 304.176
846 0 334.381 14.9111 4986 52.2627 594.668 303.254
847 0 340.876 16.1349 5500 50.646 595.336 301.993
848 0 345.934 14.8381 5133 52.1301 595.238 294.845
849 0 350.897 16.1871 5680 51.1833 594.4 291.894
850 1 375.556 51.7979 19453 27.9605 595.395 297.212
851 1 353.095 26.3498 9304 39.7888 595.226 249.861
852 0 353.416 26.9229 9515 39.3882 595.192 250.475
853 1 393.834 19.8155 7804 42.5898 595.305 329.094
854 0 359.332 13.7171 4929 54.424 595.971 286.859
855 0 351.139 13.2341 4647 55.3284 596.42 284.37
856 0 349.221 13.7019 4785 54.925 596.157 290.01
857 0 348.163 13.5655 4723 54.646 596.795 292.356
858 0 346.487 13.3252 4617 55.0589 596.346 296.352
859 0 346.054 13.3563 4622 55.6246 596.264 290.502
860 0 347.145 13.7061 4758 54.6662 596.778 295.956
861 0 342.059 13.866 4743 54.2174 596.978 299.439
862 0 339.849 14.2328 4837 53.8743 597.321 298.069
863 0 341.558 14.5919 4984 53.4583 596.272 301.058
864 0 343.309 13.5447 4650 55.257 596.888 292.424
865 0 344.959 13.5813 4685 55.0378 597.036 293.454
866 0 341.343 13.942 4759 54.5018 596.985 298.32
867 0 338.165 13.3692 4521 55.3088 597.483 294.015
868 0 338.454 13.8217 4678 55.0177 596.519 297.384
869 0 339.305 13.5335 4592 55.3373 597.008 296.937
870 0 342.981 14.0503 4819 54.4356 597.776 300.554
871 0 342.498 14.1607 4850 54.572 597.241 298.108
872 0 340.273 13.1247 4466 56.5195 596.875 295.394
873 0 336.952 14.0079 4720 54.6345 597.402 304.014
874 0 350.872 16.6357 5837 52.2775 598.181 278.359
875 0 354.822 16.8986 5996 51.493 597.941 281.442
876 0 354.635 17.9932 6381 50.7264 597.762 277.323
877 0 356.701 18.6122 6639 49.696 598.167 282.551
878 1 16.3037 22.5102 367 10.8229 597.382 101.736
879 0 17.4398 28.7847 502 10.8924 595.205 82.1554
880 0 23.1123 25.9169 599 10.7546 595.78 81.8731
881 0 21.5898 24.4096 527 10.9564 600.856 80.5465
882 0 22.1423 30.0781 666 10.8408 598.092 80.7372
883 0 14.0572 14.9389 210 10.8667 599.79 85.6952
884 0 19.8106 24.6333 488 10.8279 595.672 83.4365
885 0 18.2905 25.9698 475 10.7368 597.267 83.6084
886 0 13.092 31.3168 410 10.7024 607.39 86.1659
