time division length width area intensity CMx CMy
981 0 37.0962 8.84187 328 22.0671 178.89 470.701
982 0 40.0268 10.0433 402 21.2139 178.475 469.898
983 0 35.0287 8.7357 306 21.8431 179.66 470.046
984 0 38.0662 9.90379 377 21.4934 178.735 471.501
985 0 36.0417 10.5988 382 21.2513 179.003 471.846
986 0 36.128 10.103 365 21.1671 179.17 473.011
987 0 37.1275 10.1811 378 20.9524 179.127 472.661
988 0 35.1217 9.85147 346 21.3671 178.806 472.772
989 0 38.0325 9.17637 349 21.2464 178.951 473.456
990 0 36.0536 9.79098 353 21.2323 178.193 473.38
991 0 31.0818 10.2311 318 21.2296 179.069 476.708
992 0 36.058 10.0117 361 20.9889 178.651 473.668
993 0 35.0511 11.7828 413 20.845 179.034 472.153
994 0 38.0927 11.1832 426 20.7488 177.829 473.383
995 0 36.1209 11.2677 407 20.5332 178.526 473.43
996 0 38.1562 10.5094 401 20.7007 178.534 474.963
997 0 27.032 9.21132 249 21.4498 177.992 476.454
998 0 0 0 0 -nan -nan -nan
999 0 32.0628 11.0097 353 20.9632 177.986 477.048
1000 0 33.0292 9.74896 322 21.4752 177.671 475.416
1001 0 0 0 0 -nan -nan -nan
1002 0 0 0 0 -nan -nan -nan
1003 0 36.0892 7.5646 273 22.9817 177.59 440.227
1004 0 32.0345 7.2422 232 22.6767 177.625 444.487
1005 1 0 0 0 -nan -nan -nan
1006 0 0 0 3 26.6667 178.667 431
1007 1 65.385 9.40582 615 21.8553 177.107 459.098
1008 1 0 0 0 -nan -nan -nan
1009 0 4 4.5 18 26.8889 177.833 425.444
1010 1 39.1223 8.81849 345 22.7391 178.072 442.893
1011 0 35.1574 7.33843 258 22.9574 176.38 445.81
1012 0 36.236 12.7774 463 20.7689 176.542 449.92
1013 1 0 0 1 26 179 434
1014 0 1 3 3 28.3333 175 431.333
1015 0 0 0 1 31 177 429
1016 1 133.415 9.39177 1253 54.834 177.041 392.949
1017 1 259.515 11.8722 3081 57.755 176.958 309.841
1018 1 217.685 14.5899 3176 55.0494 177.393 336.855
1019 0 223.356 13.8389 3091 56.2417 176.804 334.941
1020 0 229.446 14.0513 3224 56.2906 176.561 332.258
1021 0 238.435 14.0038 3339 55.944 176.398 329.627
1022 0 242.402 14.0346 3402 56.0456 176.657 326.981
1023 0 248.504 13.9796 3474 56.2041 176.647 325.332
1024 1 185.533 13.5393 2512 58.1592 177.393 356.72
1025 0 187.515 13.7322 2575 58.2245 177.442 355.572
1026 0 192.644 13.7092 2641 58.5767 176.585 353.63
1027 0 194.46 13.756 2675 58.6591 177.045 353.162
1028 0 202.786 13.1518 2667 59.895 177.425 352.215
1029 1 305.573 12.272 3750 58.792 177.161 312.576
1030 0 302.826 14.3349 4341 57.5609 177.205 307.772
1031 1 330.257 15.927 5260 54.1749 176.245 313.843
1032 0 336.048 15.0752 5066 55.2963 176.414 294.467
1033 0 345.243 14.5492 5023 56.0918 177.05 290.817
1034 0 352.19 14.779 5205 56.1696 176.976 285.255
1035 0 342.222 15.9429 5456 56.2199 176.905 282.499
1036 0 345.665 15.7638 5449 57.5003 176.852 276.35
1037 1 370.259 13.4528 4981 58.9833 176.618 289.73
1038 0 365.149 15.6895 5729 57.5439 176.959 271.11
1039 1 384.547 14.6978 5652 58.7121 176.881 274.373
1040 1 366.675 15.6487 5738 59.6112 176.497 274.323
1041 0 369.173 15.5591 5744 60.036 176.625 276.6
1042 0 357.945 16.5053 5908 57.8453 177.561 298.835
1043 0 338.891 16.3238 5532 60.0289 177.938 284.651
1044 0 343.873 16.1484 5553 61.8662 177.085 280.456
1045 1 329.909 15.9468 5261 61.9798 176.853 299.63
1046 0 328.921 15.408 5068 62.722 177.135 297.184
1047 1 204.134 14.2308 2905 67.8072 177.338 352.157
1048 0 206.642 14.5808 3013 68.9638 177.783 348.765
1049 0 213.525 14.4058 3076 69.1443 177.923 350.479
1050 0 217.711 14.7811 3218 69.1504 178.939 347.904
1051 0 220.455 15.0825 3325 70.1967 177.826 345.232
1052 0 226.491 14.6716 3323 71.3352 178.586 345.102
1053 0 233.205 15.1326 3529 71.8067 178.021 342.133
1054 0 236.449 15.0518 3559 72.846 178.267 341.807
1055 0 240.341 15.2491 3665 72.7954 179.144 337.723
1056 0 248.164 15.1835 3768 74.4766 178.226 335.119
1057 0 327.604 17.3502 5684 69.5273 176.955 294.74
1058 0 330.849 17.9357 5934 69.1566 177.479 293.841
1059 0 335.57 18.0111 6044 69.3054 178.785 290.364
1060 0 345.694 17.8945 6186 69.6001 178.467 287.723
1061 0 353.246 17.3505 6129 70.2612 178.088 285.054
1062 0 365.104 18.4002 6718 69.3708 178.828 281.143
1063 0 369.976 17.9877 6655 70.4168 178.637 275.721
1064 0 379.202 18.3991 6977 70.1653 177.844 271.332
1065 1 351.086 14.2928 5018 79.1865 178.014 303.042
1066 0 356.162 15.9815 5692 76.607 177.936 296.318
1067 0 354.183 12.5782 4455 81.4227 178.162 304.138
1068 0 322.91 18.1103 5848 75.0026 178.485 299.457
1069 0 330.284 18.1662 6000 75.1713 179.037 294.35
1070 0 340.274 17.1009 5819 77.0605 178.311 294.774
1071 0 341.291 17.8645 6097 77.2227 178.191 288.484
1072 0 353.286 17.5156 6188 76.5826 179.143 286.03
1073 0 362.472 17.6152 6385 76.9438 178.298 284.432
1074 0 369.269 18.3308 6769 76.2757 178.441 277.329
1075 1 311.973 16.1007 5023 85.4585 178.642 313.783
1076 0 318.962 18.9427 6042 78.6721 178.745 312.184
1077 0 327.934 19.7357 6472 77.6208 178.31 310.622
1078 0 328.194 17.7456 5824 81.42 179.013 297.117
1079 0 324.842 16.8266 5466 84.8266 178.311 288.264
1080 0 354.962 21.2558 7545 75.7466 178.314 304.315
1081 0 340.725 16.5852 5651 84.8673 178.892 286.187
1082 0 349.915 16.7641 5866 85.1101 178.819 284.86
1083 1 373.286 17.0727 6373 83.6661 178.341 311.352
1084 0 368.64 15.7525 5807 87.2759 178.163 280.07
1085 0 377.753 17.207 6500 85.2169 177.877 277.695
1086 1 352.484 17.5157 6174 87.4354 178.862 319.822
1087 0 341.931 15.003 5130 94.1657 179.35 302.041
1088 0 346.754 15.5557 5394 94.5686 179.207 300.182
1089 0 356.919 15.7319 5615 94.4476 179.274 298.376
1090 0 358.859 17.1627 6159 90.2348 179.935 294.572
1091 1 313.573 14.9056 4674 100.807 180.64 322.117
1092 0 321.825 14.9895 4824 100.237 179.815 321.034
1093 0 326.468 14.712 4803 102.513 178.999 318.06
1094 0 333.449 15.3937 5133 101.211 179.084 314.59
1095 0 339.693 17.8014 6047 94.728 178.459 306.27
1096 0 346.605 17.8964 6203 94.0488 179.072 304.333
1097 0 349.533 16.9168 5913 96.6388 180.454 305.955
1098 0 349.806 16.8379 5890 207.787 181.453 305.788
1099 1 214.423 14.9797 3212 113.418 178.53 377.157
1100 0 217.595 15.1244 3291 113.281 178.735 373.751
1101 0 222.569 15.6176 3476 111.28 178.718 375.099
1102 0 225.849 15.3996 3478 111.356 178.935 373.486
1103 0 233.356 15.2 3547 110.569 179.004 371.314
1104 0 235.455 14.6865 3458 111.281 179.145 370.113
1105 0 238.503 15.3625 3664 110.761 178.727 370.253
1106 0 244.655 16.0144 3918 108.156 179.056 364.234
1107 0 251.542 17.2019 4327 103.958 178.089 361.352
1108 0 256.447 17.138 4395 104.273 177.305 357.223
1109 0 262.519 17.3587 4557 103.438 178.25 356.611
1110 0 267.533 16.5662 4432 104.817 177.496 356.94
1111 0 272.38 15.963 4348 105.552 177.565 356.578
1112 0 278.764 16.792 4681 102.363 178.153 354.816
1113 0 283.584 15.8366 4491 103.946 177.185 353.732
1114 0 290.522 15.4136 4478 104.423 177.481 349.527
1115 0 297.892 16.3079 4858 102.397 176.99 344.639
1116 0 305.568 17.0797 5219 97.1502 177.755 334.567
1117 0 313.709 16.9265 5310 97.546 177.591 335.676
1118 0 314.603 18.8015 5915 94.1182 177.125 328.615
1119 0 323.631 17.727 5737 96.2723 177.208 331.469
1120 0 326.901 16.2771 5321 100.051 176.965 333.187
1121 0 331.872 15.277 5070 102.407 177.054 329.982
1122 0 342.753 17.2398 5909 97.0044 176.562 321.202
1123 0 347.727 16.7315 5818 97.3896 177.067 319.9
1124 0 353.816 16.5284 5848 97.3369 176.279 315.853
1125 1 263.51 14.5118 3824 115.073 176.742 361.149
1126 0 265.252 14.7294 3907 114.705 177.636 360.821
1127 0 271.53 14.433 3919 114.727 177.425 359.296
1128 0 278.697 15.5509 4334 111.155 177.392 354.959
1129 1 210.731 15.1663 3196 123.509 177.202 386.742
1130 1 94.2055 13.7041 1291 162.577 176.564 439.143
1131 0 97.2385 14.0994 1371 158.611 177.096 440.562
1132 0 98.1214 13.9419 1368 159.184 177.386 441.046
1133 0 97.0806 13.9369 1353 161.384 176.636 439.208
1134 0 97.1258 13.9819 1358 160.198 176.82 440.462
1135 0 97.1269 14.5274 1411 158.101 177.505 439.226
1136 0 98.1083 14.5961 1432 156.894 177.084 439.93
1137 0 98.1992 14.6844 1442 156.513 177.184 440.423
1138 0 100.21 14.4895 1452 156.929 177.305 440.311
1139 0 101.278 14.6033 1479 155.399 177.789 440.807
1140 0 101.215 14.3456 1452 156.171 177.26 440.156
1141 0 101.196 14.9907 1517 154.254 177.444 440.893
1142 1 404.961 29.5214 11955 68.6163 177.18 265.365
1143 0 416.253 29.4869 12274 68.9556 176.318 262.869
1144 0 411.513 29.1169 11982 70.2467 177.215 263.469
1145 0 406.349 26.305 10689 76.7673 176.788 269.273
1146 0 410.017 26.7086 10951 76.44 177.52 270.19
1147 1 326.893 15.8584 5184 112.251 177.915 336.556
1148 0 333.894 16.3884 5472 111.017 177.497 335.143
1149 0 338.826 16.3181 5529 111.857 177.133 329.577
1150 1 425.931 25.645 10923 75.8129 176.812 282.081
1151 0 423.608 26.3522 11163 74.3547 175.93 269.86
1152 0 426.45 25.1307 10717 77.3199 175.633 271.669
1153 0 427.96 25.8318 11055 76.076 175.442 268.575
1154 0 432.635 25.9017 11206 76.5818 175.51 263.87
1155 0 427.444 27.2948 11667 74.8272 175.139 258.277
1156 0 434.659 26.5588 11544 76.1803 175.819 260.959
1157 1 300.673 16.4265 4939 120.896 179.048 347.075
1158 0 305.897 15.7177 4808 122.226 179.178 340.746
1159 0 311.8 15.8724 4949 121.757 179.164 342.07
1160 0 316.671 16.2187 5136 122.106 179.086 340.16
1161 0 322.691 15.8789 5124 124.007 178.578 337.644
1162 0 327.949 16.2129 5317 122.363 178.308 332.027
1163 0 337.868 16.4324 5552 119.744 178.768 329.004
1164 0 339.758 16.3087 5541 121.223 178.661 328.551
1165 0 346.973 16.3413 5670 120.55 178.212 324.788
1166 0 355.08 16.6329 5906 119.634 178.53 323.567
1167 0 356.099 16.0068 5700 120.794 178.858 325.865
1168 0 356.849 16.0208 5717 121.375 179.527 324.244
1169 0 356.008 15.9996 5696 122.828 179.124 324.966
1170 0 359.949 28.5541 10278 83.2 171.765 282.771
1171 0 358.959 30.8225 11064 84.2323 174.452 280.911
1172 0 359.967 30.6917 11048 84.6995 174.572 281.716
1173 0 360.197 32.0686 11551 82.7688 176.576 282.165
1174 0 343.906 21.942 7546 108.284 180.341 318.13
1175 0 366.769 19.4455 7132 108.783 180.461 304.859
1176 0 370.687 19.2157 7123 110.682 180.613 305.724
1177 0 354.152 15.1743 5374 127.313 180.36 324.686
1178 0 357.381 15.1547 5416 126.914 179.913 319.798
1179 0 362.969 15.1831 5511 126.976 179.743 320.507
1180 0 363.962 15.3533 5588 128.812 179.035 318.833
1181 1 425.925 20.5365 8747 96.4507 175.818 274.844
1182 0 439.386 25.3718 11148 86.553 177.645 256.073
1183 0 41.0785 6.0859 250 17.536 150.268 82.984
1184 0 38.7695 7.06741 274 17.2336 150.153 83.8686
1185 0 45.6431 9.31138 425 18.3694 151.508 80.0447
1186 0 44.1503 10.2378 452 19.2854 151.582 79.7544
1187 0 43.3939 7.97346 346 21.2861 152.988 76.0491
1188 0 99.1738 13.5621 1345 70.0402 178.378 113.21
1189 1 64.1454 13.5006 866 66.9596 178.229 137.341
1190 0 63.1025 10.8712 686 69.7507 177.713 136.838
1191 0 388.974 11.1396 4333 143.043 178.156 339.2
1192 0 391.273 10.9131 4270 142.854 178.516 332.878
1193 0 379.193 14.3146 5428 134.368 178.334 327.396
1194 0 1 6 6 49.5 176.333 139.5
1195 0 161.652 14.3642 2322 82.115 177.644 208.434
1196 0 164.385 14.2592 2344 80.587 178.41 206.642
1197 0 171.603 14.5802 2502 80.4928 177.663 204.891
1198 0 173.336 14.6825 2545 79.9281 177.642 199.762
1199 0 65.125 13.0211 848 71.5637 177.211 142.18
1200 0 187.322 14.403 2698 80.2491 176.97 194.166
1201 0 195.365 16.4871 3221 79.1586 177.205 196.32
1202 1 395.035 14.8367 5861 136.097 177.484 306.871
1203 0 395.21 15.4475 6105 135.164 177.272 305.752
1204 1 190.226 14.0412 2671 80.5122 177.513 186.969
1205 0 190.36 13.5375 2577 81.0741 177.77 185.764
1206 0 187.419 13.5579 2541 82.4089 177.747 187.892
1207 1 394.47 18.6478 7356 126.466 177.794 291.88
1208 1 290.353 14.5237 4217 160.837 178.425 356.211
1209 0 294.016 13.0979 3851 166.3 178.411 368.783
1210 1 51.0845 13.4287 686 90.016 178.552 224.915
1211 0 51.1906 12.4242 636 89.5016 177.299 221.215
1212 0 377.468 17.1405 6470 131.392 177.327 306.048
1213 0 133.201 14.2191 1894 77.0824 177.257 176.595
1214 0 388.464 16.3876 6366 131.856 178.043 302.675
1215 0 396.824 17.7862 7058 125.733 177.987 294.772
1216 0 403.413 16.8933 6815 127.542 178.337 293.18
1217 1 146.338 12.0748 1767 75.7436 177.605 164.032
1218 1 404.061 14.7107 5944 134.947 177.6 302.121
1219 1 373.976 15.5598 5819 137.699 177.963 318.073
1220 0 379.395 16.0308 6082 135.745 178.22 313.748
1221 0 380.759 15.0253 5721 139.347 178.002 312.267
1222 0 387.171 15.6727 6068 135.268 178.676 308.68
1223 0 391.316 18.0085 7047 127.473 178.423 296.691
1224 1 223.763 16.2404 3634 213.047 182.664 379.867
1225 0 222.433 14.5437 3235 173.65 179.3 383.786
1226 0 223.387 15.1486 3384 173.309 178.963 382.349
1227 0 224.658 15.7128 3530 172.459 179.011 379.936
1228 0 225.293 15.9126 3585 171.882 178.152 379.613
1229 0 219.973 16.2065 3565 171.21 178.275 382.147
1230 0 227.183 16.1104 3660 171.052 178.813 379.387
1231 0 228.088 15.6168 3562 171.344 178.818 379.744
1232 0 226.694 15.3908 3489 171.464 179.194 380.707
1233 1 132.313 15.9773 2114 143.398 179.093 422.064
1234 0 131.487 14.5262 1910 144.27 179.13 426.707
1235 0 125.373 14.4528 1812 141.571 178.693 428.786
1236 0 133.336 17.2796 2304 130.215 178.998 421.564
1237 1 146.523 15.0148 2200 129.481 178.708 420.602
1238 0 137.239 14.5149 1992 125.995 178.935 420.172
1239 0 139.197 14.1454 1969 125.073 179.583 418.337
1240 0 138.191 14.176 1959 124.979 179.08 416.798
1241 1 377.31 19.7583 7455 113.8 179.065 293.449
1242 0 381.04 18.998 7239 102.44 179.899 292.51
1243 1 203.249 11.0849 2253 135.602 179.36 402.589
1244 0 205.259 11.9264 2448 132.755 179.242 400.013
1245 0 207.244 11.8266 2451 131.809 179.944 402.915
1246 0 209.451 14.2898 2993 126.272 179.08 389.128
1247 0 210.343 11.9424 2512 130.127 178.97 398.51
1248 0 215.628 13.7876 2973 124.5 179.104 390.054
1249 0 214.311 12.2392 2623 128.458 179.051 397.382
1250 1 181.671 14.229 2585 118.861 178.387 400.913
1251 0 178.611 14.2041 2537 117.368 179.496 400.541
1252 0 175.526 14.9608 2626 115.141 179.831 399.968
1253 0 178.655 15.5719 2782 111.927 180.092 401.27
1254 0 179.656 15.2124 2733 114.231 179.772 398.077
1255 0 178.61 14.8816 2658 114.189 180.209 399.091
1256 0 179.345 16.0864 2885 110.78 179.648 399.027
1257 0 182.524 14.9405 2727 109.216 180.146 399.281
1258 0 180.355 15.5027 2796 106.825 179.546 404.356
1259 1 166.211 17.7606 2952 105.125 179.15 404.025
1260 0 170.381 17.0031 2897 105.717 179.343 403.602
1261 0 177.311 15.6843 2781 108.034 179.192 403.268
1262 0 180.422 16.0347 2893 106.209 179.314 402.474
1263 0 178.252 15.7474 2807 108.052 179.509 401.22
1264 0 181.375 15.8787 2880 106.777 180.092 399.503
1265 0 184.292 15.432 2844 105.51 180.027 398.88
1266 0 186.545 15.4011 2873 104.629 179.984 396.704
1267 0 188.522 15.9133 3000 102.829 180.289 394.169
1268 0 193.34 16.1788 3128 101.107 180.399 394.403
1269 0 195.392 16.4182 3208 100.517 179.982 392.739
1270 0 195.308 14.9814 2926 104.624 179.702 388.947
1271 0 197.352 16.0373 3165 102.843 180.079 386.483
1272 0 201.161 18.08 3637 96.9181 180.335 384.84
1273 0 206.36 17.7215 3657 95.6432 178.971 379.7
1274 0 209.364 14.7064 3079 99.8071 179.37 381.19
1275 0 211.224 13.2277 2794 100.819 179.16 384.423
1276 1 266.537 14.0468 3744 105.681 178.833 356.65
1277 0 266.574 13.8535 3693 215.587 180.847 356.202
1278 0 270.346 14.4814 3915 103.593 178.856 354.748
1279 0 275.607 14.0308 3867 103.326 179.119 352.2
1280 0 279.45 13.9739 3905 102.802 179.262 349.845
1281 0 283.784 14.2785 4052 101.926 179.177 348.415
1282 0 292.495 13.884 4061 102.544 178.896 343.441
1283 0 294.368 14.1557 4167 101.331 179.613 341.538
1284 0 305.658 13.5413 4139 101.383 179.423 338.385
1285 0 311.362 13.9901 4356 102.107 179.226 333.129
1286 0 314.34 14.1376 4444 101.666 179.257 331.426
1287 0 317.616 14.6592 4656 100.976 178.896 329.585
1288 0 323.379 14.1289 4569 101.282 179.387 327.513
1289 0 330.688 14.5031 4796 98.6224 179.594 323.106
1290 0 333.573 15.5918 5201 97.0642 179.221 318.463
1291 0 338.612 16.3816 5547 94.536 179.093 314.13
1292 0 344.439 16.4877 5679 92.8183 179.39 311.207
1293 0 351.425 16.1002 5658 92.4963 178.86 304.173
1294 0 359.556 17.0404 6127 90.403 178.767 301.983
1295 0 364.734 17.0151 6206 90.836 178.548 298.563
1296 0 371.684 16.3526 6078 91.6691 178.342 300.11
1297 0 381.605 16.0821 6137 90.9044 178.679 295.079
1298 1 347.677 15.6208 5431 89.7192 178.513 312.031
1299 0 346.559 15.7289 5451 88.2291 178.808 314.208
1300 0 345.405 15.1011 5216 88.0997 178.707 311.892
1301 0 343.643 14.9632 5142 83.5152 179.265 312.94
1302 0 352.301 13.7013 4827 84.3136 179.137 309.972
1303 0 363.57 14.6382 5322 81.3525 179.405 302.547
1304 1 68.0864 11.177 761 85.883 179.041 447.654
1305 0 70.0773 11.3874 798 84.3935 179.174 445.1
1306 0 72.065 11.4341 824 84.0413 178.521 444.892
1307 0 72.0952 11.3045 815 84.2344 178.858 444.155
1308 0 77.0743 11.3138 872 82.8784 178.447 443.298
1309 0 76.0642 11.6218 884 81.9355 178.809 442.129
1310 0 80.103 10.886 872 82.0619 178.576 442.197
1311 0 84.0933 11.3683 956 79.5575 179.056 438.988
1312 0 85.0662 11.9319 1015 77.6227 178.389 437.681
1313 0 87.0457 12.0626 1050 76.7971 178.324 436.262
1314 0 89.0695 11.3844 1014 77.2219 178.38 436.712
1315 0 91.0664 11.3873 1037 76.2526 178.985 434.841
1316 0 93.0749 11.1201 1035 76.4029 178.157 434.255
1317 0 97.067 11.1366 1081 74.3349 178.512 433.32
1318 0 101.075 11.2293 1135 73.7172 178.302 429.174
1319 0 103.11 11.4441 1180 73.028 178.57 428.203
1320 0 106.127 11.5239 1223 71.7923 178.545 428.631
1321 0 109.155 11.2317 1226 71.456 179.657 426.312
1322 0 113.097 11.2116 1268 71.7942 178.732 424.661
1323 0 115.094 11.8078 1359 70.5026 178.26 422.04
1324 0 121.083 11.0503 1338 70.6913 178.693 418.818
1325 0 122.057 11.1751 1364 70.2991 178.82 417.192
1326 1 35.0153 8.93894 313 64.9585 178.086 462.259
1327 0 34.0319 9.81433 334 65.0299 178.272 460.12
1328 0 36.0106 9.88598 356 65.4185 177.643 460.407
1329 0 40.0256 9.21911 369 64.8808 177.065 460.986
1330 0 39.0168 9.53436 372 65.0134 177.753 458.935
1331 0 43.0288 9.66794 416 62.7981 177.339 457.87
1332 0 43.0778 9.28553 400 63.3325 177.652 455.602
1333 0 46.0798 9.74396 449 61.7149 178.08 458.327
1334 0 44.0484 9.9436 438 62.8881 177.881 455.838
1335 0 47.0405 10.1615 478 61.6046 177.41 456.042
1336 0 46.0463 10.0768 464 61.9461 177.899 454.347
1337 0 48.0482 10.4062 500 60.756 178.136 454.794
1338 0 50.031 10.5734 529 59.7164 178.059 453.045
1339 0 52.1228 10.2834 536 59.4963 178.448 452.341
1340 0 52.1276 10.0523 524 60.1565 178.742 451.326
1341 0 54.0743 10.3376 559 59.6029 177.614 452.776
1342 0 57.0133 10.1204 577 59.182 178.099 451.367
1343 0 58.0518 10.2667 596 58.7483 178.263 449.388
1344 0 60.0678 10.1385 609 57.9704 178.218 450.197
1345 0 60.0306 10.0782 605 58.0512 178.537 448.655
1346 0 63.0396 10.422 657 56.8752 178.7 449.988
1347 0 66.0747 10.1098 668 56.2904 179.278 445.954
1348 0 66.0305 10.8435 716 55.7025 179.088 444.89
1349 0 70.0696 10.3897 728 55.4918 179.128 444.603
1350 0 69.0701 10.6558 736 55.0258 179.049 443.766
1351 0 74.1311 9.88788 733 55.4448 179.351 443.166
1352 0 74.2744 10.3131 766 54.9138 179.903 443.386
1353 0 79.2286 10.1226 802 54.2718 179.636 441.14
1354 0 82.1319 10.4101 855 53.655 179.856 439.071
1355 0 86.152 9.69217 835 53.8922 179.735 439.089
1356 0 87.2377 10.1447 885 53.6271 179.549 438.73
1357 0 85.2689 9.90982 845 54.845 179.578 436.208
1358 0 91.1327 10.5012 957 52.8694 179.419 435.256
1359 0 93.2908 10.3118 962 53.2349 179.432 435.339
1360 0 94.2734 10.0877 951 53.9148 179.144 434.451
1361 0 97.3228 10.645 1036 52.779 179.474 431.902
1362 1 49.0065 10.0191 491 52.2301 179.277 454.047
1363 0 51.0129 9.70344 495 52.6727 179.242 455.053
1364 1 101.264 10.5961 1073 53.945 179.284 429.981
1365 1 59.2169 10.1322 600 53.3167 178.717 451.612
1366 0 56.1054 10.4981 589 53.8082 178.834 449.929
1367 0 57.107 10.5591 603 54.5174 178.269 449.673
1368 0 57.0294 9.95977 568 53.6584 178.704 451.854
1369 0 57.0453 10.1674 580 54.4759 178.586 450.826
1370 1 180.738 12.0174 2172 51.4378 179.649 389.889
1371 0 186.918 12.4012 2318 50.7075 179.583 389.377
1372 0 187.747 12.112 2274 51.175 179.384 386.541
1373 0 198.773 12.391 2463 49.9249 180.229 384.082
1374 0 201.05 12.6635 2546 49.7561 179.53 383.461
1375 0 212.01 12.089 2563 49.7772 179.119 378.847
1376 0 214.699 11.5091 2471 50.5625 178.847 375.407
1377 1 192.994 11.1506 2152 50.1506 178.941 388.514
1378 0 192.994 11.1662 2155 206.959 177.954 387.575
1379 0 192.833 11.2792 2175 50.2906 180.046 388.479
1380 0 194.96 11.587 2259 50.1355 179.52 389.159
1381 0 193.04 11.7178 2262 51.1981 179.843 388.423
1382 1 81.1948 10.7642 874 53.1945 179.437 438.816
1383 0 81.1657 10.8051 877 53.6796 179.245 438.299
1384 1 41.0689 9.64234 396 53.3232 178.503 456.927
1385 0 44.0112 10.0656 443 50.2867 178.67 454.756
1386 0 44.0489 10.6473 469 50.0085 179.399 456.136
1387 0 46.0712 10.3101 475 50.3242 179.337 455.669
1388 0 46.0232 10.7554 495 50.3818 178.673 451.428
1389 0 50.0168 10.3365 517 49.6248 179.395 452.965
1390 0 50.0426 11.0306 552 49.4764 179.123 450.192
1391 0 53.0148 10.4876 556 49.518 178.912 450.577
1392 0 54.0329 11.2894 610 48.3049 179.672 451.121
1393 0 55.0777 11.3113 623 48.4767 179.26 448.255
1394 0 58.0904 11.069 643 48.3561 179.087 446.348
1395 0 59.0718 11.0374 652 48.3466 179.337 446.632
1396 0 59.0637 11.259 665 48.3835 178.883 446.171
1397 0 63.0689 10.9246 689 48.762 179.158 445.499
1398 0 64.0778 11.1271 713 48.7111 179.083 444.642
1399 0 65.0862 11.7844 767 47.7366 179.07 442.953
1400 0 69.0608 11.3089 781 47.8822 179.362 442.507
1401 0 70.1213 11.8651 832 47.3918 179.142 440.504
1402 0 73.1006 11.7373 858 47.6678 178.714 440.897
1403 0 75.1218 11.7542 883 47.2378 178.851 439.179
1404 0 80.1208 11.0333 884 47.31 179.671 436.914
1405 0 78.0956 11.153 871 48.054 179.218 433.072
1406 0 82.0305 11.4226 937 47.2401 178.996 435.177
1407 1 43.0385 9.06165 390 47.9795 179.887 452.403
1408 0 44.0678 9.91654 437 46.7071 179.824 453.739
1409 0 47.0384 10.2469 482 46.6764 179.772 452.407
1410 0 45.1161 10.3732 468 47.344 180.186 451.509
1411 0 48.04 10.2623 493 47.1481 179.525 451.513
1412 0 48.0713 10.4428 502 46.745 180.181 450.098
1413 0 52.1595 10.6404 555 45.7586 180.24 451.007
1414 0 54.0733 10.4858 567 46.1182 179.891 448.175
1415 0 54.1718 10.559 572 46.2675 179.628 448.051
1416 0 55.0918 11.0543 609 45.7225 180.568 447.993
1417 0 56.1904 11.817 664 44.0572 181.351 448.405
1418 0 58.1442 11.1619 649 45.5824 180.599 445.434
1419 0 61.0642 11.1686 682 45.2493 180.114 444.732
1420 0 63.0834 11.3501 716 44.7165 180.004 443.29
1421 0 64.0931 11.2805 723 44.9945 180.26 442.877
1422 0 68.2021 10.6888 729 45.2908 180.202 442.051
1423 0 69.1598 11.5819 801 44.0836 179.793 441.764
1424 0 70.1476 11.1479 782 44.5601 180.303 438.554
1425 0 73.202 11.5707 847 43.8217 180.438 439.499
1426 0 73.1822 11.7242 858 43.9534 180.294 437.981
1427 1 40.0949 9.22811 370 43.2486 179.397 456.07
1428 0 40.0208 9.61999 385 43.2078 180.187 455.255
1429 0 41.0703 9.42286 387 43.553 179.711 454.904
1430 0 45.04 9.54708 430 43.0163 180.495 455.002
1431 0 42.0386 10.0146 421 43.7625 180.482 453.606
1432 0 48.0471 9.40743 452 43.9845 180.073 454.06
1433 0 49.0404 9.6859 475 43.6295 180.179 454.147
1434 0 47.074 10.4941 494 43.6619 180.099 453.5
1435 0 49.1344 10.5425 518 43.2876 179.847 453.054
1436 0 50.1403 10.8496 544 43.0496 180.244 452.537
1437 0 49.1371 10.603 521 44.3167 179.875 451.392
1438 0 52.1321 11.0297 575 44.0696 179.743 451.499
1439 0 55.1987 10.6343 587 44.0017 180.204 449.678
1440 0 54.095 10.9992 595 43.7782 180.652 450.711
1441 0 55.0373 11.1016 611 44.0327 179.63 448.566
1442 0 57.0832 11.2643 643 43.5132 180.185 447.331
1443 0 58.1046 10.9458 636 43.5786 180.527 446.434
1444 0 58.1237 11.3207 658 43.4559 179.442 446.64
1445 0 62.1462 11.1029 690 43.371 179.665 446.788
1446 0 64.082 11.1732 716 42.9902 179.462 445.947
1447 0 68.1017 10.8367 738 43.2331 178.714 445.339
1448 0 67.0782 11.345 761 43.3298 178.909 441.488
1449 0 70.1321 11.0934 778 43.5553 179.179 441.945
1450 0 70.1896 11.3977 800 43.6412 179.468 441.449
1451 0 72.1546 11.4615 827 43.9782 179.265 439.513
1452 0 74.2011 11.2262 833 44.3361 179.914 437.818
1453 0 77.1206 11.8127 911 43.6992 179.744 437.122
1454 0 80.1978 11.8707 952 43.958 179.766 433.299
1455 1 42.027 10.1363 426 43.4084 179.453 453.718
1456 0 44.066 9.87156 435 43.0483 180.278 451.561
1457 0 44.0102 10.4521 460 42.8804 179.933 452.091
1458 0 47.0372 10.5023 494 42.6275 179.105 451.01
1459 0 48.0999 10.5198 506 42.2964 179.925 452.134
1460 0 47.1042 10.6997 504 206.591 180.954 451.859
1461 0 50.1 11.0978 556 42.437 179.59 450.541
1462 0 53.0916 10.8869 578 42.4498 179.941 450.375
1463 0 51.0227 11.5831 591 42.7411 179.269 449.484
1464 0 54.0613 11.117 601 42.5524 179.057 447.777
1465 0 56.0987 11.3372 636 42.3726 179.399 447.503
1466 0 58.0747 10.9859 638 42.4859 179.248 445.824
1467 0 56.0731 11.7168 657 42.6849 179.14 445.801
1468 0 59.047 11.4316 675 42.1111 179.836 446.51
1469 0 62.1393 11.1041 690 42.7203 179.013 445.146
1470 0 64.0779 11.6577 747 41.5502 179.236 444.732
1471 0 64.0679 11.8624 760 41.5197 179.009 443.953
1472 0 69.071 11.0176 761 41.753 179.254 442.915
1473 0 69.2241 11.6289 805 41.728 179.22 441.793
1474 0 70.093 11.1994 785 42.186 179.371 441.056
1475 0 75.136 11.02 828 41.9251 179.458 440.094
1476 0 76.1647 10.9106 831 42.3863 179.322 439.406
1477 0 78.1192 11.2392 878 42.6606 179 437.245
1478 0 79.1427 11.713 927 41.8652 179.762 437.748
1479 0 84.2066 11.1749 941 42.5579 179.194 436.368
1480 1 43.0278 9.92381 427 41.6862 178.408 457.297
1481 0 41.0751 10.2495 421 42.6128 179.496 453.38
1482 0 46.0642 10.0295 462 41.8312 179.589 456.091
1483 0 45.0759 10.5378 475 41.8337 178.985 454.878
1484 0 48.1828 10.3979 501 41.3613 179.361 453.539
1485 0 51.0904 10.4325 533 41.3433 178.715 453.306
1486 0 51.0852 10.8838 556 41.2608 179.099 453.011
1487 0 50.0757 11.263 564 41.3511 179.254 453.248
1488 0 51.1039 10.8015 552 42.2246 179.471 451.728
1489 0 55.0857 10.9103 601 41.5408 178.892 453.421
1490 0 54.1914 10.9981 596 42.1174 179.091 450.584
1491 0 55.0643 11.423 629 42.2321 179.273 451.299
1492 0 61.3098 10.8792 667 41.958 178.439 452.13
1493 0 60.1199 11.2442 676 42.6331 178.521 449.444
1494 0 59.0577 10.4813 619 44.126 179.352 446.829
1495 0 63.1061 11.7738 743 42.4536 179.358 448.655
1496 0 65.0908 11.4455 745 42.9624 179.267 446.513
1497 0 69.2241 11.4267 791 42.598 179.202 446.26
1498 0 69.1652 11.2484 778 43.3612 178.932 445.523
1499 0 70.1897 11.4119 801 43.3458 178.965 445.16
1500 0 73.273 10.7816 790 44.1633 179.049 443.539
1501 0 74.2235 11.6405 864 43.6921 179.053 443.463
1502 0 74.1249 11.5211 854 44.1007 178.657 443.752
1503 0 80.2991 11.5194 925 44.0443 179.344 442.451
1504 0 82.1648 11.6595 958 44.8173 178.628 440.432
1505 0 84.1326 11.47 965 44.9938 178.853 439.82
1506 1 172.167 12.819 2207 45.0897 179.015 396.201
1507 0 175.325 13.1755 2310 45.0576 178.918 396.261
1508 0 180.354 13.0355 2351 45.3671 179.137 392.683
1509 0 188.319 12.9939 2447 45.0944 179.167 391.503
1510 0 192.399 12.6976 2443 45.4478 179.318 387.657
1511 0 198.381 13.3379 2646 44.9614 179.306 387.162
1512 1 100.167 11.7104 1173 46.7332 178.937 432.753
1513 0 103.281 11.551 1193 46.8843 178.761 429.511
1514 0 104.223 11.8016 1230 47.0163 178.696 428.09
1515 0 107.191 12.0719 1294 47.187 178.195 429.024
1516 0 115.208 11.4575 1320 46.9992 178.489 424.552
1517 0 118.194 12.2595 1449 46.1622 179.092 422.845
1518 0 123.206 12.126 1494 46.5602 179.172 422.689
1519 0 123.244 12.4631 1536 46.862 179.154 420.408
1520 0 128.387 12.1196 1556 47.6774 179.321 417.125
1521 0 131.136 12.0791 1584 48.392 178.467 416.612
1522 1 65.0397 10.9472 712 48.5871 177.937 447.022
1523 0 67.0798 11.2702 756 48.9616 178.114 445.808
1524 0 68.0459 11.2718 767 49.1721 178.331 446.532
1525 0 76.1393 10.8617 827 49.243 177.848 445.792
1526 0 75.1376 11.3126 850 49.7706 178.398 443.215
1527 0 75.0732 10.7095 804 51.5336 178.762 443.134
1528 0 77.0718 10.86 837 51.9427 178.143 442.294
1529 0 81.0589 10.7576 872 52.4862 178.546 443.044
1530 0 79.1196 10.9707 868 52.9977 178.134 439.665
1531 0 82.0922 11.4505 940 52.7606 178.636 441.403
1532 0 80.0615 11.2913 904 53.6969 178.544 439.736
1533 1 183.339 12.3378 2262 52.2887 178.858 390.714
1534 1 141.306 12.0307 1700 52.8265 178.712 413.947
1535 0 144.174 12.0965 1744 52.9931 178.199 412.593
1536 0 150.133 12.3824 1859 52.9225 178.594 409.459
1537 0 153.282 12.2781 1882 52.6663 178.66 406.531
1538 0 156.23 12.7696 1995 52.1684 178.209 408.019
1539 0 161.223 12.002 1935 53.369 179.185 403.618
1540 0 167.584 12.0298 2016 53.2882 178.67 401.271
1541 0 172.184 11.9988 2066 53.3335 178.157 399.535
1542 1 55.0852 10.8559 598 52.5301 178.127 453.475
1543 0 58.1243 10.1679 591 52.6667 178.597 451.36
1544 0 59.1221 10.5883 626 52.6613 178.155 451.078
1545 0 61.1535 11.185 684 51.3845 177.453 452.879
1546 0 61.1071 10.5225 643 52.7869 177.456 448.95
1547 0 66.188 10.1227 670 52.6836 177.71 447.485
1548 0 66.2698 11.1363 738 51.4038 178.123 448.11
1549 0 68.0779 11.3253 771 51.1777 177.949 447.486
1550 0 71.1745 10.6358 757 51.9683 177.267 446.543
1551 0 75.157 10.1255 761 51.3903 177.896 446.293
1552 1 37.0455 9.12392 338 48.3787 177.524 463.287
1553 0 38.0911 9.34602 356 48.7107 176.73 462.393
1554 0 37.067 9.46934 351 49.9003 177.781 462.313
1555 0 40.0805 9.53082 382 49.3665 176.733 463.746
1556 0 44.0999 9.43314 416 48.9904 176.935 461.18
1557 0 40.0592 8.96173 359 50.2535 177.042 459.788
1558 0 44.101 9.84105 434 48.4654 176.668 458.892
1559 0 45.0693 9.60743 433 48.224 177.24 461.379
1560 0 43.0912 10.3501 446 48.6996 176.765 458.114
1561 0 47.1759 9.83552 464 48.1897 177.966 458.793
1562 0 46.0745 11.0256 508 47.5453 177.232 457.614
1563 0 49.1877 9.71787 478 48.6297 176.743 456.546
1564 0 51.1308 10.4047 532 46.8233 177.004 456.737
1565 0 51.1542 10.8105 553 46.9602 177.398 455.962
1566 0 53.128 10.6535 566 47.0813 177.751 453.067
1567 0 56.1071 10.7473 603 46.7695 177.352 452.673
1568 0 54.0795 11.1133 601 46.8186 177.446 452.105
1569 0 56.1913 11.2295 631 46.458 177.65 451.105
1570 0 59.2458 11.4438 678 45.5649 177.705 450.916
1571 0 62.1261 10.8811 676 46.3595 177.346 450.672
1572 0 63.0764 11.4147 720 45.6069 178.071 447.803
1573 0 63.1148 11.1067 701 46.1926 177.181 446.877
1574 0 68.1774 11.2794 769 45.5813 176.869 446.858
1575 0 71.1703 11.3812 810 45.0691 177.232 444.458
1576 0 73.0811 10.6868 781 45.694 177.412 442.494
1577 0 75.0874 11.6265 873 44.4376 177.017 443.688
1578 0 77.2206 11.2664 870 44.8034 177.078 441.013
1579 0 78.1361 11.1856 874 44.9634 177.63 440.765
1580 0 85.1071 11.5032 979 43.7181 176.84 440.538
1581 0 86.1731 11.7902 1016 43.6801 176.728 438.548
1582 1 46.054 9.51057 438 43.1027 176.747 459.667
1583 0 46.033 10.0797 464 43.2802 176.744 458.534
1584 0 45.0508 10.2551 462 43.0931 177.069 456.766
1585 0 47.0221 9.93151 467 43.9036 176.985 455.456
1586 0 45.0156 10.0188 451 44.1574 176.501 457.151
1587 0 51.1062 10.0966 516 42.8391 176.909 456.266
1588 0 48.1056 10.082 485 44.2309 176.843 453.315
1589 0 52.2398 10.4135 544 43.2316 176.901 454.671
1590 0 54.0907 10.2975 557 43.2729 177.061 452.413
1591 0 55.1269 10.7207 591 42.9069 176.447 453.545
1592 0 56.0823 11.6793 655 42.1832 177.038 452.786
1593 0 56.1679 10.7357 603 43.5572 177.226 450.186
1594 0 61.1332 10.976 671 42.5499 176.785 450.505
1595 0 60.0728 11.2863 678 43.0914 176.926 448.465
1596 0 61.0784 11.2642 688 43.4942 177.315 447.842
1597 0 62.1017 11.3524 705 43.2638 177.081 446.684
1598 0 65.0825 11.5546 752 43.1981 177.277 446.217
1599 0 68.3061 11.8145 807 42.8575 177.352 445.341
1600 0 68.1787 10.9712 748 44.3503 176.852 442.67
1601 0 71.1689 11.6905 832 43.2632 177.142 445.147
1602 0 76.1623 11.423 870 43.1414 176.909 443.568
1603 0 76.1386 11.5447 879 43.6348 177.379 440.911
1604 0 80.2018 11.496 922 43.9653 176.189 440.201
1605 0 83.1366 10.8256 900 44.5767 176.78 440.698
1606 0 89.121 11.8042 1052 42.7975 177.78 439.772
1607 1 44.0537 8.98903 396 45.4672 177.369 456.707
1608 0 43.0887 10.0722 434 44.8041 177.341 460.157
1609 0 47.0765 10.8547 511 43.9687 176.849 459.157
1610 0 49.0699 10.3933 510 44.7392 176.469 455.245
1611 0 51.0603 10.8303 553 43.7125 176.365 457.917
1612 0 51.0674 10.9267 558 44.3495 177.023 455.446
1613 0 53.0137 10.4124 552 44.6649 176.607 455.656
1614 0 55.058 10.5162 579 45.0604 177.112 452.67
1615 0 56.0502 10.3657 581 45.79 176.924 451.103
1616 0 57.0856 11.7543 671 44.4203 177.475 451.407
1617 0 59.0493 11.3295 669 44.8804 176.526 451.254
1618 0 61.0881 11.2952 690 45.3696 176.659 449.387
1619 0 63.0954 11.5222 727 44.7208 176.393 448.553
1620 0 66.0784 11.5166 761 44.8673 176.46 447.541
1621 0 67.093 11.6406 781 45.3303 176.306 447.074
1622 0 69.0745 11.6251 803 45.4184 176.633 447.589
1623 0 72.0952 11.9703 863 45.1703 176.577 447.123
1624 0 74.0385 11.6831 865 46.0324 176.66 444.054
1625 0 77.0934 11.5704 892 46.407 177.198 442.479
1626 0 77.0926 11.9467 921 46.7438 176.647 440.343
1627 0 83.1412 11.7992 981 47.001 176.608 438.675
1628 0 87.0987 11.642 1014 46.8126 176.887 440.489
1629 0 86.068 11.7117 1008 48.2629 177.013 435.564
1630 0 88.083 11.58 1020 48.6941 177.492 436.053
1631 1 44.0299 10.1976 449 49.6481 176.381 457.098
1632 0 46.0314 10.5146 484 49.2975 175.86 457.665
1633 0 50.0717 10.4051 521 48.7716 176.244 456.52
1634 0 49.1119 11.0157 541 48.8373 175.908 455.484
1635 0 54.0479 10.2872 556 48.3723 176.554 455.899
1636 0 54.2022 10.5162 570 48.9316 176.839 453.847
1637 0 56.0679 11.1294 624 47.7837 176.947 453.25
1638 0 58.1386 11.851 689 46.7533 176.376 451.013
1639 0 58.1517 11.3496 660 47.1318 176.432 451.077
1640 0 60.0986 11.3647 683 46.9956 176.486 448.956
1641 0 63.1945 11.2035 708 46.9054 176.226 447.862
1642 0 67.0962 11.0587 742 46.4825 176.1 447.426
1643 0 68.0675 10.7834 734 47.346 175.977 445.951
1644 0 70.196 11.3539 797 46.3325 175.747 446.664
1645 0 73.0796 10.988 803 46.807 176.262 443.592
1646 0 78.0818 11.4751 896 45.6105 176.021 443.27
1647 0 79.265 11.0263 874 46.2128 176.206 441.709
1648 0 79.0833 11.6712 923 45.5666 176.132 439.737
1649 0 84.1197 11.9829 1008 44.6806 176.246 438.836
1650 1 40.0591 9.3362 374 45.8182 175.976 458.893
1651 0 43.0834 9.14506 394 45.901 176.005 458.883
1652 0 42.0396 9.20561 387 45.8553 176.212 458.558
1653 0 44.0982 9.7056 428 45.7944 175.998 458.033
1654 0 51.0589 10.4193 532 44.3929 176.118 456.182
1655 0 49.0501 10.0713 494 45.3077 176.294 454.935
1656 0 51.0807 10.8064 552 44.1123 176.246 456.52
1657 0 50.1418 10.8891 546 45.0366 177.108 454.661
1658 0 51.1291 11.1874 572 44.8199 176.892 451.892
1659 0 52.0812 10.618 553 45.6365 176.682 451.34
1660 0 54.1347 11.2867 611 44.8985 176.961 450.02
1661 0 56.0907 11.4101 640 44.8156 177.044 450.308
1662 0 58.1005 10.5851 615 45.4959 176.785 447.158
1663 0 61.0211 11.6845 713 44.1964 176.067 448.118
1664 0 63.0425 11.1988 706 44.432 176.701 447.666
1665 0 68.0441 10.9929 748 43.8008 176.382 447.87
1666 0 67.021 11.847 794 43.636 176.296 445.938
1667 0 69.0714 11.5243 796 44.005 175.95 444.055
1668 0 69.1098 10.7076 740 44.8608 176.624 442.826
1669 0 74.1577 11.5834 859 43.6659 176.519 442.27
1670 0 76.2182 11.244 857 43.7036 177.029 441.553
1671 0 81.1686 11.0511 897 43.7949 176.352 441.78
1672 0 84.159 11.1456 938 43.6823 176.382 440.135
1673 0 85.097 11.058 941 44.0999 175.9 438.505
1674 0 86.1456 11.0627 953 43.8405 177.054 438.106
1675 0 92.1582 11.5454 1064 42.8102 177.116 438.228
1676 0 93.0877 11.3871 1060 43.3094 175.972 436.741
1677 1 43.0845 9.49297 409 44.4743 175.822 458.976
1678 0 46.0702 10.7445 495 42.1657 176.293 459.945
1679 0 44.1647 10.1438 448 44.1875 176.386 457.348
1680 0 50.0799 10.5831 530 42.7132 176.568 459.23
1681 0 47.1396 10.0765 475 44.2021 176.278 455.402
1682 0 49.0616 11.2308 551 43.0345 176.917 455.018
1683 0 53.0882 10.6803 567 43.157 176.607 454.28
1684 0 55.088 10.4741 577 42.9289 176.542 454.452
1685 0 55.0669 10.4055 573 43.1379 177.007 453.152
1686 0 58.036 11.2516 653 42.0046 176.948 453.19
1687 0 57.0899 10.9476 625 42.5696 176.741 449.333
1688 0 57.094 11.2446 642 42.4065 177.198 449.651
1689 0 61.1242 10.356 633 42.5103 177.554 448.531
1690 0 60.1396 11.3735 684 41.845 177.618 446.947
1691 0 64.0785 12.2818 787 41.0623 177.323 446.534
1692 0 66.1038 11.6635 771 41.4747 176.917 445.65
1693 0 69.0917 12.013 830 40.8494 177.06 445.739
1694 0 72.1541 11.5447 833 41.4358 177.19 443.453
1695 0 73.2019 11.2429 823 41.7485 177.785 442.713
1696 0 75.2059 11.4087 858 41.669 177.47 442.226
1697 0 76.0758 10.8839 828 42.6292 177.476 440.179
1698 0 81.2016 11.6008 942 39.8928 177.044 437.833
1699 0 83.1153 11.7548 977 39.6223 178.232 437.079
1700 0 83.1688 11.3745 946 40.3594 178.049 436.058
1701 1 45.0262 9.37232 422 41.9028 177.161 454.72
1702 0 48.0276 9.84851 473 41.3721 177.884 454.717
1703 0 48.0946 10.7912 519 41.0289 177.672 455.224
1704 0 48.0741 10.6502 512 41.9688 177.865 453.262
1705 0 52.0175 10.9002 567 41.4198 178.653 453.571
1706 0 54.0685 11.1895 605 41.4182 177.84 453.025
1707 0 55.0327 11.902 655 40.9435 178.368 450.548
1708 0 55.0293 11.612 639 41.7653 178.156 449.842
1709 0 57.0813 11.177 638 42.395 178.542 447.567
1710 0 60.0828 11.1346 669 42.3916 178.558 448.827
1711 0 62.1033 11.6902 726 42.073 178.271 446.851
1712 0 62.2203 11.3146 704 42.6918 178.188 445.949
1713 0 65.1303 11.1622 727 42.6479 178.305 446.011
1714 0 68.0596 11.3283 771 42.8197 178.079 444.503
1715 0 67.1288 11.0087 739 43.7591 177.543 443.447
1716 0 69.1915 11.5332 798 42.8784 179.114 443.513
1717 0 73.0911 11.5883 847 42.4817 179.285 443.26
1718 0 76.2789 10.5927 808 43.4381 179.254 440.126
1719 0 76.1874 11.1961 853 43.6284 178.921 438.209
1720 0 83.1685 12.0358 1001 42.2987 178.963 439.847
1721 0 84.1533 11.182 941 43.39 178.942 437.288
1722 0 85.1425 11.2517 958 43.5564 178.732 435.859
1723 0 90.2156 11.7607 1061 42.8963 178.313 436.51
1724 0 89.3046 11.388 1017 44.0098 178.681 434.044
1725 0 95.2121 11.7527 1119 42.681 179.475 434.399
1726 1 49.0638 11.0468 542 45.6661 178.227 453.057
1727 0 51.0387 11.2464 574 45.3624 178.23 451.678
1728 0 52.0399 11.2606 586 45.5717 178.655 450.944
1729 0 53.071 11.0041 584 46.0993 178.111 450.336
1730 0 56.0595 12.1656 682 44.8871 178.521 450.006
1731 0 57.1236 11.5539 660 45.3379 178.909 449.238
1732 0 58.0554 11.0584 642 45.7773 178.984 448.998
1733 0 61.0344 11.6656 712 44.5941 179.278 448.288
1734 0 62.0907 11.8858 738 44.8835 178.806 444.594
1735 0 67.0934 11.1785 750 45.0453 179.076 442.297
1736 0 67.0934 11.3573 762 210.063 180.066 442.534
1737 0 71.0586 12.0183 854 44.0386 179.399 442.67
1738 0 72.0478 12.2696 884 43.9774 179.144 441.141
1739 0 77.1292 11.6169 896 44.1507 178.867 439.581
1740 0 79.1091 11.7812 932 43.8798 178.534 438.368
1741 0 80.0673 12.0399 964 44.4502 178.761 438.559
1742 0 84.1403 12.289 1034 43.558 178.691 436.647
1743 0 85.1747 11.541 983 44.8088 179.05 433.126
1744 0 90.0951 11.7431 1058 44.1333 178.967 433.961
1745 0 90.071 11.713 1055 44.4976 178.681 431.526
1746 0 93.101 12.4274 1157 43.7831 178.332 431.613
1747 0 98.1624 11.9598 1174 44.1925 178.47 430.51
1748 0 101.184 10.9603 1109 45.2164 178.95 428.308
1749 0 102.204 12.3869 1266 44.3428 179.013 428.859
1750 0 101.234 11.7352 1188 45.6347 179.456 427.319
1751 0 107.157 11.5345 1236 45.4628 179.294 426.288
1752 1 57.1802 11.0353 631 46.3566 178.765 451.309
1753 0 57.1242 11.7113 669 46.2362 178.641 449.182
1754 0 60.0483 11.2076 673 46.2169 178.413 448.111
1755 0 62.1979 10.9972 684 46.3596 178.905 447.611
1756 0 61.1031 11.6197 710 46.3972 178.752 446.769
1757 0 67.3183 11.3936 767 44.7953 178.296 451.412
1758 0 69.1499 11.4534 792 44.9836 178.542 445.255
1759 0 69.0593 12.1924 842 44.3907 178.633 445.545
1760 0 71.1297 11.2611 801 44.794 178.504 444.513
1761 0 71.0814 11.4517 814 44.9545 177.945 443.254
1762 0 75.078 12.0008 901 44.0444 178.312 442.446
1763 0 78.1215 11.2645 880 44.9545 178.449 438.643
1764 0 82.1388 11.3223 930 44.8376 178.732 437.667
1765 0 83.1883 11.9849 997 44.327 177.05 438.62
1766 0 89.1141 11.7378 1046 43.9723 177.61 435.902
1767 0 89.1788 11.8638 1058 43.7618 177.581 433.507
1768 0 94.2379 11.9697 1128 43.4273 177.598 432.655
1769 0 94.185 11.849 1116 44.1631 177.183 428.987
1770 0 97.2166 11.9424 1161 43.9492 177.622 428.479
1771 0 102.207 11.6234 1188 43.9983 178.218 426.505
1772 0 104.156 12.4621 1298 43.225 177.629 425.738
1773 1 52.0939 10.577 551 45.3122 177.02 449.176
1774 0 54.0786 10.5772 572 45.2308 177.075 449.332
1775 0 59.0605 10.9549 647 44.1716 176.878 447.318
1776 0 59.0822 12.0849 714 43.5406 176.468 448.612
1777 0 61.1192 11.273 689 43.881 177.019 445.926
1778 0 62.0893 11.7895 732 43.153 177.317 446.743
1779 0 62.0341 11.542 716 43.9316 176.865 443.524
1780 0 64.0934 11.7641 754 43.5411 177.009 442.924
1781 0 64.0486 11.8816 761 43.7674 176.853 441.25
1782 0 70.0572 12.347 865 42.4382 177.539 439.706
1783 0 72.1071 12.3705 892 42.259 177.876 438.46
1784 0 72.113 12.9103 931 42.1869 178.135 440.119
1785 0 76.1747 12.1825 928 42.5032 178.046 437.232
1786 0 80.0768 11.8261 947 42.3801 178.029 437.351
1787 0 81.1566 12.556 1019 42.0628 177.392 436.826
1788 0 86.0573 12.0966 1041 42.1921 178.081 436.346
1789 0 87.1036 11.7561 1024 43.0088 177.698 432.02
1790 0 87.212 12.0167 1048 43.1517 177.683 431.447
1791 0 90.1156 12.3175 1110 42.9369 178.388 429.398
1792 0 94.1793 12.5505 1182 42.9264 178.018 428.118
1793 0 100.138 12.5128 1253 42.6512 178.476 429.458
1794 0 102.183 12.2133 1248 42.996 178.301 427.282
1795 0 103.217 12.1589 1255 43.4494 177.876 424.563
1796 1 56.0261 10.6736 598 43.388 178.145 449.294
1797 0 56.072 10.3795 582 44.177 177.536 448.074
1798 0 57.1012 10.8229 618 44.3252 178.678 446.037
1799 0 59.088 10.9328 646 43.9458 179.053 447.421
1800 0 60.0486 11.4907 690 43.6319 179.081 445.578
1801 0 62.1142 12.0584 749 43.3364 178.523 445.312
1802 0 64.1072 11.9487 766 43.1984 178.852 444.232
1803 0 64.0596 11.4112 731 43.896 178.937 441.451
1804 0 66.0348 11.6302 768 43.7174 178.811 442.056
1805 0 70.1194 12.4359 872 42.6995 178.565 443.511
1806 0 75.0338 11.848 889 43.2508 178.477 440.85
1807 0 77.0367 12.5265 965 42.4301 178.512 439.104
1808 0 76.1074 12.0882 920 43.4337 178.765 437.515
1809 0 79.0496 12.3593 977 42.8485 179.449 437.59
1810 0 82.1647 11.9273 980 43.352 178.872 437.45
1811 0 86.0976 11.998 1033 43.4579 178.486 436.262
1812 0 87.0607 12.1639 1059 43.152 179.709 437.339
1813 0 91.1548 11.6505 1062 43.9783 179.447 433.455
1814 0 92.217 12.4923 1152 43.2977 179.082 435.425
1815 0 94.1327 12.7905 1204 42.6213 180.35 434.161
1816 0 94.1853 11.8702 1118 43.8533 180.502 430.621
1817 0 101.157 11.8726 1201 43.5429 180.162 431.086
1818 0 106.258 12.2627 1303 43.1274 180.236 429.12
1819 0 104.089 12.0666 1256 44.0175 180.139 425.15
1820 1 57.0869 11.0708 632 42.9778 180.174 451.407
1821 0 57.0185 11.4173 651 42.9232 180.298 450.992
1822 0 58.0733 11.6921 679 42.3638 180.234 450.498
1823 0 59.1058 11.3694 672 43.3661 179.966 448.741
1824 0 63.0647 11.5279 727 43.11 179.398 448.432
1825 0 67.0328 11.2184 752 42.7327 179.166 448.947
1826 0 67.0575 11.9002 798 42.7982 178.965 446.832
1827 0 67.0376 12.3662 829 43.0543 179.256 446.228
1828 0 68.1233 11.5819 789 43.5108 179.545 444.336
1829 0 70.1851 11.7831 827 43.295 180.001 446.187
1830 0 74.1449 12.1519 901 42.727 179.141 443.131
1831 0 75.2068 11.4351 860 43.664 179.162 441.241
1832 0 78.1838 11.2555 880 43.6386 178.982 442.194
1833 0 82.092 12.1936 1001 42.5355 179.771 442.384
1834 0 84.2092 11.6971 985 43.2904 179.498 440.896
1835 0 85.2024 11.8776 1012 43.2905 179.36 440.596
1836 0 92.1649 11.8158 1089 43.0716 179.156 438.63
1837 0 94.1788 11.51 1084 43.5295 179.732 436.733
1838 0 91.1355 11.0166 1004 45.3297 178.466 433.15
1839 0 100.301 11.9141 1195 43.0762 178.75 434.372
1840 0 101.256 12.2462 1240 42.9871 179.079 432.889
1841 0 102.102 11.2437 1148 44.1159 178.606 429.392
1842 0 105.15 11.8878 1250 42.9432 179.089 431.15
1843 1 57.0967 10.6136 606 42.6271 179.206 454.946
1844 0 60.1526 10.756 647 41.7589 179.467 455.439
1845 0 62.17 11.6294 723 41.0733 178.974 453.87
1846 0 62.0404 10.9767 681 41.5844 179.195 451.122
1847 0 63.1291 12.4507 786 40.5611 179.05 451.332
1848 0 65.212 11.3783 742 41.465 179.155 449.291
1849 0 68.109 12.201 831 40.935 178.43 449.745
1850 0 72.1542 11.6556 841 41.3924 178.572 448.56
1851 0 73.0937 11.3963 833 41.9688 178.593 447.068
1852 0 75.1589 11.1497 838 42.5143 179.265 444.586
1853 0 78.1245 11.1617 872 42.7316 179.335 445.18
1854 0 75.1573 11.0036 827 44.3398 179.299 443.238
1855 0 80.0957 11.3239 907 44.4576 179.036 440.452
1856 0 81.1279 11.0936 900 45.2589 178.119 440.117
1857 0 86.2332 11.7588 1014 44.7199 179.335 438.952
1858 0 85.239 10.7815 919 46.7606 178.459 438.543
1859 0 90.1238 11.5397 1040 46.049 178.496 438.826
1860 0 92.1227 12.0274 1108 46.2617 178.656 438.04
1861 0 97.2046 11.3266 1101 47.1144 178.625 435.791
1862 0 95.1494 11.6343 1107 47.9485 178.605 434.512
1863 0 98.3162 11.758 1156 47.7976 178.909 434.721
1864 0 97.156 11.8984 1156 48.0424 179.049 432.726
1865 1 50.0924 10.7002 536 47.3955 178.826 456.323
1866 0 50.0159 10.3367 517 48.3598 179.203 453.89
1867 0 52.0448 10.1259 527 48.1271 179.972 454.362
1868 0 51.0386 10.5215 537 48.1769 179.339 454.169
1869 0 51.0386 10.6194 542 209.456 178.328 454.192
1870 0 57.072 11.0387 630 47.1857 179.102 452.964
1871 0 60.1212 10.0963 607 47.6376 179.331 451.96
1872 0 59.1591 10.7676 637 47.54 180.06 451.234
1873 0 62.1292 10.623 660 47.5182 180.558 450.933
1874 0 63.1883 10.9989 695 47.3799 180.368 449.819
1875 0 64.1363 10.696 686 48.363 180.746 446.688
1876 0 67.0471 11.4397 767 47.9309 180.426 446.126
1877 0 69.0988 11.7802 814 47.8944 180.396 447.287
1878 0 69.1199 10.9954 760 49.9789 180.396 443.167
1879 0 74.0586 10.5322 780 49.7154 180.841 442.399
1880 0 74.1385 11.1143 824 50.193 180.096 441.862
1881 0 77.089 11.3116 872 50.1261 179.764 442.226
1882 0 80.3141 11.343 911 50.0516 179.728 440.754
1883 0 81.2252 11.2157 911 51.3008 180.211 438.835
1884 0 81.2425 10.1548 825 53.4412 179.794 433.575
1885 1 41.041 9.50269 390 50.8538 180.9 458.792
1886 0 45.0722 10.0062 451 48.9401 181.543 458.65
1887 0 44.0997 10.2268 451 50.1264 180.721 457.612
1888 0 47.0847 10.2156 481 49.4699 180.929 457.927
1889 0 47.1159 10.1664 479 50.3424 180.514 455.962
1890 0 49.1412 9.07588 446 51.1614 181.209 454.825
1891 0 48.134 10.6785 514 50.0506 180.895 453.733
1892 0 49.0574 9.82522 482 50.89 180.427 453.958
1893 0 53.1045 10.018 532 49.9568 180.844 453.085
1894 0 55.1136 10.9048 601 48.9667 180.491 452.752
1895 0 57.1461 11.0419 631 49.1252 180.384 452.468
1896 0 59.1601 10.3786 614 49.4967 180.938 450.826
1897 0 59.1601 10.5814 626 211.589 181.896 451.032
1898 0 63.1498 11.7182 740 47.9973 179.942 449.199
1899 0 63.1508 11.3063 714 48.591 180.66 447.576
1900 0 67.1856 11.5054 773 47.4929 180.457 447.691
1901 0 68.1834 11.3957 777 48.3346 180.18 446.616
1902 0 69.2331 10.8763 753 48.8938 180.291 445.065
1903 0 74.0892 10.5683 783 48.7152 180.037 443.849
1904 0 74.1836 11.3907 845 47.5243 180.472 442.955
1905 0 79.189 12.3123 975 45.8923 180.657 443.591
1906 0 79.0904 11.2277 888 48.0743 180.458 440.17
1907 0 80.3065 11.0701 889 48.2396 180.327 438.442
1908 0 84.1301 10.7215 902 48.3071 180.57 435.818
1909 0 89.2391 11.5981 1035 47.0386 179.894 437.006
1910 0 89.2004 11.1322 993 48.0947 179.969 432.984
1911 0 91.1972 10.6911 975 48.0831 180.073 432.966
1912 0 97.2193 11.3969 1108 46.8746 180.514 432.894
1913 0 100.324 11.3432 1138 46.8831 181.148 429.745
1914 1 47.1355 9.8864 466 45.7983 180.127 457.408
1915 0 51.125 9.72127 497 46.0825 179.412 455.604
1916 0 48.1058 9.52067 458 47.2555 179.465 453.469
1917 0 53.2775 9.42236 502 46.496 179.942 452.723
1918 0 54.2165 11.5094 624 44.2276 179.263 453.466
1919 1 115.371 10.9386 1262 47.1125 179.945 419.298
1920 1 58.0725 11.124 646 44.5279 179.102 453.37
1921 0 58.0805 11.0881 644 44.8276 179.312 451.084
1922 0 55.0557 10.4803 577 47.2444 179.367 447.016
1923 0 57.0474 10.5702 603 46.8673 178.937 449.061
1924 0 61.1525 10.2694 628 46.4586 180.183 448.575
1925 0 63.0967 10.6662 673 45.9926 180.302 446.978
1926 0 65.1164 11.2875 735 45.049 180.014 445.91
1927 0 66.0588 11.4898 759 45.3267 179.722 446.014
1928 0 67.0579 11.1247 746 46.0228 179.515 444.157
1929 0 69.0171 10.751 742 46.345 179.573 442.352
1930 0 73.0912 11.944 873 44.6564 180.171 442.991
1931 0 74.0961 10.1895 755 46.743 180.052 439.4
1932 0 79.2361 11.4847 910 45.1604 179.66 440.168
1933 0 77.3423 11.2228 868 45.5737 180.014 438.218
1934 0 81.1203 11.2795 915 45.1902 179.902 439.579
1935 0 83.0611 11.5096 956 45.2898 179.748 436.644
1936 0 87.1888 11.5496 1007 44.9216 180.861 435.422
1937 0 89.1188 11.2771 1005 44.7085 180.376 434.142
1938 0 93.1576 11.5503 1076 44.8615 180.129 432.637
1939 0 96.1244 11.818 1136 44.4146 179.916 431.546
1940 0 98.181 10.9695 1077 45.3705 180.148 429.408
1941 0 96.0874 10.3656 996 46.0944 180.788 424.287
1942 0 101.263 11.3072 1145 44.7921 180.729 425.345
1943 0 108.283 12.1811 1319 42.8347 181.201 425.575
1944 0 111.148 11.3992 1267 43.5233 181.263 421.245
1945 1 58.1061 11.2725 655 42.1023 180.684 448.759
1946 0 58.0897 11.1207 646 42.4211 179.859 448.536
1947 0 59.0696 11.478 678 42.0442 180.366 447.041
1948 0 61.0925 11.5399 705 41.9546 180.54 445.906
1949 0 62.0957 11.8366 735 41.3673 180.712 446.947
1950 0 64.1674 12.0622 774 41.0491 180.776 446.165
1951 0 65.1916 11.796 769 41.3251 181.03 444.075
1952 0 66.097 11.0898 733 41.8963 181.415 442.864
1953 0 70.0438 11.2786 790 41.5025 181.146 443.657
1954 0 73.1162 12.1587 889 40.3802 180.874 444.296
1955 0 70.1034 10.2135 716 42.5698 181.865 437.425
1956 0 77.0568 12.5103 964 40.1784 181.032 441.232
1957 0 79.148 12.1165 959 40.903 180.327 438.753
1958 0 84.196 11.9127 1003 40.4845 180.738 439.782
1959 0 86.241 11.723 1011 41.2987 180.502 436.484
1960 0 87.142 11.6821 1018 41.4283 181.687 435.544
1961 1 46.1587 10.0523 464 41.806 180.746 455.955
1962 0 44.061 9.96346 439 42.6287 181.36 455.374
1963 0 48.1211 10.91 525 40.9543 180.598 457.909
1964 0 48.0512 10.3431 497 42.3239 180.73 455.954
1965 0 51.0748 10.9447 559 41.8265 180.776 454.667
1966 0 51.0747 11.3167 578 41.8772 181.012 454.299
1967 0 54.2897 11.7702 639 41.5665 179.781 454.471
1968 0 54.108 10.8671 588 43.4456 180.238 453.617
1969 0 55.1304 11.3005 623 42.9615 181.053 452.47
1970 0 58.2434 11.8468 690 42.6681 180.838 452.032
1971 1 119.167 12.2853 1464 44.0963 180.928 421.255
1972 1 59.0784 11.5609 683 44.7174 180.447 450.41
1973 0 61.0751 11.8542 724 43.8287 180.967 449.696
1974 0 64.08 11.8758 761 44.2063 180.062 447.932
1975 0 68.153 11.6503 794 44.6045 180.756 445.383
1976 0 69.0668 11.4092 788 44.7779 180.651 445.3
1977 0 71.1931 11.8691 845 43.8592 180.214 444.164
1978 0 75.197 11.8755 893 43.981 180.618 443.204
1979 0 76.0935 11.7487 894 44.6644 179.717 441.923
1980 0 79.2652 12.1743 965 43.6187 180.315 440.878
1981 0 82.2203 11.6273 956 44.0994 180.243 441.668
1982 0 84.2405 11.8708 1000 43.665 180.271 440.597
1983 0 86.4097 11.7232 1013 44.616 179.296 438.049
1984 1 45.1413 10.1238 457 44.8249 178.864 457.287
1985 0 48.0684 10.3394 497 44.1429 179.354 456.594
1986 0 47.1174 10.7179 505 44.2277 178.727 456.711
1987 0 46.1165 9.69284 447 46.1186 179.251 452.785
1988 0 52.0484 11.2587 586 43.5529 179.162 452.966
1989 0 53.1393 10.6889 568 44.1144 178.761 452.893
1990 0 51.1197 10.4852 536 45.125 179.731 451.209
1991 0 52.0632 11.7357 611 43.7709 179.854 452.375
1992 0 57.0527 10.6042 605 44.3554 179.403 453.258
1993 0 55.0476 11.3538 625 44.472 180.29 447.779
1994 0 58.1145 10.9267 635 44.4598 180.364 448.628
1995 0 58.0679 11.4693 666 44.0556 180.679 447.378
1996 0 61.1334 11.6794 714 44.1036 179.859 447.193
1997 0 64.1652 11.2366 721 44.2261 180.54 445.369
1998 0 66.123 11.5391 763 43.9161 180.582 445.092
1999 0 64.0792 10.8928 698 45.0888 180.685 441.44
2000 0 68.1038 11.1007 756 45.0132 180.165 440.623
2001 0 68.1624 10.9885 749 45.1375 180.951 439.04
2002 0 72.1726 11.9159 860 43.2872 181.294 440.627
2003 0 76.1252 11.7701 896 43.5301 180.676 437.912
2004 0 82.1787 12.3511 1015 42.4296 180.987 438.652
2005 0 79.0848 11.4687 907 44.3451 180.685 435.883
2006 0 85.3413 12.3738 1056 42.7557 180.952 436.152
2007 0 85.1752 10.8835 927 44.6807 180.871 434.403
2008 0 89.1552 11.3959 1016 44.5049 180.752 432.275
2009 0 90.2349 12.1572 1097 43.9626 181.074 433.136
2010 0 97.2208 12.0242 1169 43.2412 181.903 432.013
2011 1 55.2605 10.5138 581 43.6954 182.083 449.06
2012 0 56.0574 11.5417 647 43.2318 181.385 449.566
2013 0 54.1575 11.0419 598 44.9766 180.985 447.045
2014 0 57.1152 11.1704 638 44.5752 181.589 445.812
2015 0 58.0839 10.8808 632 44.5823 181.902 446.843
2016 0 61.1987 11.2257 687 43.9985 181.575 446.636
2017 0 63.3577 11.5377 731 43.7975 181.818 444.644
2018 0 68.2998 11.5374 788 43.434 181.747 443.778
2019 0 70.3114 12.1175 852 41.9648 182.608 445.043
2020 0 71.2578 11.8022 841 43.0832 181.778 442.908
2021 0 71.1969 11.5735 824 44.4417 181.227 440.905
2022 0 69.2172 10.4598 724 45.9931 181.633 437.304
2023 0 75.0758 11.4151 857 44.5099 181.833 439.765
2024 0 77.1581 11.1719 862 45.0023 181.988 436.884
2025 0 81.2846 11.8719 965 44.2487 181.184 437.716
2026 0 83.2632 12.0822 1006 44.2445 181.146 435.633
2027 0 90.1768 12.2093 1101 42.96 181.335 436.25
2028 0 90.3977 11.0954 1003 45.016 181.937 433.134
2029 1 45.18 9.7831 442 43.6697 181.321 455.876
2030 0 44.0556 10.1463 447 44.2886 181.716 455.121
2031 0 41.1612 9.28059 382 46.4686 181.874 452.594
2032 0 49.1072 9.81526 482 44.3672 181.506 453.548
2033 0 49.0855 10.8586 533 42.8856 182.064 455.807
2034 0 52.2295 10.2816 537 43.4991 181.546 454.538
2035 0 48.1409 10.4277 502 45.0259 180.894 450.699
2036 0 55.121 10.8489 598 43.0635 180.943 452.182
2037 0 60.1616 10.6713 642 42.9252 180.964 451.899
2038 0 59.1411 10.7878 638 43.3777 180.649 450.567
2039 0 59.1736 11.1029 657 43.2085 180.457 448.604
2040 0 62.1874 11.2885 702 42.7094 180.56 448.675
2041 0 63.0972 11.7596 742 42.407 179.798 447.747
2042 0 66.0919 11.4991 760 42.3711 180.039 447.114
2043 0 67.0791 11.2554 755 42.9391 179.921 443.985
2044 0 70.0728 11.3454 795 42.4742 179.361 442.604
2045 0 71.0944 11.534 820 42.6098 179.982 441.038
2046 0 76.1478 11.6615 888 41.7782 179.749 441.016
2047 0 77.1388 12.0173 927 41.74 179.668 440.424
2048 0 77.1742 11.2991 872 42.8417 180.048 438.485
2049 0 84.086 12.1304 1020 41.6078 180.051 437.318
2050 0 85.2956 11.595 989 42.3812 180.834 436.463
2051 0 88.2101 11.8127 1042 42.3253 180.9 435.769
2052 0 90.3165 11.7586 1062 42.7844 180.317 434.637
2053 0 91.2412 12.1436 1108 42.6904 180.29 434.627
2054 0 97.1516 11.199 1088 43.8134 179.932 430.419
2055 1 50.1292 9.27602 465 44.5871 178.86 452.871
2056 0 51.1198 9.5462 488 45.1598 179.072 451.721
2057 0 53.0959 10.9048 579 43.3437 179.623 452.067
2058 0 53.2349 10.9515 583 43.8714 179.985 451.863
2059 0 53.1478 11.007 585 43.7675 181.123 450.877
2060 0 58.0721 10.5214 611 43.8592 181.347 448.542
2061 0 59.1731 11.2213 664 43.4142 180.813 447.953
2062 0 63.0668 11.1469 703 43.1892 180.804 447.293
2063 0 59.1727 10.7989 639 44.7793 181.279 445.055
2064 0 59.1224 10.7912 638 45.5925 181.169 443.078
2065 0 66.1114 10.6184 702 44.8974 180.868 444.83
2066 0 67.1432 11.9297 801 44.0187 180.23 443.241
2067 0 65.0519 11.437 744 44.9328 181.026 439.794
2068 0 67.0751 10.8237 726 45.562 181.555 439.105
2069 1 169.483 15.028 2547 38.2764 181.172 417.705
2070 1 149.161 12.8854 1922 43.2066 181.828 406.365
2071 0 153.298 11.4092 1749 44.8908 181.619 400.875
2072 0 154.477 11.3609 1755 45.5054 181.163 399.347
2073 0 157.326 11.4412 1800 45.745 181.158 395.503
2074 1 88.137 11.8679 1046 43.1367 180.744 435.239
2075 0 88.2012 11.5078 1015 43.8256 181.021 434.342
2076 0 90.1838 11.6207 1048 43.5468 181.669 432.304
2077 0 91.1255 11.0178 1004 44.5339 181.306 429.861
2078 0 96.1094 11.7158 1126 43.0204 181.801 431.722
2079 0 98.2322 12.0531 1184 42.6377 182.222 428.117
2080 0 95.169 10.3605 986 44.8976 182.27 424.907
2081 1 51.0705 9.43794 482 43.2925 181.45 452.703
2082 0 50.0954 10.5 526 42.924 180.77 450.873
2083 0 50.107 9.7192 487 44.9589 180.961 447.811
2084 0 55.1573 10.606 585 43.2103 180.157 450.137
2085 0 58.1155 10.5308 612 43.0523 181.02 449.484
2086 0 58.0803 11.6907 679 42.1149 180.66 451.228
2087 0 59.0688 11.1057 656 42.6418 181.09 448
2088 0 62.1854 10.9029 678 42.6563 181.695 449.043
2089 0 64.1788 10.8447 696 42.9583 181.341 447.721
2090 0 66.1554 11.5032 761 42.4415 181.063 445.858
2091 0 67.2157 11.4854 772 43.215 180.452 444.865
2092 0 69.1158 11.2131 775 43.6348 180.37 444.329
2093 0 69.0885 11.1596 771 44.4345 180.397 442.73
2094 0 73.1463 11.101 812 43.8916 181.174 444.153
2095 0 76.1464 12.1083 922 42.6746 180.655 443.504
2096 0 75.1287 11.833 889 44.2014 180.362 441.911
2097 0 78.1873 11.0632 865 45.3977 180.184 439.209
2098 0 80.1137 12.3325 988 44.2743 180.861 438.919
2099 0 81.1455 12.0031 974 44.9497 181.095 437.717
2100 0 86.2772 12.3323 1064 44.5169 180.805 438.19
2101 0 88.0677 11.7069 1031 45.9952 180.449 434.067
2102 0 89.1891 11.0776 988 47.0719 180.712 432.472
2103 0 93.1503 11.4009 1062 47.4068 179.823 431.812
2104 0 94.1834 11.7006 1102 47.3221 180.745 431.162
2105 0 98.246 11.746 1154 46.6516 181.052 429.592
2106 1 53.0631 10.7231 569 45.4288 180.524 453.088
2107 0 51.0324 10.268 524 47.0229 180.632 453.427
2108 0 52.107 10.0946 526 47.9106 180.418 450.523
2109 0 54.1132 10.3672 561 47.9465 179.585 451.503
2110 0 58.0921 11.3096 657 46.5266 179.543 451.049
2111 0 58.1697 11.0195 641 47.3526 180.226 449.596
2112 0 57.0387 10.7822 615 48.6016 179.971 448.6
2113 0 58.0365 10.8208 628 48.8917 179.928 446.395
2114 0 60.0898 11.8989 715 46.5552 180.368 449.435
2115 0 64.0706 12.2833 787 46.0318 179.62 448.141
2116 0 66.0968 11.816 781 46.3931 179.666 447.177
2117 0 66.0724 12.0777 798 46.9185 180.258 445.226
2118 0 68.0587 11.6958 796 46.9422 180.386 444.935
2119 0 72.0964 11.8036 851 46.7145 180.394 443.096
2120 0 73.082 11.6445 851 46.9671 181.083 440.912
2121 0 74.0744 11.529 854 47.4461 180.281 439.559
2122 0 77.1269 11.2153 865 47.674 180.343 438.872
2123 0 79.0808 11.8866 940 46.6638 180.769 438.513
2124 0 82.0878 11.3902 935 47.0096 180.62 437.926
2125 0 86.1614 11.6642 1005 46.3731 180.748 437.252
2126 0 85.1387 10.7354 914 48.6291 180.578 431.919
2127 0 84.1112 11.1757 940 48.3606 180.646 433.663
2128 0 87.0734 10.7725 938 48.2687 181.043 430.664
2129 0 93.0816 12.2903 1144 46.3129 181.17 430.153
2130 0 95.0719 12.5379 1192 45.6963 180.914 430.789
2131 0 97.186 11.8536 1152 46.7682 181.203 429.358
2132 1 52.0601 10.3918 541 46.8946 181.055 449.475
2133 0 56.0998 11.1765 627 45.3573 180.974 447.716
2134 0 59.0499 11.4141 674 44.9837 181.309 448.769
2135 0 58.0891 9.98467 580 47.1621 181.657 444.841
2136 0 57.0702 10.7762 615 47.1333 181 444.985
2137 0 65.0912 11.9217 776 44.5863 181.177 447.887
2138 0 62.0909 11.3543 705 46.1688 181.528 444.535
2139 0 65.088 11.9223 776 45.2397 180.858 443.791
2140 0 63.1759 10.7636 680 46.9015 181.94 442.91
2141 0 66.1342 10.6148 702 47.0613 181.416 441.198
2142 0 70.1885 10.885 764 46.5956 181.118 439.3
2143 0 71.1931 11.0685 788 46.4924 181.358 438.192
2144 0 74.1787 10.8117 802 46.0387 181.572 437.377
2145 0 79.0944 10.8984 862 45.7262 181.29 437.171
2146 0 81.0822 11.2602 913 45.0778 182.042 435.544
2147 0 84.3146 10.8878 918 45.2767 182.123 434.484
2148 0 86.1556 10.6668 919 45.815 181.716 432.097
2149 0 86.2475 10.9568 945 46.4381 181.362 431.789
2150 0 95.2627 11.673 1112 44.6286 181.422 432.956
2151 0 97.3502 11.5254 1122 45.0134 181.483 430.293
2152 0 96.2392 10.9519 1054 46.3909 181.942 426.695
2153 0 96.15 10.7332 1032 46.7965 181.741 424.263
2154 0 105.14 11.4894 1208 45.2103 181.972 425.599
2155 0 103.193 10.2042 1053 46.8936 181.715 421.32
2156 0 110.12 11.5692 1274 45.2056 181.5 422.854
2157 0 112.194 10.981 1232 45.8222 181.486 419.082
2158 0 118.077 12.0853 1427 43.9509 182.624 420.242
2159 0 116.14 11.5378 1340 44.9388 181.921 415.975
2160 1 59.038 10.4848 619 43.958 181.473 446.869
2161 0 62.1577 10.6342 661 43.4281 181.009 446.908
2162 0 62.083 10.5826 657 43.9011 181.361 442.965
2163 0 64.0502 10.4137 667 43.3523 182.526 443.924
2164 0 68.1193 10.144 691 43.3111 181.802 442.12
2165 0 68.0896 10.4274 710 43.693 181.969 439.496
2166 0 72.069 10.6565 768 42.6784 181.793 442.214
2167 0 76.0938 10.5265 801 42.7079 181.032 439.599
2168 0 76.1612 9.40111 716 44.3366 181.17 435.331
2169 0 80.0573 10.7173 858 42.4114 181.832 437.4
2170 0 84.1541 11.0274 928 42.3631 180.964 436.989
2171 0 84.0772 10.3714 872 43.5791 181.888 434.385
2172 0 88.0798 10.3883 915 43.0809 181.421 435.188
2173 0 92.0754 10.1221 932 43.6212 180.839 430.136
2174 0 96.1014 10.5618 1015 43.131 181.244 430.163
2175 1 51.0132 10.3111 526 41.8289 181.829 451.342
2176 0 54.0759 9.52365 515 42.7437 181.021 450.208
2177 0 53.059 10.2716 545 42.0697 181.954 450.215
2178 0 55.0212 10.3415 569 42.0158 181.299 448.617
2179 0 57.0672 10.0583 574 42.0383 181.666 449.232
2180 0 58.0442 10.9055 633 41.1564 181.728 448.67
2181 0 62.0348 10.8165 671 40.9165 180.863 449.271
2182 0 64.1073 10.0613 645 42.1922 180.955 444.322
2183 0 68.1382 10.464 713 41.2384 181.345 445.743
2184 0 68.1218 9.87937 673 41.9019 181.189 443.394
2185 0 71.1385 10.6693 759 40.8498 181.387 443.074
2186 0 72.0746 11.2661 812 40.2685 182.099 442.23
2187 0 74.1173 9.9437 737 41.5509 181.529 437.533
2188 0 77.1026 10.4795 808 40.7648 181.769 437.722
2189 0 81.0735 10.3733 841 40.6647 181.907 436.046
2190 0 81.1982 9.9879 811 40.7892 181.619 433.752
2191 0 88.2682 10.2642 906 39.9117 181.641 433.991
2192 1 46.0223 9.38674 432 39.2338 181.095 454.192
2193 0 48.086 9.73256 468 38.7158 181.16 453.808
2194 0 47.0274 10.2919 484 38.6012 181.63 454.986
2195 0 48.1101 9.95632 479 39.3987 181.042 453.574
2196 0 53.0289 9.93798 527 38.3852 181.539 454.987
2197 0 54.0691 10.3756 561 38.5365 180.843 452.497
2198 0 54.0578 10.7293 580 38.5052 181.143 451.426
2199 0 57.0783 10.3542 591 38.2386 181.354 450.653
2200 0 62.0503 10.6365 660 37.5788 181.506 451.083
2201 0 56.1275 10.6187 596 38.7718 181.685 448.607
2202 0 60.1497 10.8729 654 38.341 181.792 446.541
2203 0 59.1117 10.1672 601 39.0433 182.288 446.584
2204 0 62.1182 10.8664 675 38.6844 182.391 445.138
2205 0 69.1202 11.9502 826 36.7518 182.315 445.728
2206 0 71.1502 10.8643 773 38.1669 181.415 443.283
2207 0 69.1597 10.9168 755 38.5417 181.917 442.272
2208 0 70.1598 10.8182 759 210.833 181.908 442.383
2209 0 81.1716 10.8782 883 37.6512 182.045 437.241
2210 0 79.2294 11.8012 935 37.3529 181.846 437.024
2211 0 79.2225 11.2721 893 37.9541 181.853 436.063
2212 0 85.3567 11.5984 990 36.999 181.798 436.99
2213 0 90.1493 12.202 1100 35.9173 182.455 435.82
2214 0 87.1999 10.6307 927 38.2039 182.225 430.165
2215 0 91.195 11.4041 1040 37.4769 181.734 430.275
2216 0 98.1645 11.6132 1140 36.6772 181.206 433.049
2217 0 99.2064 10.6042 1052 37.5932 181.508 428.356
2218 0 102.204 10.8998 1114 37.2127 181.644 427.615
2219 1 121.17 13.6584 1655 32.7051 181.471 435.709
2220 1 54.0301 9.90189 535 36.8822 181.787 450.512
2221 0 56.1508 10.1869 572 36.8304 182.017 448.935
2222 0 57.0734 11.3012 645 36.1178 181.967 447.898
2223 0 59.1591 11.0211 652 36.3604 181.609 447.385
2224 0 63.2012 11.5504 730 35.2315 181.515 448.153
2225 0 64.0537 10.9596 702 36.0513 181.661 445.546
2226 0 64.0915 10.2198 655 37.1756 181.693 443.968
2227 0 63.0848 10.8901 687 37.2649 181.718 443.118
2228 0 72.1199 10.6767 770 37.1078 181.16 439.982
2229 0 70.2369 11.447 804 37.2239 181.134 439.994
2230 0 72.1208 12.077 871 36.9127 181.106 439.59
2231 0 76.136 11.5189 877 37.4789 181.408 437.298
2232 0 77.1298 11.3186 873 38.0905 181.088 438.373
2233 0 83.1701 11.9755 996 36.9066 182.515 438.838
2234 0 84.2254 11.1843 942 38.2877 182.174 434.364
2235 0 86.1732 11.6045 1000 38.097 182.399 435.068
2236 0 86.4815 11.1469 964 39.0197 182.6 431.574
2237 0 90.3274 11.8458 1070 38.3692 182.592 432.526
2238 0 92.5424 11.8972 1101 38.4905 182.342 432.062
2239 0 95.52 11.5892 1107 39.5348 182.12 427.069
2240 0 101.302 11.5595 1171 39.1127 182.676 428.024
2241 1 47.1109 9.65806 455 41.2835 182.209 449.244
2242 0 54.0878 10.0392 543 39.9098 181.606 450.046
2243 0 54.0571 11.0254 596 38.8876 181.314 451.661
2244 0 51.0972 10.9204 558 39.7867 181.665 448.948
2245 0 57.1681 10.7403 614 39.5212 181.235 446.678
2246 0 62.1627 10.8103 672 38.75 181.521 446.753
2247 0 61.1308 11.2709 689 39.1437 181.173 445.511
2248 0 62.1685 11.131 692 39.0564 182.061 445.012
2249 0 64.1231 10.3239 662 39.8429 181.917 441.385
2250 0 64.1028 11.5596 741 38.8165 182.64 441.781
2251 0 66.0975 11.1956 740 38.9108 182.196 440.101
2252 0 71.289 11.1378 794 38.4798 182.699 439.786
2253 0 70.15 11.6322 816 38.4032 182.474 439.145
2254 0 73.3708 11.3533 833 38.4298 182.702 436.597
2255 0 75.0773 11.0686 831 39.071 182.659 435.164
2256 0 78.1788 11.7935 922 38.3514 182.427 433.892
2257 0 82.0988 11.9003 977 38.1597 182.728 434.355
2258 0 86.1975 11.1836 964 38.8122 182.339 431.377
2259 0 87.1675 11.0133 960 38.9875 182.19 430.232
2260 0 91.2056 11.3261 1033 38.7744 182.55 428.126
2261 0 89.2163 11.3096 1009 39.217 182.279 427.388
2262 0 94.1179 10.4019 979 40.2829 182.113 424.988
2263 0 97.2177 11.3354 1102 39.4837 182.529 424.187
2264 1 50.0487 9.37088 469 40.5736 182.143 446.098
2265 0 55.1459 10.4994 579 38.6908 182.256 448.356
2266 0 55.0728 10.8947 600 39.2117 182.048 447.18
2267 0 57.0942 10.9643 626 38.9042 182.129 446.211
2268 0 57.0881 10.9655 626 39.3994 181.927 444.307
2269 0 60.1386 10.9913 661 38.9319 182.415 443.233
2270 0 62.1492 11.7137 728 38.081 182.99 441.898
2271 1 88.7527 12.1912 1082 33.0628 182.314 448.494
2272 1 66.1422 10.9915 727 38.3755 182.33 439.007
2273 0 68.1868 10.4712 714 38.5728 183.003 438.043
2274 0 72.0953 11.7206 845 37.3053 182.357 436.105
2275 0 73.1339 11.226 821 37.7077 182.28 437.161
2276 0 73.0919 10.7536 786 38.4618 181.95 433.298
2277 0 76.1461 11.6224 885 37.5503 181.881 433.774
2278 0 77.0349 10.9431 843 37.9087 182.339 430.066
2279 0 88.2809 12.245 1081 35.9149 182.358 431.933
2280 0 86.2942 12.1213 1046 36.173 182.325 430.59
2281 0 86.2174 11.1462 961 37.1374 182.552 427.326
2282 0 90.1621 11.5459 1041 36.2478 182.572 428.569
2283 0 92.0895 11.1413 1026 37.0448 181.896 425.155
2284 0 97.1064 11.5337 1120 36.2 182.782 423.662
2285 0 104.203 11.8518 1235 35.3538 183.299 421.764
2286 0 102.22 10.5264 1076 36.737 183.231 419.36
2287 0 106.254 11.5102 1223 35.9501 183.352 419.751
2288 0 112.187 12.8892 1446 34.888 182.525 419.473
2289 0 117.314 12.7521 1496 34.6009 183.09 417.187
2290 1 82.396 11.9666 986 30.8783 182.653 450.527
2291 1 56.1277 10.3336 580 36.8362 183.029 440.995
2292 0 63.0266 11.2175 707 35.6082 182.901 439.979
2293 0 61.116 10.7337 656 36.9863 182.184 438.32
2294 0 65.1332 10.9161 711 36.4726 182.079 439.174
2295 1 93.6919 38.3811 3596 20.4919 180.85 443.678
2296 1 68.5189 20.768 1423 28.7407 182.93 429.675
2297 1 103.198 12.82 1323 30.0839 182.723 443.051
2298 1 74.0811 11.1229 824 35.5182 182.619 433.301
2299 0 76.1478 11.6484 887 34.8174 182.976 433.766
2300 1 112.296 13.5445 1521 29.0145 182.351 440.87
2301 1 79.2451 11.4329 906 35.245 182.446 428.826
2302 0 88.301 11.5514 1020 34.0814 183.527 428.532
2303 0 89.291 11.2329 1003 34.5484 183.214 425.962
2304 0 93.3093 12.4639 1163 33.5013 183.181 428.23
2305 0 96.287 11.3411 1092 34.1896 183.326 422.802
2306 0 96.3538 12.2154 1177 33.9711 183.046 421.604
2307 0 102.365 12.2991 1259 33.6759 182.754 422.531
2308 1 54.0847 10.4096 563 34.1048 182.643 446.799
2309 0 53.096 10.8671 577 34.8146 182.962 444.234
2310 0 55.1118 11.2499 620 34.3145 183.074 445.185
2311 0 58.1174 10.7713 626 34.7971 182.911 441.735
2312 0 58.1233 12.0089 698 34.1905 182.847 441.974
2313 0 57.1607 11.179 639 35.1784 183.006 438.858
2314 0 62.1007 12.4797 775 33.3652 182.983 438.95
2315 0 65.1164 12.0861 787 34.0851 182.174 437.945
2316 0 63.1166 11.5659 730 34.4397 183.275 435.571
2317 0 65.1679 11.0484 720 34.9667 183.174 432.153
2318 0 72.2145 11.4381 826 33.77 183.127 435.648
2319 0 74.1846 11.9701 888 33.4099 183.313 435.823
2320 0 70.099 10.4281 731 35.2832 183.168 427.85
2321 0 72.1411 11.4221 824 34.7124 183.368 430.669
2322 0 77.251 11.1066 858 34.6084 183.376 427.751
2323 0 81.1001 10.7152 869 35.0115 183.397 427.023
2324 0 83.2198 11.1752 930 35.0194 182.763 426.725
2325 0 83.3132 10.7426 895 35.4849 182.815 424.765
2326 1 117.262 13.7044 1607 29.6945 182.638 436.768
2327 1 90.2766 11.3651 1026 34.7651 182.96 425.923
2328 1 46.1409 11.3999 526 35.2548 182.293 448.449
2329 0 46.1162 10.1916 470 36.0128 183.021 448.647
2330 0 48.0546 10.3424 497 36.3722 182.294 447.519
2331 0 53.1067 11.2792 599 35.4124 181.925 445.347
2332 0 50.1759 10.7821 541 36.3808 183.116 443.384
2333 0 51.1827 10.2378 524 36.4008 183.569 440.5
2334 0 53.0429 11.4059 605 36.3488 182.907 441.185
2335 0 55.0373 10.9562 603 35.9071 183.38 441.048
2336 0 54.0652 10.4503 565 36.6619 183.326 439.292
2337 0 59.1184 12.2804 726 35.3568 182.566 439.532
2338 0 64.1269 11.4149 732 35.1598 183.347 437.937
2339 1 97.177 11.0005 1069 31.5912 183.37 441.384
2340 1 67.1364 12.3778 831 34.9097 182.55 436.085
2341 0 68.1064 11.0562 753 36.1633 182.907 433.965
2342 0 71.1403 11.7795 838 35.3675 183.338 434.104
2343 0 74.1591 11.9473 886 34.8296 183.66 432.574
2344 0 75.0763 10.9888 825 35.7176 183.187 432.608
2345 0 77.0872 12.1162 934 35.5268 183.177 429.256
2346 0 81.235 11.4729 932 35.8294 183.584 426.396
2347 0 83.1732 11.5662 962 35.4719 184.165 427.054
2348 0 83.1543 10.9074 907 36.7993 183.412 424.271
2349 1 44.1661 10.8454 479 36.6555 182.695 447.678
2350 0 46.1303 11.2074 517 36.118 183.166 447.778
2351 0 43.0562 10.0798 434 38.5184 183.217 443.2
2352 0 53.0828 11.548 613 35.5514 183.548 446.635
2353 0 49.0706 11.3306 556 37.6241 182.942 443.424
2354 0 51.0754 10.5335 538 38.1803 183.271 442.309
2355 0 53.0269 11.5413 612 37.3922 183.428 443.461
2356 0 53.093 11.0937 589 38.3854 183.109 442.958
2357 0 56.0551 11.0605 620 38.3887 183.195 441.752
2358 0 60.0461 11.2913 678 37.5826 183.232 441.855
2359 0 57.0848 11.0537 631 38.9287 182.477 438.537
2360 0 59.0536 10.8715 642 38.9019 183.383 437.572
2361 1 90.707 11.4655 1040 33.8558 182.6 445.985
2362 1 65.1913 10.2161 666 39.2628 182.996 436.65
2363 0 67.0966 10.4178 699 39.0615 183.019 435.841
2364 0 66.0932 10.7121 708 39.8771 182.451 433.897
2365 0 72.1553 11.3505 819 38.7399 182.838 434.814
2366 1 151.4 11.9485 1809 39.257 183.348 396.376
2367 1 78.0564 10.3643 809 39.1483 182.833 432.491
2368 1 42.0896 9.59858 404 39.104 182.676 451.804
2369 0 39.0695 10.1614 397 40.3073 181.725 449.992
2370 0 46.0689 11.2657 519 37.9692 182.156 451.237
2371 0 47.1252 10.1432 478 38.7845 182.672 448.831
2372 0 45.0718 11.0712 499 38.9299 183.034 447.858
2373 0 47.1118 9.55174 450 40.08 183.133 445.413
2374 0 47.0159 9.16711 431 40.2575 183.251 445.202
2375 0 49.0774 10.7585 528 39.0455 182.964 444.701
2376 0 52.0216 11.2261 584 39.2825 182.39 443.524
2377 0 54.0976 11.0356 597 39.4137 182.707 443.484
2378 0 54.0392 11.2881 610 39.3803 182.359 441.261
2379 0 57.0559 10.7789 615 39.3675 182.714 440.868
2380 0 57.0802 10.9845 627 39.5407 182.571 439.643
2381 0 63.0983 11.9496 754 37.6525 183.744 438.573
2382 0 65.0797 11.386 741 38.386 183.108 438.148
2383 0 64.1376 10.7425 689 39.5791 182.747 435.791
2384 0 72.1186 10.8987 786 38.6603 182.64 436.132
2385 0 74.1763 11.8367 878 37.7756 182.494 436.341
2386 0 73.1245 11.6377 851 38.4935 181.908 433.15
2387 0 76.2613 11.1066 847 38.2763 182.706 433.697
2388 0 79.2941 10.77 854 38.6417 182.526 432.155
2389 0 82.1576 9.62784 791 39.2225 182.649 429.241
2390 0 83.116 10.4553 869 39.1542 182.449 429.494
2391 1 43.0976 9.83814 424 38.441 182.597 452.045
2392 0 43.0534 10.4754 451 38.9047 181.96 451.865
2393 0 46.0937 9.35052 431 39.6497 182.497 449.833
2394 0 43.1607 9.26769 400 40.075 182.92 450.735
2395 0 46.0482 10.0981 465 40.2817 181.811 448.68
2396 0 52.0787 9.96568 519 39.9171 181.96 449.397
2397 0 48.1028 10.4983 505 40.4119 181.549 448.17
2398 0 52.0742 10.3506 539 40.8182 182.043 448.512
2399 0 53.1458 9.7844 520 40.7904 182.279 447.985
2400 0 53.0476 9.36894 497 41.8471 182.183 445.072
2401 0 53.1584 8.84151 470 42.5043 182.668 443.128
2402 0 55.051 9.73643 536 41.4496 182.284 443.009
2403 0 60.0978 9.53445 573 40.8377 182.799 441.939
2404 0 59.0785 10.1729 601 40.371 183.261 440.121
2405 0 61.1204 10.7493 657 40.0715 182.557 440.026
2406 0 64.1527 10.5374 676 40.4645 182.633 439.741
2407 0 63.0886 9.44702 596 41.6091 182.81 438.076
2408 0 69.1652 10.6701 738 40.3062 183.23 436.165
2409 0 74.149 11.0723 821 39.7942 182.977 437.132
2410 0 77.1316 10.0867 778 40.8792 183.055 434.718
2411 0 79.0519 10.3982 822 41.0572 182.929 432.352
2412 0 84.149 10.5884 891 40.927 182.91 431.897
2413 0 83.1626 10.2089 849 41.9329 183.207 428.518
2414 0 87.0799 10.8062 941 41.4431 183.318 428.843
2415 0 91.1531 11.3326 1033 40.9739 183.525 426.697
2416 1 45.074 9.71734 438 41.9863 183.418 448.708
2417 0 44.0239 8.72254 384 44.1172 183.302 446
2418 0 51.1506 9.95101 509 42.78 182.118 447.157
2419 0 48.0952 10.3961 500 42.914 182.722 445.38
2420 0 54.133 10.2895 557 41.754 182.959 445.4
2421 0 51.0376 10.3845 530 43.1792 182.56 443.281
2422 0 51.0259 9.74015 497 43.2555 182.445 443.612
2423 0 58.0518 10.4906 609 42.3071 182.435 440.727
2424 0 59.0295 10.8082 638 41.2022 183.326 440.989
2425 0 65.1422 10.8992 710 40.0648 183.141 442.314
2426 0 61.0498 10.0737 615 41.8634 183.169 440.114
2427 0 65.0721 11.0493 719 40.7232 183.207 437.456
2428 0 67.0404 9.78515 656 41.7866 182.52 435.997
2429 0 69.1111 10.1141 699 41.3004 182.877 434.082
2430 0 73.2054 10.8052 791 40.3641 182.743 432.799
2431 0 77.0955 10.3378 797 40.133 182.882 432.519
2432 0 76.1295 10.0355 764 40.7199 183.06 428.294
2433 0 77.2004 8.63986 667 41.3868 182.756 426.481
2434 0 80.0675 9.4795 759 40.6614 182.847 425.404
2435 0 84.1186 9.96212 838 40.1169 182.763 426.394
2436 0 92.1385 9.44231 870 39.9494 182.308 426.102
2437 0 89.2316 9.76112 871 40.3042 182.755 421.227
2438 0 98.222 11.362 1116 38.9194 182.371 422.213
2439 1 50.0653 10.3665 519 40.1657 181.626 443.356
2440 0 48.1086 9.08362 437 41.7552 182.476 440.497
2441 0 47.0981 9.51206 448 41.4933 182.779 440.1
2442 0 51.1129 10.0953 516 40.7461 182.037 439.686
2443 0 53.0416 9.03064 479 41.7704 182.432 437.253
2444 0 57.0593 9.60404 548 40.719 182.095 436.533
2445 0 58.0819 10.3819 603 40.1327 182.177 437.373
2446 0 61.0966 10.0333 613 40.4584 182.256 436.062
2447 0 59.1127 10.6068 627 40.4545 182.722 434.236
2448 0 62.1018 9.83868 611 40.3961 183.471 434.098
2449 0 61.0789 9.82336 600 41.1717 183.283 431.3
2450 0 68.1613 9.47752 646 41.0046 182.628 431.005
2451 0 71.1932 10.001 712 40.6236 183.176 428.935
2452 0 71.1522 10.0911 718 40.8816 182.439 429.178
2453 0 75.2783 9.85676 742 40.6226 182.602 426.753
2454 0 76.1675 9.78108 745 40.9074 182.419 424.709
2455 0 82.1992 9.45265 777 40.5573 182.615 423.888
2456 0 80.2788 9.66631 776 40.4626 182.863 421.612
2457 0 88.1636 9.77727 862 40.3399 182.325 421.463
2458 1 41.1307 8.9471 368 42.0054 182.342 445.12
2459 0 40.0391 8.44174 338 42.8195 182.837 443.027
2460 0 45.0161 9.90756 446 41.8632 182.244 443.738
2461 0 45.115 9.64204 435 41.9425 182.874 442.655
2462 0 48.0325 9.3062 447 41.9485 182.43 441.729
2463 0 45.0069 10.0429 452 42.2544 182.007 438.513
2464 1 0 0 0 -nan -nan -nan
2465 0 8.03578 13.8132 111 13.1712 180.315 490
2466 0 10.7049 11.3966 122 13.0738 183 490.721
2467 1 56.0412 11.1347 624 41.3734 182.58 435.559
2468 0 60.1477 9.60968 578 42.4689 182.123 434.763
2469 0 61.0722 10.6923 653 41.5069 182.072 433.807
2470 0 61.0314 10.1751 621 41.8261 182.565 434.593
2471 0 63.0499 10.801 681 41.188 182.728 432.485
2472 0 68.0438 10.2728 699 41.3891 182.124 430.761
2473 0 69.0291 10.6912 738 41.5379 181.718 428.314
2474 0 70.1838 10.273 721 41.484 181.577 426.085
2475 0 73.133 9.68099 708 41.8249 181.541 422.525
2476 0 76.1644 10.4905 799 41.4768 180.826 422.369
2477 0 78.0819 10.886 850 41.0576 181.324 421.739
2478 0 80.1771 11.4247 916 40.6638 181.675 421.085
2479 0 82.1117 10.6928 878 41.1902 181.747 418.555
2480 0 82.2754 10.5742 870 41.4874 181.741 417.201
2481 0 86.2138 10.8451 935 41.1594 181.676 415.765
2482 1 100.218 13.3809 1341 37.9046 181.537 420.858
2483 0 94.2368 11.1528 1051 40.6546 182.091 413.016
2484 1 48.0948 9.25256 445 42.9169 181.62 435.622
2485 0 48.1188 10.1624 489 42.4683 181.241 435.669
2486 0 50.0403 9.95198 498 42.5622 182.04 435.845
2487 0 54.1249 10.0878 546 42.7399 181.789 433.875
2488 0 68.159 24.9563 1701 29.1758 182.193 429.828
2489 1 96.9287 10.4097 1009 35.9713 181.696 439.74
2490 1 58.0858 10.8977 633 42.1927 181.278 431.005
2491 0 57.0327 11.1164 634 42.6609 181.043 429.423
2492 0 62.0543 10.5714 656 42.9146 181.218 427.444
2493 0 65.109 11.6727 760 41.75 181.159 429.172
2494 0 64.1259 11.1343 714 42.5196 181.469 424.438
2495 0 68.0786 10.9726 747 42.4498 182.033 424.142
2496 0 72.0933 10.8887 785 42.4752 181.496 422.111
2497 0 70.1785 11.485 806 42.2792 181.864 421.242
2498 1 112.097 12.8638 1442 35.1879 181.155 432.852
2499 1 148.346 11.1227 1650 41.2121 181.455 381.354
2500 0 159.339 14.5915 2325 37.6963 181.605 391.112
2501 0 149.19 10.9592 1635 41.192 182.1 381.022
2502 1 95.1932 13.3518 1271 39.1904 181.428 420.03
2503 0 89.3519 11.091 991 42.1332 181.487 412.529
2504 0 92.2102 11.81 1089 41.3416 181.905 413.513
2505 0 103.1 13.5499 1397 39.3257 181.512 417.901
2506 0 96.0255 11.4032 1095 42.0721 181.738 409.211
2507 0 99.2626 11.4746 1139 41.5285 181.949 409.586
2508 0 102.264 11.1671 1142 214.97 182.953 408.871
2509 0 105.104 11.4268 1201 41.6844 181.702 405.171
2510 1 52.0804 11.1558 581 43.8055 182.095 434.862
2511 0 53.0655 11.8156 627 43.1053 181.74 433.163
2512 0 50.0416 10.791 540 44.5519 181.507 430.107
2513 0 56.0524 10.6686 598 44.3127 181.179 429.217
2514 0 56.1357 11.0981 623 44.252 181.18 427.968
2515 0 59.1344 11.4316 676 43.9719 181.507 429.291
2516 0 60.0733 12.1518 730 43.1863 181.549 430.212
2517 0 60.0569 10.6899 642 44.0171 181.385 426.643
2518 0 64.0924 11.0466 708 43.9718 181.677 425.719
2519 0 72.0488 11.3951 821 43.3642 181.648 426.168
2520 1 111.58 12.5112 1396 36.8309 181.18 433.404
2521 0 107.494 13.2659 1426 36.7076 181.089 433.251
2522 1 77.1518 11.3283 874 43.7574 181.884 422.81
2523 0 82.0739 11.6724 958 42.9447 181.86 419.711
2524 0 85.106 10.8923 927 43.6278 181.511 418.797
2525 0 89.1153 11.8162 1053 42.7521 182.151 419.493
2526 0 87.1251 11.4318 996 43.7882 182.436 415.465
2527 0 95.181 11.8406 1127 43.299 182.105 415.455
2528 0 96.152 11.7002 1125 44.064 181.748 413.546
2529 0 100.209 11.2465 1127 44.4499 181.299 412.746
2530 0 105.095 11.6751 1227 43.6227 182.329 412.104
2531 0 103.188 11.3095 1167 44.551 181.775 408.552
2532 0 107.253 11.3376 1216 44.6225 181.832 405.739
2533 0 112.149 12.0109 1347 43.8456 181.947 406.422
2534 0 118.145 11.8753 1403 44.0698 181.757 403.249
2535 1 61.1398 10.337 632 45.7215 181.525 434.003
2536 0 61.101 10.3272 631 46.2044 181.903 432.371
2537 0 62.0695 11.5032 714 45.7129 181.73 432.599
2538 1 93.8634 12.2731 1152 39.1519 181.195 440.439
2539 1 70.2056 11.0248 774 45.624 181.73 431.198
2540 0 72.1623 11.9453 862 44.9443 181.718 431.587
2541 0 73.1504 11.3875 833 45.5582 181.875 429.825
2542 0 77.1743 11.3121 873 45.4044 181.449 429.356
2543 0 77.2146 11.0083 850 46.02 181.899 428.352
2544 0 80.1474 10.4682 839 45.8665 182.211 426.064
2545 0 84.1534 10.8373 912 45.4792 181.666 424.989
2546 0 86.2186 10.9605 945 45.5164 181.855 422.74
2547 0 90.2606 10.658 962 45.6767 181.797 421.342
2548 0 92.1738 11.1745 1030 45.5262 181.163 419.308
2549 0 92.1017 10.1518 935 46.5091 181.365 417.912
2550 0 98.1468 10.9632 1076 45.5483 181.374 417.902
2551 0 101.253 10.9824 1112 45.3768 181.767 416.747
2552 1 48.0302 10.9723 527 45.74 181.528 440.848
2553 0 50.0662 10.9655 549 45.5956 181.532 441.537
2554 0 52.0571 10.5461 549 46.1822 181.128 438.124
2555 0 53.0753 10.5322 559 46.0644 181.642 437.766
2556 0 56.0513 11.0256 618 45.8317 181.04 436.197
2557 0 59.0675 10.6319 628 45.5812 181.697 435.704
2558 0 59.1474 10.6683 631 45.3962 181.523 436.881
2559 0 61.193 10.8019 661 45.3616 181.495 436.089
2560 0 64.1696 10.9242 701 44.7104 181.94 434.904
2561 0 66.1502 11.0657 732 44.9303 181.486 434.09
2562 0 67.0647 11.1832 750 44.456 181.225 432.925
2563 0 74.0217 10.7806 798 43.8571 181.134 431.117
2564 0 74.0606 11.207 830 43.9096 180.707 429.352
2565 0 78.0312 10.6111 828 44.3647 180.533 427.335
2566 0 78.1594 11.2335 878 43.9738 181.1 427.393
2567 0 84.1764 11.4046 960 43.5906 180.606 424.739
2568 0 86.0695 10.7123 922 44.1128 180.847 422.971
2569 0 88.1867 10.4438 921 44.3594 181.713 420.591
2570 0 90.2616 10.5804 955 44.3456 181.425 421.66
2571 0 91.1181 10.7224 977 44.5681 181.474 421.201
2572 0 95.2583 11.0332 1051 44.1941 182.236 418.568
2573 1 46.0206 9.95207 458 45.559 181.932 442.701
2574 0 47.0886 10.4059 490 45.2653 182.239 441.722
2575 0 49.0277 10.7898 529 44.6994 182.49 441.2
2576 0 53.0368 10.1816 540 45.0556 181.709 439.517
2577 0 57.0602 10.6905 610 44.2951 181.811 440.295
2578 0 57.1751 10.3367 591 44.8934 181.44 437.628
2579 0 55.0975 11.0894 611 45.2962 181.172 437.165
2580 0 57.1269 10.4504 597 45.7471 181.313 435.94
2581 0 61.0681 10.693 653 45.2067 181.968 435.752
2582 0 61.0609 10.6124 648 45.9907 181.623 433.63
2583 0 65.159 10.4053 678 45.9897 182.046 431.794
2584 0 69.196 10.3041 713 45.9972 181.554 431.056
2585 0 68.0268 10.4665 712 46.2346 181.215 428.428
2586 0 72.0657 11.0177 794 45.4849 182.088 428.266
2587 0 75.1601 10.7637 809 45.7837 182.083 426.554
2588 0 80.2797 10.6378 854 45.548 181.637 424.204
2589 0 84.08 10.2759 864 46.3056 181.522 422.303
2590 0 82.0799 10.8553 891 46.5903 181.875 421.928
2591 0 88.1409 10.9257 963 46.2461 181.72 420.923
2592 0 94.2364 10.8026 1018 46.058 181.51 419.604
2593 1 41.0512 9.52468 391 48.1202 181.898 442.128
2594 0 44.0609 10.4628 461 47.2213 181.885 441.497
2595 0 48.1354 9.9511 479 47.3194 182.601 439.791
2596 0 48.0272 10.8272 520 46.2942 182.912 439.615
2597 0 51.0824 12.2351 625 44.9008 181.773 440.275
2598 0 50.0541 10.7484 538 47.1859 181.552 436.113
2599 0 50.0675 10.5657 529 47 182.457 434.667
2600 0 54.0834 11.4823 621 45.8196 181.836 435.345
2601 0 53.0827 10.9829 583 45.9314 182.54 433.533
2602 0 58.1047 11.0146 640 45.4188 181.978 432.128
2603 0 64.0651 11.3947 730 44.2904 182.152 433.167
2604 0 66.1194 11.7363 776 44.1057 182.387 432.686
2605 0 69.0824 12.4489 860 43.3733 182.474 433.08
2606 0 72.0528 11.9218 859 43.9779 182.163 430.793
2607 0 72.103 10.7208 773 45.2743 182.411 428.436
2608 0 76.1027 11.1166 846 44.7376 182.235 427.365
2609 0 75.1344 11.4328 859 44.8813 181.921 425.314
2610 0 83.2391 12.1217 1009 43.2755 181.863 428.984
2611 0 82.137 11.3469 932 44.4742 182.245 423.599
2612 0 89.0944 11.9648 1066 43.4184 181.923 424.06
2613 0 83.0964 11.4325 950 44.5158 181.955 420.078
2614 0 89.128 11.9828 1068 43.8511 182.418 420.795
2615 0 94.1012 12.1996 1148 43.6429 182.456 417.981
2616 0 97.1041 11.9253 1158 43.8126 182.7 415.498
2617 0 102.228 11.4548 1171 43.9453 182.54 414.453
2618 1 52.1965 9.96236 520 45.3865 182.487 439.212
2619 0 51.0605 10.1448 518 46.1815 182.504 435.539
2620 0 54.061 10.2662 555 45.7189 182.899 436.123
2621 0 58.0494 10.4222 605 45.0099 183.273 435.293
2622 0 60.113 10.8962 655 44.887 182.747 435.487
2623 0 65.1331 11.0236 718 43.6476 183.742 435.327
2624 0 65.0706 11.3723 740 43.4554 183.886 434.218
2625 0 65.0598 11.4049 742 44.2871 182.927 432.278
2626 0 69.07 11.0468 763 43.7615 182.809 429.86
2627 0 66.166 10.519 696 45.0345 182.204 427.756
2628 0 71.0683 10.8769 773 44.7426 182.396 428.016
2629 0 75.0621 11.9368 896 43.6395 182.039 428.388
2630 0 77.15 11.6526 899 43.762 182.507 426.375
2631 0 78.1217 10.8037 844 44.6066 182.581 421.898
2632 0 85.0676 12.0492 1025 43.119 181.977 424.956
2633 0 85.1441 11.228 956 44.3703 181.971 420.044
2634 0 87.1283 11.4085 994 44.5211 181.298 420.3
2635 0 91.1218 11.5121 1049 44.3394 182.233 419.84
2636 0 91.1997 11.0198 1005 44.8756 182.524 417.661
2637 0 97.1217 12.0776 1173 43.8755 181.914 418.317
2638 0 98.3623 11.6406 1145 44.4978 181.742 415.006
2639 0 102.149 11.2092 1145 44.9345 181.992 412.626
2640 0 108.209 12.0046 1299 43.8014 181.102 413.5
2641 0 112.191 12.0954 1357 43.3744 181.286 412.975
2642 1 51.106 9.62705 492 45.2175 181.228 438.846
2643 0 54.1498 10.6372 576 44.566 181.036 438.656
2644 0 57.0873 11.0883 633 43.8025 180.453 439.466
2645 0 57.1047 10.2268 584 45.5428 180.149 435.414
2646 0 58.0413 10.8543 630 44.9841 180.514 435.495
2647 0 61.0337 11.1414 680 44.6132 180.237 436.726
2648 0 63.0874 10.6677 673 44.9257 180.256 433.832
2649 0 65.0219 11.5499 751 44.213 180.029 434.437
2650 0 73.1013 11.573 846 43.4173 179.552 434.136
2651 0 70.1053 11.8251 829 43.4777 180.487 433.935
2652 0 76.2023 11.2333 856 43.5047 179.942 433.218
2653 0 74.0298 11.0361 817 44.1444 180.266 429.231
2654 0 76.1042 11.2083 853 44.061 180.124 428.463
2655 0 83.1819 12.0579 1003 42.5972 179.856 427.484
2656 0 83.1169 11.6342 967 43.3051 179.382 424.956
2657 0 87.2481 11.175 975 43.439 180.246 422.668
2658 0 89.2049 11.0756 988 43.1407 180.472 423.382
2659 0 93.172 11.57 1078 42.6262 180.54 420.981
2660 0 97.2391 11.1889 1088 42.784 180.654 418.829
2661 0 103.091 11.6402 1200 41.8908 180.076 419.197
2662 0 102.116 11.3694 1161 42.3661 180.205 414.069
2663 0 105.201 11.3212 1191 42.0823 180.462 412.009
2664 0 105.216 11.272 1186 213.382 180.468 411.933
2665 1 59.1357 10.4844 620 41.3984 180.465 438.713
2666 0 57.1064 10.7519 614 41.6792 180.689 437.762
2667 0 61.0555 10.9081 666 41.2943 180.144 434.584
2668 0 63.0441 11.3888 718 40.7242 180.159 435.217
2669 0 65.0305 11.5177 749 40.2003 180.988 434.944
2670 0 65.0986 11.2906 735 40.4354 181.336 432.781
2671 0 70.1093 10.8402 760 40.9039 180.73 430.474
2672 0 72.0276 11.5789 834 39.9712 180.73 431.793
2673 0 74.0509 11.5056 852 39.635 181.196 431.101
2674 0 78.0789 11.245 878 39.3554 181.027 430.452
2675 0 76.1259 11.3628 865 39.7919 181.536 427.814
2676 0 81.1239 12.031 976 39.0277 181.008 428.278
2677 0 84.1588 11.9179 1003 38.8764 181.693 426.65
2678 0 84.1768 10.9413 921 40.0771 181.229 424.707
2679 0 86.178 11.9404 1029 39.5656 180.892 423.095
2680 0 91.1709 11.4949 1048 39.3702 181.849 420.886
2681 0 90.1458 11.3705 1025 39.9971 181.084 419.869
2682 0 100.299 11.5854 1162 39.4854 180.954 419.318
2683 0 97.2423 11.0446 1074 39.9264 181.796 416.184
2684 0 105.058 12.0505 1266 38.8444 181.56 417.233
2685 0 104.179 11.0675 1153 39.9462 181.278 413.86
2686 0 112.191 11.9974 1346 39.0022 181.234 412.293
2687 0 114.172 11.7192 1338 39.1211 181.395 411.433
2688 0 115.213 10.9102 1257 40.2355 181.635 404.654
2689 1 61.0668 9.98906 610 40.7426 181.698 434.267
2690 0 65.0558 11.5747 753 39.0292 182.351 434.323
2691 0 67.115 10.5789 710 40.3084 180.899 431.366
2692 0 70.0396 10.5369 738 40.2967 181.28 430.657
2693 0 72.1237 10.6484 768 40.4401 181.195 428.439
2694 0 78.1645 11.399 891 39.1212 181.484 429.794
2695 0 79.1059 10.606 839 39.7473 181.716 425.473
2696 0 82.1356 10.9088 896 39.221 181.999 425.278
2697 0 84.0697 10.9552 921 39.6341 181.988 422.987
2698 0 84.1659 9.909 834 40.7626 182.278 421.728
2699 0 91.1194 10.9966 1002 40.1038 181.801 421.586
2700 0 93.1694 11.3235 1055 39.637 181.714 421.473
2701 0 94.2562 10.9489 1032 40.4845 181.887 417.378
2702 0 96.0757 10.5229 1011 41.0049 181.391 414.835
2703 0 101.176 10.6349 1076 40.6236 182.01 413.264
2704 0 104.101 11.1046 1156 40.5389 181.67 412.432
2705 1 55.0605 10.0617 554 40.5108 181.19 440.699
2706 0 56.0244 10.5668 592 40.6537 181.846 439.068
2707 0 58.0991 10.9468 636 42.2531 181.991 438.057
2708 0 63.0669 10.9566 691 41.5195 182.038 438.823
2709 0 61.1092 11.3895 696 42.3994 182.371 436.362
2710 0 63.0735 11.0982 700 42.29 182.489 435.757
2711 0 66.083 11.3494 750 41.768 182.977 435.491
2712 0 67.099 10.7751 723 42.5076 183.147 434.124
2713 0 71.0558 11.0758 787 42.4828 183.036 431.076
2714 0 73.0387 11.6651 852 42.1584 182.599 431.751
2715 0 72.0686 11.1144 801 42.9725 183.134 428.87
2716 0 78.0735 11.4764 896 42.0491 183.616 427.584
2717 0 78.0435 11.0067 859 42.8161 184.262 425.114
2718 0 83.0521 11.3062 939 42.9137 183.284 424.464
2719 0 86.1991 11.5198 993 42.4481 183.336 424.457
2720 0 91.0641 11.3876 1037 42.7589 183.363 423.439
2721 0 92.1046 11.2915 1040 43.4481 182.95 422.661
2722 0 93.1402 10.962 1021 44.0127 183.252 420.525
2723 0 99.2007 12.1673 1207 42.1226 183.911 422.973
2724 0 98.1085 11.6809 1146 43.7469 183.746 418.983
2725 1 50.0972 10.9787 550 44.6509 182.724 441.213
2726 0 55.1512 10.2083 563 44.8703 183.513 441.524
2727 0 56.2402 11.4687 645 44.3318 183.059 439.991
2728 0 55.2558 11.311 625 44.8928 183.016 436.578
2729 0 58.1377 11.5416 671 44.234 183.207 437.948
2730 0 63.1683 9.95753 629 45.1161 183.216 434.259
2731 0 60.0767 11.1191 668 45.0704 182.734 433.413
2732 0 63.0663 11.702 738 44.2276 182.741 433.215
2733 0 67.1272 11.3516 762 44.3084 182.593 433.272
2734 0 68.1337 11.404 777 44.0618 182.638 432.245
2735 0 70.0564 11.1624 782 44.4041 182.546 430.786
2736 0 74.0605 10.3159 764 44.4843 182.556 429.542
2737 0 76.0797 11.2119 853 44.1489 182.563 426.627
2738 0 80.0632 11.9406 956 43.0764 182.226 428.442
2739 0 79.2146 12.119 960 43.0281 182.73 428.334
2740 0 90.1527 11.8577 1069 43.1057 182.232 426.377
2741 0 88.1475 11.753 1036 43.4344 182.952 424.301
2742 0 88.1134 11.7576 1036 44.1062 182.869 422.525
2743 0 92.1159 11.7895 1086 44.3407 182.445 421.43
2744 0 98.1046 12.2522 1202 43.7396 182.592 423.173
2745 0 94.1617 12.0431 1134 44.6473 182.896 420.6
2746 0 97.0936 11.7618 1142 45.3695 182.706 418.239
2747 0 101.209 12.4495 1260 44.6286 182.805 417.545
2748 0 105.169 12.304 1294 44.6793 183.267 414.988
2749 0 106.175 11.952 1269 45.3483 182.792 412.078
2750 0 112.093 12.445 1395 44.3391 182.815 413.849
2751 0 117.055 12.3276 1443 44.5232 182.396 411.976
2752 0 118.164 12.3642 1461 45.0281 182.697 408.779
2753 0 122.136 12.5843 1537 44.9161 182.781 406.884
2754 0 125.145 12.2577 1534 45.3546 182.115 405.336
2755 0 131.273 12.5845 1652 45.0345 182.383 404.041
2756 0 130.119 11.9583 1556 46.0559 182.548 400.17
2757 0 138.229 12.7325 1760 45.2011 182.327 402.931
2758 1 72.0436 11.0072 793 46.4502 182.135 432.668
2759 0 74.0585 10.9103 808 46.5631 182.252 430.759
2760 0 78.0725 10.7464 839 46.5888 182.336 430.919
2761 0 80.139 10.8811 872 46.9794 181.789 429.928
2762 0 80.0682 11.0281 883 47.641 181.555 430.576
2763 0 83.1234 11.5371 959 46.8363 182.258 430.34
2764 0 84.0647 11.4079 959 47.2774 182.725 427.362
2765 0 86.0492 11.168 961 47.3403 182.6 428.263
2766 0 89.0977 11.5491 1029 46.6268 182.456 426.561
2767 0 89.1288 11.7695 1049 46.8294 182.576 425.467
2768 0 94.1584 11.8417 1115 46.6072 182.252 425.248
2769 0 97.1287 11.8091 1147 46.6443 182.575 422.744
2770 0 101.08 11.6047 1173 46.7664 182.346 422.146
2771 0 105.195 11.9778 1260 46.0087 182.275 420.944
2772 0 105.193 11.303 1189 47.1253 182.654 416.474
2773 0 108.127 11.505 1244 46.7532 182.85 415.42
2774 0 112.191 12.0598 1353 46.3659 182.563 413.696
2775 0 118.074 12.0264 1420 46.2704 182.128 411.968
2776 0 124.282 12.6406 1571 44.8364 182.643 411.936
2777 1 52.0475 10.7402 559 44.449 182.079 446.53
2778 0 52.0982 11.0177 574 44.7892 182.483 444.737
2779 0 53.1258 10.541 560 45.325 182.545 443.412
2780 0 54.0685 10.8566 587 45.2249 181.99 443.98
2781 0 55.1282 10.9019 601 44.807 182.567 443.717
2782 0 55.1908 10.8351 598 45.2609 182.217 441.676
2783 0 60.2186 11.6077 699 44.2446 182.235 441.658
2784 0 62.291 11.0931 691 45.2677 181.97 438.287
2785 0 62.1832 11.3857 708 44.8432 182.833 438.941
2786 0 63.0923 11.2375 709 45.4922 182.032 438.076
2787 0 68.0578 11.0935 755 45.3258 181.828 438.297
2788 0 73.0561 10.6493 778 45.0797 182.46 435.319
2789 0 71.0861 11.0429 785 44.949 182.906 434.959
2790 0 72.1662 10.9747 792 45.0455 182.842 435.221
2791 0 72.2047 11.6197 839 44.6651 183.346 434.667
2792 0 77.2192 11.7458 907 44.1775 183.202 433.469
2793 0 79.2634 11.3924 903 44.7386 182.781 432.919
2794 0 82.1789 10.7692 885 45.3186 182.374 430.688
2795 0 83.0687 11.4604 952 44.9727 182.236 428.554
2796 0 89.2209 11.7798 1051 43.8135 182.607 429.954
2797 0 86.1683 11.5356 994 45.4004 182.152 425.501
2798 0 95.3013 12.4028 1182 43.533 182.136 430.164
2799 0 95.2727 12.1021 1153 44.4978 182.294 425.99
2800 0 97.1703 11.557 1123 45.2449 181.958 423.988
2801 0 105.21 11.7859 1240 45.0427 182.299 420.982
2802 0 104.306 11.169 1165 46.115 182.064 420.497
2803 0 106.128 11.6841 1240 45.4137 182.282 420.88
2804 0 110.329 12.1002 1335 45.3318 181.93 419.038
2805 0 114.164 11.247 1284 46.2103 182.907 414.84
2806 1 60.1566 11.0046 662 45.7311 182.699 441.518
2807 0 60.2384 10.9067 657 46.8889 181.434 440.957
2808 0 64.3181 10.6657 686 46.8761 182.21 439.65
2809 0 63.1149 10.9324 690 47.371 182.238 438.316
2810 0 70.1806 11.0429 775 45.4903 182.948 439.952
2811 0 68.1518 11.1809 762 46.4055 182.815 437.206
2812 0 72.1562 11.5444 833 45.599 182.521 435.892
2813 0 76.1877 11.1041 846 46.0118 182.576 435.45
2814 0 75.1272 11.7002 879 45.6724 182.332 434.523
2815 0 80.4202 11.9 957 44.5496 182.585 434.94
2816 0 81.1106 11.0343 895 45.8972 182.466 431.365
2817 0 86.1658 11.5243 993 45.6113 181.986 430.789
2818 0 87.128 10.8346 944 45.6886 182.814 430.847
2819 0 90.0637 11.2365 1012 45.1304 183.135 429.198
2820 0 91.1999 11.6228 1060 45.034 183.17 428.877
2821 0 95.2617 10.7703 1026 46.2271 182.704 425.696
2822 1 190.334 11.443 2178 47.0193 182.531 379.227
2823 0 195.254 12.2712 2396 47.0388 182.462 376.317
2824 0 199.366 11.4563 2284 47.6953 182.554 372.906
2825 1 165.281 11.659 1927 46.0332 182.55 395.136
2826 0 160.271 11.0625 1773 46.9526 182.614 392.501
2827 0 163.272 11.1838 1826 47.4222 182.484 390.022
2828 0 171.282 12.2371 2096 46.156 182.084 388.38
2829 1 121.141 11.3917 1380 45.258 182.595 410.928
2830 0 123.214 11.6951 1441 44.7134 182.92 408.751
2831 1 65.1088 11.381 741 44.0931 182.239 438.12
2832 0 68.0715 10.9297 744 44.4395 182.297 436.519
2833 0 73.1337 11.1987 819 43.3358 182.371 435.366
2834 0 71.0716 11.1718 794 43.7972 182.136 433.203
2835 0 76.1076 10.9319 832 43.4147 182.537 431.99
2836 0 78.3377 11.4887 900 43.3911 182.068 430.778
2837 0 80.129 10.82 867 44.1995 181.837 428.456
2838 0 83.175 11.3496 944 43.3125 182.363 428.426
2839 0 88.1605 10.7531 948 43.7764 181.847 426.629
2840 0 90.3147 11.2496 1016 43.1329 182.449 426.825
2841 0 94.2031 11.4964 1083 42.8264 181.912 426.368
2842 0 94.2357 11.1847 1054 43.8586 182.084 422.959
2843 0 98.189 10.9483 1075 43.6819 182.076 423.011
2844 0 100.117 11.4466 1146 43.3508 182.154 422.606
2845 1 53.0224 10.1467 538 43.8383 181.454 443.056
2846 0 56.0608 11.2913 633 42.5055 181.578 443.498
2847 0 55.0692 10.7864 594 43.2323 181.71 442.716
2848 0 59.0666 10.7506 635 42.915 182.052 440.356
2849 0 62.0491 10.4917 651 43.8879 181.883 441.009
2850 0 60.0771 10.6863 642 44.352 181.481 438.944
2851 0 66.1412 11.0824 733 43.4911 181.868 438.602
2852 0 66.1329 10.8116 715 43.5483 182.256 436.662
2853 0 69.0599 11.1353 769 43.2068 182.533 435.172
2854 0 74.1008 10.3373 766 43.7402 182.27 434.033
2855 0 75.176 11.9054 895 42.5419 181.626 434.63
2856 0 78.0861 11.6666 911 43.0011 181.623 431.67
2857 0 81.0757 11.6928 948 42.6308 181.774 431.205
2858 0 86.2748 10.9997 949 42.5142 182.222 431.436
2859 0 86.1632 11.2461 969 43.032 182.406 428.23
2860 0 88.0928 11.2609 992 42.7399 182.136 426.962
2861 0 91.2493 11.2987 1031 42.9777 181.599 426.568
2862 0 93.2703 11.2469 1049 43.1382 181.657 423.869
2863 0 99.2576 10.8203 1074 43.3035 182.232 422.599
2864 0 101.255 10.6661 1080 43.6037 182.169 421.99
2865 1 53.1126 9.9788 530 43.0887 182.234 444.93
2866 0 57.1772 10.1089 578 42.5657 182.405 444.166
2867 0 54.0866 10.7605 582 42.5636 182.318 443.479
2868 0 58.2978 10.7551 627 42.1388 182.231 442.569
2869 0 62.1489 11.3598 706 40.9646 181.99 443.062
2870 0 61.1497 11.1693 683 41.0234 182.404 441.644
2871 0 65.2394 10.9136 712 40.9565 182.449 438.973
2872 0 71.1975 10.815 770 40.587 182.542 438.291
2873 0 69.0672 11.6843 807 39.2094 183.757 437.558
2874 0 68.0909 11.2056 763 40.3499 182.857 434.966
2875 0 74.1056 11.9964 889 38.9674 182.561 434.84
2876 0 77.0964 11.6348 897 38.621 182.963 432.983
2877 0 80.2199 12.017 964 38.4077 182.421 431.405
2878 0 85.2055 11.2082 955 38.2817 183.267 429.681
2879 0 84.2195 11.6363 980 38.2602 183.265 429.399
2880 0 85.333 11.4727 979 38.5781 182.945 426.761
2881 0 90.2476 10.9033 984 38.999 182.565 423.916
2882 0 94.1084 11.6355 1095 38.2128 182.364 424.964
2883 0 96.2418 11.8036 1136 37.9366 183.087 423.877
2884 0 96.0679 11.5647 1111 38.7048 182.313 420.773
2885 0 101.257 11.7522 1190 38.2588 182.861 419.71
2886 0 102.138 11.6117 1186 38.8988 183.054 416.981
2887 1 58.0769 10.0212 582 38.6323 182.325 440.924
2888 0 60.1159 10.1471 610 38.1361 182.534 440.151
2889 0 60.0412 10.3595 622 38.8537 182.704 439.286
2890 0 63.0656 10.1164 638 38.6034 182.616 436.071
2891 0 65.1121 11.365 740 38.05 182.496 435.038
2892 0 70.0783 11.6298 815 37.1804 181.816 437.283
2893 0 70.0667 10.4757 734 38.3188 182.151 433.587
2894 0 70.0565 11.0911 777 38.1467 182.019 432.192
2895 0 73.1518 11.0865 811 37.8237 181.721 431.377
2896 0 79.1792 11.4677 908 36.8172 182.078 432.003
2897 0 80.1343 11.2062 898 36.8764 182.912 428.658
2898 0 86.071 10.8747 936 36.8291 182.559 429.807
2899 0 88.1174 11.0988 978 36.2301 183.449 428.253
2900 0 88.0994 11.487 1012 36.3943 182.921 427.405
2901 0 94.2021 11.9424 1125 36.2364 182.634 422.939
2902 0 97.106 11.3587 1103 36.6274 183.012 422.084
2903 0 98.1511 11.2582 1105 36.943 182.992 421.75
2904 0 103.113 11.0462 1139 37.2572 182.093 420.31
2905 0 106.166 11.9813 1272 36.5943 182.761 419.779
2906 0 108.084 11.528 1246 37.0795 182.722 415.7
2907 0 114.154 11.0027 1256 37.6162 182.24 413.566
2908 1 58.0474 10.7326 623 37.6581 182.291 439.65
2909 0 62.1161 11.1243 691 37.4978 182.104 439.546
2910 0 63.1519 11.5911 732 36.9003 181.919 440.12
2911 0 68.2615 11.7929 805 36.6224 182.4 439.447
2912 0 70.0667 11.3321 794 37.4559 182.259 435.637
2913 0 69.061 11.7867 814 37.215 182.867 434.482
2914 0 73.0804 11.5079 841 37.3163 182.386 433.869
2915 0 75.0646 11.6033 871 36.9323 182.129 431.851
2916 0 80.2904 11.7324 942 36.5775 181.701 431.599
2917 0 82.173 11.7313 964 36.944 181.558 428.742
2918 0 82.15 11.9416 981 36.8502 182.362 426.195
2919 0 86.2215 11.3777 981 37.1009 183.464 424.838
2920 0 90.1452 11.3705 1025 37.1073 182.735 424.562
2921 0 93.1346 11.8323 1102 37.0998 182.492 423.013
2922 0 93.1308 11.704 1090 37.5138 182.845 421.797
2923 0 97.1244 11.8302 1149 37.7433 182.232 420.506
2924 0 101.116 11.3533 1148 38.2369 181.769 419.064
2925 0 101.122 12.302 1244 37.7452 182.178 417.805
2926 0 108.303 12.2988 1332 37.7042 181.635 417.004
2927 0 112.185 12.5329 1406 37.6287 181.809 415.018
2928 1 59.1793 11.0512 654 38.6177 181.846 440.893
2929 0 62.0971 11.2888 701 37.8488 182.078 441.916
2930 0 62.1059 11.1745 694 38.8184 181.568 439.153
2931 0 63.2599 11.5081 728 38.1607 182.694 436.38
2932 0 69.2493 12.1012 838 37.4869 181.575 436.068
2933 0 70.4304 12.0545 849 37.7244 181.594 435.673
2934 0 71.1984 11.0817 789 38.3904 182.134 432.236
2935 0 75.1232 11.4345 859 37.638 180.962 431.611
2936 0 76.1027 11.8787 904 37.3606 181.487 430.414
2937 0 78.1358 12.2479 957 37.2665 181.41 429.863
2938 0 83.1654 11.8318 984 37.4035 181.131 428.924
2939 0 81.1711 12.4675 1012 37.4575 181.923 427.727
2940 0 87.2325 12.0826 1054 37.4165 181.649 427.62
2941 0 86.1191 12.5524 1081 37.852 181.384 426.214
2942 0 90.2694 12.1857 1100 37.8318 182.011 424.242
2943 0 93.1488 13.2047 1230 37.4463 181.956 426.221
2944 0 93.1492 12.5068 1165 38.9107 180.773 420.07
2945 0 95.1479 12.3597 1176 38.7126 182.169 420.925
2946 0 100.286 12.963 1300 38.2123 182.216 420.248
2947 0 102.205 12.4456 1272 39.0401 182.252 418.104
2948 0 105.239 13.1415 1383 38.4396 182.624 417.863
2949 0 108.121 12.4398 1345 39.5784 182.2 413.403
2950 0 110.346 13.0862 1444 38.9543 182.614 414.237
2951 0 113.161 12.7694 1445 38.8201 183.114 413.156
2952 0 116.173 12.7138 1477 39.3494 182.375 411.087
2953 0 120.133 12.9523 1556 39.1009 182.233 409.529
2954 0 126.224 12.462 1573 39.4069 182.31 407.572
2955 0 129.201 12.9179 1669 39.3781 182.097 406.832
2956 1 65.1214 11.2252 731 40.7004 181.804 437.532
2957 0 70.1052 11.3258 794 40.9861 181.577 435.742
2958 0 73.0731 11.7143 856 40.7442 182.444 435.071
2959 0 71.0787 12.3384 877 41.6043 181.796 431.905
2960 0 74.0194 11.9698 886 41.9232 182.563 431.489
2961 0 77.1176 11.865 915 42.2328 181.75 430.514
2962 0 82.0607 11.5037 944 42.1695 181.711 430.918
2963 0 84.3583 12.0676 1018 41.8124 182.323 429.156
2964 0 84.2179 12.3608 1041 41.8204 182.091 427.736
2965 0 89.4987 11.8884 1064 42.2735 181.779 426.445
2966 0 94.3882 12.2791 1159 41.8611 181.756 426.024
2967 0 93.2672 12.1908 1137 42.5506 181.9 424.121
2968 0 97.3217 11.7343 1142 42.3389 182.25 425.579
2969 0 97.2532 11.321 1101 43.7738 182.002 420.803
2970 0 103.204 12.2185 1261 42.8937 181.843 420.659
2971 0 105.164 12.2951 1293 43.0155 182.295 418.405
2972 0 109.184 11.9248 1302 43.2496 182.504 417.247
2973 0 111.302 12.5874 1401 43.2334 182.425 414.971
2974 0 114.187 12.7686 1458 43.2867 182.641 413.027
2975 1 61.1897 11.3745 696 43.7098 182.534 438.207
2976 0 62.0726 11.4382 710 43.9718 182.459 439.482
2977 0 64.1257 11.7582 754 44.2334 182.228 437.883
2978 0 66.0476 12.1276 801 43.5643 182.528 439.042
2979 0 68.0676 11.5914 789 44.5234 182.281 436.821
2980 0 70.0787 11.801 827 44.8827 182.268 434.651
2981 0 74.1294 11.7093 868 44.7673 182.764 433.566
2982 0 75.0682 11.5362 866 44.9965 182.27 432.609
2983 0 77.0798 11.4686 884 45.336 182.331 431.607
2984 0 81.1067 11.7376 952 44.4055 182.733 431.036
2985 0 83.3689 11.707 976 44.1025 182.827 432.517
2986 0 86.175 12.3005 1060 43.8953 182.677 429.512
2987 0 88.1201 12.0404 1061 42.0481 182.317 427.986
2988 0 92.2657 12.5182 1155 41.1203 182.22 427.711
2989 0 92.2428 12.3045 1135 41.3119 182.847 424.587
2990 0 97.0974 12.7295 1236 41.11 182.074 423.951
2991 0 99.2475 11.7988 1171 41.9539 182.915 421.374
2992 0 102.363 12.2114 1250 41.4912 182.606 421.212
2993 0 106.111 11.8272 1255 42.5291 182.28 416.111
2994 0 110.115 12.3871 1364 41.816 182.361 418.308
2995 0 112.065 11.9663 1341 42.0917 182.735 415.36
2996 0 116.154 11.941 1387 41.8731 183.588 413.807
2997 0 122.27 12.1535 1486 41.5061 183.638 410.727
2998 0 124.226 12.4531 1547 41.2747 183.76 409.063
2999 0 127.229 11.7112 1490 41.7174 183.986 406.668
3000 0 130.243 12.2002 1589 41.4795 183.87 402.987
3001 0 138.161 12.2755 1696 40.6315 184.127 403.983
3002 0 144.32 12.2159 1763 40.8298 183.432 400.95
3003 0 147.299 12.4984 1841 40.2167 183.671 398.293
3004 1 75.2111 11.4478 861 41.0348 183.352 432.369
3005 0 77.0475 11.9407 920 40.4848 183.602 432.745
3006 0 80.1257 11.6817 936 40.8002 182.642 431.311
3007 0 85.0955 11.7633 1001 40.7373 182.336 430.268
3008 0 86.1741 11.7437 1012 40.7717 182.866 427.662
3009 0 86.1799 11.6965 1008 40.5913 183.358 426.773
3010 0 92.236 11.6657 1076 40.4312 183.133 424.943
3011 0 93.3023 11.5753 1080 40.8213 183.038 421.868
3012 0 97.2768 11.7808 1146 40.0515 183.946 421.015
3013 1 220.684 11.2695 2487 38.9099 183.754 375.251
3014 0 211.409 12.7383 2693 39.1073 184.091 365.792
3015 0 221.459 12.5531 2780 39.0824 184.404 360.723
3016 1 168.281 11.5581 1945 39.8062 183.532 386.028
3017 0 177.361 11.8797 2107 39.3099 183.302 386.241
3018 1 192.73 10.7819 2078 38.9591 183.379 387.32
3019 1 176.264 12.5153 2206 39.5952 184.09 380.434
3020 0 179.232 12.799 2294 39.0357 184.264 381.366
3021 1 142.478 11.328 1614 37.4901 183.689 412.729
3022 0 148.609 11.3115 1681 37.3278 184.029 409.669
3023 0 151.537 11.6209 1761 37.017 183.75 411.386
3024 0 157.54 11.2924 1779 38.0309 183.322 406.428
3025 0 164.552 11.5465 1900 37.7126 183.326 404.493
3026 1 148.193 12.0519 1786 39.9563 183.46 395.099
3027 1 162.532 11.8192 1921 37.8147 183.611 402.647
3028 0 162.408 11.0955 1802 38.525 183.476 400.985
3029 1 149.348 12.0591 1801 39.9578 183.407 393.491
3030 1 162.456 10.9076 1772 38.8121 183.588 398.535
3031 1 145.182 12.3087 1787 40.0755 183.862 390.93
3032 1 162.669 11.1453 1813 38.5014 183.191 401.741
3033 0 162.48 10.826 1759 38.5452 183.893 401.434
3034 1 147.184 12.5489 1847 39.1456 184.111 391.744
3035 1 162.414 11.1628 1813 38.2466 183.634 400.108
3036 0 163.359 11.5145 1881 37.4833 183.927 400.671
3037 1 147.319 12.0962 1782 39.1308 183.542 391.549
3038 0 146.23 12.2889 1797 38.6544 183.151 391.998
3039 0 146.382 12.201 1786 38.43 183.495 391.46
3040 1 101.355 11.3758 1153 35.4987 183.252 430.008
3041 0 104.342 11.376 1187 34.6992 184.121 431.616
3042 0 108.289 10.9429 1185 35.2346 183.981 426.374
3043 0 112.344 10.637 1195 36.0837 183.965 423.469
3044 0 114.624 11.2019 1284 35.0101 183.442 422.929
3045 0 121.242 11.7946 1430 34.1832 183.434 420.664
3046 0 122.244 11.5834 1416 34.5664 183.418 418.254
3047 0 126.367 14.2838 1805 32.872 183.061 417.771
3048 0 131.297 11.4854 1508 34.9589 183.158 413.784
3049 1 159.58 15.0708 2405 29.7568 182.852 421.326
3050 1 140.337 10.9023 1530 34.3059 183.688 410.537
3051 0 144.208 11.2823 1627 33.791 183.546 408.792
3052 0 149.229 10.6414 1588 34.6549 183.074 404.419
3053 0 152.428 11.2315 1712 34.3189 183.428 404.047
3054 0 158.377 11.1506 1766 33.513 183.481 402.467
3055 0 161.577 10.5151 1699 33.7969 183.981 398.783
3056 0 167.381 11.5724 1937 33.2808 183.865 398.24
3057 1 150.375 9.05072 1361 37.1117 183.735 383.52
3058 1 168.413 11.3768 1916 33.6435 183.172 395.455
3059 1 132.378 15.8864 2103 25.7765 183.339 440.779
3060 1 109.354 10.6992 1170 32.2462 183.614 424.503
3061 0 114.382 10.054 1150 31.513 184.697 425.164
3062 0 117.435 10.5506 1239 31.9895 183.423 422.294
3063 0 120.149 10.4787 1259 32.274 183.649 419.724
3064 1 145.976 16.4205 2397 25.7322 183.682 435.645
3065 1 124.406 10.723 1334 33.3471 183.35 415.391
3066 0 130.275 10.4241 1358 33.5663 183.814 413.82
3067 0 132.431 11.387 1508 32.9549 183.538 412.277
3068 0 136.434 11.0017 1501 32.8141 183.788 410.5
3069 0 142.608 10.6586 1520 33.0592 183.714 409.016
3070 0 144.428 10.6558 1539 33.1852 184.201 405.888
3071 0 147.466 11.4128 1683 32.9459 184.055 405.331
3072 0 151.432 10.3941 1574 34.0241 183.026 402.84
3073 1 183.356 15.3745 2819 29.2238 184.131 412.499
3074 1 161.566 11.3886 1840 34.8201 182.836 398.469
3075 0 167.442 11.3711 1904 33.5478 183.926 398.149
3076 0 170.684 11.4129 1948 33.6186 183.477 393.676
3077 0 174.477 10.9699 1914 33.7894 184.21 390.582
3078 0 180.822 11.2542 2035 33.9479 183.423 388.653
3079 0 183.426 10.6255 1949 34.1909 183.877 384.017
3080 0 188.685 10.7216 2023 34.3188 183.893 381.788
3081 0 193.415 10.661 2062 34.7241 183.527 378.002
3082 0 198.868 11.4096 2269 34.3715 183.874 378.796
3083 0 205.774 10.8712 2237 35.0876 184.026 374.118
3084 0 213.806 10.6031 2267 36.004 183.663 370.562
3085 1 170.296 9.94742 1694 36.9723 183.463 396.307
3086 0 176.601 10.3624 1830 37.1126 183.824 391.549
3087 0 179.59 10.9416 1965 37.0901 184.271 388.94
3088 0 185.512 11.4602 2126 36.7766 183.581 388.818
3089 0 188.312 10.9499 2062 37.6581 183.392 381.284
3090 0 195.298 10.8706 2123 37.0711 183.159 380.4
3091 0 202.805 11.3952 2311 36.0035 183.877 378.707
3092 0 209.481 11.624 2435 34.9343 184.798 375.032
3093 0 215.639 10.9952 2371 35.6731 184.371 370.642
3094 0 220.601 11.5322 2544 35.9634 184.744 367.132
3095 0 227.636 11.4349 2603 36.6005 183.74 363.231
3096 0 236.837 11.6451 2758 36.1719 183.883 362.109
3097 0 240.697 11.4127 2747 36.5344 183.927 356.703
3098 1 176.408 10.5948 1869 37.6998 184.106 389.88
3099 0 181.366 10.8124 1961 37.6864 184.306 383.974
3100 0 187.502 10.7892 2023 37.8127 183.937 382.719
3101 0 191.658 11.4214 2189 37.301 184.094 382.763
3102 0 197.628 11.3294 2239 37.6262 183.629 378.792
3103 0 205.397 11.3293 2327 37.648 183.338 374.154
3104 0 211.767 11.6213 2461 37.6717 183.46 371.936
3105 1 321.026 19.31 6199 30.3467 183.236 364.8
3106 1 223.42 11.2568 2515 37.7503 184.208 365.503
3107 0 229.541 11.6058 2664 37.5905 184.082 363.911
3108 0 234.636 11.5882 2719 37.4892 184.504 361.791
3109 0 242.835 10.991 2669 38.1858 184.383 354.879
3110 0 251.586 10.8909 2740 38.523 183.963 350.311
3111 1 6 8.5 51 13.0784 179.431 492.726
3112 0 12.0088 8.16071 98 25.3163 182.745 471.245
3113 0 11.0034 9.7243 107 25.486 182.561 469.019
3114 0 12.0216 7.73607 93 26.2366 183.172 470.796
3115 0 10.0128 8.68888 87 26.1724 182.678 469.897
3116 0 11.0002 8.09078 89 25.9888 183.247 471.225
3117 0 12.0031 7.99794 96 25.8229 182.51 470.271
3118 0 14.0447 8.47293 119 25.5714 182.412 468.412
3119 0 10.0046 9.49567 95 26.1789 182.505 467.968
3120 0 8.03298 14.067 113 13.1327 178.327 490.451
3121 0 14.0372 6.76774 95 26.5684 182.979 468.905
3122 0 11.0111 8.62766 95 26.6 183.095 469.358
3123 0 10.0066 9.59365 96 26.4583 183.031 470.51
3124 0 11.0016 8.81692 97 26.7113 182.711 469.866
3125 0 12.0536 7.46665 90 27.2 183.811 470.111
3126 0 12.0353 8.72436 105 26.5524 182.981 470.676
3127 0 10.0007 9.19934 92 26.8587 183.141 471.967
3128 0 12.0043 7.99712 96 26.7396 182.375 471.708
3129 0 12.0008 8.49946 102 26.7745 182.824 469.824
3130 0 14.0093 7.495 105 26.781 182.39 469.6
3131 0 12.0352 8.22584 99 27.3636 182.99 469.737
3132 0 13.036 8.6683 113 26.646 182.46 469.009
3133 0 11.586 5.17867 60 13.1667 173.783 492.8
3134 0 15.001 7.26617 109 27.1651 182.358 470.514
3135 0 11.0033 8.27027 91 27.6593 181.802 471.901
3136 0 13.0206 8.67856 113 27.1593 182.46 471.159
3137 0 12.0043 9.24666 111 27.1261 182.82 472.784
3138 0 11.0146 8.71571 96 28.0521 182.625 472.604
3139 0 13.0008 8.99944 117 27.6838 182.248 471.538
3140 0 12.0018 8.24875 99 28.7172 181.939 471.929
3141 0 13.0185 7.98864 104 28.4519 182.346 471.712
3142 0 13.0028 9.30567 121 27.7686 182.57 471.95
3143 0 14.0094 8.28016 116 28.4397 182.509 471.483
3144 0 16.0035 7.74829 124 28.5968 181.992 471.081
3145 0 13.0163 9.91063 129 28.1085 181.822 470.279
3146 0 13.0029 8.53657 111 29.018 182.315 471.036
3147 0 16.0101 7.99497 128 28.5 182.023 469.195
3148 0 13.0041 9.22787 120 29.2333 181.383 471.325
3149 0 17.0578 8.50053 145 29.3793 181.559 468.959
3150 0 13.0006 9.46113 123 30.2764 181.35 468.911
3151 0 14.0534 9.46388 133 30.3835 182.015 469.346
3152 0 18.0066 8.21923 148 30.1419 181.73 470.135
3153 0 18.029 8.48632 153 29.5556 182.431 470.843
3154 0 17.0474 8.44702 144 29.5625 182.215 469.021
3155 0 20.0341 8.53544 171 28.9825 182.368 470.117
3156 0 19.017 8.83421 168 29.5655 182.47 469.119
3157 0 20.1509 8.58524 173 30.0173 182.237 470.139
3158 0 17.1113 9.11677 156 30.532 182.801 470.244
3159 0 20.1784 9.06911 183 30.1803 181.989 469.59
3160 0 19.0093 8.89037 169 30.1716 182.343 472.077
3161 0 19.0397 8.92873 170 30.7471 182.394 469.959
3162 0 18.0077 9.32933 168 31.006 182.649 470.423
3163 0 19.2039 9.321 179 31.2179 182.346 469.162
3164 0 19.0161 9.2553 176 30.8011 182.409 469.727
3165 0 19.0452 9.45122 180 31.4222 182.133 469.606
3166 0 21.2274 8.85649 188 31.5585 181.915 469.149
3167 0 21.1473 8.60628 182 31.2143 183.121 468.637
3168 0 22.3241 9.1829 205 31.4049 182.698 467.995
3169 0 19.2911 9.01972 174 32.046 182.253 468.529
3170 0 19.1817 8.8105 169 31.3254 182.414 468.574
3171 0 19.204 8.38368 161 31.472 182.901 468.627
3172 0 19.3339 8.53425 165 31.5212 182.964 470.176
3173 0 19.2376 9.09677 175 30.8171 182.571 469.674
3174 0 20.2189 8.35851 169 31.3432 182.645 468.746
3175 0 20.2921 9.2647 188 31.2021 181.84 468.085
3176 0 20.2669 8.78279 178 31.6798 181.871 469.011
3177 0 20.0242 8.63954 173 31.8092 181.89 469.861
3178 0 20.1919 8.8154 178 31.4888 181.753 470.011
3179 0 21.1454 9.22186 195 32.1333 181.159 469.154
3180 0 19.0506 8.50366 162 33.6605 180.981 468.136
3181 0 20.2602 8.98311 182 32.4066 180.626 469.319
3182 0 20.2347 9.04388 183 32.4809 180.967 470.06
3183 0 20.2096 8.75823 177 32.9209 180.723 470.079
3184 0 21.193 9.24833 196 32.1122 180.974 470.046
3185 0 19.2962 8.34362 161 33.4162 180.882 468.72
3186 0 20.0662 9.36898 188 32.2447 180.681 468.66
3187 0 22.2841 8.48137 189 32.1534 181.011 470.053
3188 0 21.2889 8.83088 188 33.0372 180.09 467.144
3189 0 22.1207 9.35776 207 32.5314 180.343 469.343
3190 0 21.0288 10.0814 212 32.4575 180.33 468.462
3191 0 21.1856 9.77077 207 32.4106 180.763 468.425
3192 0 21.2116 9.85311 209 32.4306 181.301 468.431
3193 0 22.1762 8.56774 190 32.9158 181.258 467.763
3194 0 23.3074 9.95393 232 32.5086 181.116 469.306
3195 0 23.091 8.96454 207 32.2367 180.768 468.874
3196 0 19.1847 8.86123 170 29.8765 181.118 470.871
3197 0 18.1315 8.54865 155 30.9935 181.91 470.174
3198 0 21.1512 8.88838 188 29.9096 180.553 470.133
3199 0 23.1383 8.64368 200 29.46 180.5 469.865
3200 0 20.121 9.29378 187 29.5829 180.995 469.551
3201 0 18.0441 10.1972 184 30.0707 180.38 470.212
3202 0 22.2852 8.122 181 29.7182 181.315 469.917
3203 0 21.074 8.39897 177 30.017 180.983 469.254
3204 0 22.0757 9.42212 208 28.8413 181.495 470.096
3205 0 20.1523 8.83275 178 29.4831 180.854 469.073
3206 0 22.111 9.22618 204 28.4314 181.142 470.471
3207 0 22.1945 8.96617 199 29.0402 181.136 469.799
3208 0 22.0303 10.2586 226 28.2301 180.181 469.982
3209 0 20.0809 9.31232 187 28.6203 179.952 470.856
3210 0 21.1236 9.27874 196 28.4592 180.485 470.189
3211 0 22.0809 8.24243 182 28.5879 180.527 469.313
3212 0 19.1292 9.30514 178 29.0674 180.281 469.444
3213 0 21.1412 8.84527 187 28.7647 179.663 469.733
3214 0 20.1872 9.65958 195 28.2564 180.472 468.272
3215 0 23.0355 8.76909 202 28.0148 180.322 467.812
3216 0 20.1133 9.74479 196 27.8418 179.653 468.602
3217 0 23.0932 9.13688 211 27.6446 180.573 467.848
3218 0 21.1166 8.76088 185 28.2919 179.519 469.097
3219 0 23.2079 9.39334 218 27.078 180.193 467.239
3220 0 22.1036 8.14349 180 27.7722 180.544 468.078
3221 0 19.0107 8.99494 171 27.924 179.649 467.807
3222 0 22.0106 8.45048 186 27.5914 180.156 466.758
3223 0 20.1396 8.29213 167 27.4731 180.515 468.066
3224 0 21.1699 9.16394 194 27.0464 180.01 468.299
3225 0 22.0972 8.86992 196 26.6429 180.296 468.679
3226 0 20.1182 9.19565 185 26.6 180.492 468.703
