time division length width area intensity CMx CMy
1203 0 60.1259 11.5757 696 44.8822 693.808 368.619
1204 0 63.1546 11.3214 715 45.393 693.692 366.973
1205 0 67.1354 11.2459 755 45.0636 692.956 368.122
1206 0 70.2072 10.9818 771 45.3735 693.835 369.292
1207 0 72.1225 11.2448 811 45.2922 693.726 367.556
1208 1 230.286 10.1483 2337 42.6568 693.652 337.716
1209 1 125.467 10.9431 1373 46.7684 693.453 346.345
1210 1 36.4107 17.2477 628 12.3487 689.809 443.752
1211 0 38.1787 10.1627 388 44.8299 693.459 387.119
1212 0 36.0588 10.5938 382 44.8325 693.542 386.304
1213 0 38.0484 10.145 386 44.7124 693.386 385.813
1214 0 45.5334 13.6383 621 12.3366 688.768 445.506
1215 0 44.0499 9.73895 429 44.1562 694.252 383.83
1216 0 44.1937 11.0197 487 42.8563 694.17 385.158
1217 0 44.1285 10.968 484 43.0413 693.647 385.254
1218 0 47.1206 10.7172 505 42.8554 694.436 384.232
1219 0 50.147 9.93081 498 43.1968 694.05 381.514
1220 0 50.1395 11.1489 559 42.0698 693.798 381.089
1221 0 50.1143 10.5958 531 43.2712 694.045 381.369
1222 0 52.3918 11.4903 602 42.4003 693.694 380.444
1223 0 55.0622 10.697 589 42.9202 694.209 379.652
1224 0 55.1565 11.0232 608 43.1283 692.785 378.625
1225 0 59.1429 11.0072 651 42.6621 692.825 377.909
1226 1 94.4878 9.48271 896 38.0402 693.72 383.629
1227 1 62.1297 11.0736 688 42.9026 693.368 375.975
1228 0 64.1176 10.8395 695 43.2676 693.163 375.567
1229 0 65.2522 10.9268 713 43.8331 693.846 375.123
1230 0 71.1952 10.8294 771 43.5318 693.842 373.495
1231 0 72.1739 10.8349 782 43.89 693.592 370.826
1232 0 73.1799 10.317 755 45.1258 693.422 369.127
1233 0 75.289 10.4929 790 45.5772 693.794 370.38
1234 0 80.1432 10.1818 816 45.8909 694.235 369.457
1235 0 81.1868 10.8392 880 45.7034 694.203 367.141
1236 0 85.116 10.3036 877 46.8187 693.676 365.928
1237 0 90.18 10.5788 954 46.0189 694.173 366.91
1238 0 89.3012 10.5934 946 47 693.722 363.894
1239 0 91.1349 10.3802 946 47.6046 693.978 362.042
1240 0 101.915 5.92653 604 42.5331 693.238 389.119
1241 1 54.1008 9.87046 534 45.7416 693.978 381.547
1242 0 52.1488 10.4509 545 46.0789 694.306 381.606
1243 0 53.1032 10.3007 547 45.8099 693.848 379.905
1244 0 56.1124 10.4433 586 45.8601 694.09 376.742
1245 0 60.1026 10.0994 607 46.0198 693.372 378.997
1246 1 87.823 10.4073 914 39.0098 694.918 382.515
1247 1 61.1212 10.291 629 45.3227 695.1 375.55
1248 0 65.1114 10.7815 702 44.1937 695.574 373.775
1249 0 66.0928 10.3793 686 44.7813 695.363 371.652
1250 0 68.0442 10.7283 730 44.0288 695.377 368.784
1251 0 71.0986 10.3518 736 44.7079 694.871 367.571
1252 0 74.1611 10.8008 801 44.0212 694.91 366.094
1253 0 79.137 10.4502 827 44.2116 695.22 364.316
1254 1 38.1534 10.0908 385 44.9039 695.356 382.605
1255 0 40.0473 10.5126 421 44.9834 694.988 382.259
1256 0 41.0926 10.1965 419 45.5251 694.456 380.547
1257 0 47.0716 9.89982 466 44.6781 695.009 380.367
1258 0 46.1904 10.7165 495 44.5535 694.96 378.869
1259 0 47.0922 10.4901 494 44.7328 695.144 377.628
1260 0 50.213 10.7741 541 44.0573 695.137 376.872
1261 0 51.0883 10.4525 534 44.9625 694.949 376.36
1262 0 54.2021 10.6085 575 44.84 695.078 376.572
1263 0 54.1538 10.821 586 45.314 694.55 374.826
1264 0 57.2301 10.2918 589 45.5874 694.087 373.604
1265 1 93.8356 9.88964 928 39.5506 693.874 377.919
1266 1 62.0852 11.146 692 44.1792 694.851 372.312
1267 0 60.0977 10.9322 657 45.6256 695.011 370.132
1268 0 64.1222 11.4157 732 44.9153 694.52 370.817
1269 0 66.1268 10.7218 709 45.5571 694.474 366.824
1270 0 67.0683 11.0633 742 45.7035 694.368 368.582
1271 0 70.047 11.1925 784 45.4094 693.968 365.207
1272 0 74.1195 10.7664 798 45.0226 693.702 365.35
1273 1 115.336 10.8205 1248 37.8357 694.578 372.659
1274 1 78.2533 10.6066 830 45.5217 694.451 363.78
1275 0 81.1538 10.5725 858 45.7121 694.034 360.493
1276 0 82.0235 10.7896 885 45.9966 694.772 360.209
1277 0 83.0964 10.8308 900 46.3567 694.551 357.693
1278 0 86.0916 10.6166 914 46.8501 694.844 357.236
1279 1 72.2925 8.4656 612 12.5245 690.087 447.954
1280 0 73.216 9.01443 660 40.2061 695.091 386.491
1281 1 0 0 0 -nan -nan -nan
1282 0 0 0 0 -nan -nan -nan
1283 0 0 0 0 -nan -nan -nan
1284 0 0 0 0 -nan -nan -nan
1285 1 10.9441 13.2492 145 13.1793 692.083 421.062
1286 1 0 0 0 -nan -nan -nan
1287 0 24.7118 14.1633 350 12.6514 695.006 435.706
1288 1 58.0884 10.1053 587 49.9114 693.627 370.882
1289 0 59.0913 10.8138 639 49.0266 693.024 370.742
1290 0 60.051 11.4902 690 48.3493 694.042 371.18
1291 0 62.1054 10.4983 652 49.566 694.187 369.699
1292 0 65.0844 11.1087 723 48.7455 693.528 368.021
1293 0 65.1407 11.3907 742 48.279 694.181 366.384
1294 0 68.0857 11.4708 781 48.5096 694.289 366.708
1295 0 70.0741 11.2167 786 48.869 695.053 364.91
1296 1 128.476 7.90033 1015 44.7251 694.534 370.191
1297 1 0 0 0 -nan -nan -nan
1298 0 0 0 0 -nan -nan -nan
1299 0 16.5616 8.51366 141 13.4752 693.511 422.376
1300 0 0 0 0 -nan -nan -nan
1301 0 0 0 0 -nan -nan -nan
1302 1 47.087 10.3426 487 48.9528 694.602 379.349
1303 0 47.0776 10.5146 495 49.6626 695 376.105
1304 0 49.0946 10.7344 527 49.5085 694.679 374.776
1305 0 52.0672 11.005 573 48.9145 694.668 372.843
1306 0 53.0362 10.6719 566 48.9947 694.058 372.868
1307 0 55.0353 10.6114 584 49.3801 693.998 371.236
1308 0 57.1136 10.9956 628 48.7102 694.371 371.36
1309 0 60.0229 11.0624 664 48.5075 693.212 370.958
1310 0 63.0353 11.3746 717 48.2496 694.031 369.285
1311 0 64.0503 11.2099 718 48.7674 693.728 366.521
1312 0 64.0235 10.418 667 49.4933 694.546 365.826
1313 0 67.0555 11.3041 758 48.2124 694.877 366.132
1314 0 72.0852 11.5835 835 47.1222 694.547 365.345
1315 0 73.1542 11.3596 831 47.5451 694.579 363.59
1316 0 76.1089 11.7595 895 47.0022 694.584 363.303
1317 0 80.059 11.3916 912 47.0789 694.73 361.353
1318 0 81.0504 11.5114 933 47.3194 694.084 358.106
1319 0 84.1035 11.1886 941 47.6068 693.58 358.411
1320 0 88.1405 10.9484 965 47.5793 694.297 357.208
1321 0 91.139 11.5757 1055 46.9071 694.029 355.971
1322 0 93.1454 11.5196 1073 47.2404 693.913 353.88
1323 0 97.1588 11.8775 1154 46.3328 693.428 353.052
1324 0 99.129 11.5809 1148 47.0366 694.158 351.452
1325 0 104.139 12.0128 1251 46.2214 693.319 348.341
1326 0 106.158 11.1061 1179 47.4529 693.332 345.883
1327 0 111.091 11.36 1262 47.4097 693.039 344.235
1328 0 115.115 12.57 1447 45.4851 693.141 346.229
1329 0 114.134 10.9695 1252 47.6366 693.227 340.982
1330 0 121.091 12.3709 1498 45.982 693.507 341.794
1331 1 93.0595 9.43482 878 41.6993 693.522 374.721
1332 1 61.136 11.4499 700 45.3514 694.009 369.139
1333 0 61.0924 12.0801 738 45.3862 693.927 370.34
1334 0 62.116 11.8005 733 45.8731 693.896 366.876
1335 0 64.0536 11.4748 735 46.0027 694.124 366.867
1336 0 70.111 11.3819 798 45.4223 694.055 365.68
1337 0 70.1094 11.696 820 45.3146 693.538 364.444
1338 0 73.0826 11.6717 853 45.1419 693.804 363.333
1339 1 210.435 5.45535 1148 39.0139 692.803 383.003
1340 1 78.1255 11.7759 920 44.8663 693.818 359.528
1341 0 81.079 12.1116 982 44.6986 694.138 359.571
1342 0 84.0691 11.7879 991 45.003 694.228 357.448
1343 0 86.0298 11.8564 1020 44.8353 695.043 355.536
1344 0 91.1027 11.4157 1040 45.4202 694.524 353.288
1345 0 92.1086 11.975 1103 45.1442 694.457 353.222
1346 0 95.145 11.3721 1082 46.0786 694.411 352.01
1347 0 99.0666 11.9314 1182 45.5025 695.822 347.992
1348 0 101.124 12.0248 1216 45.4934 694.685 349.019
1349 0 108.535 6.56013 712 41.264 695.102 379.941
1350 1 55.04 11.1919 616 45.0244 694.382 371.7
1351 0 54.0221 11.4583 619 45.462 694.552 371.532
1352 0 58.0302 11.7697 683 44.4319 694.712 371.016
1353 0 60.0296 11.411 685 44.8146 694.556 369.655
1354 0 61.0665 11.6103 709 44.8195 694.02 368.378
1355 0 67.0758 11.0472 741 44.3252 693.626 368.368
1356 1 116.629 8.65997 1010 39.0545 693.034 376.196
1357 1 76.1206 11.2716 858 43.4464 694.424 364.677
1358 1 96.3654 11.7054 1128 38.5204 694.104 369.059
1359 1 74.1335 11.7221 869 43.1956 694.795 363.132
1360 0 75.0664 11.8562 890 43.2685 694.599 362.824
1361 0 77.1728 11.3641 877 43.9225 694.448 362.495
1362 0 80.2146 11.382 913 43.8401 694.641 360.726
1363 0 85.136 12.157 1035 42.8338 694.156 361.648
1364 0 89.0946 11.5158 1026 43.5585 693.761 358.881
1365 0 97.307 11.027 1073 44.2153 693.226 356.001
1366 1 43.0472 11.1273 479 42.8413 693.094 377.144
1367 0 46.018 10.4742 482 43.1245 693.863 375.919
1368 0 48.0618 10.0288 482 43.5 694.647 376.021
1369 0 56.2926 10.8718 612 12.3546 691.538 441.842
1370 0 47.0246 10.016 471 44.7028 694.032 372.909
1371 1 90.8845 9.92468 902 34.3647 695.573 386.19
1372 1 48.0222 10.2869 494 44.9069 694.488 371.587
1373 0 57.0326 11.1866 638 42.3981 694.486 371.978
1374 0 54.0624 11.0058 595 43.6992 694.45 371.192
1375 0 56.0709 11.7708 660 42.8515 694.579 371.756
1376 0 61.0577 11.4318 698 42.6619 694.564 369.501
1377 0 58.0365 11.51 668 43.3862 694.139 368.13
1378 0 63.0359 11.7393 740 42.4838 694.422 367.893
1379 0 68.0689 11.3268 771 42.3061 694.872 366.42
1380 0 67.1023 11.8327 794 41.8375 694.455 368.089
1381 0 71.1456 11.2305 799 42.204 694.24 365.905
1382 0 71.0569 12.1452 863 41.4994 694.577 365.241
1383 0 78.161 11.2716 881 41.3496 694.524 362.587
1384 0 79.1372 11.1073 879 41.7634 694.412 362.681
1385 0 79.2984 10.719 850 41.4682 693.895 359.411
1386 1 44.1195 9.51959 420 41.3452 693.91 378.217
1387 0 43.047 10.0356 432 41.7384 694.167 377.41
1388 0 45.0595 9.78706 441 41.9819 695.154 375.923
1389 0 51.9823 11.4847 597 12.3199 691.461 440.052
1390 1 137.531 10.6449 1464 45.0191 694.189 331.35
1391 0 144.336 11.3901 1644 43.8698 694.937 330.377
1392 0 149.324 11.4382 1708 44.0316 694.058 328.627
1393 0 150.268 10.2018 1533 45.8611 694.836 322.725
1394 0 155.286 12.3514 1918 43.8279 694.4 325.308
1395 0 160.253 11.1387 1785 45.3507 695.022 321.96
1396 1 195.763 15.4881 3032 36.9908 693.684 335.768
1397 1 56.1281 10.672 599 45.4691 694.982 369.105
1398 0 60.0742 11.6855 702 44.0071 694.795 369.65
1399 0 64.0477 11.507 737 43.5427 694.659 367.094
1400 0 66.1999 10.8006 715 44.4448 695.316 365.888
1401 0 65.0889 11.2308 731 44.9959 694.577 364.473
1402 0 70.0462 11.2925 791 44.6043 694.665 364.64
1403 0 73.0705 10.702 782 44.8504 695.152 363.106
1404 0 76.1292 10.9288 832 44.6851 694.17 362.411
1405 0 76.1145 11.2594 857 45.0583 694.15 360.173
1406 0 80.0849 11.4628 918 44.6253 694.443 359.592
1407 0 89.5186 5.60778 502 39.51 693.578 385.717
1408 1 39.037 10.1442 396 44.8005 694.573 378.662
1409 0 42.1053 10.4025 438 44.1005 696.331 376.884
1410 1 78.8558 37.1437 2929 21.0591 692.827 385.409
1411 1 49.5229 17.9311 888 33.0417 692.796 369.824
1412 0 49.9531 18.3172 915 32.777 692.461 370.095
1413 1 94.6177 8.0429 761 36.4507 695.518 385.565
1414 1 52.1706 10.4848 547 43.0512 696.285 373.353
1415 0 49.0591 10.4568 513 44.076 695.965 372.943
1416 0 51.1133 11.1713 571 43.1138 695.849 372.548
1417 0 56.0999 11.0874 622 42.2878 695.77 371.743
1418 1 87.6522 9.18402 805 38.4571 695.866 375.019
1419 1 56.1297 23.9267 1343 31.9933 694.249 363.026
1420 0 57.0926 24.399 1393 31.3058 693.709 362.833
1421 1 24.8734 12.4229 309 12.4401 689.485 432.819
1422 0 0 0 0 -nan -nan -nan
1423 1 8.00986 8.61438 69 13.029 686.145 423.986
1424 1 139.245 11.2607 1568 44.9662 694.824 329.663
1425 0 142.318 11.5305 1641 44.8007 695.08 327.784
1426 0 147.6 12.019 1774 44.4825 695.308 325.831
1427 0 153.429 11.7579 1804 44.9717 695.022 324.678
1428 0 163.23 10.8558 1772 38.7207 695.373 354.91
1429 1 120.238 10.3295 1242 45.8527 695.418 340.454
1430 0 120.31 10.34 1244 46.4847 694.808 339.275
1431 0 119.137 10.1816 1213 46.3891 695.148 339.754
1432 0 121.931 12.3758 1509 36.8993 694.734 364.663
1433 1 90.0811 10.9457 986 43.6572 695.466 354.516
1434 0 95.1801 11.7777 1121 42.7672 694.486 355.961
1435 1 45.037 10.5025 473 42.2981 694.22 378.076
1436 0 48.0859 9.91974 477 42.4025 694.742 375.172
1437 0 49.0334 10.809 530 41.8132 694.083 376.185
1438 0 48.0538 10.9044 524 42.4561 695.052 374.431
1439 0 52.0897 11.0386 575 41.7757 694.908 373.85
1440 0 55.1006 10.3266 569 42.4657 694.944 374.599
1441 0 56.0853 10.2166 573 42.5602 695.197 373.058
1442 1 90.3373 9.22099 833 37.988 694.624 375.474
1443 1 58.1367 10.3893 604 42.8907 694.869 370.54
1444 0 57.1632 10.9336 625 42.2736 694.926 369.379
1445 0 63.0594 11.3544 716 41.0964 695.039 369.202
1446 0 61.1042 11.6359 711 41.5007 694.969 368.329
1447 0 62.1584 11.6155 722 41.7008 694.53 366.519
1448 0 64.1616 11.1126 713 42.0968 694.773 365.314
1449 0 66.071 10.9125 721 42.3717 695.006 365.552
1450 0 69.1061 11.3159 782 41.7941 695.446 364.779
1451 0 73.1436 10.8143 791 42.0417 694.847 363.614
1452 0 73.0787 11.6313 850 41.3212 695.188 363.812
1453 1 164.268 6.74506 1108 37.2175 693.943 372.382
1454 1 76.2189 11.3226 863 41.9699 695.239 357.839
1455 1 39.0231 11.0447 431 41.2529 695.213 380.698
1456 0 38.0626 9.37927 357 43.4286 695.137 377.807
1457 0 41.0373 10.4539 429 42.0909 694.653 379.501
1458 0 39.0277 10.531 411 43.0487 695.178 377.11
1459 0 41.0441 9.76997 401 43.606 695.027 376.02
1460 0 46.0148 10.3445 476 42.4517 694.185 377.532
1461 0 48.0247 10.7653 517 42.4971 694.632 377.205
1462 0 47.0611 11.3257 533 42.3302 694.878 376.355
1463 1 86.3967 8.65774 748 37.4692 695.44 383.104
1464 1 50.1207 11.1331 558 42.4731 695.013 373.74
1465 0 51.1346 11.5382 590 42.5254 694.976 373.166
1466 0 51.0977 11.7031 598 42.7291 694.828 373.607
1467 0 55.046 11.3178 623 42.6453 694.889 373.299
1468 0 56.0861 11.2327 630 42.6762 694.792 372.208
1469 0 54.0359 10.6411 575 43.8261 694.244 369.475
1470 0 59.0357 11.4676 677 42.7326 694.128 371.518
1471 0 60.0293 10.928 656 43.3598 694.463 369.355
1472 1 17.3701 12.6078 219 12.7945 687.32 430.119
1473 1 0 0 0 -nan -nan -nan
1474 1 42.9182 13.4442 577 12.3414 692.341 442.187
1475 1 67.2365 11.1993 753 43.1076 695.032 366.06
1476 1 108.332 10.6432 1153 37.2697 695.109 372.959
1477 1 38.0453 9.59382 365 44.137 695.315 377.726
1478 0 40.0607 10.0348 402 44.1493 694.711 379.522
1479 0 39.0881 8.51922 333 45.1532 694.664 379.021
1480 1 74.4506 8.50229 633 36.4502 695.802 390.739
1481 1 40.0944 10.0014 401 44.6534 694.516 380.055
1482 0 40.0797 10.6039 425 45.2376 694.536 380.301
1483 0 41.1374 10.3312 425 46.0376 694.388 378.798
1484 0 43.0969 10.4648 451 45.8559 694.348 377.758
1485 0 44.0668 11.0514 487 45.7248 694.7 376.897
1486 0 43.0988 10.5339 454 46.8855 694.828 375.251
1487 0 44.1174 11.0387 487 46.7598 694.577 375.392
1488 0 45.0496 10.9879 495 46.699 694.493 374.883
1489 0 51.1515 11.3193 579 45.2556 694.915 376.77
1490 0 52.0273 10.6867 556 45.9065 694.612 374.691
1491 0 51.0618 11.3196 578 46.263 694.73 374.151
1492 0 51.0422 10.8342 553 46.6546 695.156 374.199
1493 0 58.0367 10.9241 634 45.817 694.931 373.188
1494 0 58.0727 11.3478 659 45.519 694.747 370.334
1495 1 110.199 7.92201 873 41.3975 694.306 375.883
1496 1 61.1944 11.6187 711 45.2771 694.729 370.318
1497 0 64.0867 11.7341 752 44.9455 694.269 370.411
1498 0 65.0867 10.5091 684 46.1404 694.978 369.007
1499 0 68.1325 12.0794 823 44.4957 694.46 369.497
1500 0 70.0332 11.7944 826 45.2107 693.74 366.984
1501 0 71.1052 11.0822 788 46.2703 693.746 365.746
1502 0 74.1947 10.8903 808 46.4035 694.309 365.848
1503 0 73.1268 10.8168 791 47.1681 694.558 363.928
1504 0 78.1506 12.6551 989 45.2912 694.622 365.889
1505 1 78.1508 7.76703 607 42.1895 694.872 386.529
1506 1 41.0897 10.0268 412 49.1141 694.432 380.75
1507 0 42.0529 10.5343 443 49.1061 694.384 381.833
1508 0 43.0439 10.9655 472 49.1589 694.246 378.992
1509 0 44.1378 11.3055 499 48.9719 694.637 380.651
1510 0 47.0665 11.8556 558 48.3566 694.937 380.52
1511 0 47.1375 10.9891 518 50.3263 693.591 377.934
1512 0 48.0962 10.6453 512 51.5977 693.287 376.625
1513 0 52.1945 10.3842 542 50.9594 693.714 375.806
1514 0 52.0483 11.5085 599 50.5259 693.975 376.614
1515 0 56.0775 12.0548 676 49.4334 693.957 377.033
1516 0 56.0486 11.6149 651 50.6713 693.547 375.224
1517 0 58.0327 10.6319 617 51.9757 693.971 373.442
1518 0 62.0769 11.3569 705 50.9773 694.035 373.454
1519 0 62.0854 11.5808 719 51.0306 693.572 372.362
1520 0 63.1181 12.1835 769 51.1105 693.493 371.653
1521 0 67.203 11.3239 761 51.9737 693.901 370.271
1522 0 67.1073 11.4444 768 52.1146 694.151 368.951
1523 0 72.1897 11.0542 798 52.5439 693.56 367.203
1524 0 74.1091 11.1457 826 52.4455 694.052 367.782
1525 0 76.1223 11.4027 868 52.8422 693.599 366.376
1526 0 77.1496 10.2528 791 54.4855 693.929 362.717
1527 0 83.0916 11.734 975 52.1754 693.566 365.275
1528 0 82.1875 11.924 980 52.6755 693.391 364.245
1529 0 85.146 11.1338 948 53.4599 693.553 361.888
1530 1 42.0671 11.1726 470 52.7681 693.362 381.66
1531 0 41.1083 10.4359 429 54.345 692.907 382.671
1532 0 47.0883 10.7882 508 52.2461 693.321 379.628
1533 0 45.0504 10.4772 472 53.3835 693.994 377.875
1534 0 49.1786 10.0044 492 52.9492 694.368 377.709
1535 0 50.0321 10.6332 532 52.1673 694.502 377.835
1536 0 49.0512 10.907 535 52.015 694.553 376.742
1537 0 52.0488 10.4133 542 51.8764 694.437 375.393
1538 0 50.0495 10.0501 503 53.3638 694.899 374.131
1539 0 55.1577 10.9504 604 51.6722 694.389 375.295
1540 0 58.0504 10.5598 613 51.6754 694.277 374.364
1541 0 62.2786 10.8866 678 50.5841 694.167 372.457
1542 0 63.0983 10.6342 671 51.4814 693.563 372.379
1543 0 65.2129 10.8107 705 51.1957 693.182 369.427
1544 0 67.1841 11.1634 750 50.748 693.653 370.52
1545 0 69.4843 7.39735 514 42.356 695.07 393.529
1546 1 34.0618 10.4222 355 50.8845 693.237 384.642
1547 0 36.0751 9.70198 350 51.36 693.02 384.66
1548 0 40.0929 10.8997 437 49.0801 693.295 384.648
1549 0 39.1551 10.4712 410 50.3049 692.749 385.139
1550 0 43.1081 10.3693 447 49.604 693.656 384.192
1551 0 43.0426 10.478 451 49.592 693.545 382.492
1552 0 42.05 10.2021 429 50.7855 693.228 379.944
1553 0 48.049 10.8431 521 48.9559 693.562 380.983
1554 0 46.0717 10.7441 495 50.3414 693.509 379.519
1555 0 51.1814 11.6058 594 48.7424 693.276 379.598
1556 0 49.09 11.2854 554 49.8556 693.395 379.365
1557 0 54.1411 10.9344 592 49.3919 693.257 376.775
1558 0 55.0951 10.854 598 49.6906 692.809 375.107
1559 0 56.1887 11.408 641 49.3417 692.337 376.178
1560 0 58.1888 11.8751 691 48.5904 692.933 373.968
1561 0 59.1122 10.6239 628 49.9347 692.914 372.756
1562 0 64.0707 10.7694 690 49.413 693.061 371.028
1563 0 63.0831 11.4611 723 49.5726 693.12 370.242
1564 0 67.117 11.5321 774 48.938 693.116 367.91
1565 0 70.121 11.4659 804 48.9142 692.944 369.322
1566 0 73.1535 10.5395 771 49.668 692.86 365.172
1567 0 75.2135 11.1948 842 48.7981 692.461 365.181
1568 1 39.0676 11.0066 430 49.8442 692.116 382.07
1569 0 43.0248 10.0407 432 49.6111 692.734 382.609
1570 0 41.0611 10.7157 440 49.5932 693.195 380.784
1571 0 44.0379 9.78702 431 49.7796 692.441 379.879
1572 0 44.0316 10.8331 477 48.7107 692.43 378.816
1573 0 44.0441 10.3533 456 49.2719 692.689 377.145
1574 0 47.1214 10.8231 510 48.0196 692.553 377.978
1575 1 87.4583 8.7356 764 41.538 691.329 381.073
1576 0 87.9641 10.1632 894 38.1779 693.465 387.216
1577 1 50.0741 11.1036 556 47.027 692.151 376.241
1578 0 55.054 10.9892 605 46.043 691.866 375.038
1579 0 54.0749 11.8539 641 45.5741 692.145 374.29
1580 0 56.1325 11.0987 623 45.9165 692.608 373.573
1581 0 59.1753 9.85208 583 46.4237 692.712 369.671
1582 0 62.143 11.2322 698 44.4226 692.746 371.156
1583 0 61.1289 10.5678 646 44.8839 692.981 370.023
1584 0 67.1828 10.8956 732 43.6639 693.132 369.254
1585 0 70.1683 11.9 835 42.2695 693.028 369.741
1586 0 68.1206 11.0392 752 43.9109 692.761 366.142
1587 1 207.013 5.42479 1123 38.2565 692.562 382.567
1588 1 77.2553 11.7144 905 42.5481 692.448 365.116
1589 0 78.1495 11.4524 895 43.019 692.868 362.631
1590 0 85.1943 10.7988 920 43.1391 692.783 361.39
1591 0 85.2026 10.9269 931 43.5209 692.12 360.1
1592 1 122.583 10.964 1344 38.7812 693.195 366.499
1593 1 85.1992 22.5354 1920 33.6849 691.962 345.988
1594 0 87.2197 21.8987 1910 34.0618 692.429 346.293
1595 0 84.15 21.3072 1793 34.6096 691.973 344.745
1596 1 143.848 9.0373 1300 40.6115 691.367 365.124
1597 1 89.9421 9.35046 841 37.1332 692.749 385.322
1598 1 49.0705 11.2084 550 44.34 692.113 376.444
1599 0 52.1284 11.4717 598 43.6973 691.788 375.836
1600 0 55.1265 11.8092 651 43.0661 692.217 374.83
1601 0 54.0472 11.2494 608 44.0411 691.536 375.666
1602 0 58.1605 10.557 614 44.2215 692.278 374.329
1603 1 92.9121 11.0965 1031 37.3831 692.872 379
1604 1 62.1912 10.9823 683 43.9107 693.016 370.448
1605 0 64.253 11.7816 757 43.1334 692.384 370.744
1606 0 66.0983 11.967 791 43.2617 692.229 369.819
1607 0 67.1524 11.6154 780 43.8897 692.182 368.815
1608 0 74.094 12.0927 896 42.7723 692.256 370.733
1609 0 73.061 11.4014 833 44.3169 692.253 368.108
1610 0 78.1008 11.037 862 44.3364 691.973 364.686
1611 0 80.0399 11.057 885 44.7684 692.296 365.764
1612 0 79.1669 9.86524 781 46.63 692.951 361.471
1613 0 86.1368 10.82 932 45.8798 692.092 362.508
1614 0 87.1167 11.2034 976 46.3309 691.742 359.904
1615 1 46.0711 11.135 513 46.7115 691.788 381.532
1616 0 50.0695 10.7251 537 46.9088 690.981 378.86
1617 0 48.1241 10.4729 504 48.4266 691.544 378.768
1618 0 53.0762 11.0219 585 47.6205 692.465 377.892
1619 0 53.0672 11.7021 621 47.5652 692.386 377.623
1620 0 53.1373 11.2162 596 49 692.648 375.982
1621 0 56.1198 11.0478 620 49.3952 692.85 376.179
1622 0 58.0837 11.4318 664 48.6416 692.602 376.884
1623 0 62.0456 11.5077 714 48.2899 693.08 375.013
1624 0 62.0326 11.1715 693 49.1299 692.009 371.68
1625 0 67.1386 10.6496 715 49.6364 692.021 371.215
1626 0 67.1766 11.8345 795 48.483 692.005 370.478
1627 0 70.0859 11.4003 799 48.7998 691.677 367.322
1628 0 70.1598 10.9892 771 49.5305 692.198 366.951
1629 0 75.1832 11.7313 882 48.7744 692.771 365.692
1630 0 78.1563 11.2211 877 49.317 692.412 365.005
1631 1 39.0104 10.8689 424 49.3184 693.446 384.712
1632 0 39.025 10.7367 419 50.327 692.699 382.852
1633 0 41.0391 11.1357 457 49.9891 692.409 382.93
1634 0 43.0448 11.1744 481 49.7879 692.516 382.1
1635 0 45.02 10.2177 460 50.4674 692.598 379.57
1636 0 46.0279 11.0585 509 49.6994 692.379 377.918
1637 0 49.0626 11.1898 549 49.051 692.035 378.692
1638 0 49.0737 10.5556 518 50.0174 692.859 378.05
1639 0 53.0219 10.9766 582 48.7045 691.845 379.629
1640 1 88.6643 9.80101 869 43.0955 691.785 382.288
1641 1 57.0534 11.0423 630 48.3905 692.321 378.565
1642 0 55.0592 11.0245 607 49.1186 691.967 373.964
1643 0 60.0435 11.4251 686 47.9082 692.2 374.703
1644 0 61.0531 11.5146 703 47.7269 691.963 373.878
1645 0 62.024 10.8345 672 48.1875 691.866 370.195
1646 0 63.1482 10.3249 652 48.6794 692.052 370.367
1647 0 72.0722 11.4746 827 46.3325 691.687 372.63
1648 0 69.0903 11.2172 775 47.3587 691.117 370.532
1649 0 74.0759 11.7852 873 46.1203 690.892 367.496
1650 0 77.0129 11.6734 899 46.2236 690.92 366.443
1651 0 79.0913 11 870 46.4931 691.101 364.26
1652 0 81.086 10.8527 880 46.6352 691.48 362.456
1653 0 86.0939 11.5571 995 45.5628 691.911 365.305
1654 0 89.1125 11.2554 1003 45.6261 691.556 361.904
1655 0 92.0702 12.4253 1144 44.5035 691.626 359.887
1656 1 48.0188 11.2248 539 46.0519 691.512 380.722
1657 0 47.0509 10.9031 513 46.8129 691.659 378.661
1658 0 51.0847 11.7452 600 45.4383 690.895 378.702
1659 0 51.078 11.688 597 45.8844 691.559 377.786
1660 0 57.1242 11.6238 664 44.872 691.015 377.432
1661 0 54.0259 11.4945 621 46.2319 690.675 375.176
1662 0 56.0831 11.9109 668 45.988 690.937 376.013
1663 1 98.196 9.99022 981 40.0866 691.968 380.047
1664 1 61.0524 11.9897 732 45.429 691.885 373.54
1665 0 63.0973 11.5694 730 45.8849 691.225 373.448
1666 0 66.0929 11.4536 757 45.7081 691.732 371.338
1667 0 68.0531 11.9613 814 45.0516 692.053 370.612
1668 0 71.021 12.3344 876 44.6005 691.757 370.221
1669 0 69.0688 11.5971 801 46.1286 691.504 369.119
1670 0 72.0953 10.9855 792 46.8674 691.583 366.284
1671 0 76.1472 11.9111 907 45.6472 691.862 367.472
1672 0 79.2077 11.5645 916 45.809 691.682 366.698
1673 0 82.0871 11.6096 953 46.234 691.291 368.69
1674 0 84.1638 11.0023 926 46.7797 690.475 362.685
1675 0 93.1466 11.9382 1112 45.5683 690.334 362.588
1676 0 93.0714 12.0123 1118 45.9553 690.011 361.911
1677 0 94.2353 10.8558 1023 47.3675 690.833 358.429
1678 0 96.1882 11.2488 1082 47.147 691.165 355.256
1679 1 53.0426 10.6518 565 48.0726 690.796 381.816
1680 0 52.0525 10.8736 566 49.2208 691.39 380.302
1681 0 57.075 10.3022 588 48.9949 691.82 377.534
1682 0 60.1343 10.8757 654 48.2875 691.653 377.575
1683 0 62.0357 11.6868 725 47.5434 692.023 375.684
1684 0 64.0922 12.092 775 46.8077 691.756 376.501
1685 0 65.1247 10.6104 691 48.3517 691.721 372.262
1686 0 70.145 11.4477 803 47.1656 692.132 373.696
1687 0 71.1329 11.0216 784 47.5893 691.579 370.08
1688 0 72.188 11.4839 829 47.2835 691.776 369.128
1689 0 76.1392 11.4658 873 47.2612 691.106 369.394
1690 0 81.0785 11.6184 942 46.8206 691.45 368.248
1691 0 79.0899 10.4944 830 48.5325 691.79 363.766
1692 0 86.1099 11.6595 1004 46.8058 692.029 363.298
1693 1 46.0399 11.1642 514 46.6498 692.304 385.732
1694 0 42.0869 10.8585 457 48.6061 692.212 383.643
1695 0 48.0827 10.8771 523 47.6539 692.769 385.686
1696 0 48.0669 11.4632 551 47.6152 691.844 384.209
1697 0 48.0615 11.1316 535 48.5028 692.421 382.985
1698 0 50.1695 9.68716 486 46.8045 692.342 377.109
1699 0 50.0427 10.571 529 46.586 692.384 378.51
1700 1 84.6407 10.3378 875 40.0491 691.887 385.525
1701 0 101.36 10.9017 1105 11.6525 687.35 481.004
1702 1 107.079 8.11551 869 40.962 692.849 382.594
1703 1 58.0432 11.4053 662 45.5045 692.722 377.804
1704 0 61.1217 10.6018 648 45.7284 693.233 373.909
1705 0 65.0995 11.9202 776 44.4961 692.786 376.527
1706 0 65.0688 11.6492 758 45.3153 692.226 373.726
1707 1 103.429 11.3991 1179 38.2332 692.945 381.812
1708 1 73.1402 11.6899 855 44.0269 693.185 372.587
1709 0 73.1168 10.2165 747 46.0977 692.032 367.424
1710 0 77.1671 10.095 779 46.0578 692.78 368.03
1711 0 77.1671 10.1079 780 219.745 693.781 367.858
1712 0 82.1714 9.23679 759 46.8432 693.024 362.82
1713 1 36.0178 9.60635 346 45.4711 693.272 387.936
1714 0 36.0503 10.624 383 45.4413 693.021 388.747
1715 0 35.0221 10.5077 368 46.0136 693.533 385.823
1716 0 43.0436 10.2687 442 45.1222 692.79 385.932
1717 0 41.0364 10.576 434 45.6705 692.947 384.412
1718 0 41.0485 9.89074 406 46.4089 692.286 383.3
1719 0 43.0138 9.83406 423 46.3357 692.934 382.452
1720 0 47.1104 9.89166 466 46.0601 693.605 381.654
1721 0 49.0304 10.0958 495 45.7414 692.836 381.19
1722 0 52.0474 11.893 619 43.8288 692.876 381.118
1723 0 51.0506 11.4592 585 45.3316 692.53 379.706
1724 0 55.1008 10.508 579 46.1693 693.031 377.725
1725 1 78.5809 12.1658 956 39.569 692.37 383.452
1726 1 56.0272 11.2445 630 46.9556 693.297 376.865
1727 0 56.0439 11.1163 623 47.4575 693.098 375.292
1728 0 59.071 11.0714 654 47.87 693.246 374.78
1729 0 63.1168 10.9163 689 47.791 693.094 373.405
1730 0 63.101 10.8556 685 48.6526 693.235 371.547
1731 0 67.1414 11.1109 746 48.4477 693.126 371.827
1732 0 69.0854 11.4062 788 48.6307 693.656 372.5
1733 0 73.0392 10.7203 783 49.0613 693.833 370.043
1734 0 74.1637 11.0027 816 49.1311 693.877 368.186
1735 0 84.7983 19.3518 1641 11.5551 690.97 481.206
1736 0 80.1342 11.1064 890 49.1663 693.629 364.115
1737 1 38.0271 9.75621 371 50.5202 693.747 385.987
1738 0 40.0208 9.7949 392 50.7219 693.304 385.094
1739 0 40.0915 10.1518 407 51.2555 693.752 383.484
1740 0 39.0842 10.439 408 50.4926 693.672 381.174
1741 0 43.047 11.0112 474 49.7975 693.882 383.293
1742 0 43.0429 10.3385 445 49.9573 693.56 380.499
1743 0 47.0798 10.4928 494 49.1518 693.403 380.113
1744 0 47.0862 11.086 522 48.8448 693.843 381.613
1745 0 49.0266 10.9532 537 48.8771 693.966 377.84
1746 0 51.0744 11.6888 597 47.9129 693.427 377.998
1747 0 52.1126 11.667 608 48.1003 693.701 378.752
1748 0 53.0582 11.1764 593 48.4233 693.536 376.57
1749 0 56.0529 11.1323 624 48.5737 693.583 375.034
1750 0 62.1216 11.7029 727 46.6121 693.32 376.285
1751 0 60.0469 10.6084 637 48.3501 693.424 373.597
1752 0 60.031 10.8444 651 48.3164 692.791 371.997
1753 0 65.0759 10.8489 706 47.4816 693.338 371.803
1754 0 66.1696 10.4429 691 47.9291 693.288 369.806
1755 0 72.0776 9.78112 705 48.1021 693.233 369.36
1756 0 74.0842 10.704 793 47.029 693.034 368.081
1757 0 79.1017 12.1236 959 44.9958 693.115 371.77
1758 0 73.2328 6.85485 502 43.7331 693.114 391.602
1759 1 42.1134 10.163 428 47.5584 693.086 386.161
1760 0 41.0463 9.672 397 48.3073 692.73 384.985
1761 0 41.0298 9.89525 406 48.5123 692.665 383.956
1762 0 43.0777 10.4694 451 47.2439 693.357 384.519
1763 0 44.0238 10.7215 472 47.4852 691.947 382.504
1764 0 46.1033 11.1923 516 46.407 692.455 382.711
1765 0 48.0732 10.3384 497 47.1328 692.563 380.909
1766 0 47.0537 10.4986 494 47.498 692.632 379.512
1767 0 51.0488 11.6751 596 44.8104 692.72 379.379
1768 0 53.058 10.9691 582 45.7766 691.686 377.636
1769 0 54.0548 10.7298 580 46.0638 691.509 375.798
1770 0 57.1384 10.6408 608 45.4227 691.168 374.816
1771 0 59.1868 11.6073 687 44.361 691.747 372.862
1772 0 60.0461 11.3579 682 44.6158 691.795 372.993
1773 0 62.0848 11.436 710 44.1676 691.68 370.176
1774 0 72.6109 19.2946 1401 11.6702 688.363 459.77
1775 1 0 0 0 -nan -nan -nan
1776 1 34.2542 6.3058 216 12.3704 689.264 434.005
1777 1 8.03633 9.33261 75 10.8133 669.093 513.947
1778 1 0 0 0 -nan -nan -nan
1779 0 0 0 0 -nan -nan -nan
1780 1 81.1039 11.3311 919 43.6366 691.864 361.219
1781 0 85.0984 10.3997 885 44.4565 691.96 357.755
1782 0 86.114 11.3454 977 43.8854 692.28 357.708
1783 0 94.1167 12.2614 1154 42.0494 692.234 358.727
1784 0 102.468 7.00706 718 38.7632 692.394 386.613
1785 1 46.0428 11.1418 513 44.4094 692.103 376.723
1786 0 48.1002 9.97916 480 45.3542 692.104 374.527
1787 0 50.1016 11.297 566 44 692.744 376.613
1788 0 52.1297 11.2796 588 43.8554 691.658 374.012
1789 0 55.06 11.5329 635 43.3732 692.739 372.557
1790 0 57.1401 10.8505 620 43.7129 693.029 371.471
1791 0 56.1125 11.5482 648 43.3843 693.267 369.974
1792 0 60.0944 11.8647 713 43.0168 692.515 370.272
1793 1 109.644 18.7334 2054 11.3588 689.339 489.137
1794 1 0 0 0 -nan -nan -nan
1795 0 0 0 0 -nan -nan -nan
1796 0 0 0 0 -nan -nan -nan
1797 1 109.13 19.7013 2150 11.326 689.971 485.391
1798 1 76.0919 11.8147 899 41.812 692.968 362.088
1799 0 77.1167 10.6073 818 43.0342 693.341 360.801
1800 0 82.1443 10.932 898 42.2038 693.222 359.559
1801 0 82.1077 10.06 826 43.1731 692.501 356.9
1802 0 90.1554 10.493 946 41.8605 693.026 356.506
1803 1 68.3576 10.4597 715 36.4 693.035 382.951
1804 1 88.7101 7.8345 695 36.4288 692.863 384.957
1805 1 43.0605 11.0542 476 41.3256 694.076 379.208
1806 0 48.1346 11.9872 577 39.9688 693.65 379.062
1807 0 52.0184 11.3421 590 39.7136 693.922 378.381
1808 0 50.0749 11.7225 587 40.0681 693.629 378.136
1809 0 51.0188 11.4076 582 40.3694 694.404 376.294
1810 1 96.8006 9.20448 891 34.4321 693.758 384.747
1811 1 63.6974 17.2849 1101 31.3424 690.704 367.621
1812 0 64.4314 20.7973 1340 29.5694 691.088 369.589
1813 1 157.362 40.4228 6361 16.3644 690.537 413.744
1814 1 64.0344 18.7087 1198 30.3965 690.646 368.298
1815 1 11.0399 3.62323 40 12.9 680.225 430.65
1816 1 26.092 10.0797 263 12.3004 690.103 439.209
1817 1 66.1643 10.7762 713 39.2511 695.445 369.466
1818 0 74.059 11.9634 886 37.6772 694.705 370.651
1819 0 72.0538 10.5893 763 39.2569 694.579 364.796
1820 0 74.1692 10.867 806 39.1787 694.706 364.278
1821 0 77.1638 11.5209 889 38.7784 694.574 365.658
1822 0 77.1062 10.2197 788 39.8604 694.116 362.617
1823 0 83.2288 11.5104 958 38.405 694.595 363.617
1824 1 163.652 7.5465 1235 35.013 694.129 372.387
1825 1 131.067 9.88808 1296 34.6096 693.921 369.668
1826 1 51.0715 9.67271 494 39.1883 694.247 378.241
1827 0 52.0667 9.9872 520 38.8462 695.09 378.977
1828 0 53.0858 10.3229 548 38.9325 694.953 379.511
1829 0 54.3132 10.3842 564 38.7004 694.754 380.064
1830 1 99.9144 9.02772 902 31.8126 696.177 390.762
1831 1 0 0 0 -nan -nan -nan
1832 0 0 0 0 -nan -nan -nan
1833 0 0 0 0 -nan -nan -nan
1834 0 0 0 0 -nan -nan -nan
1835 1 11.0523 13.5718 150 12.68 689.573 429.487
1836 1 0 0 0 -nan -nan -nan
1837 0 0 0 0 -nan -nan -nan
1838 0 0 0 0 -nan -nan -nan
1839 0 50.4163 11.8414 597 12.1139 691.809 444.256
1840 0 0 0 0 -nan -nan -nan
1841 0 46.3935 11.1653 518 11.4826 687.558 479.083
1842 0 43.1741 10.8861 470 39.8128 694.517 384.66
1843 0 45.1437 10.8985 492 39.9268 694.74 385.429
1844 0 39.0384 9.58031 374 42.1872 694.701 383.682
1845 0 45.1187 11.7468 530 39.7887 694.972 382.568
1846 0 46.0448 11.2282 517 40.619 693.892 381.402
1847 0 46.0746 11.1775 515 41.4757 694.095 380.427
1848 0 50.0874 11.6197 582 40.8385 693.894 382.287
1849 0 49.065 11.5561 567 41.7037 694.556 378.381
1850 0 51.0767 10.7485 549 42.6393 694.576 377.33
1851 0 53.121 11.0879 589 42.3243 693.708 378.054
1852 0 53.1324 11.4807 610 42.6705 693.885 375.23
1853 0 60.0919 11.1163 668 42.2216 693.906 377.422
1854 0 62.059 11.5858 719 42.267 693.402 375.811
1855 0 60.0967 10.949 658 43.772 693.111 372.239
1856 0 66.089 11.2727 745 42.5893 693.22 372.87
1857 0 67.0885 11.5519 775 42.7923 693.541 370.539
1858 0 69.1297 12.3247 852 42.4296 692.886 370.457
1859 0 71.135 11.5133 819 43.1673 693.906 370.165
1860 0 72.1457 11.2273 810 43.7296 693.595 366.032
1861 0 75.1038 11.7038 879 43.0853 693.165 365.747
1862 0 77.1362 11.1361 859 43.7776 693.681 361.289
1863 0 81.238 12.0633 980 42.7378 693.299 362.489
1864 0 84.1115 12.3645 1040 42.3923 692.588 360.945
1865 0 88.416 12.0227 1063 43.0847 692.731 359.449
1866 0 91.1769 12.1193 1105 43.1113 692.886 357.043
1867 0 101.554 20.1665 2048 11.3945 690.236 484.36
1868 0 94.191 10.9352 1030 44.3573 693.948 353.334
1869 0 102.386 12.8924 1320 42.0114 694.33 355.152
1870 0 103.267 11.2718 1164 43.9854 693.881 350.863
1871 0 103.256 10.808 1116 44.4238 693.858 347.476
1872 0 107.167 10.9735 1176 44.3129 694.003 347.319
1873 1 155.598 4.95509 771 40.3281 693.624 382.84
1874 1 56.063 10.292 577 44.948 693.374 372.61
1875 0 58.258 11.9297 695 43.4201 694.426 372.768
1876 0 64.1922 11.9485 767 42.7614 694.429 371.351
1877 0 64.0839 11.0324 707 44.4286 694.47 368.761
1878 0 64.1525 12.4391 798 43.6378 694.659 368.079
1879 0 67.0584 10.7071 718 45.351 694.742 367.07
1880 0 68.1575 12.0456 821 44.4239 694.715 366.52
1881 0 73.3439 12.53 919 43.4962 695.074 367.115
1882 0 72.1358 10.9238 788 46.1929 695.086 362.98
1883 0 75.0877 10.4145 782 46.711 695.129 362.16
1884 0 81.1735 10.9765 891 46.0236 695.028 361.646
1885 0 82.1148 11.5935 952 46.1964 694.664 361.439
1886 0 83.2494 11.3394 944 46.9142 695.178 360.04
1887 0 87.1573 10.9228 952 47.9181 695.871 358.439
1888 1 41.0782 10.8817 447 47.6913 695.573 382.36
1889 0 42.0155 11.1149 467 48.0043 695.355 380.632
1890 0 43.0304 10.5042 452 48.8518 696.029 381.071
1891 0 46.0396 10.643 490 47.9469 695.692 379.929
1892 0 48.0853 10.4606 503 48.2744 696.225 379.31
1893 0 48.0419 11.2818 542 47.5886 695.124 378.736
1894 0 53.0736 10.3441 549 47.7377 694.9 377.987
1895 0 50.0424 10.7109 536 47.9888 696.16 375.541
1896 0 53.1445 11.0642 588 47.3827 696.19 374.827
1897 0 58.0795 11.467 666 46.3213 695.701 374.73
1898 0 57.0274 10.2407 584 47.9144 695.579 371.015
1899 1 0 0 0 -nan -nan -nan
1900 1 10.0703 5.16372 52 13.1923 683.865 428.5
1901 1 39.048 10.9353 427 45.0047 695.56 384.063
1902 0 38.0111 9.62877 366 45.9645 695.546 383.989
1903 0 35.1065 9.1721 322 46.2112 695.947 382.643
1904 0 39.1025 11.0735 433 43.6905 696.042 385.448
1905 0 36.0385 10.7663 388 45.1675 695.711 385.503
1906 0 36.0707 9.70317 350 46.4714 695.803 385.131
1907 0 43.0836 10.8162 466 44.0966 694.996 386.762
1908 0 40.0331 10.7411 430 45.386 695.021 383.435
1909 1 75.3453 9.56927 721 37.5562 695.269 392.148
1910 1 41.0258 10.9199 448 45.5781 694.134 381.312
1911 0 41.0483 10.5973 435 46.0069 694.161 382.14
1912 0 45.043 10.5677 476 45.708 693.569 380.176
1913 0 49.0462 10.5003 515 44.8951 693.977 380.087
1914 0 47.0274 11.4614 539 45.3989 694.019 381.599
1915 0 53.0527 11.253 597 44.7487 694.24 379.9
1916 0 51.0393 9.91394 506 46.253 693.615 376.198
1917 0 52.0607 11.429 595 45.0067 694.062 376.529
1918 0 54.0399 11.2139 606 45.3069 693.901 375.279
1919 0 56.0561 12.2556 687 44.1645 693.738 375.137
1920 1 199.622 4.41333 881 39.0091 693.373 397.857
1921 1 65.1693 11.0482 720 44.5681 694.393 373.178
1922 0 68.1483 11.9152 812 43.4384 694.174 374.305
1923 0 66.0537 10.6429 703 45.6871 694.755 369.851
1924 0 66.0714 10.7611 711 45.8158 694.959 367.779
1925 0 69.0844 10.8852 752 45.5665 694.44 367.674
1926 0 75.1317 12.2984 924 43.7478 693.635 367.416
1927 0 76.2582 11.0414 842 45.2779 694.311 364.677
1928 0 81.152 11.078 899 45.4305 694.442 361.221
1929 0 79.1263 9.69336 767 46.8944 694.983 361.433
1930 0 83.156 9.66857 804 47.1891 695.177 358.517
1931 0 88.1727 10.0485 886 46.5192 694.944 356.663
1932 0 90.2531 10.0717 909 47.0572 694.013 356.271
1933 1 133.341 12.8993 1720 38.164 695.13 366.331
1934 1 98.1164 10.8646 1066 45.7946 694.734 353.786
1935 0 100.204 10.8878 1091 46.0192 694.539 350.824
1936 0 102.126 9.87012 1008 46.9474 694.658 346.022
1937 0 108.073 10.5299 1138 45.5325 695.231 346.766
1938 0 114.1 12.121 1383 43.9241 694.346 346.854
1939 0 118.251 12.2621 1450 43.7559 695.026 344.742
1940 0 121.169 11.6284 1409 44.4826 694.907 341.587
1941 0 123.179 10.6755 1315 45.5011 694.938 336.589
1942 0 115.719 8.44289 977 40.6684 694.489 377.647
1943 1 61.0686 10.6929 653 47.1394 694.744 369.047
1944 0 65.0439 10.7312 698 46.7393 694.395 366.003
1945 0 72.108 11.5382 832 45.2548 694.202 364.452
1946 0 71.0999 11.1955 796 45.8216 694.786 362.621
1947 0 76.1484 12.515 953 44.1259 695.149 365.342
1948 0 79.2349 11.2577 892 45.63 694.606 362.599
1949 0 80.0986 9.80042 785 47.0713 694.957 359.986
1950 0 86.0832 12.0813 1040 44.9019 695.071 362.484
1951 0 85.1571 11.0619 942 46.3493 695.064 359.669
1952 0 86.1874 10.3263 890 47.2528 695.934 356.096
1953 0 95.2125 12.0677 1149 44.6823 695.46 359.465
1954 1 75.9522 10.0853 766 40.4726 695.599 385.326
1955 1 44.0182 10.9046 480 47.1146 695.652 378.431
1956 0 49.1843 12.016 591 44.9577 696.562 378.508
1957 0 48.0943 12.2884 591 45.3012 695.631 378.039
1958 0 50.0265 11.0142 551 46.7731 695.713 377.996
1959 0 51.0887 11.5094 588 46.3895 695.026 375.318
1960 0 54.0531 11.1742 604 46.1805 695.177 374.844
1961 0 56.126 11.9909 673 45.627 695.114 373.574
1962 1 104.661 9.47818 992 39.1169 695.251 382.539
1963 1 59.0474 10.9404 646 46.3854 694.862 372.539
1964 0 63.1838 13.6744 864 43.1944 694.851 375.728
1965 0 63.0607 12.5752 793 45.1992 694.395 371.856
1966 0 63.0484 11.7687 742 46.1011 695.088 368.61
1967 0 64.0894 10.9066 699 47.1788 695.196 368.548
1968 0 73.2025 12.8274 939 44.7199 695.281 371.014
1969 0 69.1616 10.8152 748 47.7273 694.808 366.23
1970 0 76.1099 13.2046 1005 45.0657 694.678 369.171
1971 0 79.0723 12.2167 966 46.2122 695.176 368.186
1972 0 84.1625 12.8561 1082 45.7708 694.545 368.27
1973 1 117.224 11.542 1353 42.2129 694.63 371.862
1974 1 80.05 10.8307 867 49.5144 695.029 361.145
1975 0 84.1884 13.1253 1105 46.5674 694.723 364.283
1976 0 81.1272 12.4742 1012 47.6423 694.704 362.55
1977 1 159.87 7.85641 1256 43.4618 694.779 374.795
1978 1 80.0523 10.3557 829 50.6864 693.78 362.205
1979 0 75.8064 10.0915 765 42.5621 693.494 388.153
1980 1 44.065 10.7341 473 50.5666 693.932 380.503
1981 0 47.028 11.44 538 49.855 693.612 379.73
1982 0 47.0584 11.7301 552 49.7971 694.067 378.319
1983 0 50.0709 11.5836 580 49.6138 694.107 378.517
1984 0 50.0281 11.3336 567 50.1905 694.55 375.48
1985 0 59.0819 12.2711 725 47.669 694.702 377.029
1986 0 55.0248 11.7402 646 49.5867 694.389 373.486
1987 0 57.0573 11.4972 656 50.0061 694.736 373.073
1988 0 63.1509 12.8581 812 47.5874 693.979 373.748
1989 0 70.0643 12.3315 864 47.434 694.095 372.943
1990 0 68.0991 13.0692 890 47.6416 694.306 371.674
1991 0 69.1383 10.5585 730 50.9055 694.136 367.467
1992 0 76.1848 12.5747 958 47.7745 694.088 370.839
1993 0 77.1901 12.7996 988 48.2571 693.946 368.53
1994 0 82.2334 12.574 1034 48.1306 694.217 369.375
1995 0 78.1351 10.5586 825 51.4885 693.973 363.904
1996 0 84.1356 11.6597 981 49.7961 694.626 362.888
1997 0 87.1203 11.6161 1012 50.0287 693.777 360.589
1998 0 86.2167 11.0303 951 50.817 694.039 357.417
1999 0 89.1453 10.3651 924 51.2771 694.749 355.272
2000 0 90.0556 9.79396 882 51.5907 694.4 352.604
2001 0 95.1007 9.80014 932 50.9356 694.491 351.786
2002 1 44.0281 10.993 484 51.1405 694.432 375.979
2003 0 47.0597 10.7098 504 50.3948 694.393 374.121
2004 0 49.0966 10.9784 539 49.9109 694.443 374.766
2005 0 52.087 10.5017 547 49.8684 693.976 374.415
2006 0 56.1225 10.3524 581 49.2909 695.25 373.337
2007 0 61.1004 11.2929 690 47.0623 695.361 373.564
2008 0 59.0718 11.4776 678 47.615 694.734 371.375
2009 0 58.0863 10.4844 609 48.5353 694.961 368.79
2010 0 64.0778 10.1127 648 48.1836 694.985 367.451
2011 0 66.0405 11.8564 783 46.8455 694.871 367.467
2012 0 67.0424 10.0981 677 48.5835 695.044 362.861
2013 0 76.0777 11.4883 874 46.9222 695.477 364.165
2014 0 75.0566 10.9384 821 48.3264 695.314 362.71
2015 0 76.289 9.85726 752 48.8923 695.501 360.992
2016 0 82.1919 10.4268 857 48.6861 694.419 360.489
2017 1 113.217 13.0722 1480 41.0561 694.72 367.963
2018 1 46.0698 10.5492 486 49.4054 695.344 380.765
2019 0 45.0538 11.2532 507 50.1972 695.669 379.675
2020 0 49.0904 12.2427 601 48.6206 695.852 379.428
2021 0 46.1092 10.8872 502 51.2151 695.582 376.544
2022 0 52.1292 10.2821 536 50.694 695.774 374.871
2023 0 57.0354 11.3789 649 49.2527 695.337 376.387
2024 0 57.0871 12.2444 699 48.5894 694.67 375.654
2025 0 53.0483 10.9146 579 51.3057 695.596 372.788
2026 0 56.1933 11.3893 640 50.4094 695.82 371.141
2027 0 58.0808 10.6231 617 50.7326 696.083 370.489
2028 0 66.0456 12.4762 824 48.0813 695.847 372.186
2029 0 62.1355 11.2013 696 50.2672 696.145 368.159
2030 0 70.1661 12.3706 868 48.0922 694.983 369.593
2031 0 70.0285 10.6243 744 50.0551 695.169 366.309
2032 0 78.1354 12.6959 992 47.0272 695.072 367.359
2033 0 76.1311 10.9022 830 49.4145 695.628 364.82
2034 0 78.0637 10.7861 842 49.6734 694.798 362.273
2035 0 86.0582 12.1197 1043 47.2934 695.952 362.795
2036 1 38.0437 10.5405 401 51.798 694.933 382.948
2037 0 43.0524 10.8705 468 50.4915 694.825 384
2038 0 46.0481 12.3349 568 48.0951 694.887 383.576
2039 0 47.1216 12.5632 592 48.0693 694.62 381.383
2040 0 46.0625 10.8982 502 50.4681 694.046 376.52
2041 0 53.1017 12.4666 662 47.364 694.379 379.986
2042 1 100.369 7.82117 785 44.8025 694.157 382.164
2043 1 53.0397 10.5016 557 50.1957 694.095 375.108
2044 0 51.0219 10.6425 543 51.0092 693.893 373.381
2045 0 54.0931 11.129 602 50.1462 693.412 374.36
2046 0 59.1037 10.913 645 49.6636 694.06 372.414
2047 0 60.0343 11.5934 696 49.4152 693.141 369.99
2048 0 64.031 12.6657 811 47.8681 694.174 371.596
2049 0 70.1932 12.3089 864 47.3148 693.661 369.929
2050 0 65.1318 10.7781 702 49.6282 694.219 366.865
2051 0 68.0707 10.9886 748 49.5575 694.068 364.245
2052 0 73.0881 12.6423 924 47.5606 693.812 366.897
2053 0 75.0738 10.9892 825 49.1648 694.158 362.589
2054 1 159.67 8.53007 1362 41.8135 694.1 372.758
2055 1 83.0829 10.4233 866 49.8684 694.288 359.089
2056 0 88.1866 12.587 1110 46.9631 694.441 361.265
2057 0 91.1419 12.8591 1172 46.8635 694.582 359.654
2058 1 45.1053 12.0163 542 48.0646 694.574 382.714
2059 0 42.0572 10.3668 436 51.8417 694.401 378.587
2060 0 47.0374 10.396 489 51.2883 694.423 378.446
2061 0 49.0711 12.2475 601 48.7321 694.429 377.146
2062 0 50.0608 12.4449 623 49.0738 694.167 378.274
2063 0 52.0878 11.4422 596 49.7181 694.57 375.671
2064 0 49.0262 11.2797 553 50.2785 695.002 372.416
2065 0 51.0929 11.254 575 50.2574 694.964 373.137
2066 1 74.0078 10.3908 769 12.0065 691.77 462.822
2067 0 63.0383 13.0873 825 46.1721 695.097 372.044
2068 0 61.0416 10.9106 666 49.3303 694.868 368.736
2069 0 59.0989 11.4554 677 48.935 694.799 369.236
2070 0 66.0767 13.1968 872 46.3268 695.436 370.196
2071 0 71.0856 13.1954 938 45.6119 695.723 367.872
2072 1 120.744 10.1206 1222 41.0687 694.58 374.864
2073 1 0 0 0 -nan -nan -nan
2074 0 0 0 0 -nan -nan -nan
2075 1 78.1492 14.6771 1147 11.9364 691.5 457.31
2076 1 44.9434 9.01134 405 12.5111 694.38 440.815
2077 0 44.0822 10.6846 471 47.6242 696.074 382.174
2078 0 44.0401 11.7166 516 47.3488 696.684 381.19
2079 0 45.0716 11.8478 534 47.427 696.444 380.547
2080 0 49.0856 11.6735 573 46.8569 696.002 380.996
2081 0 46.2065 11.9247 551 47.6552 696.869 380.8
2082 0 51.048 12.3217 629 45.9444 696.714 379.571
2083 0 56.0892 11.036 619 46.357 696.72 379.443
2084 0 51.0514 11.9487 610 47.0475 696.193 377.392
2085 1 88.6469 10.4685 928 40.5539 697.045 384.164
2086 1 61.4899 21.7109 1335 35.0794 693.138 369.288
2087 0 63.4449 23.5007 1491 33.9323 694.266 370.637
2088 0 65.1184 21.5915 1406 35.1579 693.695 370.307
2089 0 61.5657 20.4984 1262 36.3098 693.61 368.994
2090 1 93.2669 11.644 1086 41.721 695.331 378.459
2091 1 65.129 12.8668 838 46.7709 695.131 373.397
2092 0 69.1164 12.7466 881 46.6515 695.293 371.12
2093 0 72.125 12.3258 889 47.0619 694.916 372.865
2094 0 76.1427 12.7261 969 46.3488 695.447 371.522
2095 0 73.0951 10.8215 791 49.1479 695.791 367.545
2096 0 78.1342 11.685 913 47.5619 696.06 368.345
2097 0 82.076 12.5615 1031 47.0291 696.31 367.797
2098 1 40.0686 10.6068 425 49.9741 694.466 384.391
2099 0 45.0202 11.3505 511 47.8826 694.487 383.955
2100 0 45.0675 11.4717 517 48.0986 693.984 383.708
2101 1 79.2052 9.3302 739 42.7023 695.019 385.199
2102 1 47.0453 11.2657 530 48.0811 694.476 379.291
2103 0 49.1293 11.5003 565 47.3009 694.671 378.781
2104 0 52.0467 10.8941 567 47.4674 695.25 377.887
2105 0 53.0511 11.1025 589 47.0594 694.509 376.302
2106 0 53.058 11.2518 597 47.1742 694.028 375.425
2107 0 60.124 12.0751 726 44.9284 693.813 377.981
2108 0 59.0169 12.3524 729 45.0919 693.428 373.774
2109 0 61.0538 11.4653 700 45.7386 693.759 373.859
2110 0 67.0529 12.5722 843 44.1269 694.089 373.301
2111 0 68.045 12.0361 819 44.6813 694.12 370.241
2112 0 66.086 10.7738 712 46.1994 694.753 368.963
2113 0 68.0549 10.8148 736 46.0258 694.209 365.155
2114 0 71.162 11.256 801 45.2509 694.496 365.704
2115 0 79.1727 11.1528 883 44.8437 694.341 364.606
2116 0 81.1787 11.4069 926 44.9374 694.576 363.752
2117 1 110.581 11.7289 1297 39.9422 694.557 370.278
2118 1 93.4089 7.8151 730 39.3137 693.877 385.277
2119 1 49.1479 10.9466 538 44.7082 694.719 379.972
2120 0 47.0716 12.2579 577 43.766 694.39 380.269
2121 1 80.1816 9.27893 744 39.7876 694.917 384.453
2122 1 0 0 0 -nan -nan -nan
2123 0 0 0 0 -nan -nan -nan
2124 0 0 0 0 -nan -nan -nan
2125 0 0 0 0 -nan -nan -nan
2126 0 23.5809 9.45679 223 13.1614 690.543 423.39
2127 1 0 0 0 -nan -nan -nan
2128 0 30.7898 16.9861 523 12.2275 692.117 438.35
2129 0 0 0 0 -nan -nan -nan
2130 1 87.6403 15.8146 1386 11.6537 691.808 473.107
2131 0 69.1144 13.0074 899 43.7664 695.623 370.494
2132 0 69.125 11.3996 788 45.7056 696.358 366.994
2133 0 76.1593 13.1041 998 43.5681 695.539 366.652
2134 0 73.2373 11.4149 836 46.1699 695.829 361.197
2135 0 82.096 12.9848 1066 44.1689 695.076 366.053
2136 0 85.2477 12.9388 1103 44.097 695.844 364.956
2137 0 83.1705 11.9874 997 46.2086 695.396 358.628
2138 0 89.1202 12.4551 1110 45.3126 696.127 359.502
2139 1 43.169 11.0033 475 47.6484 695.987 378.935
2140 0 47.1183 12.1396 572 46.2955 695.448 379.182
2141 0 44.1476 11.8693 524 47.9676 696.038 377.305
2142 0 50.1197 11.712 587 47.1482 696.075 376.698
2143 0 49.1263 11.2363 552 47.9783 695.562 373.87
2144 1 15.8873 8.30851 132 13.1364 692.523 422.902
2145 1 0 0 0 -nan -nan -nan
2146 1 11.0794 12.4555 138 13.1884 689 422.703
2147 1 61.0775 11.4281 698 46.0115 695.62 371.546
2148 0 63.1234 13.038 823 44.3949 694.64 370.213
2149 0 63.1293 12.4665 787 45.2389 695.454 368.286
2150 0 67.2152 11.0243 741 45.8731 695.547 366.598
2151 0 69.1513 12.7691 883 44.3817 695.396 369.116
2152 0 70.1116 12.4088 870 44.7402 695.162 361.675
2153 0 76.1831 12.063 919 44.7334 695.509 364.131
2154 0 76.1717 11.159 850 45.6518 695.211 360.858
2155 0 79.2333 11.6996 927 45.2319 696.073 360.688
2156 0 82.1684 11.805 970 45.0639 695.786 359.941
2157 0 84.2252 10.6975 901 46.2997 695.784 356.117
2158 1 46.071 10.8962 502 44.9781 696.462 381.524
2159 0 44.0739 10.6639 470 46.9489 696.279 378.46
2160 0 50.1101 11.9736 600 44.5283 696.167 380.123
2161 0 46.105 11.8208 545 46.0642 695.112 377.791
2162 0 49.1526 11.3727 559 46.2415 694.923 377.404
2163 0 50.0867 11.6797 585 46.2923 695.215 376.836
2164 0 51.0943 12.3301 630 45.4556 695.506 376.908
2165 0 55.1355 11.3357 625 46.2544 695.867 371.582
2166 0 56.0493 12.3463 692 45.3107 696.197 373.231
2167 0 60.1558 13.1326 790 44.043 696.346 373.524
2168 0 62.1427 12.8897 801 44.7778 696.459 373.633
2169 0 61.0933 11.7525 718 46.3245 696.845 369.39
2170 0 64.0428 12.8196 821 45.648 696.569 369.186
2171 0 65.0907 11.4456 745 47.4537 695.91 367.524
2172 0 68.047 11.5655 787 47.5159 695.903 366.992
2173 0 77.1314 12.7186 981 45.2793 696.639 368.847
2174 1 246.418 17.5028 4313 36.9814 695.841 324.694
2175 0 233.333 12.0172 2804 45.5189 696.425 291.039
2176 1 80.1747 11.0135 883 48.1608 696.76 361.917
2177 0 88.2762 13.2086 1166 45.8233 696.293 362.895
2178 0 85.0726 10.685 909 49.4213 696.019 356.826
2179 1 128.352 13.3617 1715 40.5271 696.219 368.878
2180 1 41.0217 9.58029 393 51.3104 696.079 378.603
2181 0 43.0703 10.9356 471 50.344 695.966 380.433
2182 0 45.054 10.6761 481 50.4532 695.2 379.017
2183 0 47.0597 10.1361 477 50.9224 695.512 377.885
2184 0 46.0266 10.7329 494 50.6721 696.49 376.273
2185 0 48.0577 9.71749 467 51.2655 696.713 376.126
2186 0 50.1106 10.6764 535 50.5869 695.824 374.935
2187 0 53.0695 11.9278 633 49.0363 696.077 373.904
2188 0 57.1083 11.9072 680 48.3603 696.394 376.11
2189 0 59.0746 12.6789 749 47.7437 695.736 375.116
2190 0 57.0296 11.345 647 49.6399 696.207 371.049
2191 0 59.0686 11.3089 668 50.0135 695.862 370.97
2192 0 65.1925 12.1026 789 48.1534 696.224 370.73
2193 0 72.1207 12.4236 896 47.0536 695.548 370.921
2194 0 71.209 12.7933 911 47.5873 695.54 371.116
2195 0 71.1388 10.7255 763 50.0079 695.678 368.578
2196 0 76.3193 11.334 865 49.0497 696.109 366.273
2197 0 78.1273 11.0333 862 49.5522 696.017 364.268
2198 0 76.044 10.6123 807 50.5874 696.468 362.374
2199 0 83.1315 9.80374 815 51.3129 695.59 359.599
2200 0 87.1083 12.054 1050 48.7876 695.825 363.009
2201 1 37.0183 10.4003 385 50.9662 695.423 381.353
2202 0 40.0625 10.6583 427 50.2412 695.883 382.532
2203 0 42.0542 10.4865 441 49.9388 696.605 382.329
2204 0 46.0441 10.1424 467 49.8094 696.43 381.334
2205 0 45.0363 10.5248 474 49.2764 696.017 379.19
2206 0 50.0353 11.5718 579 47.5803 695.794 380.313
2207 0 50.0454 10.9501 548 48.0073 695.642 379.266
2208 0 49.0924 10.5515 518 48.695 695.355 376.797
2209 1 101.22 9.3262 944 41.1133 695.686 384.423
2210 1 54.0392 10.955 592 48.2922 695.348 374.686
2211 0 55.0341 10.9568 603 48.325 695.015 375.318
2212 0 55.038 10.3202 568 48.8556 695.607 372.211
2213 0 60.0259 10.9453 657 47.7215 695.356 372.665
2214 0 64.1086 10.9502 702 47.3932 695.624 371.053
2215 0 69.0991 10.2896 711 47.5443 695.376 368.153
2216 0 74.1073 11.7128 868 45.5576 696.564 371.698
2217 0 71.0658 10.1877 724 48.0483 696.174 366.954
2218 0 78.0782 10.2846 803 46.9676 696.543 368.293
2219 0 77.0977 10.4154 803 47.6002 696.01 364.293
2220 0 81.0937 10.0994 819 47.7387 695.744 363.009
2221 0 81.0644 9.09153 737 48.8155 695.518 359.874
2222 0 86.165 8.80868 759 48.722 695.887 358.555
2223 0 91.1401 10.0724 918 47.2037 695.695 355.458
2224 0 93.0441 10.5971 986 46.2667 695.499 356.338
2225 0 88.3044 9.69374 856 39.7582 694.995 383.026
2226 1 54.0486 10.361 560 45.7839 695.412 374.659
2227 0 52.0101 10.075 524 46.25 695.408 373.863
2228 0 57.0346 11.3265 646 44.3885 696.065 374.121
2229 0 59.032 10.3503 611 44.8167 696.146 370.751
2230 0 60.0346 11.2102 673 44.2155 695.975 370.779
2231 0 65.0532 10.9295 711 43.7215 695.737 369.948
2232 0 64.0811 10.7676 690 43.9942 695.644 369.491
2233 0 69.103 10.8534 750 43.796 695.619 368.432
2234 0 72.0653 10.0881 727 43.9986 695.597 365.579
2235 0 73.3594 10.2645 753 43.9256 696.166 364.887
2236 1 159.064 42.7123 6794 18.7903 693.987 396.7
2237 1 195.91 5.66585 1110 37.2946 695.697 388.49
2238 1 38.0815 9.26958 353 43.864 695.428 383.156
2239 0 38.0512 9.32954 355 43.6282 695.282 381.811
2240 0 39.0182 9.76468 381 44.4934 694.908 380.953
2241 0 37.0385 10.1516 376 44.5798 694.785 378.106
2242 0 39.0111 11.0994 433 43.8268 694.767 378.63
2243 0 43.0229 11.4822 494 42.3259 695.818 381.287
2244 0 46.0115 10.8451 499 43.1844 695.182 378.615
2245 0 45.0185 11.462 516 42.8779 695.793 377.36
2246 1 86.3394 9.4279 814 37.1093 695.875 384.265
2247 1 49.0146 10.7315 526 43.0551 695.487 375.525
2248 0 52.0703 11.3884 593 42.5329 695.135 377.116
2249 0 53.1075 10.6576 566 43.0424 696.037 373.012
2250 0 55.0738 11.4574 631 42.6006 696.25 373.575
2251 0 57.0305 11.9059 679 42.5287 695.848 372.492
2252 0 63.058 11.1168 701 42.4608 696.538 371.83
2253 0 64.0536 10.2727 658 43.3663 695.52 370.321
2254 0 66.0741 11.2147 741 42.5209 695.615 369.432
2255 0 66.0753 10.3518 684 43.4912 696.133 366.592
2256 0 67.1253 11.3817 764 43.0785 695.972 367.19
2257 0 73.0702 11.3589 830 42.7795 695.99 367.004
2258 0 74.094 11.202 830 43.1663 695.475 363.461
2259 1 38.2321 9.91314 379 45.1741 696.507 381.522
2260 0 37.0625 10.2529 380 45.3053 695.94 380.484
2261 0 39.2399 10.7544 422 45.3318 696.1 380.043
2262 0 42.0653 10.5312 443 45.3996 696.551 379.248
2263 0 45.3032 10.0214 454 45.467 696.991 377.753
2264 0 45.0799 10.9805 495 44.804 697.107 376.182
2265 0 46.0853 10.4589 482 45.6079 696.722 375.066
2266 0 46.0521 11.4436 527 45.2277 696.723 376.129
2267 0 52.0802 10.5222 548 45.2026 695.949 374.381
2268 0 50.0615 11.4859 575 44.9183 696.184 372.699
2269 0 50.0619 11.306 566 44.9929 696.481 370.47
2270 0 54.0335 11.6964 632 44.1835 695.968 371.636
2271 0 56.0534 11.721 657 44.4612 696.367 370.256
2272 0 61.0442 11.549 705 44.1745 696.201 371.316
2273 0 60.0335 11.1604 670 45.0104 696.324 369.894
2274 0 61.1272 11.4352 699 44.9371 696.173 367.26
2275 0 63.1097 11.2819 712 45.2542 696.68 366.183
2276 0 65.1257 11.6544 759 45.0237 695.767 365.794
2277 0 68.0602 10.858 739 45.3518 696.792 362.202
2278 0 73.0871 11.2195 820 45.0561 696.178 362.721
2279 0 76.1629 11.5411 879 44.7656 696.567 362.745
2280 0 79.1018 10.3917 822 45.3966 696.618 360.355
2281 0 79.1717 11.2161 888 45.2162 696.998 359.291
2282 1 38.1326 9.1785 350 47.4514 696.369 380.414
2283 0 38.1092 10.3387 394 46.9848 696.85 379.508
2284 0 40.0721 10.1816 408 46.9314 697.37 378.701
2285 0 40.0748 10.9046 437 46.8581 696.156 377.783
2286 0 42.037 11.3709 478 46.1569 696.284 377.699
2287 0 44.1343 10.8986 481 46.2245 696.782 376.661
2288 0 47.072 11.408 537 45.4246 697.27 376.806
2289 0 49.0826 11.4705 563 45.6199 696.05 375.066
2290 0 49.1622 11.3502 558 45.8298 695.758 373.719
2291 0 51.2238 11.1862 573 45.7592 696.721 374.956
2292 0 53.1609 11.2677 599 45.6678 696.559 369.92
2293 0 57.1256 10.3106 589 46.2258 697.182 370.423
2294 0 56.134 10.849 609 46.4943 696.87 370.034
2295 0 61.0966 10.9662 670 45.6836 697.494 369.178
2296 1 102.875 10.2357 1053 39.7464 696.991 376.25
2297 1 67.0837 10.8819 730 46.1233 696.758 367.062
2298 0 67.2505 11.4795 772 46.0376 696.622 365.949
2299 0 69.0564 10.5131 726 46.916 697.05 362.99
2300 0 71.1073 11.1662 794 46.5315 696.747 362.5
2301 0 73.264 11.2197 822 47.1582 697.196 359.757
2302 0 79.0682 11.6735 923 46.9382 696.726 359.696
2303 0 81.153 10.8068 877 47.6807 696.682 359.382
2304 1 166.924 14.8032 2471 39.0858 695.893 351.249
2305 1 87.1735 10.9093 951 47.0589 696.771 354.625
2306 0 89.2187 10.9058 973 46.8654 696.845 354.445
2307 0 92.1978 10.4558 964 47.4585 696.593 352.322
2308 1 44.2322 10.5127 465 47.714 696.363 376.794
2309 0 47.1368 10.8832 513 47.2573 697.121 375.166
2310 0 52.2164 10.5331 550 46.9636 697.249 375.022
2311 0 50.1334 11.0705 555 46.7315 697.304 372.214
2312 1 171.247 4.80007 822 39.8601 697.421 390.921
2313 1 53.1063 10.6014 563 46.9023 697.613 370.755
2314 0 56.0636 11.1659 626 45.8674 698.236 370.5
2315 0 60.0747 11.2693 677 45.9498 697.799 368.499
2316 0 60.0784 11.0356 663 46.2655 697.374 368.1
2317 0 62.1072 10.9166 678 46.4351 697.357 365.158
2318 0 67.0812 9.91336 665 46.8887 697.677 365.268
2319 0 66.1357 10.7809 713 46.9411 697.574 365.557
2320 0 70.033 10.6378 745 46.6872 697.219 361.498
2321 0 71.1581 11.0037 783 47.0243 696.884 363.103
2322 0 73.1888 10.671 781 47.3252 697.218 361.69
2323 0 78.069 10.1321 791 48.0088 696.812 361.152
2324 0 82.1863 10.5492 867 47.8697 697.568 361.409
2325 0 85.1586 10.1693 866 48.3418 697.752 359.23
2326 0 86.1001 10.2439 882 48.5816 697.342 357.271
2327 0 90.0805 9.75794 879 48.2071 697.757 356.256
2328 0 91.1827 10.1774 928 48.889 696.703 354.899
2329 0 93.1171 11.1043 1034 47.8627 697.057 354.101
2330 1 50.0483 11.349 568 47.8715 696.743 374.423
2331 0 51.0766 11.3946 582 47.9124 697.029 373.694
2332 0 54.0476 11.1383 602 47.3771 696.653 372.922
2333 0 55.057 11.0431 608 47.1595 696.929 370.495
2334 0 56.0413 11.438 641 46.9688 697.117 370.771
2335 0 58.1133 10.9269 635 47.178 697.424 368.658
2336 0 62.0608 12.0527 748 46.0414 697.019 369.584
2337 0 72.7106 17.2739 1256 11.9546 693.648 455.523
2338 0 69.1061 10.8963 753 46.0146 697.369 365.12
2339 0 69.1908 11.2298 777 46.193 696.785 364.463
2340 1 137.372 41.0419 5638 21.2033 694.027 382.557
2341 1 111.45 10.3544 1154 40.8709 697.239 371.24
2342 1 71.1939 10.9419 779 46.5879 697.574 362.647
2343 0 71.1794 10.8739 774 46.9793 697.067 362.756
2344 0 72.0971 10.4859 756 47.1508 696.686 362.681
2345 1 47.1449 10.4783 494 46.6417 696.945 374.874
2346 0 48.0231 10.724 515 46.1845 696.955 375.27
2347 0 47.0828 10.3435 487 46.6366 697.421 374.612
2348 0 46.1805 11.022 509 46.89 697.092 375.462
2349 0 46.0457 10.9239 503 47.2763 697.65 374.994
2350 0 50.1528 10.6475 534 46.8184 697.039 372.749
2351 1 165.394 4.66159 771 41.4786 696.141 387.302
2352 1 52.5173 21.0217 1104 36.0326 695.785 364.524
2353 1 23.0743 11.7447 271 12.845 692.398 432.624
2354 0 0 0 0 -nan -nan -nan
2355 0 0 0 0 -nan -nan -nan
2356 1 6 17 102 13.1471 694.039 424.647
2357 1 64.2521 11.3615 730 45.2219 697.055 368
2358 0 65.0624 11.6196 756 45.1799 697.102 366.689
2359 0 68.285 11.4667 783 45.0383 697.402 366.796
2360 0 70.0958 10.985 770 45.4403 697.534 363.716
2361 0 72.2641 11.4995 831 45.3165 698.091 364
2362 0 78.0931 11.2174 876 45.3174 697.848 364.366
2363 0 81.1874 11.2209 911 45.5818 697.295 363.445
2364 1 33.6996 16.8548 568 12.2482 695.225 440.282
2365 0 36.041 11.0152 397 47.5642 697.884 381.242
2366 0 38.005 10.9459 416 47.4062 698.12 381.635
2367 0 41.055 10.8148 444 47.2973 697.604 380.477
2368 0 42.14 11.2008 472 46.858 697.583 379.657
2369 0 44.2491 10.8929 482 46.8797 697.454 377.747
2370 0 47.1864 10.787 509 46.7642 696.536 377.041
2371 0 48.1019 11.8914 572 46.3234 696.15 376.83
2372 0 49.0349 11.8895 583 46.235 696.786 375.571
2373 0 50.0569 11.7067 586 46.0512 697.341 374.396
2374 0 53.0466 11.5559 613 46.0522 696.457 374.496
2375 0 54.1196 11.0496 598 46.1338 697.338 373.187
2376 0 58.0559 11.4545 665 45.5549 697.895 372.487
2377 1 110.15 9.23285 1017 40.1308 697.242 378.622
2378 1 59.038 11.0437 652 46.3451 697.186 368.107
2379 0 66.1172 11.3586 751 44.9787 697.218 369.258
2380 0 70.0682 10.5754 741 44.9528 698.038 366.374
2381 0 71.0659 11.032 784 44.3941 696.857 365.968
2382 0 76.2268 11.492 876 44.1027 696.453 363.627
2383 0 80.2464 10.8416 870 44.3161 696.229 364.172
2384 0 79.3105 10.9569 869 44.1623 696.89 362.324
2385 0 87.1296 10.5131 916 44.1212 696.595 359.873
2386 1 46.0413 10.5123 484 44.8037 696.649 378.785
2387 0 46.1475 11.2032 517 44.6596 696.631 377.234
2388 0 51.2039 10.7804 552 44.3225 695.828 375.502
2389 0 51.2186 12.1831 624 43.3462 696.684 376.386
2390 0 52.0496 11.9886 624 43.601 696.862 374.58
2391 0 53.0972 11.6579 619 44 696.808 373.586
2392 0 56.117 12.2423 687 43.2766 697.67 373.827
2393 0 57.0315 11.3271 646 44.0279 696.596 371.834
2394 0 53.8653 8.83686 476 12.4433 692.792 447.286
2395 1 61.0385 11.3207 691 43.9942 696.34 368.43
2396 0 66.0918 11.3327 749 43.1842 696.275 367.638
2397 0 68.2605 11.7931 805 43.2547 695.666 367.179
2398 0 70.0794 10.5737 741 44.251 696.699 365.769
2399 0 72.3422 12.1782 881 43.0068 696.405 367.477
2400 1 104.905 12.5828 1320 37.4742 696.695 374.442
2401 1 76.2021 11.0496 842 44.3777 696.282 362.758
2402 0 78.1976 11.7011 915 43.9224 696.271 362.826
2403 1 38.0561 11.7984 449 43.6815 696.695 383.626
2404 0 40.0383 10.5149 421 45.095 696.264 381.397
2405 0 39.0378 11.1687 436 44.9908 697.142 381.032
2406 0 39.0151 11.5596 451 45.2151 697.869 380.339
2407 0 44.1161 10.903 481 45.2869 697.825 380.676
2408 0 42.1386 10.7502 453 46.1126 697.616 378.287
2409 0 45.1152 11.5926 523 45.0822 697.998 378.243
2410 0 46.0719 10.7441 495 45.8081 697.412 375.519
2411 0 50.0573 10.8476 543 45.5046 696.888 376.794
2412 0 50.0419 11.3505 568 45.6796 697.366 375.428
2413 0 52.0465 11.1247 579 45.962 696.784 374.138
2414 0 53.0384 11.124 590 45.8119 696.846 372.914
2415 0 56.1901 11.0518 621 45.6973 696.675 371.718
2416 0 58.0367 11.1654 648 45.4537 696.772 370.776
2417 0 59.1748 10.8661 643 46.1866 697.457 369.635
2418 0 59.1011 10.1521 600 46.6333 697.453 366.97
2419 0 63.1506 10.8313 684 45.4254 697.902 367.969
2420 0 69.2244 10.6465 737 45.0963 697.752 366.338
2421 0 69.1718 10.9293 756 45.4087 697.713 364.94
2422 1 153.587 13.0935 2011 38.5216 696.786 359.451
2423 1 74.1419 10.1967 756 46.0331 697.19 361.447
2424 0 77.1756 10.8065 834 45.4928 697.79 362.165
2425 0 80.3277 10.1708 817 45.8482 697.25 361.881
2426 1 37.086 11.4868 426 46.3756 696.885 382.284
2427 0 40.048 10.5124 421 46.8812 696.917 380.663
2428 0 41.0926 11.3646 467 46.0899 695.996 381.026
2429 0 43.1282 10.8746 469 46.2132 696.375 380.868
2430 1 81.1283 8.78855 713 40.5428 696.826 386.912
2431 1 0 0 0 -nan -nan -nan
2432 0 0 0 0 -nan -nan -nan
2433 1 116.617 13.8316 1613 11.6144 692.824 492.392
2434 1 0 0 0 -nan -nan -nan
2435 0 0 0 0 -nan -nan -nan
2436 0 0 0 0 -nan -nan -nan
2437 1 161.997 5.30258 859 40.5565 695.63 384.842
2438 1 57.0977 11.7693 672 45.1116 696.415 371.132
2439 0 58.1266 11.3029 657 45.0776 695.656 369.16
2440 0 57.0654 11.075 632 45.7057 695.87 367.696
2441 0 60.0961 10.7328 645 45.7287 696.405 368.626
2442 0 64.1199 11.4473 734 44.9959 695.52 365.866
2443 1 120.017 38.2113 4586 22.517 692.747 376.274
2444 1 80.0362 19.6536 1573 33.7711 693.676 355.221
2445 1 106.488 12.6399 1346 37.3559 696.609 376.431
2446 1 0 0 0 -nan -nan -nan
2447 1 93.0378 16.3267 1519 11.5675 692.919 487.091
2448 0 79.1061 10.7198 848 45.5637 695.375 359.461
2449 1 135.078 12.4595 1683 36.9257 694.737 369.875
2450 1 85.2161 11.6762 995 44.5668 696.026 356.615
2451 0 88.12 11.2801 994 45.2445 696.029 355.471
2452 0 92.2809 11.2483 1038 45.1204 696.431 354.158
2453 0 89.1012 9.57338 853 39.2333 697.288 384.386
2454 1 0 0 0 -nan -nan -nan
2455 0 0 0 0 -nan -nan -nan
2456 0 0 0 0 -nan -nan -nan
2457 1 13.8738 6.84742 95 13.1789 691.095 427.947
2458 1 58.0419 10.9404 635 46.4157 696.066 371.608
2459 0 59.1563 11.9514 707 45.546 696.19 371.982
2460 0 61.1092 10.8822 665 46.1293 696.328 368.868
2461 0 64.099 11.4198 732 45.2623 696.152 369.598
2462 0 66.2235 11.733 777 44.9755 695.94 368.844
2463 0 65.2015 11.4875 749 45.7343 696.47 365.656
2464 0 72.1134 11.579 835 45.0527 696.023 363.871
2465 0 75.119 11.4751 862 45.1148 696.459 364.514
2466 0 74.0837 11.2035 830 45.6325 696.519 361.676
2467 0 80.1306 10.6451 853 46.0363 695.384 359.223
2468 0 80.2184 11.0074 883 45.9117 695.826 358.292
2469 1 62.9563 7.41785 467 12.4561 690.261 451.392
2470 1 18.8704 8.21391 155 13.2 688.071 428.019
2471 1 88.1625 12.0006 1058 45.4669 695.955 356.468
2472 0 100.389 19.8229 1990 11.3372 692.536 495.272
2473 1 99.2626 10.7996 1072 46.3871 695.274 350.877
2474 0 103.251 11.4091 1178 45.3387 696.107 349.37
2475 0 103.071 11.5357 1189 45.6955 694.97 348.738
2476 0 108.154 11.3449 1227 46.0782 694.967 347.49
2477 0 113.198 11.184 1266 46.1659 694.847 344.94
2478 0 114.206 11.4267 1305 46.3701 695.523 342.565
2479 1 63.0863 10.9216 689 48.1727 695.023 367.745
2480 0 68.1422 11.3146 771 47.8106 694.003 368.187
2481 1 296.883 17.4075 5168 36.5019 693.978 314.502
2482 1 133.126 11.2224 1494 46.7336 695.283 332.592
2483 1 76.1651 11.3832 867 48.1615 694.573 363.529
2484 0 78.037 11.2254 876 48.0457 694.949 361.006
2485 0 82.0766 11.867 974 47.3819 695.12 361.055
2486 0 83.0985 11.697 972 48.0041 694.552 361.377
2487 0 85.1741 11.7994 1005 48.0378 695.077 358.762
2488 0 90.1881 11.3319 1022 48.3454 695.06 355.16
2489 1 139.115 13.7872 1918 39.2299 696.035 366.624
2490 1 95.0607 11.5295 1096 48.3777 695.846 352.037
2491 0 101.234 12.0315 1218 47.876 696.058 350.755
2492 0 104.18 10.693 1114 49.2855 694.901 348.012
2493 0 106.182 10.6045 1126 49.103 695.578 346.858
2494 0 116.172 11.8789 1380 47.5391 694.773 346.438
2495 0 118.168 11.1536 1318 48.4696 695.236 343.872
2496 0 124.622 7.29406 909 44.3245 694.514 382.309
2497 0 123.21 10.9488 1349 48.6909 695.718 340.428
2498 0 128.168 10.7515 1378 48.5544 695.533 339.127
2499 0 133.212 11.5305 1536 48.0026 694.779 336.898
2500 0 140.277 11.021 1546 48.1287 695.219 334.085
2501 0 142.075 10.959 1557 48.6159 694.516 330.629
2502 0 150.246 10.7557 1616 48.6918 695.337 328.046
2503 0 155.232 11.0673 1718 48.748 695.54 324.907
2504 1 77.1032 11.5819 893 49.3359 695.905 362.24
2505 0 80.1443 11.8661 951 49.2629 695.691 362.746
2506 0 80.2907 11.3587 912 49.9485 695.464 357.662
2507 0 83.2196 11.5958 965 50.1223 695.079 357.834
2508 0 90.1902 11.4425 1032 49.8653 695.684 357.977
2509 0 88.0666 11.1734 984 50.5132 695.376 354.642
2510 0 91.1265 10.5897 965 51.2342 695.195 354.276
2511 1 132.457 14.4424 1913 41.3497 695.733 367.325
2512 1 0 0 0 -nan -nan -nan
2513 1 5 13.2 66 13.6061 692.833 429.848
2514 1 182.596 10.3288 1886 43.6771 696.139 359.585
2515 1 108.064 11.2989 1221 51.0663 695.812 345.179
2516 1 54.0393 11.4546 619 52.2213 695.72 373.486
2517 0 54.1543 11.5226 624 52.4263 695.7 373.16
2518 0 57.1119 10.9785 627 52.689 695.517 370.973
2519 0 62.1343 10.767 669 52.2033 695.317 369.649
2520 0 65.1232 10.6721 695 51.9223 695.586 367.647
2521 1 108.228 11.1986 1212 44.2038 695.393 374.807
2522 1 66.0453 11.4316 755 51.0079 696.212 366.264
2523 0 69.0927 11.3905 787 51.0559 695.405 364.182
2524 0 73.113 11.5164 842 50.8694 695.025 362.424
2525 0 78.1006 11.37 888 50.3953 694.91 361.241
2526 0 80.0904 11.2872 904 50.8761 694.816 359.757
2527 0 82.0665 11.4054 936 50.6645 694.881 357.462
2528 0 85.1178 10.7263 913 51.5433 695.548 355.493
2529 0 86.0565 10.4815 902 51.653 695.06 352.833
2530 0 88.3356 11.0714 978 50.953 695.168 352.322
2531 1 36.0087 11.2473 405 51.7704 696.296 379.993
2532 0 37.0261 10.5061 389 52.3573 695.578 378.028
2533 0 42.0413 10.5848 445 51.3011 695.382 377.782
2534 0 41.0831 10.8074 444 51.8829 695.486 376.689
2535 0 44.0518 11.7816 519 50.5183 694.961 377.873
2536 0 46.0371 10.9477 504 50.8433 694.796 376.105
2537 1 90.1342 10.9392 986 40.929 696.281 387.926
2538 1 137.132 10.4936 1439 49.82 695.302 331.288
2539 0 136.332 10.7825 1470 49.5755 695.379 331.819
2540 0 138.319 10.7722 1490 49.9799 695.558 332.55
2541 1 192.276 13.7303 2640 41.4129 695.095 351.133
2542 1 59.0207 12.0466 711 52.0563 694.781 371.208
2543 0 58.0352 11.4241 663 52.6139 694.544 369.255
2544 0 60.0706 11.2534 676 53.0163 694.448 367.775
2545 0 63.0523 11.546 728 52.4437 695.765 366.254
2546 0 65.1258 11.5469 752 52.8604 696.569 365.388
2547 0 69.0966 10.9991 760 52.7526 695.82 364.586
2548 0 69.0295 11.2995 780 52.5346 696.109 360.845
2549 0 74.1237 11.1705 828 52.3007 695.895 360.942
2550 0 78.0932 11.1405 870 52.1563 695.837 359.141
2551 0 79.1097 11.7938 933 51.2422 696.194 359.622
2552 0 85.084 11.3535 966 50.7847 696.326 358.188
2553 0 87.0795 10.7947 940 50.9862 695.669 356.403
2554 0 82.1595 9.60327 789 43.6413 696.251 384.508
2555 1 43.0562 10.1728 438 52.6279 695.235 376.822
2556 0 42.049 10.2262 430 53.3349 696.323 375.521
2557 0 42.0877 10.8583 457 53.046 696.236 376.208
2558 0 43.0493 11.1268 479 52.9478 695.668 376.894
2559 0 47.0532 10.35 487 52.5277 695.242 374.269
2560 0 47.0903 11.3399 534 51.9569 695.292 374.558
2561 0 50.0329 11.8122 591 51.0897 695.022 374.971
2562 1 101.161 10.4981 1062 41.4991 696.018 384.099
2563 1 51.0547 11.2428 574 50.7735 694.808 371.223
2564 0 56.0573 11.6309 652 50.0997 695.873 369.08
2565 0 56.0393 11.5812 649 50.6487 695.633 368.092
2566 0 64.0845 11.1259 713 49.9032 694.752 368.307
2567 0 62.1285 11.1865 695 50.2647 695.709 366.586
2568 0 65.0727 10.834 705 50.2879 695.793 362.997
2569 0 69.0374 10.9651 757 49.9538 695.753 363.383
2570 0 68.0884 11.0592 753 50.2736 695.505 361.207
2571 0 72.0986 10.7769 777 50.3681 695.566 359.404
2572 0 77.069 10.3673 799 50.4643 695.914 358.21
2573 0 81.092 10.112 820 50.2024 695.559 358.061
2574 0 79.0796 10.1543 803 50.4882 695.27 356.1
2575 0 87.1118 10.366 903 49.5847 695.212 354.241
2576 0 89.1508 10.8468 967 48.8656 696.17 353.801
2577 0 89.1715 10.2948 918 49.4597 695.498 351.576
2578 1 129.957 13.8969 1806 40.3671 695.742 364.891
2579 1 40.0434 11.6624 467 51.0278 695.949 376.306
2580 0 44.1102 11.9927 529 49.8639 695.764 374.51
2581 0 46.0726 11.6772 538 50.184 695.26 377.719
2582 0 47.0518 11.7318 552 50.6902 695.875 373.531
2583 0 48.0544 11.7575 565 51.1292 695.734 371.775
2584 0 50.0836 11.8602 594 51.0219 695.614 372.103
2585 0 55.109 11.7767 649 50.5871 695.92 371.351
2586 0 55.1138 11.9752 660 51.0545 694.761 368.411
2587 1 100.465 11.0188 1107 43.5989 694.959 376.887
2588 1 58.0644 11.4184 663 51.9442 695.483 367.43
2589 0 61.0929 11.4416 699 51.731 695.631 366.469
2590 0 61.1434 12.07 738 52.0244 695.36 365.557
2591 0 65.156 11.1885 729 52.4444 695.497 365.754
2592 0 67.0866 11.7758 790 52.0595 695.573 364.038
2593 0 68.1862 11.7912 804 52.4204 695.387 360.668
2594 0 71.17 11.5358 821 52.3142 695.984 360.526
2595 0 75.1393 10.8465 815 52.7104 695.66 359.877
2596 0 77.1253 11.9416 921 51.4799 695.464 359.629
2597 0 82.2384 11.3694 935 51.4192 696.831 357.353
2598 0 82.1399 11.5048 945 51.4984 696.22 354.044
2599 0 85.0832 10.8717 925 51.7005 696.867 355.424
2600 0 90.1732 11.2783 1017 51.0659 696.563 352.918
2601 1 179.24 15.5545 2788 41.9433 695.968 345.755
2602 1 199.378 11.7365 2340 49.6132 695.862 299.431
2603 1 248.585 17.0968 4250 39.5847 696.359 326.792
2604 1 160.248 11.7568 1884 50.5382 696.28 318.568
2605 0 166.399 11.6347 1936 50.7774 695.821 314.245
2606 0 173.148 11.649 2017 51.0778 695.567 312.531
2607 0 179.326 12.3184 2209 50.4817 695.891 312.545
2608 0 185.408 12.0437 2233 51.0855 695.192 307.603
2609 0 194.383 12.0329 2339 50.9376 695.845 304.592
2610 0 198.402 12.0563 2392 51.3763 695.843 302.407
2611 0 204.212 11.4293 2334 52.3672 695.588 297.794
2612 0 210.502 11.6436 2451 51.9788 696.651 294.076
2613 1 141.232 11.8246 1670 51.3341 696.043 333.325
2614 0 142.341 11.1633 1589 52.6879 696.069 329.526
2615 0 146.337 11.0635 1619 52.7412 696.311 325.189
2616 0 151.246 10.8565 1642 53.1376 696.4 322.632
2617 0 157.269 11.1402 1752 52.6239 696.798 321.999
2618 0 162.403 11.1944 1818 52.423 696.471 321.668
2619 1 127.217 11.162 1420 53.2169 696.316 335.518
2620 0 134.174 9.74106 1307 53.922 696.113 333.653
2621 0 140.337 11.2943 1585 52.3136 695.86 331.291
2622 0 144.255 11.0499 1594 52.2729 696.054 328.347
2623 0 147.346 10.7366 1582 52.5746 696.516 325.341
2624 0 154.314 11.172 1724 51.786 696.749 324.718
2625 0 159.232 11.0153 1754 52.0285 696.981 321.16
2626 0 155.774 13.9689 2176 42.8465 696.61 359.009
2627 1 113.203 11.1216 1259 52.0056 696.728 342.28
2628 0 118.117 11.006 1300 52.2031 695.566 342.829
2629 0 122.153 10.7815 1317 52.7282 696.323 340.885
2630 0 125.171 11.1367 1394 52.9993 696.047 338.76
2631 0 133.211 10.4271 1389 53.5904 696.431 335.179
2632 0 134.358 10.3902 1396 54.1497 696.13 335.374
2633 0 135.264 10.6606 1442 54.2178 696.094 333.365
2634 0 142.288 10.5209 1497 54.6219 696.223 331.244
2635 0 148.186 10.5746 1567 54.5093 696.095 329.631
2636 1 247.749 7.37441 1827 47.2917 695.334 365.419
2637 1 115.116 11.1539 1284 54.824 696.054 345.122
2638 0 119.165 10.7246 1278 55.1354 695.51 341.188
2639 0 123.23 10.6306 1310 55.316 694.831 337.936
2640 0 128.105 10.6084 1359 54.9043 695.131 338.369
2641 0 132.274 10.1683 1345 55.0491 694.842 334.428
2642 1 186.039 14.626 2721 43.918 694.37 350.402
2643 1 142.096 10.7322 1525 54.5469 694.173 327.505
2644 0 150.367 10.2749 1545 54.3269 694.235 326.263
2645 0 153.212 10.9978 1685 53.8463 694.355 324.731
2646 0 159.297 11.2306 1789 53.3952 694.12 320.664
2647 0 164.272 10.5618 1735 53.6184 694.585 318.989
2648 1 187.285 10.7803 2019 43.3071 693.156 358.596
2649 1 117.285 10.4617 1227 50.2747 694.033 344.61
2650 0 120.076 10.5683 1269 49.9244 694.214 341.078
2651 0 125.186 10.3765 1299 49.7898 694.827 340.918
2652 0 130.311 10.9124 1422 49.403 694.065 338.333
2653 0 133.271 11.0301 1470 49.3279 694.11 336.441
2654 1 65.1736 10.5411 687 48.9651 693.852 368.802
2655 0 70.1377 10.3796 728 48.5893 693.83 367.604
2656 0 71.0582 10.02 712 48.6938 694.536 365.801
2657 0 72.2047 10.7334 775 48.0735 694.05 365.883
2658 0 76.1086 10.3668 789 48.5868 693.45 362.809
2659 0 78.165 10.5674 826 48.3027 694.303 361.398
2660 0 79.1211 10.3765 821 48.4957 694.357 360.451
2661 1 36.0896 10.28 371 49.0431 694.307 382.005
2662 0 36.0275 11.1026 400 48.6575 694.888 381.92
2663 0 36.0198 10.7163 386 49.1244 694.275 379.207
2664 0 40.0827 10.4783 420 48.8357 694.476 381.3
2665 0 40.0209 10.8194 433 48.6859 694.751 379.118
2666 0 41.0355 10.6493 437 48.8032 695.188 379.087
2667 0 44.0104 11.2246 494 48 695.024 377.98
2668 0 46.0839 10.7847 497 48.0362 693.982 377.264
2669 0 47.03 11.4608 539 47.3525 694.356 377.703
2670 0 48.0726 11.1498 536 47.7444 694.323 375.431
2671 0 53.0907 10.774 572 47.264 694.951 373.096
2672 0 52.1918 11.1703 583 47.7976 694.645 374.513
2673 0 54.0414 10.8991 589 47.7912 694.868 373.864
2674 0 56.1595 11.1468 626 47.5096 694.8 372.82
2675 0 58.0387 11.2511 653 47.6233 694.374 371.208
2676 0 60.0778 11.6016 697 47.3759 694.476 369.693
2677 0 63.0549 11.9103 751 47.3981 694.531 368.904
2678 0 66.0702 11.5937 766 47.564 694.544 368.529
2679 0 69.0386 11.0228 761 48.3587 694.896 367.355
2680 0 71.0864 11.7041 832 47.9964 694.522 364.968
2681 0 74.1754 11.729 870 47.8092 695.258 363.885
2682 0 76.0466 11.5061 875 48.3429 694.84 361.744
2683 0 79.0772 11.2801 892 47.8957 694.738 361.364
2684 0 83.0783 12.0128 998 47.1022 694.697 361.195
2685 0 86.1012 11.8117 1017 47.2704 694.829 358.65
2686 0 87.1288 11.2018 976 48.1322 694.498 356.029
2687 1 150.506 11.4016 1716 40.3963 694.534 365.674
2688 1 106.495 20.3014 2162 36.1448 692.455 339.68
2689 0 104.717 20.4838 2145 36.5436 692.87 340.734
2690 0 102.794 19.9817 2054 37.0029 692.387 339.327
2691 0 103.333 20.6129 2130 36.6225 692.925 339.375
2692 1 148.71 15.6748 2331 37.9511 695.841 361.768
2693 1 110.165 12.0456 1327 46.7581 695.607 341.591
2694 0 115.139 12.1592 1400 46.74 695.624 340.04
2695 0 119.233 12.1359 1447 46.8113 695.527 337.912
2696 0 122.11 12.022 1468 46.9687 696.114 336.888
2697 0 131.118 12.0959 1586 46.4641 695.481 334.914
2698 0 135.115 12.0046 1622 46.6443 695.176 331.872
2699 0 137.28 11.5312 1583 47.7119 695.03 328.63
2700 0 142.148 11.8468 1684 47.554 695.485 327.467
2701 1 57.0301 10.7838 615 50.1041 696.35 369.548
2702 0 56.1014 11.5683 649 50.1941 696.031 369.735
2703 0 60.0921 10.9665 659 50.3703 696.178 367.372
2704 0 60.0325 11.2939 678 50.6239 696.196 367.229
2705 0 62.1414 11.1842 695 50.6547 696.594 365.901
2706 0 64.0647 11.6289 745 50.5826 696.538 365.757
2707 0 67.0604 12.0339 807 52.8042 696.854 365.976
2708 0 71.1699 11.1704 795 52.4755 696.912 364.927
2709 0 72.0841 11.0565 797 52.9059 696.711 362.105
2710 0 76.1455 11.0709 843 52.1886 697.515 359.84
2711 0 79.1251 10.9573 867 52.2053 696.826 358.982
2712 0 82.1341 10.9942 903 52.1462 697.343 357.278
2713 0 85.2922 11.1499 951 51.7403 696.84 355.076
2714 0 85.1202 11.5836 986 51.9625 696.603 355.504
2715 1 343.981 16.1898 5569 35.6274 696.14 338.955
2716 0 336.126 17.6273 5925 36.1617 695.956 323.332
2717 1 178.432 5.46986 976 39.2602 696.619 408.83
2718 1 45.1101 10.3081 465 54.0108 697.039 375.662
2719 0 43.1915 23.3148 1007 12.0109 693.058 455.002
2720 0 48.0868 11.0217 530 53.5528 697.102 374.991
2721 0 55.0984 17.7501 978 12.1278 694.13 459.33
2722 0 49.105 10.6506 523 54.9618 697.803 371.836
2723 1 190.436 10.9433 2084 52.5154 697.01 306.107
2724 1 336.717 10.5044 3537 42.6319 696.859 342.831
2725 1 282.842 13.329 3770 40.7302 695.449 344.825
2726 1 187.181 10.5406 1973 53.3908 696.302 307.318
2727 1 301.857 12.1051 3654 42.0156 695.536 344.273
2728 1 279.152 14.5942 4074 39.7538 695.101 348.417
2729 1 98.78 12.047 1190 11.9924 693.805 472.382
2730 0 67.0701 11.1823 750 52.984 696.983 363.584
2731 1 414.45 20.1979 8371 36.2681 695.799 306.539
2732 1 416.587 17.1105 7128 37.459 695.733 314.661
2733 1 384.935 25.1003 9662 32.9876 694.314 318.481
2734 0 430.263 14.2006 6110 40.6324 695.127 306.059
2735 1 387.751 19.9381 7731 36.657 695.852 311.545
2736 1 213.389 14.0354 2995 39.1633 695.637 361.111
2737 0 214.16 8.17146 1750 40.3343 695.557 384.211
2738 1 178.968 10.4991 1879 40.1293 696.799 376.158
2739 1 201.118 9.01461 1813 39.6023 695.914 382.958
2740 1 248.914 9.34057 2325 38.2766 696.733 380.792
2741 1 189.908 13.338 2533 37.0474 696.056 372.202
2742 1 165.351 15.8632 2623 36.6496 696.3 369.632
2743 1 190.387 12.6427 2407 38.8986 696.464 367.872
2744 0 188.042 12.9386 2433 39.3502 696.104 366.635
2745 1 200.572 12.25 2457 39.9548 696.006 367.508
2746 0 200.619 11.8982 2387 41.0557 696.412 365.092
2747 0 189.781 6.70245 1272 38.4049 696.724 404.679
2748 0 197.666 14.7269 2911 39.2669 696.091 362.927
2749 1 258.746 9.1982 2380 44.3727 695.945 353.347
2750 1 275.408 9.19362 2532 42.7235 696.299 364.055
2751 0 271.291 10.0188 2718 43.9352 695.947 349.39
2752 0 281.431 14.5897 4106 40.7133 696.217 338.554
2753 0 275.886 10.8741 3000 43.019 696.127 348.742
2754 1 295.58 10.2984 3044 43.042 695.846 351.107
2755 1 254.625 12.0373 3065 43.7031 696.301 342.321
2756 1 226.725 15.5387 3523 39.6506 696.624 351.925
2757 1 112.445 10.7964 1214 11.9951 695.883 478.977
2758 0 92.8749 2.0673 192 24.8802 695.214 440.099
2759 1 68.1449 2.6561 181 28.6575 700.216 421.282
2760 1 124.945 1.54468 193 29.5959 693.803 430
2761 1 109.476 11.1349 1219 40.612 696.7 386.916
2762 1 140.91 8.28898 1168 40.5634 697.328 390.566
2763 0 131.297 8.92636 1172 39.9121 696.695 390.613
2764 1 151.799 7.32546 1112 41.5135 695.973 389.795
2765 0 140.235 1.49749 210 24.4857 694.905 462.262
2766 0 149.774 8.17896 1225 40.7608 696.178 386.747
2767 1 119.009 10.579 1259 40.9587 695.836 383.09
2768 1 204.179 5.69597 1163 41.2708 695.652 397.198
2769 1 158.917 8.06079 1281 40.6347 695.632 389.087
2770 1 77.1058 2.24367 173 28.0694 698.462 424.035
2771 0 76.4421 19.3087 1476 11.7812 690.541 476.578
2772 1 22.5323 20.5482 463 12.1641 694.622 448.868
2773 1 58.357 18.0098 1051 12.0904 693.013 460.503
2774 1 43.1279 15.257 658 12.1231 692.982 452.635
2775 1 92.6321 18.7624 1738 11.5834 689.718 490.254
2776 1 26.3573 19.9565 526 12.1236 689.517 453.019
2777 1 11.0733 18.5129 205 12.2244 686.424 446.756
2778 1 37.8926 21.5609 817 12.1518 692.809 452.517
2779 1 11.3238 19.3398 219 12.3881 697.594 441.306
2780 1 40.9374 15.6825 642 12.204 695.266 449.081
2781 0 16.0082 9.62004 154 35.1169 698.448 406.734
2782 0 15.0057 9.7963 147 35.4422 697.85 406.313
2783 1 55.008 12.1073 666 12.1471 692.504 464.255
2784 1 72.4649 18.9609 1374 11.7547 692.979 473.965
2785 1 35.8084 15.8343 567 12.1287 694.048 455.792
2786 0 0 0 0 -nan -nan -nan
2787 0 0 0 0 -nan -nan -nan
2788 0 29.2458 19.9687 584 12.1182 694.01 449.18
2789 1 117.638 12.2155 1437 11.8052 693.454 491.967
2790 1 41.0798 12.9748 533 12.4465 695.045 447.047
2791 1 0 0 0 -nan -nan -nan
2792 0 0 0 0 -nan -nan -nan
2793 0 0 0 0 -nan -nan -nan
2794 1 51.2478 14.7519 756 12.2553 693.988 452.566
2795 1 0 0 0 -nan -nan -nan
2796 0 11.2157 10.6993 120 13.1667 685.558 429.108
2797 1 20.0473 9.92652 199 35.603 697.734 403.131
2798 1 128.015 2.10131 269 29.9703 697.591 428.405
2799 1 22.0507 10.1584 224 35.4732 698.558 401.571
2800 0 18.1448 19.5098 354 12.1073 692.299 453.83
2801 0 20.0558 9.37386 188 37.0532 697.644 401.702
2802 0 22.9246 17.972 412 12.2233 694.468 447.874
2803 1 71.1792 20.5257 1461 11.8665 692.611 469.52
2804 1 28.9549 17.9244 519 12.2697 691.31 450.615
2805 0 23.0981 10.1307 234 37.5043 697.504 401.919
2806 0 23.1134 10.0807 233 37.7682 696.815 401.828
2807 0 23.0419 10.763 248 37.5685 697.488 402.637
2808 1 113.244 12.2303 1385 41.3574 696.03 378.832
2809 1 221.797 12.7414 2826 47.0453 695.718 305.425
2810 0 229.626 12.9863 2982 46.3364 695.841 301.698
2811 0 237.799 12.7082 3022 46.6433 695.669 298.513
2812 0 247.798 12.8331 3180 46.6154 695.448 292.817
2813 1 283.078 17.5252 4961 38.3318 695.774 321.767
2814 0 268.835 12.1562 3268 47.198 695.792 282.63
2815 0 275.685 12.5288 3454 46.7826 695.166 279.713
2816 1 245.687 11.7629 2890 47.4557 695.985 300.327
2817 1 273.352 17.6219 4817 38.0272 696.839 327.284
2818 1 342.074 12.3628 4229 41.4254 696.413 316.973
2819 1 248.064 12.0896 2999 48.124 697.227 294.759
2820 0 249.092 12.3489 3076 47.8205 696.283 297.916
2821 1 53.1687 7.95581 423 33.3948 697.522 404.26
2822 1 28.1487 10.7287 302 38.2483 697.811 400.619
2823 0 23.7006 24.0078 569 12.2671 693.924 449.234
2824 0 29.1907 10.243 299 39.592 697.492 399.906
2825 1 69.106 34.0926 2356 19.146 694.219 408.983
2826 1 35.009 18.5952 651 30.2012 693.896 394.7
2827 1 103.147 3.53864 365 36.5644 696.918 405.899
2828 1 0 0 0 -nan -nan -nan
2829 0 0 0 0 -nan -nan -nan
2830 0 0 0 0 -nan -nan -nan
2831 1 11.0347 34.8901 385 12.1792 694.94 447.358
2832 1 56.7898 10.4068 591 12.1286 689.997 469.508
2833 1 0 0 0 -nan -nan -nan
2834 1 18.9288 13.0489 247 12.6437 693.846 444.874
2835 0 0 0 0 -nan -nan -nan
2836 1 9.06072 15.4513 140 13.15 693.621 438.236
2837 1 0 0 0 -nan -nan -nan
2838 0 0 0 0 -nan -nan -nan
2839 1 95.1222 13.6351 1297 11.9429 693.357 482.003
2840 1 0 0 0 -nan -nan -nan
2841 1 10.0315 9.86894 99 13.0707 692.212 440.778
2842 1 41.1687 10.7606 443 41.8465 696.765 393.973
2843 0 41.2294 10.5507 435 42.0483 697.188 391.756
2844 0 42.3767 11.7518 498 12.5984 691.849 454.251
2845 1 19.0436 6.03876 115 13.1652 685.087 435.383
2846 1 41.0595 10.9597 450 42.5467 697.22 394.093
2847 0 44.1682 10.9355 483 42.1077 698.265 392.12
2848 0 43.229 11.0342 477 43.1698 697.264 390.912
2849 0 44.2937 11.356 503 44.0775 697.042 391.221
2850 0 46.0444 11.3586 523 44.7706 697.134 390.417
2851 0 45.2429 11.1178 503 44.6839 696.988 389.763
2852 1 10.1191 11.2659 114 13.0614 696.325 443.167
2853 1 0 0 0 -nan -nan -nan
2854 1 15.4948 8.64805 134 13.0896 694.388 444.619
2855 1 85.8304 10.7188 920 34.7815 698.866 404.286
2856 1 48.4745 11.5525 560 44.6607 697.339 390.793
2857 0 48.3374 11.668 564 44.5408 696.222 389.612
2858 0 48.2795 11.392 550 45.2673 695.689 390.498
2859 0 50.4666 11.1163 561 45.2727 696.629 389.551
2860 0 49.3741 11.9698 591 44.1963 696.885 389.486
2861 0 52.34 11.3489 594 44.9478 696.613 390.973
2862 0 51.2209 10.9526 561 45.5865 697.274 389.219
2863 0 52.3232 11.0849 580 45.3431 697.226 388.981
2864 1 78.1375 11.2238 877 39.488 696.15 394.656
2865 1 92.3018 9.52311 879 39.9795 695.974 393.367
2866 1 56.728 11.6521 661 45.1014 696.812 387.548
2867 0 56.5032 11.4861 649 45.7519 696.732 388.348
2868 0 55.4414 11.2912 626 46.4377 697.163 388.495
2869 0 57.4195 11.5292 662 46.3112 696.825 387.692
2870 0 57.4416 11.8555 681 46.4728 695.972 388.652
2871 0 57.4768 11.8483 681 46.6476 696.485 388.946
2872 0 52.7831 11.6136 613 12.708 692.561 460.201
2873 0 58.415 11.1102 649 47.2989 696.522 387.217
2874 0 58.5756 11.5918 679 47.1974 696.202 388.289
2875 0 58.3653 11.1368 650 48.2215 696.495 387.18
2876 0 59.3501 12.0809 717 47.3208 697.192 387.377
2877 0 59.4787 11.315 673 49.8128 696.342 386.366
2878 0 60.2833 10.8156 652 50.2791 697.213 387.293
2879 0 59.364 11.7917 700 50.4014 697.166 386.646
2880 0 60.6218 10.8707 659 51.8164 697.014 387.889
2881 0 61.4848 11.2873 694 52.0043 697.017 386.829
2882 0 61.4657 11.6325 715 52.1259 697.54 385.421
2883 0 62.5855 11.2167 702 52.4031 697 386.009
2884 0 62.5878 11.1843 700 52.2814 697.233 385.881
2885 0 61.7116 11.9426 737 52.6757 696.681 386.577
2886 0 61.6268 11.7806 726 54.0207 696.216 385.941
2887 0 63.6455 11.9254 759 54.1871 696.692 385.394
2888 0 62.6426 12.0046 752 55.2646 696.035 384.767
2889 0 61.464 12.1047 744 56.1384 696.636 384.258
2890 0 62.6972 12.5205 785 55.7376 696.426 384.285
2891 0 62.6383 12.181 763 56.6658 696.769 385.443
2892 0 62.7346 12.5449 787 57.0305 696.794 386.962
2893 0 60.8125 12.8427 781 58.1242 696.451 387.05
2894 0 62.8263 12.1924 766 58.705 696.992 386.632
2895 0 61.5751 12.8136 789 58.0127 696.833 385.676
2896 0 61.6489 12.2792 757 58.2986 696.236 385.822
2897 0 101.869 11.4853 1170 48.3872 697.324 393.956
2898 0 62.5683 12.6262 790 57.0886 697.329 385.319
2899 0 63.6832 12.4209 791 57.1037 696.583 384.951
2900 0 66.8056 12.469 833 55.7503 696.473 384.048
2901 0 66.5986 12.0123 800 56.455 696.485 384.786
2902 0 68.873 12.0512 830 55.6964 696.781 383.52
2903 0 70.0043 12.3849 867 54.7855 696.674 383.172
2904 0 70.5599 11.8764 838 55.241 696.399 382.844
2905 1 132.903 8.22407 1093 50.054 696.128 386.051
2906 1 70.5398 11.4829 810 54.5704 695.972 382.165
2907 1 102.128 10.5553 1078 48.4063 697.2 386.91
2908 1 74.295 11.8716 882 53.3753 697.161 378.461
2909 0 77.6359 11.8244 918 52.3224 696.48 378.798
2910 0 79.7612 11.8604 946 51.8129 696.056 377.38
2911 0 77.8304 11.4994 895 52.7955 696.194 377.365
2912 0 81.608 11.7023 955 51.8743 695.973 376.838
2913 0 82.8049 11.4607 949 51.6681 696.061 376.649
2914 0 83.0578 11.5221 957 51.8631 696.328 375.029
2915 0 84.4153 11.6211 981 51.6779 695.761 375.994
2916 0 82.8789 12.0658 1000 47.78 696.259 375.977
2917 1 138.744 11.2653 1563 54.7575 695.733 348.646
2918 0 136.656 11.5033 1572 55.4714 696.278 347.278
2919 1 177.909 14.3669 2556 45.2731 695.854 359.838
2920 1 139.74 11.7075 1636 54.7989 696.095 346.202
2921 0 143.158 12.1893 1745 54.3312 697.076 346.681
2922 1 177.028 15.5286 2749 45.3994 696.818 358.436
2923 1 142.051 13.0446 1853 54.7043 696.687 343.829
2924 0 141.631 13.401 1898 55.0042 697.13 344.253
2925 0 141.715 12.9344 1833 55.8522 696.675 343.352
2926 1 190.932 15.6234 2983 45.6912 696.561 359.067
2927 0 185.349 16.6335 3083 46.4356 697.011 355.129
2928 1 158.244 13.5234 2140 56.5537 696.171 337.186
2929 1 230.635 12.9989 2998 48.9523 695.907 353.085
2930 1 161.155 13.4218 2163 57.2848 696.433 338.263
2931 1 194.94 17.2874 3370 46.6036 695.83 354.139
