time division length width area intensity CMx CMy
726 0 60.2367 11.156 672 47.6548 815.702 387.716
727 0 61.2677 11.6211 712 47.0941 815.871 388.749
728 0 66.2054 11.5398 764 45.9594 815.33 388.505
729 0 64.1973 11.231 721 47.6338 815.422 387.194
730 0 66.1385 11.5818 766 47.1149 815.179 386.411
731 0 69.1781 10.9283 756 47.5979 815.944 384.597
732 0 73.1508 12.0026 878 45.9487 815.804 384.938
733 0 71.2043 11.5583 823 46.9733 815.129 383.625
734 0 76.2395 11.5688 882 46.4116 814.514 380.503
735 0 79.3003 10.9205 866 47.5058 814.336 379.716
736 0 82.4611 11.5085 949 45.9863 814.513 379.631
737 0 85.2391 10.934 932 47.0043 814.397 377.412
738 0 86.3722 11.3347 979 46.8141 814.438 375.182
739 0 89.3344 11.317 1011 46.9041 814.611 375.078
740 1 75.5212 8.52741 644 42.823 814.256 398.278
741 1 48.1594 10.0084 482 47.4751 814.384 394.523
742 0 49.2949 10.0619 496 47.8165 815.052 394.607
743 0 52.1302 10.3203 538 47.3903 815.506 394.158
744 0 52.2242 10.2443 535 47.6224 814.75 392.731
745 0 53.1425 11.3092 601 46.3993 814.794 391.233
746 0 55.2502 11.1131 614 46.7948 814.629 390.482
747 0 55.1061 10.8155 596 47.9849 815.198 389.347
748 0 58.3554 11.2757 658 47.0684 814.675 388.38
749 1 94.7396 10.5447 999 40.8539 814.951 391.866
750 1 62.3262 11.3275 706 46.5113 814.686 384.322
751 0 65.0955 11.3986 742 46.0943 815.094 387.937
752 0 65.2485 11.7244 765 46.0889 815.556 385.804
753 0 69.1941 11.8074 817 45.2215 815.364 385.127
754 0 71.3041 12.5519 895 44.4682 815.441 382.335
755 0 72.2529 11.6258 840 45.8583 815.515 380.883
756 0 79.2578 11.0147 873 45.7583 815.245 378.843
757 0 76.2361 11.9235 909 46.0242 815.229 377.262
758 0 79.3126 10.9945 872 47.0768 814.702 375.381
759 0 79.1808 11.72 928 46.4968 814.273 373.926
760 0 83.1959 11.4188 950 46.5074 814.203 372.08
761 0 86.1958 12.1352 1046 46.1262 815.509 371.864
762 0 89.1586 11.1711 996 47.8775 815.868 369.462
763 0 91.2528 11.7366 1071 47.1447 815.399 370.318
764 0 96.1915 11.5187 1108 47.4964 815.52 367.57
765 1 52.1339 10.1661 530 47.5604 815.623 390.428
766 0 51.1182 9.99644 511 49.3366 815.462 388.01
767 0 53.1297 10.992 584 48.4452 815.61 388.784
768 0 57.1166 10.1021 577 48.9896 815.608 387.795
769 0 57.1443 11.1297 636 47.9811 816.031 386.678
770 0 59.1099 10.878 643 47.9596 816.381 386.247
771 0 62.1048 10.917 678 47.4174 816.204 385.288
772 0 63.1606 10.5762 668 48.6632 816.319 383.663
773 0 65.1353 11.3763 741 47.7773 817.023 382.528
774 0 68.1027 11.4973 783 47.2235 816.656 382.791
775 0 69.1573 11.3799 787 47.8551 816.621 381.166
776 0 71.0812 11.7893 838 47.5501 816.61 380.208
777 0 74.1248 11.2513 834 47.789 816.263 378.478
778 0 74.1374 10.9257 810 48.5506 815.938 378.29
779 0 78.2541 11.6671 913 47.6265 815.552 377.947
780 0 79.1378 12.2318 968 47.0702 815.389 377.412
781 0 84.2312 11.9671 1008 46.4831 814.897 376.856
782 0 86.0984 11.9631 1030 46.7485 815.347 374.848
783 0 89.1423 11.6443 1038 47.0655 815.577 373.105
784 0 90.292 11.3078 1021 47.6827 816.254 370.951
785 1 49.0597 10.3547 508 46.5571 816.415 393.516
786 0 49.0676 10.1697 499 47.5391 816.178 393.024
787 0 51.1048 10.6252 543 47.2891 815.967 392.14
788 0 53.1248 10.8048 574 46.8415 815.282 391.474
789 0 53.2322 10.6702 568 47.1602 816.143 391.312
790 1 1 3 3 14 818.333 441.333
791 1 0 0 0 -nan -nan -nan
792 0 0 0 0 -nan -nan -nan
793 0 0 0 0 -nan -nan -nan
794 1 12.0925 12.9832 157 13.0828 815.363 445.93
795 0 0 0 0 -nan -nan -nan
796 0 0 0 0 -nan -nan -nan
797 0 17.2298 7.8933 136 13.2794 811.059 439.566
798 1 43.1041 11.4838 495 12.5374 812.117 455.343
799 1 0 0 0 -nan -nan -nan
800 0 9.03252 13.5068 122 13.1967 814.18 440.762
801 1 0 0 0 -nan -nan -nan
802 0 0 0 0 -nan -nan -nan
803 1 69.9686 13.306 931 12.2009 811.762 462.064
804 1 0 0 0 -nan -nan -nan
805 0 0 0 0 -nan -nan -nan
806 0 11.5456 3.81098 44 14.0909 811.318 435.727
807 1 45.1519 9.74488 440 47.9182 815.055 395.093
808 0 48.0925 10.4174 501 47.0719 815.148 395.166
809 0 51.1085 10.3114 527 47.3093 815.425 393.801
810 0 53.149 9.93434 528 47.8655 815.015 392.725
811 0 53.1123 10.6567 566 47.765 814.91 392.613
812 0 57.1 10.9983 628 46.9984 814.494 391.314
813 0 55.1444 10.9712 605 48.276 814.347 390.502
814 0 57.1258 11.2383 642 48.3349 815.458 389.776
815 0 57.1087 10.7864 616 49.2744 815.068 388.049
816 0 62.2262 10.9118 679 48.4242 814.901 387.521
817 0 63.0876 10.2873 649 49.2943 814.812 386.661
818 0 68.1323 11.052 753 47.8035 815.028 385.473
819 0 67.0882 11.388 764 47.6885 815.237 384.889
820 0 70.0844 10.6871 749 48.5514 816.174 383.562
821 0 71.1693 11.9012 847 46.8194 815.39 381.629
822 0 73.2279 9.81866 719 49.3866 815.193 377.88
823 1 105.797 12.1553 1286 40.2138 815.662 384.678
824 1 80.1152 10.5972 849 47.6502 815.118 376.689
825 1 42.0501 8.65634 364 48.0385 816.346 396.324
826 0 42.0382 10.3715 436 45.7133 816.314 396.706
827 0 41.0828 9.49303 390 47.882 816.826 394.577
828 1 70.1639 8.12384 570 42.8877 817.207 399.467
829 1 44.1082 9.04595 399 48.3584 816.09 395.797
830 0 47.1101 9.89173 466 47.2318 816.431 394.667
831 0 46.0607 10.7033 493 47.3347 816.83 393.588
832 0 51.0904 10.8435 554 46.9007 816.792 393.229
833 0 50.0835 11.0016 551 46.775 816.782 392.278
834 0 52.1442 11.0463 576 46.8594 816.576 393.233
835 0 53.0593 10.7239 569 47.2636 816.736 391.552
836 0 53.0995 10.5086 558 48.0753 816.392 389.516
837 0 56.0588 10.382 582 48.0567 816.507 389.277
838 0 56.0642 11.7544 659 46.6798 815.766 390.434
839 0 61.1009 10.7854 659 47.4947 815.88 388.904
840 0 61.1608 11.854 725 46.7669 815.774 390.382
841 0 65.1475 11.7733 767 46.2529 815.45 387.789
842 0 65.15 11.3738 741 47.0256 815.495 387.03
843 0 65.0477 11.3609 739 47.7456 815.816 384.13
844 0 67.106 11.4446 768 47.5716 815.724 384.262
845 0 70.1643 10.846 761 47.9225 814.771 383.48
846 0 72.2023 11.7309 847 46.9303 815.113 384.305
847 0 75.1773 12.4107 933 46.6131 816.129 384.45
848 0 77.1659 11.4299 882 47.6281 816.085 382.932
849 0 79.1005 11.694 925 47.653 815.086 381.283
850 1 40.0371 9.44124 378 48.6614 815.73 400.317
851 0 40.0494 9.33846 374 49.4973 815.192 400.281
852 0 40.0495 10.0875 404 48.7401 815.879 399.777
853 0 40.1507 9.2651 372 50.328 815.497 398.933
854 0 43.0593 10.7526 463 48.3218 815.346 401.469
855 0 46.0798 10.3733 478 48.4414 815.036 399.789
856 0 47.0464 10.9891 517 47.766 815.031 399.834
857 0 47.0852 10.4067 490 48.649 813.904 396.265
858 1 73.0985 9.42564 689 43.4224 812.852 399.788
859 1 51.1222 10.9933 562 47.4769 813.44 395.196
860 0 52.0917 10.7119 558 48.1918 815.079 392.785
861 0 54.2195 11.1583 605 47.5355 815.101 393.985
862 0 57.2867 11.4686 657 46.7321 815.368 394.228
863 0 60.2362 11.8699 715 45.5958 814.613 393.46
864 0 59.1226 10.5543 624 47.9487 813.827 390.152
865 0 61.0589 10.9566 669 47.3169 813.759 389.528
866 0 61.1464 10.5321 644 48.0078 814.255 388.354
867 0 67.1041 10.3421 694 47.6009 813.816 386.062
868 0 68.0508 11.7265 798 46.0927 814.202 386.947
869 0 69.1298 11.2542 778 47.1118 814.059 385.893
870 0 72.0566 10.7554 775 47.3871 813.543 384.844
871 0 75.102 11.4378 859 46.4715 813.563 382.858
872 0 77.0638 11.51 887 46.6855 813.901 381.576
873 0 79.1459 9.23611 731 49.2285 814.129 378.129
874 0 83.0947 11.6012 964 46.6691 814.194 379.239
875 1 41.0583 10.887 447 46.6331 814.36 398.913
876 0 45.2438 10.565 478 46.4833 814.969 398.029
877 0 43.0744 10.2613 442 48.0724 814.627 396.24
878 0 48.0394 11.1783 537 45.9088 813.78 397.196
879 0 44.1551 9.26281 409 50.3007 813.951 394.137
880 0 48.081 10.4407 502 48.2131 813.687 393.697
881 0 50.0565 11.1874 560 48.2321 815.125 394.511
882 0 51.087 10.4528 534 49.5749 814.83 392.734
883 0 53.2439 10.5552 562 49.4555 814.863 391.593
884 0 54.1816 11.7383 636 48.3648 815.116 392.67
885 0 57.1849 10.8945 623 49.2745 814.512 390.26
886 0 54.0933 10.6113 574 51.5157 814.519 388.645
887 0 61.2483 11.5105 705 49.5376 815.065 391.184
888 0 59.1351 11.1102 657 51.5906 815.032 388.085
889 0 67.1898 11.7131 787 49.1614 815.28 387.84
890 0 63.1405 11.2131 708 51.4364 814.535 385.744
891 0 68.2085 10.9077 744 51.4449 814.625 385.613
892 0 69.223 11.4413 792 51.5518 814.875 381.98
893 0 72.1915 11.4279 825 51.4073 815.223 382.48
894 0 75.2949 11.0233 830 52.1133 815.325 379.849
895 0 78.1762 10.374 811 52.7707 814.694 379.503
896 1 41.0714 9.61741 395 52.6203 814.997 399.76
897 0 38.1201 9.8111 374 54.0107 815.495 397.369
898 0 46.0907 9.74167 449 52.4076 815.717 398.477
899 0 43.0681 10.0539 433 53.1986 815.649 396.762
900 0 42.0659 11.1729 470 52.6851 815.451 397.723
901 0 48.0913 10.1266 487 52.4969 815.708 397.058
902 0 46.0616 10.8984 502 52.4661 815.633 395.888
903 0 48.0998 10.7901 519 52.7129 815.698 394.696
904 0 49.1257 10.9108 536 52.722 815.297 394.431
905 0 50.0898 11.1999 561 52.2888 815.838 393.64
906 0 51.0799 10.9828 561 52.3619 815.775 393.148
907 0 51.1052 11.0556 565 52.8 815.881 391.435
908 0 55.0271 10.9946 605 52.3124 816.063 392.671
909 0 55.093 11.3626 626 51.8546 815.914 391.438
910 0 60.0804 11.1351 669 51.2392 815.834 393.922
911 0 58.0683 11.0387 641 52.1997 815.505 392.03
912 0 61.0647 10.3824 634 52.7161 815.505 389.64
913 0 61.0485 10.4998 641 53.2402 815.69 389.237
914 0 67.174 10.8524 729 52.1866 816.475 390.864
915 0 67.1926 11.9358 802 51.0636 815.276 390.016
916 0 68.1929 9.6931 661 53.7383 814.977 384.254
917 0 73.0972 11.1906 818 51.901 815.427 384.392
918 0 69.0889 11.2464 777 53.2162 815.333 383.081
919 0 77.1969 11.5419 891 51.9506 815.135 384.219
920 0 77.1999 12.215 943 51.4411 815.296 383.194
921 0 78.1497 12.1562 950 52.06 815.416 380.548
922 1 43.0417 9.82768 423 54.305 814.905 399.116
923 0 44.0763 10.6633 470 54.0511 816.006 397.934
924 0 46.1079 10.1718 469 54.4435 815.237 394.697
925 0 44.0693 10.5062 463 55.1058 815.721 394.521
926 0 50.096 11.2983 566 53.023 815.45 394.779
927 0 53.0352 10.8984 578 53.3979 814.649 393.96
928 0 49.0703 11.3714 558 54.6147 814.909 392.606
929 0 55.1233 11.4471 631 53.477 814.816 391.979
930 0 51.046 11.4211 583 55.0995 815.124 391.015
931 0 55.0573 12.2418 674 53.2715 814.498 392.32
932 0 56.0361 11.0108 617 55.436 814.992 390.41
933 0 55.0878 11.1277 613 55.876 814.811 387.99
934 0 60.0188 11.5297 692 54.4162 815.234 390.136
935 0 58.0392 11.7507 682 55.1466 815.032 388.32
936 0 59.0839 11.6614 689 55.0174 814.582 387.073
937 0 65.061 11.8965 774 53.6266 816.24 388.43
938 0 65.0857 11.9535 778 53.865 814.653 386.438
939 0 68.0714 12.0902 823 53.774 815.456 385.447
940 0 69.1392 12.323 852 53.1995 815.475 382.939
941 0 70.0797 11.9293 836 54.0359 815.579 381.671
942 0 73.0769 12.3842 905 53.2873 814.855 382.413
943 0 75.0948 11.6386 874 54.2757 815.501 379.082
944 1 43.0503 9.82571 423 55.4681 816.173 397.745
945 0 46.0587 10.5952 488 54.1168 816.201 397.475
946 0 47.0581 10.9014 513 54.2183 816.306 394.587
947 0 46.0417 10.5991 488 55.3627 815.549 394.508
948 0 48.0978 10.6034 510 55.451 815.682 394.251
949 0 51.0652 11.0251 563 54.881 815.648 395.11
950 0 50.0739 11.6628 584 55.3527 815.091 393.08
951 0 52.0595 11.5637 602 54.5216 814.937 392.213
952 0 54.05 11.7299 634 54.9669 815.796 391.099
953 0 57.0278 10.7316 612 55.8807 814.185 391.216
954 0 57.0437 11.6928 667 55.6717 814.87 391.004
955 0 59.0724 12.1207 716 54.5335 815.289 390.628
956 1 96.2046 9.86439 949 49.4215 815.567 393.938
957 1 62.1148 12.5091 777 54.4247 815.21 389.004
958 0 67.0656 12.3163 826 53.8111 814.946 385.381
959 0 70.0572 12.0473 844 54.1706 815.325 386.168
960 0 69.0573 10.4985 725 56.6014 815.321 381.379
961 0 72.1666 11.709 845 55.245 815.85 381.644
962 0 72.0785 11.3626 819 55.873 815.642 381.331
963 0 78.0854 12.0765 943 54.0785 815.351 381.559
964 0 78.0728 11.8351 924 54.6775 815.37 379.76
965 0 83.1424 12.0396 1001 54.03 815.963 378.816
966 0 86.161 11.8499 1021 54.0049 816.32 375.424
967 0 90.0541 11.4709 1033 53.7377 815.877 375.317
968 0 96.153 11.3985 1096 53.115 815.709 373.505
969 0 100.233 11.7028 1173 52.023 815.078 370.953
970 1 73.194 9.85054 721 47.5118 815.329 394.931
971 1 54.1275 10.4937 568 52.0845 815.389 393.016
972 0 57.0826 11.2293 641 50.3167 815.972 390.585
973 0 58.2344 10.3891 605 52.1405 816.382 388.101
974 0 58.129 11.3541 660 51.1864 816.206 388.176
975 0 60.0956 11.6814 702 50.8661 816.284 388.313
976 0 63.1384 11.7678 743 50.3822 815.915 386.319
977 0 65.2472 11.8779 775 50.3471 816.372 386.093
978 1 79.1406 11.7386 929 47.8202 815.621 381.061
979 0 81.1461 11.5224 935 47.6096 815.002 378.255
980 0 84.2351 11.3967 960 47.8 815.62 378.149
981 0 85.2078 11.0084 938 48.6684 815.736 375.974
982 1 45.0889 9.89158 446 47.5336 816.004 397.52
983 0 47.0983 10.1914 480 47.5021 816.183 398.044
984 0 46.0901 10.6097 489 47.2863 815.658 399.049
985 0 49.0463 10.2352 502 47.8586 816.042 395.767
986 0 51.0369 10.8745 555 46.3405 815.679 395.75
987 0 54.0674 10.7089 579 46.1123 815.472 395.245
988 0 56.0799 10.4494 586 47.0785 815.72 394.218
989 0 56.1182 10.9056 612 46.6585 815.655 393.464
990 0 57.0854 10.8784 621 46.8792 816.568 392.367
991 0 58.0794 11.0194 640 47.5625 816.559 392.395
992 0 59.0554 11.2775 666 47.1156 815.733 391.204
993 0 61.2066 11.2243 687 47.4119 816.153 388.956
994 0 64.0807 10.9862 704 47.3679 815.688 390.185
995 0 64.0986 11.2015 718 47.1086 815.873 389.334
996 0 67.045 11.276 756 46.2646 816.078 388.496
997 1 169.519 14.1754 2403 39.6621 815.623 363.786
998 1 140.171 11.8284 1658 46.5688 815.093 354.487
999 0 139.308 11.9376 1663 46.6049 815.251 353.195
1000 0 140.108 11.3627 1592 46.8065 814.702 353.907
1001 1 198.606 14.1637 2813 38.8176 813.467 359.802
1002 1 80.0898 11.5246 923 45.8602 814.739 383.25
1003 0 83.1518 11.4008 948 45.134 813.208 383.776
1004 0 86.0969 11.1386 959 46.0094 814.062 380.021
1005 0 88.0783 11.2854 994 46.5372 814.942 379.998
1006 0 89.1008 11.6834 1041 46.3929 814.73 378.847
1007 0 97.1493 11.5904 1126 45.9858 814.387 378.115
1008 0 96.1266 11.6201 1117 46.3008 814.145 375.586
1009 0 102.193 11.5859 1184 46.0684 814.46 375.997
1010 0 104.17 12.2395 1275 45.2337 814.071 373.623
1011 0 106.159 11.7089 1243 45.8061 812.89 370.825
1012 1 139.807 12.2526 1713 40.5365 814.071 380.17
1013 1 63.0363 11.0571 697 46.5237 814.228 394.396
1014 0 63.1124 11.4558 723 46.4219 814.062 394.537
1015 0 64.0432 11.1956 717 46.6695 814.124 393.738
1016 0 64.081 11.7664 754 46.8515 814.491 393.434
1017 0 67.1969 11.9202 801 45.7266 813.719 393.177
1018 0 70.1186 11.8656 832 46.0072 813.252 391.529
1019 0 71.1818 11.6743 831 46.4091 812.404 390.786
1020 0 72.1075 11.788 850 47.1271 813.435 388.218
1021 0 74.1055 11.9154 883 47.1846 813.213 387.735
1022 0 80.2597 11.2634 904 47.2069 812.863 384.252
1023 1 101.745 12.5018 1272 42.0527 813.608 389.759
1024 1 48.1129 10.6416 512 48.6113 813.924 399.551
1025 0 48.0774 10.4415 502 49.1713 814.034 399.221
1026 0 48.1078 10.1023 486 50.5206 814.737 399.743
1027 0 48.1031 9.99935 481 50.8254 814.077 399.983
1028 0 49.1132 10.5674 519 50.5106 814.004 399.622
1029 0 49.0418 11.3373 556 50.7122 813.268 398.353
1030 0 50.0851 11.5404 578 50.7837 813.249 397.23
1031 0 54.2797 11.017 598 51.1354 813.938 398.455
1032 0 54.0787 11.8531 641 50.7426 813.707 396.306
1033 0 56.0783 11.6623 654 50.6101 813.42 395.419
1034 0 56.1127 11.4591 643 51.5008 813.264 393.796
1035 0 61.0677 11.7902 720 50.5528 813.608 394.428
1036 0 61.1062 11.7828 720 50.9889 813.869 392.992
1037 0 63.1349 12.0536 761 50.7582 814.319 392.255
1038 0 64.1782 11.8732 762 50.6732 813.77 393.319
1039 0 65.0759 11.986 780 50.9769 813.987 390.482
1040 0 68.258 11.9546 816 50.6569 813.772 387.436
1041 0 68.0845 11.8823 809 51.2967 813.701 385.225
1042 0 73.1401 12.3052 900 49.88 813.364 386.043
1043 0 75.1548 11.7491 883 50.3307 813.056 382.366
1044 0 77.1427 11.8222 912 51.1601 814.285 382.72
1045 0 81.0952 11.9119 966 50.7184 813.785 381.958
1046 0 81.0952 11.8503 961 203.401 811.794 382.063
1047 0 87.1698 11.9422 1041 51.025 814.122 379.133
1048 1 47.0872 10.7672 507 51.3057 813.819 399.103
1049 0 49.0746 11.1259 546 50.696 813.515 395.009
1050 0 53.075 10.9468 581 50.6213 814.573 396.315
1051 0 53.0854 11.1142 590 51.5034 814.61 395.685
1052 0 56.3174 10.938 616 51.3523 815.435 396.109
1053 0 56.2341 11.3988 641 51.6271 815.421 394.167
1054 0 57.1356 11.3414 648 51.4583 814.11 392.279
1055 0 59.1677 11.2392 665 51.0331 813.949 391.782
1056 0 61.1598 10.8895 666 51.6877 814.632 388.881
1057 1 105.129 9.19822 967 46.4168 814.242 391.668
1058 0 100.293 9.71153 974 45.54 814.344 392.047
1059 1 67.1196 11.3678 763 50.4233 814.546 387.136
1060 0 72.1379 11.0344 796 50.6231 815.188 385.992
1061 0 73.2658 11.1921 820 50.5695 814.639 384.94
1062 0 73.103 11.3538 830 51.2422 814.124 383.867
1063 0 77.1351 11.4474 883 51.1121 814.223 382.644
1064 1 45.0718 9.96188 449 50.1693 814.621 400.013
1065 0 44.2287 9.74481 431 50.8585 814.703 399.237
1066 0 45.1298 10.6581 481 50.0457 814.707 398.449
1067 0 46.0532 10.7702 496 50.5585 814.79 397.821
1068 0 49.1439 10.6626 524 50.271 814.137 397.429
1069 0 49.092 10.7553 528 50.1894 814.587 395.845
1070 0 51.1567 11.3964 583 50.0309 814.926 396.748
1071 0 52.0766 11.1374 580 50.2328 814.147 395.434
1072 0 54.1363 11.0831 600 49.8633 814.358 392.545
1073 0 55.133 10.9372 603 50.335 814.607 392.081
1074 0 57.0783 11.6156 663 50.1991 814.955 391.376
1075 0 60.0844 11.0012 661 50.1165 814.914 391.157
1076 0 63.1276 10.7085 676 50.247 814.744 391.28
1077 0 62.0838 11.3556 705 50.6312 815.101 389.139
1078 0 66.1829 11.3171 749 49.9907 815.095 389.391
1079 0 67.135 11.246 755 50.5444 815.352 388.33
1080 0 69.1939 11.5184 797 50.01 814.752 388.555
1081 1 121.169 8.04661 975 46.9569 815.171 389.982
1082 1 71.2751 11.3925 812 50.3066 814.894 386.309
1083 0 77.1094 11.983 924 49.2089 815.759 385.035
1084 0 77.1415 11.6539 899 50.3971 815.873 384.274
1085 0 84.086 11.6428 979 49.4198 816.132 386.024
1086 1 109.211 11.5373 1260 45.5929 815.87 387.005
1087 1 85.1214 11.9476 1017 50.3618 815.958 381.925
1088 0 87.2299 11.8996 1038 50.3699 815.693 381.982
1089 0 85.1235 11.7006 996 51.0643 816.59 380.948
1090 1 52.161 10.736 560 50.8839 817.173 399.652
1091 0 54.0936 10.7591 582 51.543 816.189 399.234
1092 0 54.1492 10.9512 593 51.2799 816.064 397.772
1093 0 55.1422 11.2255 619 51.391 816.255 397.515
1094 0 59.1509 10.3295 611 52.5712 816.337 398.286
1095 0 60.0744 10.6535 640 52.3594 815.784 397.853
1096 0 60.0744 10.6202 638 206.918 815.765 397.804
1097 0 61.1143 11.6012 709 52.2158 816.219 396.735
1098 0 63.0397 11.6276 733 51.985 815.787 396.394
1099 0 68.2044 11.2456 767 51.6376 814.931 396.476
1100 0 68.1269 11.963 815 51.2822 815.074 395.45
1101 0 71.175 11.3523 808 51.9728 814.84 396.224
1102 0 72.1155 11.5648 834 52.2866 815.422 395.466
1103 0 74.0618 11.8955 881 51.2906 814.621 395.583
1104 0 77.1693 11.883 917 51.8113 815.273 394.41
1105 0 78.1872 11.6004 907 52.3539 814.767 392.492
1106 0 80.1285 11.9308 956 52.3661 815.577 392.162
1107 0 82.156 11.8068 970 52.8856 815.484 391.152
1108 0 85.2064 11.4545 976 53.1086 814.201 389.354
1109 0 91.3112 11.7182 1070 53.2178 815.677 389.505
1110 0 92.2015 11.7894 1087 52.5584 814.617 387.685
1111 0 95.3137 11.1002 1058 52.9546 814.408 385.634
1112 0 96.1841 11.7171 1127 53.0275 813.925 385.645
1113 1 55.1839 11.1627 616 52.9318 814.135 406.649
1114 0 58.1349 10.6821 621 53.9018 814.353 405.412
1115 0 59.1365 10.8393 641 53.7566 814.591 404.346
1116 0 62.0503 11.2167 696 53.0129 814.963 405.25
1117 0 62.237 11.3437 706 53.2394 815.184 404.312
1118 0 64.1298 11.0713 710 53.269 814.106 403.392
1119 0 67.2186 11.3659 764 52.8325 814.446 401.12
1120 0 70.2284 11.6477 818 52.423 814.307 401.463
1121 0 71.1229 11.9793 852 52.4331 814.033 400.883
1122 0 73.1399 11.9224 872 51.9713 812.655 397.484
1123 0 80.1204 11.6575 934 51.7216 813.301 396.505
1124 0 78.2347 12.3219 964 51.6743 813.455 394.908
1125 0 82.0829 11.7199 962 51.6757 813.218 392.856
1126 0 88.1531 11.7977 1040 51.5067 813.524 391.02
1127 0 91.1694 12.1093 1104 50.5951 813.195 391.163
1128 0 92.2093 11.5823 1068 51.7434 813.799 387.894
1129 1 133.318 11.3038 1507 46.2913 813.994 392.33
1130 1 97.1534 12.0325 1169 51.2703 814.147 386.013
1131 0 103.131 11.6357 1200 51.2933 814.525 384.367
1132 1 55.2058 10.325 570 51.1386 814.337 407.725
1133 0 57.3169 10.7298 615 51.2195 814.229 405.046
1134 0 58.1986 11.4264 665 50.4782 814.168 405.644
1135 0 57.2912 11.0663 634 51.3486 814.019 403.942
1136 0 62.1031 11.2394 698 50.3037 814.049 401.797
1137 0 62.2993 12.2473 763 49.5754 814.637 401.569
1138 0 65.1587 11.8173 770 50.1286 814.558 399.203
1139 0 65.1193 11.978 780 50.1974 815.022 398.323
1140 0 69.2418 11.9581 828 48.9589 814.847 397.676
1141 0 72.2179 11.7007 845 48.9183 814.013 396.692
1142 0 73.1758 12.3401 903 48.1118 814.504 395.41
1143 0 76.143 11.9906 913 47.8226 814.329 393.403
1144 0 77.2597 11.8432 915 47.9913 814.242 392.355
1145 0 80.2009 12.4063 995 47.2553 814.696 390.322
1146 0 82.1305 11.5791 951 48.0231 814.527 389.372
1147 1 120.334 12.6482 1522 40.5348 814.864 396.507
1148 1 89.1104 12.2432 1091 46.8423 815.223 387.311
1149 0 90.2168 11.7051 1056 47.5881 814.563 385.101
1150 0 96.2477 12.0107 1156 46.9291 815.236 383.932
1151 0 99.1389 11.5091 1141 47.4277 815.048 381.513
1152 0 100.276 12.2163 1225 46.9224 815.002 379.104
1153 0 105.149 12.1732 1280 46.7219 814.636 379.605
1154 1 169.047 39.1194 6613 23.1217 812.374 397.966
1155 1 138.833 11.784 1636 41.5837 815.507 388.542
1156 1 103.221 10.7342 1108 48.148 815.394 378.322
1157 1 142.422 11.9785 1706 41.9848 815.509 385.715
1158 1 277.362 11.6815 3240 51.2167 814.698 298.116
1159 0 277.419 10.5581 2929 52.2841 814.842 297.026
1160 0 277.447 11.3067 3137 51.1725 815.01 298.937
1161 1 18.1791 11.8818 216 13.0556 814.227 455.847
1162 0 24.4249 20.5938 503 6.59841 814.34 523.783
1163 0 0 0 0 -nan -nan -nan
1164 0 0 0 0 -nan -nan -nan
1165 0 0 0 0 -nan -nan -nan
1166 0 25.233 14.5444 367 12.4223 812.112 461.352
1167 0 0 0 0 -nan -nan -nan
1168 0 0 0 0 -nan -nan -nan
1169 1 393.574 13.5324 5326 43.3117 814.886 308.162
1170 1 322.366 12.2997 3965 51.027 815.277 274.975
1171 0 323.493 12.5351 4055 50.5401 815.776 277.69
1172 1 364.084 18.7127 6813 39.6219 815.308 316.477
1173 1 76.3262 11.595 885 48.4429 816.058 390.976
1174 0 79.3976 12.0155 954 47.7243 816.072 391.365
1175 0 83.0912 12.0229 999 47.7778 815.528 390.344
1176 0 83.1123 12.3086 1023 48.1808 815.605 387.892
1177 0 87.1053 12.3643 1077 48.273 815.642 386.746
1178 0 87.0853 12.4131 1081 48.2951 815.202 385.509
1179 1 52.0703 11.1196 579 47.6079 815.845 406.371
1180 0 53.133 10.7843 573 48.548 816.035 404.892
1181 0 54.1553 10.673 578 49.128 816.294 404.192
1182 0 56.0726 11.2889 633 48.2891 816.746 404.967
1183 0 56.0449 11.1518 625 49.3936 815.653 402.475
1184 0 60.1097 11.1629 671 48.9255 816.352 403.69
1185 0 58.1234 11.4412 665 49.5278 815.947 402.253
1186 0 63.1593 11.4156 721 49.0943 816.078 402.315
1187 0 62.0939 12.2073 758 48.8021 815.355 401.438
1188 0 65.0961 11.5061 749 49.9052 815.262 400.522
1189 1 134.182 6.65514 893 47.4087 816.034 404.998
1190 1 0 0 0 -nan -nan -nan
1191 0 0 0 0 -nan -nan -nan
1192 0 0 0 0 -nan -nan -nan
1193 0 0 0 0 -nan -nan -nan
1194 0 6 6 36 14.6389 813.833 448.444
1195 1 78.1223 12.5572 981 50.631 815.144 396.044
1196 0 79.1938 12.5641 995 51.2523 815.549 393.732
1197 0 82.2331 12.2335 1006 51.661 814.833 391.857
1198 0 86.074 11.8503 1020 51.9608 814.777 391.574
1199 0 89.2704 12.7478 1138 51.0993 814.501 390.009
1200 0 92.137 12.3946 1142 51.8398 814.587 388.445
1201 0 96.1491 12.0854 1162 52.7212 815.189 386.776
1202 1 127.137 11.523 1465 47.8758 814.947 393.829
1203 1 56.2337 10.5808 595 53.6571 815.346 405.393
1204 1 101.459 7.09649 720 50.1292 814.667 409.717
1205 1 57.2052 11.1703 639 54.3036 815.426 405.953
1206 0 57.1568 11.4422 654 54.2936 816.08 405.234
1207 0 60.0982 11.5311 693 53.8413 815.378 402.26
1208 0 60.2206 11.6073 699 54.1016 815.757 403.462
1209 0 60.0971 11.6977 703 54.2632 815.485 402.656
1210 0 65.0788 11.586 754 52.7759 815.056 400.439
1211 0 67.1527 11.5111 773 52.6455 815.202 401
1212 0 67.2615 11.8493 797 52.1757 814.212 400.098
1213 0 69.3438 12.2433 849 51.5713 815.519 399.61
1214 0 72.2419 12.1674 879 51.8976 815.283 399.54
1215 0 72.1467 11.8231 853 51.9367 815.293 397.31
1216 1 97.1945 11.6468 1132 47.5751 815.272 402.08
1217 1 77.162 12.234 944 51 815.131 397.624
1218 0 78.1065 12.2397 956 51.3128 815.152 395.861
1219 0 82.2439 12.4021 1020 51.202 815.478 394.312
1220 0 87.2598 12.2966 1073 51.109 815.146 392.7
1221 0 88.2161 11.5852 1022 52.7857 815.402 391.436
1222 0 91.2921 11.9835 1094 52.3931 815.654 392.279
1223 0 90.2702 12.1303 1095 53.316 815.452 390.649
1224 0 93.2357 12.4094 1157 53.2126 814.821 390.813
1225 0 95.2142 12.1095 1153 53.451 815.507 389.039
1226 0 101.362 11.9275 1209 53.6741 815.897 389.1
1227 0 102.356 12.4174 1271 53.646 815.393 387.945
1228 0 105.392 12.0123 1266 53.5624 815.355 386.603
1229 0 106.207 11.9861 1273 54.5412 816.099 386.324
1230 0 111.326 12.2792 1367 53.6964 815.762 384.149
1231 0 114.211 12.4069 1417 53.3148 815.718 382.661
1232 0 119.169 12.176 1451 53.7677 815.312 381.41
1233 0 122.157 12.091 1477 54.3446 816.29 379.848
1234 0 126.373 11.9646 1512 54.1872 816.146 378.267
1235 0 127.232 12.0017 1527 54.8743 816.572 378.017
1236 0 133.352 12.9957 1733 53.3797 816.455 376.591
1237 1 176.791 13.2755 2347 47.735 816.378 382.79
1238 1 140.219 12.723 1784 53.889 816.252 373.633
1239 0 146.261 12.4366 1819 54.4101 815.775 370.141
1240 0 150.348 12.4179 1867 54.458 815.705 369.943
1241 0 154.256 12.5117 1930 55.0725 816.165 367.32
1242 0 161.146 12.3491 1990 55.3553 816.071 364.447
1243 0 167.485 12.7952 2143 54.6183 816.229 362.875
1244 0 170.344 12.827 2185 55.2755 815.508 358.958
1245 0 175.173 12.7702 2237 55.9244 815.482 359.721
1246 0 179.365 12.5443 2250 56.4369 817.27 355.855
1247 0 186.206 12.658 2357 56.4981 816.549 354.607
1248 0 190.359 12.7128 2420 56.855 816.547 350.535
1249 0 197.366 13.1127 2588 56.1171 816.553 349.121
1250 0 196.237 10.4007 2041 60.2915 816.059 339.888
1251 0 204.299 13.6515 2789 55.9326 815.888 344.38
1252 0 204.3 13.6172 2782 202.566 813.899 344.249
1253 1 55.0621 9.86158 543 61.6335 816.593 404.635
1254 0 66.1726 11.6514 771 56.9767 816.717 407.765
1255 0 64.0912 12.373 793 56.9231 816.503 407.275
1256 0 66.1085 11.6324 769 58.5384 815.923 405.503
1257 0 68.1289 12.1534 828 57.6111 816.297 405.477
1258 0 72.1667 12.485 901 56.9867 816.549 404.338
1259 0 73.1513 12.1255 887 58.5479 816.49 401.833
1260 0 76.3441 12.1817 930 58.0151 816.746 401.837
1261 0 78.1774 11.8576 927 58.8414 817.312 399.977
1262 0 81.0734 11.9768 971 58.9207 816.952 397.809
1263 0 83.1206 11.9826 996 58.504 816.016 396.491
1264 0 86.2265 12.3396 1064 58.3196 815.943 397.133
1265 1 47.0576 10.8165 509 57.2809 816.391 414.181
1266 0 39.028 9.78784 382 63.4058 816.361 409.186
1267 0 40.0207 9.62003 385 63.2182 816.722 409.114
1268 0 46.0192 9.257 426 61.6784 817.08 408.2
1269 0 48.0674 9.36186 450 61.8311 816.549 405.987
1270 0 45.0576 9.54335 430 62.4628 816.293 404.719
1271 0 51.0361 9.62064 491 61.0916 816.112 405.086
1272 0 59.2144 12.0579 714 54.9622 816.221 407.985
1273 0 54.0162 9.68228 523 60.8815 816.566 400.524
1274 0 55.0196 9.3603 515 60.7922 816.045 401.631
1275 1 65.2499 13.7318 896 51.317 816.24 406.736
1276 1 55.0647 10.0609 554 59.6968 816.164 397.783
1277 0 58.0881 9.64053 560 59.6839 816.882 397.505
1278 0 60.0409 10.1597 610 59.2098 816.977 395.364
1279 0 61.1307 9.70053 593 58.7993 816.356 393.432
1280 0 63.0658 9.56145 603 59.4378 817.051 395.05
1281 0 75.2028 12.1405 913 53.9321 817.297 398.366
1282 0 68.1839 8.94639 610 59.7016 816.805 392.267
1283 1 184.678 15.0532 2780 46.0363 816.092 371.122
1284 1 115.1 8.40139 967 60.211 815.734 371.269
1285 1 37.15 8.66757 322 60.1522 815.584 407.304
1286 0 42.0261 10.8028 454 56.4427 816.877 409.711
1287 0 39.0086 9.7158 379 59.5646 817.061 407.045
1288 1 72.2785 9.0345 653 49.6692 817.211 412.021
1289 1 88.151 9.66523 852 58.0986 815.709 382.069
1290 0 86.3758 8.12728 702 49.6026 816.808 411.842
1291 1 44.1109 9.72548 429 57.7296 816.177 404.03
1292 0 46.0364 9.99209 460 57.8217 817.039 403.759
1293 0 52.0538 9.52861 496 56.5383 816.587 399.462
1294 0 49.0733 10.4945 515 56.3884 816.899 399.39
1295 0 51.2498 10.1659 521 56.8541 816.892 400.969
1296 0 61.2507 12.3754 758 51.0871 817.046 403.471
1297 0 58.0345 9.06358 526 56.27 817.141 397.308
1298 0 67.1722 11.8204 794 50.7985 817.526 401.676
1299 0 64.3627 12.4917 804 50.4627 817.01 400.812
1300 0 69.2715 12.5737 871 49.5212 817.088 399.665
1301 0 73.3073 12.3453 905 48.4431 817.692 397.673
1302 0 74.3138 12.6087 937 48.3212 816.984 396.397
1303 0 76.5765 12.1317 929 48.3272 817.312 394.404
1304 0 80.2896 12.0688 969 47.7915 817.087 395.595
1305 0 73.2122 10.1759 745 51.4228 816.439 389.235
1306 1 143.632 8.46607 1216 43.4194 816.825 400.255
1307 1 85.2514 9.23152 787 50.629 816.346 388.327
1308 0 89.3686 12.3981 1108 46.5117 816.348 391.488
1309 0 83.2672 9.10322 758 51.3588 816.191 383.591
1310 0 84.3255 9.06013 764 51.8298 816.719 381.753
1311 0 79.2515 8.23959 653 44.8989 817.17 409.508
1312 1 59.4871 21.45 1276 34.5086 814.592 399.791
1313 1 6 4.16667 25 14.08 809.2 450.88
1314 1 0 0 0 -nan -nan -nan
1315 0 0 0 0 -nan -nan -nan
1316 1 11.2353 8.01044 90 13.3 811.011 455.4
1317 1 53.1184 9.43175 501 51.3194 816.269 397.946
1318 0 54.0505 9.2136 498 51.241 815.374 397.05
1319 0 64.1118 11.5579 741 47.9109 816.324 401.128
1320 0 57.1458 10.377 593 51.3288 816.941 396.833
1321 0 60.0951 9.45169 568 51.5158 816.928 394.644
1322 0 59.0497 9.73756 575 52.0104 815.725 394.821
1323 0 64.0388 9.33809 598 52.3562 815.629 393.41
1324 1 168.958 13.2755 2243 42.3749 816.517 374.764
1325 1 131.301 8.25586 1084 52.3681 815.397 358.649
1326 0 130.183 8.49572 1106 52.3409 815.221 357.285
1327 1 82.2135 11.8594 975 48.7467 814.606 393.753
1328 0 74.072 9.86878 731 54.1108 816.034 387.918
1329 0 77.0422 9.34553 720 55.3153 815.793 386.182
1330 0 97.9139 18.5673 1818 10.8344 812.527 475.759
1331 0 86.066 9.45786 814 54.6228 816.337 382.952
1332 0 84.108 8.89333 748 55.6283 816.314 379.688
1333 0 92.0908 9.38204 864 54.5961 816.182 381.86
1334 0 89.1168 8.44959 753 56.3267 816.624 376.849
1335 0 97.1824 8.57151 833 56.0648 816.028 376.26
1336 1 56.2783 11.2477 633 50.504 816.629 408.079
1337 0 58.2881 11.4603 668 50.226 816.539 407.373
1338 0 60.1634 11.4854 691 49.945 816.307 405.117
1339 0 50.0067 9.33875 467 55.7709 816.084 397.872
1340 0 51.0802 9.2991 475 55.8821 815.768 397.432
1341 0 54.0641 9.24828 500 55.754 816.02 396.378
1342 0 54.0845 9.0599 490 56.5 816.435 394.137
1343 1 68.2063 12.1543 829 50.2545 816.694 400.244
1344 0 69.1553 12.2623 848 50.1993 816.513 398.679
1345 0 73.2373 12.2479 897 49.4905 816.667 398.12
1346 0 74.3092 11.7751 875 50.4057 817.01 397.251
1347 0 68.1035 8.83948 602 55.5864 816.849 387.493
1348 0 76.1942 12.4419 948 49.9831 816.691 393.707
1349 0 80.3112 12.2274 982 49.4348 815.837 393.746
1350 0 79.2697 12.2998 975 49.1333 815.915 393.103
1351 0 86.3483 11.9053 1028 49.5876 816.242 390.128
1352 0 90.1528 11.8576 1069 49.435 816.404 389.114
1353 1 48.1436 10.5933 510 49.0098 816.555 410.588
1354 0 46.1087 11.3861 525 49.2952 816.457 409.135
1355 0 47.0837 11.1504 525 49.4229 816.349 408.514
1356 0 50.0468 10.9298 547 49.0512 815.77 407.464
1357 0 49.1592 11.7374 577 49.286 816.567 408.263
1358 0 49.1397 11.7217 576 50.059 816.514 405.42
1359 0 55.1463 10.7532 593 50.6998 816.219 404.494
1360 0 55.1379 11.8612 654 49.6865 816.976 404.824
1361 0 47.0296 8.69664 409 56.4083 816.435 398.78
1362 1 0 0 0 -nan -nan -nan
1363 0 0 0 0 -nan -nan -nan
1364 1 11.1165 3.32839 37 13.8919 812.946 454.162
1365 0 0 0 0 -nan -nan -nan
1366 0 0 0 0 -nan -nan -nan
1367 0 0 0 0 -nan -nan -nan
1368 0 12.057 3.89816 47 14.0851 810.234 450
1369 0 0 0 0 -nan -nan -nan
1370 0 0 0 0 -nan -nan -nan
1371 0 0 0 0 -nan -nan -nan
1372 0 8.04579 7.5816 61 14.082 814.098 449.344
1373 1 82.2259 12.2346 1006 50.0348 816.139 390.414
1374 0 84.1536 12.4415 1047 49.8892 816.536 389.443
1375 0 87.1312 12.1197 1056 50.0606 816.84 387.563
1376 0 90.3327 12.3101 1112 49.8264 816.65 384.497
1377 0 95.2399 12.1378 1156 49.8746 816.725 384.972
1378 0 96.1114 12.7664 1227 49.7522 817.09 382.222
1379 0 99.1616 12.404 1230 50.513 816.69 380.663
1380 0 104.202 12.1687 1268 50.4274 816.174 381.58
1381 0 108.123 12.643 1367 49.8178 816.05 380.68
1382 0 108.133 12.6511 1368 50.5724 817.439 378.021
1383 0 111.211 12.6876 1411 50.9568 816.568 376.361
1384 0 116.378 12.3735 1440 49.8451 816.656 374.047
1385 0 118.21 12.8923 1524 49.5217 815.79 371.325
1386 0 122.279 11.4246 1397 50.8375 815.145 370.568
1387 1 160.498 15.0532 2416 40.6755 815.289 384.67
1388 1 127.376 11.5328 1469 51.2852 815.86 367.819
1389 0 131.39 11.1424 1464 51.7063 815.714 364.722
1390 0 136.376 11.7909 1608 50.8265 815.446 366.159
1391 0 139.618 11.6318 1624 51.0954 815.676 362.251
1392 0 144.302 12.0165 1734 50.6223 816.579 362.361
1393 0 146.392 11.2984 1654 51.6729 816.062 358.244
1394 0 150.358 11.4527 1722 51.2642 815.843 357.323
1395 0 155.407 11.6404 1809 51.2642 816.306 356.02
1396 0 159.461 11.564 1844 51.0033 816.1 349.738
1397 0 164.239 11.9764 1967 50.4967 815.984 350.386
1398 0 168.326 11.5431 1943 51.0124 816.03 347.607
1399 0 175.595 11.7657 2066 50.3601 815.665 345.387
1400 0 178.363 11.7121 2089 50.6328 815.516 344.117
1401 0 181.297 11.506 2086 50.976 815.006 338.899
1402 0 187.385 11.874 2225 50.6742 815.36 339.375
1403 0 191.389 11.6151 2223 51.0711 815.287 333.113
1404 0 200.32 12.2454 2453 50.1406 815.292 331.367
1405 0 207.313 12.088 2506 50.2997 815.753 330.074
1406 1 296.711 15.8201 4694 42.6468 815.414 331.23
1407 1 217.264 12.1511 2640 50.5311 815.925 328.798
1408 0 220.456 12.2201 2694 50.8909 815.453 322.889
1409 0 226.349 12.2907 2782 50.7552 815.989 321.097
1410 0 232.375 12.0022 2789 51.3119 816.356 321.528
1411 0 240.378 12.0685 2901 50.8545 816.248 317.103
1412 1 187.244 11.8883 2226 52.9205 816.428 343.204
1413 0 190.261 11.5158 2191 52.8375 815.848 338.32
1414 0 195.232 11.786 2301 52.7562 816.485 338.232
1415 0 202.409 11.6348 2355 52.8569 817.092 334.719
1416 0 208.371 12.185 2539 52.2863 816.857 332.702
1417 0 215.392 12.0896 2604 52.2646 816.315 329.667
1418 0 222.346 11.9948 2667 52.2988 816.933 324.552
1419 1 180.304 11.769 2122 53.9642 816.08 344.869
1420 0 188.242 12.1652 2290 53.1218 816.966 341.872
1421 0 196.302 12.114 2378 52.9634 816.84 340.164
1422 0 200.455 12.6312 2532 52.6817 816.514 334.43
1423 0 206.358 12.5267 2585 52.5984 816.114 332.607
1424 0 213.339 12.7496 2720 52.1393 815.411 327.217
1425 0 219.421 13.048 2863 51.9769 815.371 323.944
1426 0 226.344 13.0288 2949 52.2692 816.492 322.616
1427 0 237.398 13.0414 3096 52.4848 816.714 318.221
1428 0 242.28 13.051 3162 52.5063 816.556 315.881
1429 0 248.244 13.1162 3256 52.6161 816.556 315.145
1430 0 255.559 13.1359 3357 52.9094 816.472 307.703
1431 0 263.405 13.0711 3443 53.0671 816.552 306.269
1432 0 270.45 13.2964 3596 52.9511 816.075 303.73
1433 0 277.461 12.8306 3560 53.7183 817.291 301.241
1434 0 285.353 13.1451 3751 53.4761 817.26 298.38
1435 0 293.671 12.9703 3809 53.3166 816.148 294.388
1436 0 302.401 12.414 3754 54.077 815.499 289.316
1437 1 225.33 12.6925 2860 56.5727 815.887 324.064
1438 0 233.446 13.1808 3077 56.4417 816.638 318.591
1439 1 90.2679 11.0781 1000 56.983 817.409 388.568
1440 0 91.1749 12.5473 1144 55.8191 817.066 385.315
1441 0 95.241 12.1796 1160 57.0526 817.056 384.252
1442 0 98.2365 12.643 1242 56.3615 816.407 383.83
1443 0 101.187 12.3435 1249 57.3315 816.331 382.49
1444 0 104.29 12.3119 1284 57.3738 816.126 380.926
1445 0 108.366 12.264 1329 57.535 816.438 380.085
1446 0 111.203 13.0392 1450 56.4083 816.683 377.427
1447 1 139.336 14.2246 1982 49.2245 816.409 383.82
1448 1 117.246 12.2562 1437 56.9875 815.434 374.122
1449 0 122.515 13.1004 1605 55.2224 815.358 372.764
1450 0 126.204 13.1137 1655 55.681 815.897 368.898
1451 0 127.244 13.0223 1657 56.1454 815.686 367.158
1452 0 133.313 12.5419 1672 56.6214 815.827 364.156
1453 1 66.1651 10.8365 717 58.1506 816.583 396.734
1454 0 69.23 11.1512 772 57.6282 816.328 394.513
1455 0 73.0766 10.9611 801 57.3121 816.091 394.913
1456 0 74.2172 11.4933 853 56.4572 815.58 395.356
1457 0 75.0818 11.5474 867 56.248 816.04 392.612
1458 0 78.167 11.7953 922 55.949 816.765 392.127
1459 0 80.1957 11.7587 943 55.4899 816.25 391.409
1460 0 85.1768 11.529 982 55.6324 816.07 390.006
1461 0 85.1015 11.1514 949 56.1549 816.36 390.246
1462 0 88.1605 12.0122 1059 55.0104 816.204 387.805
1463 0 93.1536 11.057 1030 55.735 816.85 385.934
1464 0 94.1091 11.5929 1091 54.7681 816.25 384.735
1465 0 97.252 11.2903 1098 55.1193 815.738 383.192
1466 0 98.1303 11.4134 1120 55.5661 816.559 380.811
1467 0 103.186 11.9977 1238 54.8247 816.472 381.725
1468 0 109.15 11.7453 1282 54.7161 816.548 380.666
1469 0 110.175 11.4091 1257 55.564 816.788 377.796
1470 1 60.1173 10.4296 627 53.362 816.719 403.871
1471 0 59.0762 11.1043 656 53.2591 816.971 403.386
1472 0 64.1889 11.0923 712 52.6222 816.89 401.515
1473 0 61.2124 10.9618 671 53.8852 816.097 401.334
1474 1 100.193 9.57155 959 47.3858 816.29 406.819
1475 1 65.2608 11.3238 739 53.7537 816.613 400.061
1476 0 69.1058 10.7806 745 53.9517 817.378 400.467
1477 0 69.1931 11.3162 783 53.5453 816.58 399.483
1478 0 74.1752 10.9336 811 53.4451 816.568 397.745
1479 0 74.1171 11.239 833 53.4346 817.25 397.245
1480 0 79.1522 11.4337 905 52.6044 817.105 396.398
1481 0 77.1776 11.4541 884 53.2828 816.923 395.233
1482 0 80.2032 11.4584 919 52.7889 817.152 395.054
1483 0 82.1899 11.3883 936 52.9167 816.323 392.655
1484 0 84.1391 11.5998 976 52.6814 816.57 393.183
1485 0 87.1864 11.3779 992 52.7188 816.616 391.266
1486 0 88.1885 11.2033 988 53.4474 817.055 388.811
1487 0 94.2288 11.281 1063 53.2192 817.005 388.412
1488 0 94.119 11.4323 1076 53.4786 816.91 386.783
1489 0 98.2332 11.7985 1159 52.8671 816.657 386.108
1490 0 102.114 10.9779 1121 53.9179 816.548 382.898
1491 1 83.5254 8.97931 750 47.3147 817.656 410.743
1492 1 54.1054 10.4795 567 53.5855 816.908 406.448
1493 0 55.0292 10.449 575 53.7113 816.97 404.464
1494 0 58.1385 10.3546 602 54.0515 817.399 404.701
1495 0 60.063 10.7887 648 52.5787 816.826 403.469
1496 0 61.1481 10.9407 669 52.8326 816.52 402.136
1497 0 62.2436 11.4229 711 52.2208 816.664 403.745
1498 0 65.188 11.7506 766 51.4021 816.838 402.191
1499 0 64.1331 11.1331 714 52.6807 816.811 399.395
1500 1 100.431 11.0723 1112 45.1223 816.532 404.637
1501 1 71.2226 11.3728 810 51.837 816.223 398.336
1502 0 72.1119 11.8427 854 51.1206 816.301 397.634
1503 0 73.0859 11.6712 853 51.7667 816.383 396.257
1504 0 78.1228 11.5587 903 50.9911 816.386 395.276
1505 1 151.812 7.73324 1174 45.914 816.112 400.894
1506 1 80.0693 10.391 832 52.7043 816.359 394.756
1507 0 80.2864 10.5622 848 52.1108 816.034 394.323
1508 0 77.1363 10.3194 796 52.5528 815.734 392.756
1509 1 92.212 11.5061 1061 51.0038 815.764 388.351
1510 0 98.162 11.0124 1081 51.5282 816.13 387.516
1511 0 98.2282 11.117 1092 51.8333 815.871 383.288
1512 0 102.165 11.6576 1191 51.1671 815.367 383.187
1513 0 106.43 11.7449 1250 50.8536 815.389 379.438
1514 1 57.102 10.3849 593 51.6391 816.437 405.42
1515 0 56.1309 10.6002 595 51.9092 816.608 403.918
1516 0 61.1473 10.6955 654 50.7813 816.046 403.465
1517 0 61.1091 10.8331 662 51.1465 816.574 401.616
1518 0 63.141 11.5297 728 50.1264 816.731 401.207
1519 0 63.13 11.801 745 50.2027 815.503 399.65
1520 0 63.2579 10.4335 660 52.3455 816.232 397.165
1521 0 67.0912 11.4918 771 50.9909 816.019 397.821
1522 0 71.1805 11.8431 843 49.9941 816.535 397.486
1523 0 72.0892 11.6661 841 50.7027 816.829 396.115
1524 0 73.1234 11.2549 823 51.4933 816.792 394.609
1525 0 76.1916 11.0773 844 51.628 816.139 392.196
1526 0 78.1286 11.8011 922 51.0228 816.37 390.888
1527 0 81.1649 11.4089 926 51.4039 816.373 391.419
1528 0 83.1107 11.2621 936 51.6442 815.722 390.471
1529 0 86.1504 11.5031 991 51.4904 816.643 389.232
1530 1 42.0464 10.6787 449 53.0267 816.722 407.677
1531 0 45.1581 10.0979 456 53.4408 816.36 408.007
1532 0 48.2073 10.7245 517 52.1625 816.01 406.114
1533 0 49.0968 11.2635 553 51.3002 815.971 406.024
1534 0 51.0283 10.7391 548 51.885 817.046 405.752
1535 0 51.196 10.8797 557 52.2531 816.524 404.646
1536 0 53.0667 11.4196 606 51.4719 817.069 403.901
1537 0 55.0865 11.4729 632 50.9098 816.416 404.234
1538 0 57.2117 12.043 689 50.4267 816.608 404.801
1539 0 61.2101 11.289 691 50.5137 816.388 401.579
1540 0 61.0554 12.1857 744 49.8226 816.146 401.12
1541 0 62.0945 11.6274 722 50.7244 816.071 400.083
1542 0 66.0464 11.4919 759 50.3505 816.223 399.217
1543 0 67.1699 12.3121 827 48.7449 815.163 397.785
1544 0 67.1383 12.154 816 49.3774 815.4 397.624
1545 0 70.2053 11.8225 830 49.1361 815.559 396.171
1546 0 73.2021 12.2264 895 48.4145 815.255 396.267
1547 0 75.1106 11.5696 869 49.1208 815.143 394.255
1548 1 109.27 11.3572 1241 43.0177 814.942 397.941
1549 1 78.0711 11.7329 916 48.4116 814.902 392.05
1550 0 83.2076 11.8619 987 48.2432 815.194 391.218
1551 0 83.1215 11.7659 978 48.3834 814.782 389.137
1552 0 87.1446 11.7621 1025 47.8985 814.457 387.437
1553 1 46.0299 10.4714 482 49.1701 815.066 410.154
1554 0 46.1033 10.65 491 49.3686 814.627 408.703
1555 0 47.1293 11.1396 525 49.0838 814.813 409.164
1556 0 51.2114 11.5209 590 47.5119 814.661 406.836
1557 0 52.2958 10.7274 561 48.4955 814.26 404.39
1558 0 53.124 11.0873 589 48.4635 814.45 406.621
1559 0 55.1011 11.1069 612 48.2941 814.19 403.819
1560 0 55.1334 11.9891 661 47.7247 815.238 403.185
1561 0 59.2592 11.475 680 47.4853 814.844 403.157
1562 0 61.0564 11.4648 700 47.6829 815.066 401.397
1563 1 103.261 35.512 3667 23.8107 812.376 410.098
1564 1 69.0177 21.7336 1500 35.3467 813.233 392.969
1565 0 69.2857 22.2845 1544 35.351 814.016 393.707
1566 0 68.3985 20.9215 1431 36.4102 813.681 392.63
1567 1 119.488 9.50726 1136 41.4824 813.654 405.186
1568 1 70.0571 11.4906 805 49.1565 814.824 395.672
1569 0 75.3131 12.3883 933 47.2637 814.79 394.34
1570 0 77.1282 11.9023 918 48.0261 814.745 392.82
1571 0 79.1441 12.2814 972 47.4321 814.274 393.368
1572 0 81.2595 11.814 960 48.3583 814.466 389.755
1573 0 86.2599 11.7204 1011 48.5638 814.827 389.155
1574 0 87.2143 11.1335 971 49.8466 814.923 387.002
1575 0 91.2094 12.2794 1120 48.3411 814.346 386.821
1576 1 115.437 13.6265 1573 42.3522 814.823 395.312
1577 0 131.12 12.7517 1672 41.4306 815.536 396.184
1578 0 127.486 13.4446 1714 41.5251 814.858 393.399
1579 1 103.411 11.6621 1206 49.1667 814.568 383.298
1580 0 103.288 11.5599 1194 49.4204 815.204 381.409
1581 0 103.297 11.7041 1209 49.1216 814.75 381.089
1582 1 96.5211 9.80096 946 40.0677 816.558 412.888
1583 1 59.2171 11.3312 671 47.9821 815.507 403.109
1584 0 62.1918 11.0304 686 48.1122 815.536 403.653
1585 0 65.1839 11.2758 735 47.4544 815.712 402.45
1586 0 65.27 11.6746 762 47.5223 816.058 401.664
1587 0 67.2083 11.2635 757 47.5337 815.264 399.38
1588 0 69.2343 11.425 791 47.3161 815.585 400.003
1589 0 71.2282 11.4281 814 47.172 815.222 397.848
1590 0 74.2801 11.3624 844 47.205 816.424 397.943
1591 0 75.2382 10.7525 809 47.4808 815.043 395.488
1592 0 80.2676 11.2748 905 46.4917 814.674 394.834
1593 0 81.3439 11.9493 972 45.966 814.96 392.943
1594 0 83.2052 11.5618 962 46.5198 815.585 391.243
1595 0 86.2938 10.6613 920 47.4924 815.444 388.867
1596 0 89.142 10.9825 979 46.8999 814.944 389.761
1597 0 93.2217 11.4995 1072 46.3563 815.145 388.129
1598 1 136.574 9.61386 1313 42.2597 814.823 395.65
1599 1 60.2305 10.659 642 45.3287 815.564 404.558
1600 0 61.2608 10.9042 668 44.9162 815.281 405.106
1601 0 59.2048 10.3539 613 44.9739 814.202 404.168
1602 0 59.1665 10.2254 605 45.8893 814.962 404.949
1603 1 81.1969 9.9388 807 41.461 815.434 407.512
1604 1 116.378 12.3649 1439 45.2564 815.586 376.923
1605 0 116.589 11.7421 1369 45.8327 815.219 374.896
1606 1 147.443 13.6121 2007 39 814.415 385.199
1607 1 73.3455 10.4846 769 44.7152 814.826 398.26
1608 0 74.2079 10.6592 791 44.7838 814.813 398.785
1609 0 73.2134 11.2821 826 44.2131 815.567 398.84
1610 0 72.1769 11.1532 805 44.5665 814.794 397.352
1611 1 115.177 9.34213 1076 39.5586 815.35 405.398
1612 1 84.9762 20.2292 1719 33.0931 813.488 386.635
1613 1 131.235 8.94578 1174 39.3663 815.271 402.532
1614 1 77.2482 11.7543 908 44.4064 815.066 395.37
1615 0 79.3575 11.3663 902 44.9479 814.928 392.59
1616 0 82.2392 10.9315 899 44.7909 814.238 391.526
1617 0 84.263 11.4166 962 44.7412 814.688 390.586
1618 0 89.28 11.3575 1014 44.6262 814.626 389.256
1619 0 90.2964 11.3626 1026 44.8031 814.828 389.784
1620 0 91.4322 6.36537 582 40.4502 814.926 416.557
1621 1 45.1958 10.5541 477 44.8553 815.18 410.927
1622 1 83.2987 7.61116 634 41.7271 815.708 414.017
1623 1 49.1328 10.8888 535 44.8841 815.834 408.74
1624 0 52.2245 11.0868 579 43.7219 815.535 407.769
1625 0 54.1327 10.2895 557 44.8007 814.916 407.181
1626 0 55.1092 11.0689 610 43.8426 815.472 406.849
1627 0 57.0663 10.9872 627 43.6459 815.383 406.754
1628 0 56.0789 11.5373 647 43.4714 814.482 406.368
1629 0 60.0734 11.0698 665 43.585 814.756 404.263
1630 0 59.062 10.8361 640 44.2844 814.895 402.766
1631 0 61.155 11.43 699 43.9685 816.039 402.225
1632 0 63.1305 11.8801 750 43.3133 815.471 403.692
1633 0 65.2488 11.9389 779 43.1849 815.331 402.507
1634 0 66.2102 12.0978 801 43.0599 814.77 402.085
1635 0 68.2405 11.2103 765 44.119 814.633 398.612
1636 0 71.1312 11.6686 830 43.5735 814.101 398.405
1637 0 74.2077 11.7373 871 43.5098 814.385 397.517
1638 0 75.2506 11.4152 859 44.4703 815.185 395.781
1639 0 78.0762 11.7449 917 43.9117 814.338 394.786
1640 0 82.1081 11.5214 946 44.4376 814.936 395.358
1641 0 84.3169 11.8244 997 43.8726 813.977 394.046
1642 1 112.757 11.139 1256 40.5494 813.589 397.982
1643 1 86.3212 11.434 987 45.2685 813.835 392.386
1644 0 91.2732 11.493 1049 45.5901 814.146 388.232
1645 0 95.1785 11.946 1137 45.0308 813.443 389.566
1646 0 98.3107 11.4128 1122 46.0677 814.067 386.291
1647 0 112.399 6.43242 723 41.4896 813.487 415.574
1648 1 53.166 23.2479 1236 33.8875 812.895 399.776
1649 0 52.0354 24.1182 1255 34.1506 813.672 399.778
1650 0 56.0588 25.6516 1438 33.032 813.834 401.506
1651 0 55.0927 24.2863 1338 33.8976 813.953 400.911
1652 1 149.101 11.8913 1773 41.4648 813.894 386.803
1653 1 115.055 11.5771 1332 46.6381 813.933 379.875
1654 0 117.787 7.87014 927 40.6073 812.649 411.588
1655 1 65.0902 11.7068 762 45.4619 814.27 404.445
1656 0 66.1913 11.8294 783 45.4266 813.991 404.253
1657 0 68.0521 12.0349 819 45.2198 813.609 400.968
1658 0 73.2717 11.3004 828 45.6461 813.453 398.444
1659 0 72.0781 11.3349 817 46.3929 814.017 396.459
1660 0 75.2675 11.7448 884 45.4955 813.628 398.347
1661 0 77.1529 11.6263 897 46.1171 813.561 396.248
1662 1 105.16 10.156 1068 43.2697 813.516 401.747
1663 1 39.0102 9.92049 387 48.0258 814.256 414.517
1664 0 43.057 10.4745 451 47.4235 814.049 413.275
1665 0 41.0124 10.5578 433 48.5127 814.469 414.471
1666 0 43.0658 10.4027 448 48.7455 814.525 411.366
1667 0 45.0682 10.6727 481 48.8919 815.503 411.006
1668 0 47.0289 11.3547 534 48.6816 815.875 411.627
1669 1 78.1481 9.34124 730 43.7384 814.986 415.408
1670 1 52.0623 11.3902 593 48.0928 814.057 409.393
1671 0 54.0374 11.5661 625 48.0784 814.634 409.498
1672 0 55.1257 11.4647 632 48.5364 814.585 408.193
1673 0 57.0881 11.3684 649 48.7442 814.647 408.692
1674 0 57.0842 11.9648 683 48.0674 813.647 407.239
1675 0 61.1161 11.6663 713 47.9341 813.286 405.935
1676 0 64.0321 10.8071 692 49.0549 813.142 404.507
1677 0 64.0884 11.1253 713 48.8583 813.842 404.288
1678 0 67.1562 11.3914 765 49.0248 813.742 403.518
1679 0 68.0638 10.2551 698 50.553 813.616 403.695
1680 0 73.0979 10.6433 778 49.9923 814.292 403.298
1681 0 73.1232 11.3507 830 49.2157 814.389 401.518
1682 0 74.1101 11.0106 816 49.7524 814.265 398.95
1683 1 37.0451 9.205 341 50.2053 814.085 418.431
1684 0 38.0794 10.5831 403 48.9578 814.109 418.7
1685 0 39.1039 10.7406 420 48.819 814.85 417.15
1686 0 39.2439 10.8297 425 49.7553 814.892 417.748
1687 0 41.0994 11.1924 460 49.0652 814.82 415.654
1688 0 43.1167 10.8311 467 49.8051 814.096 414.15
1689 0 43.1236 10.5511 455 50.8725 814.382 413.723
1690 0 46.0775 10.9815 506 49.4842 814.962 414.53
1691 0 47.0727 10.7068 504 49.996 815.395 411.74
1692 0 47.0437 11.2661 530 49.7547 815.043 411.934
1693 0 50.0981 10.9785 550 49.2073 814.555 411.631
1694 0 52.103 11.4197 595 48.7899 814.644 410.245
1695 0 54.1428 10.9895 595 48.9311 814.565 410.541
1696 0 55.1261 10.9023 601 48.9501 813.948 409.747
1697 0 55.1062 11.4506 631 48.5214 814.957 409.835
1698 0 60.0551 10.7568 646 46.6749 815.087 408.082
1699 0 63.1874 11.4105 721 45.6976 815.092 405.25
1700 0 62.0689 11.3422 704 46.2372 815.08 405.034
1701 0 64.1543 10.7241 688 46.7573 814.908 403.818
1702 0 67.162 11.1373 748 45.8864 815.623 400.751
1703 0 69.1244 11.4142 789 45.5171 815.769 401.92
1704 0 70.0972 11.6267 815 45.638 816.31 401.216
1705 0 75.1417 11.0325 829 45.9409 815.387 400.38
1706 0 76.1654 11.265 858 45.9627 815.031 401.498
1707 1 41.1013 9.48875 390 47.9769 815.556 415.99
1708 0 42.079 9.43464 397 48.6071 815.922 415.574
1709 0 44.0898 9.57138 422 47.846 815.685 414.576
1710 0 44.1002 10.5668 466 47.3755 815.813 413.146
1711 0 44.1098 11.1086 490 46.849 815.588 413.984
1712 0 45.123 10.5711 477 47.631 815.95 412.069
1713 0 49.2041 11.0357 543 46.3168 816.254 410.63
1714 0 50.1639 11.6219 583 45.9125 816.787 412.618
1715 0 55.1125 10.3969 573 46.5602 816.159 409.85
1716 0 55.1457 11.1523 615 46.0325 815.953 409.112
1717 0 58.2204 11.113 647 45.7218 815.662 408.416
1718 0 60.088 10.5512 634 46.0599 815.573 406.937
1719 0 62.0917 10.9999 683 45.6076 816.265 405.953
1720 0 65.1101 10.92 711 45.9564 815.83 405.373
1721 0 65.1772 11.0315 719 45.9569 815.7 402.235
1722 0 65.1018 11.4743 747 46.1392 816.538 401.984
1723 0 69.2275 11.4116 790 45.6228 815.752 400.892
1724 0 72.1197 11.0788 799 45.572 816.164 399.631
1725 1 95.2707 11.7455 1119 40.5174 816.325 403.161
1726 1 73.0736 10.9752 802 45.9663 816.17 398.702
1727 0 73.118 11.3105 827 45.1245 815.405 398.443
1728 0 74.0769 11.4071 845 45.303 816.057 398.563
1729 0 80.167 11.5384 925 44.9405 816.224 393.018
1730 0 83.1146 11.2375 934 44.5814 815.608 391.35
1731 0 91.1808 11.1756 1019 44.2915 815.791 391.022
1732 0 91.1018 11.0097 1003 44.8345 816.955 389.416
1733 0 94.1839 12.0934 1139 43.7981 817.152 389.683
1734 0 95.0855 11.6316 1106 44.7559 816.843 387.441
1735 0 101.061 11.5375 1166 44.7058 816.749 385.778
1736 0 105.174 11.3717 1196 45.0075 816.318 381.462
1737 1 52.0677 9.81414 511 47.2387 816.436 406.264
1738 0 56.1462 11.7194 658 44.7903 816.594 406.457
1739 0 56.0467 12.2041 684 45.0614 816.531 405.699
1740 0 60.1251 11.1434 670 45.303 815.675 403.255
1741 0 60.0453 11.7411 705 45.617 816.427 403.373
1742 0 66.0624 11.5043 760 44.5211 816.543 402.839
1743 0 64.0895 12.3577 792 44.6124 815.854 401.628
1744 1 92.7247 10.8709 1008 40.7897 816.312 405.267
1745 1 68.1261 12.2126 832 44.8293 816.328 399.984
1746 0 70.1691 11.9426 838 45.0895 816.012 397.456
1747 0 73.1374 11.7724 861 45.0558 815.463 395.74
1748 0 73.1262 11.7605 860 45.7849 816.134 396.507
1749 0 77.1608 11.7417 906 45.5033 816.302 394.589
1750 0 81.2452 12.013 976 44.7018 815.866 395.033
1751 0 84.2791 11.8772 1001 44.7642 815.599 394.435
1752 0 86.2228 11.4935 991 45.3411 816.261 392.733
1753 0 88.1544 11.8429 1044 45.0374 816.304 392.404
1754 0 91.3616 11.5585 1056 45.0814 815.752 390.402
1755 0 93.1758 11.6125 1082 45.219 815.6 391.081
1756 0 95.1888 11.3984 1085 45.4912 815.55 388.507
1757 0 102.254 12.2929 1257 43.9865 815.387 387.75
1758 0 103.232 10.8106 1116 46.0475 815.993 385.023
1759 0 108.218 11.8188 1279 44.4519 814.929 385.083
1760 1 136.413 12.5648 1714 38.9854 814.891 393.369
1761 1 106.358 10.8501 1154 45.6577 815.285 380.409
1762 1 153.988 11.3386 1746 39.3666 814.853 392.463
1763 1 63.1634 11.1299 703 44.2048 814.367 406.129
1764 0 62.1617 11.3575 706 45.0609 814.89 405.627
1765 0 66.1624 10.4893 694 45.5634 815.104 404.67
1766 0 70.2794 10.7001 752 45.0558 814.981 403.688
1767 0 72.2274 10.8546 784 44.4898 815.076 401.828
1768 0 73.2128 10.5719 774 45.1214 814.521 402.067
1769 0 75.1823 10.2019 767 45.9752 814.761 399.578
1770 1 201.403 12.0108 2419 38.7578 814.086 380.132
1771 1 205.613 11.6676 2399 46.143 814.456 331.299
1772 1 126.302 9.02596 1140 40.7684 814.628 402.968
1773 1 43.2118 9.0253 390 45.2538 813.972 415.313
1774 0 43.0634 10.0085 431 44.703 814.789 415.357
1775 0 45.1047 10.1985 460 45.0717 815.259 412.459
1776 0 45.1854 9.53848 431 45.9072 814.882 411.731
1777 0 49.1585 9.90674 487 45.1437 814.754 411.302
1778 0 47.182 9.85546 465 45.9613 813.796 410.226
1779 0 51.323 10.5411 541 44.7468 814.394 409.902
1780 0 53.2291 10.1072 538 44.0874 815.422 410.292
1781 0 52.1356 10.3384 539 44.5603 815.792 410.006
1782 0 54.1032 10.7942 584 43.9298 815.397 407.942
1783 0 56.2703 10.5917 596 43.7198 815.409 407.195
1784 0 58.2825 10.432 608 43.9918 815.806 406.062
1785 1 103.711 31.3661 3253 22.3548 812.764 411.718
1786 1 79.6627 17.8126 1419 31.957 812.431 396.818
1787 1 14.2709 8.05837 115 13.1826 806.2 448.226
1788 0 0 0 0 -nan -nan -nan
1789 0 18.4656 7.68996 142 13.1408 809.62 450.768
1790 1 69.2655 11.0012 762 43.2887 815.629 400.778
1791 0 72.1843 10.8611 784 43.2079 816.004 398.3
1792 0 72.3172 11.0762 801 42.8989 815.226 399.341
1793 0 76.2455 10.0858 769 43.5787 814.787 395.633
1794 0 75.2432 9.88793 744 211.038 814.755 395.281
1795 1 37.1351 9.74819 362 43.4227 815.583 414.448
1796 0 40.0754 9.63184 386 43.342 815.946 413.935
1797 0 41.1365 9.96681 410 42.7244 815.949 411.461
1798 0 43.205 11.0172 476 41.0672 816.933 411.66
1799 0 44.0818 10.2763 453 42.2384 817.068 410.382
1800 0 45.0997 10.7539 485 41.2907 816.231 410.202
1801 0 48.1318 10.3466 498 41.6145 816.002 407.789
1802 0 49.2499 10.3554 510 41.8059 816.484 407.665
1803 0 46.2147 10.7325 496 42.0968 816.222 407.3
1804 0 52.1261 10.3787 541 41.3272 815.974 408.856
1805 0 53.0227 10.769 571 41.4606 816.965 406.208
1806 0 54.1055 10.3501 560 41.8446 816.493 404.536
1807 0 54.1418 11.6176 629 40.8633 816.625 405.343
1808 1 97.3176 32.2758 3141 21.5651 813.968 410.435
1809 1 119.803 36.727 4400 18.9616 813.61 425.53
1810 1 56.1033 22.3873 1256 31.9252 815.604 396.205
1811 1 97.5425 9.5138 928 37.0011 816.91 406.188
1812 1 62.2185 11.7168 729 40.8916 816.672 401.743
1813 0 64.1262 10.7288 688 41.4869 816.724 400.735
1814 0 66.1325 11.3409 750 40.8013 816.556 400.191
1815 0 68.1658 11.0466 753 41.0226 816.831 399.397
1816 0 68.176 11.2796 769 41.3251 818.062 398.329
1817 1 117.095 39.0196 4569 20.3132 816.195 412.471
1818 1 75.7426 20.332 1540 31.3695 816.428 388.842
1819 0 83.4826 6.5882 550 37.5055 817.036 415.384
1820 1 44.0717 9.89296 436 41.0826 817.087 411.608
1821 0 43.1136 10.0432 433 40.6767 818 411.684
1822 0 43.0731 9.17046 395 41.9772 817.499 411.954
1823 0 44.0653 9.44053 416 41.8125 817.151 410.733
1824 0 44.0886 10.8645 479 41.1399 817.858 412.127
1825 0 44.0843 10.2985 454 42.3833 818.357 409.599
1826 0 45.077 10.8925 491 42.1507 817.843 410.371
1827 0 48.1572 11.2548 542 41.9945 817.306 408.817
1828 0 49.078 11.0436 542 42.2675 817.094 409.022
1829 0 53.1027 11.2047 595 41.4672 817.533 407.24
1830 0 51.1616 11.1607 571 42.3923 818.319 404.11
1831 0 51.0896 10.6284 543 43.0939 817.808 404.366
1832 0 55.0717 11.6575 642 41.9112 817.74 405.238
1833 0 61.074 11.265 688 41.4666 817.581 406.667
1834 0 59.1721 12.1679 720 41.8236 817.146 403.94
1835 0 62.1296 11.8301 735 41.8993 817.424 402.927
1836 1 89.2438 11.0484 986 37.9848 817.07 407.365
1837 1 64.1274 11.4616 735 43.083 817.694 401.385
1838 0 65.0403 12.1463 790 42.5987 816.967 400.36
1839 0 65.0403 12.1156 788 201.739 815.958 400.369
1840 0 69.1036 11.6926 808 42.8379 816.541 397.391
1841 0 73.1305 11.7461 859 42.6531 816.572 397.541
1842 0 72.131 11.798 851 199.045 816.58 397.722
1843 1 142.5 8.01404 1142 39.1314 816.889 404.214
1844 1 90.072 11.0911 999 43.025 817.394 392.415
1845 0 90.0701 11.5799 1043 42.4957 816.926 392.263
1846 0 89.1162 10.952 976 42.918 815.688 391.753
1847 0 84.0905 11.4995 967 43.9772 815.412 389.572
1848 0 89.154 12.17 1085 43.1659 815.94 390.123
1849 0 89.154 12.1251 1081 195.438 816.956 390.073
1850 0 97.1736 11.7213 1139 43.5628 815.707 386.528
1851 0 99.1101 11.7142 1161 43.7873 816.025 383.158
1852 1 85.1628 9.67559 824 39.1529 816.07 409.471
1853 1 54.0187 11.9588 646 43.8297 815.512 405.659
1854 0 57.0536 11.4103 651 44.0799 815.421 406.184
1855 0 55.1076 11.7407 647 44.6476 815.992 403.798
1856 0 61.1636 11.7554 719 43.886 816.334 402.174
1857 0 60.1711 11.6667 702 44.2707 815.274 401.048
1858 0 61.1618 11.5105 704 44.9048 815.719 401.219
1859 0 63.1987 11.9781 757 44.7556 816.185 401.19
1860 0 65.0979 11.5365 751 45.1092 815.706 398.875
1861 0 67.1564 11.6296 781 45.0102 816.223 397.736
1862 0 69.1928 12.2701 849 44.5241 816.539 395.615
1863 0 74.1044 12.1855 903 43.8793 816.473 397.371
1864 0 76.1228 12.2302 931 43.8034 815.834 396.002
1865 0 77.1933 11.3352 875 44.5189 816.386 391.536
1866 0 87.2383 11.2794 984 43.8679 816.267 391.585
1867 0 81.1735 11.6294 944 44.5424 816.38 388.742
1868 0 85.1871 11.645 992 44.3367 816.034 389.056
1869 0 90.0426 10.917 983 44.4547 817.412 388.6
1870 0 89.2172 11.6794 1042 44.0854 816.509 385.357
1871 0 95.1894 11.9026 1133 43.5887 816.854 381.685
1872 0 98.1211 11.8119 1159 43.3227 817.626 382.148
1873 0 98.1981 11.5481 1134 44.1914 817.256 380.601
1874 1 87.3787 9.64766 843 39.7165 817.042 407.011
1875 1 52.0235 11.7639 612 44.4575 817.258 401.075
1876 0 57.0685 11.4249 652 44.6258 817.187 402.428
1877 0 59.0531 11.0409 652 45.1948 817.787 398.649
1878 0 60.0516 12.3394 741 43.9271 817.177 399.489
1879 0 62.088 11.3387 704 45.2173 817.703 397.972
1880 0 62.0364 11.864 736 44.7799 817.495 399.262
1881 0 65.0462 11.6686 759 44.7128 817.037 398.552
1882 0 69.0628 11.8733 820 44.1915 817.309 397.383
1883 0 68.0432 11.9336 812 44.9261 817.942 396.223
1884 0 71.0492 11.7524 835 44.891 817.998 396.148
1885 0 74.1313 11.9248 884 44.6731 817.77 394.94
1886 0 75.0527 12.0449 904 45.2467 818.382 394.981
1887 0 78.1697 12.1019 946 45.241 818.874 393.268
1888 0 77.0351 12.1503 936 46.1143 818.328 391.223
1889 1 43.0303 9.80704 422 46.8152 818.571 411.092
1890 0 40.025 10.6683 427 47.7494 818.461 409.97
1891 0 45.0985 10.7321 484 46.7583 818.031 409.574
1892 0 46.0227 11.2119 516 46.6667 818.775 411.072
1893 0 47.0646 11.0911 522 47.2356 817.82 407.866
1894 0 50.1264 10.7129 537 47.8156 817.332 409.074
1895 0 48.0423 10.1161 486 49.6193 817.426 405.537
1896 1 84.1707 9.8728 831 42.8953 818.014 409.325
1897 0 80.2888 10.0388 806 43.1079 817.68 409.108
1898 1 53.051 11.6115 616 48.1542 817.86 404.938
1899 0 58.046 11.577 672 47.3333 817.421 404.933
1900 0 58.1031 11.9787 696 47.1911 818.263 404.897
1901 0 61.0462 11.4503 699 47.9156 816.989 403.147
1902 0 59.0713 11.6131 686 48.3994 817.236 403.29
1903 0 65.0342 11.6862 760 47.5487 817.992 400.92
1904 0 65.0855 11.6923 761 47.7056 817.551 399.792
1905 0 70.1176 11.5948 813 47.5289 817.53 400.481
1906 0 72.0266 11.7734 848 46.9222 816.658 399.591
1907 0 73.1645 11.6313 851 47.0164 817.159 397.578
1908 0 75.1917 11.4241 859 47.241 816.455 397.648
1909 0 78.099 11.0245 861 47.7898 816.178 394.114
1910 0 79.1074 11.4781 908 47.6608 815.722 394.401
1911 0 70.0618 6.67981 468 44.4722 816.622 415.628
1912 1 42.0382 10.1099 425 46.64 815.624 413.713
1913 0 43.0094 10.4861 451 46.3348 815.798 412.847
1914 0 44.0139 10.3376 455 47.2088 816.714 414.622
1915 0 42.0169 10.4482 439 47.9317 816.859 413.223
1916 0 43.037 10.8046 465 47.8258 816.06 412.178
1917 0 46.0424 10.6641 491 48.0285 816.688 410.265
1918 0 46.0566 11.247 518 47.7162 815.936 410.351
1919 0 49.0555 10.0498 493 48.8986 816.515 409.728
1920 0 49.0464 11.1119 545 48.3413 815.842 407.268
1921 1 8.02196 9.22468 74 13.2568 812.027 455.459
1922 1 0 0 0 -nan -nan -nan
1923 0 0 0 0 -nan -nan -nan
1924 0 0 0 0 -nan -nan -nan
1925 1 10.1794 6.48365 66 13.3333 814.833 456.258
1926 1 58.1069 11.7714 684 48.405 816.408 405.089
1927 0 60.0773 11.0691 665 49.5293 817.203 403.051
1928 0 64.0807 11.4075 731 49.0739 816.605 402.105
1929 0 64.0614 11.6763 748 49.2914 817.206 401.388
1930 0 68.0616 11.328 771 49.3048 817.3 400.764
1931 0 69.1654 11.9713 828 49.0036 816.251 398.833
1932 0 72.1208 11.0509 797 50.1982 816.27 396.488
1933 0 74.097 11.3365 840 49.9155 816.844 396.601
1934 1 38.0865 9.92477 378 50.4709 817.127 412.101
1935 0 39.0575 10.7022 418 50.6388 816.921 412.024
1936 0 41.07 11.2734 463 49.9957 817.03 413.242
1937 0 40.0229 11.3935 456 50.1842 817.147 412.961
1938 0 45.069 9.9847 450 50.9022 816.571 410.189
1939 0 46.0747 10.4613 482 50.6722 816.948 410.62
1940 0 44.0582 11.5756 510 50.5706 816.755 408.68
1941 0 48.019 10.9123 524 50.3931 817.095 408.172
1942 0 49.0645 11.4339 561 49.9269 817.405 406.672
1943 0 49.0815 11.2874 554 50.6751 816.94 405.532
1944 0 50.1588 11.2842 566 50.2368 817.148 404.89
1945 0 55.1146 11.1949 617 49.3663 816.642 404.627
1946 0 56.1086 11.1926 628 49.2755 816.702 403.062
1947 0 57.1192 11.3622 649 49.5223 817.285 403.676
1948 0 59.1207 11.5357 682 49.4282 816.886 402.213
1949 0 60.1617 11.5854 697 49.4978 816.898 401.587
1950 0 64.0867 11.1568 715 50.3119 817.573 402.182
1951 1 92.1743 10.6646 983 45.0163 817.973 406.232
1952 1 66.0943 11.2415 743 50.3674 818.288 400.767
1953 0 68.0916 11.7783 802 49.7107 818.176 399.781
1954 0 72.1596 11.7517 848 49.638 817.546 398.587
1955 0 74.1256 11.6289 862 50.2216 817.559 397.945
1956 0 75.2269 11.4852 864 50.853 818.451 396.175
1957 0 79.4229 11.785 936 50.3237 817.746 395.012
1958 1 41.1359 10.2344 421 51.5107 818.527 414.494
1959 0 41.1413 11.2296 462 51.5541 817.924 412.409
1960 0 43.3257 10.6173 460 52.3848 817.922 411.993
1961 0 44.1879 11.4058 504 51.9206 817.54 411.317
1962 0 47.2413 10.3935 491 52.6741 818.104 412.098
1963 0 45.2202 11.0128 498 52.5201 817.673 412.09
1964 0 50.1499 10.8874 546 51.7216 817.599 411.987
1965 0 50.0644 11.1656 559 52.3256 817.467 410.174
1966 0 50.201 10.9161 548 52.7208 817.781 408.672
1967 0 52.1212 10.9169 569 52.9912 817.25 410.111
1968 0 55.0954 10.6905 589 52.7419 817.019 407.966
1969 0 54.0806 10.8727 588 53.2721 817.476 407.235
1970 0 59.045 11.3642 671 52.3562 817.858 407.495
1971 0 62.0934 11.225 697 52.1105 817.484 406.155
1972 0 62.1531 11.2786 701 52.6576 816.844 404.937
1973 0 65.0588 11.359 739 51.885 817.066 403.093
1974 0 66.0625 10.7777 712 53.1404 817.444 402.368
1975 0 69.1238 10.9658 758 52.595 817.509 401.646
1976 0 72.0918 11.6102 837 51.8554 817.192 400.812
1977 0 74.1946 10.6746 792 53.0177 816.878 398.824
1978 0 74.1893 11.0663 821 53.017 816.436 398.376
1979 0 81.2199 10.7732 875 53.2457 817.007 397.184
1980 0 80.1107 11.172 895 53.2492 816.445 396.674
1981 1 43.0586 10.6134 457 54.0263 816.68 414.333
1982 0 47.1043 10.6572 502 53.6394 816.867 414.229
1983 0 44.0761 10.7314 473 54.8774 816.723 411.913
1984 0 50.0489 11.1091 556 53.1439 817.612 411.529
1985 0 50.0908 11.2995 566 53.2474 816.982 411.021
1986 0 52.1183 11.2053 584 53.4212 816.863 409.253
1987 0 54.0596 11.9683 647 52.7651 816.3 409.45
1988 0 56.0694 11.2361 630 52.8873 816.502 407.192
1989 0 56.0689 11.2183 629 53.2576 816.652 406.094
1990 0 59.0198 11.5555 682 52.478 816.972 405.191
1991 0 63.0672 11.4798 724 51.7293 816.49 404.204
1992 0 64.1602 11.1596 716 52.1634 816.874 401.546
1993 0 62.0334 11.1553 692 52.8382 816.861 401.425
1994 0 68.1726 11.7202 799 51.2891 816.529 402.287
1995 0 71.1993 11.5029 819 51.2418 817.013 400.762
1996 0 72.2807 11.6767 844 51.1943 817.184 397.544
1997 1 112.137 10.5317 1181 46.0652 817.625 400.663
1998 1 79.1492 10.7139 848 51.5366 816.797 394.65
1999 0 82.1812 11.1339 915 51.1148 816.963 394.233
2000 1 39.0812 10.2351 400 51.5375 818.055 414.542
2001 0 42.0611 9.39109 395 51.562 817.56 411.962
2002 0 44.0908 10.4557 461 51.0672 817.735 412.236
2003 0 45.1749 10.5368 476 50.9601 817.424 410.578
2004 0 45.1036 10.9304 493 51.0832 817.716 410.172
2005 1 56.0344 12.7422 714 46.07 817.164 412.819
2006 1 51.0666 11.1619 570 49.7632 817.988 409.539
2007 0 51.087 10.2374 523 51.392 818.317 409.214
2008 0 54.0652 11.0792 599 50.2154 818.154 406.634
2009 0 52.0789 11.2138 584 50.6729 818.247 405.325
2010 0 53.0437 11.368 603 50.4063 817.585 404.799
2011 0 57.1117 11.2937 645 50.3643 817.633 405.681
2012 0 62.2256 11.153 694 49.7003 818.117 404.566
2013 0 62.0806 10.7119 665 50.4932 818.192 402.451
2014 0 65.1013 10.9522 713 50.1543 818.665 401.902
2015 0 65.161 11.6634 760 48.9105 818.232 400.513
2016 0 71.1076 10.238 728 50.0865 818.345 400.244
2017 0 72.1153 10.5387 760 49.8382 818.217 399.492
2018 0 71.0568 11.6949 831 49.2539 818.58 401.929
2019 0 74.0849 11.3113 838 49.2255 819.091 399.852
2020 0 76.0618 11.0962 844 49.6896 819.004 397.148
2021 0 79.1451 11.2578 891 49.2469 818.274 396.987
2022 0 80.2101 10.7094 859 50.4016 817.733 394.878
2023 1 41.157 10.5207 433 51.164 817.871 414.67
2024 0 42.0993 10.404 438 52.0548 817.822 412.756
2025 0 42.0243 10.6367 447 52.2438 818.414 413.682
2026 0 42.0525 10.7247 451 52.4678 819.284 413.856
2027 0 46.0679 10.5062 484 52.3554 819.01 413.378
2028 0 47.0691 11.0051 518 52.139 818.741 411.548
2029 0 48.1038 10.2279 492 53.3069 818.321 410.988
2030 0 52.0402 10.8378 564 52.1667 818.394 410.145
2031 0 54.1095 11.1256 602 51.5914 818.389 410.576
2032 0 54.0663 10.8385 586 52.9232 817.882 409.307
2033 0 57.1051 10.6821 610 52.541 817.639 409.531
2034 0 58.0348 10.7694 625 52.4688 817.41 409.218
2035 0 61.0622 11.0543 675 52.0948 817.87 407.335
2036 0 61.1057 11.2101 685 52.2044 817.293 406.838
2037 0 64.1115 10.9341 701 52.0014 817.288 406.927
2038 0 64.1359 10.9767 704 52.6222 817.516 405.168
2039 0 67.271 10.9854 739 52.4303 817.062 403.719
2040 0 73.0713 10.7977 789 52.3257 816.6 401.882
2041 0 70.1037 11.3118 793 52.5095 816.504 401.428
2042 0 77.2074 10.7373 829 52.3221 816.959 401.875
2043 0 79.2734 10.4701 830 53.1446 816.98 399.566
2044 0 79.1739 11.0643 876 52.8607 816.151 399.666
2045 0 82.1327 10.9092 896 53.2455 816.279 396.916
2046 1 44.1731 11.0022 486 54.1708 816.71 414.095
2047 0 45.1011 10.8866 491 54.9389 816.283 412.847
2048 0 47.0723 11.5567 544 53.9596 816.871 413.607
2049 0 46.025 11.4068 525 55.139 816.307 413.518
2050 0 52.0528 10.7583 560 54.9304 816.209 410.846
2051 0 52.0359 10.7234 558 55.319 816.351 410.688
2052 0 55.0637 10.8783 599 55.3088 816.763 410.3
2053 0 57.1465 10.8493 620 54.8161 816.123 408.01
2054 0 58.1107 11.3576 660 54.7894 816.2 405.777
2055 0 59.1198 11.4852 679 54.8159 816.571 405.359
2056 0 59.0419 11.2124 662 55.7961 817.065 404.328
2057 0 65.0932 11.015 717 54.9596 816.975 403.509
2058 0 67.126 11.1432 748 55.1805 817.83 400.668
2059 0 68.1934 10.9688 748 55.4479 817.559 399.558
2060 0 69.0445 11.4274 789 55.2522 817.461 401.137
2061 0 75.1278 11.1011 834 55.0168 817.65 398.345
2062 0 76.0896 11.8282 900 54.12 816.74 397.06
2063 0 76.0936 11.2099 853 56.2298 816.669 395.028
2064 0 81.124 10.9339 887 55.7294 817.838 395.858
2065 1 40.0711 10.6561 427 56.7775 818.267 414.145
2066 0 40.0622 10.7832 432 56.4954 817.984 413.093
2067 0 41.0528 10.7666 442 58.1244 818.222 412.113
2068 0 44.0358 11.6723 514 55.5837 817.377 412.753
2069 0 45.0428 10.7897 486 57.3457 817.492 412.702
2070 0 44.081 11.5469 509 56.8625 817.953 409.782
2071 0 47.1019 11.3371 534 56.3802 817.382 408.253
2072 0 48.0486 11.7589 565 56.3009 817.922 407.887
2073 0 49.0896 11.7947 579 56.6028 817.701 407.971
2074 0 53.0753 11.5496 613 56.013 818.142 407.026
2075 0 52.0477 12.0082 625 56.224 818.432 406.749
2076 0 54.109 12.7336 689 55.2743 818.772 405.942
2077 0 57.1439 11.5673 661 56.6203 819.106 404.151
2078 0 61.1842 11.9966 734 55.2861 818.952 403.936
2079 0 62.1257 12.024 747 56.1874 818.924 404.245
2080 0 61.1091 11.7331 717 57.2176 818.467 403.026
2081 0 64.1708 12.6226 810 55.9704 818.441 403.143
2082 0 69.1151 12.2694 848 55.7783 818.861 402
2083 0 67.0709 13.0012 872 56.1835 819.088 401.479
2084 0 73.1038 12.6806 927 55.9568 818.681 398.835
2085 0 72.0614 12.1702 877 57.6294 818.507 397.741
2086 0 76.0769 11.5015 875 57.9577 818.285 395.241
2087 0 78.1766 12.1264 948 57.8787 818.527 394.919
2088 0 82.2912 11.8846 978 57.7198 818.488 396.054
2089 1 45.0849 10.4691 472 60.0064 818.036 413.771
2090 0 45.0331 12.08 544 58.4062 817.676 412.362
2091 0 45.0143 11.974 539 59.4044 818.089 411.126
2092 0 49.065 12.1064 594 58.6902 818.475 410.291
2093 0 52.0357 12.1839 634 57.877 817.97 411.89
2094 0 51.0564 11.5559 590 59.2254 817.566 408.585
2095 0 54.0799 12.2227 661 57.1392 817.124 409.352
2096 0 55.1266 12.2808 677 57.1713 817.374 408.554
2097 0 58.0741 12.6563 735 56.2803 817.986 408.951
2098 0 59.1766 11.6262 688 57.8503 817.08 403.85
2099 0 64.0758 12.0794 774 56 817.035 404.279
2100 0 66.0907 12.2559 810 55.479 816.71 403.402
2101 0 64.0794 11.7979 756 56.6772 816.742 402.325
2102 0 67.0638 12.5254 840 55.2976 816.879 401.742
2103 0 69.1 12.7207 879 54.7292 817.406 400.481
2104 0 73.0671 12.1395 887 55.2244 817.423 398.852
2105 0 77.1168 11.6965 902 54.8193 816.899 396.241
2106 0 78.0839 12.0768 943 54.4305 817.075 397.08
2107 0 82.1059 12.1429 997 53.1515 815.775 395.923
2108 0 85.2162 12.04 1026 53.0828 816.346 393.414
2109 0 86.1091 12.7745 1100 52.1609 815.977 392.652
2110 0 90.1144 12.8503 1158 51.8946 816.232 391.058
2111 0 92.161 12.3588 1139 52.3213 816.065 389.242
2112 0 96.2664 12.9848 1250 51.244 816.64 388.87
2113 1 83.1879 10.4102 866 47.0624 816.48 411.197
2114 1 54.1226 11.5294 624 53.0737 816.928 406.446
2115 0 56.1544 12.1451 682 51.5674 816.343 405.264
2116 0 58.1381 12.0231 699 51.4607 816.871 405.602
2117 0 63.1939 11.9948 758 50.7032 817.801 404.521
2118 0 63.2647 12.0604 763 50.7785 816.917 401.33
2119 0 64.0939 12.1384 778 50.6735 816.749 399.886
2120 0 66.0934 12.0436 796 50.103 816.279 398.918
2121 0 69.2846 12.5569 870 49.3034 816.987 399.521
2122 0 71.1768 12.2933 875 49.5314 817.295 395.464
2123 0 74.1811 12.2538 909 49.3234 817.349 397.899
2124 0 78.2317 12.1945 954 48.9623 817.389 394.93
2125 0 81.319 12.0759 982 48.8086 816.908 392.474
2126 0 84.2481 12.4869 1052 48.0751 817.13 392.836
2127 0 84.2366 12.1562 1024 49.0039 817.161 391.049
2128 0 88.2198 12.5709 1109 48.1921 817.046 389.5
2129 0 91.1768 11.4393 1043 49.5206 816.945 386.299
2130 0 94.169 11.6387 1096 49.3449 817.228 386.18
2131 0 97.2529 12.1744 1184 48.6731 816.785 384.651
2132 1 52.1496 10.4315 544 48.9743 817.735 408.283
2133 0 54.194 10.1487 550 49.3109 817.522 407.045
2134 0 54.1431 11.1926 606 48.6733 817.406 405.343
2135 0 56.289 11.0501 622 48.91 817.85 402.826
2136 1 80.2321 11.6163 932 42.6674 817.866 407.518
2137 1 70.8392 19.4102 1375 36.4284 815.943 395.753
2138 1 101.046 9.8074 991 42.0979 818.073 408.794
2139 1 66.1113 11.405 754 47.6326 818.294 401.015
2140 0 69.1721 11.9412 826 46.4806 818.019 399.052
2141 0 68.2234 11.7848 804 47.3781 818.294 398.461
2142 0 74.1522 12.0158 891 46.018 818.136 398.302
2143 0 72.0869 11.5832 835 47.412 817.365 395.566
2144 0 75.1493 11.7766 885 46.7582 817.66 394.29
2145 1 119.532 10.3236 1234 42.0486 817.199 398.227
2146 1 80.2233 11.5054 923 47.2893 818.106 391.16
2147 0 83.309 11.6794 973 46.852 817.824 391.168
2148 0 87.1856 12.3759 1079 46.2011 817.848 387.702
2149 0 88.133 11.8457 1044 47.182 818.416 385.459
2150 0 94.1946 11.0728 1043 47.6596 817.78 385.334
2151 0 98.2208 11.4029 1120 47.3661 818.022 384.145
2152 1 53.1459 9.8032 521 47.382 818.23 405.664
2153 0 52.1137 9.0763 473 49.1966 818.209 404.55
2154 0 55.1579 11.5124 635 46.3843 818.168 404.62
2155 0 58.2112 11.5613 673 46.0267 818.111 404.548
2156 0 60.1251 10.6112 638 47.4922 818.014 404.125
2157 0 62.1386 11.5709 719 46.3978 818.331 401.522
2158 0 61.0995 12.2096 746 46.6072 818.808 401.042
2159 0 65.0946 11.8443 771 46.1997 818.621 401.376
2160 0 65.0519 11.6215 756 47.3995 818.73 400.057
2161 0 70.2346 11.5612 812 46.8374 817.895 399.558
2162 0 74.1635 11.205 831 47.4765 817.77 398.395
2163 0 76.0866 11.0138 838 48.1981 818.21 397.221
2164 0 77.2433 11.1854 864 48.2593 818.49 396.47
2165 0 79.2209 11.4742 909 47.912 818.301 394.712
2166 1 122.4 10.0654 1232 43.3515 818.692 398.507
2167 1 84.2518 11.2876 951 48.9401 818.152 392.328
2168 0 90.2019 11.3523 1024 48.9336 817.918 391.927
2169 0 91.295 11.6764 1066 48.757 818.634 389.094
2170 1 49.3059 9.91768 489 49.8528 818.528 410.272
2171 0 48.0809 10.0664 484 51.3657 817.981 408.267
2172 0 51.1147 10.3493 529 51.2911 818.025 407.361
2173 0 52.1464 11.2568 587 50.5196 818.651 408.129
2174 0 54.0738 10.5412 570 51.3158 818.758 407.04
2175 0 59.2008 11.4357 677 49.2482 819.025 407.211
2176 0 59.1576 10.7509 636 50.3601 819.313 406.775
2177 0 61.2449 10.6131 650 50.3877 818.957 402.602
2178 0 63.2449 11.2894 714 49.7017 818.345 402.282
2179 0 64.2699 11.5139 740 49.6689 818.2 402.636
2180 0 64.2853 11.1534 717 50.3598 818.467 402.014
2181 0 68.2725 11.0293 753 50.6016 819.118 400.333
2182 0 69.2098 11.4146 790 50.0734 818.395 401.254
2183 0 72.1099 11.2051 808 50.0619 818.03 397.108
2184 0 75.0957 12.0779 907 48.6615 818.766 400.395
2185 0 76.2299 11.1242 848 49.8314 818.935 397.821
2186 0 79.2085 11.6275 921 49.0358 818.891 395.945
2187 0 83.136 10.958 911 49.5016 818.817 392.3
2188 0 83.3365 11.1956 933 50 818.914 392.954
2189 1 124.368 11.466 1426 43.1178 818.655 396.64
2190 1 89.2923 11.2552 1005 49.1383 818.096 390.416
2191 1 45.0654 10.274 463 49.3305 818.7 411.171
2192 0 49.1128 9.9974 491 49.2729 819.697 410.23
2193 0 50.1086 10.7766 540 49.0907 819.206 409.852
2194 0 52.2108 10.3235 539 49.3544 818.861 409.427
2195 0 56.1362 10.528 591 49.1997 819.034 408.323
2196 0 55.1509 11.1512 615 48.9675 819.442 407.467
2197 0 60.1401 10.5753 636 48.9292 819.406 405.89
2198 0 59.1708 11.4583 678 48.5885 819.397 406.96
2199 0 60.2879 11.6275 701 48.2382 818.923 405.448
2200 0 64.083 10.9857 704 48.5369 818.686 405.692
2201 0 64.2328 11.7386 754 47.435 818.854 404.237
2202 0 66.1807 11.0153 729 47.8299 819.653 403.664
2203 0 69.282 11.8068 818 46.9156 819.009 401.991
2204 0 72.1416 11.7131 845 46.7006 818.812 401.71
2205 0 73.1684 11.5624 846 46.7754 819.184 399.942
2206 0 75.1804 12.0244 904 46.5973 818.569 398.812
2207 0 78.2778 11.9063 932 46.6674 818.785 397.552
2208 0 83.2807 11.6594 971 45.9959 818.642 396.477
2209 0 85.2392 11.9546 1019 46.1904 817.849 396.28
2210 0 87.1392 11.7284 1022 46.635 818.315 393.979
2211 0 88.1833 11.6916 1031 46.8041 818.863 391.987
2212 0 94.1344 12.0572 1135 46.0767 817.835 390.883
2213 0 96.2129 11.8071 1136 46.4507 817.791 389.342
2214 0 98.3363 11.542 1135 46.8987 817.566 386.541
2215 0 104.375 11.1138 1160 47.3879 817.661 385.112
2216 0 107.316 11.359 1219 47.1444 817.985 385.281
2217 1 54.1297 11.1214 602 48.3588 818.144 407.304
2218 0 59.1848 10.3912 615 48.6748 818.642 406.246
2219 0 61.119 11.044 675 47.5037 818.261 406.655
2220 0 63.1095 10.5372 665 47.9865 818.373 404.974
2221 0 65.1257 11.639 758 46.4446 818.677 403.619
2222 0 66.153 11.2013 741 47.3563 818.521 402.004
2223 0 72.2754 10.3216 746 47.1046 817.857 401.55
2224 0 71.3058 11.7242 836 45.6734 817.988 401.025
2225 0 72.1437 11.6434 840 45.856 817.208 397.987
2226 0 77.2085 11.2811 871 45.2664 817.098 397.889
2227 0 77.2454 12.1561 939 44.7668 816.971 396.507
2228 0 80.0758 10.8522 869 45.8596 817.795 394.682
2229 0 86.1956 11.5899 999 44.5946 817.582 393.792
2230 0 85.1765 11.1416 949 45.4552 817.973 393.749
2231 0 87.2495 11.5416 1007 45.1827 818.107 392.566
2232 0 91.1657 11.9892 1093 44.5508 817.876 391.772
2233 0 96.2326 12.449 1198 43.7905 817.477 390.134
2234 0 100.18 11.4793 1150 44.787 817.201 387.954
2235 0 105.313 11.9739 1261 44.1832 817.99 387.903
2236 1 56.118 10.8343 608 46.4753 817.903 407.836
2237 0 56.2256 11.276 634 46.0946 817.838 406.415
2238 0 59.1523 11.5296 682 45.3006 817.433 406.034
2239 0 62.0761 11.3893 707 44.9915 817.552 404.132
2240 0 62.1421 11.5863 720 45.0708 817.542 403.682
2241 1 90.4368 11.8536 1072 38.9412 817.405 405.399
2242 1 67.1495 11.6457 782 44.6854 817.821 400.921
2243 0 70.1592 12.6569 888 43.1318 817.709 401.908
2244 0 70.1039 11.1691 783 44.613 817.959 398.398
2245 0 75.258 11.9057 896 43.1741 817.809 399.373
2246 0 78.2548 11.8587 928 43.111 817.936 396.675
2247 0 79.2363 12.1914 966 42.7422 818.148 395.192
2248 0 81.1749 12.2328 993 42.6777 817.602 393.244
2249 0 84.3769 11.3775 960 43.7167 818.599 392.266
2250 0 87.2154 11.6952 1020 43.2392 818.807 390.795
2251 0 92.305 11.9278 1101 42.7448 818.702 389.728
2252 0 96.3225 11.9806 1154 42.5407 818.861 388.742
2253 1 48.1889 10.3343 498 43.0201 818.442 412.476
2254 0 47.1582 10.751 507 43.3846 818.988 411.637
2255 0 51.1535 11.1038 568 42.6479 819.012 410.148
2256 0 53.1532 11.0247 586 42.8942 818.768 408.072
2257 0 54.3275 10.5656 574 43.4739 818.409 407.789
2258 0 56.0959 10.9455 614 43.101 818.013 406.723
2259 0 57.2326 10.8505 621 43.4525 819.071 406.177
2260 0 58.2162 11.2855 657 43.1537 818.323 404.88
2261 0 65.1974 10.2918 671 43.6796 818.559 402.65
2262 0 65.2395 11.4195 745 42.6228 818.408 402.221
2263 0 66.1887 12.1169 802 42.5212 818.541 402.019
2264 0 63.087 10.6361 671 44.9478 819.3 398.23
2265 0 65.1002 11.8433 771 44.1673 818.931 398.099
2266 0 69.1658 11.8411 819 43.6752 819.248 399.354
2267 0 72.2297 12.6402 913 42.7996 818.994 397.591
2268 0 78.1991 11.8544 927 43.233 819.108 395.342
2269 0 81.1856 12.6993 1031 42.4384 818.649 394.819
2270 0 79.0807 12.051 953 44.1763 818.458 393.587
2271 0 82.2924 12.3098 1013 44.229 819.405 392.639
2272 0 84.3423 12.1292 1023 44.956 819.37 390.784
2273 0 88.2773 12.9139 1140 44.1623 819.04 390.195
2274 0 89.2225 11.8132 1054 46.1907 818.343 386.856
2275 0 93.2827 12.3067 1148 45.6516 818.726 387.055
2276 1 51.0353 10.4046 531 46.2768 819.053 408.119
2277 0 51.0504 11.2242 573 45.6562 818.546 405.979
2278 0 54.0893 10.2793 556 46.5683 818.613 405.228
2279 0 55.1066 10.5251 580 46.4293 818.929 404.705
2280 0 56.0801 11.0378 619 46.1099 819.092 405.074
2281 0 58.0897 11.5167 669 45.4589 818.942 404.519
2282 0 61.187 11.7182 717 44.9135 819.279 404.092
2283 0 62.1399 10.4764 651 46.5438 818.96 400.28
2284 0 63.1075 11.4408 722 45.6801 819.974 400.579
2285 0 69.17 11.8693 821 44.0804 818.724 401.509
2286 0 66.0927 11.7108 774 45.376 818.788 399.247
2287 0 70.1899 12.2382 859 44.837 819.305 398.289
2288 0 70.1012 12.054 845 45.7112 819.876 397.559
2289 0 74.1218 11.7239 869 45.7261 819.718 396.192
2290 0 79.196 11.6799 925 45.3903 818.89 394.44
2291 0 78.0962 11.2938 882 46.8175 818.427 391.76
2292 0 80.1334 11.4809 920 46.7652 819.556 391.167
2293 0 83.0905 11.3611 944 47.0434 819.791 389.624
2294 1 43.0572 9.70801 418 46.4856 820.632 412.17
2295 0 47.1107 9.74301 459 46.3943 821.166 410.939
2296 0 47.128 10.673 503 46.3916 820.328 410.276
2297 0 47.0889 10.5333 496 46.7661 819.071 410.308
2298 0 50.205 10.1185 508 47.2106 818.821 409.004
2299 0 51.1791 10.1409 519 47.8516 818.208 406.422
2300 0 50.0991 10.1998 511 48.5049 818.738 405.526
2301 0 53.2102 11.5767 616 46.6591 819.336 406.721
2302 1 81.1047 10.3693 841 41.9905 819.466 409.257
2303 1 56.1928 10.464 588 48.3758 818.702 404.655
2304 0 57.1848 10.8945 623 47.862 818.697 404.164
2305 0 61.1768 10.9519 670 46.7478 818.436 403.184
2306 0 60.2519 10.8876 656 46.9832 818.09 402.367
2307 0 65.1482 10.5452 687 46.8981 819.013 400.387
2308 0 69.2565 11.5079 797 45.2233 818.523 400.696
2309 0 68.1571 11.5028 784 46.125 818.564 400.074
2310 0 71.1272 11.4302 813 45.7847 818.796 399.544
2311 0 71.2086 11.5155 820 46.0159 819.772 398.088
2312 0 72.4623 11.2472 815 46.2601 819.677 397.874
2313 0 75.1703 11.454 861 45.9675 819.81 397.394
2314 0 77.3323 11.4441 885 46 819.707 395.003
2315 0 79.1455 11.1819 885 46.8701 819.344 393.056
2316 0 84.2771 11.569 975 46.0185 819.081 391.797
2317 0 83.1293 11.4039 948 47.2732 819.405 391.808
2318 1 46.0614 9.03142 416 48.8029 819.426 410.221
2319 0 45.2215 10.6808 483 47.1677 819.406 410.714
2320 0 49.1298 10.4824 515 47.1534 819.685 409.235
2321 0 47.2931 9.24026 437 50.2197 818.339 408.918
2322 0 51.1765 10.1414 519 48.5356 818.726 408.308
2323 0 54.1895 10.0573 545 48.044 818.446 408.279
2324 0 56.1675 10.8426 609 47.0115 818.795 407.067
2325 0 56.1292 10.9925 617 47.1864 818.697 405.99
2326 0 59.1975 11.0309 653 46.9602 819.041 404.021
2327 0 62.1832 10.4047 647 47.1546 818.805 402.488
2328 0 61.195 10.1152 619 48.1422 817.922 402.178
2329 0 65.15 10.3761 676 47.4053 818.24 400.66
2330 0 68.2359 10.6103 724 46.4365 818.348 400.155
2331 0 69.2005 11.3149 783 45.9974 818.725 401.176
2332 0 69.2093 11.1979 775 46.3071 818.777 399.041
2333 0 74.2242 11.5461 857 44.8448 818.488 397.401
2334 1 36.13 8.69083 314 46.9713 818.774 414.217
2335 0 34.2092 10.4066 356 46.2528 818.902 413.882
2336 0 35.13 9.53601 335 47.7104 818.821 411.967
2337 0 37.1191 10.6414 395 45.8127 819.182 413.03
2338 0 42.1963 10.4749 442 44.1742 818.267 411.656
2339 0 42.1891 10.287 434 44.8756 818.106 411.327
2340 0 43.151 10.6834 461 44.2495 818.87 410.829
2341 0 42.2363 10.607 448 45.3036 818.824 409.136
2342 0 44.1968 10.408 460 45.4543 819.494 409.061
2343 0 45.1507 10.0331 453 45.8102 819 409.221
2344 0 48.1435 11.0503 532 44.0075 819.511 409.447
2345 0 50.1821 11.1793 561 43.9465 819.348 408.538
2346 0 51.188 11.2722 577 44.6049 819.48 407.05
2347 0 53.1506 10.6114 564 45.0089 819.58 405.709
2348 0 54.1662 11.1324 603 44.99 819.736 405.862
2349 0 56.134 10.8668 610 45.2033 819.569 404.531
2350 0 58.1639 10.8487 631 45.3978 818.715 404.146
2351 0 59.2353 11.9692 709 44.0268 819.024 403.852
2352 0 59.0772 11.3411 670 45.2209 818.679 402.26
2353 0 62.1098 11.6407 723 44.5643 819.53 401.492
2354 0 63.1734 11.5555 730 45.1712 818.652 399.849
2355 0 65.2006 11.595 756 45.2857 818.787 399.495
2356 0 67.1912 11.7873 792 44.7828 819.021 399.003
2357 0 69.1395 12.1638 841 44.3008 818.956 398.552
2358 0 71.225 11.4145 813 45.4809 819.148 396.969
2359 0 71.1786 11.0426 786 46.3486 818.644 396.455
2360 0 76.0991 12.2209 930 44.9312 818.831 394.982
2361 0 76.1771 11.0138 839 46.5149 819.352 390.57
2362 1 41.2899 9.59073 396 47.4672 818.942 410.657
2363 0 44.1576 10.3493 457 46.1269 819.287 412.098
2364 0 42.1373 10.6794 450 47.7311 819.018 410.073
2365 0 44.1861 11.1573 493 47.2941 819.075 410.245
2366 0 49.1387 10.1346 498 48.0482 819.054 409.02
2367 0 48.1312 10.5753 509 47.8998 818.613 408.464
2368 0 45.0827 10.2035 460 49.2935 818.95 405.957
2369 0 49.0856 11.1642 548 47.312 819.009 406.721
2370 0 55.0606 11.2966 622 46.2556 818.494 405.786
2371 0 52.0864 11.4041 594 47.1431 818.65 404.582
2372 0 54.1351 11.4713 621 47.2319 818.441 403.683
2373 0 57.0634 11.6011 662 46.565 818.56 403.677
2374 0 61.1397 11.8581 725 45.6979 818.652 405.337
2375 1 84.3515 11.867 1001 40.3906 819.818 407.931
2376 1 64.0511 12.5681 805 45.3217 819.345 402.675
2377 0 64.0951 11.3581 728 47.2706 819.375 399.051
2378 0 71.0387 12.458 885 44.5299 818.307 402.643
2379 0 67.06 12.2428 821 46.2034 818.541 401.311
2380 0 73.0987 12.3258 901 45.3696 819.681 398.639
2381 0 74.0773 12.0415 892 45.8374 818.746 397.53
2382 0 74.1848 12.0106 891 46.2379 818.388 395.136
2383 1 40.0525 9.46257 379 46.8311 818.638 415.145
2384 0 42.0872 10.0981 425 45.88 818.419 413.911
2385 0 41.0528 10.6205 436 46.1422 818.484 412.452
2386 0 43.049 10.6855 460 45.8913 819.15 412.841
2387 0 43.1134 10.9943 474 45.6688 819.19 411.553
2388 0 46.0492 11.0968 511 45.229 817.992 409.008
2389 0 46.0887 11.0656 510 45.2922 818.151 411.439
2390 0 48.0528 10.9463 526 45.1521 817.538 410.614
2391 0 51.0856 10.5901 541 45.3771 818.414 409.091
2392 0 52.0489 11.4124 594 44.8636 818.628 409.636
2393 0 54.1228 11.2152 607 44.6211 818.089 409.181
2394 0 52.1948 11.9744 625 44.16 817.574 408.445
2395 0 53.1733 11.6788 621 44.8873 818.129 407.58
2396 0 58.0877 12.0163 698 43.4398 817.953 407.046
2397 0 56.029 11.1014 622 45.6479 817.997 405.701
2398 0 58.0925 11.3784 661 45.1694 818.248 403.644
2399 0 58.1088 11.4785 667 45.6597 817.583 404.052
2400 0 59.1014 11.7087 692 45.6879 817.863 403.834
2401 0 63.1186 11.5497 729 45.251 818.501 403.993
2402 0 63.1206 11.2641 711 45.9451 818.034 400.058
2403 0 65.1085 11.4271 744 45.8669 818.226 399.21
2404 0 68.0461 11.2718 767 45.854 817.947 399.896
2405 0 70.1507 12.1025 849 45.1673 818.651 398.544
2406 1 108.485 12.0754 1310 38.4893 819.314 408.089
2407 1 76.0426 11.9538 909 46.3322 819.381 398.095
2408 0 78.1998 12.954 1013 45.3228 818.654 397.17
2409 0 81.0941 12.5287 1016 46.1516 818.503 397.218
2410 0 82.1365 12.2844 1009 47.8989 818.66 394.144
2411 0 83.2147 12.7622 1062 48.1544 818.662 392.928
2412 0 88.1217 12.653 1115 48.339 817.949 391.966
2413 0 87.0845 12.2754 1069 50.3209 817.941 391.341
2414 1 7 2.14286 15 14 813.067 451.733
2415 1 0 0 0 -nan -nan -nan
2416 1 8.01932 6.23494 50 13.42 814.66 454.96
2417 1 49.0377 9.74761 478 53.5335 818.249 407.033
2418 0 51.1198 10.8764 556 51.3813 818.261 410.556
2419 0 53.0228 10.5615 560 53.0286 818.725 409.196
2420 0 52.0331 10.993 572 53.2255 819.224 406.815
2421 0 53.0326 10.2955 546 54.3462 818.604 405.106
2422 0 58.0748 10.3487 601 53.3045 818.193 406.116
2423 0 57.1232 11.2389 642 52.4751 818.59 404.168
2424 0 57.0601 11.2513 642 53.0436 818.715 403.903
2425 0 63.0605 11.2432 709 51.5599 818.597 403.791
2426 0 62.0454 9.60587 596 54.5889 818.314 399.263
2427 0 68.1213 11.9052 811 50.6104 818.243 402.457
2428 0 64.1627 10.0058 642 54.5763 817.285 398.369
2429 0 66.1191 9.0594 599 55.6277 817.608 396.147
2430 0 74.1184 11.657 864 50.5799 817.465 400.565
2431 0 77.1517 11.8338 913 50.0438 817.398 396.678
2432 0 76.0757 11.3571 864 51.4734 817.493 393.778
2433 1 41.0823 9.68786 398 50.9372 817.55 412.415
2434 0 42.1045 10.2364 431 50.7123 817.364 411.812
2435 0 46.0861 10.5238 485 49.4082 818.975 413.627
2436 0 47.1136 10.6339 501 49.479 817.657 411.463
2437 0 53.085 10.5303 559 48.4741 817.669 408.447
2438 0 54.0867 10.5941 573 48.3159 817.602 409.768
2439 0 53.1244 10.8425 576 48.5365 817.78 408.026
2440 0 50.1496 11.4059 572 48.9353 817.881 408.112
2441 0 52.063 11.2172 584 49.2997 817.128 406.382
2442 0 56.1265 11.4741 644 48.3711 816.845 405.734
2443 0 57.1376 11.5861 662 48.3474 816.961 405.112
2444 0 54.0986 10.5918 573 50.6684 818.082 402.349
2445 0 59.1563 11.4781 679 48.8616 818.629 402.891
2446 0 60.0813 11.6342 699 49.1116 818.286 403.212
2447 0 65.2124 11.3935 743 48.4603 818.012 403.859
2448 0 67.1338 11.3505 762 48.4134 816.692 402.818
2449 0 67.2897 12.0226 809 48.2942 817.439 400.817
2450 1 90.1521 11.891 1072 43.4412 817.65 405.476
2451 1 71.1371 11.6817 831 49.0999 817.623 398.385
2452 0 74.1277 11.5341 855 49.4725 817.567 397.933
2453 0 74.1532 12.0426 893 49.3192 817.411 397.618
2454 0 77.2782 11.6851 903 50.0122 817.963 395.728
2455 0 79.1064 11.7563 930 49.9129 817.225 394.715
2456 0 82.1637 11.4041 937 50.6051 817.23 393.569
2457 0 85.3769 11.256 961 50.6212 817.366 391.223
2458 0 89.1485 12.1819 1086 49.3923 817.064 390.738
2459 0 90.3075 11.937 1078 50.2412 817.084 388.622
2460 0 93.2947 11.4047 1064 50.7462 816.82 387.55
2461 1 49.2185 11.0324 543 48.4862 817.308 409.974
2462 0 51.1098 10.3894 531 48.9699 817.857 410.633
2463 0 49.2188 11.3371 558 48.9211 817.677 411.858
2464 0 52.1492 11.1219 580 48.6293 817.29 406.812
2465 0 53.2479 10.7234 571 49.9212 817.567 407.711
2466 0 54.1408 10.8975 590 50.1407 817.592 407.42
2467 0 55.1579 10.1527 560 50.9464 816.966 404.68
2468 0 59.1861 11.5737 685 48.1314 817.06 407.933
2469 0 59.1714 10.2921 609 49.9967 816.846 404.263
2470 0 60.2422 10.7898 650 49.2123 817.006 405.403
2471 0 63.1211 12.0087 758 47.0317 817.558 405.757
2472 0 66.1743 11.5453 764 46.8377 817.374 404.012
2473 0 66.1875 11.1955 741 47.4116 817.466 401.649
2474 0 69.2439 11.5967 803 46.6239 817.461 401.431
2475 0 71.2266 11.0492 787 46.8043 816.229 400.671
2476 0 73.2184 11.0765 811 47.1566 815.999 398.01
2477 0 76.2368 11.5823 883 46.299 816.127 398.429
2478 1 42.1469 9.98887 421 46.4347 817.157 412.834
2479 0 45.14 9.61453 434 45.9332 816.357 412.751
2480 0 46.1266 9.90751 457 46.4442 815.902 411.293
2481 0 46.17 10.2447 473 47.4038 816.402 411.465
2482 1 76.3122 9.06802 692 42.0968 816.517 412.275
2483 0 90.3928 7.98736 722 41.9778 816.751 413.687
2484 1 50.1018 11.4567 574 46.7822 816.545 408.908
2485 0 52.2047 10.9185 570 47.4386 816.296 407.758
2486 0 53.0701 11.4942 610 46.777 816.231 407.654
2487 0 55.1963 11.4863 634 46.9085 816.568 405.879
2488 0 55.1601 11.657 643 46.7403 816.411 404.896
2489 0 59.1154 10.7586 636 47.7642 817.681 403.73
2490 0 59.2224 12.1069 717 46.6081 816.979 402.006
2491 0 63.2507 11.905 753 46.4303 816.906 404.39
2492 0 62.1439 11.4734 713 47.8555 817.1 401.757
2493 0 63.1068 11.4409 722 48 816.808 401.344
2494 0 69.1823 12.1707 842 46.2221 816.879 401.745
2495 0 68.2406 12.2068 833 46.491 816.634 399.37
2496 0 71.072 11.6079 825 46.7939 816.408 400.731
2497 0 71.1263 10.8258 770 47.9247 816.943 397.531
2498 0 75.1099 11.7295 881 46.4404 817.615 398.339
2499 0 77.1518 12.2227 943 45.369 816.724 397.175
2500 0 82.0853 11.6221 954 45.5566 816.652 395.242
2501 0 81.1364 11.6717 947 45.5396 816.704 391.608
2502 1 43.1361 9.92208 428 46.5327 816.82 411.472
2503 0 48.1057 10.9343 526 44.9601 816.724 410.724
2504 0 45.1183 10.8382 489 46.454 817.002 409.521
2505 0 47.1527 11.5158 543 46.1087 817.017 408.519
2506 0 48.076 11.981 576 45.8281 816.446 409.432
2507 0 49.1109 11.4842 564 46.7376 816.222 407.027
2508 0 52.1076 11.7066 610 46.2033 816.734 407.252
2509 1 85.2201 9.83336 838 41.6014 816.544 410.866
2510 1 57.1323 11.2196 641 46.078 816.488 405.312
2511 0 57.1159 11.6955 668 45.7784 816.876 405.121
2512 0 59.0922 11.6767 690 45.6522 816.164 402.096
2513 0 62.0561 11.2318 697 46.0158 817.182 400.809
2514 0 62.1675 11.9838 745 45.0564 816.558 402.332
2515 0 66.1998 11.4502 758 45.4077 816.975 401.266
2516 0 69.1871 11.7363 812 44.5542 817.041 399.89
2517 0 68.1532 12.0757 823 44.6391 816.422 399.041
2518 0 69.1214 11.9645 827 44.942 816.81 396.484
2519 0 72.2682 11.2498 813 45.5904 817.194 394.761
2520 0 74.3428 11.8774 883 44.6195 816.677 394.989
2521 1 100.131 13.1428 1316 39.0593 816.66 398.361
2522 1 81.1355 12.7195 1032 43.2093 816.678 393.554
2523 0 82.2664 11.244 925 44.9892 816.768 391.563
2524 0 86.313 12.5126 1080 43.8676 815.983 391.693
2525 1 41.1954 11.0935 457 45.4289 815.937 410.764
2526 0 45.1234 11.1694 504 45.0397 815.611 409.766
2527 0 47.1677 11.1093 524 45.0611 816.34 409.059
2528 0 47.0634 11.2189 528 45.661 816.432 408.1
2529 0 50.091 10.8403 543 45.7864 816.057 407.694
2530 0 52.2787 11.4196 597 44.8459 815.807 407.454
2531 1 111.166 6.97158 775 39.2168 818.366 418.246
2532 0 109.182 12.1906 1331 44.8174 816.404 381.317
2533 0 107.215 12.2184 1310 44.571 816.189 378.903
2534 1 144.824 12.3667 1791 39.9564 816.731 387.422
2535 1 57.1208 12.2372 699 45.0114 817.658 402.946
2536 0 61.1997 11.6667 714 45.3403 817.036 400.674
2537 0 62.0326 12.0098 745 45.4309 816.842 401.117
2538 0 66.2406 11.8356 784 45.3227 816.543 399.267
2539 0 67.1725 11.8501 796 45.7789 816.986 397.663
2540 0 69.17 11.132 770 46.7377 817.662 395.295
2541 0 71.135 12.1178 862 45.4849 817.078 396.898
2542 1 92.5447 12.3076 1139 41.1449 816.834 401.349
2543 1 77.2084 12.3173 951 44.9096 816.078 394.022
2544 0 77.0909 12.2064 941 45.6504 816.24 392.878
2545 0 82.2279 12.5991 1036 45.0676 816.593 391.478
2546 0 83.0563 12.1725 1011 46.0158 817.242 391.287
2547 0 87.105 12.594 1097 45.6536 816.783 389.572
2548 0 92.1888 12.1598 1121 45.983 816.661 389.503
2549 1 50.061 11.1664 559 47.5027 816.937 409.44
2550 0 53.0946 11.6961 621 47.0145 817.14 406.401
2551 0 54.0992 12.1074 655 46.8733 816.313 405.58
2552 0 56.1612 11.2711 633 47.9178 817.027 405.91
2553 0 57.1765 11.893 680 47.5529 817.087 405.238
2554 0 58.1699 12.1712 708 47.5311 816.972 402.823
2555 0 59.0706 12.3919 732 47.7541 817.082 400.262
2556 0 62.0451 12.1525 754 47.557 817.537 400.001
2557 0 62.1698 12.2085 759 48.0329 817.397 399.879
2558 0 64.1748 12.1699 781 47.9821 817.387 400.282
2559 0 66.06 12.4281 821 47.6529 816.705 397.283
2560 0 70.1054 12.2244 857 47.8401 816.604 399.187
2561 1 9.19546 16.3124 150 13.18 814.493 448.9
2562 0 0 0 0 -nan -nan -nan
2563 0 0 0 0 -nan -nan -nan
2564 0 0 0 0 -nan -nan -nan
2565 1 35.9809 12.8123 461 12.5098 812.662 461.844
2566 1 84.0994 11.962 1006 47.5646 816.457 389.245
2567 0 87.1653 11.8625 1034 47.7727 816.74 388.602
2568 0 91.302 11.566 1056 47.7481 816.621 384.944
2569 1 49.0809 10.6559 523 47.8642 816.929 407.17
2570 0 51.0582 10.6741 545 47.7651 816.525 405.143
2571 0 51.1519 11.2215 574 47.6812 817.054 404.993
2572 0 54.1008 10.9425 592 47.9747 817.635 403.936
2573 0 53.0547 11.4033 605 48.2876 817.026 402.564
2574 0 56.1233 10.6551 598 48.6622 816.982 403.122
2575 1 33.1187 10.9304 362 12.4061 815.674 459.05
2576 0 0 0 0 -nan -nan -nan
2577 1 14.6825 8.92217 131 13.1679 813.511 451.458
2578 1 65.1818 11.4756 748 47.6136 817.203 400.676
2579 0 68.1077 10.8798 741 47.8745 817.009 397.538
2580 0 67.1329 11.1719 750 48.008 817.297 397.921
2581 0 69.1435 11.6569 806 47.3002 816.557 395.766
2582 0 71.1526 11.5105 819 47.4896 816.628 394.523
2583 0 73.191 12.2146 894 46.8937 816.027 393.367
2584 0 78.2418 12.1035 947 46.4752 817.058 392.081
2585 0 77.1955 11.011 850 48.6612 816.829 391.568
2586 0 82.1524 11.9899 985 46.9807 815.766 389.357
2587 0 83.1441 12.6888 1055 46.5801 816.477 388.572
2588 0 87.1177 12.5462 1093 46.9689 816.156 387.78
2589 0 90.114 12.3954 1117 47.4324 816.068 386.191
2590 0 94.2426 12.9665 1222 47.0311 816.408 384.137
2591 0 95.1685 12.5777 1197 47.7569 816.589 382.413
2592 0 100.273 12.097 1213 48.0923 816.461 380.414
2593 0 104.244 12.2022 1272 48.2099 817.082 378.378
2594 0 105.098 12.4264 1306 48.5697 817.283 376.802
2595 0 110.316 12.6455 1395 48.1211 817.107 374.586
2596 0 114.252 12.4637 1424 48.316 817.195 372.597
2597 0 119.126 12.6673 1509 48.1696 817.889 371.9
2598 0 121.114 11.8897 1440 49.1424 818.429 368.588
2599 1 105.185 9.5831 1008 42.9206 817.47 403.505
2600 1 66.0743 11.7443 776 47.8582 817.25 397.102
2601 0 67.089 11.5965 778 48.2635 817.261 395.179
2602 0 67.1215 12.3656 830 47.9458 816.547 394.926
2603 0 72.092 12.2066 880 47.3398 817.261 394.12
2604 0 71.1684 11.6765 831 48.7906 816.799 392.726
2605 0 75.097 12.7302 956 47.2364 816.902 392.219
2606 0 76.0917 11.7621 895 48.562 816.972 390.473
2607 0 80.0521 12.292 984 47.9848 817.29 389.878
2608 1 135.756 9.50234 1290 42.8419 815.716 396.895
2609 1 46.1378 10.3169 476 48.3887 817.086 406.532
2610 0 48.0697 10.2143 491 48.1731 817.079 407.22
2611 0 47.0744 9.96295 469 49.3753 817.676 407.467
2612 0 46.18 11.0654 511 48.8513 817.978 407.994
2613 0 48.048 11.0931 533 48.6529 817.456 404.831
2614 0 54.1112 11.1437 603 47.8789 817.657 406.702
2615 0 51.0586 11.1636 570 48.9351 817.642 404.509
2616 0 52.119 10.1498 529 50.3081 817.716 401.492
2617 0 52.1138 10.5346 549 50.2222 817.382 402.118
2618 0 55.0459 11.2815 621 49.0789 817.51 402.977
2619 0 58.0659 11.8486 688 48.0349 817.302 402.241
2620 0 60.1024 11.9463 718 48.1602 817.355 401.692
2621 0 56.0476 10.5446 591 50.7174 816.629 397.775
2622 0 59.0565 10.9556 647 49.8825 817.08 399.542
2623 0 62.0597 12.1657 755 48.5589 817.307 397.685
2624 0 65.1202 11.9318 777 48.6075 818.21 398.144
2625 0 71.1034 11.6872 831 47.8508 817.594 396.981
2626 0 70.1381 12.3471 866 47.4758 817.125 395.484
2627 0 72.2259 12.2532 885 47.826 817.838 394.736
2628 0 75.1054 11.9033 894 48.2629 817.227 392.105
2629 0 77.0957 11.7905 909 48.4918 817.433 392.776
2630 0 81.7408 22.9506 1876 36.613 816.126 381.658
2631 1 111.234 12.0827 1344 43.25 817.066 395.286
2632 1 85.1707 11.882 1012 48.9605 817.081 389.456
2633 0 87.1459 12.0947 1054 48.8245 817.108 387.229
2634 1 44.0677 10.4158 459 49.6841 817.593 408.895
2635 0 50.1062 11.0565 554 48.0884 817.444 408.708
2636 0 50.0662 10.7058 536 48.8284 816.966 408.293
2637 0 50.0815 11.3415 568 48.7412 817.298 408.07
2638 0 53.089 10.7744 572 49.1381 816.504 405.292
2639 0 56.102 11.3365 636 47.7327 816.396 405.829
2640 0 56.0919 11.1424 625 48.6144 816.309 405.09
2641 1 86.6372 10.3881 900 42.4322 815.682 409.886
2642 1 59.0779 11.5949 685 48.1168 815.518 403.38
2643 0 60.0968 11.9308 717 47.5481 815.911 402.28
2644 0 63.055 11.371 717 48.2901 815.297 401.774
2645 0 66.0378 11.6751 771 47.7951 815.821 403.054
2646 0 68.1138 11.7597 801 47.6692 815.813 399.851
2647 0 67.0975 11.5354 774 48.5711 815.673 399.18
2648 0 69.0968 11.6937 808 48.2599 815.087 397.793
2649 0 71.1109 11.9672 851 47.8731 815.457 396.703
2650 0 74.128 11.5611 857 48.3442 815.083 393.317
2651 0 76.06 11.6224 884 48.4581 815.636 394.707
2652 0 80.0715 11.727 939 47.8978 816.112 393.621
2653 0 82.1394 12.1866 1001 47.6973 815.446 390.694
2654 1 45.0196 10.5288 474 48.635 815.272 410.308
2655 0 45.0519 11.2093 505 48.699 815.606 409.778
2656 0 49.0863 10.3899 510 48.9078 815.827 408.069
2657 0 48.0532 11.6329 559 48.0286 816.361 408.691
2658 0 50.1287 11.7298 588 47.7687 815.645 406.299
2659 0 51.1046 11.9167 609 47.6453 815.826 405.895
2660 0 56.1324 11.17 627 47.8198 816.512 405.18
2661 0 55.0526 11.5526 636 48.1808 816.489 403.553
2662 0 56.0459 12.1329 680 47.4221 816.81 404.112
2663 0 57.1512 11.4958 657 48.5282 816.998 403.813
2664 0 62.1326 11.3467 705 47.8383 816.326 399.718
2665 0 60.0844 11.9831 720 47.9111 816.132 400.746
2666 0 66.0706 12.2747 811 46.5734 816.332 402.603
2667 0 68.2174 12.123 827 47.0073 817.177 400.834
2668 0 70.0922 11.3993 799 47.8385 816.216 396.213
2669 0 71.1272 11.6833 831 47.8075 816.673 398.45
2670 0 72.1814 11.4434 826 48.293 816.499 397.045
2671 0 78.1836 11.9207 932 47.6009 817.349 394.815
2672 0 78.1801 11.9468 934 48.167 817.324 394.842
2673 0 81.1097 11.9098 966 48.5093 817.53 392.649
2674 0 80.1195 12.1444 973 49.0432 817.094 390.535
2675 0 89.1121 12.4562 1110 47.4207 817.069 390.25
2676 0 87.2023 12.4194 1083 48.1985 816.405 387.4
2677 0 92.19 12.0946 1115 48.9462 817.123 386.873
2678 1 49.1031 10.6103 521 49.4395 817.779 408.319
2679 0 49.0419 10.6032 520 50.8615 817.925 407.652
2680 0 52.1158 10.9756 572 49.9091 818 406.498
2681 0 50.1533 11.3053 567 50.522 818.055 405.76
2682 0 52.0583 11.9481 622 50.0659 817.714 404.868
2683 0 56.0271 11.6372 652 49.3666 817.495 405.133
2684 0 57.1148 11.7658 672 49.6473 818.036 403.408
2685 0 61.0761 11.6412 711 49.6906 817.534 402.539
2686 0 62.0966 11.4982 714 49.8712 817.971 400.99
2687 0 63.079 12.4923 788 48.7881 817.827 401.303
2688 0 64.1384 11.7714 755 49.5603 817.617 399.554
2689 0 65.0401 11.7927 767 50.2008 817.684 398.475
2690 0 67.0952 12.2811 824 49.6019 817.739 398.529
2691 0 70.0363 12.6791 888 49.4876 818.564 398.337
2692 0 74.1576 11.8936 882 49.9002 819.002 394.983
2693 0 75.0809 11.8139 887 50.0552 818.822 391.9
2694 0 77.0851 12.2592 945 49.4423 818.351 391.757
2695 0 81.1422 11.5353 936 49.9391 817.831 390.01
2696 0 82.1246 12.201 1002 49.5589 818.092 389.445
2697 0 88.1434 11.833 1043 49.7162 818.427 391.12
2698 1 49.1172 10.4648 514 49.6051 818.101 408.409
2699 0 49.0966 11.1209 546 50.0824 817.777 407.533
2700 0 48.0685 11.1091 534 51.0843 818.099 406.412
2701 0 52.0971 11.4018 594 50.0337 818.547 404.702
2702 0 55.2124 11.7184 647 49.1808 818.403 406.153
2703 0 56.1584 11.3785 639 50.0188 817.66 403.854
2704 0 56.1294 11.5804 650 50.1923 818.046 402.757
2705 0 59.0437 11.2459 664 50.3389 818.084 401.252
2706 0 59.2197 11.9724 709 49.8364 818.451 401.227
2707 0 64.0607 11.7857 755 52.5258 818.396 400.665
2708 0 64.1822 12.0127 771 52.1881 818.292 400.575
2709 0 66.088 12.1807 805 51.877 818.251 398.099
2710 0 70.0921 11.8416 830 51.7205 818.824 397.54
2711 0 71.1726 12.0833 860 51.2942 818.562 396.613
2712 0 77.0972 11.5179 888 50.8266 818.045 395.037
2713 0 77.0667 11.1981 863 51.5713 817.782 393.249
2714 0 80.1825 11.8979 954 50.6782 818.003 393.162
2715 0 82.1007 12.0096 986 50.2688 817.858 392.75
2716 1 43.1093 10.1138 436 50.6353 818.67 409.339
2717 0 46.1764 10.4166 481 50.1746 818.295 409.771
2718 0 46.0728 10.8307 499 50.4469 818.736 408.385
2719 0 48.0321 11.534 554 49.9278 818.455 408.106
2720 1 75.6747 9.91084 750 44.836 819.356 411.08
2721 1 50.1407 11.5874 581 50.5198 819.194 407.275
2722 0 54.0174 11.2556 608 50.3964 819.125 405.956
2723 0 56.1007 11.2655 632 50.5253 819.481 405.046
2724 0 59.1594 11.3591 672 50.3363 819.092 405.656
2725 0 58.0789 11.6738 678 51.3156 819.305 402.665
2726 0 62.1105 11.9465 742 49.1415 819.453 402.311
2727 0 63.1005 11.7115 739 49.9729 818.495 400.65
2728 0 65.1283 11.9149 776 49.7294 818.03 401.099
2729 0 66.0778 12.0767 798 49.812 818.38 399.762
2730 0 68.1788 11.8512 808 50.1597 819.458 397.719
2731 0 70.1068 12.21 856 49.6098 818.704 397.817
2732 0 69.1049 11.6056 802 50.6409 818.207 393.261
2733 0 72.0332 12.522 902 49.7605 817.588 393.555
2734 0 74.1759 11.6884 867 50.6021 818.209 391.775
2735 0 78.0771 12.9231 1009 49.2359 818.887 393.535
2736 0 80.1008 12.7714 1023 49.1056 818.359 389.041
2737 0 81.1156 12.2541 994 50.5302 818.592 388.349
2738 0 84.1022 12.4848 1050 50.1505 818.534 388.485
2739 1 43.0802 10.2367 441 50.6168 818.669 409.109
2740 0 45.0646 10.4073 469 50.7207 818.576 407.817
2741 0 47.0533 10.8813 512 50.3887 818.77 406.707
2742 0 47.092 11.3183 533 50.2552 818.405 406.585
2743 0 51.1216 11.0521 565 50.0478 818.873 406.641
2744 0 53.1154 10.7313 570 50.7614 818.484 406.395
2745 0 52.1828 12.3796 646 49.7802 819.294 407.015
2746 0 53.1313 11.2175 596 51.6158 819.082 404.812
2747 0 57.2257 10.9916 629 51.5326 819.345 404.436
2748 0 59.1845 11.4726 679 50.6097 819.261 403.417
2749 0 60.1715 12.2816 739 49.8241 818.479 404.322
2750 0 61.21 12.2366 749 49.9533 818.84 403.716
2751 0 61.1083 11.6842 714 50.8683 818.973 401.417
2752 0 67.0628 12.2274 820 49.0598 817.967 400.741
2753 0 66.12 11.7816 779 50.3967 818.393 398.797
2754 0 66.084 11.5459 763 50.768 818.134 398.083
2755 0 70.0745 12.3583 866 49.6062 817.888 397.022
2756 0 71.0584 11.8916 845 50.2308 818.316 395.68
2757 0 77.1047 11.6206 896 50.0625 818.137 396.977
2758 0 76.1419 12.2534 933 49.9303 819.117 394.951
2759 0 78.0737 11.7837 920 50.8489 818.835 393.298
2760 0 82.0666 12.2462 1005 50.0766 817.868 393.929
2761 0 84.1705 11.5955 976 51.3391 818.035 390.215
2762 1 68.1701 8.59614 586 47.7799 818.695 413.517
2763 1 42.0517 11.3907 479 51.9102 818.342 411.486
2764 0 45.062 11.9391 538 50.9721 818.035 410.284
2765 0 44.1324 11.7827 520 52.1077 818.285 410.627
2766 0 48.0672 11.6088 558 52.0986 818.333 408.952
2767 0 48.0242 11.9315 573 52.1396 818.431 407.852
2768 0 48.0371 11.9491 574 52.8362 818.74 408.073
2769 0 52.03 12.2045 635 51.7575 818.277 407.14
2770 0 54.0851 11.8702 642 52.0623 818.407 405.779
2771 0 57.11 11.2064 640 52.4859 817.927 404.791
2772 0 57.1502 12.4409 711 50.9325 817.858 404.855
2773 0 60.0565 11.6224 698 51.3438 817.781 404.991
2774 0 58.063 11.5908 673 52.312 818.257 402.309
2775 0 62.072 11.8894 738 51.1599 818.232 400.851
2776 0 64.1423 11.8331 759 51.0777 818.17 398.854
2777 0 69.0609 11.7577 812 50.085 817.797 399.635
2778 0 69.1034 12.1991 843 49.6738 817.612 399.821
2779 0 70.067 11.646 816 50.2157 817.695 398.716
2780 0 72.0976 12.0254 867 49.6586 818.234 397.701
2781 0 75.0869 12.2658 921 49.1878 818.029 397.608
2782 0 78.1149 12.3664 966 49.0828 818.074 396.77
2783 0 82.107 12.2036 1002 49.0958 818.156 394.891
2784 1 106.257 12.5262 1331 43.8655 818.404 400.385
2785 1 84.1001 11.9619 1006 50.0726 817.758 390.874
2786 0 88.0724 11.8766 1046 50.347 819.546 388.946
2787 0 89.1661 10.6094 946 52.3129 817.868 387.229
2788 0 94.1221 11.5488 1087 51.2824 818.597 386.488
2789 0 97.102 12.4096 1205 49.9485 818.991 387.051
2790 1 80.1647 10.3662 831 43.9663 819.53 413.394
2791 1 55.0738 11.2939 622 50.7781 818.17 408.132
2792 0 56.1135 12.0114 674 50.184 817.964 406.448
2793 0 58.1783 11.7054 681 50.4537 818.156 406.286
2794 0 59.1563 11.3428 671 50.7511 818.566 404.654
2795 1 95.6825 10.2318 979 44.6864 818.74 406.483
2796 1 64.0775 11.4861 736 49.894 817.717 401.495
2797 0 65.1488 12.1107 789 49.2142 816.842 402.165
2798 0 65.1226 11.9467 778 49.6941 817.708 400.508
2799 0 68.1458 11.9156 812 49.8916 818.275 399.876
2800 0 70.0606 11.4901 805 49.8012 817.903 397.935
2801 0 71.0679 12.0026 853 49.4256 817.821 396.169
2802 0 77.1295 12.304 949 48.2624 818.67 397.431
2803 0 78.1038 11.5615 903 49.2447 817.259 394.98
2804 0 80.1877 12.2463 982 48.22 817.482 394.821
2805 0 84.257 11.7023 986 48.9341 817.237 391.996
2806 0 87.1185 11.8345 1031 48.5432 816.936 390.282
2807 0 90.1894 11.5867 1045 48.8651 817.337 390.353
2808 1 121.782 10.9951 1339 44.5601 817.253 394.919
2809 1 52.1479 10.5853 552 48.125 817.431 410.518
2810 0 54.1567 10.7466 582 47.9038 817.545 409.528
2811 0 53.1167 11.2582 598 48.0987 817.416 407.992
2812 0 55.1381 11.6798 644 47.3665 817.456 408.335
2813 0 57.0855 11.5091 657 47.8052 817.53 406.782
2814 0 58.2116 11.3551 661 47.9531 817.516 405.298
2815 0 62.092 11.3219 703 47.643 817.524 404.044
2816 0 63.195 12.0579 762 46.7428 817.866 403.525
2817 0 64.1647 12.4056 796 46.6709 817.942 403.565
2818 0 64.1206 11.9774 768 47.612 817.604 402.029
2819 0 68.0854 11.324 771 47.9235 818.368 399.115
2820 0 71.1214 11.7686 837 47.1935 818.137 401.148
2821 0 72.0975 12.067 870 47.3069 817.985 398.941
2822 0 74.2577 11.7833 875 47.992 818.067 397.247
2823 0 77.1871 11.7118 904 48.0387 817.57 395.315
2824 0 78.1021 11.7538 918 48.3399 817.694 395.359
2825 0 85.1093 11.9493 1017 47.3166 817.2 393.455
2826 0 85.089 12.0462 1025 47.8634 817.214 392.348
2827 0 88.1523 12.2969 1084 47.8699 817.659 390.847
2828 0 91.2183 12.1467 1108 48.0695 817.792 389.451
2829 0 90.1529 11.3696 1025 49.6663 818.299 388.495
2830 0 82.0832 7.96753 654 45.3012 817.468 412.2
2831 1 48.1239 11.0132 530 49.6208 818.083 409.817
2832 0 51.1919 11.2127 574 49.0122 817.85 408.413
2833 0 53.0631 10.7231 569 49.9121 818.731 408.142
2834 0 56.1155 11.405 640 48.8812 817.947 407.708
2835 0 54.0996 11.2755 610 50.0131 817.808 406.585
2836 0 59.1882 11.6239 688 48.6221 818.452 406.388
2837 0 64.2053 11.4321 734 48.1921 818.554 405.718
2838 0 62.1271 11.0741 688 49.8256 819.288 404.436
2839 0 62.1994 12.1545 756 48.5952 818.303 403.737
2840 0 67.2104 11.9178 801 48.1698 818.032 401.898
2841 0 70.121 12.2075 856 47.4124 818.61 401.001
2842 0 68.1798 11.4697 782 49.1113 818.578 399.183
2843 0 73.3177 12.0708 885 47.7424 819.028 399.675
2844 0 75.0791 11.9474 897 47.8852 818.084 398.04
2845 0 78.1165 11.214 876 48.3938 817.634 396.34
2846 1 112.433 10.9932 1236 42.6335 818.081 403.743
2847 1 82.1227 12.2256 1004 47.4631 818.614 396.284
2848 0 82.1485 12.0148 987 48.1114 817.739 394.851
2849 0 84.0874 12.154 1022 48.7035 818.063 392.484
2850 1 48.0517 10.3846 499 49.5611 817.814 410.81
2851 0 46.0673 10.4412 481 50.4428 818.139 410.146
2852 0 52.2292 10.8369 566 48.8145 817.474 410.085
2853 0 50.1348 11.2696 565 49.4956 818.577 409.391
2854 0 55.1473 11.2789 622 48.4116 817.834 409.886
2855 0 52.13 10.9342 570 50.0351 818.7 407.579
2856 0 56.1426 11.542 648 48.8997 818.5 407.272
2857 0 57.1535 11.3379 648 48.9861 817.914 406.187
2858 0 60.0735 11.8022 709 47.9408 817.537 404.241
2859 0 61.0947 11.6868 714 48.1345 817.903 404.518
2860 0 67.0944 11.2379 754 47.7785 818.776 404.301
2861 0 64.2055 11.837 760 47.875 818.749 403.179
2862 0 65.0981 11.6747 760 48.1474 818.609 400.542
2863 0 67.1874 11.2521 756 48.4987 818.903 400.562
2864 0 73.1417 12.4826 913 46.1709 818.388 399.503
2865 0 74.0768 12.19 903 46.3887 818.496 398.564
2866 0 77.2874 12.24 946 46.5381 817.867 397.073
2867 0 79.1366 11.7771 932 47.4142 818.859 395.567
2868 0 83.0583 11.7387 975 47.441 818.649 395.78
2869 1 41.0371 9.94222 408 48.0858 818.444 415.314
2870 0 42.0835 10.0277 422 48.6825 818.37 412.111
2871 0 43.0078 10.812 465 48.1419 819.17 414.26
2872 1 73.0711 8.1975 599 44.6845 818.741 415.923
2873 1 45.1048 11.6174 524 47.813 818.698 412.687
2874 0 48.0704 10.7759 518 48.5348 818.458 410.129
2875 0 46.0388 10.7735 496 49.2722 817.901 409.423
2876 0 50.148 11.1869 561 48.5098 819.189 410.057
2877 0 51.0437 11.0298 563 48.5879 818.689 407.782
2878 0 53.0275 11.7486 623 48.1605 818.541 409.459
2879 0 56.0715 11.6637 654 48.3073 818.621 406.94
2880 0 55.0549 11.2252 618 49.5259 819.118 406.345
2881 0 60.1706 11.5006 692 48.5376 819.447 408.056
2882 0 62.184 12.3504 768 47.9336 819.142 405.283
2883 0 62.059 12.1497 754 48.3302 818.667 403.113
2884 0 65.0994 12.2735 799 47.9212 818.646 403.959
2885 0 66.0726 12.0928 799 48.7447 818.113 401.418
2886 0 69.1113 12.4871 863 48.1958 818.459 402.436
2887 0 71.0645 11.4544 814 49.113 818.178 399.634
2888 0 74.1337 12.383 918 47.671 817.868 399.515
2889 0 71.1128 12.2341 870 49.0103 818.372 397.555
2890 0 77.1504 11.2378 867 49.3472 818.484 396.143
2891 0 79.0693 11.5721 915 49.1497 818.635 394.463
2892 0 83.0726 11.5682 961 48.6441 818.365 393.608
2893 0 86.1038 11.7997 1016 48.4931 818.973 393.671
2894 0 88.0846 12.6583 1115 47.374 818.974 392.593
2895 0 90.0721 12.5011 1126 48.1794 818.614 392.185
2896 0 93.1832 12.2125 1138 48.1019 817.987 388.243
2897 0 96.1251 11.6619 1121 48.9054 818.182 388.152
2898 1 52.0922 11.2685 587 48.3339 818.533 411.392
2899 0 52.1434 11.6793 609 48.202 818.181 410.627
2900 0 52.0597 12.2552 638 47.9671 818.356 409.024
2901 0 54.0481 12.2114 660 47.8939 818.42 409.132
2902 0 53.0455 11.0848 588 49.9694 818.801 407.066
2903 0 59.0706 11.8502 700 48.2686 819.224 406.281
2904 0 57.126 11.2733 644 49.455 818.236 403.722
2905 0 64.1069 11.1532 715 48.0923 818.027 405.552
2906 0 66.0956 12.1945 806 46.773 817.845 404.521
2907 0 64.1164 12.2122 783 47.6386 818.605 400.533
2908 0 70.2079 12.4487 874 46.3009 819.108 403.517
2909 0 69.1422 12.4671 862 47.1438 819.522 401.345
2910 0 72.0767 12.5422 904 46.5719 818.602 400.6
2911 0 76.1263 13.2937 1012 45.5376 819.119 400.113
2912 0 78.1159 12.7375 995 46.3357 819.177 400.209
2913 0 78.0969 12.9967 1015 46.5232 818.064 396.357
2914 0 83.1375 11.6313 967 47.6732 817.789 394.475
2915 0 86.1884 12.8904 1111 46.1098 818.349 394.159
2916 0 87.0655 12.4159 1081 46.9445 818.85 392.236
2917 0 89.2012 13.0491 1164 46.4906 818.422 390.635
2918 0 94.1435 12.5553 1182 46.9069 818.858 390.794
2919 0 96.2198 12.6897 1221 46.8305 818.303 391.494
2920 0 101.084 13.1475 1329 45.9488 818.535 389.185
2921 0 102.2 12.7691 1305 46.9471 819.051 388.694
2922 0 105.182 12.5307 1318 47.6707 818.828 385.637
2923 0 111.243 12.603 1402 47.1377 818.648 381.668
2924 0 114.257 13.102 1497 46.475 818.642 382.108
2925 1 59.039 11.2976 667 47.982 818.679 406.568
2926 0 61.1972 11.0626 677 47.7386 818.777 406.087
2927 0 62.1446 11.7307 729 48.2442 818.55 405.313
2928 0 64.2374 11.6754 750 48.332 818.769 403.555
2929 0 66.0585 11.9591 790 48.3152 818.68 403.732
2930 0 67.1468 12.0631 810 47.7469 818.62 402.641
2931 0 67.1086 12.4127 833 48.1272 818.756 400.798
2932 0 70.1074 11.6393 816 48.299 818.799 399.027
2933 0 76.1247 11.849 902 47.5477 819.141 398.83
2934 0 75.1148 12.4077 932 47.0794 818.766 396.96
2935 0 80.2541 12.2237 981 46.2283 818.927 395.638
2936 0 82.1882 12.6904 1043 45.7373 818.566 394.409
2937 0 84.1551 12.477 1050 46.2295 818.205 393.474
2938 0 86.2082 12.725 1097 46.0428 818.848 392.54
2939 0 90.1759 12.8083 1155 46.1117 818.887 389.64
2940 0 95.2147 12.0149 1144 46.5621 818.095 388.493
2941 0 95.2068 12.7617 1215 45.9078 817.797 388.003
2942 0 101.192 11.7005 1184 46.7551 818.172 385.054
2943 1 135.383 12.6013 1706 40.84 818.168 392.2
2944 1 100.077 11.9507 1196 47.0393 819.043 383.252
2945 1 56.0838 11.5363 647 46.8609 819.368 405.315
2946 0 59.0906 11.3554 671 46.7377 819.055 405.322
2947 0 63.042 11.3258 714 46.3683 819.164 404.153
2948 0 63.0916 11.6022 732 46.209 819.566 404.996
2949 1 106.642 9.28344 990 41.6818 818.709 410.898
2950 1 68.8563 20.5646 1416 35.8814 817.377 394.588
2951 0 68.8955 20.9593 1444 35.5644 817.109 395.069
2952 0 68.9871 21.3663 1474 35.2225 816.976 395.111
2953 0 70.1735 20.8483 1463 35.0793 816.835 394.991
2954 0 71.9704 10.6016 763 12.118 814.864 483.27
2955 1 76.1483 11.8322 901 45.465 818.624 396.78
2956 0 79.079 12.3674 978 44.9898 818.878 394.912
2957 0 80.1203 11.6699 935 45.7455 818.481 394.613
2958 0 82.1258 12.3226 1012 45.5138 818.177 393.098
2959 0 85.0902 12.2811 1045 45.778 817.859 390.526
2960 0 87.3021 12.4625 1088 45.9044 817.8 389.634
2961 0 90.0629 12.1915 1098 46.3852 818.556 388.4
2962 0 94.0902 12.3605 1163 46.2838 818.533 387.235
2963 0 98.1333 12.5645 1233 46.0292 818.35 385.839
2964 0 99.2125 11.9743 1188 47.4377 818.832 383.859
2965 0 105.141 11.7651 1237 47.6645 818.88 381.704
2966 1 147.012 10.6454 1565 43.223 818.153 390.49
2967 1 59.1072 10.7094 633 48.8499 819.223 404.295
2968 0 61.1052 10.9483 669 48.9865 819.04 402.714
2969 0 61.1337 11.4994 703 49.0142 819.034 402.181
2970 0 63.0766 11.8586 748 48.4479 818.163 401.188
2971 0 64.0651 11.4883 736 49.144 819.052 400.011
2972 0 68.1319 11.6245 792 48.8535 818.886 397.981
2973 0 71.1888 12.3896 882 47.9331 818.372 398.681
2974 0 72.15 12.474 900 48.4533 818.792 396.693
2975 0 74.1705 11.3927 845 49.5586 819.205 396.572
2976 0 76.1371 12.0703 919 48.8292 818.794 395.664
2977 0 81.0727 12.569 1019 48.2022 818.993 394.243
2978 0 83.1506 12.4713 1037 48.0212 818.997 393.228
2979 0 85.2055 12.1588 1036 48.8021 818.274 391.248
2980 1 48.044 9.47049 455 50.9187 818.418 409.89
2981 0 47.0445 10.0543 473 50.8858 819.171 408.256
2982 0 51.2167 10.1529 520 50.5827 818.971 406.779
2983 0 49.0586 10.7015 525 51.1905 818.547 408.05
2984 0 51.1876 11.4676 587 49.7854 818.177 408.21
2985 0 53.1017 11.5062 611 49.3437 818.254 405.205
2986 0 54.0604 11.8756 642 49.0016 818.26 404.907
2987 0 59.044 11.5168 680 45.3985 818.447 406.338
2988 0 58.103 11.514 669 45.6084 818.152 403.36
2989 0 61.092 10.9834 671 45.5678 818.56 403.347
2990 0 62.09 11.2418 698 45.596 818.46 401.557
2991 0 66.1095 10.891 720 45.1931 818.717 401.44
2992 0 63.024 11.3925 718 45.4944 818.442 398.717
2993 0 68.1897 12.5532 856 43.6834 819.004 400.346
2994 1 95.0865 12.4203 1181 38.8823 818.916 402.732
2995 1 71.1224 11.8106 840 44.5083 819.016 397.777
2996 0 73.1279 12.3619 904 44.3462 818.907 397.022
2997 0 77.0877 12.3496 952 44.0504 818.356 395.317
2998 0 78.0515 12.3893 967 44.668 818.342 394.457
2999 0 82.1649 12.9131 1061 43.5759 818.893 393.703
3000 0 83.2133 11.3924 948 45.5865 818.945 390.762
3001 0 87.0993 11.6993 1019 45.1973 818.382 391.535
3002 0 93.265 12.5127 1167 44.1157 819.213 391.988
3003 0 90.0765 12.1674 1096 45.375 818.49 387.257
3004 0 96.1595 11.6681 1122 45.7834 819.107 387.354
3005 1 51.1755 9.88754 506 46.3715 819.488 408.702
3006 0 53.1573 11.3437 603 44.9287 818.964 406.977
3007 0 56.0959 10.7851 605 45.8926 819.126 405.952
3008 0 56.0924 11.0175 618 45.5129 819.404 406.243
3009 0 57.1639 11.4583 655 45.5252 820.028 403.953
3010 0 59.2072 11.8567 702 44.8761 819.744 401.561
3011 0 64.2017 11.6975 751 44.9201 819.892 401.197
3012 0 64.1325 11.7725 755 45.5417 819.914 400.544
3013 0 67.1261 11.5305 774 45.9716 819.45 400.354
3014 0 67.1621 12.0008 806 45.4963 819.2 397.73
3015 0 67.1157 11.8601 796 46.2764 819.678 397.438
3016 0 69.1162 12.3415 853 46.2251 819.739 396.278
3017 0 72.1441 12.2117 881 46.118 820.031 394.68
3018 0 75.073 12.3746 929 46.4435 819.939 393.972
3019 0 79.2118 12.4098 983 46.0722 820.161 392.756
3020 0 82.2322 12.8538 1057 45.6301 819.195 393.507
3021 0 84.0772 12.8216 1078 46.0352 819.27 389.133
3022 0 87.1423 12.4394 1084 46.7583 819.254 388.209
3023 0 89.2055 12.8692 1148 46.6995 820.15 386.877
3024 0 94.219 11.8554 1117 47.7547 819.242 385.84
3025 1 50.2029 10.7563 540 48.437 819.52 406.637
3026 0 52.1112 10.7654 561 49.2264 820.374 405.41
3027 0 54.0992 10.9613 593 48.8718 820.636 405.307
3028 0 54.2056 11.8622 643 48.535 819.914 404.348
3029 0 59.2164 11.534 683 48.754 819.94 403.611
3030 0 60.1344 12.2226 735 48.0408 820.189 402.033
3031 0 58.065 12.5032 726 48.7342 820.063 399.207
3032 0 63.1446 12.606 796 48.0038 820.052 400.932
3033 0 68.0766 11.8543 807 48.6159 820.4 399.244
3034 0 65.1814 12.7184 829 48.2726 819.643 398.843
3035 0 71.1292 12.2734 873 48.0309 819.372 398.066
3036 0 73.0908 12.4092 907 48.301 819.136 397.885
3037 0 72.0938 12.8028 923 48.2817 819.508 395.618
3038 0 75.1437 13.0949 984 47.8344 819.672 393.794
3039 0 75.0981 12.3838 930 48.7075 819.492 389.559
3040 0 79.1164 12.7786 1011 48.1385 820.095 390.278
3041 0 83.1459 13.1696 1095 47.547 819.88 390.624
3042 0 87.1659 12.5508 1094 47.9488 819.234 389.724
3043 0 87.2133 13.4498 1173 47.3299 819.801 387.743
3044 0 90.0715 12.8454 1157 48.4201 820.01 385.357
3045 0 95.1073 13.2587 1261 47.4148 819.909 383.8
3046 0 99.131 13.4065 1329 47.0113 819.611 382.439
3047 0 100.122 13.0541 1307 47.6419 820.018 380.499
3048 0 104.112 12.6979 1322 48.3964 820.865 381.02
3049 1 57.0984 10.4031 594 48.8485 820.062 404.364
3050 0 58.1273 10.5974 616 48.9383 819.636 402.591
3051 0 59.217 11.2636 667 48.982 819.891 401.706
3052 0 64.1067 11.3873 730 47.7288 820.437 400.264
3053 0 62.0929 11.6922 726 47.9945 820.259 399.36
3054 0 64.074 11.9549 766 47.7611 820.465 398.191
3055 0 67.0497 11.9016 798 47.3734 820.257 397.173
3056 0 70.1481 11.8749 833 47.413 820.666 396.393
3057 0 67.0566 11.9451 801 48.2459 819.839 395.064
3058 0 72.0601 12.3647 891 46.9787 820.211 394.327
3059 0 77.0856 12.8558 991 45.555 820.062 396.13
3060 0 78.0628 12.6693 989 46.0324 820.157 394.338
3061 0 82.1548 12.3912 1018 46.0462 819.913 390.533
3062 0 82.1368 12.7592 1048 45.8473 820.202 390.692
3063 0 83.113 12.5371 1042 46.6497 820.097 388.303
3064 0 86.1547 12.849 1107 46.1626 819.709 388.132
3065 0 89.0962 12.6941 1131 46.6605 820.042 386.689
3066 0 94.1086 12.2837 1156 46.8443 820.134 385.535
3067 0 96.1567 13.4572 1294 45.3879 820.464 385.372
3068 0 98.262 12.2631 1205 46.8772 820.188 383.685
3069 0 105.238 12.8566 1353 44.9069 819.684 382.525
3070 0 105.093 12.5603 1320 45.7795 819.624 378.633
3071 0 109.138 11.9115 1300 46.3131 819.894 378.485
3072 0 110.211 12.7301 1403 45.5916 820.305 375.637
3073 1 63.1759 11.7608 743 43.6783 820.498 402.315
3074 0 63.1833 11.8702 750 43.1813 820.675 400.275
3075 0 68.1514 11.9146 812 42.2525 820.126 398.72
3076 0 68.1363 11.2862 769 42.9961 819.722 398.061
3077 0 68.2062 12.2276 834 41.6487 820.065 397.482
3078 0 72.108 11.7879 850 41.9871 820.427 396.866
3079 0 72.1437 11.8375 854 42.7389 820.149 395.947
3080 0 75.2858 11.463 863 42.54 819.531 393.543
3081 0 80.1512 11.9399 957 41.6656 819.692 393.857
3082 0 78.1593 12.2314 956 41.6444 820.002 392.28
3083 0 81.2486 11.8525 963 41.7643 819.938 389.9
3084 0 84.1559 12.2748 1033 41.696 820.48 388.005
3085 0 88.1905 11.5659 1020 41.902 820.111 386.597
3086 0 93.2267 12.0781 1126 41.3437 820.261 387.553
3087 0 95.1383 11.6882 1112 42.1178 819.88 384.818
3088 0 98.1714 12.2948 1207 41.4557 819.882 385.385
3089 0 100.081 11.9803 1199 42.6414 820.058 381.819
3090 0 101.105 12.7688 1291 42.3036 820.721 382.287
3091 0 104.118 12.044 1254 43.047 820.286 376.656
3092 0 108.089 12.6655 1369 42.4186 820.385 376.577
3093 0 114.143 12.2916 1403 43.077 820.334 377.574
3094 0 118.129 12.1139 1431 43.2089 819.691 375.241
3095 0 117.154 12.4537 1459 43.0816 819.378 370.741
3096 1 149.299 12.9605 1935 38.3158 819.712 381.759
3097 1 177.23 12.7857 2266 44.6545 818.971 341.083
3098 0 176.203 12.5991 2220 44.4207 819.156 341.691
3099 1 165.304 14.9421 2470 37.0441 819.243 376.065
3100 1 75.0419 11.327 850 42.8506 819.462 393.566
3101 0 76.0851 11.5923 882 42.9456 820.076 391.529
3102 0 77.0768 11.5858 893 43.6764 820.281 391.821
3103 0 80.1515 12.127 972 43.0494 820.892 391.687
3104 0 84.1354 12.8008 1077 42.2006 820.64 389.939
3105 0 86.1133 12.4952 1076 42.8364 820.73 388.508
3106 0 91.1437 11.4435 1043 43.7852 820.176 384.853
3107 0 92.1705 12.8458 1184 42.5169 819.91 385.738
3108 0 96.1959 12.7448 1226 42.2936 819.764 383.87
3109 1 129.157 12.388 1600 38.4994 820.354 391.895
3110 1 103.235 12.4183 1282 43.0764 819.721 383.92
3111 0 106.148 12.426 1319 42.8939 819.707 377.788
3112 0 111.181 12.6101 1402 42.4836 820.311 377.377
3113 0 112.239 12.9813 1457 42.3665 820.961 375.578
3114 0 117.146 12.3351 1445 42.6609 820.282 374.29
3115 0 118.234 12.8559 1520 42.5658 820.318 373.072
3116 0 123.224 12.8465 1583 42.4529 819.49 370.288
3117 0 126.201 12.4009 1565 42.738 820.204 368.318
3118 0 129.18 12.7729 1650 42.1988 820.139 368.071
3119 0 131.122 12.3777 1623 42.7338 820.049 366.373
3120 1 77.1293 10.424 804 42.2251 820.047 394.076
3121 0 77.1516 11.1469 860 42.3477 820.64 392.252
3122 0 82.1623 11.4164 938 41.7889 820.723 390.638
3123 0 86.129 12.609 1086 40.5203 821.129 390.843
3124 0 85.1467 12.731 1084 41.107 820.895 389.914
3125 0 87.1681 12.1375 1058 41.8403 820.67 387.805
3126 0 93.2003 13.0472 1216 40.4416 820.741 386.225
3127 0 94.1196 12.9835 1222 41.1645 820.573 384.782
3128 0 98.1176 13.0048 1276 41.402 820.485 383.536
3129 0 98.2883 12.5651 1235 42.5587 821.074 380.223
3130 0 103.134 13.3031 1372 41.7041 820.501 381.128
3131 0 106.235 12.9712 1378 42.5254 820.241 379.326
3132 0 109.159 12.7795 1395 42.9577 820.74 375.845
3133 0 112.264 12.8893 1447 43.4029 820.646 376.48
3134 0 117.221 13.2229 1550 42.8852 820.999 377.591
3135 1 149.385 14.9345 2231 37.4366 821.268 381.858
3136 1 121.096 13.6833 1657 43.3277 820.541 372.428
3137 1 67.0719 10.8093 725 44.3131 821.559 400.644
3138 0 67.0707 11.4506 768 44.151 820.555 399.284
3139 0 69.068 11.3946 787 44.507 820.494 397.497
3140 0 71.1355 11.9209 848 44.2465 820.446 397.193
3141 0 73.1337 12.5523 918 43.3333 821.456 395.657
3142 0 76.0787 11.383 866 44.5577 821.412 394.503
3143 0 80.1511 12.1271 972 43.3457 820.062 395.22
3144 0 83.0933 11.9625 994 43.4356 820.216 392.73
3145 0 82.1614 12.1103 995 44.1226 820.525 391.033
3146 0 83.1931 12.2847 1022 44.2476 820.09 389.035
3147 0 86.1146 12.7504 1098 43.6038 819.973 389.501
3148 0 86.1216 12.4475 1072 44.5233 820.021 386.327
3149 0 91.0798 12.8129 1167 43.5733 820.934 386.549
3150 1 118.358 12.8846 1525 39.3489 821.127 393.728
3151 1 97.1608 12.6697 1231 43.9643 820.985 385.709
3152 0 99.0814 12.4746 1236 44.5065 820.81 382.526
3153 0 100.073 12.1511 1216 45.1094 820.853 382.572
3154 0 106.092 12.6494 1342 44.3882 819.829 381.298
3155 0 109.126 12.8934 1407 44.4186 819.629 381.507
3156 0 114.299 12.4586 1424 45.0955 820.748 379.22
3157 1 64.078 10.7369 688 46.2936 821.129 401.279
3158 0 66.1523 10.7782 713 46.7013 820.307 401.6
3159 0 69.076 11.7117 809 45.759 820.74 401.038
3160 0 69.1026 11.3165 782 47.3363 820.095 399.116
3161 0 69.0963 11.9399 825 47.0073 820.496 399.693
3162 0 71.2932 11.1371 794 48.267 820.345 396.442
3163 0 75.0981 12.2373 919 46.7737 820.432 396.57
3164 0 77.1591 11.8975 918 47.5882 820.792 394.726
3165 0 77.1939 11.7108 904 48.3982 820.484 394.447
3166 0 83.1224 11.9583 994 47.4286 819.939 393.225
3167 0 82.1356 11.9071 978 48.2137 819.577 390.022
3168 0 87.1156 12.6269 1100 46.9236 820.087 392.565
3169 0 89.1127 12.501 1114 47.2101 820.387 390.885
3170 0 89.1439 12.1713 1085 48.1705 819.96 388.088
3171 0 94.101 12.6672 1192 47.2307 819.477 387.275
3172 0 96.1764 12.3731 1190 47.9807 818.755 385.98
3173 0 101.195 12.1053 1225 47.822 818.94 384.505
3174 0 106.208 12.4472 1322 46.9342 818.626 383.632
3175 0 107.153 12.2442 1312 47.6989 818.715 382.251
3176 0 110.291 12.1769 1343 47.8965 818.807 381.068
3177 0 112.173 12.3916 1390 47.859 819.292 379.831
3178 1 62.1348 10.7991 671 45.8197 819.058 405.136
3179 0 63.109 11.187 706 45.3527 818.745 403.714
3180 0 61.2289 10.3873 636 46.9843 818.489 401.138
3181 0 67.1819 10.7172 720 45.7139 819.114 401.382
3182 0 68.2081 10.5853 722 45.687 819.388 402.445
3183 0 69.1875 11.2448 778 45.356 819.3 401.954
3184 0 70.171 11.8283 830 44.6169 819.361 400.539
3185 0 73.2252 10.9935 805 44.8932 818.811 401.494
3186 0 73.1362 12.005 878 44.7585 818.639 397.343
3187 0 75.1274 11.8465 890 44.6854 818.448 397.6
3188 0 76.1015 11.0642 842 45.7827 817.817 395.159
3189 0 80.2221 11.8047 947 44.5533 818.767 393.959
3190 0 84.1646 11.7151 986 44.142 818.492 393.35
3191 1 143.107 9.0422 1294 39.8408 818.405 399.536
3192 1 89.2025 11.6589 1040 44.4192 818.448 392.485
3193 0 90.1546 12.2456 1104 43.9475 818.766 388.348
3194 0 93.1186 12.4035 1155 43.9108 818.792 387.925
3195 0 96.1358 12.2327 1176 44.2015 818.287 387.003
3196 0 97.1246 11.6757 1134 45.2425 818.011 386.279
3197 0 103.158 11.8653 1224 44.7516 817.766 383.694
3198 0 103.172 12.2417 1263 45.2241 818.53 383.583
3199 0 109.16 11.9641 1306 45.0375 818.985 382.339
3200 0 110.194 12.0697 1330 44.8872 818.568 380.68
3201 0 114.118 12.1979 1392 44.6875 818.326 380.601
3202 0 117.13 12.0038 1406 44.7838 818.501 378.506
3203 1 65.0498 10.8686 707 44.1443 818.429 404.566
3204 0 67.1397 11.2452 755 44.1099 819.197 404.066
3205 0 66.1672 12.1359 803 43.5679 818.276 402.634
3206 0 69.073 11.6833 807 43.8154 818.208 402.949
3207 0 72.143 11.7544 848 43.8538 818.606 400.779
3208 0 75.108 11.7564 883 43.3431 818.503 401.277
3209 1 117.67 9.80708 1154 39.4229 818.364 402.819
3210 1 76.0702 11.8312 900 43.6111 817.239 396.602
3211 0 78.1514 11.6057 907 44.3837 817.239 395.212
3212 0 83.0996 11.3117 940 44.3521 818.038 395.197
3213 0 85.1693 11.8118 1006 44.1262 818.142 393.151
3214 0 87.1182 11.2147 977 44.9703 818.037 390.965
3215 0 89.0993 12.1101 1079 44.3781 818.862 391.93
3216 0 92.0797 11.7072 1078 45.1243 817.968 390.481
3217 0 93.3438 12.0415 1124 45.5222 818.036 388.507
3218 1 49.1635 11.0244 542 44.5148 818.031 408.509
3219 0 53.0661 10.8921 578 45.2958 818.547 410.457
3220 0 54.0793 11.2427 608 45.6118 818.446 408.342
3221 0 51.0434 10.9319 558 47.3136 818.468 408.215
3222 0 55.2105 12.1354 670 45.5791 819.133 407.5
3223 0 57.1163 11.3453 648 46.6111 819.324 405.122
3224 0 58.1152 10.961 637 47.7284 818.537 402.874
3225 0 60.1023 11.8298 711 46.6399 818.564 403.661
3226 0 63.0597 11.3543 716 47.3254 818.01 402.394
3227 0 65.0596 11.9275 776 46.2255 817.416 402.04
3228 0 66.1566 11.9565 791 47.0063 817.829 400.391
3229 0 69.2648 11.9541 828 46.9976 818.351 400.138
3230 0 70.1173 12.3507 866 46.3464 817.483 399.2
3231 0 72.184 11.6923 844 47.6469 818.184 397.506
3232 0 73.2049 12.909 945 46.2751 818.219 397.613
3233 0 74.0882 12.6876 940 48.1532 818.089 394.924
3234 0 74.1431 12.5973 934 49.2934 818.471 393.995
3235 0 81.1337 12.0419 977 49.1013 818.443 393.11
3236 0 80.2113 12.1928 978 50.045 818.038 390.669
3237 0 82.064 12.5755 1032 49.7171 817.959 389.693
3238 0 86.18 12.4739 1075 49.6856 818.569 388.062
3239 1 43.1194 10.5289 454 50.6454 818.33 408.152
3240 0 44.0609 10.4855 462 51.5822 818.905 408.539
3241 0 45.2909 10.9073 494 51.4089 818.996 408.225
3242 0 49.0765 11.2885 554 50.2581 819.226 408.704
3243 0 48.0862 11.3338 545 51.2294 819.591 408.472
3244 0 49.145 11.639 572 50.7972 819.229 407.142
3245 0 51.0711 11.063 565 51.2283 819.639 405.998
3246 0 53.0943 11.1688 593 51.1366 820.035 404.902
3247 0 54.1115 10.7186 580 52.0845 818.955 402.74
3248 0 56.1059 11.71 657 50.6469 819.833 405.254
3249 0 58.0763 11.1405 647 51.3091 820.379 403.906
3250 0 58.1765 10.8463 631 52.3217 819.927 402.959
3251 0 61.1177 11.5024 703 51.357 820.208 402.946
3252 0 63.0791 11.0021 694 51.817 820.441 401.323
3253 0 63.1025 11.9488 754 51.4337 820.198 401.991
3254 0 67.0837 11.4186 766 51.6292 820.309 401.149
3255 0 65.1434 11.8354 771 51.8405 819.712 400.152
3256 0 72.1721 12.6087 910 50.3055 819.277 400.27
3257 0 71.09 12.238 870 51.8103 819.315 398.349
3258 0 72.1488 11.1436 804 53.4142 819.643 396.888
3259 0 72.1646 10.5176 759 54.7971 819.611 395.229
3260 0 77.0695 11.3664 876 53.5902 819.76 396.014
3261 1 44.1046 10.135 447 53.2125 819.136 413
3262 0 45.0498 10.2109 460 52.85 819.763 414.435
3263 0 42.0283 9.23187 388 55.7706 819.755 412.198
3264 0 39.0328 9.83789 384 56.0495 819.95 410.234
3265 0 49.0454 10.3577 508 52.878 819.27 410.896
3266 0 49.1383 11.4778 564 52.0745 818.828 411.452
3267 0 48.0327 10.4512 502 53.6534 818.647 410.205
3268 0 50.06 11.0467 553 52.8391 818.286 407.937
3269 0 55.0816 11.5102 634 51.2792 818.166 407.953
3270 0 53.05 10.8388 575 52.8313 817.944 407.071
3271 0 56.113 11.1561 626 52.1406 819.059 406.599
3272 0 60.0239 11.3788 683 51.3763 818.473 405.985
3273 0 60.1757 9.98742 601 53.6522 818.451 402.591
3274 0 63.041 11.548 728 51.3379 818.087 405.757
3275 0 65.0747 11.2025 729 52.2016 817.925 403.011
3276 0 70.1359 11.2781 791 52.0202 818.431 400.925
3277 0 70.1442 10.2075 716 53.5978 818.049 399.324
3278 0 73.1668 11.3576 831 52.3646 818.22 399.372
3279 0 75.0637 11.3903 855 52.3649 818.022 398.791
3280 0 78.1147 12.2384 956 51.2584 817.53 399.414
3281 0 81.149 11.9657 971 51.8991 817.548 395.197
3282 0 84.2234 12.7399 1073 50.535 817.803 394.844
3283 0 87.1062 11.8591 1033 51.818 817.667 393.293
3284 0 87.0717 10.8646 946 54.0243 818.052 389.461
3285 0 87.0869 10.8627 946 208.978 819.06 389.424
3286 1 51.1528 10.6543 545 52.145 817.459 411.204
3287 0 52.0325 10.6472 554 52.5487 817.435 410.839
3288 0 54.1152 10.8287 586 51.756 816.848 407.939
3289 0 55.0447 10.7004 589 52.1596 817.107 406.441
3290 0 54.113 10.4965 568 52.831 817.276 404.956
3291 0 57.0708 11.3894 650 51.5646 817.629 404.777
3292 0 63.1492 11.1165 702 50.5726 817.886 404.775
3293 0 64.0944 11.5923 743 50.3338 817.641 403.027
3294 0 66.1064 11.2546 744 50.7339 818.621 402.706
3295 0 68.0904 11.7344 799 49.9224 818.116 401.153
3296 0 66.0859 11.5607 764 50.8783 817.903 398.399
3297 0 73.084 11.6031 848 49.8255 818.324 397.008
3298 0 73.1427 12.1817 891 49.8159 818.549 395.868
3299 0 75.1183 11.7947 886 50.0801 817.581 395.375
3300 0 79.1293 12.1952 965 49.6187 817.674 394.979
3301 0 81.1615 12.2349 993 49.7402 819.418 393.509
3302 0 84.1438 12.0627 1015 49.8256 819.039 390.895
3303 0 85.155 12.718 1083 49.3758 818.668 389.581
3304 0 88.2175 11.619 1025 50.438 817.947 388.564
3305 1 47.045 10.1605 478 51.1548 819.345 409.308
3306 0 48.042 10.8031 519 50.8728 818.75 407.83
3307 0 49.1062 11.7093 575 50.4174 818.729 407.708
3308 0 52.1112 11.2644 587 51 818.835 407.526
3309 0 54.1135 10.7921 584 50.9829 818.452 404.942
3310 0 55.075 10.4948 578 51.4412 818.808 403.299
3311 0 57.047 11.3941 650 49.8892 818.918 402.654
3312 0 58.1077 12.2187 710 48.8972 819.203 401.63
3313 0 59.0882 10.5774 625 50.768 819.003 398.966
3314 0 61.0918 11.3109 691 49.3025 819.938 398.618
3315 0 63.1188 10.8526 685 49.7372 818.761 396.926
3316 0 70.1707 12.2558 860 46.7279 818.93 397.945
3317 0 69.1286 11.5437 798 48.1115 819.229 396.025
3318 0 73.1447 12.3727 905 46.7403 818.987 395.397
3319 0 74.0992 11.9165 883 47.3069 819.348 393.709
3320 0 78.1324 12.402 969 46.0939 819.772 393.098
3321 0 78.1764 12.1776 952 46.6071 819.332 390.495
3322 0 81.1486 12.1382 985 46.4843 819.537 390.135
3323 0 86.1418 12.7232 1096 45.3558 819.853 390.64
3324 0 87.1328 12.0965 1054 46.1869 819.499 386.25
3325 0 90.0528 11.0713 997 47.0642 819.918 385.204
3326 0 93.0908 12.1065 1127 45.8075 819.606 384.644
3327 0 94.2451 11.746 1107 46.2186 820.228 380.935
3328 1 51.2255 11.4591 587 45.8177 820.956 406.635
3329 0 51.084 10.7078 547 46.7038 820.274 403.307
3330 1 82.2384 10.6884 879 40.6542 819.974 406.42
3331 1 55.2483 11.6384 643 45.4743 820.673 401.765
3332 0 54.09 11.9985 649 45.3035 820.553 402.676
3333 0 61.1849 11.9964 734 44.1608 820.394 402.061
3334 0 60.14 11.9887 721 44.835 819.829 401.623
3335 0 61.1109 12.4855 763 44.8047 820.571 399.748
3336 0 65.0928 12.1826 793 44.7806 820.382 400.712
3337 0 66.1652 12.7711 845 44.7254 820.778 399.378
3338 0 69.2787 11.6919 810 45.6185 821.447 396.842
3339 0 69.0601 11.1063 767 47.0235 821.089 394.823
3340 0 71.0527 12.4978 888 45.7286 820.88 394.009
3341 0 76.0961 12.7996 974 45.0852 820.813 395.631
3342 0 80.0841 12.3245 987 45.2654 820.032 393.451
3343 0 81.1212 12.4012 1006 45.9722 819.383 391.643
3344 0 84.2097 12.1126 1020 46.6716 819.813 389.774
3345 0 85.145 12.4728 1062 46.7298 819.687 390.054
3346 0 88.1754 12.6906 1119 46.6917 819.849 387.104
3347 0 92.1123 11.3123 1042 48.857 820.394 386.582
3348 0 92.2589 11.3702 1049 49.0915 819.915 382.449
3349 1 49.0777 10.5954 520 48.3231 820.069 407.44
3350 0 49.0992 10.7945 530 49.4113 820.038 409.262
3351 0 50.0954 11.3184 567 49.7989 819.944 408.84
3352 0 53.0562 10.4795 556 50.3165 818.978 405.14
3353 0 53.034 11.7095 621 49.3881 819.354 404.053
3354 0 57.0539 10.6215 606 50.0561 819.965 402.632
3355 0 58.0316 11.511 668 49.5329 819.448 401.537
3356 0 58.1041 10.877 632 50.3275 819.475 400.63
3357 0 63.177 10.6526 673 49.9346 819.11 399.982
3358 0 65.0961 12.3049 801 47.9663 819.496 399.104
3359 0 66.1792 11.7711 779 48.7574 819.281 397.376
3360 0 69.2042 11.0109 762 49.7533 819.26 396.78
3361 0 69.0712 11.5678 799 49.3016 819.772 396.001
3362 0 71.1348 11.1619 794 49.6587 819.816 394.368
3363 0 75.1241 12.7522 958 47.2777 820.577 393.406
3364 0 78.1187 11.5849 905 48.7558 819.976 393.055
3365 0 83.265 11.3853 948 48.7468 819.212 390.021
3366 0 84.129 11.3278 953 48.9423 820.215 389.765
3367 0 86.1384 11.6905 1007 48.4091 819.975 387.04
3368 0 89.1246 12.4657 1111 47.5446 819.826 386.625
3369 0 90.2287 10.4069 939 50.2226 819.465 383.792
3370 1 51.0353 10.287 525 49.5638 819.775 405.368
3371 0 51.0426 11.1475 569 49.8418 819.722 404.123
3372 0 55.0108 11.2705 620 49.2871 819.582 403.958
3373 0 57.0793 11.4402 653 48.4747 820.337 403.741
3374 0 58.0421 11.3021 656 48.7119 819.671 402.131
3375 0 60.0578 11.389 684 48.4547 820.012 401.133
3376 0 62.0587 11.7631 730 48.2233 820.227 400.455
3377 0 63.1381 11.261 711 48.519 818.823 398.906
3378 0 67.0258 11.5776 776 47.7113 819.472 398.934
3379 0 69.0981 12.2435 846 46.8132 819.989 399.313
3380 0 69.0968 12.0555 833 47.5738 819.873 397.672
3381 0 69.0366 11.6315 803 48.8892 819.395 396.496
3382 0 73.069 12.2761 897 47.6488 819.185 394.763
3383 0 73.1211 12.1306 887 48.5423 819.19 392.317
3384 0 79.1829 12.0859 957 48.4274 819.852 392.522
3385 0 82.145 11.6745 959 48.9374 820.043 390.272
3386 0 84.1171 11.1987 942 49.4172 819.75 388.651
3387 0 87.1132 11.3875 992 49.1794 819.228 388.845
3388 0 88.0939 12.2142 1076 48.0232 819.536 389.349
3389 0 90.1591 11.8901 1072 48.7817 819.751 385.859
3390 0 94.1028 11.7637 1107 48.7209 819.617 383.834
3391 1 53.1303 10.446 555 48.6973 820.398 405.276
3392 0 51.1158 10.8968 557 48.3788 819.908 402.971
3393 0 55.0519 10.6445 586 48.5819 820.188 402.882
3394 0 57.1279 11.1329 636 47.9324 820.069 403.338
3395 0 57.0953 11.402 651 47.9386 819.272 403.574
3396 0 59.0496 11.702 691 47.2185 819.113 401.86
3397 0 59.0254 10.792 637 48.9089 819.684 399.901
3398 0 59.0735 11.765 695 48.2245 820.414 400.413
3399 1 125.465 7.18926 902 42.8914 820.136 406.436
3400 1 66.1202 11.7665 778 46.7455 819.477 396.548
3401 0 67.1305 10.9488 735 47.7701 819.344 395.486
3402 0 69.0812 11.8122 816 46.7365 819.821 393.328
3403 0 68.1645 10.0786 687 49.0771 819.482 392.946
3404 0 75.197 12.0882 909 46.1254 819.59 394.24
3405 0 76.1689 11.9997 914 46.174 819.281 393.38
3406 0 81.1805 11.6284 944 46.2818 819.337 390.542
3407 1 40.1053 10.4475 419 47.0191 820.15 409.909
3408 0 38.1004 9.71118 370 49.4459 819.614 406.838
3409 0 42.0509 9.98789 420 47.6571 820.074 407.91
3410 0 39.056 10.0881 394 49.8832 819.835 406.888
3411 0 41.1217 8.85177 364 50.967 819.92 406.121
3412 1 69.1263 9.93833 687 42.8108 820.336 411.991
3413 1 49.1035 11.4248 561 46.8111 820.624 407.217
3414 0 49.1359 11.3563 558 47.3638 820.599 404.98
3415 0 53.0635 11.1188 590 47.0051 820.79 404.885
3416 0 52.0813 11.6933 609 46.6831 820.067 404.266
3417 0 53.0449 11.3489 602 47.2924 820.013 401.194
3418 0 57.2207 12.3906 709 45.2779 819.934 403.103
3419 0 57.0649 11.1277 635 47.1244 819.277 402.468
3420 0 59.1091 11.9271 705 45.8199 819.652 402.858
3421 0 60.0563 12.1886 732 46.082 819.695 401.59
3422 0 64.1206 12.4609 799 45.1952 819.593 401.631
3423 0 64.0696 11.8777 761 46.247 819.557 400.095
3424 0 66.0839 12.4236 821 45.5725 819.078 398.415
3425 0 64.1437 10.5388 676 47.7692 819.33 397.207
3426 0 71.069 11.2707 801 46.4682 818.79 397.002
3427 0 73.0299 13.0084 950 44.6221 818.49 397.438
3428 0 74.1002 11.2685 835 46.5246 818.74 393.787
3429 0 75.0572 12.204 916 45.9804 818.785 392.926
3430 0 82.144 11.772 967 45.514 818.479 391.839
3431 1 42.1065 10.6159 447 47.1208 818.796 409.168
3432 0 44.0615 10.9619 483 46.7723 819.24 408.456
3433 0 41.0533 11.3755 467 47.6188 818.884 409.011
3434 0 45.1391 11.4978 519 46.8786 819.484 411.728
3435 0 45.0946 11.6644 526 47.2452 819.093 408.764
3436 0 43.0314 9.8765 425 49.2235 818.958 405.268
3437 0 47.0768 8.94284 421 49.5701 818.202 404.724
3438 0 50.0783 10.3837 520 48.45 818.575 403.663
3439 0 52.0962 10.5766 551 47.9619 817.468 405.434
3440 0 55.1009 11.2702 621 46.9936 818.184 403.721
3441 0 54.1543 11.1348 603 48.0232 818.284 403.431
3442 0 57.1231 12.1317 693 46.3564 817.951 402.687
3443 0 61.1415 12.2176 747 45.5971 817.886 402.817
3444 0 60.1534 11.5538 695 47.1108 817.801 399.645
3445 0 62.0867 11.6611 724 46.8867 818.196 399.209
3446 0 64.135 12.5049 802 45.7219 818.61 399.868
3447 0 63.0747 10.4796 661 48.1861 818.47 393.955
3448 0 66.2003 11.9335 790 46.3646 818.9 397.587
3449 0 71.0921 12.322 876 45.5457 818.365 396.784
3450 0 71.1445 12.3551 879 45.8953 818.441 393.75
3451 0 76.2356 12.6319 963 44.9823 818.022 392.505
3452 0 78.1142 12.661 989 45.1689 818.397 392.529
3453 0 79.0898 11.3921 901 46.9523 818.993 387.691
3454 0 82.2075 10.9236 898 47.3174 819.144 386.11
3455 0 89.1576 11.6872 1042 46.0701 818.828 387.223
3456 0 88.1841 11.6121 1024 46.9287 818.554 384.345
3457 1 44.0762 10.9129 481 47.0187 818.692 406.813
3458 0 48.0926 10.6045 510 46.8569 819.251 407.01
3459 0 49.1649 11.736 577 45.9775 818.9 407.629
3460 0 49.082 11.6336 571 46.6077 818.497 406.391
3461 0 52.1494 10.8726 567 47.231 819.023 406.141
3462 0 55.1127 11.0682 610 46.4689 818.939 406.026
3463 0 54.1056 11.1264 602 47.2292 818.621 404.218
3464 0 55.1487 11.3511 626 47.0767 818.732 403.837
3465 0 56.1501 11.3446 637 47.0926 819.303 401.791
3466 0 61.164 11.2157 686 46.7026 819.227 400.815
3467 0 59.133 11.3304 670 47.803 819.376 400.524
3468 0 62.1771 12.191 758 46.4538 819.3 401.153
3469 0 63.1761 11.096 701 47.8816 819.26 398.041
3470 0 66.1818 11.9519 791 46.6182 818.651 396.834
3471 0 68.1624 11.2085 764 47.733 818.353 393.673
3472 0 68.084 10.5311 717 48.7978 819.354 394.596
3473 0 72.1598 12.3753 893 46.6461 819.062 395.011
3474 0 74.2711 12.2793 912 46.6776 818.681 393.854
3475 0 78.204 11.9176 932 46.823 818.227 392.495
3476 0 75.0925 10.3739 779 49.6354 818.756 387.737
3477 0 80.0936 10.7499 861 48.9791 818.75 387.358
3478 1 177.35 13.3747 2372 45.0658 819.03 346.974
3479 1 87.226 11.9804 1045 47.8526 819.122 384.435
3480 1 49.1273 10.0555 494 48.6073 819.267 405.773
3481 0 48.1386 10.8021 520 48.7192 818.804 407.09
3482 0 50.0728 11.643 583 47.6964 819.624 405.861
3483 0 52.1027 10.9399 570 48.7965 820.526 403.547
3484 0 52.1603 10.947 571 49.0788 820.867 402.454
3485 0 54.3063 11.9691 650 47.8738 820.377 403.34
3486 0 56.2683 10.8409 610 48.9754 820.051 400.469
3487 0 57.0943 11.192 639 48.3318 819.867 402.243
3488 0 61.1367 11.5152 704 49.1321 820.405 401.595
3489 0 64.0984 11.9192 764 48.1832 819.531 402.399
3490 0 65.1597 11.5409 752 48.8989 819.68 399.746
3491 0 63.0688 11.1307 702 49.9217 820.41 398.14
3492 0 69.2168 11.4279 791 48.9064 820.868 398.673
3493 0 71.0886 11.3802 809 48.9024 821.085 395.782
3494 0 71.1969 12.2196 870 48.2874 820.815 396.801
3495 0 73.1958 10.752 787 50.277 819.873 390.828
3496 0 76.2236 12.647 964 48.1442 820.081 393.09
3497 0 81.2204 12.0413 978 48.6339 820.515 391.418
3498 0 82.128 12.4196 1020 48.6363 821.734 390.248
3499 1 44.0408 9.69556 427 51.8548 821.806 409.775
3500 0 42.1023 10.2607 432 52.9977 821.435 407.808
3501 0 47.1036 11.3155 533 50.6398 821.017 408.24
3502 0 50.0879 11.0206 552 51.4801 821.739 406.514
3503 0 50.1221 11.3722 570 51.2561 821.468 407.137
3504 0 51.108 11.1333 569 52.1476 821.452 405.691
3505 0 52.1574 11.101 579 52.7686 821.43 403.703
3506 0 55.0595 11.4785 632 52.5174 820.932 404.663
3507 0 56.0767 11.5199 646 52.418 820.769 402.698
3508 0 58.14 11.7991 686 52.309 820.822 402.568
3509 0 60.0789 10.9523 658 53.7295 820.536 399.971
3510 0 62.0997 12.1096 752 52.0492 820.891 398.969
3511 0 61.0714 13.0339 796 52.0427 821.418 399.436
3512 0 65.0779 12.5388 816 52.1115 820.403 398.235
3513 0 64.048 12.2408 784 53.4834 820.425 397.282
3514 0 69.172 11.8401 819 53.3101 821.033 394.626
3515 0 69.1241 13.3383 922 51.6269 820.474 396.735
3516 0 70.0949 12.1264 850 53.4259 820.394 395.759
3517 0 76.1672 12.1575 926 52.662 820.353 393.162
3518 0 74.1598 12.2978 912 53.3728 820.268 391.396
3519 0 77.154 11.8594 915 53.6361 820.382 391.057
3520 0 83.1443 11.8469 985 53.2467 820.506 390.55
3521 0 81.0908 12.0482 977 53.6653 820.079 386.078
3522 0 86.1458 12.9083 1112 52.1915 819.705 389.766
3523 1 44.0532 9.42042 415 55.4289 819.908 409.39
3524 0 46.1232 10.8189 499 53.3788 821.078 408.19
3525 0 48.1295 11.5314 555 51.8252 819.816 409.368
3526 0 46.0448 11.6191 535 53.8131 819.637 407.193
3527 0 49.1089 11.5661 568 53.4718 819.97 405.916
3528 0 50.1319 11.6493 584 53.6866 819.774 404.536
3529 0 51.1165 11.6205 594 54.1549 820.923 405.478
3530 0 53.0917 11.5837 615 53.522 820.416 403.868
3531 0 54.1545 10.9132 591 54.4568 820.19 401.728
3532 0 59.1522 11.1408 659 53.2155 820.1 402.637
3533 0 59.0997 11.9459 706 52.7394 819.915 401.963
3534 0 60.0964 11.232 675 52.9244 819.837 400.194
3535 0 62.1562 12.4686 775 51.9626 820.822 401.705
3536 0 65.1486 11.2359 732 52.791 820.179 398.335
3537 0 69.0952 11.8098 816 51.3088 820.439 398.833
3538 0 66.155 11.1556 738 53.2859 820.297 396.612
3539 0 68.11 11.6576 794 52.8627 820.108 396.406
3540 0 76.0611 12.2139 929 51.1701 820.089 394.99
3541 0 74.1467 11.221 832 53.1659 820.293 391.659
3542 0 79.1352 11.8531 938 52.1866 819.53 392.957
3543 0 81.0929 12.2822 996 52.0562 819.345 392.547
3544 1 39.0226 10.6605 416 53.8077 819.053 409.875
3545 0 40.0692 9.33386 374 56.2086 819.912 409.725
3546 0 43.0598 11.1705 481 53.7422 819.168 410.923
3547 0 42.1475 10.7005 451 55.1175 819.421 408.865
3548 0 46.137 11.6826 539 52.9258 820.41 408.366
3549 0 47.2243 11.0536 522 54.2452 820.759 405.573
3550 0 48.131 11.6349 560 53.5661 820.952 405.264
3551 0 49.0768 11.7367 576 53.6823 821.451 402.281
3552 0 52.1723 11.2129 585 53.653 821.371 401.8
3553 0 53.1178 11.4274 607 53.6079 820.633 398.186
3554 0 54.078 12.1121 655 52.6931 821.082 398.076
3555 0 62.1799 11.6275 723 52.1369 821.184 395.512
3556 0 58.1103 12.1837 708 52.6794 821.083 392.452
3557 0 62.095 11.9494 742 52.4973 820.943 392.437
3558 0 61.0852 11.705 715 53.4783 821.838 389.443
3559 0 66.0458 11.8554 783 52.7829 822.066 391.072
3560 0 67.1011 11.6988 785 53.2548 822.059 387.827
3561 0 64.1023 11.6064 744 54.4758 821.722 385.569
3562 0 71.0796 12.0006 853 52.6424 822.272 386.4
3563 0 72.1391 11.0897 800 54.15 822.25 383.135
3564 0 75.0295 11.782 884 53.5305 822.655 383.176
3565 0 80.0776 11.1267 891 53.7755 822.486 379.262
3566 1 42.1362 10.2287 431 55.0023 823.202 398.362
3567 0 41.0986 10.633 437 55.5835 823.716 398.49
3568 0 42.0847 9.50464 400 57.5325 824.468 396.808
3569 0 47.163 11.5557 545 54.0385 824.42 398.128
3570 0 47.0309 11.3117 532 54.7387 824.487 395.955
3571 0 48.0426 11.1151 534 55.6704 824.994 396.174
3572 0 51.0719 11.7481 600 54.675 824.72 396.577
3573 0 53.1435 10.688 568 56.0775 824.609 395.097
3574 0 52.0629 11.1788 582 56.2388 824.567 396.215
3575 0 54.0678 11.3376 613 56.3132 824.429 394.93
3576 0 56.1081 10.6936 600 57.32 823.905 394.843
3577 0 56.0489 10.5265 590 57.9322 823.427 392.736
3578 0 60.1298 11.7413 706 55.7351 823.827 395.02
3579 0 62.0598 11.5373 716 56.5992 823.711 393.499
3580 0 63.1118 10.8379 684 57.3626 824.325 389.893
3581 0 65.0603 11.912 775 56.071 824.156 392.139
3582 0 65.0327 11.6095 755 57.2106 824.412 391.441
3583 0 68.1314 11.331 772 57.5518 824.547 390.373
3584 0 69.0693 11.0179 761 58.1735 824.292 386.995
3585 0 70.0898 10.6578 747 59.2356 824.632 387.106
3586 0 73.1697 10.5645 773 59.4463 823.89 386.075
3587 0 76.1971 11.2865 860 58.357 824.658 383.606
3588 1 38.0822 10.0572 383 59.564 825.089 398.937
3589 0 40.0564 9.81116 393 60.1145 824.796 399.888
3590 1 83.1526 11.4609 953 58.9202 824.003 378.231
3591 0 87.0836 10.9665 955 59.1047 824.284 375.856
3592 0 88.155 10.992 969 59.741 824.674 374.861
3593 0 91.0975 11.1968 1020 59.7853 824.621 372.643
3594 0 96.1341 11.6608 1121 58.5504 825.244 372.902
3595 0 96.0916 11.156 1072 59.8386 825.054 370.992
3596 0 102.253 11.7552 1202 58.5474 825.666 370.374
3597 0 100.088 11.7897 1180 59.0915 825.386 368.009
3598 0 102.189 10.1087 1033 61.3011 825.662 362.928
3599 0 111.214 11.5723 1287 58.3263 826.057 364.554
3600 0 111.191 11.5297 1282 58.9306 825.955 363.729
3601 0 113.176 11.5749 1310 58.871 825.589 362.247
3602 0 117.131 10.9792 1286 59.4541 826.248 359.865
3603 0 117.174 11.7262 1374 58.3013 826.295 361.336
3604 1 63.0832 11.6988 738 56.6707 826.079 390.011
3605 0 65.0773 11.2635 733 57.1596 826.516 390.08
3606 0 61.148 11.1042 679 58.3962 826.208 387.166
3607 0 67.097 11.0735 743 57.1332 827.066 387.244
3608 0 70.0332 11.5517 809 56.8307 826.69 387.567
3609 0 71.2094 11.0379 786 57.5344 826.737 385.64
3610 0 73.0442 11.5136 841 56.5149 826.484 383.158
3611 0 77.0786 10.6904 824 57.1481 826.329 382.961
3612 0 81.1394 11.4001 925 55.4616 826.699 383.077
3613 0 81.1269 12.0675 979 54.6415 826.898 380.863
3614 1 41.0076 10.7541 441 55.0658 827.44 399.46
3615 0 42.0604 11.6737 491 54.5682 827.028 399.868
3616 0 43.0665 9.77557 421 56.7126 825.988 397.938
3617 0 47.0502 10.2231 481 54.9605 825.817 398.422
3618 0 46.079 10.6339 490 54.851 827.067 398.812
3619 0 46.049 10.7277 494 54.5992 826.338 397.838
3620 0 50.0696 11.0446 553 53.038 825.799 396.566
3621 0 53.0618 10.9118 579 52.2401 826.026 395.273
3622 0 54.0785 12.3154 666 50.1697 825.677 396.842
3623 0 55.0444 11.954 658 50.4149 825.559 393.924
3624 0 58.1293 12.2486 712 49.4143 826.309 395.277
3625 0 57.0836 11.7547 671 50.6274 826.016 393.596
3626 0 61.0656 11.9216 728 49.7239 825.485 392.684
3627 0 64.0669 11.9406 765 49.2301 825.733 391.885
3628 0 65.0864 11.9073 775 49.7148 825.578 391.875
3629 0 66.0464 11.1285 735 50.5469 825.069 389.732
3630 0 64.1904 10.9674 704 51.5625 825.311 388.105
3631 0 68.0676 11.4592 780 50.4423 825.258 388.233
3632 0 70.0696 11.8311 829 50.1653 825.51 388.609
3633 0 75.1008 12.9559 973 48.5509 824.374 388.096
3634 0 77.0591 11.7183 903 50.1628 824.317 385.722
3635 0 76.2002 11.4042 869 51.0012 824.028 383.067
3636 0 82.0471 12.2003 1001 49.5744 824.199 384.727
3637 0 86.1421 12.7464 1098 48.7213 825.073 385.402
3638 0 85.0954 12.3038 1047 50.1041 824.497 382.043
3639 0 89.1707 12.5714 1121 49.5442 824.887 382.5
3640 0 89.1104 10.2121 910 51.9681 824.375 375.552
3641 1 51.0671 11.8667 606 50.3152 824.186 402.332
3642 0 50.0867 11.9393 598 50.51 824.507 400.144
3643 0 50.0644 10.846 543 51.8379 824.532 399.319
3644 0 55.0469 11.5538 636 50.5833 825.195 400.461
3645 0 58.0943 11.6879 679 50.43 824.337 401.798
3646 0 58.0596 12.78 742 49.8854 823.288 400.15
3647 0 60.0368 11.4097 685 52.1197 823.123 397.838
3648 0 62.0422 11.9274 740 52.0149 823.199 397.186
3649 0 62.088 12.1118 752 52.1808 822.336 395.294
3650 0 66.0807 13.2868 878 51.2756 822.56 396.35
3651 0 68.0727 12.281 836 52.884 822.139 397.047
3652 0 70.0731 12.7724 895 52.7899 821.268 393.268
3653 0 75.1127 12.6876 953 52.5803 821.677 394.512
3654 0 74.0491 12.0731 894 54.2438 821.37 391.468
3655 0 79.0541 12.7508 1008 53.3016 821.173 392.344
3656 0 82.1147 12.9575 1064 53.6241 821.333 392.827
3657 0 82.234 12.1847 1002 54.9391 820.879 388.203
3658 1 44.0629 10.5304 464 56.6638 820.259 407.821
3659 0 45.0886 11.0006 496 56.6452 820.639 409.845
3660 0 45.1205 11.3252 511 57.1213 820.278 408.636
3661 0 48.0662 11.5258 554 56.1769 820.913 410.262
3662 0 50.0516 11.8877 595 55.2874 820.366 409.424
3663 0 50.0526 11.2482 563 56.183 820.108 406.496
3664 0 51.0802 12.9209 660 53.8924 819.933 407.652
3665 0 54.0519 11.6185 628 54.9459 819.422 405.917
3666 0 57.0552 11.7781 672 53.7455 818.982 404.771
3667 0 57.061 11.3037 645 54.2651 818.55 403.926
3668 0 59.1104 12.925 764 53.2853 818.884 403.461
3669 0 61.0867 12.1958 745 54.5664 819.427 402.518
3670 0 66.105 12.5558 830 52.7374 819.6 400.241
3671 0 66.0764 12.1829 805 53.7143 819.825 400.116
3672 0 70.0474 13.0483 914 51.791 820.81 398.562
3673 0 70.0598 11.5901 812 53.8387 820.402 395.698
3674 0 75.0941 12.6108 947 51.7804 820.287 396.248
3675 0 75.1582 11.9082 895 52.7888 820.589 393.13
3676 0 78.0263 12.829 1001 51.5824 820.869 393.225
3677 0 81.0867 12.5791 1020 51.4549 821.05 394.226
3678 0 90.1773 11.5661 1043 51.3979 820.306 393.155
3679 0 85.0997 12.1622 1035 51.6754 819.87 391.057
3680 0 89.1747 12.6942 1132 50.6095 821.037 389.695
3681 1 48.0775 11.0447 531 50.177 820.516 410.341
3682 0 51.0969 10.7834 551 50.1887 820.492 409.956
3683 0 47.0886 12.1898 574 50.2561 820.45 408.786
3684 0 51.108 11.5833 592 49.728 820.343 408.267
3685 0 53.141 11.3284 602 49.6827 820.395 406.442
3686 0 54.0887 12.1282 656 48.5015 820.495 406.412
3687 0 58.0741 12.4496 723 47.5118 820.887 407.202
3688 0 58.0924 11.5678 672 48.4271 820.167 404.875
3689 0 61.1641 10.807 661 49.1861 820.163 401.017
3690 1 103.223 9.83312 1015 42.4434 820.316 408.148
3691 1 65.0499 12.0215 782 47.734 820.419 400.8
3692 0 68.0563 12.2252 832 47.5661 820.606 399.329
3693 0 71.1537 12.2973 875 47.536 821.054 398.751
3694 0 69.1062 11.9671 827 48.497 820.699 397.023
3695 0 76.0916 11.9856 912 48.1919 820.266 395.432
3696 0 76.0648 12.3316 938 48.3806 821.156 394.272
3697 0 78.107 11.8811 928 49.1379 821.586 392.677
3698 0 86.0706 12.1412 1045 48.267 821.371 393.055
3699 0 87.2456 11.9548 1043 49.0959 821.024 389.994
3700 0 88.1586 11.7402 1035 49.7517 820.558 390.126
3701 1 46.0633 11.05 509 50.4126 821.253 410.664
3702 0 47.0985 10.6161 500 51.148 821.504 409.424
3703 0 49.1069 11.2611 553 50.5298 821.186 410.013
3704 0 48.0602 10.799 519 51.946 821.239 407.133
3705 0 52.0868 10.9625 571 51.3047 821.681 403.975
3706 0 56.0608 11.8621 665 49.4045 821.902 405.869
3707 0 53.0446 11.8956 631 50.4849 822.136 405.041
3708 0 58.0702 11.3483 659 50.3612 822.033 404.29
3709 1 88.8689 11.5563 1027 42.4411 822.377 408.509
3710 1 61.0859 11.5739 707 49.9194 821.117 399.931
3711 0 60.0732 11.9022 715 50.1189 822.343 401.853
3712 0 64.1935 12.3689 794 49.0718 821.802 401.78
3713 0 66.1481 12.4871 826 48.9939 821.151 401.47
3714 0 67.0966 11.9529 802 49.9888 820.958 399.833
3715 0 69.1214 11.8198 817 49.8825 820.416 399.99
3716 0 74.196 11.6987 868 49.8756 820.796 396.363
3717 0 74.1011 12.267 909 49.9065 821.432 395.956
3718 0 75.2122 11.9794 901 50.3585 820.388 394.807
3719 0 81.147 11.4853 932 50.6652 820.514 394.525
3720 0 82.1257 11.7625 966 51.0642 820.716 393.99
3721 0 85.1114 11.5378 982 51.5947 819.699 391.884
3722 1 46.1259 10.9049 503 52.159 820.877 411.948
3723 0 46.0399 11.2945 520 52.3115 821.083 412.231
3724 0 51.0518 11.4002 582 51.4433 820.641 411.414
3725 0 49.0614 11.455 562 52.6032 820.988 413.262
3726 0 54.1269 11.51 623 51.3596 819.549 411.344
3727 0 54.1282 11.8607 642 51.2586 819.478 409.145
3728 0 57.0845 11.4392 653 51.6508 819.655 407.884
3729 0 56.1087 11.6381 653 51.7213 819.415 404.709
3730 0 61.1373 11.8586 725 50.7324 820.541 405.621
3731 0 61.0485 12.2034 745 50.651 820.422 404.522
3732 0 66.0354 11.2667 744 51.0847 819.085 403.965
3733 0 67.0768 12.3739 830 49.9807 818.808 403.01
3734 0 67.1598 12.0906 812 51.0332 819.515 402.078
3735 0 72.1148 11.8006 851 50.6898 820.329 401.623
3736 0 74.2113 12.1545 902 50.2971 820.017 399.431
3737 0 76.2344 11.7663 897 51.0223 820.086 398.843
3738 0 77.0715 11.2882 870 51.9897 819.524 398.717
3739 1 40.1021 10.9221 438 51.7192 819.21 416.877
3740 0 43.0431 10.6637 459 52.3115 819.238 414.453
3741 0 42.0301 11.0159 463 52.9827 819.862 414.456
3742 0 46.0917 10.5225 485 53.5588 819.612 412.668
3743 0 47.0253 10.3986 489 53.7014 819.072 410.622
3744 0 48.0695 10.7345 516 54.0504 819.052 409.862
3745 0 50.0865 10.9411 548 53.9909 819.604 409.823
3746 0 50.0782 11.7416 588 53.0544 819.325 410.213
3747 0 53.1688 11.8679 631 52.5468 819.455 408.515
3748 0 53.0568 10.9882 583 54.3911 819.37 409.087
3749 0 56.0976 11.2661 632 53.8244 819.172 406.429
3750 0 55.0767 11.3478 625 54.2784 819.928 405.341
3751 0 60.1931 12.3436 743 52.3001 818.978 406.236
3752 0 61.0537 11.9076 727 52.9161 819.332 402.78
3753 0 63.0607 12.3532 779 52.3774 818.994 402.076
3754 0 67.0893 12.8784 864 51.1169 819.55 402.137
3755 0 67.0913 12.1774 817 52.1885 819.409 400.342
3756 0 68.154 12.9119 880 51.2125 819.691 399.257
3757 0 72.119 11.7722 849 52.1543 818.761 396.474
3758 0 76.1108 12.311 937 51.0448 819.236 397.425
3759 0 79.0979 12.4276 983 50.5656 819.453 397.792
3760 0 80.0463 12.8925 1032 50.3052 819.414 395.137
3761 0 83.0353 13.4762 1119 49.2565 819.046 392.511
3762 0 85.0392 13.3938 1139 49.8349 818.965 390.58
3763 0 88.1281 12.9357 1140 50.5816 819.732 391.193
3764 1 47.0747 11.5773 545 52.3761 820.083 407.358
3765 0 50.095 11.9573 599 51.5192 820.631 407.324
3766 0 51.1505 12.2579 627 51.7576 820.496 404.933
3767 0 51.0667 12.6109 644 51.7686 820.02 406.53
3768 0 54.0501 12.0074 649 52.0062 820.08 404.495
3769 0 54.1229 12.3607 669 52.0673 820.392 403.465
3770 0 56.1399 12.8073 719 51.541 820.35 403.939
3771 0 60.0426 12.2247 734 51.4346 819.602 401.623
3772 0 58.0866 12.1543 706 52.0085 820.537 399.924
3773 0 65.1286 12.4676 812 49.5283 820.418 398.403
3774 0 64.0539 12.7393 816 49.4069 820.722 397.631
3775 0 64.0428 12.8664 824 49.8786 820.717 398.561
3776 0 68.1996 12.0675 823 49.9344 820.163 396.072
3777 0 74.0962 12.7537 945 48.4 820.997 396.425
3778 0 75.1488 13.094 984 48.0264 820.82 394.992
3779 0 79.127 12.5747 995 48.3106 821.525 393.975
3780 0 78.1305 13.2983 1039 47.8142 821.211 394.013
3781 0 81.1102 12.859 1043 48.4621 821.366 389.464
3782 0 86.0766 12.7445 1097 47.9234 820.725 390.684
3783 0 91.1272 13.2781 1210 47.0273 821.157 390.202
3784 0 89.1243 12.4209 1107 48.9196 821.268 386.245
3785 0 95.1343 12.4245 1182 48.3342 821.059 385.781
3786 0 97.0645 12.9501 1257 48.0804 820.539 385.785
3787 0 97.0795 11.2382 1091 50.3006 820.511 382.194
3788 1 54.0987 11.1648 604 48.3742 820.631 407.329
3789 0 55.0821 11.8732 654 47.7248 820.688 408.671
3790 0 54.0719 12.169 658 48.2827 820.758 406.795
3791 0 54.0492 11.8781 642 49.4159 821.307 404.674
3792 0 54.0344 11.1596 603 50.7032 821.378 404.726
3793 0 59.0646 10.7509 635 50.4441 821.096 403.32
3794 0 65.1802 12.243 798 47.02 820.486 404.816
3795 0 62.0944 12.0301 747 48.83 819.937 402.604
3796 0 65.056 11.9589 778 49.1234 819.54 400.738
3797 0 67.1178 11.8747 797 49.4517 819.34 399.264
3798 0 70.0845 12.385 868 48.8871 819.926 401.038
