time division length width area intensity CMx CMy
0 0 44.0471 10.625 468 59.2244 767.207 474.171
1 0 46.036 10.8176 498 58.5402 768.727 472.369
2 0 46.0167 11.1699 514 58.7626 768.671 471.829
3 0 48.0369 11.3038 543 58.3131 768.652 470.77
4 0 49.0137 10.9765 538 58.7751 769.45 469.641
5 0 52.056 10.8729 566 58.318 769.995 468.592
6 0 54.0822 10.5395 570 57.9842 769.735 466.582
7 0 55.0475 11.4265 629 57.3386 770.429 466.002
8 0 58.0404 10.0964 586 58.4096 770.491 464.596
9 0 60.0857 10.7014 643 57.0715 770.572 463.928
10 0 62.0513 10.7492 667 56.7511 770.652 462.76
11 0 61.0881 11.3934 696 56.329 771.105 463.078
12 0 65.1931 11.1208 725 55.5559 771.626 461.905
13 0 68.0831 11.1628 760 55.3487 771.7 460.483
14 0 71.1746 10.6358 757 55.9551 770.871 459.522
15 0 72.111 10.8583 783 56.0651 770.616 457.318
16 0 74.1219 11.3597 842 55.3789 770.81 455.969
17 1 40.0248 9.71896 389 56.2725 770.802 474.404
18 0 38.0241 10.4671 398 56.1055 771.304 471.771
19 0 41.0165 10.3129 423 56.227 770.314 471.853
20 0 44.0299 10.2203 450 55.6556 771.304 470.318
21 0 44.0227 10.5627 465 55.2344 771.886 469.219
22 0 47.0585 10.4551 492 55.063 772.634 468.738
23 0 47.0765 10.3874 489 55.8344 772.157 467.018
24 0 48.0495 11.1552 536 55.0653 772.696 467.729
25 0 49.0793 10.9415 537 55.7281 773.13 466.529
26 0 52.0633 10.6601 555 56.0541 772.395 466.568
27 0 52.0825 11.2706 587 55.7666 772.576 465.101
28 0 53.0611 11.4396 607 55.1499 772.404 464.155
29 0 55.0233 11.4315 629 54.9921 772.776 462.833
30 0 57.0798 11.0897 633 54.9905 773.066 462.163
31 0 58.1177 10.8401 630 55.127 772.783 460.422
32 0 59.1155 11.4014 674 54.2315 773.792 460.093
33 0 60.0825 11.4509 688 54.2311 773.215 459.036
34 0 62.0978 11.498 714 53.7171 772.62 459.06
35 0 66.0916 11.5748 765 52.915 773.439 458.574
36 0 68.0571 11.5785 788 52.2183 773.482 456.926
37 0 70.0931 10.6715 748 53.373 773.055 456.651
38 0 74.1338 10.7238 795 52.556 773.111 455.552
39 0 75.1019 11.1848 840 52.1036 773.499 453.056
40 0 77.1579 11.47 885 51.635 773.374 455.107
41 0 81.1103 11.1946 908 51.6641 774.143 451.601
42 0 82.0765 10.8923 894 51.764 773.321 451.329
43 0 84.0778 11.0612 930 51.7355 773.378 451.111
44 1 43.0698 10.541 454 53.0683 773.134 470.597
45 0 42.0383 11.323 476 52.5693 773.683 470
46 0 45.0075 11.1093 500 52.116 772.958 468.902
47 0 45.0079 11.0647 498 51.8193 773.679 467.946
48 0 46.0473 10.9887 506 51.7628 773.587 466.547
49 0 47.0125 11.3587 534 51.7266 773.567 467.657
50 0 51.0203 11.074 565 50.6319 774.182 465.97
51 0 51.029 11.2681 575 51.2313 773.504 466.163
52 0 53.0608 11.0816 588 50.5357 773.653 464.396
53 0 53.0411 11.3686 603 50.7529 773.781 463.378
54 0 56.0244 11.2986 633 50.109 773.784 461.566
55 0 58.0272 11.7014 679 49.2209 774.212 462.95
56 0 60.0791 11.0355 663 49.5822 773.668 462.081
57 1 130.267 11.5532 1505 48.4053 773.035 428.73
58 0 134.278 11.4762 1541 48.5587 773.071 426.52
59 0 139.198 11.3723 1583 48.542 773.092 423.67
60 0 141.237 11.4205 1613 48.6671 773.177 421.699
61 1 69.2369 11.6267 805 48.6261 772.984 456.006
62 0 73.097 11.1633 816 48.7794 774.028 456.358
63 0 73.2554 11.2483 824 49.1189 773.704 453.538
64 0 76.0822 12.0265 915 48.6798 773.501 451.848
65 0 78.0462 11.1472 870 49.5816 773.407 450.548
66 0 83.0791 11.5553 960 49.3625 772.91 450.279
67 0 87.2011 11.1122 969 49.7936 772.644 449.736
68 0 86.1155 11.0433 951 50.7813 772.804 448.619
69 0 90.1384 11.5156 1038 50.1233 772.619 447.815
70 1 47.0657 11.3458 534 52.1105 773.371 470.096
71 0 49.1059 11.5057 565 52.3788 774.561 468.488
72 0 52.0982 11.2096 584 53.0325 773.072 464.89
73 0 54.124 11.1411 603 52.8856 773.915 465.466
74 0 53.1398 11.5732 615 52.8 774.55 466.163
75 0 55.0356 12.0104 661 52.3268 773.846 465.499
76 0 57.0963 11.0165 629 53.0604 774.323 464.644
77 0 59.0466 11.2623 665 52.9263 773.862 463.131
78 0 62.1112 11.6082 721 52.061 773.659 461.731
79 0 62.034 11.5421 716 52.6439 773.342 461.482
80 0 64.0922 11.6863 749 52.1295 773.278 461.057
81 0 68.0961 11.8068 804 51.5634 772.975 459.632
82 0 68.0272 11.76 800 52.0513 773.607 460.076
83 0 70.0589 12.204 855 51.3754 773.511 457.097
84 0 73.1183 12.1584 889 51.1642 774.411 456.118
85 0 73.0879 12.5602 918 51.6155 772.212 455.575
86 0 77.0548 12.0823 931 51.5392 772.97 455.488
87 0 78.0758 12.6544 988 51.6549 773.041 453.451
88 0 83.0988 12.3227 1024 51.7432 773.879 452.878
89 0 87.0876 12.2291 1065 52.0986 773.668 451.801
90 0 86.042 11.8198 1017 53.6844 772.389 449.663
91 0 90.1818 12.3861 1117 52.6929 772.561 449.883
92 1 47.0335 11.2686 530 57.1226 772.634 471.855
93 0 50.0872 11.8194 592 56.8632 772.005 469.407
94 0 52.1126 11.6287 606 57.6271 772.389 469.467
95 0 53.061 11.6658 619 57.9725 772.402 467.233
96 0 55.096 12.1969 672 57.7589 772.481 467.515
97 0 56.0603 11.6838 655 58.7038 772.56 466.415
98 0 59.0635 12.258 724 57.7141 772.731 463.914
99 0 61.0559 12.1528 742 57.8315 772.849 464.557
100 0 61.0443 12.4336 759 58.1765 772.25 463.545
101 0 64.081 11.86 760 59.0579 772.239 461.655
102 0 64.0694 13.1576 843 57.4852 772.477 461.03
103 0 68.1708 12.6741 864 57.6806 772.285 461.454
104 0 69.0871 12.9112 892 57.2578 772.265 461.138
105 0 72.1246 12.6032 909 57.2222 772.129 459.135
106 0 72.1008 12.6767 914 57.6838 772.548 456.846
107 0 77.0592 12.9381 997 56.4794 771.672 455.489
108 0 78.1073 12.8669 1005 57.0259 771.9 454.831
109 0 82.1259 13.2845 1091 55.7076 772.188 453.483
110 0 88.1949 13.3001 1173 55.023 772.33 452.628
111 0 88.1724 13.0426 1150 55.7904 772.154 449.055
112 0 93.1778 12.7606 1189 55.7426 771.931 449.801
113 0 93.1103 12.8772 1199 55.9441 772.345 447.075
114 0 101.108 12.6795 1282 55.4087 772.08 446.546
115 1 52.0542 11.0462 575 58.5791 771.36 468.268
116 0 53.0584 11.7795 625 58.272 771.326 469.307
117 0 54.0537 11.8216 639 58.6933 771.554 468.459
118 0 54.0274 12.4381 672 58.7039 770.792 466.804
119 0 58.0606 11.6775 678 59.2566 770.932 462.63
120 0 61.0616 12.0043 733 58.307 771.6 464.941
121 0 59.0681 12.274 725 59.2676 771.659 462.514
122 0 64.0736 12.0174 770 58.7364 771.361 460.394
123 0 66.0754 12.1679 804 58.0522 771.984 460.904
124 0 66.0659 12.5178 827 57.7267 772.773 460.187
125 0 69.0939 12.1863 842 57.4656 772.603 456.556
126 0 72.0819 12.5274 903 57.2049 772.615 455.141
127 0 74.066 12.0703 894 57.4418 773.497 456.163
128 0 77.0784 12.39 955 57.3717 772.864 454.098
129 0 79.0532 12.5991 996 57.1817 772.716 455.308
130 0 83.1217 12.5599 1044 56.751 773.08 452.992
131 1 43.059 10.7759 464 59.9655 773.196 469.026
132 0 44.0348 11.1276 490 60.6286 772.418 470.029
133 0 48.0334 12.179 585 58.6359 773.142 471.082
134 0 51.0939 11.4495 585 59.6393 773.386 470.918
135 0 49.0792 12.3067 604 59.5977 772.54 469.058
136 0 52.086 11.3466 591 60.8934 773.271 468.288
137 0 55.0893 11.6538 642 60.391 773.983 469.505
138 0 54.1074 11.3663 615 61.7415 774 466.011
139 0 56.0725 12.145 681 61.0147 773.407 466.013
140 0 58.1075 12.5801 731 60.6101 773.62 465.382
141 0 63.1847 12.234 773 60.2768 773.686 465.282
142 0 64.1746 12.2323 785 60.9338 773.208 465.596
143 0 64.0721 12.205 782 61.656 773.18 463.83
144 0 66.0995 12.3148 814 62.2568 772.769 461.074
145 0 69.115 12.4575 861 61.777 772.812 462.592
146 0 70.1087 12.88 903 61.8073 773.464 460.684
147 0 73.0484 12.5533 917 62.4547 772.842 459.028
148 0 75.0605 12.9496 972 62.1091 772.138 458.349
149 0 81.1063 12.2432 993 62.6616 771.587 457.014
150 0 83.093 12.1671 1011 63.2067 772.032 454.894
151 0 82.128 12.0909 993 64.28 771.931 453.373
152 0 86.1556 11.8855 1024 64.9561 772.198 452.401
153 0 89.1202 11.7482 1047 65.1146 772.375 451.587
154 1 42.0733 10.6481 448 65.9911 772.248 473.714
155 0 41.0529 10.7666 442 67.9118 771.385 472.072
156 0 43.0456 11.4297 492 66.8028 771.86 473.998
157 0 44.0305 10.9015 480 67.9167 772.26 472.419
158 0 46.0498 10.7058 493 68.7485 772.475 471.327
159 0 45.0561 11.3636 512 69.3809 771.967 470.072
160 0 48.0602 11.6729 561 68.5312 771.594 469.193
161 0 49.0235 11.7699 577 69.1213 771.747 470.988
162 0 50.1182 10.6947 536 71.5187 771.646 467.537
163 0 51.079 12.0793 617 69.282 772.475 467.044
164 0 57.1063 10.7344 613 70.4894 771.838 466.914
165 0 57.0256 11.2406 641 70.6927 771.739 465.393
166 0 56.0337 11.4574 642 71.3349 772.044 465.316
167 0 59.0507 11.5833 684 70.538 772.387 464.118
168 0 59.075 11.7139 692 71.3699 771.877 463.744
169 0 61.0417 12.3522 754 70.4748 772.231 462.67
170 0 65.0403 11.9311 776 70.9974 772.718 460.93
171 0 70.0732 11.7449 823 71.1409 772.187 459.937
172 0 67.059 11.8105 792 72.7803 771.912 457.462
173 0 72.1166 11.6339 839 72.5864 771.852 456.578
174 0 72.0745 11.5852 835 73.7461 772.152 455.661
175 0 74.0723 12.0828 895 73.2101 772.105 454.385
176 0 77.0578 12.6139 972 72.1409 772.609 453.219
177 0 80.0881 12.0867 968 72.8812 772.614 454.226
178 0 82.0923 12.0109 986 73.5396 772.939 452.111
179 0 83.0613 12.3764 1028 73.3512 773.047 451.157
180 0 87.0463 11.3273 986 75.1937 773.478 448.063
181 0 88.0954 12.2935 1083 73.8449 773.008 446.555
182 0 91.0332 12.0396 1096 74.8431 772.22 445.609
183 0 92.1598 11.4692 1057 75.7919 773.071 442.395
184 1 46.0206 11.1472 513 72.9708 773.554 468.616
185 0 47.0433 10.8198 509 74.11 772.815 468.99
186 0 49.0627 10.3949 510 75.3627 773.324 466.508
187 0 50.046 10.81 541 74.4861 773.54 467.098
188 0 50.0165 11.4962 575 73.5878 773.261 468.464
189 0 56.1205 10.5309 591 74.0964 773.511 467.306
190 0 55.0495 11.2989 622 73.5289 773.762 465.682
191 0 55.1318 11.663 643 73.5474 773.544 464.977
192 0 55.0975 11.7791 649 74.1279 773.633 465.986
193 0 58.0604 11.3675 660 75.3939 773.752 462.689
194 0 60.1106 11.013 662 75.8565 773.569 462.982
195 0 63.0461 11.103 700 75.7557 773.256 460.657
196 0 67.0882 11.1197 746 75.2212 774.122 461.828
197 0 66.1082 11.103 734 75.9074 773.888 461.153
198 0 65.0561 12.005 781 75.0487 773.288 460.803
199 0 68.0608 12.386 843 73.8743 773.372 461.082
200 0 71.1095 12.094 860 74.1081 773.372 460.092
201 0 73.122 11.8706 868 74.962 772.987 458.105
202 0 74.1043 12.226 906 74.2174 773.196 457.801
203 0 77.1434 12.0555 930 74.7591 773.085 457.318
204 0 78.1301 12.2488 957 74.3041 772.806 458.029
205 0 80.1095 11.8962 953 74.9465 773.149 456.029
206 0 82.1383 12.3329 1013 73.7374 773.614 455.025
207 0 85.1102 11.8787 1011 74.087 772.989 452.136
208 0 87.0771 11.9894 1044 73.8496 772.667 450.986
209 1 37.0599 10.2267 379 70.5541 772.013 475.177
210 0 39.0302 9.8129 383 70.6449 772.188 474.467
211 0 39.0587 10.0874 394 70.3147 772.358 475.51
212 0 41.0515 10.4259 428 69.2009 771.605 473.121
213 0 43.0333 10.3176 444 68.9797 771.66 474.669
214 0 43.0409 10.8966 469 67.7015 772.682 473.981
215 0 45.1069 10.5527 476 67.9832 772.147 471.502
216 0 49.0774 10.188 500 67.102 771.568 471.154
217 0 47.0207 10.6336 500 67.59 771.874 471.484
218 0 49.0518 10.8253 531 66.7702 771.868 470.507
219 0 50.0276 10.854 543 66.0626 771.21 471.497
220 0 51.0925 10.8626 555 65.7189 771.706 469.432
221 0 52.0456 11.317 589 65.4652 772.046 466.472
222 0 56.0286 10.7802 604 64.9851 772.333 464.801
223 0 56.0622 10.8808 610 64.4377 772.215 464.207
224 0 56.0773 10.9848 616 64.6315 772.802 464.536
225 0 58.0459 11.5598 671 63.1103 773.069 464.227
226 0 60.0526 11.3567 682 63.2947 772.213 463.075
227 0 63.08 10.5263 664 62.8599 772.62 462.741
228 0 62.0803 11.324 703 62.8506 772.755 462.461
229 0 66.1514 11.64 770 61.2 773.486 461.058
230 0 66.0848 10.8194 715 62.6531 772.586 459.137
231 0 69.0685 10.4534 722 62.4238 772.325 457.904
232 0 67.118 10.9956 738 61.6816 772.924 458.562
233 0 72.1116 11.815 852 59.2195 773.325 458.131
234 0 74.0173 10.7272 794 60.2141 773.065 455.409
235 1 41.028 9.11573 374 57.4866 772.463 472.032
236 0 38.0103 9.99729 380 57.2474 772.495 471.403
237 0 43.0639 9.89227 426 55.2535 773.052 471.829
238 0 41.0194 10.4585 429 55.4312 772.949 469.627
239 0 45.0228 10.4836 472 53.6674 773.79 470.019
240 0 44.0657 10.6659 470 53.8745 774.44 469.228
241 0 48.0228 9.84948 473 53.5772 774.006 467.226
242 0 45.0171 10.5738 476 53.4181 773.945 468.603
243 0 51.0562 10.5766 540 52.2167 773.587 465.637
244 0 53.038 11.1241 590 51.1492 773.62 465.625
245 0 55.0354 10.6659 587 51.4003 773.482 465.462
246 0 52.0278 11.5131 599 50.9215 773.783 464.339
247 0 54.0425 11.0654 598 51.5836 773.786 462.691
248 0 60.0322 10.5777 635 50.9953 773.531 461.91
249 0 59.0364 11.4167 674 50.5282 774.217 461.859
250 0 61.1075 11.3898 696 51.3894 773.565 460.374
251 0 65.0269 11.3184 736 51.038 773.898 458.629
252 0 66.0478 11.5674 764 50.644 774.38 458.666
253 0 66.0983 11.3165 748 50.9813 774.289 455.67
254 0 71.0329 11.5862 823 49.3779 773.874 456.994
255 0 72.0685 11.3919 821 49.6675 773.839 455.049
256 0 74.2383 11.7864 875 48.4983 772.761 453.754
257 0 76.2237 11.6499 888 48.5484 773.394 451.163
258 0 79.132 12.0305 952 47.7437 774.207 451.472
259 0 84.1424 11.0646 931 48.4898 775.273 449.83
260 0 80.1676 10.6028 850 49.5412 774.513 447.653
261 0 86.152 11.3869 981 47.9541 774.214 449.701
262 1 41.1208 9.94632 409 47.445 774.638 469.333
263 0 42.0185 10.4716 440 46.6659 774.607 470.45
264 0 45.0553 9.89894 446 47.6031 775.516 469.278
265 0 49.1448 10.0723 495 46.9576 775.016 468.721
266 0 50.1237 9.6162 482 47.5498 773.886 468.902
267 0 48.0502 9.98955 480 47.7208 774.55 467.76
268 0 49.0467 9.9701 489 47.7771 775.1 466.832
269 0 50.0922 10.4407 523 47.6558 774.901 466.52
270 0 53.0803 10.8138 574 46.7944 774.918 468.263
271 0 53.1114 10.2614 545 48.1486 774.996 465.237
272 0 55.0811 10.893 600 47.1317 774.957 464.877
273 0 58.0926 11.3612 660 46.3318 775.388 465.371
274 0 58.1433 10.6289 618 47.8851 774.706 463.259
275 0 60.0465 11.0581 664 47.0693 775.205 463.628
276 0 62.1114 11.0286 685 47.0745 774.492 464.073
277 0 63.0657 11.4325 721 46.6602 774.687 460.703
278 0 62.0968 11.4338 710 46.6563 774.977 461.727
279 0 66.0153 11.5428 762 46.5709 774.256 461.34
280 0 68.0259 10.6136 722 47.5457 774.78 458.5
281 0 71.0656 11.2431 799 46.3467 774.954 459.633
282 0 73.155 11.8789 869 45.6203 775.204 460.108
283 0 73.1198 11.8025 863 46.226 774.623 460.351
284 0 77.152 10.9265 843 47.3179 774.764 456.756
285 0 80.124 11.8691 951 46.4595 774.923 456.401
286 0 80.0458 11.431 915 47.1322 774.387 453.937
287 0 84.2433 12.2384 1031 46.3016 774.463 454.673
288 0 87.1091 11.6521 1015 46.9823 774.25 453.781
289 0 87.1369 11.0516 963 48.8557 773.624 451.99
290 1 48.0631 10.0909 485 47.5402 773.34 472.049
291 0 47.0392 10.3106 485 48.6619 773.039 469.959
292 0 49.0564 10.6204 521 48.3704 772.937 473.102
293 0 51.0697 10.3192 527 49.4573 773.317 470.744
294 0 53.2017 10.5824 563 49.5933 772.961 470.099
295 0 53.1651 11.0787 589 49.6146 772.883 469.121
296 0 57.1425 10.4826 599 50.1486 772.761 468.264
297 0 58.1307 10.7 622 50.5305 772.895 468.408
298 0 61.2051 10.4893 642 50.7679 772.597 468.327
299 0 62.124 10.2215 635 51.8031 772.58 465.961
300 0 62.183 11.032 686 50.8265 772.792 466.612
301 0 65.0599 10.8515 706 51.2946 773.715 465.636
302 0 67.1306 11.0829 744 51.3306 773.16 466.343
303 0 67.1919 11.5192 774 51.3979 772.992 463.712
304 0 71.17 10.6787 760 52.0184 773.639 464.342
305 0 70.1343 11.2926 792 52.3005 773.37 460.436
306 0 74.0718 11.4213 846 51.7246 773.001 461.556
307 0 77.1283 11.0595 853 52.3634 772.589 459.055
308 0 78.1035 11.8049 922 51.9013 772.916 459.658
309 0 81.1088 12.3414 1001 51.7662 773.115 458.162
310 0 85.1536 11.626 990 52.9515 772.375 455.782
311 1 116.259 13.2807 1544 45.3867 772.927 459.936
312 1 89.1725 11.8759 1059 53.6572 772.361 451.653
313 0 92.1143 11.464 1056 54.0625 772.191 450.076
314 0 97.0815 11.5058 1117 54.2954 771.985 450.962
315 0 97.1073 11.9558 1161 54.6055 772.245 450.394
316 1 51.0374 10.1886 520 54.3173 771.744 473.748
317 0 53.0412 10.8406 575 53.6139 772.188 473.743
318 0 54.0749 10.8553 587 53.6508 771.552 474.658
319 0 54.0412 11.4357 618 54.4434 771.877 471.401
320 0 56.0434 11.0985 622 55.0675 771.301 468.891
321 0 61.087 11.1644 682 54.2566 770.947 466.639
322 0 63.0387 10.8346 683 54.5871 771.826 466.432
323 0 61.1702 11.5089 704 55.3054 771.99 467.189
324 0 65.0656 11.4961 748 55.0856 772.205 465.408
325 0 67.0758 10.8534 728 55.739 771.901 464.804
326 0 67.2423 10.9752 738 56.5041 772.297 462.018
327 0 69.0705 11.8285 817 55.033 771.601 463.463
328 1 4 5 20 14.05 770.25 517.55
329 1 0 0 0 -nan -nan -nan
330 0 0 0 0 -nan -nan -nan
331 1 13.8921 7.48628 104 13.0769 765.212 517.154
332 1 82.1472 11.4185 938 52.1194 772.308 455.36
333 0 81.1255 11.4637 930 53.7839 771.917 453.734
334 0 87.1208 11.1225 969 56.6605 772.545 454.297
335 0 86.0981 11.6611 1004 57.0309 772.839 452.204
336 0 88.2034 11.1334 982 57.7088 772.055 449.05
337 1 45.0441 10.4342 470 56.8021 772.192 470.76
338 0 46.0805 10.7855 497 57.505 772.952 469.346
339 0 51.0308 10.4055 531 57.4313 773.256 468.893
340 0 52.0317 10.263 534 58.1442 773.066 469.481
341 0 51.0269 11.3861 581 57.568 772.9 468.21
342 0 52.0183 11.1692 581 58.4699 772.795 467.153
343 0 56.0451 10.4737 587 58.9267 773.196 465.767
344 0 55.0477 10.0458 553 60.792 772.944 463.696
345 0 58.06 10.8336 629 58.3609 773.111 463.943
346 0 56.0362 11.4212 640 58.9047 773.478 464.498
347 0 58.0912 10.3802 603 60.2753 773.473 461.277
348 0 60.0548 11.2231 674 58.9332 773.028 461.061
349 0 65.0642 11.2812 734 57.7916 772.458 459.41
350 0 68.0624 10.8871 741 57.8947 773.441 457.746
351 0 67.0794 10.7783 723 58.8368 773.51 456.981
352 0 72.0429 11.1045 800 57.4888 774.008 457.37
353 0 73.1386 11.403 834 57.6655 773.942 455.434
354 0 76.1279 11.0472 841 58.0773 773.752 453.163
355 0 78.143 11.351 887 58.0857 773.653 450.286
356 0 79.1054 10.6314 841 59.5398 773.509 449.005
357 1 41.0269 9.06723 372 57.4651 773.954 470.03
358 0 41.041 9.72199 399 57.7769 773.035 468.246
359 0 41.0057 10.5595 433 57.2517 773.947 469.208
360 0 45.0366 9.90306 446 57.0269 774.442 467.821
361 0 46.0544 9.85791 454 57.4295 774.408 466.879
362 0 45.0856 10.7795 486 56.7696 774.167 467.488
363 0 49.0327 10.0749 494 57.2874 773.648 466.682
364 0 49.0434 10.4193 511 56.7847 774.278 465.937
365 0 50.083 10.5225 527 57.1138 773.951 466.228
366 0 51.0527 10.8124 552 56.8206 774.746 464.969
367 0 54.0602 10.5623 571 56.7373 775.988 463.538
368 0 56.0362 10.4754 587 56.3901 775.399 461.758
369 0 59.0779 10.4946 620 55.8 774.731 460.979
370 0 59.0903 10.6955 632 55.9858 774.712 461.74
371 0 60.0686 10.9375 657 55.6804 774.356 461.79
372 0 62.0704 10.5848 657 56.0578 775.014 458.53
373 0 63.0891 10.7467 678 55.8171 774.462 457.103
374 0 64.0904 11.4214 732 55.5915 774.49 457.79
375 0 66.177 10.8044 715 56.6531 774.881 456.273
376 0 69.1711 10.9439 757 55.9406 775.136 455.609
377 0 72.0898 10.6256 766 56.5953 774.755 454.941
378 0 71.2043 11.151 794 56.7355 774.4 454.47
379 0 73.3879 11.0645 812 56.9938 773.717 452.882
380 0 75.1527 11.0309 829 57.345 773.527 452.797
381 0 76.1696 11.1593 850 57.3412 773.986 450.522
382 0 78.2144 11.315 885 57.313 773.71 451.808
383 0 82.1862 11.2063 921 57.2856 774.155 450.784
384 1 41.0391 9.74681 400 57.965 773.828 469.982
385 0 42.0466 10.7738 453 55.9249 774.757 470.823
386 0 43.0158 10.717 461 55.6898 774.367 470.683
387 0 43.0584 10.3813 447 56.4989 774.034 468.526
388 0 44.0105 10.5202 463 56.486 773.445 468.026
389 0 46.043 10.0558 463 56.9806 773.359 467.886
390 0 49.0836 10.3293 507 56.8126 773.68 467.314
391 0 50.0364 10.7322 537 56.4693 773.674 467.585
392 0 52.0316 10.7819 561 55.959 774.078 467.03
393 0 50.0637 10.9261 547 56.7404 773.474 466.559
394 0 53.0314 10.5975 562 57.427 773.578 463.975
395 0 55.0353 10.8294 596 57.203 774.143 463.232
396 0 59.0304 10.5031 620 57.0387 774.073 463.476
397 0 60.0342 10.7938 648 56.6574 773.113 461.687
398 0 58.035 10.9072 633 57.7836 773.128 460.905
399 0 62.0669 11.2782 700 56.5786 772.969 460.383
400 0 64.0945 11.4362 733 56.0327 772.726 460.229
401 0 65.0653 11.1734 727 56.9491 774.062 458.586
402 0 67.0536 11.9904 804 55.4838 774.121 459.085
403 0 68.0314 11.1566 759 57.004 774.038 455.81
404 0 71.1032 11.4903 817 56.2093 774.081 453.803
405 0 73.1063 11.8047 863 55.6721 773.841 452.579
406 0 75.1143 11.1696 839 56.1049 773.548 452.85
407 1 35.0897 9.74644 342 56.1608 774.257 471.789
408 0 37.087 9.59904 356 56.4326 774.101 471.393
409 0 36.0508 10.402 375 55.808 773.376 472.013
410 0 41.0642 9.83826 404 55.6708 774.089 471.097
411 0 39.0633 10.5726 413 56.276 774.019 470.45
412 0 39.013 10.7913 421 56.5748 774.045 470.221
413 0 42.0513 10.4872 441 56.3265 774.195 470.272
414 0 43.0288 10.3651 446 57.5269 774.15 468.57
415 0 44.0864 11.364 501 56.5569 774.507 468.617
416 0 47.1063 10.3596 488 57.4242 774.357 466.877
417 0 44.0396 11.4215 503 57.7177 775.252 467.082
418 0 49.0873 10.3693 509 57.9902 775.03 465.271
419 0 51.0629 10.6535 544 57.546 774.63 466.096
420 0 48.1676 11.8129 569 57.3497 775 465.51
421 0 52.1216 11.3772 593 57.3288 774.029 463.73
422 0 56.1534 11.2371 631 56.9509 774.629 464.219
423 0 56.0752 11.2884 633 57.4329 775.044 462.005
424 0 57.1551 11.1101 635 57.748 774.854 462.18
425 0 58.0776 11.3125 657 58.032 774.825 461.072
426 0 58.0365 11.5961 673 58.6018 774.984 460.522
427 0 61.1736 11.5409 706 58.7861 774.882 458.14
428 0 61.1412 10.7129 655 60.916 774.965 457.124
429 0 64.0641 11.348 727 60.0839 775.426 455.878
430 0 66.0616 11.2471 743 60.6676 774.777 454.495
431 0 69.0892 11.6082 802 59.7718 774.904 454.941
432 0 71.1793 10.9442 779 61.2555 775.56 452.95
433 0 72.0593 11.2407 810 61.2037 775.706 451.569
434 0 75.1011 11.4912 863 60.9444 775.26 451.882
435 0 78.157 11.1698 873 61.2875 775.278 449.45
436 0 81.0745 11.0886 899 61.7241 774.964 448.856
437 1 103.092 12.7071 1310 53.2466 775.179 455.285
438 1 82.0898 10.854 891 62.2593 776.006 449.213
439 0 83.0662 10.7144 890 63.2124 775.455 447.712
440 0 82.1224 11.2393 923 62.6696 775.148 447.804
441 1 44.0147 10.8827 479 63.2526 774.689 466.656
442 0 45.0205 11.5503 520 61.9173 775.069 466.733
443 0 47.0228 11.2924 531 61.9153 774.953 468.429
444 0 49.0289 10.9935 539 62.5213 775.141 466.354
445 0 49.0312 10.8298 531 62.9567 774.693 464.879
446 0 50.0336 11.1325 557 62.5476 774.718 464.932
447 0 54.0304 11.0308 596 61.9228 774.648 466.163
448 0 55.0183 10.7419 591 62.8545 774.242 465.75
449 0 54.1284 11.3619 615 62.0569 774.995 464.187
450 0 57.0749 11.0732 632 61.9589 774.883 463.054
451 0 60.0383 11.1262 668 61.6901 774.102 464.042
452 0 62.0907 11.0806 688 61.4971 774.311 462.799
453 0 64.0523 11.2408 720 61.2264 774.308 463.81
454 0 63.0185 10.5207 663 62.902 774.258 462.825
455 0 66.082 11.3041 747 61.4485 774.252 460.958
456 0 69.1211 11.1688 772 61.1943 773.93 460.791
457 1 37.0072 10.2953 381 60.9134 773.955 476.819
458 0 38.0051 9.78816 372 61.6909 774.102 475.177
459 0 37.0146 10.2392 379 62.3879 773.921 473.433
460 0 39.0545 10.5494 412 61.5194 773.582 472.058
461 0 40.0104 10.4473 418 61.9378 774.304 473.835
462 0 40.0649 10.6327 426 62.3075 773.608 473.197
463 0 43.0418 10.7105 461 61.1345 773.833 473.41
464 0 42.0478 11.1302 468 61.6068 773.583 471.327
465 0 43.0833 11.234 484 61.2087 773.723 470.826
466 0 45.0303 11.1036 500 60.516 773.814 471.274
467 0 47.0319 10.7799 507 61.2327 774.075 469.996
468 0 49.0359 11.461 562 60.1103 774.053 471.025
469 0 51.0476 11.0877 566 59.8852 772.839 469.083
470 0 53.0118 10.0544 533 61.5009 773 467.43
471 0 58.0816 10.864 631 59.0713 772.93 466.761
472 0 58.1344 11.0434 642 58.5171 772.751 466.597
473 0 60.073 11.253 676 57.818 773.225 465.558
474 0 61.151 11.3653 695 57.3108 772.96 465.019
475 0 64.1007 10.8891 698 57.1533 772.219 463.779
476 0 62.0775 11.679 725 56.4745 773.226 463.952
477 0 65.08 11.8009 768 56.1042 772.854 462.294
478 0 69.1472 10.6006 733 56.6398 772.745 460.195
479 0 72.1274 10.939 789 55.5919 773.117 461.209
480 0 71.1142 10.9823 781 55.6722 772.987 459.991
481 0 73.0671 11.51 841 54.8858 772.57 457.288
482 0 80.0816 11.4259 915 53.7497 772.307 457.667
483 0 83.1846 11.4685 954 53.4507 772.617 456.984
484 1 40.0174 10.4704 419 54.5251 771.74 475.232
485 0 41.0376 10.9168 448 53.9978 771.958 475.078
486 0 44.0443 10.6484 469 53.9659 771.629 474.898
487 0 47.0717 10.4734 493 53.8114 772.379 474.099
488 0 47.1346 10.6291 501 54.3992 772.086 472.495
489 0 48.0139 10.976 527 54.5446 772.175 471.765
490 0 49.101 10.6719 524 55.105 771.928 470.954
491 0 51.0729 10.3577 529 55.4518 771.679 468.86
492 0 48.1561 10.0091 482 57.4253 771.353 466.334
493 0 54.0831 10.5578 571 55.6988 770.902 465.716
494 0 56.0638 10.3275 579 55.639 771.207 465.967
495 0 58.1446 10.6287 618 55.1472 771.599 465.194
496 0 62.0524 10.9585 680 54.3779 771.3 463.518
497 0 61.1089 10.6204 649 55.0894 771.271 461.607
498 0 65.0268 11.2108 729 54.0782 771.483 461.078
499 0 66.1006 10.5143 695 54.6978 771.728 458.719
500 0 69.1183 11.3429 784 52.4515 771.578 458.676
501 0 73.1344 11.0892 811 52.4254 771.674 456.15
502 0 75.0794 11.3347 851 51.5029 772.282 455.338
503 0 78.0945 11.8446 925 50.3146 772.335 456.457
504 0 79.0944 11.5179 911 50.6904 771.857 453.642
505 0 80.0885 12.2365 980 49.8459 771.819 452.645
506 0 86.1049 11.7299 1010 49.3584 771.557 451.585
507 0 91.0775 10.8479 988 50.0182 771.604 450.63
508 0 88.2392 11.9788 1057 50.0719 771.684 448.948
509 0 86.1235 10.4037 896 52.1942 772.112 450.047
510 1 45.0973 10.3332 466 50.3476 772.661 468.788
511 0 49.0563 10.5797 519 49.6435 773.039 468.963
512 0 48.0814 10.5862 509 50.5088 773.041 467.33
513 0 49.0935 10.6328 522 50.5211 772.391 466.502
514 0 54.024 10.4953 567 49.9735 772.328 466.141
515 0 54.0139 11.0712 598 49.8311 772.843 463.597
516 0 55.0404 11.2281 618 49.6327 773.036 463.655
517 0 57.0362 11.2735 643 48.7543 773.46 463.485
518 0 61.0539 10.5808 646 49.6858 773.604 461.661
519 0 62.0965 11.5948 720 48.2306 773.71 462.628
520 0 64.1112 11.0901 711 49.2574 773.056 459.658
521 0 64.0509 11.5065 737 49.0855 772.784 460.022
522 0 67.0445 11.6191 779 48.3967 772.886 458.141
523 0 71.169 11.2128 798 48.8484 773.179 454.098
524 0 72.0318 11.1756 805 49.2571 773.236 453.056
525 0 74.2075 11.2118 832 49.3329 773.522 452.175
526 0 76.138 11.1771 851 49.0458 773.518 451.167
527 0 81.0958 11.5789 939 48.0501 772.848 449.752
528 0 83.1026 11.1549 927 49.0734 774.13 448.235
529 0 83.1207 11.3931 947 49.3844 774.055 448.063
530 0 88.074 11.7742 1037 48.6017 773.742 448.421
531 0 90.0841 11.9 1072 48.6269 773.841 448.82
532 0 95.1237 10.7229 1020 49.3549 774.256 444.674
533 0 97.1507 10.8285 1052 49.5894 774.045 443.34
534 0 98.2814 11.5993 1140 48.8193 773.879 443.298
535 1 51.1188 10.0354 513 48.9123 773.819 467.712
536 0 52.0837 10.5599 550 48.1927 774.125 466.771
537 0 53.0848 10.9071 579 48.3282 773.986 464.459
538 0 57.1664 10.968 627 47.4115 773.86 463.922
539 0 58.1215 10.4436 607 49.3048 773.677 462.778
540 0 60.1649 10.438 628 49.2564 773.196 464.396
541 0 61.141 10.9092 667 48.4828 773.591 461.7
542 0 63.0924 11.0314 696 47.6121 773.764 463.177
543 0 65.1405 10.6999 697 47.9914 772.948 460.775
544 0 63.1574 11.0676 699 48.1917 772.761 460.172
545 0 67.3093 10.8752 732 48.2281 772.65 458.529
546 0 69.2062 11.5452 799 47.2541 772.778 459.836
547 0 70.2342 10.7355 754 48.8183 773.841 459.867
548 0 72.1129 11.6484 840 47.8131 773.37 457.32
549 0 73.1301 11.2813 825 54.1612 772.965 455.324
550 0 77.2019 11.5153 889 53.1991 773.409 455.723
551 0 78.1412 11.3896 890 53.2584 772.9 452.956
552 1 43.0156 8.8805 382 53.6675 772.992 472.071
553 0 42.0183 9.73386 409 53.6357 771.863 470.073
554 0 44.015 10.2238 450 53.5044 771.227 470.693
555 0 46.0272 9.7551 449 54.1136 771.586 469.878
556 0 47.0511 10.6905 503 52.9702 772.02 470.519
557 0 49.0874 10.4711 514 51.072 772.076 470.329
558 0 50.0579 10.348 518 51.8822 772.519 467.844
559 0 51.054 10.1069 516 52.3469 772.545 466.027
560 0 52.177 10.9435 571 51.5359 773.033 466.841
561 0 54.0674 10.6164 574 52.5174 773.594 466.418
562 0 53.1422 10.6695 567 53.6843 772.746 463.735
563 0 57.0698 11.0216 629 52.5755 773.49 465.606
564 0 57.143 11.0775 633 53.2085 773.515 463.87
565 0 62.1184 10.5283 654 53.656 772.745 463.355
566 0 59.0775 11.0025 650 54.1015 773.28 460.78
567 0 62.0324 11.3973 707 53.0156 773.676 461.918
568 0 62.0652 11.2462 698 53.8754 773.35 460.009
569 0 66.119 11.1919 740 55.4622 774.209 461.004
570 0 67.0987 12.1016 812 54.2081 773.525 458.936
571 0 68.068 11.4591 780 53.6231 772.79 458.712
572 0 70.1441 11.4764 805 55.0944 773.332 456.658
573 0 71.0896 11.0705 787 54.7586 772.798 455.686
574 0 73.056 11.1011 811 54.836 773.391 454.973
575 1 39.0186 9.99522 390 54.2 773.264 471.969
576 0 42.0578 9.46316 398 54.6583 773.975 470.829
577 0 43.0837 10.0502 433 55.418 773.704 469.63
578 0 46.0329 9.55837 440 55.3114 774.05 468.7
579 0 47.0558 10.3069 485 54.6289 773.656 469.326
580 0 46.0189 10.952 504 55.3849 773.607 468.853
581 0 48.1131 11.0781 533 55.4916 773.752 467.854
582 0 49.0813 10.9818 539 55.8275 774.28 467.705
583 0 52.1826 10.3483 540 56.4296 774.07 465.361
584 0 54.0752 11.0772 599 55.7746 774.147 464.641
585 0 54.0284 11.4569 619 55.706 774.312 463.477
586 0 55.04 11.2645 620 55.9564 774.803 463.618
587 0 58.1259 11.1482 648 56.4275 774.313 462.799
588 0 59.0254 10.8767 642 56.9984 774.109 461.086
589 0 60.0595 11.4054 685 56.1445 774.05 459.702
590 0 62.0535 11.345 704 56.1236 774.227 458.913
591 0 64.0819 11.6726 748 54.9933 774.438 457.139
592 0 66.0465 11.2951 746 56.2131 773.519 456.421
593 0 68.1434 12.0481 821 55.4482 774.097 456.667
594 0 69.1499 11.1497 771 56.5629 774.328 454.175
595 0 70.1314 11.4357 802 55.5349 774.19 453.575
596 0 74.0372 11.6158 860 54.3919 774.769 453.756
597 0 76.1256 11.2709 858 54.8357 774.431 451.345
598 0 78.1157 11.7006 914 53.7998 775.03 450.417
599 0 81.106 11.8117 958 53.6858 774.554 448.595
600 1 46.0114 8.97604 413 55.5085 774.864 468.027
601 0 47.046 10.0115 471 53.8471 774.716 466.648
602 0 47.0207 10.506 494 53.9494 774.834 468.472
603 0 48.0548 10.3632 498 56.0522 774.504 465.49
604 0 50.0589 10.4077 521 54.3378 774.056 464.042
605 0 50.0375 11.4514 573 53.377 773.59 464.375
606 0 54.0232 10.7731 582 54.555 774.117 461.832
607 0 56.04 10.9921 616 52.5503 774.917 463.5
608 0 56.0555 11.5957 650 52.0231 774.032 461.511
609 0 60.0492 11.0243 662 52.5076 774.314 461.566
610 0 59.0313 11.7734 695 51.977 774.237 459.711
611 0 59.0206 11.7755 695 52.4317 774.558 459.435
612 0 62.0885 11.7574 730 51.5795 774.158 457.579
613 0 66.0324 11.6004 766 50.9791 774.898 456.255
614 0 66.0462 11.8705 784 50.9158 775.304 456.245
615 1 95.1612 10.9078 1038 45.2052 774.712 458.371
616 1 72.0288 11.0789 798 50.7794 774.152 453.237
617 0 74.0691 11.4488 848 49.796 774.502 451.337
618 0 76.187 11.1961 853 49.6882 775.688 453.103
619 0 78.092 11.8706 927 49.2578 774.839 449.574
620 0 79.0655 11.7624 930 49.6968 774.13 449.111
621 0 84.1448 11.4446 963 49.8432 774.211 447.49
622 0 83.2087 12.0901 1006 49.4274 774.187 448.577
623 1 46.0927 9.50258 438 50.5868 773.966 466.372
624 0 48.1219 10.037 483 50.205 773.172 464.306
625 0 48.0512 10.0726 484 52.0248 773.525 464.996
626 0 47.1182 11.0997 523 50.7419 773.459 464.21
627 0 50.0813 10.8424 543 50.7753 773.173 463.573
628 0 53.0389 10.6337 564 50.2252 773.484 464.869
629 0 55.1055 11.0152 607 49.7743 773.252 464.269
630 0 55.0353 10.2661 565 51.1558 774 464.103
631 0 56.0763 10.8602 609 50.578 773.378 463.747
632 0 58.1102 10.6694 620 51.0226 773.764 462.818
633 0 59.034 11.0784 654 50.5168 773.378 462.924
634 0 60.1059 11.3466 682 50.6188 773.384 462.138
635 0 61.0218 11.1927 683 51.0102 773.517 461.643
636 0 65.047 11.0997 722 50.2368 774.011 459.812
637 0 66.1052 11.2397 743 50.1104 773.594 460.724
638 0 68.0942 11.0876 755 50.0079 773.717 459.791
639 0 72.067 11.1008 800 49.4412 773.186 458.384
640 0 75.073 11.0692 831 48.8424 772.298 458.132
641 0 73.2823 10.7393 787 50.1944 773.109 456.084
642 0 74.1093 10.4305 773 51.2147 773.069 454.295
643 0 78.1391 11.5051 899 49.4972 773.861 456.199
644 0 80.1776 11.6616 935 48.738 772.345 452.203
645 0 83.1565 11.316 941 48.9277 773.414 450.933
646 0 87.1472 11.8076 1029 48.171 772.943 449.921
647 0 89.1329 11.5109 1026 48.5302 773.321 449.639
648 1 45.0945 10.4891 473 47.5539 772.56 471.45
649 0 45.0703 10.65 480 47.675 773.483 469.446
650 0 50.1083 10.3975 521 47.334 772.555 470.29
651 0 49.1717 11.2667 554 46.6823 772.653 470.547
652 0 50.0471 11.5291 577 47.104 773.378 470.095
653 0 54.0763 10.2818 556 47.7014 773.158 467.75
654 0 55.0842 10.6201 585 47.7709 773.272 467.798
655 0 55.0329 11.1933 616 47.3263 773.362 467.805
656 0 57.0777 10.4594 597 48.0168 772.9 467.62
657 0 57.1449 11.5846 662 47.5619 773.275 468.174
658 0 59.1072 11.1831 661 48.174 773.433 467.608
659 0 62.0677 10.9558 680 48.6235 772.698 464.624
660 0 60.0551 11.0399 663 49.6983 773.516 465.05
661 0 63.1487 11.4967 726 49.4215 773.573 463.161
662 0 64.1374 11.5689 742 49.4838 773.619 462.706
663 0 67.278 11.8315 796 48.8015 772.771 462.265
664 0 69.1633 10.9307 756 49.881 772.771 460.659
665 0 74.1727 10.8531 805 49.6745 772.929 459.184
666 0 73.0738 11.2078 819 49.5348 772.913 458.404
667 0 76.1173 11.5348 878 48.7278 772.58 457.227
668 0 81.2325 11.264 915 49.0273 772.418 456.672
669 0 82.2002 11.0219 906 49.4547 771.69 455.854
670 0 83.2632 11.5177 959 49.0907 772.516 455.417
671 0 85.1973 11.6553 993 49.1229 772.331 455.185
672 1 48.1108 10.8292 521 47.9251 772.14 474.676
673 0 49.1187 10.9123 536 48.2407 771.162 472.55
674 0 49.1022 10.5902 520 49.1615 771.387 471.725
675 0 52.0149 10.9007 567 49.0282 771.695 471.002
676 0 51.047 10.8527 554 49.9458 772.056 469.305
677 0 54.0666 11.5783 626 48.8802 771.026 468.093
678 0 53.1368 10.9905 584 50.714 770.671 466.995
679 0 57.0271 11.0123 628 50.25 770.919 466.639
680 0 59.0474 11.3637 671 50.0492 771.152 466.161
681 0 59.0529 10.7869 637 51.5447 771.51 463.413
682 0 62.089 10.7748 669 51.8042 771.416 462.786
683 0 63.1033 11.4891 725 51.1103 771.909 464.07
684 0 66.1183 11.0862 733 51.6903 771.688 462.764
685 0 68.0406 10.6554 725 52.0345 771.284 459.952
686 0 68.0878 11.6027 790 51.1152 771.713 460.673
687 0 69.0996 11.2012 774 52.1537 772.146 458.5
688 0 74.1123 11.4016 845 51.3917 772.664 457.953
689 0 73.1019 11.6686 853 51.9238 772.415 455.651
690 0 79.0873 11.3419 897 51.4381 772.316 453.392
691 0 80.087 11.6998 937 51.2198 772.402 452.306
692 0 80.0351 11.7199 938 52.0107 772.552 450.366
693 1 45.0385 9.94705 448 52.6875 772.288 467.808
694 0 47.0692 10.8563 511 51.1076 772.865 468.008
695 0 48.0689 10.485 504 52.4425 772.827 465.399
696 0 51.087 11.5098 588 50.7279 773.784 466.474
697 0 53.1003 10.7721 572 51.7727 773.033 465.131
698 0 53.0398 11.0106 584 52.0565 773.113 462.344
699 0 57.0981 11.2088 640 51.6547 773.042 465.175
700 0 56.0201 11.5673 648 52.3873 773.164 463.818
701 0 59.157 11.5287 682 52.2625 772.444 462.717
702 0 60.1012 12.063 725 51.269 772.868 462.64
703 0 61.1978 11.569 708 52.6921 773.441 460.388
704 0 64.1513 11.9717 768 51.3138 772.84 458.846
705 0 64.0939 11.9356 765 51.8314 773.025 458.489
706 0 69.1814 11.8818 822 51.163 773.612 456.938
707 0 68.1068 11.805 804 52.1269 773.867 453.822
708 0 72.1755 12.0124 867 51.2641 773.6 455.264
709 0 75.1445 11.418 858 51.2925 773.886 455.147
710 0 75.0771 11.9078 894 51.1667 773.559 451.263
711 0 78.1295 11.8393 925 51.1005 773.028 449.469
712 0 84.1534 11.0869 933 51.2026 773.094 448.706
713 0 82.191 11.6193 955 50.912 773.286 446.664
714 1 44.0269 10.062 443 51.2957 773.293 466.625
715 0 47.1088 10.3802 489 50.6503 773.791 466.342
716 0 48.1141 10.7453 517 50.0658 774.25 465.099
717 0 53.1327 10.5585 561 49.0053 774.421 465.519
718 0 51.0373 10.6589 544 49.1562 774.329 462.862
719 0 53.0313 10.4844 556 49.473 774.209 463.201
720 0 56.086 10.8583 609 48.8456 774.619 462.312
721 0 57.0396 11.3781 649 49.4561 774.844 461.334
722 0 59.0724 11.2066 662 49.1934 774.568 461.459
723 0 63.0664 11.3214 714 48.3754 774.249 459.244
724 0 64.1366 11.2105 719 48.6676 773.971 461.028
725 0 64.0948 11.3582 728 48.967 774.087 459.076
726 0 66.1471 11.7465 777 48.4247 774.777 458.974
727 0 66.103 11.3762 752 49.0053 775.229 459.25
728 0 66.1115 11.4503 757 49.3989 774.886 458.283
729 0 70.1012 11.6974 820 48.7561 775.476 458.396
730 0 73.0858 11.4249 835 48.7557 774.932 457.831
731 0 73.064 11.661 852 48.77 775.035 456.123
732 0 75.1376 11.2061 842 49.3717 774.582 455.972
733 0 78.1545 11.7076 915 48.8284 774.375 454.156
734 0 80.1874 11.735 941 48.7832 774.744 451.46
735 0 84.1189 11.8879 1000 48.635 774.7 452.046
736 0 85.1564 11.8018 1005 49.209 774.487 450.417
737 1 49.1024 10.753 528 49.0455 773.956 469.724
738 0 51.0336 10.209 521 50.2553 774.188 466.292
739 0 52.1422 11.0084 574 50.1359 774.05 467.082
740 0 54.0462 10.8981 589 50.893 774.45 465.778
741 0 55.0892 11.2363 619 50.1212 774.481 464.763
742 0 58.0411 10.7338 623 51.1188 773.867 463.146
743 0 59.0366 11.6368 687 50.5458 774.066 462.355
744 0 60.0911 11.4826 690 50.8449 773.841 460.475
745 0 64.0272 10.9485 701 51.9101 774.322 458.073
746 0 68.1194 11.333 772 50.8459 774.696 459.526
747 0 66.0598 11.1414 736 51.9307 774.959 458.133
748 0 66.1234 11.5088 761 52.4796 774.289 456.045
749 0 69.09 11.8975 822 51.629 775.236 454.966
750 0 72.1583 12.5696 907 50.8214 774.97 452.632
751 0 75.0967 12.8102 962 50.2817 774.77 455.991
752 0 80.0823 11.6006 929 51.1098 774.294 454.192
753 0 78.1799 11.7294 917 51.4111 774.86 451.443
754 0 79.0767 11.9251 943 51.4369 774.38 448.267
755 0 83.1012 12.4908 1038 50.1214 774.502 448.564
756 0 86.0875 11.9646 1030 50.6116 774.146 446.776
757 0 90.1936 12.0075 1083 50.0092 774.294 444.379
758 0 92.2481 12.3688 1141 49.2971 773.806 444.149
759 0 97.1612 12.083 1174 49.5017 774.51 442.544
760 0 101.199 12.2828 1243 49.0829 775.06 439.391
761 1 51.1061 10.625 543 49.9834 774.206 462.352
762 0 55.0554 10.9708 604 49.6225 773.965 463.185
763 0 60.0987 11.0485 664 49.0361 774.614 461.633
764 0 56.1633 11.3063 635 49.7858 774.302 459.939
765 0 58.0587 11.5228 669 50.2377 775.16 459.472
766 0 61.0547 11.6453 711 50.1111 774.606 458.64
767 0 62.0851 11.3071 702 50.7635 774.932 458.091
768 0 63.0683 11.7967 744 51.0645 774.937 457.073
769 0 64.0646 12.2064 782 50.8568 775.155 456.558
770 0 66.0647 11.8369 782 51.6637 774.592 455.004
771 0 69.0356 12.3849 855 50.7287 774.984 453.724
772 0 70.099 12.4253 871 51.5832 775.055 452.905
773 0 74.0588 13.1112 971 50.7312 773.971 452.717
774 0 75.1244 12.5925 946 51.6723 774.632 451.622
775 0 77.1032 12.4379 959 52.3962 774.204 449.108
776 0 80.0887 12.7733 1023 52.0381 774.763 449.701
777 0 83.1671 12.4087 1032 53.2704 775.367 448.135
778 0 86.1472 12.8965 1111 52.7129 775.287 449.005
779 0 87.1509 12.7021 1107 54.1147 774.459 447.225
780 0 89.2554 13.2653 1184 53.5769 774.953 446.821
781 0 92.1107 12.7781 1177 54.5981 774.858 445.372
782 0 95.1634 12.778 1216 54.921 774.851 442.729
783 0 96.1697 12.7275 1224 55.7712 774.287 441.258
784 0 101.178 13.066 1322 55.3525 774.616 440.934
785 0 104.142 13.0783 1362 55.5125 774.781 439.918
786 0 106.1 13.0066 1380 56.3797 774.803 438.882
787 0 111.186 12.6274 1404 57.2358 774.816 436.662
788 1 56.0956 10.5891 594 56.9748 774.724 464.769
789 0 57.1244 10.4684 598 58.2174 773.975 463.559
790 0 61.0666 10.7751 658 56.9696 774.663 464.608
791 0 59.055 11.4131 674 57.3561 773.497 461.631
792 0 62.1176 11.6392 723 56.4772 774.642 461.743
793 0 64.0641 11.9568 766 56.0705 774.313 463.334
794 0 67.0561 11.7514 788 55.9239 774.477 461.765
795 0 69.0612 11.6129 802 56.6958 774.138 460.68
796 0 70.0493 11.3492 795 57.3786 774.152 460.208
797 0 69.0586 11.9898 828 57.6316 773.839 458.43
798 0 72.1219 11.7717 849 57.53 773.878 456.563
799 0 77.1051 11.828 912 57.2972 774.181 454.887
800 0 77.1088 11.5421 890 59.2135 774.107 455.043
801 0 80.1016 12.1346 972 57.8971 774.419 453.443
802 0 80.1388 11.817 947 59.1721 774.017 451.945
803 0 84.1427 12.3362 1038 58.3102 773.139 450.124
804 0 87.0536 11.4297 995 59.6201 772.814 450.988
805 0 89.1213 12.0173 1071 59.0028 772.499 449.824
806 0 93.0476 11.9294 1110 58.9306 772.701 447.315
807 0 97.0698 11.7647 1142 59.5438 773.03 446.956
808 0 98.1481 11.2381 1103 60.4479 772.883 444.436
809 0 101.064 11.7351 1186 59.7133 772.389 442.675
810 1 55.0683 10.5505 581 58.3253 772.85 465.991
811 0 54.0084 10.9983 594 58.9141 772.586 464.948
812 0 57.1912 11.0856 634 58.1483 773.036 464.554
813 0 56.0446 10.5809 593 60.2125 773.368 463.531
814 0 62.0429 10.2671 637 58.6578 772.794 462.962
815 0 62.0738 10.6808 663 58.086 773.365 461.544
816 0 64.0854 10.7513 689 58.1509 773.676 460.025
817 0 68.0819 10.6783 727 57.8088 774.058 460.026
818 0 68.0465 10.9043 742 57.9434 773.685 458.454
819 0 69.0984 10.8396 749 58.3324 773.583 457.864
820 0 72.061 11.3237 816 57.2794 773.692 458.507
821 0 71.1853 10.9433 779 58.6162 774.006 454.932
822 0 75.1389 11.0861 833 58.1813 774.384 454.115
823 0 78.0434 11.5577 902 57.5011 774.358 452.212
824 0 80.1287 11.4191 915 57.8415 774.588 452.837
825 0 84.0825 11.453 963 57.6687 774.859 452.333
826 0 84.0799 11.1561 938 59.2623 774.277 448.069
827 0 90.1581 11.5797 1044 57.8151 774.898 449.466
828 0 91.1708 11.3852 1038 58.5877 775.267 447.75
829 0 91.1909 11.7994 1076 58.2342 775.598 448.165
830 0 97.1905 11.3283 1101 58.5804 774.782 445.462
831 1 50.1471 10.0903 506 58.1956 775.874 467.073
832 0 50.0493 10.3897 520 58.1404 775.094 465.727
833 0 53.1057 10.3944 552 57.8478 775.687 465.045
834 0 52.059 11.3525 591 57.3046 776.411 466.046
835 0 55.039 11.3011 622 56.0209 776.22 465.781
836 0 56.088 10.751 603 57.6501 775.71 463.095
837 0 58.0585 10.4894 609 58.248 775.309 463.002
838 0 58.0828 11.432 664 57.3313 774.666 463.316
839 0 62.1754 11.0815 689 57.4224 775.585 462.18
840 0 61.0566 11.6941 714 57.6471 776.008 462.706
841 0 66.0784 11.0626 731 57.8523 775.167 460.691
842 0 67.0592 10.9456 734 57.7589 774.956 459.218
843 0 67.1942 11.7272 788 56.9505 774.929 458.019
844 0 68.072 11.5172 784 58.0319 775.112 458.626
845 0 69.0901 12.0278 831 56.9483 775.123 458.256
846 0 71.0916 11.7313 834 57.2806 775.038 457.558
847 0 75.0432 11.8998 893 56.86 774.795 457.588
848 0 77.1119 12.3716 954 56.1174 775.295 456.934
849 0 79.1199 12.3736 979 56.2257 775.591 455.289
850 0 81.0848 12.1478 985 56.7096 775.063 453.559
851 0 83.1278 12.3184 1024 56.5518 774.068 453.435
852 0 86.0674 11.8976 1024 56.958 773.891 451.848
853 0 90.1902 12.019 1084 57.3109 773.809 450.918
854 0 91.1805 12.2175 1114 57.5592 774.512 450.446
855 0 93.239 12.2374 1141 57.979 773.727 448.393
856 1 52.0534 10.2971 536 58.3078 773.494 469.797
857 0 52.0128 10.632 553 58.3038 773.774 467.371
858 0 53.0655 11.2126 595 58.4437 774.118 467.654
859 0 54.1168 10.3849 562 60.3808 773.774 465.109
860 0 60.0822 11.5009 691 56.9363 773.533 464.74
861 0 58.08 12.1384 705 57.2099 772.945 464.549
862 0 61.0389 12.1398 741 56.3063 773.15 465.045
863 0 62.0569 12.2468 760 55.9579 774.099 464.293
864 0 66.0996 12.1181 801 55.5843 773.439 461.978
865 0 67.0712 12.1065 812 55.803 772.865 461.819
866 0 70.0434 12.0068 841 55.7336 772.853 460.918
867 0 70.1019 13.0667 916 54.2795 774.044 459.176
868 0 70.0812 12.5569 880 55.4386 772.943 458.212
869 0 73.0644 12.8791 941 54.2455 772.72 458.281
870 0 76.1164 12.6911 966 54.2184 772.651 457.273
871 0 78.0855 12.6528 988 54.2399 772.898 453.679
872 0 78.1037 11.8176 923 55.5937 772.922 451.519
873 0 81.0591 12.4971 1013 54.6693 773.052 451.782
874 0 87.1135 12.6731 1104 53.6368 772.565 450.86
875 1 45.1066 10.708 483 56.9482 772.692 468.375
876 0 49.0321 10.7888 529 56.2741 772.956 468.072
877 0 50.0859 11.1009 556 56.6295 773.259 467.45
878 0 52.0514 11.3734 592 56.6402 773.286 467.059
879 0 52.0545 12.218 636 56.1557 772.926 466.719
880 0 54.0371 12.3989 670 55.8985 773.746 463.993
881 0 56.0261 12.28 688 55.8983 772.927 464.286
882 0 56.0444 12.2046 684 56.8991 773.38 463.205
883 0 58.0623 12.0216 698 57.394 773.483 462.145
884 0 61.1286 11.6149 710 57.6577 773.507 461.99
885 0 63.0755 12.1442 766 56.8198 773.567 460.125
886 0 63.0296 12.3751 780 57.2833 773.922 461.42
887 0 64.0607 12.4726 799 57.5244 773.244 460.666
888 0 65.1022 13.2714 864 56.8194 773.584 459.848
889 0 71.0821 12.8302 912 56.4123 773.643 458.475
890 0 70.0617 13.1455 921 57.0804 773.374 458.074
891 0 72.0882 12.5541 905 58.3127 773.56 456.532
892 0 74.0718 13.3114 986 57.8073 774.158 454.905
893 0 74.1525 12.1372 900 60.5922 773.974 453.143
894 0 76.0794 12.3555 940 60.8957 773.774 452.804
895 0 82.0757 12.6469 1038 60.3208 774.021 454.137
896 0 80.108 13.2446 1061 61.0047 773.851 450.895
897 0 85.0535 12.7919 1088 61.9393 774.476 450.493
898 0 86.1029 13.449 1158 61.7168 773.757 450.613
899 0 88.0897 13.2706 1169 62.6886 773.678 448.771
900 0 90.1546 13.1441 1185 62.8962 774.24 449.735
901 0 93.0562 12.9384 1204 64.4676 774.193 447.073
902 0 93.0712 12.8074 1192 65.7643 774.099 445.479
903 0 96.0948 12.7999 1230 66.3081 774.226 443.687
904 1 53.1161 11.842 629 67.7838 773.669 466.927
905 0 53.0668 11.5892 615 68.6211 775.089 465.629
906 0 55.0539 12.3334 679 67.8233 774.918 465.465
907 0 55.0437 12.3357 679 69.2356 775.524 463.946
908 0 59.0381 11.8906 702 68.9473 774.442 465.151
909 0 61.1065 11.9791 732 68.668 774.571 463.713
910 0 60.0897 11.6659 701 70.3952 774.765 465.224
911 0 61.051 12.7926 781 69.799 774.232 464.301
912 0 65.1011 12.5344 816 69.2463 774.495 462.844
913 0 65.1188 12.9149 841 69.5589 774.259 461.379
914 0 67.115 12.3072 826 70.7639 773.971 461.443
915 0 67.048 12.4239 833 71.7683 774.024 460.432
916 0 73.1118 12.816 937 69.8645 773.781 459.298
917 0 77.0709 12.4042 956 70.841 773.995 457.945
918 0 77.1059 12.8524 991 70.7054 774.374 457.947
919 0 78.0932 12.4339 971 72.1668 773.716 456.706
920 0 80.0348 12.3696 990 72.4384 773.445 454.675
921 0 83.0336 12.4528 1034 72.3926 774.043 454.314
922 0 83.0369 12.356 1026 73.6238 774.334 452.902
923 0 85.0465 12.6989 1080 73.3917 774.131 451.635
924 0 87.0697 12.7369 1109 73.1686 774.05 447.976
925 0 89.1089 13.029 1161 73.0456 773.478 448.426
926 0 94.1258 13.1951 1242 72.244 773.744 447.403
927 0 95.0366 13.0897 1244 72.6174 773.95 447.026
928 1 46.0142 12.1267 558 73.3369 773.701 469.199
929 0 48.0326 11.284 542 74.6033 774.065 468.103
930 0 51.0274 11.6604 595 73.1479 774.114 468.032
931 0 51.0184 11.8193 603 72.9121 772.964 467.766
932 0 53.0989 11.6387 618 73.2152 774 466.95
933 0 55.0928 12.1613 670 72.0582 773.361 465.943
934 0 57.0614 12.0221 686 71.2522 773.904 466.337
935 0 59.104 12.2327 723 71.0138 773.804 465.212
936 0 61.0707 12.2481 748 70.8489 773.636 464.066
937 0 62.042 12.0563 748 71.5829 773.767 464.108
938 0 66.133 11.4618 758 72.0079 773.545 462.439
939 0 65.0656 11.6037 755 72.404 774.381 459.98
940 0 69.0861 11.9706 827 71.1499 774.78 458.366
941 0 73.0618 11.9625 874 70.5595 774.606 459.255
942 0 76.0895 12.0253 915 70.6317 774.716 456.816
943 0 77.1487 11.8602 915 71.718 774.864 457.203
944 0 78.2187 12.7207 995 70.2563 774.745 457.232
945 0 82.0576 12.1866 1000 70.902 774.244 454.531
946 0 85.1154 11.6548 992 72.3054 774.118 451.177
947 0 84.164 12.4638 1049 71.7607 774.024 451.903
948 1 47.0581 11.0289 519 72.2004 773.809 470.054
949 0 48.0724 11.4411 550 72.3091 774.071 470.911
950 0 48.06 11.3816 547 72.8629 774.285 468.373
951 0 52.0407 10.8184 563 72.1918 775.21 466.597
952 0 53.0967 11.1118 590 71.8475 774.258 466.356
953 0 56.1087 11.4242 641 70.741 774.284 467.401
954 0 57.0393 10.6067 605 72.9769 774.302 464.997
955 0 58.0471 11.6974 679 71.0619 774.252 465.773
956 0 62.1132 11.8654 737 69.9322 774.669 465.151
957 0 60.1036 11.7963 709 71.0338 774.69 463.456
958 0 65.1189 11.3331 738 72.0948 774.386 459.885
959 0 65.1438 12.0963 788 71.5216 775.331 461.365
960 0 69.0858 12.4338 859 70.3877 774.82 459.594
961 0 70.0573 12.447 872 71.0367 774.759 459.243
962 0 72.0584 11.9486 861 72.705 774.076 458.101
963 0 75.1063 11.5037 864 73.1655 775.031 456.632
964 0 77.1615 11.4306 882 73.7823 774.893 455.207
965 0 78.0877 11.7176 915 74.1672 774.381 453.49
966 0 80.0437 11.6436 932 75.1416 774.691 451.137
967 0 81.0734 12.2112 990 74.1101 774.15 453.75
968 0 84.0864 11.5239 969 75.1455 774.31 451.462
969 1 164.233 12.2082 2005 72.801 774.011 414.536
970 0 170.3 12.7364 2169 71.8944 774.426 413.2
971 0 181.174 12.2148 2213 72.7085 774.73 411.198
972 0 178.124 12.2106 2175 73.4791 774.699 408.86
973 0 181.175 12.292 2227 73.1603 774.506 407.904
974 0 183.225 11.8925 2179 73.1923 774.391 404.802
975 0 190.228 12.4587 2370 72.8017 774.49 404.637
976 0 196.252 11.5362 2264 74.367 775.153 398.464
977 0 200.16 12.55 2512 72.7396 774.464 398.802
978 1 187.251 12.1762 2280 75.0469 774.908 403.463
979 1 130.171 11.6923 1522 77.0591 774.414 431.026
980 0 135.097 11.947 1614 76.2187 775.695 430.747
981 1 70.0395 11.6648 817 75.7503 775.601 460.474
982 0 69.0419 12.2389 845 75.458 775.09 459.592
983 0 72.0384 11.9381 860 75.8046 774.629 459.484
984 0 74.17 12.35 916 75.5186 774.206 460.123
985 0 77.087 11.9605 922 75.7039 774.489 456.755
986 0 80.0672 12.0274 963 74.8775 774.636 456.533
987 0 83.0544 12.4858 1037 73.6634 775.01 456.383
988 0 86.1427 12.1891 1050 73.9381 774.334 453.437
989 1 48.0733 11.2952 543 73.4807 773.674 472.208
990 0 51.1317 11.089 567 73.4586 773.995 470.804
991 0 52.0403 11.0299 574 73.9512 774.718 470.678
992 0 54.0282 11.6606 630 72.254 773.954 469.105
993 0 55.0718 11.9299 657 71.0228 774.183 467.225
994 0 58.02 12.3061 714 69.3277 774.214 468.262
995 0 58.1765 12.7887 744 68.4288 773.952 467.673
996 0 61.0637 12.2659 749 68.7089 774.579 465.77
997 0 65.0409 11.685 760 68.05 774.23 462.903
998 0 64.2076 12.2883 789 66.7072 774.88 463.458
999 0 66.0644 12.1397 802 66.8404 774.087 461.905
1000 0 69.0255 12.7344 879 64.752 774.171 462.124
1001 0 70.0231 12.6387 885 64.8836 774.367 459.878
1002 0 75.2399 12.613 949 63.1296 774.398 460.372
1003 0 77.1593 13.2972 1026 61.962 773.633 459.095
1004 0 83.0916 12.6968 1055 61.6768 773.955 457.031
1005 0 83.1081 12.8628 1069 61.4013 773.239 456.111
1006 0 83.0734 12.7237 1057 62.562 773.675 454.845
1007 0 88.0799 11.9664 1054 63.1053 772.994 453.093
1008 0 89.1194 12.8928 1149 61.5204 773.549 451.626
1009 0 93.1135 12.8016 1192 60.7416 773.535 451.824
1010 0 96.0974 12.7891 1229 60.4378 773.83 449.229
1011 0 99.065 13.1833 1306 59.8185 773.824 448.312
1012 0 104.166 12.3649 1288 60.6079 772.718 446.137
1013 0 107.097 12.8202 1373 59.2804 772.127 445.419
1014 0 107.091 13.1663 1410 58.8262 772.448 446.074
1015 0 113.136 13.2406 1498 57.7804 771.815 444.981
1016 0 114.143 13.1765 1504 57.7946 772.299 442.634
1017 0 120.183 13.2049 1587 56.7618 772.753 441.409
1018 0 121.154 13.2559 1606 57.2055 772.772 438.892
1019 0 125.27 13.2274 1657 57.2975 772.042 436.876
1020 0 129.207 13.3971 1731 56.8631 771.936 433.989
1021 0 132.269 13.2306 1750 57.092 772.587 432.695
1022 0 135.186 13.744 1858 56.3988 772.131 429.467
1023 0 140.122 13.5239 1895 56.6507 772.351 427.919
1024 0 146.298 13.1854 1929 56.4572 773.081 426.489
1025 0 146.213 13.2136 1932 56.7847 772.79 425.073
1026 0 150.175 14.0236 2106 55.7578 772.333 423.508
1027 0 153.094 13.397 2051 56.7938 772.189 420.333
1028 0 161.12 13.5799 2188 56.2084 773 419.583
1029 0 163.264 13.4261 2192 57.0228 773.036 415.807
1030 0 166.134 13.2484 2201 57.0995 772.529 413.361
1031 0 171.152 13.1988 2259 57.1793 772.061 413.943
1032 0 176.148 13.4546 2370 56.4321 772.191 411.261
1033 0 181.258 13.9415 2527 55.9026 772.093 408.892
1034 0 186.248 13.5787 2529 56.2614 772.992 405.984
1035 0 191.327 13.2757 2540 56.8598 772.693 403.011
1036 0 195.228 13.2665 2590 57.0131 771.861 398.718
1037 0 202.242 13.1773 2665 56.651 772.418 396.454
1038 0 206.241 13.3969 2763 56.1958 772.598 395.389
1039 0 212.343 13.2663 2817 56.6074 772.526 390.651
1040 1 158.17 11.3991 1803 58.9018 772.163 423.042
1041 1 46.0547 10.5744 487 59.269 772.175 468.626
1042 0 50.131 10.8117 542 58.0683 772.921 469.38
1043 0 51.0689 11.3768 581 57.4028 773.466 468.661
1044 0 52.0538 10.566 550 59.2945 772.478 467.456
1045 0 53.0667 11.8342 628 58.199 772.312 467.713
1046 0 56.1199 11.7605 660 57.7515 772.414 466.692
1047 0 60.0822 11.2513 676 58.2988 772.516 465.805
1048 0 63.117 11.9619 755 57.2318 773.076 466.935
1049 0 62.0795 11.9846 744 58.3132 772.59 462.542
1050 0 64.096 12.8869 826 56.7167 773.126 463.972
1051 0 65.0483 12.0987 787 58.5769 773.294 461.973
1052 0 67.1427 11.8107 793 59.0504 772.73 462.056
1053 0 69.1284 12.0934 836 58.1746 773.063 460.34
1054 0 73.1267 12.2527 896 57.4263 773.727 458.544
1055 0 74.1283 12.6133 935 57.1112 773.554 458.562
1056 0 75.0831 12.666 951 57.6372 772.996 456.552
1057 0 77.1824 11.9716 924 58.75 772.916 455.545
1058 0 80.2026 12.6679 1016 56.9803 773.344 454.597
1059 0 82.035 11.8486 972 58.4866 773.054 452.628
1060 0 88.078 12.4322 1095 56.063 772.693 452.28
1061 0 90.0828 11.8225 1065 56.9455 773.736 450.736
1062 0 91.148 12.2877 1120 55.8143 773.784 449.38
1063 1 51.1228 11.1496 570 54.3421 773.712 469.17
1064 0 53.1148 11.3339 602 53.5997 773.495 469.261
1065 0 54.0491 11.434 618 53.589 773.023 467.955
1066 0 55.1266 10.8478 598 54.4716 773.331 466.186
1067 0 54.1925 10.4996 569 55.5079 773.371 463.562
1068 0 56.0883 11.6602 654 53.9985 773.242 465.029
1069 0 58.1205 12.5257 728 52.419 773.162 464.757
1070 0 61.0556 12.0382 735 52.8354 773.026 464.231
1071 0 62.0735 11.9536 742 53.314 773.414 463.313
1072 0 66.0282 12.3735 817 52.5765 773.242 460.928
1073 0 66.0181 11.0273 728 55.6181 772.81 458.06
1074 0 70.0987 12.2399 858 53.0711 773.24 459.655
1075 0 69.0427 12.5574 867 53.7993 772.761 458.359
1076 0 73.0445 12.4992 913 53.5367 773.212 458.588
1077 0 73.1242 12.5403 917 54.3326 773.31 456.233
1078 0 75.0721 12.0551 905 55.6055 773.687 454.327
1079 0 78.0829 11.8464 925 55.9622 773.942 452.723
1080 0 79.0958 11.6947 925 57.2573 773.77 452.105
1081 0 84.0955 12.6761 1066 55.2083 773.575 451.811
1082 0 85.1107 12.5366 1067 55.3646 773.619 450.995
1083 0 89.1115 12.389 1104 56.5417 773.145 448.151
1084 0 92.0964 12.5846 1159 55.8922 773.525 449.943
1085 1 48.0347 11.3668 546 56.5916 773.868 471.427
1086 0 51.0448 11.0491 564 56.6472 774.05 467.952
1087 0 53.0626 11.3262 601 56.5141 773.699 467.557
1088 0 54.0737 11.6693 631 56.3138 773.924 468.758
1089 0 55.1135 11.4491 631 58.0032 774.504 466.235
1090 0 56.1036 11.7283 658 56.4027 774.058 466.834
1091 0 57.0793 11.703 668 57.262 774.799 466.795
1092 0 60.0518 11.6066 697 57.3486 775.012 464.494
1093 0 62.1027 11.8352 735 57.4395 774.178 463.053
1094 0 65.0587 11.5434 751 58.4368 773.43 463.562
1095 0 64.0805 12.0317 771 58.1712 773.643 463.285
1096 0 65.0526 12.1748 792 59.572 774.155 461.448
1097 0 69.0765 11.8275 817 59.284 774.229 461.453
1098 0 68.0498 12.4615 848 58.6946 773.55 460.524
1099 0 72.0852 12.2494 883 58.8347 773.707 459.678
1100 0 74.1195 12.3314 914 58.5427 773.354 458.888
1101 0 75.0529 13.0042 976 57.1988 773.655 459.657
1102 0 77.1784 12.2832 948 58.1055 773.53 458.45
1103 0 79.1005 12.6927 1004 57.3376 773.059 458.36
1104 0 82.0908 11.8406 972 58.3138 774.271 456.96
1105 0 85.1811 12.4323 1059 57.1492 773.83 455.162
1106 1 168.306 13.4814 2269 55.4275 772.925 415.886
1107 1 91.1478 12.3426 1125 56.6667 773.335 452.514
1108 1 49.0819 10.9002 535 56.7664 772.608 472.54
1109 0 50.0184 10.816 541 57.7061 772.852 471.758
1110 0 52.1002 10.9213 569 57.1107 772.615 471.019
1111 0 55.1189 10.5409 581 57.1824 773.441 468.976
1112 0 54.0231 11.7727 636 56.3333 773.134 468.445
1113 0 60.0613 11.2219 674 55.0252 772.303 468.668
1114 0 61.0433 11.1069 678 55.3378 773.594 466.836
1115 0 62.0468 11.9104 739 54.4235 772.824 466.413
1116 0 65.046 11.2382 731 54.4213 773.182 466.99
1117 0 65.0877 11.6919 761 54.6518 773.166 465.765
1118 0 67.1446 11.8252 794 54.1637 772.719 464.374
1119 0 70.0922 11.6703 818 54.3765 772.193 462.454
1120 0 72.0712 12.002 865 53.5434 772.634 463.566
1121 0 73.1353 11.8411 866 53.9446 772.756 462.854
1122 0 75.0985 12.4237 933 53.3944 772.114 458.869
1123 0 77.2218 12.4317 960 52.8615 772.088 459.076
1124 0 81.1855 12.3667 1004 52.9223 771.445 457.574
1125 0 81.0555 12.6086 1022 53.2975 771.622 455.432
1126 0 85.1017 12.4204 1057 53.2327 772.922 454.324
1127 0 87.1638 12.8379 1119 52.1233 772.898 454.045
1128 0 89.1549 12.5961 1123 52.7747 772.66 451.866
1129 0 92.2534 12.5741 1160 52.7431 771.877 451.634
1130 0 94.1892 11.6468 1097 54.361 772.299 448.079
1131 0 97.2167 12.6933 1234 52.7066 771.909 447.413
1132 0 100.163 12.859 1288 52.4402 772.623 447.424
1133 0 103.228 12.8453 1326 52.0588 772.305 445.822
1134 0 107.252 12.6059 1352 52.4689 772.51 445.004
1135 0 110.188 12.2608 1351 52.883 772.883 441.97
1136 0 116.278 11.8079 1373 53.0925 772.433 438.871
1137 0 117.175 12.2125 1431 52.9448 773.411 438.041
1138 0 120.234 12.2927 1478 52.9242 772.698 434.652
1139 0 123.183 12.5423 1545 52.5249 773.051 434.141
1140 0 127.347 12.3835 1577 52.5688 773.146 431.42
1141 1 70.11 11.3108 793 52.5032 773.467 461.769
1142 0 70.0569 12.0331 843 51.9644 773.355 459.805
1143 0 73.1437 12.3456 903 51.474 773.998 458.432
1144 0 75.1527 12.2417 920 51.4967 773.708 457.207
1145 0 77.0968 12.0238 927 51.8198 773.339 455.049
1146 0 80.2034 12.8673 1032 50.2548 773.789 455.203
1147 0 82.2376 12.5612 1033 50.4821 773.549 455.134
1148 0 87.1411 12.2216 1065 51.016 772.673 451.694
1149 0 85.1529 12.4247 1058 51.0917 772.806 450.664
1150 0 92.2766 12.0182 1109 50.7358 773.024 449.37
1151 0 92.1795 11.3908 1050 52.3086 773.269 447.11
1152 0 96.1088 12.028 1156 51.2811 773.984 444.954
1153 0 100.13 12.9631 1298 49.9122 774.434 446.337
1154 0 103.205 12.228 1262 51.2116 773.676 442.435
1155 0 104.069 12.7511 1327 51.1123 773.574 441.46
1156 0 109.194 12.2901 1342 51.4314 773.604 438.393
1157 0 109.146 12.1489 1326 52.6508 773.912 438.195
1158 0 116.247 12.0433 1400 52.61 774.197 436.135
1159 0 118.235 12.1622 1438 52.8227 774.624 435.151
1160 0 120.137 12.1029 1454 54.0069 774.168 432.246
1161 1 64.1643 11.3303 727 54.8968 774.175 458.531
1162 0 68.263 11.2067 765 54.8601 774.746 457.28
1163 0 69.1125 11.8502 819 54.293 774.36 456.799
1164 0 69.1903 12.3861 857 54.4889 774.37 455.604
1165 0 73.1566 11.5232 843 55.6987 773.977 453.868
1166 0 76.0821 11.9213 907 55.1698 774.856 451.916
1167 0 75.2487 12.4786 939 54.8903 774.144 452.048
1168 0 79.1953 12.8417 1017 53.9902 774.914 450.888
1169 0 80.1467 12.003 962 55.4366 774.956 448.986
1170 0 87.0956 12.1591 1059 54.3163 775.142 450.075
1171 0 86.1425 12.5606 1082 54.5444 775.433 448.398
1172 0 91.2141 12.3775 1129 54.4694 776.055 447.174
1173 0 91.2216 12.4422 1135 55.185 775.501 445.908
1174 0 93.2783 12.8862 1202 54.4742 775.338 445.512
1175 0 96.1532 12.8753 1238 54.8603 775.433 444.113
1176 0 99.1701 12.7256 1262 55.3059 775.846 441.979
1177 0 102.122 12.7691 1304 55.4356 775.618 440.426
1178 0 107.331 11.8419 1271 56.4036 775.36 437.76
1179 0 108.332 12.9048 1398 55.1044 774.83 438.614
1180 0 113.115 13.0841 1480 55.0743 774.153 437.046
1181 1 63.0863 10.7789 680 55.1235 774.756 461.535
1182 0 63.0389 11.6436 734 54.3501 774.379 462.533
1183 0 65.1222 11.3325 738 55.0461 774.637 460.411
1184 0 68.0554 11.0351 751 55.1065 774.057 459.639
1185 0 69.0723 12.3349 852 53.581 773.737 460.38
1186 0 72.0571 11.6158 837 54.6296 774.505 457.578
1187 0 73.1048 12.5984 921 53.5005 774.024 457.616
1188 0 75.1002 12.2769 922 53.3558 775.064 457.508
1189 0 78.1119 11.65 910 53.9692 774.258 456.858
1190 0 80.0854 12.4742 999 53.4094 774.232 454.219
1191 0 81.131 12.0176 975 54.3764 774.3 452.703
1192 0 85.0775 12.4592 1060 53.4868 774.085 452.206
1193 0 87.2355 12.2771 1071 54.0626 773.712 451.154
1194 0 89.1104 11.9402 1064 54.9248 773.726 448.586
1195 0 91.1396 12.4644 1136 54.9533 773.498 447.886
1196 0 98.1888 12.3028 1208 54.3295 773.49 449.951
1197 0 100.139 12.4527 1247 54.7947 773.378 446.2
1198 0 100.201 12.1556 1218 55.6305 773.713 446.074
1199 1 54.0983 10.7212 580 55.6276 772.907 467.874
1200 0 58.0219 10.8063 627 55.7719 773.486 466.295
1201 0 61.1912 11.08 678 54.9498 773.364 464.294
1202 0 62.1317 11.5722 719 54.4353 773.054 464.567
1203 0 65.046 11.2843 734 54.936 773.91 463.158
1204 0 65.0626 11.4044 742 55.7426 773.708 461.863
1205 0 67.0568 11.4679 769 55.5514 773.655 462.371
1206 0 67.1432 11.6319 781 56.2061 773.935 460.009
1207 0 70.0716 11.8736 832 55.5889 773.44 456.812
1208 0 72.1468 11.5043 830 55.5301 773.9 457.923
1209 0 78.1337 11.7235 916 54.5786 773.983 456.814
1210 0 77.2906 11.4244 883 55.3669 773.906 453.166
1211 0 79.1428 11.4603 907 55.1069 773.294 455.012
1212 0 80.126 12.1059 970 54.8856 773.256 452.804
1213 0 82.1224 11.8969 977 55.3971 773.313 451.502
1214 0 86.1345 11.9232 1027 54.9903 773.709 451.477
1215 0 89.152 12.0468 1074 54.9302 774.04 449.984
1216 0 92.1535 11.8064 1088 55.5634 773.993 448.915
1217 0 93.21 11.973 1116 55.5681 773.186 447.846
1218 0 96.2739 11.9763 1153 55.8968 773.171 445.545
1219 1 50.0823 10.3629 519 56.4836 773.757 467.26
1220 0 55.1128 10.3061 568 56.8662 773.6 466.611
1221 0 53.1484 10.8752 578 57.2855 774.266 465.458
1222 0 55.1087 11.069 610 57.0738 774.418 465.649
1223 0 57.1155 11.1879 639 56.8091 774.293 464.393
1224 0 59.1255 11.3995 674 56.3902 774.448 465.001
1225 0 60.0935 11.3989 685 57.0467 774.472 463.431
1226 0 62.156 10.2162 635 58.9654 774.358 461.976
1227 0 65.1459 11.6815 761 56.887 773.012 462.736
1228 0 68.1863 11.8792 810 56.1037 773.404 461.852
1229 0 67.3298 11.6442 784 57.3584 773.953 460.969
1230 0 69.2323 11.6275 805 57.8795 773.991 458.742
1231 0 71.1818 10.8876 775 58.7819 774.543 455.99
1232 0 73.2001 11.5983 849 58.1684 774.86 456.239
1233 0 80.1259 11.5818 928 56.8675 774.388 455.404
1234 0 82.1242 11.9453 981 56.7604 774.361 454.268
1235 0 80.2746 12.1458 975 57.8174 774.59 453.054
1236 0 85.2719 12.2901 1048 56.666 774.97 451.796
1237 0 87.2237 12.8749 1123 55.675 774.729 451.983
1238 0 88.1853 12.1222 1069 57.4743 774.915 448.486
1239 0 92.3408 11.6741 1078 58.5881 774.265 445.46
1240 0 93.2714 11.7828 1099 58.8198 774.822 446.528
1241 0 99.167 11.7781 1168 58.9264 775.247 445.605
1242 1 59.1032 10.8962 644 57.7438 774.764 466.008
1243 0 60.0988 10.0335 603 60.0448 774.541 464.556
1244 0 60.1024 10.2825 618 60.1586 775.155 462.081
1245 0 60.1122 10.8297 651 60.4178 775.055 463.665
1246 0 66.1646 10.7308 710 59.169 774.539 462.263
1247 0 65.083 11.4162 743 58.8425 774.775 461.948
1248 0 68.1464 11.7688 802 58.0923 774.262 460.657
1249 0 69.113 10.8373 749 59.9039 774.741 457.874
1250 0 73.0788 11.4123 834 58.8405 774.912 458.62
1251 0 73.0613 11.0318 806 60.3635 775.481 455.633
1252 0 76.0766 10.8443 825 59.8436 775.156 454.758
1253 0 81.116 10.935 887 58.8692 775.932 452.24
1254 0 82.0968 11.0114 904 58.6128 776.052 451.273
1255 0 86.0946 11.4874 989 57.3549 775.657 450.176
1256 0 87.1868 11.722 1022 57.9716 775.676 449.249
1257 0 90.0725 11.6906 1053 57.1852 775.339 448.104
1258 0 95.3241 12.169 1160 56.1733 775.061 446.97
1259 0 99.1546 11.6182 1152 56.697 774.888 445.385
1260 0 102.132 11.5145 1176 56.051 775.461 444.025
1261 0 103.144 11.6245 1199 56.4495 775.128 441.073
1262 0 107.062 10.3211 1105 57.8814 775.474 437.111
1263 0 111.187 11.3323 1260 55.577 775.052 437.819
1264 1 61.0257 10.2744 627 54.9569 775.415 461.947
1265 0 64.091 11.2496 721 52.9972 776.107 460.004
1266 0 65.1158 11.0265 718 53.4958 775.217 459.753
1267 0 68.0905 11.1176 757 52.6552 775.151 458.834
1268 0 68.042 10.714 729 53.904 775.535 456.647
1269 0 70.0868 10.8152 758 53.6214 775.439 454.565
1270 0 71.0716 10.7075 761 53.4113 775.624 454.293
1271 0 75.1217 10.6494 800 53.3575 775.531 453.916
1272 0 75.104 11.0247 828 52.4263 775.471 453.087
1273 0 80.1054 10.7858 864 52.1493 774.438 449.826
1274 0 81.1036 11.2942 916 51.5906 775.154 451.233
1275 0 85.0977 11.4574 975 51.0708 774.233 449.645
1276 0 88.0729 11.8765 1046 50.9436 774.712 448.396
1277 0 89.0841 11.6182 1035 51.3614 775.05 446.981
1278 0 90.0993 11.2986 1018 51.9096 774.494 443.851
1279 0 95.1017 11.535 1097 50.4294 775.055 442.938
1280 0 99.1845 10.9493 1086 51.6096 775.366 442.769
1281 0 101.137 11.2125 1134 51.7178 774.978 440.861
1282 0 103.094 11.7368 1210 51.4223 774.909 441.32
1283 0 105.119 11.1302 1170 52.6581 774.856 438.137
1284 0 107.205 11.3614 1218 53.5197 775.494 436.558
1285 0 113.173 10.5414 1193 54.6681 775.47 432.879
1286 1 94.1872 10.0014 942 46.5594 774.973 462.502
1287 1 66.0929 11.2871 746 52.185 775.33 458.669
1288 0 69.1586 11.1049 768 51.6107 774.577 457.534
1289 0 68.1321 10.0834 687 53.7132 774.799 454.795
1290 0 71.2416 10.9908 783 52.1022 774.843 456.303
1291 0 70.0885 11.1431 781 53.0871 774.479 453.708
1292 0 72.0729 11.197 807 52.3891 774.501 453.879
1293 0 72.1016 10.7626 776 53.2603 774.848 451.482
1294 0 79.099 11.3149 895 51.6101 774.978 451.375
1295 0 80.1362 11.4555 918 51.6362 774.864 452.078
1296 0 80.111 11.3967 913 52.2738 775.02 449.107
1297 0 83.178 11.0606 920 52.3239 774.876 447.885
1298 0 86.0966 12.1143 1043 51.1275 775.089 447.859
1299 0 89.145 11.958 1066 51.2373 775.398 446.653
1300 0 90.1144 11.8849 1071 51.8506 774.786 445.246
1301 0 94.1873 11.8169 1113 51.9128 775.072 443.457
1302 0 94.0688 11.6829 1099 52.858 774.788 440.212
1303 0 99.1999 11.9355 1184 53.0693 775.252 439.232
1304 0 99.2683 11.3128 1123 54.1166 775.734 438.378
1305 0 109.142 11.9936 1309 52.4767 775.227 439.49
1306 0 108.11 11.4884 1242 54.0298 774.848 435.239
1307 0 113.121 12.6944 1436 52.1818 774.54 438.143
1308 0 115.168 11.8697 1367 54.049 774.847 433.649
1309 0 119.117 11.09 1321 54.5178 775.021 433.206
1310 0 121.103 10.7842 1306 55.4878 775.18 429.188
1311 0 124.115 11.5216 1430 54.7364 774.713 427.539
1312 0 131.134 12.9868 1703 52.2249 774.595 427.166
1313 0 132.148 12.2666 1621 53.483 774.014 424.294
1314 0 134.099 11.6481 1562 53.904 774.554 421.918
1315 0 142.099 12.7517 1812 51.9553 774.869 421.62
1316 0 145.248 11.8211 1717 53.1019 774.542 416.91
1317 0 149.222 12.4646 1860 51.7914 773.895 415.397
1318 0 153.153 11.3089 1732 52.7881 774.368 411.102
1319 0 159.245 12.3144 1961 51.6313 774.867 410.658
1320 0 164.124 11.2597 1848 52.3063 775.335 406.347
1321 0 172.276 11.9866 2065 51.7419 773.98 403.906
1322 0 174.188 11.0513 1925 53.267 773.849 400.322
1323 0 183.442 11.7967 2164 52.2819 773.875 401.053
1324 0 188.269 11.1861 2106 53.2863 774.181 395.029
1325 0 192.239 11.0488 2124 53.7378 774.066 393.044
1326 0 201.299 11.8033 2376 52.0682 774.611 390.122
1327 1 143.123 10.767 1541 55.1765 774.587 418.672
1328 0 147.18 10.8643 1599 55.6729 773.796 417.487
1329 0 150.105 10.486 1574 56.7008 774.516 413.408
1330 0 155.287 10.574 1642 56.556 774.917 413.059
1331 0 160.173 10.2015 1634 56.0484 774.375 408.584
1332 0 166.324 10.5577 1756 55.6184 774.976 406.883
1333 0 171.312 10.8924 1866 55.2926 774.889 406.452
1334 0 176.197 10.545 1858 55.6706 774.715 400.887
1335 0 180.202 11.3373 2043 55.1121 774.342 401.045
1336 0 186.236 10.4867 1953 55.8177 774.815 397.633
1337 1 141.095 9.81607 1385 59.0989 774.669 420.139
1338 0 147.231 10.9081 1606 57.9981 775.049 417.769
1339 0 151.168 10.8555 1641 57.8367 775.346 413.381
1340 0 156.265 10.4694 1636 58.519 774.717 410.652
1341 0 162.144 10.5523 1711 58.6336 773.269 406.715
1342 0 167.233 11.0804 1853 58.0313 774.302 406.768
1343 0 169.124 10.8441 1834 58.5463 773.544 402.185
1344 0 178.203 11.2175 1999 57.92 773.535 401.729
1345 0 181.168 10.3495 1875 59.5557 773.823 395.495
1346 0 188.295 11.3598 2139 58.1987 774.382 396.48
1347 0 191.192 11.1929 2140 59.4626 773.16 391.407
1348 0 196.228 10.2993 2021 60.2855 773.849 385.7
1349 1 45.0387 9.54734 430 59.4395 775.007 463.109
1350 0 47.0293 10.2914 484 59.4587 774.946 463.043
1351 0 47.0756 10.1326 477 59.1677 774.88 460.927
1352 0 53.0653 10.3081 547 58.6965 774.801 461.133
1353 0 55.0396 9.88379 544 59.4779 774.176 461.673
1354 0 55.1319 11.409 629 57.9539 774.634 460.933
1355 0 57.0702 9.81247 560 60.2696 775.17 457.546
1356 0 58.0228 10.4959 609 59.4401 774.995 456.279
1357 0 57.0239 10.3115 588 61.1922 775.372 457.177
1358 0 63.1371 10.3109 651 59.5975 774.744 454.716
1359 0 65.066 10.2358 666 60.024 774.581 454.224
1360 0 65.0353 10.8249 704 59.2159 774.624 453.692
1361 0 66.0861 10.1383 670 60.7672 775.198 453.902
1362 0 67.0319 10.2787 689 61.0581 775.554 451.315
1363 0 68.1144 10.6732 727 60.7689 774.165 451.182
1364 0 71.1204 10.7283 763 60.7222 773.79 450.592
1365 0 73.0778 10.8788 795 60.7434 774.835 449.517
1366 0 74.1306 10.9806 814 60.7088 774.418 445.639
1367 0 76.133 11.6375 886 60.2077 774.674 445.122
1368 0 79.1041 11.1119 879 60.1729 774.727 444.995
1369 0 78.0565 10.4796 818 62.0428 774.372 443.879
1370 0 83.0702 10.8463 901 61.545 773.822 441.203
1371 0 87.115 11.7661 1025 59.7161 774.154 441.889
1372 0 88.1338 11.6187 1024 60.6924 774.58 440.862
1373 0 93.0732 11.2492 1047 60.7221 774.589 438.183
1374 0 95.2279 11.2992 1076 60.8309 774.772 436.761
1375 0 100.199 10.7087 1073 61.26 774.194 434.051
1376 0 99.1591 10.6495 1056 62.6733 774.312 431.47
1377 0 102.23 10.6134 1085 63.3336 773.328 429.9
1378 0 106.11 10.9226 1159 63.3779 774.03 428.539
1379 0 108.211 10.4241 1128 64.5709 774.971 426.322
1380 0 115.218 11.9339 1375 61.3447 775.326 431.667
1381 1 60.1036 9.20079 553 67.1537 775.711 458.036
1382 0 65.0273 11.3183 736 62.2948 775.151 459.134
1383 0 59.0243 9.8434 581 66.9312 774.566 454.04
1384 0 61.0507 9.77876 597 64.6918 774.59 452.839
1385 0 64.044 9.77452 626 64.1262 774.093 451.228
1386 0 74.0912 11.6883 866 59.5358 774.752 454.574
1387 0 67.0645 10.4228 699 63.7825 774.465 450.358
1388 0 76.1521 12.6851 966 57.9544 775.504 454.259
1389 0 78.0945 11.9727 935 58.9615 775.231 452.025
1390 0 76.08 11.6062 883 60.3205 775.652 449.742
1391 0 81.0916 12.3934 1005 57.9473 775.727 448.963
1392 1 121.603 11.7924 1434 51.1004 775.399 452.425
1393 1 81.0644 10.7322 870 61.0218 775.682 441.639
1394 0 84.0564 10.6833 898 61.2082 775.85 442.782
1395 0 94.198 12.4419 1172 57.7389 775.612 443.807
1396 0 95.1448 11.761 1119 59.6238 774.967 439.598
1397 0 95.15 10.7935 1027 61.3418 775.45 436.387
1398 0 102.077 12.9216 1319 58.1122 774.904 438.999
1399 0 99.2278 10.2895 1021 62.2674 774.947 432.216
1400 0 102.082 10.9324 1116 61.5278 775.547 431.269
1401 0 108.195 11.8952 1287 59.8889 775.486 431.391
1402 0 109.225 10.3731 1133 62.4069 775.203 425.816
1403 0 110.24 10.2595 1131 62.6561 775.462 423.811
1404 0 117.16 12.436 1457 58.7536 775.089 433.376
1405 0 114.099 9.70212 1107 63.5004 775.431 426.827
1406 1 60.1189 11.4273 687 60.5662 775.476 459.531
1407 0 54.0826 10.3545 560 64.7143 776.564 456.602
1408 0 62.1755 12.1109 753 60.8274 777.332 455.21
1409 0 64.2342 12.4544 800 59.7588 776.802 455.976
1410 0 69.1421 11.6861 808 60.1349 776.803 456.113
1411 0 63.1243 10.7249 677 63.4062 776.733 451.275
1412 0 65.0748 10.5571 687 63.1892 776.457 451.616
1413 0 65.108 10.2599 668 63.5898 776.925 448.478
1414 0 69.072 10.4818 724 63.1851 776.474 449.036
1415 0 71.0792 10.7064 761 63.2234 776.198 446.988
1416 0 71.1091 11.0394 785 62.9236 776.792 447.987
1417 0 74.1022 10.7824 799 62.9725 775.982 445.387
1418 0 76.0913 10.3034 784 63.3189 776.264 442.597
1419 0 82.1142 10.5098 863 63.0464 776.32 444.51
1420 0 85.1593 10.8033 920 61.9304 775.314 442.666
1421 0 83.1407 10.6566 886 62.4379 776.097 441.369
1422 0 86.1125 10.2889 886 62.9142 775.585 437.17
1423 0 89.1667 9.6785 863 63.7636 775.914 435.321
1424 0 93.4736 12.4313 1162 59.8124 776.33 441.058
1425 0 91.1247 9.48152 864 64.4178 777.05 435.137
1426 0 91.1398 9.19466 838 65.1432 775.817 434.462
1427 1 41.0318 9.62668 395 66.0785 775.661 462.83
1428 0 43.0967 10.1168 436 64.6766 776.624 463.672
1429 0 41.0062 9.65708 396 66.2828 776.01 463.146
1430 0 43.0653 9.52043 410 67.1293 776.166 458.937
1431 0 44.0986 9.47875 418 66.744 776.225 458.816
1432 0 52.2353 11.9077 622 62.2637 776.296 463.072
1433 0 54.2252 11.9502 648 62.2407 775.548 462.861
1434 0 56.1909 12.6533 711 61.1955 775.676 463.702
1435 0 58.1197 12.7668 742 60.7615 775.892 463.082
1436 0 57.2352 12.5797 720 61.9458 775.743 459.451
1437 0 59.173 11.779 697 63.0631 775.716 458.151
1438 0 56.0944 10.3932 583 66.0274 775.069 455.221
1439 0 59.101 11.1166 657 64.4003 775.577 455.79
1440 0 64.1876 12.0896 776 61.9201 775.503 455.936
1441 0 68.1883 12.4362 848 60.2288 776.011 456.16
1442 0 62.0386 10.6224 659 64.0956 776.068 452.164
1443 0 70.1029 12.824 899 59.8098 775.45 455.691
1444 0 74.1186 13.1951 978 58.4294 775.482 454.348
1445 0 75.1255 12.7254 956 59.0711 775.304 455.275
1446 0 73.151 11.4968 841 61.4804 775.002 450.029
1447 0 80.0697 12.9013 1033 57.8867 774.841 453.15
1448 0 79.1571 11.5214 912 60.1864 775.105 448.946
1449 0 83.1892 12.4415 1035 58.3952 774.786 449.025
1450 0 86.1568 12.9415 1115 57.1856 774.543 446.241
1451 1 40.1019 10.9471 439 59.3872 774.606 469.014
1452 0 43.1306 10.9435 472 59.2797 775.392 468.252
1453 0 45.1979 11.859 536 56.8843 775.222 468.36
1454 0 44.1094 11.7209 517 58.3965 774.671 464.482
1455 0 46.0313 12.1656 560 57.3839 775.586 464.836
1456 0 40.0859 10.1033 405 61.721 775.943 462.983
1457 0 50.1551 12.1822 611 56.4975 775.75 464.499
1458 0 44.0644 11.1201 490 59.949 775.467 461.41
1459 0 52.1597 13.2094 689 55.0406 775.074 463.673
1460 0 48.0248 10.1406 487 60.1273 774.472 459.3
1461 0 47.0431 10.2034 480 59.9021 775.627 459.025
1462 0 50.0881 10.6612 534 59.0225 775.597 456.921
1463 1 61.0983 12.8645 786 53.799 774.645 460.639
1464 0 53.0694 10.7218 569 58.6714 774.914 456.431
1465 0 61.1451 12.4295 760 55.1355 775.612 457.672
1466 0 60.0533 11.4398 687 57.3246 774.218 455.001
1467 0 64.0936 12.8874 826 55.2264 774.269 456.946
1468 0 61.105 11.0466 675 58.6326 774.443 454.053
1469 0 67.1296 10.8596 729 57.8121 773.986 452.86
1470 0 66.1313 11.2352 743 58.0242 773.517 450.641
1471 0 70.0898 11.0002 771 58.0636 774.62 451.665
1472 0 72.0982 10.555 761 58.7201 774.778 448.42
1473 0 75.1037 10.9848 825 58.0715 773.993 448.85
1474 0 75.1465 10.6725 802 59.0175 774.794 447.584
1475 0 78.2156 10.714 838 59.0036 774.202 446.438
1476 0 82.1163 11.1184 913 58.5027 774.336 446.812
1477 1 37.0434 10.6092 393 60.8193 774.776 468.234
1478 0 41.11 11.1895 460 58.9544 775.07 467.363
1479 0 38.0549 9.98558 380 62.1658 774.321 465.784
1480 0 39.0289 10.0438 392 62.4949 775.059 465.171
1481 0 45.0587 11.2964 509 59.5638 774.933 467.314
1482 0 46.0345 10.1228 466 61.5429 775.202 465.163
1483 0 44.0273 10.1301 446 62.7108 775.076 463.406
1484 0 45.0272 10.1494 457 62.8162 774.821 464.823
1485 0 50.0455 10.4105 521 61.7332 775.507 462.035
1486 0 55.1107 10.7783 594 60.4579 775.081 463.423
1487 0 50.0823 10.3829 520 62.1827 774.729 460.988
1488 0 55.0716 10.6407 586 61.1877 775.669 461.14
1489 0 54.0905 11.3698 615 61.3431 775.423 459.935
1490 0 58.059 10.4893 609 61.7077 775.583 460.253
1491 0 57.0374 11.2558 642 60.7414 774.863 458.885
1492 0 60.0573 10.7897 648 60.8133 774.941 457.301
1493 0 67.1688 12.3718 831 56.9098 774.747 458.467
1494 0 63.0681 11.2894 712 59.9059 774.973 457.309
1495 0 66.058 10.8541 717 59.5676 775.441 453.107
1496 0 68.1013 10.1907 694 60.2133 775.066 453.378
1497 0 69.2485 10.9316 757 59.1836 774.986 455.742
1498 0 70.0961 10.2146 716 60.0028 774.61 452.901
1499 0 71.0385 11.3319 805 58.4807 775.12 451.283
1500 0 74.2029 11.5359 856 58.6717 774.683 450.814
1501 0 77.1159 11.3466 875 58.1006 774.979 448.799
1502 0 78.0818 11.0781 865 58.6347 775.526 447.601
1503 0 81.1421 11.1286 903 58.1207 775.749 447.477
1504 0 83.1178 11.0807 921 58.4289 775.553 447.012
1505 0 86.1148 10.8576 935 58.4428 775.317 442.061
1506 0 86.0396 11.0298 949 58.9178 775.283 444.199
1507 0 88.0737 10.6956 942 59.3185 775.649 440.428
1508 0 95.0782 11.0541 1051 58.8592 775.729 439.9
1509 0 94.1882 11.0948 1045 59.3895 775.749 439.848
1510 0 98.1113 11.7927 1157 58.7061 775.092 441.246
1511 0 102.151 11.1893 1143 59.5906 775.815 437.473
1512 0 102.069 10.9142 1114 60.7298 774.899 435.796
1513 0 108.11 10.813 1169 60.379 775.307 432.394
1514 0 110.15 11.3663 1252 60.1222 774.542 434.167
1515 0 116.172 11.2764 1310 59.8168 773.974 431.599
1516 0 115.117 10.7109 1233 60.9651 775.102 429.828
1517 0 117.163 11.1213 1303 61.0668 775.278 426.97
1518 0 123.239 11.2302 1384 60.578 774.969 426.84
1519 0 124.192 11.1038 1379 61.4112 775.244 423.724
1520 0 129.083 11.0549 1427 61.295 775.095 422.151
1521 0 132.123 10.8611 1435 61.6195 775.1 420.171
1522 0 139.201 10.8405 1509 61.5633 773.801 418.619
1523 0 141.195 10.6519 1504 61.7819 774.272 416.582
1524 1 71.0634 10.0333 713 67.554 775.077 451.965
1525 0 73.0577 10.1016 738 68.0962 775.089 450.182
1526 0 77.0644 10.6664 822 67.4976 775.157 448.296
1527 0 78.0552 10.7616 840 66.8929 775.429 448.277
1528 0 79.0429 10.9055 862 67.8318 774.527 446.927
1529 0 83.1262 11.2359 934 67.2687 774.876 446.284
1530 0 86.075 11.002 947 67.9588 774.716 443.899
1531 0 86.0671 11.1541 960 68.4865 774.607 444.262
1532 0 89.0956 10.9545 976 68.8668 775.172 441.379
1533 0 91.0652 11.1678 1017 68.7679 775.435 439.969
1534 0 93.0649 10.8849 1013 69.0573 774.898 440.444
1535 0 97.0838 10.6197 1031 69.7372 774.7 437.649
1536 0 97.1135 11.2137 1089 69.7254 774.181 436.996
1537 0 100.082 10.6114 1062 70.0207 774.644 435.09
1538 0 104.105 10.8736 1132 69.8931 775.261 435.716
1539 0 115.135 13.2888 1530 65.1941 775.282 437.588
1540 0 109.088 10.2945 1123 70.7409 775.164 428.476
1541 0 115.198 10.1391 1168 70.4118 775.051 428.095
1542 0 117.054 10.6276 1244 70.5531 774.837 426.077
1543 0 122.07 10.3383 1262 70.275 775.319 423.895
1544 0 123.095 10.6828 1315 69.9278 775.279 423.091
1545 0 127.087 10.127 1287 70.7902 773.846 419.932
1546 0 128.146 9.89499 1268 71.3092 774.281 418.133
1547 0 133.075 9.88917 1316 71.1558 774.692 414.297
1548 1 71.1385 12.7076 904 69.302 774.479 459.642
1549 0 70.0888 12.9265 906 69.7086 774.319 459.949
1550 0 73.0968 12.7639 933 70.0568 774.602 458.359
1551 0 73.0982 13.3519 976 69.5809 775.019 456.543
1552 0 76.1024 13.2847 1011 69.6983 774.197 456.738
1553 0 78.0956 13.0481 1019 70.2699 774.528 456.179
1554 0 79.0584 13.6228 1077 70.1643 774.752 455.115
1555 0 80.1007 13.533 1084 70.7961 773.931 454.266
1556 0 84.1935 13.469 1134 69.9365 774.543 452.378
1557 0 84.0833 13.7245 1154 70.0442 774.383 450.618
1558 0 88.0774 13.7039 1207 69.2071 774.466 451.991
1559 0 88.0723 13.8068 1216 69.7952 774.071 449.609
1560 0 93.1199 13.0692 1217 69.6212 773.488 447.476
1561 0 93.2529 12.0854 1127 72.1118 774.878 447.345
1562 0 94.0634 13.6823 1287 70.3201 774.369 445.742
1563 0 96.1451 12.3667 1189 72.9024 773.812 444.898
1564 0 99.1196 13.7611 1364 70.5 774.001 444.471
1565 0 100.291 12.4637 1250 73.2416 773.402 443.837
1566 0 106.304 12.182 1295 73.4479 773.874 441.015
1567 0 105.198 12.3101 1295 74.0579 774.044 439.983
1568 0 109.177 12.4843 1363 73.628 774.065 439.949
1569 0 109.24 12.4588 1361 74.3865 774.364 437.23
1570 0 115.218 11.9512 1377 74.2447 774.39 436.64
1571 0 113.093 12.1581 1375 75.2495 774.534 435.367
1572 0 119.103 12.2667 1461 74.5886 774.505 434.652
1573 0 119.147 12.5895 1500 75.0673 773.594 433.003
1574 0 124.07 12.3237 1529 75.5677 774.25 432.145
1575 0 124.162 12.5079 1553 76.1249 774.345 428.954
1576 0 129.124 12.5693 1623 75.4892 774.163 430.836
1577 0 130.12 12.7805 1663 75.8166 773.998 427.485
1578 0 131.088 13.0447 1710 75.9737 774.612 427.134
1579 0 136.116 12.2249 1664 77.4333 773.996 425.361
1580 0 137.197 12.3545 1695 77.7327 774.073 423.355
1581 0 140.124 12.3605 1732 78.5012 774.177 421.475
1582 0 145.131 12.9469 1879 77.1974 774.076 420.163
1583 1 72.1042 11.2476 811 83.4044 774.39 458.132
1584 0 75.063 11.4304 858 83.6457 774.239 457.521
1585 0 74.1205 12.048 893 83.5711 773.916 455.708
1586 0 77.0977 12.0756 931 83.305 774.834 455.251
1587 0 77.1634 12.5189 966 83.264 774.257 453.858
1588 0 81.1157 12.402 1006 82.7187 774.242 455.191
1589 0 80.1071 12.3959 993 84.2175 773.738 453.037
1590 0 81.1854 12.5515 1019 83.5947 774.149 453.239
1591 0 85.1527 12.2251 1041 83.2229 774.899 452.152
1592 0 86.0691 12.8269 1104 81.9665 774.618 452.358
1593 0 89.25 12.5826 1123 81.9172 774.378 450.752
1594 0 88.1312 12.9806 1144 81.674 774.239 449.583
1595 0 90.1296 13.2365 1193 81.0327 773.802 449.049
1596 0 92.1908 12.9622 1195 80.754 773.722 449.802
1597 0 93.1731 13.4159 1250 80.108 773.802 447.236
1598 0 94.1499 12.905 1215 80.884 773.962 446.616
1599 0 96.2225 13.0739 1258 79.9992 774.376 445.367
1600 0 98.1493 13.4183 1317 78.7737 773.828 445.314
1601 0 100.17 13.4172 1344 78.7173 773.95 442.027
1602 0 102.24 13.7519 1406 77.5875 774.218 443.747
1603 0 104.353 13.7418 1434 77.7155 774.036 442.084
1604 0 107.346 13.0513 1401 78.641 773.431 441.142
1605 0 110.152 13.3452 1470 77.4748 774.582 440.714
1606 0 112.159 13.1866 1479 77.7066 774.944 440.636
1607 0 114.178 13.2951 1518 77.7833 774.706 439.546
1608 0 115.225 13.261 1528 77.7565 774.635 438.611
1609 0 117.21 13.6165 1596 77.2782 774.127 437.964
1610 0 119.22 13.7645 1641 76.9951 773.674 434.883
1611 0 123.318 13.4773 1662 76.8845 773.526 435.17
1612 0 126.185 13.179 1663 77.3205 774.173 433.954
1613 0 128.205 13.2912 1704 77.4249 774.076 431.668
1614 0 130.319 13.7586 1793 76.802 774.437 432.077
1615 0 133.278 13.6557 1820 76.8577 774.116 429.276
1616 0 138.23 12.9711 1793 77.7697 774.567 427.297
1617 0 141.263 13.6696 1931 76.6168 773.553 426.724
1618 0 141.23 13.871 1959 76.8249 773.965 426.508
1619 0 143.24 13.3552 1913 77.5714 773.753 424.934
1620 0 148.239 13.5861 2014 77.3486 773.572 423.355
1621 0 150.221 13.4336 2018 77.8191 773.955 422.909
1622 0 155.229 13.8248 2146 77.0247 773.61 422.1
1623 0 158.216 13.5068 2137 77.9677 773.388 418.879
1624 0 161.207 12.791 2062 79.2798 773.471 417.772
1625 1 200.904 19.2082 3859 59.9484 773.9 395.135
1626 0 205.114 18.6969 3835 61.1578 773.14 393.947
1627 0 199.559 19.6534 3922 61.5418 773.847 393.788
1628 0 204.486 19.9623 4082 60.5715 773.678 391.115
1629 0 205.615 18.6709 3839 62.6848 774.782 386.01
1630 0 209.742 18.4608 3872 63.4917 774.061 386.362
1631 0 210.708 16.8432 3549 67.1031 773.066 386.473
1632 0 212.16 16.4215 3484 68.868 773.435 388.769
1633 0 212.271 16.2434 3448 70.3675 773.593 388.943
1634 0 211.769 15.1722 3213 73.4911 773.654 388.761
1635 1 84.2356 12.5838 1060 86.3406 774.119 455.444
1636 0 86.2377 12.9642 1118 86.3694 773.907 454.343
1637 0 89.1148 12.31 1097 86.6545 773.994 453.541
1638 0 91.2041 12.5981 1149 86.5326 773.72 452.709
1639 0 92.1165 12.6253 1163 86.147 773.951 450.267
1640 0 95.1576 12.7263 1211 85.8142 773.988 451.782
1641 0 97.1173 12.8195 1245 85.3695 774.201 449.628
1642 0 98.1713 12.743 1251 85.988 773.797 447.072
1643 0 103.206 12.3055 1270 85.1945 773.235 448.213
1644 0 103.199 13.1396 1356 84.3031 773.552 445.79
1645 0 107.244 12.4576 1336 84.9229 773.74 445.816
1646 0 109.152 13.1468 1435 84.0014 772.659 444.077
1647 0 110.164 12.9534 1427 84.2018 772.774 442.117
1648 0 115.228 12.7573 1470 83.8735 773.131 440.093
1649 0 116.11 13.048 1515 83.4046 772.96 438.927
1650 0 121.204 12.7553 1546 83.0899 773.314 440.198
1651 0 122.202 12.7084 1553 82.9208 773.554 437.847
1652 0 128.128 12.8933 1652 82.0266 773.743 436.277
1653 0 127.096 13.1711 1674 81.8734 773.752 437.29
1654 0 132.333 13.2998 1760 81.3693 773.72 433.903
1655 0 133.199 13.3034 1772 81.1507 773.73 434.603
1656 0 139.208 13.0236 1813 80.9195 773.702 432.778
1657 0 140.219 13.4718 1889 80.7226 773.562 429.08
1658 0 144.235 13.0343 1880 81.8 773.308 427.486
1659 0 146.141 13.008 1901 82.2162 772.894 424.428
1660 0 151.29 12.8032 1937 81.9246 773.41 425.687
1661 0 153.217 13.1774 2019 82.0857 773.542 423.077
1662 1 64.0339 12.103 775 84.1497 773.036 467.446
1663 0 62.0513 12.264 761 85.6794 773.397 465.754
1664 0 67.031 11.7707 789 85.2535 773.44 463.992
1665 0 66.0654 12.5482 829 84.801 773.122 464.622
1666 0 68.0523 12.0496 820 85.3927 772.811 463.198
1667 0 69.0704 12.5669 868 84.9136 772.438 462.056
1668 0 70.048 12.6485 886 85.3397 772.626 461.578
1669 0 73.1525 12.6311 924 84.6061 772.601 462.141
1670 0 78.1532 12.3347 964 84.6286 773.032 460.605
1671 0 80.1171 12.1447 973 85.3412 772.691 460.427
1672 0 77.0978 12.4128 957 86.2372 772.246 458.992
1673 0 80.0551 12.8412 1028 85.0914 772.816 458.562
1674 0 82.1364 12.7958 1051 85.6708 772.995 457.842
1675 0 85.1709 12.5865 1072 85.9104 772.868 455.839
1676 0 89.0961 12.0544 1074 86.7756 772.648 455.717
1677 0 88.0843 12.5221 1103 87.0616 773.165 454.422
1678 0 90.09 12.5985 1135 86.7348 773.025 454.127
1679 0 96.0701 11.6998 1124 88.2322 772.544 454.467
1680 0 96.193 12.1423 1168 88.3921 772.848 452.555
1681 0 97.0822 12.9787 1260 87.331 773.024 452.179
1682 0 101.102 12.7199 1286 87.5513 773.07 449.641
1683 1 49.1529 11.922 586 91.6058 773.032 474.06
1684 0 54.0206 11.2179 606 90.863 773.021 474.03
1685 0 53.0124 11.884 630 91.0064 773.227 472.311
1686 0 56.0257 11.6197 651 91.3533 773.296 472.699
1687 0 58.067 11.3317 658 91.2371 773.243 470.637
1688 0 61.0199 11.6192 709 90.4654 773.549 470.138
1689 0 62.0704 11.3903 707 90.7892 773.48 469.464
1690 0 63.0401 11.453 722 90.5277 773.568 469.326
1691 0 64.0878 11.3282 726 90.6336 774.076 466.449
1692 0 66.0904 12.1954 806 88.1501 773.834 467.381
1693 0 68.0658 11.3566 773 89.6598 773.48 466.168
1694 0 70.0989 11.655 817 88.5104 774.377 464.371
1695 0 73.0586 11.4292 835 87.9174 774.313 464.101
1696 0 74.1207 11.5083 853 87.4373 774.148 463.639
1697 0 76.0471 11.4403 870 81.9885 774.366 462.961
1698 0 78.0771 11.7192 915 82.0382 773.883 462.13
1699 1 39.0709 11.0824 433 83.3418 773.868 478.349
1700 0 41.0269 11.8215 485 80.5608 774.584 479.25
1701 0 44.0264 10.8117 476 81.6092 774.105 477.441
1702 0 44.0294 11.3788 501 80.2934 774.164 475.419
1703 0 46.0319 11.3182 521 79.8215 774.438 475.545
1704 0 49.094 11.4678 563 78.5524 773.869 475.14
1705 0 48.0202 11.8283 568 78.4014 773.914 474.884
1706 0 50.0198 11.9952 600 77.515 773.995 476.52
1707 0 52.0264 11.5326 600 77.8217 774.108 473.852
1708 0 53.016 12.0153 637 76.8242 773.703 473.799
1709 0 54.1116 11.9937 649 76.4977 774.379 472.575
1710 0 56.0754 12.3227 691 75.7598 774.029 470.706
1711 0 58.0235 11.7022 679 76.0943 774.222 471.133
1712 0 59.0475 12.2444 723 75.3486 773.667 470.028
1713 0 64.0235 11.652 746 74.6327 773.566 468.265
1714 0 63.0941 12.0138 758 73.6755 773.765 469.372
1715 0 67.1037 11.3854 764 74.4581 773.757 466.554
1716 0 67.0581 11.7808 790 73.7203 774.415 466.099
1717 0 70.1139 11.681 819 73.0916 774.596 464.807
1718 0 73.0307 11.4472 836 72.2811 774.64 464.366
1719 0 75.0851 11.9331 896 71.2879 774.239 463.089
1720 0 76.0773 12.3427 939 70.6049 774.199 461.991
1721 0 81.1528 11.2257 911 70.7695 774.339 459.294
1722 0 81.0641 12.2126 990 69.9646 773.934 459.183
1723 1 40.1256 11.1899 449 72.0757 774.16 478.352
1724 0 42.0338 11.5621 486 70.8951 774.249 477.883
1725 0 43.0098 11.6485 501 70.9142 774.415 476.261
1726 0 48.0757 11.1283 535 70.1178 774.86 476.527
1727 0 47.0703 11.4297 538 70.4219 774.862 474.348
1728 0 46.0461 12.0532 555 69.7207 774.522 475.577
1729 0 49.0352 11.6855 573 69.5131 774.288 472.796
1730 0 51.0557 12.3591 631 68.1062 774.862 471.759
1731 0 54.0408 12.1205 655 67.371 775.127 472.931
1732 0 56.0374 11.7243 657 67.5266 774.534 471.668
1733 0 56.0176 12.1569 681 67.3128 774.25 471.3
1734 0 58.1139 12.3206 716 66.1048 774.392 469.823
1735 0 58.102 12.2371 711 66.7187 774.519 468.854
1736 0 62.1939 12.4932 777 65.7452 774.337 466.175
1737 0 61.1676 12.3431 755 66.2781 774.978 466.434
1738 0 70.1076 11.6678 818 65.3093 774.522 463.916
1739 0 69.0478 12.4262 858 64.7611 774.641 463.548
1740 0 68.0308 12.2885 836 65.4844 774.518 461.404
1741 0 72.0414 13.0342 939 63.4878 774.792 462.361
1742 0 75.0691 11.909 894 64.9855 774.676 459.699
1743 0 80.0554 11.9292 955 64.5215 775.07 459
1744 0 81.1284 11.7468 953 64.957 775.142 456.889
1745 0 83.0356 12.3923 1029 64.5063 774.136 456.813
1746 0 83.0774 12.037 1000 65.739 774.403 453.039
1747 0 87.0949 12.5151 1090 64.8917 774.418 451.065
1748 1 43.0851 11.8835 512 66.8242 774.039 474.949
1749 0 45.1054 11.4842 518 68.0656 774.477 474.589
1750 0 47.1035 11.3367 534 67.7266 774.764 473.624
1751 0 47.0331 12.1404 571 67.4553 774.66 473.597
1752 0 51.0328 11.3456 579 67.6598 774.285 473.074
1753 0 49.0429 12.275 602 67.1312 774.254 471.191
1754 0 52.0508 12.5839 655 66.0779 774.519 470.443
1755 0 54.0418 11.7872 637 66.9482 774.903 472.741
1756 0 54.0499 12.581 680 66.5824 774.076 470.79
1757 0 56.0512 12.4529 698 66.6805 774.345 468.305
1758 0 58.1419 12.3663 719 67.1238 774.592 466.901
1759 0 59.0472 12.7694 754 66.6393 774.503 467.428
1760 0 61.0835 12.6712 774 66.4212 773.938 465.986
1761 0 66.1091 12.5247 828 65.9324 773.657 463.273
1762 0 66.0981 12.315 814 66.8882 773.87 465.636
1763 0 68.1269 12.8437 875 67.0194 773.589 463.409
1764 0 71.1476 12.1859 867 68.158 773.72 462.215
1765 0 73.0903 12.464 911 68.135 773.023 460.724
1766 0 74.1134 12.211 905 69.3127 773.019 458.857
1767 0 77.1157 12.4488 960 69.1875 771.845 457.195
1768 0 78.0842 12.2048 953 70.4218 772.336 456.197
1769 1 35.0241 11.3922 399 74.2105 772.639 478.516
1770 0 37.037 11.664 432 73.8611 772.625 478.058
1771 0 40.0221 10.6691 427 75.0843 772.738 476.03
1772 0 39.0212 12.0447 470 74.1681 773.232 475.385
1773 0 45.0408 11.4119 514 73.3171 773.01 476.397
1774 0 42.0419 11.9167 501 73.9162 772.339 475.81
1775 0 43.0162 12.3674 532 73.6466 772.156 473.348
1776 0 45.0386 12.8556 579 72.0311 772.347 473.463
1777 0 47.0499 12.4549 586 72.5256 772.713 471.753
1778 0 49.0707 11.9216 585 72.8513 772.479 470.983
1779 0 48.0631 12.2963 591 72.8139 772.462 469.667
1780 0 52.0877 12.3254 642 71.3224 772.96 469.715
1781 0 52.0291 12.1663 633 72.3002 772.066 467.755
1782 0 55.0675 12.7298 701 69.7917 772.837 467.183
1783 0 60.0955 12.5301 753 68.3466 772.487 466.228
1784 0 59.0739 12.2558 724 69.4862 772.784 464.144
1785 0 59.0588 11.8695 701 70.2311 771.987 460.331
1786 0 64.0826 12.203 782 68.1752 772.568 461.129
1787 0 66.1087 12.2526 810 67.5395 773.231 459.204
1788 0 70.0719 12.53 878 66.2323 773.49 458.795
1789 0 72.1286 12.7273 918 65.5338 773.736 458.071
1790 0 75.1097 12.6082 947 65.246 772.938 455.907
1791 0 76.0907 13.2473 1008 64.5704 773.449 454.131
1792 0 78.0594 12.6314 986 65.0994 773.805 453.809
1793 0 84.1599 12.8684 1083 63.9021 773.622 452.519
1794 0 84.1784 12.4973 1052 64.6416 773.778 450.371
1795 0 87.1331 13.29 1158 63.2332 773.85 450.383
1796 0 90.0916 12.7759 1151 63.5734 773.6 448.462
1797 1 48.0718 10.7963 519 65.2775 773.426 469.767
1798 0 50.0566 11.1674 559 64.1628 774.034 468.701
1799 0 51.0478 11.1464 569 64.8242 774.206 467.077
1800 0 52.0602 11.8132 615 63.774 773.954 467.369
1801 0 55.0763 11.8563 653 63.0092 773.836 464.227
1802 0 53.0491 11.348 602 64.8704 773.904 462.762
1803 0 56.0381 11.742 658 63.3526 774.232 462.271
1804 0 59.13 12.1258 717 61.9093 774.402 464.69
1805 0 63.0822 12.1746 768 61.0117 774.273 462.715
1806 0 61.0953 12.4068 758 62.0158 774.73 460.39
1807 0 63.1609 12.4602 787 61.8945 774.781 459.795
1808 0 66.0705 12.4261 821 61.5834 775.278 457.979
1809 0 72.1654 12.3882 894 60.7964 775.169 458.541
1810 0 71.0868 12.4918 888 61.7162 773.874 457.146
1811 0 73.0914 12.9427 946 61.3266 774.051 454.333
1812 0 76.0804 12.5262 953 61.51 774.82 454.954
1813 0 78.1092 13.2507 1035 60.6464 775.186 454.748
1814 0 82.164 13.3392 1096 60.354 775.299 452.92
1815 0 85.117 12.5357 1067 61.2006 776.727 451.485
1816 0 86.071 13.2565 1141 60.8773 775.231 450.174
1817 0 90.1237 12.8268 1156 60.9619 775.483 450.808
1818 0 91.0958 12.8766 1173 61.4467 775.341 446.401
1819 0 97.1599 13.0609 1269 60.6982 775.356 447.199
1820 0 99.0667 12.5774 1246 61.7143 775.952 445.393
1821 0 104.105 12.2856 1279 61.7842 775.958 442.073
1822 0 107.138 12.8806 1380 60.9978 776.17 441.708
1823 0 111.157 12.4868 1388 61.1463 776.081 439.478
1824 1 57.0869 11.0708 632 62.5127 775.483 466.769
1825 0 58.042 11.4055 662 62.5846 775.082 465.299
1826 0 61.0629 11.6765 713 61.6367 774.278 465.513
1827 0 59.0413 11.9238 704 61.9602 775.719 463.784
1828 0 63.0233 11.8528 747 60.9237 775.582 463.965
1829 0 64.0362 12.1338 777 60.4157 776.439 463.161
1830 0 66.0348 11.6605 770 60.8935 774.455 460.819
1831 0 68.1086 12.0102 818 59.7922 775.254 460.603
1832 0 69.04 11.8482 818 60.4108 774.452 457.856
1833 0 79.144 11.6117 919 58.3928 775.047 459.588
1834 0 76.1533 12.3435 940 58.1872 776.026 456.724
1835 0 78.1291 12.5433 980 57.2908 776.297 457.35
1836 0 79.0774 11.8997 941 58.5441 776.393 455.424
1837 0 83.1321 12.4862 1038 57.105 776.092 454.803
1838 0 85.2698 12.7595 1088 56.6011 775.866 453.764
1839 0 87.156 12.9997 1133 56.1906 776.191 452.839
1840 0 90.1023 13.0296 1174 56.1312 775.905 450.486
1841 0 93.207 12.7029 1184 56.5625 775.025 448.258
1842 0 97.2626 13.1603 1280 55.3367 775.835 448.428
1843 0 99.1279 12.8924 1278 55.507 775.808 447.567
1844 0 103.245 13.0853 1351 55.0363 775.774 445.355
1845 0 105.134 12.5839 1323 56.0869 775.888 442.719
1846 1 55.1576 9.95331 549 53.5519 776.142 467.652
1847 0 58.102 10.4816 609 53.1856 775.711 466.897
1848 0 60.068 10.8877 654 52.4113 776.376 467.445
1849 0 60.1344 10.5763 636 53.566 775.642 464.498
1850 0 65.1665 11.1867 729 51.454 775.262 464.712
1851 0 63.1136 11.3922 719 51.7441 774.848 460.694
1852 0 67.1452 11.0209 740 51.3865 775.024 462.849
1853 0 67.0833 10.9714 736 51.5802 775.69 462.67
1854 0 69.0795 11.465 792 50.3965 775.486 462.717
1855 0 73.0691 10.6338 777 51.0528 775.184 459.021
1856 0 72.1223 11.4805 828 50.1594 775.03 457.194
1857 0 74.0752 11.1508 826 50.3584 776.143 456.548
1858 0 79.0368 10.9063 862 50.0348 775.023 456.455
1859 0 79.0706 11.4328 904 49.5033 775.363 456.85
1860 0 82.0923 11.4383 939 49.3898 775.372 455.206
1861 0 88.2087 10.9966 970 49.3093 774.872 453.654
1862 1 47.0409 9.4386 444 47.0338 775.241 473.207
1863 0 47.0213 9.61267 452 47.2721 775.814 473.04
1864 0 49.0382 9.462 464 47.8987 775.543 472.131
1865 0 51.0306 10.3076 526 47.0418 775.485 470.5
1866 0 52.0297 9.49458 494 48.168 776.02 469.453
1867 0 55.0364 10.1024 556 47.25 776.148 467.683
1868 0 56.0242 10.2456 574 46.9669 776.019 469.213
1869 0 57.0675 9.90055 565 47.846 775.432 467.377
1870 0 55.0382 10.3746 571 47.9492 775.841 465.317
1871 0 58.0492 10.5428 612 48.0359 775.987 463.412
1872 0 62.0862 10.566 656 47.2866 776.707 464.48
1873 0 63.1164 10.441 659 48.047 776.727 462.926
1874 0 65.0815 10.5406 686 47.6137 776.895 462.516
1875 0 67.1123 9.23825 620 49.0339 776.453 458.503
1876 0 67.065 10.1245 679 47.9912 776.661 459.579
1877 0 71.0829 9.918 705 48.1589 776.058 457.233
1878 0 69.0702 10.8151 747 48.1312 776.708 456.426
1879 0 72.1528 11.046 797 47.2447 776.541 455.795
1880 0 76.1095 9.93306 756 48.1534 775.589 455.286
1881 1 42.0196 8.82921 371 47.0243 776.175 473.615
1882 0 40.0349 8.94219 358 47.3492 775.651 473.587
1883 0 42.0238 9.47082 398 47.2864 776.058 472.445
1884 0 40.0603 10.3843 416 47.6034 776.534 471.471
1885 0 43.03 10.667 459 46.9913 777.061 472.266
1886 0 45.0358 10.3695 467 47.9208 777.326 471.48
1887 0 44.0801 10.2087 450 49.1156 777.6 471.129
1888 0 48.0424 10.241 492 48.6118 776.431 471.181
1889 0 49.0333 10.5643 518 48.5965 775.911 470.708
1890 0 51.01 10.2529 523 48.7323 777.136 469.459
1891 0 51.0285 10.112 516 49.5891 777.041 469.463
1892 0 51.0468 10.5981 541 49.9926 776.839 469.168
1893 0 54.0416 10.4179 563 50.1741 777.105 465.963
1894 0 55.0388 10.9377 602 49.4352 777.113 467.435
1895 1 110.497 8.145 900 42.53 775.844 472.861
1896 1 59.054 11.0238 651 49.7972 777.468 465.344
1897 0 61.0609 10.3995 635 50.3181 776.402 463.18
1898 0 62.1365 10.9597 681 49.746 776.836 463.301
1899 0 64.1313 10.8683 697 49.9426 776.984 462.765
1900 0 66.0854 11.0463 730 49.5301 776.011 463.319
1901 0 66.0349 11.0245 728 49.8901 776.466 461.699
1902 0 70.1138 10.754 754 49.8926 776.336 461.938
1903 0 71.0882 10.4237 741 50.7868 775.803 458.329
1904 0 75.2167 11.2874 849 49.1543 776.69 459.005
1905 1 36.1316 9.88054 357 50.9748 776.412 477.521
1906 0 38.0901 9.29376 354 51.7684 776.466 476
1907 0 36.0158 9.85679 355 51.6423 775.814 474.648
1908 0 37.0476 9.93317 368 51.4674 776.573 475.978
1909 0 39.0689 10.6223 415 50.9831 775.923 473.152
1910 0 39.018 10.4311 407 52.4865 775.6 473.914
1911 0 41.0375 10.332 424 51.6014 774.653 472.708
1912 0 47.1167 9.74176 459 51.6274 775.155 472.004
1913 0 43.0229 10.9942 473 51.5391 775.495 470.708
1914 0 45.0328 10.8143 487 51.1992 775.353 472.55
1915 0 49.0396 11.4193 560 49.7804 774.954 471.196
1916 0 49.0684 11.0254 541 50.8595 775.041 470.02
1917 0 53.0793 10.0416 533 51.5779 775.021 467.664
1918 0 52.0596 10.9682 571 51.7968 775.422 467.149
1919 0 54.1198 10.3105 558 52.3943 775.172 466.106
1920 0 57.0357 10.3269 589 52.2886 775.243 464.958
1921 0 56.0375 11.1711 626 51.7476 775.982 466.661
1922 0 59.0781 11.1886 661 51.3631 775.69 465.148
1923 0 62.1266 11.042 686 51.4913 775.163 463.85
1924 0 63.0548 10.7525 678 51.764 775.652 462.13
1925 0 66.0539 10.9153 721 51.018 776.32 462.315
1926 0 66.0199 11.2239 741 51.0229 775.723 461.074
1927 0 70.1512 10.8622 762 50.9186 775.007 458.957
1928 1 179.651 14.4669 2599 41.6953 775.023 438.412
1929 1 74.0875 10.933 810 51.6395 775.433 456.163
1930 0 74.0959 11.2827 836 51.5622 775.584 455.798
1931 0 77.1066 11.0107 849 51.9988 776.24 452.548
1932 0 80.0962 11.0367 884 51.5554 775.87 452.385
1933 0 81.0922 11.4191 926 51.6544 775.89 451.245
1934 0 84.0779 11.1444 937 51.9573 775.936 448.023
1935 1 44.0232 9.495 418 52.1172 775.66 469.242
1936 0 44.0727 10.165 448 51.9933 775.996 470.902
1937 0 45.021 9.70659 437 52.7323 776.506 468.59
1938 0 44.0416 10.036 442 52.9321 776.36 466.466
1939 0 48.0469 10.3857 499 51.7675 775.469 468.387
1940 0 49.0585 10.5384 517 52.4023 776.424 465.203
1941 0 56.1012 10.1067 567 51.6949 776.288 464.323
1942 0 55.0239 10.1047 556 51.2716 776.189 463.603
1943 0 53.0172 10.8078 573 51.1344 776.649 462.759
1944 0 52.0142 10.9586 570 51.6 775.97 462.232
1945 0 56.0267 10.4771 587 51.3646 776.499 461.394
1946 0 55.0491 10.8994 600 50.9717 775.073 460.09
1947 0 60.102 10.7817 648 50.9676 775.804 460.934
1948 0 62.0543 11.6672 724 49.7956 776.001 461.22
1949 0 63.0901 11.6659 736 49.9226 775.959 458.929
1950 0 64.0491 10.851 695 51.7324 776.165 458.187
1951 0 68.1707 11.1485 760 50.4592 776.878 457.634
1952 0 70.1347 12.1623 853 48.9426 777.073 458.373
1953 0 70.082 11.5864 812 50.1071 776.542 456.733
1954 0 74.1196 11.5624 857 49.8973 777.27 453.706
1955 0 75.1393 11.6317 874 50.2552 777.041 453.815
1956 0 78.1041 11.5231 900 50.5356 776.919 451.66
1957 0 79.1238 11.6021 918 50.3279 776.423 451.141
1958 0 83.1492 12.1949 1014 49.4339 775.639 452.129
1959 1 38.0233 9.20488 350 52.1743 776.169 470.377
1960 0 43.033 9.55081 411 50.3139 776.832 471.384
1961 0 43.0139 10.0898 434 50.1267 776.118 470.212
1962 0 44.0297 10.9699 483 49.7246 776.17 472.284
1963 0 47.0616 10.2631 483 49.9834 775.963 471.255
1964 0 44.0187 11.2225 494 50.3198 776.451 470.18
1965 0 46.0464 11.1192 512 50.6699 776.742 469.322
1966 0 50.03 10.7935 540 50.2407 777.061 468.422
1967 0 50.0723 11.1039 556 50.0126 776.225 470.04
1968 0 53.0175 11.053 586 49.9096 777.135 469.031
1969 0 53.1047 10.6959 568 50.5563 776.951 467.556
1970 0 53.0545 10.8191 574 50.9286 777.134 465.894
1971 0 54.0317 11.2527 608 50.6184 776.556 466.566
1972 0 57.0559 11.7604 671 49.69 776.906 464.8
1973 0 60.0585 11.2723 677 49.3855 776.292 463.88
1974 0 59.0192 10.7084 632 50.4794 777.245 463.047
1975 0 63.0187 11.2665 710 49.1155 776.321 463.135
1976 0 65.1092 11.2426 732 48.985 776.049 461.742
1977 0 64.0597 11.5517 740 49.1905 776.241 460.531
1978 0 67.0441 11.306 758 49.1557 775.753 459.852
1979 0 69.0811 11.7398 811 48.619 775.932 458.856
1980 0 72.0821 11.2372 810 48.6136 776.614 456.825
1981 0 76.0821 11.527 877 47.7936 775.961 457.523
1982 0 77.0763 12.4682 961 46.5224 775.876 457.693
1983 0 79.1115 12.1727 963 46.9107 775.374 455.49
1984 1 38.05 10.5913 403 47.2283 775.536 473.337
1985 0 40.0786 9.88059 396 47.5657 775.157 473.066
1986 0 40.0237 9.94411 398 48.0905 775.435 471.219
1987 0 42.0483 10.4166 438 47.2055 775.619 470.995
1988 0 46.0779 10.4388 481 46.1268 774.96 469.852
1989 0 46.0809 10.6118 489 46.1063 775.327 469.315
1990 0 46.0185 11.1911 515 46.334 776.039 468.049
1991 0 50.0552 10.9279 547 45.5832 776.265 467.762
1992 0 50.0254 10.5746 529 46.3025 775.826 465.694
1993 0 54.0801 11.2611 609 45.1823 777.105 466.964
1994 0 50.0481 10.6498 533 47.1388 776.668 466.921
1995 0 56.0783 10.735 602 45.9635 776.786 466.171
1996 0 57.0801 11.1773 638 46.4138 775.654 464.071
1997 0 60.0707 11.9026 715 45.3832 776.298 463.206
1998 0 58.0475 11.8007 685 46.1255 777.057 462.12
1999 0 60.0334 11.3437 681 46.5316 777.438 461.31
2000 0 65.0427 11.4233 743 45.7537 776.05 459.549
2001 0 68.067 11.2683 767 45.7171 776.535 457.943
2002 0 68.0634 11.6215 791 46.0759 776.659 457.742
2003 0 69.0183 11.5042 794 46.2003 776.461 455.379
2004 0 72.104 11.5112 830 46.2916 776.353 455.024
2005 0 73.1077 11.1479 815 47.0773 776.201 455.096
2006 0 76.1253 10.7192 816 47.7341 776.75 452.355
2007 0 76.0887 11.2632 857 47.6849 776.434 452.065
2008 0 81.1057 10.6651 865 48.6393 776.565 448.523
2009 1 38.0639 9.66795 368 48.4402 777.22 471.261
2010 0 39.0493 9.1679 358 49.5084 777.134 470.726
2011 0 38.0635 10.0096 381 49.7349 776.929 470.244
2012 0 40.0741 10.231 410 49.5585 776.395 470.398
2013 0 39.0533 10.4985 410 50.6537 776.544 468.039
2014 0 44.0815 10.9343 482 49.1183 776.992 468.602
2015 0 44.0736 10.5052 463 49.7862 777.313 465.786
2016 0 46.0279 10.5154 484 49.0269 777.653 466.502
2017 0 47.0766 10.8971 513 48.9532 776.912 465.712
2018 0 51.0711 10.6127 542 48.8672 777.675 467.515
2019 0 52.0555 10.8346 564 48.6046 778.851 467.677
2020 0 55.0299 10.9032 600 49.08 777.667 465.557
2021 0 56.082 11.4475 642 48.6402 777.051 465.399
2022 0 55.1209 11.4476 631 49.2583 777.978 464.168
2023 0 60.1488 11.0227 663 49.6561 777.557 463.075
2024 0 61.0295 11.4535 699 48.9156 777.375 462.22
2025 0 63.1061 11.2826 712 49.4621 776.438 461.928
2026 0 64.0438 11.82 757 49.1678 777.054 462.461
2027 0 65.059 11.1284 724 50.5884 776.519 459.86
2028 0 67.0671 11.824 793 49.6318 776.67 459.357
2029 0 72.135 10.716 773 50.4127 777.798 456.57
2030 0 72.1492 11.7396 847 49.6269 777.306 456.894
2031 0 74.0756 12.2982 911 48.6795 777.206 457.341
2032 0 76.0652 11.6216 884 49.56 777.585 454.483
2033 0 81.1376 11.0306 895 49.6089 777.531 453.992
2034 0 81.0931 11.1847 907 50.0342 777.568 453.045
2035 0 82.1846 10.9875 903 50.175 777.256 450.441
2036 1 42.0815 9.95687 419 50.9332 776.819 472.103
2037 0 44.0692 10.6424 469 49.6418 776.731 472.053
2038 0 43.1125 10.8553 468 50.0534 776.378 471.209
2039 0 46.049 10.706 493 49.4442 776.669 469.651
2040 0 47.0283 11.0147 518 49.8571 776.365 469.838
2041 0 46.0388 11.5338 531 49.4294 775.207 468.486
2042 0 49.055 11.4158 560 48.8036 776.279 470.318
2043 0 52.088 11.135 580 48.5534 775.284 469.017
2044 0 53.0532 11.5356 612 48.3595 774.959 468.846
2045 0 54.052 11.5444 624 48.625 776.24 465.814
2046 0 58.0209 10.8582 630 48.7889 775.497 464.622
2047 0 57.0518 11.9365 681 48.1938 775.698 464.019
2048 0 60.1351 11.4742 690 48.1246 775.556 463.07
2049 0 63.0688 11.6856 737 47.4993 775.965 464.326
2050 0 64.0861 11.781 755 47.747 776.078 460.274
2051 0 66.0479 10.5984 700 49.3729 776.52 461.124
2052 0 65.0334 11.9477 777 48.1493 775.847 460.221
2053 0 69.0721 11.8427 818 48.3741 775.57 458.394
2054 0 72.0304 11.6756 841 48.3757 775.396 456.812
2055 0 71.0695 11.2425 799 49.5732 774.673 454.781
2056 0 74.0603 11.5987 859 48.5972 775.189 453.634
2057 0 80.0969 11.3612 910 48.3659 775.294 453.84
2058 0 79.1283 12.208 966 47.8747 775.005 451.374
2059 0 79.1478 11.0932 878 49.4123 775.667 449.623
2060 0 85.1147 11.8193 1006 48.1153 775.862 451.146
2061 1 44.1172 9.63343 425 49.9953 775.184 468.711
2062 0 48.0447 10.1156 486 49.0206 775.768 468.28
2063 0 46.091 9.85008 454 50.4868 775.837 467.515
2064 0 50.0352 9.89303 495 50.2404 775.687 468.372
2065 0 49.032 10.2586 503 50.8131 775.744 465.598
2066 0 50.0652 11.485 575 49.5513 775.743 465.8
2067 0 52.0329 10.8009 562 49.3381 776.315 463.89
2068 0 54.0525 11.1743 604 48.8361 776.674 464.354
2069 0 56.0202 11.2281 629 48.5437 777.057 464.218
2070 0 57.0714 10.811 617 49.611 777.006 460.358
2071 0 60.0276 10.8783 653 49.4349 776.988 459.976
2072 0 61.0418 11.3856 695 48.9496 776.436 460.55
2073 0 60.2025 10.7803 649 50.2943 776.753 459.772
2074 0 61.1087 10.555 645 50.3612 776.408 458.028
2075 0 65.0526 11.4369 744 49.3602 776.622 458.987
2076 0 69.0875 10.8703 751 49.3675 776.692 456.628
2077 0 70.0152 11.1976 784 49.074 776.793 456.11
2078 0 70.0996 10.4138 730 50.2466 777.779 454.43
2079 0 72.0293 11.9674 862 48.5232 778.152 455.834
2080 0 75.0806 11.2679 846 49.1454 777.635 454.444
2081 0 76.1108 11.8906 905 48.6718 777.901 454.135
2082 0 80.0883 11.7995 945 48.2942 777.454 453.671
2083 0 80.1248 11.7442 941 49.0797 776.977 451.876
2084 1 38.0344 10.3065 392 50.5332 776.296 470.962
2085 0 42.0654 9.91312 417 49.9305 777.429 472.544
2086 0 45.046 10.6336 479 48.9582 777.253 471.545
2087 0 40.186 11.2726 453 50.2715 777.086 471.386
2088 0 43.0301 10.5508 454 50.0088 777.079 470.782
2089 0 48.0863 10.6267 511 48.9746 776.669 470.673
2090 0 46.0211 11.0602 509 49.9862 776.515 468.648
2091 0 47.0504 11.2008 527 49.6812 776.507 468.008
2092 0 49.0149 11.6087 569 48.6098 776.294 469.144
2093 0 50.0346 11.0523 553 49.8499 776.611 469.056
2094 0 55.042 10.7191 590 49.5915 776.578 466.646
2095 0 53.0462 11.801 626 48.9696 777.22 466.53
2096 0 55.0131 11.6336 640 49.025 776.87 465.956
2097 0 59.0258 11.5204 680 48.5941 776.175 466.759
2098 0 58.037 11.4065 662 49.5151 776.231 462.06
2099 0 62.1135 11.3663 706 48.932 776.776 462.561
2100 0 62.0741 11.3574 705 48.983 776.803 461.963
2101 0 65.0644 11.7576 765 48.3137 776.545 461.733
2102 0 65.0385 12.4388 809 48.0371 775.51 459.991
2103 0 67.1373 11.6776 784 48.6008 775.473 457.287
2104 0 71.0372 12.6694 900 46.82 776.29 457.752
2105 0 73.0516 12.4022 906 47.0066 775.883 456.738
2106 0 76.0538 12.0836 919 47.2622 776.468 455.674
2107 0 76.0761 12.7504 970 46.8 776.494 455.377
2108 0 79.0454 11.9172 942 47.8503 775.511 453.308
2109 0 82.046 12.1273 995 47.6623 775.541 452.128
2110 0 83.07 12.1344 1008 48.2252 775.668 450.131
2111 0 86.1144 11.9957 1033 48.3756 775.732 449.47
2112 0 89.1443 11.7787 1050 48.4095 776.014 448.223
2113 0 93.1121 11.6311 1083 48.5448 775.874 447.193
2114 0 96.0507 11.723 1126 48.6243 775.991 444.993
2115 0 96.0705 12.0328 1156 48.8045 776.208 441.895
2116 0 99.0945 11.5244 1142 49.0648 776.19 441.99
2117 0 104.136 12.5317 1305 47.6728 775.729 441.338
2118 1 53.0629 11.5146 611 47.6056 775.759 463.684
2119 0 55.0208 11.6138 639 47.0532 776.521 463.607
2120 0 55.0538 11.8248 651 47.1813 776.167 463.255
2121 0 57.1402 11.603 663 46.911 775.958 462.163
2122 0 60.137 11.0248 663 47.8507 775.974 457.917
2123 0 59.2059 11.3502 672 47.6205 776.658 460.376
2124 0 59.2113 12.3118 729 47.2442 777.056 458.044
2125 0 62.1282 11.428 710 48.0521 776.661 456.431
2126 0 64.1339 11.9282 765 47.8353 776.665 455.544
2127 0 69.2166 11.3268 784 47.5702 777.441 455.324
2128 0 72.1344 13.0451 941 45.9012 777.546 455.207
2129 0 73.0804 12.4657 911 46.551 777.088 453.15
2130 0 78.224 12.4386 973 46.0051 777.633 452.999
2131 0 79.2005 13.2449 1049 45.7312 777.418 452.196
2132 1 134.27 10.4342 1401 40.8822 776.506 460.408
2133 1 82.1404 12.8195 1053 46.9687 777.129 450.511
2134 0 88.1404 12.1738 1073 47.014 777.085 447.896
2135 0 86.3424 12.879 1112 47.0324 776.566 445.665
2136 0 91.0841 13.2076 1203 46.6741 776.264 444.515
2137 0 92.2046 12.0601 1112 48.4505 776.76 442.744
2138 0 97.05 11.9217 1157 48.0596 776.684 442.499
2139 0 103.107 12.036 1241 47.8606 777.429 439.214
2140 0 105.091 12.6176 1326 47.4728 777.317 438.004
2141 0 108.152 12.843 1389 47.2851 777.41 438.241
2142 1 52.0365 10.6848 556 48.7158 777.101 465.84
2143 0 53.0279 10.221 542 49.8616 776.858 463.576
2144 0 57.0903 10.8074 617 49.4749 777.131 463.003
2145 0 58.0342 11.252 653 48.8576 777.028 463.096
2146 0 59.0558 11.8532 700 48.66 777.201 460.953
2147 0 61.0584 12.1687 743 48.4388 776.478 461.536
2148 0 61.0676 10.8896 665 50.3865 776.459 457.25
2149 0 64.1064 12.0113 770 48.674 776.106 457.9
2150 0 68.0243 11.6576 793 48.6419 776.217 456.803
2151 0 68.0936 11.7779 802 49.2095 776.263 455.575
2152 0 70.0584 11.0765 776 50.4716 777.03 453.573
2153 0 73.0393 11.6923 854 49.363 777.104 453.32
2154 0 76.0773 12.4347 946 48.4228 777.301 453.5
2155 0 80.1654 11.5262 924 49.829 776.811 450.53
2156 0 82.1312 11.3964 936 49.9348 776.739 451.588
2157 0 85.0951 12.1276 1032 49.4738 777.307 448.534
2158 0 85.2991 11.3366 967 50.847 776.826 446.581
2159 0 87.1667 11.6558 1016 50.7175 777.329 447.358
2160 0 93.1271 11.1138 1035 51.1778 777.672 446.001
2161 0 94.1213 10.6458 1002 52.0279 776.384 443.05
2162 0 99.1817 10.9294 1084 51.1347 777.086 443.216
2163 1 47.0449 10.8195 509 52.3752 777.532 467.363
2164 0 50.0608 10.9267 547 51.7934 777.349 467.505
2165 0 52.0782 11.1755 582 51.4691 777.342 465.962
2166 0 55.0431 11.2094 617 51.0972 776.862 463.387
2167 0 56.0913 9.98372 560 51.8161 777.584 464.488
2168 0 58.1296 10.9067 634 50.929 777.355 465.286
2169 0 57.0839 11.3867 650 50.5892 777.566 462.492
2170 0 62.0828 10.8887 676 50.5562 777.286 461.639
2171 0 65.1043 11.5046 749 49.5848 777.115 461.35
2172 0 66.0477 11.6128 767 49.6897 776.803 459.941
2173 0 69.0612 11.3812 786 49.8321 777.945 458.26
2174 0 70.2084 12.0213 844 48.8507 777.406 457.911
2175 0 72.133 11.2015 808 49.5928 777.568 456.572
2176 0 74.1099 12.0092 890 48.4438 777.697 456.597
2177 0 77.1432 11.9388 921 48.5049 777.805 452.134
2178 0 78.1296 11.7625 919 49.2035 778.161 449.839
2179 0 79.085 11.5319 912 49.6546 778.075 449.69
2180 0 87.1102 11.4568 998 48.5561 777.458 449.29
2181 0 87.2974 11.2947 986 50.2911 777.272 447.777
2182 1 47.0651 10.5598 497 50.7827 777.344 469.29
2183 0 48.0114 10.56 507 51.3925 777.611 466.929
2184 0 48.046 10.9895 528 51.3011 777.123 467.939
2185 0 50.0895 10.5611 529 51.8866 777.454 466.078
2186 0 52.0953 11.7861 614 50.5342 777.257 465.041
2187 0 52.0896 11.365 592 51.6993 777.353 462.713
2188 0 54.0901 11.259 609 52.2332 777.402 463.626
2189 0 56.1038 11.6391 653 51.5222 777.928 462.637
2190 0 58.0465 11.4391 664 51.4548 777.884 462.345
2191 0 62.0593 11.6018 720 50.6819 778.374 461.288
2192 0 62.0848 11.3393 704 50.8267 777.493 459.31
2193 0 63.0386 10.9615 691 51.055 777.726 457.313
2194 0 65.0694 11.3264 737 50.4016 777.498 457.478
2195 0 67.0916 11.6706 783 50.1137 778.28 455.407
2196 0 71.2751 11.5468 823 50.0097 777.678 455.179
2197 0 71.0913 11.6329 827 50.3071 778.045 454.285
2198 0 73.0971 11.6831 854 50.3326 777.951 455.165
2199 0 74.085 12.1347 899 50.1902 777.897 453.612
2200 0 77.1662 11.6502 899 50.4761 778.198 452.504
2201 0 80.0296 12.1205 970 49.7753 778.653 451.527
2202 0 84.1048 11.7354 987 49.9787 777.571 451.291
2203 0 86.0933 11.8011 1016 50.4134 777.764 448.153
2204 0 88.1197 11.3822 1003 51.2891 778.292 447.583
2205 0 93.0879 12.1283 1129 50.2064 778.178 447.012
2206 0 93.1108 11.8676 1105 51.409 777.866 445.208
2207 0 97.1391 11.8284 1149 51.5561 778.13 443.858
2208 0 99.1591 12.0312 1193 51.4241 778.125 442.434
2209 0 101.099 11.3454 1147 53.2432 778.236 439.417
2210 1 52.0819 10.5027 547 56.6965 778.079 463.81
2211 0 57.0974 10.7535 614 56.4316 777.627 464.2
2212 0 59.0792 11.3576 671 55.2295 778.504 462.686
2213 0 60.0432 11.3918 684 55.8129 778.677 461.345
2214 0 60.1201 11.7598 707 55.4286 778.853 460.83
2215 0 63.0684 11.765 742 55.6725 777.1 458.95
2216 0 63.0745 11.3041 713 56.5764 777.405 458.123
2217 0 65.1714 11.4928 749 55.8932 777.473 456.055
2218 0 69.1607 11.2925 781 55.7106 777.501 455.506
2219 0 72.1209 12.2017 880 54.4909 777.78 455.815
2220 0 71.0971 12.0399 856 55.0608 777.999 454.372
2221 0 76.1067 11.8255 900 54.7811 777.897 452.639
2222 0 80.1022 11.6351 932 54.9614 776.975 451.299
2223 0 83.1115 12.3569 1027 53.3155 777.487 451.406
2224 0 86.126 11.5645 996 54.2068 777.114 449.388
2225 0 86.0874 12.3828 1066 53.8152 777.46 448.416
2226 0 89.0837 11.2928 1006 54.5159 777.846 446.128
2227 0 92.1728 12.1294 1118 54.1869 777.851 443.448
2228 0 95.0602 12.0976 1150 54.2156 776.99 443.48
2229 0 97.1945 11.4616 1114 55.1948 777.424 441.048
2230 1 47.1224 10.8441 511 58.2231 777.661 468.748
2231 0 50.0932 10.9196 547 57.7733 776.934 468.98
2232 0 49.0478 12.0291 590 58.2288 777.193 467.89
2233 0 51.0607 11.9466 610 58.6803 777.802 465.166
2234 0 54.0487 12.6183 682 57.412 777.16 465.287
2235 0 53.0475 12.272 651 58.4946 777.897 464.687
2236 0 57.1042 11.6979 668 58.8488 777.816 462.883
2237 0 59.1291 11.551 683 59.2533 777.448 460.378
2238 0 62.0984 12.1098 752 58.0625 777.915 460.682
2239 0 62.1395 12.2145 759 58.1212 778.083 458.74
2240 0 64.0883 12.6544 811 57.7411 777.813 459.441
2241 0 66.0669 12.1846 805 58.4534 777.64 455.293
2242 0 68.1383 12.2985 838 58.4069 777.656 456.378
2243 0 70.0489 12.9481 907 57.4994 778.126 454.617
2244 0 73.1213 12.7459 932 57.5837 777.407 454.538
2245 0 74.1176 11.927 884 58.6708 777.414 452.94
2246 0 78.1026 12.5348 979 57.9561 777.459 451.08
2247 0 80.0484 11.8428 948 58.8914 777.172 447.914
2248 0 84.1736 12.1297 1021 58.4339 777.073 448.455
2249 1 40.0265 10.7928 432 62.8866 776.463 469.924
2250 0 41.0763 10.9309 449 62.931 777.572 468.837
2251 0 45.0178 10.9068 491 62.4949 777.418 468.033
2252 0 43.015 11.8563 510 62.3549 778.153 467.055
2253 0 46.0637 11.419 526 61.7624 777.972 466.27
2254 0 47.0318 12.3746 582 60.701 777.301 466.787
2255 0 48.0104 12.5181 601 60.9967 777.667 464.93
2256 0 50.0735 11.563 579 61.6235 778.14 463.292
2257 0 50.0844 11.9798 600 61.52 778.28 462.72
2258 0 56.0145 11.622 651 60.6344 778.011 462.69
2259 0 54.0425 12.1756 658 60.8222 778.175 460.594
2260 0 59.138 12.0904 715 59.9021 777.862 460.618
2261 0 62.0254 11.8177 733 60.2265 777.195 457.576
2262 0 59.0206 11.352 670 61.9119 777.431 454.122
2263 0 62.0926 12.7712 793 60.0681 777.849 456.47
2264 0 67.0286 12.4275 833 59.9976 777.743 454.999
2265 0 72.0987 11.4565 826 60.2446 777.816 453.469
2266 0 72.1773 12.4 895 60.1374 777.896 453.535
2267 0 75.0802 11.5876 870 61.0023 777.041 451.653
2268 0 75.0784 11.8942 893 61.318 777.821 448.661
2269 0 77.0584 12.2115 941 60.8268 778.366 447.546
2270 0 81.1195 12.1303 984 61.0346 777.898 448.065
2271 0 82.1487 11.7957 969 61.5377 778.044 445.879
2272 0 86.0522 11.6325 1001 61.4595 778.001 443.91
2273 0 87.2314 12.3121 1074 61.3277 778.186 443.403
2274 1 42.071 11.1003 467 64.7045 778.597 466.347
2275 0 47.1425 12.3456 582 61.3728 778.825 468.069
2276 0 44.0513 11.3277 499 64.8437 778.361 463.691
2277 0 50.0308 11.353 568 63.0141 778.954 462.208
2278 0 50.051 10.7091 536 64.4422 778.752 461.448
2279 0 54.0513 12.1366 656 61.2912 778.044 463.195
2280 0 55.0412 12.3181 678 61.0855 778.916 462.491
2281 0 59.0679 11.3937 673 61.7533 779.042 461.639
2282 0 61.1141 12.8776 787 59.1601 778.385 461.149
2283 0 59.0435 11.9065 703 61.7312 778.427 458.696
2284 0 62.0303 11.978 743 61.5451 778.252 457.464
2285 0 64.0602 12.3009 788 61.1536 778.461 457.779
2286 0 69.1038 12.4161 858 60.2681 778.847 456.097
2287 0 71.0993 11.7582 836 61.5048 778.525 453.639
2288 0 74.1137 12.0356 892 61.0919 777.632 454.772
2289 0 75.0658 12.3625 928 61.2522 778.93 452.567
2290 0 79.1574 13.1131 1038 60.0434 779.168 451.716
2291 0 82.0874 12.8278 1053 61.0598 779.11 449.05
2292 0 81.1643 12.2591 995 62.1729 778.687 447.731
2293 0 87.0829 12.1264 1056 62.4148 778.092 446.225
2294 0 88.0771 12.3188 1085 62.5465 778.331 445.803
2295 0 93.1349 12.5195 1166 61.9451 778.245 443.107
2296 1 40.0226 10.7689 431 66.5012 778.828 467.974
2297 0 45.0115 11.9969 540 63.5333 779.157 468.741
2298 0 43.0288 11.2483 484 66.1715 778.977 466.831
2299 0 46.0346 12.2299 563 64.7424 778.787 465.32
2300 0 50.0284 11.7133 586 64.6212 777.882 464.91
2301 0 51.0447 11.7544 600 64.29 779.108 464.327
2302 0 53.0443 10.6892 567 65.8871 778.741 462.314
2303 0 56.0276 11.887 666 63.5796 779.272 464.474
2304 0 55.0715 11.9663 659 64.2367 779.174 462.442
2305 0 59.0928 12.4381 735 62.5238 779.146 460.721
2306 0 59.0647 11.4281 675 64.8326 779.387 458.785
2307 0 62.0582 13.0684 811 62.4686 778.698 458.977
2308 0 66.1075 12.0107 794 63.2229 778.498 457.402
2309 0 66.0996 13.2225 874 61.9462 779.414 458.858
2310 0 70.1443 12.8735 903 61.6135 779.224 457.721
2311 0 68.0642 11.6361 792 65.1326 778.442 453.888
2312 0 72.1204 12.6317 911 62.8233 778.603 455.572
2313 0 74.0732 12.9467 959 61.9291 778.535 455.473
2314 0 77.1951 12.5785 971 62.3141 779.131 453.03
2315 0 76.0582 12.4641 948 63.8776 778.707 451.081
2316 0 79.1308 12.3719 979 64.3095 779.151 447.457
2317 0 83.139 12.0521 1002 64.1437 779.001 448.653
2318 0 83.1128 11.9596 994 64.825 778.949 446.924
2319 0 88.0864 12.0223 1059 64.0312 779.2 445.953
2320 1 46.0569 10.487 483 62.1781 779.184 467.868
2321 0 48.0389 10.9495 526 61.4011 779.464 468.07
2322 0 47.0206 10.5273 495 63.0343 778.996 466.37
2323 0 53.0607 10.4032 552 61.7029 779.266 465.252
2324 0 50.0216 10.5954 530 62.4981 779.051 463.708
2325 0 56.0245 10.7453 602 60.5133 779.166 464.208
2326 0 57.0373 11.1331 635 60.389 778.86 463.197
2327 0 60.096 10.4832 630 60.6429 778.405 460.821
2328 0 60.0446 11.5581 694 59.9524 778.791 461.754
2329 0 64.0491 11.9908 768 58.5924 778.21 460.749
2330 0 65.074 12.1247 789 58.8593 778.778 458.823
2331 0 65.0468 11.4379 744 60.5202 778.659 457.739
2332 0 71.0361 10.5439 749 60.4967 778.67 456.087
2333 0 74.0594 11.2612 834 59.06 778.757 454.192
2334 0 73.145 10.7048 783 60.8148 778.706 452.017
2335 0 80.0451 12.4305 995 57.1357 778.957 454.625
2336 0 79.038 11.9942 948 58.9768 778.639 451.294
2337 0 83.1032 11.5158 957 59.0282 778.918 452.343
2338 0 85.0271 11.6081 987 59.3435 779.34 449.412
2339 0 88.0991 10.7379 946 60.8245 778.596 447.965
2340 0 88.0706 11.082 976 60.8996 778.596 445.434
2341 1 45.0615 10.0307 452 60.365 778.681 467.199
2342 0 50.0788 10.2239 512 59.4394 777.818 467.484
2343 0 47.0436 9.77816 460 61.3196 778.833 466.917
2344 0 48.0462 10.1985 490 60.8674 778.129 466.141
2345 0 52.0688 11.0623 576 58.4653 778.502 467.259
2346 0 56.0118 10.7299 601 58.6439 779.035 466.825
2347 0 54.1609 10.2103 553 60.472 779.418 464.054
2348 0 56.0708 10.2727 576 60.651 778.363 464.694
2349 0 55.0975 9.18373 506 62.2767 779.093 461.29
2350 0 59.0632 10.1417 599 60.8097 779.017 462.098
2351 0 63.0556 11.3075 713 58.4194 779.492 462.539
2352 0 64.082 11.1264 713 58.6858 779.37 461.144
2353 0 65.0386 10.2247 665 60.391 778.89 458.403
2354 0 65.1008 9.93843 647 61.3957 778.944 457.521
2355 0 67.1059 9.99912 671 61.3577 778.542 457.765
2356 0 68.0716 9.63691 656 62.4909 779.052 455.459
2357 0 72.0632 10.2549 739 61.5778 779.696 455.498
2358 0 75.0657 8.95215 672 63.6027 778.826 453.619
2359 0 78.1028 10.0893 788 62.2373 778.973 455.373
2360 1 38.0412 8.43821 321 63.6854 779.165 471.268
2361 0 41.0254 9.55506 392 63.102 779.174 469.62
2362 0 41.0151 10.0695 413 63.7046 779.259 468.927
2363 0 41.0112 10.1436 416 64.1058 778.976 470.942
2364 0 46.0309 10.0802 464 64.3599 778.56 470.862
2365 0 45.008 10.2871 463 64.7689 778.343 469.743
2366 0 47.0171 9.74114 458 65.238 779.007 470.135
2367 0 47.0185 8.9752 422 66.2725 779.052 467.076
2368 0 51.0371 10.2474 523 63.1128 779.375 467.168
2369 0 52.0698 9.6217 501 63.992 778.361 466.224
2370 0 55.0265 9.88615 544 62.7132 778.498 465.204
2371 0 53.0489 10.4432 554 63.0505 778.899 465.428
2372 0 56.1127 10.9244 613 61.478 779.467 463.509
2373 0 59.0331 9.79111 578 61.7751 779.706 462.382
2374 0 63.0897 10.8259 683 59.3397 778.813 463.054
2375 0 65.0822 9.48032 617 60.8104 778.909 459.882
2376 0 64.1447 9.19795 590 61.7102 778.922 458.741
2377 0 68.0835 9.67929 659 60.8528 778.558 456.395
2378 0 71.138 11.2458 800 58.2238 778.888 459.74
2379 0 69.0981 9.4648 654 60.3394 779.335 457.095
2380 1 36.0528 10.3182 372 60.4274 778.54 473.532
2381 0 36.0324 9.96325 359 61.3426 779.125 472.783
2382 0 36.1829 10.3087 373 60.8954 778.962 470.861
2383 0 42.0995 10.3089 434 58.8848 778.355 473.924
2384 0 40.0421 10.414 417 59.0336 778.518 470.789
2385 0 39.022 10.5325 411 59.2506 777.744 468.465
2386 0 44.0544 11.5085 507 56.7258 778.106 469.968
2387 1 85.634 8.79324 753 49.4276 778.299 472.797
2388 1 47.0611 10.6245 500 57.488 778.476 465.812
2389 0 48.0353 11.0336 530 56.5906 778.67 467.645
2390 0 48.0558 10.5502 507 57.213 779.071 467.039
2391 0 52.0522 11.7574 612 55.0278 778.266 466.23
2392 0 52.0457 11.2785 587 56.0221 778.591 464.746
2393 0 59.0551 11.3961 673 54.2348 779.114 465.12
2394 0 58.1253 10.7354 624 55.8125 779.282 463.923
2395 0 58.1545 11.0396 642 55.4611 778.941 462.555
2396 0 60.1472 11.5716 696 54.2859 778.53 461.017
2397 0 59.0872 11.5592 683 55.489 777.439 461.46
2398 0 64.1115 10.6845 685 55.2073 778.302 458.663
2399 0 65.0958 10.2464 667 56.3313 777.834 457.259
2400 0 66.1362 10.3272 683 56.1318 778.991 457.741
2401 0 69.0797 10.582 731 55.2066 778.714 457.185
2402 0 68.1175 10.7315 731 55.5308 779.386 454.713
2403 0 71.1043 10.7026 761 55.544 779.3 452.522
2404 0 73.1411 10.5686 773 55.467 779.242 453.001
2405 0 75.1367 10.1814 765 56.3477 778.741 449.756
2406 0 76.1554 10.7675 820 56.0537 779.04 450.817
2407 0 78.1767 10.3611 810 57.4 778.593 449.349
2408 0 83.1893 10.9389 910 55.8692 779.036 448.238
2409 0 85.1896 10.0012 852 57.2265 779.347 446.02
2410 0 87.0539 10.5911 922 57.1866 779.176 446.475
2411 1 42.0668 10.626 447 59.3848 779.638 467.564
2412 0 46.0916 10.1754 469 60.2047 779.158 466.452
2413 0 49.1207 10.5251 517 59.7002 778.932 467.876
2414 0 45.16 10.961 495 60.3939 779.459 466.43
2415 0 48.1334 10.8449 522 60.7854 779.617 463.879
2416 0 51.0913 11.2935 577 60.1213 779.894 464.409
2417 0 49.0906 10.613 521 62.2457 779.804 463.372
2418 0 52.0869 10.7897 562 61.5107 779.318 461.527
2419 0 57.1878 10.9114 624 60.4038 779.285 461.994
2420 0 56.1019 10.9444 614 60.9511 778.935 459.547
2421 0 57.133 11.0619 632 60.8481 779.345 457.943
2422 0 60.1557 11.6032 698 59.6146 779.456 457.937
2423 0 62.0692 11.2455 698 59.4914 779.183 456.156
2424 0 64.1169 10.3717 665 60.1759 779.568 454.585
2425 0 65.1393 10.9918 716 59.3841 779.413 454.029
2426 0 66.0638 10.7018 707 59.8911 779.412 452.522
2427 0 73.076 10.7559 786 59.1794 778.531 452.551
2428 0 73.1081 11.2299 821 58.6663 778.639 452.071
2429 0 76.1511 10.9519 834 59.0216 779.074 450.14
2430 1 37.0356 9.34238 346 62.3497 779.15 470.607
2431 0 35.0343 9.56206 335 63.394 778.648 466.424
2432 0 41.0305 10.4069 427 61.1944 778.37 467.005
2433 0 41.0386 10.0881 414 61.9179 778.512 464.855
2434 0 44.089 10.0479 443 61.693 778.682 464.639
2435 0 44.0278 10.3117 454 61.1784 778.425 465.474
2436 0 47.0726 10.7494 506 60.419 778.544 464.253
2437 0 49.0282 10.5653 518 60.3707 778.645 462.261
2438 0 49.0501 10.5402 517 60.1122 778.186 462.87
2439 0 51.0852 10.3748 530 59.4755 777.57 461.319
2440 0 50.017 10.5564 528 60.0776 778.375 459.237
2441 0 52.0393 11.7027 609 58.514 778.053 459.839
2442 0 55.0608 10.8426 597 59.2529 777.697 458.405
2443 0 54.0822 11.3716 615 58.639 778.888 456.556
2444 0 58.033 11.1661 648 58.0818 777.863 457.704
2445 0 60.0368 11.443 687 57.7089 777.921 454.796
2446 0 60.0988 11.7473 706 57.5906 778.217 454.887
2447 0 64.0432 11.4766 735 56.9918 778.638 455.608
2448 0 69.0276 12.4153 857 55.07 778.931 455.356
2449 0 67.045 11.1716 749 57.1108 778.501 451.139
2450 0 70.0984 11.5409 809 56.4042 778.422 451.649
2451 0 72.0693 12.0023 865 55.8532 778.743 450.158
2452 0 77.053 11.9139 918 54.9891 778.596 450.224
2453 0 76.1523 10.9255 832 56.238 778.731 446.044
2454 0 84.1033 10.8557 913 55.3198 778.547 446.315
2455 1 41.1326 9.50584 391 57.4476 778.691 466.169
2456 0 41.0615 10.7156 440 56.2864 778.6 467.052
2457 0 42.0294 10.2071 429 56.8834 778.345 465.895
2458 0 44.0944 10.863 479 55.7182 779.14 463.846
2459 0 48.0683 10.9428 526 54.4221 779.542 464.639
2460 0 45.0647 10.8733 490 55.1612 779.31 463.206
2461 0 46.0761 10.678 492 55.7012 778.474 461.795
2462 0 48.0682 11.2756 542 54.5627 778.269 462.651
2463 0 51.0491 11.4596 585 54.0701 778.774 463.605
2464 0 56.1103 10.9962 617 53.9595 778.567 458.898
2465 0 55.0809 11.238 619 54.2456 778.509 458.467
2466 0 57.0488 12.0248 686 52.9767 779.204 459.35
2467 0 59.1541 10.9544 648 53.6867 778.654 456.147
2468 0 61.0957 11.6702 713 52.5806 778.72 458.435
2469 0 66.1673 10.6699 706 52.9533 778.372 455.916
2470 0 66.1526 10.9444 724 53.1547 778.468 455.528
2471 0 66.2008 11.6766 773 52.5563 779.202 454.896
2472 0 72.1961 11.5657 835 51.6874 778.274 453.901
2473 0 73.071 11.3999 833 51.6074 778.232 451.309
2474 0 74.1624 11.1782 829 52.1978 777.353 450.374
2475 0 76.1939 10.8539 827 52.1306 777.484 449.538
2476 1 38.0534 9.72318 370 53.5135 776.741 468.981
2477 0 38.0787 10.1106 385 52.9506 777.592 469.086
2478 0 40.0413 10.639 426 52.4695 777.657 467.317
2479 0 40.0463 9.56393 383 53.5326 777.569 466.128
2480 0 42.0766 10.5046 442 52.6199 776.67 464.966
2481 0 42.0186 10.6143 446 53.2892 777.363 465.608
2482 0 45.0543 10.676 481 52.8919 777.426 464.189
2483 0 46.0537 10.7917 497 52.6901 777.39 464.718
2484 0 48.0159 10.5382 506 52.585 776.642 462.514
2485 0 51.036 11.2078 572 51.5437 776.96 464.021
2486 0 52.0849 10.6365 554 52.2527 776.56 461.238
2487 0 51.042 10.8734 555 52.6865 777.196 459.104
2488 0 54.0653 10.7278 580 52.8103 778.1 459.629
2489 0 58.0352 12.458 723 50.5712 777.498 460.71
2490 0 60.0544 11.1565 670 52.2478 777.264 455.74
2491 0 59.0662 11.5633 683 52.451 777.067 457.062
2492 0 60.1231 10.7446 646 53.4257 777.461 455.156
2493 0 65.0494 12.6519 823 51.0875 777.442 457.576
2494 0 70.0411 12.5926 882 50.6837 777.083 457.235
2495 0 70.1006 11.9828 840 52.3667 777.154 453.35
2496 0 73.0849 11.7535 859 52.4494 777.646 453.175
2497 0 73.1371 11.1708 817 54.0416 777.562 451.767
2498 0 76.0892 12.0779 919 53.4255 777.195 451.912
2499 0 80.1432 13.2887 1065 51.9615 777.209 451.902
2500 0 79.0741 11.837 936 54.86 777.186 447.32
2501 0 81.1271 11.4635 930 55.2742 777.423 445.809
2502 1 40.0168 9.32109 373 57.4504 776.901 466.764
2503 0 40.0355 9.94117 398 58.01 777.206 465.043
2504 0 43.0782 10.2372 441 57.8095 776.413 465.576
2505 0 46.035 10.1444 467 57.985 777.522 463.792
2506 0 49.049 10.6424 522 56.659 777.713 465.557
2507 0 49.0233 10.6684 523 57.6348 777.658 461.641
2508 0 49.037 9.68657 475 58.6232 778.048 461.855
2509 0 50.0563 11.6269 582 56.5292 777.254 463.701
2510 0 53.0978 11.5071 611 56.8772 778.223 462.111
2511 0 57.0288 11.1873 638 56.5376 778.045 462.002
2512 0 56.257 9.741 548 57.9361 778.139 456.651
2513 0 56.1059 10.8901 611 58.1228 777.396 455.975
2514 0 57.1148 11.0304 630 58.0333 777.76 456.549
2515 0 68.0953 10.5 715 57.1385 777.552 457.02
2516 0 63.1105 11.1234 702 58.1966 776.781 454.796
2517 0 66.1237 11.9322 789 57.0177 777.431 456.516
2518 0 67.0471 11.5739 776 57.7925 777.924 453.316
2519 0 71.084 10.4806 745 59.1611 777.324 450.966
2520 0 72.1097 11.5934 836 57.805 777.031 451.737
2521 0 75.0841 11.2807 847 57.987 777.196 450.636
2522 0 75.0242 11.1164 834 58.6595 777.507 448.044
2523 0 83.1514 12.5915 1047 56.1012 777.323 450.519
2524 1 38.0242 10.0462 382 62.1387 777.259 469.086
2525 0 40.0598 10.4344 418 61.8588 777.816 468.596
2526 0 40.0129 10.1717 407 63.4447 777.285 466.504
2527 0 44.0147 10.9282 481 61.8337 777.599 466.358
2528 0 45.0881 11.5995 523 61.1721 777.65 466.231
2529 0 45.0179 10.8401 488 62.3525 777.553 465.656
2530 0 47.0199 10.2723 483 63.1801 777.482 464.696
2531 0 48.0536 10.5923 509 63.4047 777.265 463.54
2532 0 53.024 11.8626 629 60.1765 777.776 465.696
2533 0 51.0309 11.6792 596 62.0688 776.832 461.646
2534 0 51.0148 10.8204 552 63.1685 776.304 462.583
2535 0 54.0753 11.2251 607 61.9209 777.007 461.563
2536 0 56.0796 11.1984 628 62.2134 777.56 459.338
2537 0 58.0502 11.9724 695 61.4245 776.778 459.858
2538 0 59.0787 10.613 627 63.4514 776.703 457.19
2539 0 57.0395 11.4657 654 63.4281 776.658 456.43
2540 0 63.0451 10.7383 677 63.5229 776.74 454.71
2541 0 61.0581 11.2352 686 63.4854 777.29 454.883
2542 0 68.0702 11.3853 775 62.5819 776.654 454.992
2543 0 66.0422 11.7198 774 63.0194 777.735 452.094
2544 0 73.0672 11.2773 824 62.8884 777.313 453.487
2545 0 72.0695 11.9329 860 62.8291 777.626 451.093
2546 0 76.0934 11.4333 870 63.4299 778.094 451.628
2547 0 74.055 10.5597 782 65.8619 777.329 448.133
2548 1 36.0081 10.3032 371 67.5849 777.709 472.016
2549 0 40.0465 10.9623 439 65.8998 777.535 472.793
2550 0 40.0331 11.1658 447 66.6421 777.823 468.915
2551 0 37.0168 10.4277 386 69.4689 777.785 467.51
2552 0 39.0182 11.8663 463 67.2635 778.359 468.553
2553 0 44.0757 11.276 497 66.4366 777.694 466.523
2554 0 43.0305 11.7823 507 66.1341 777.6 465.872
2555 0 45.0616 11.451 516 66.3624 777.436 463.764
2556 0 47.0292 12.269 577 64.8648 777.357 464.981
2557 0 50.1388 10.8499 544 66.0919 776.781 463.366
2558 0 51.0362 11.9327 609 64.2923 777.452 464.406
2559 0 52.0975 12.2079 636 64.261 777.695 461.418
2560 0 55.0318 11.9204 656 63.9619 777.636 463.46
2561 0 53.0466 11.8575 629 64.8506 777.464 461.328
2562 0 58.0608 12.263 712 62.7514 777.44 460.41
2563 0 58.0443 12.5249 727 62.553 778.023 459.014
2564 0 59.0344 12.1624 718 62.8691 777.44 457.777
2565 0 64.0719 11.4559 734 62.9387 777.635 455.377
2566 0 62.1205 11.5904 720 63.3375 777.036 454.557
2567 0 66.1243 11.3574 751 62.8522 777.37 453.23
2568 0 69.0548 10.803 746 63.2292 776.772 448.587
2569 0 73.112 12.2552 896 61.3906 776.706 451.701
2570 0 74.11 11.7123 868 61.8111 777.797 449.423
2571 0 75.0874 11.5732 869 62.4592 777.705 447.466
2572 0 79.0553 12.0548 953 61.6338 777.559 447.636
2573 0 79.0714 11.3315 896 62.9587 778.082 443.721
2574 0 82.0964 11.7545 965 62.4591 777.986 444.49
2575 1 41.1104 10.9705 451 64.6984 778.264 466.135
2576 0 42.0576 10.557 444 66.0158 778.065 464.002
2577 0 46.0651 10.7891 497 65.3521 777.505 464.342
2578 0 47.0344 10.7156 504 65.8373 778.052 464.768
2579 0 47.0449 11.6272 547 64.7696 777.324 461.399
2580 0 48.0888 12.269 590 63.7966 778.042 464.005
2581 0 52.0719 12.4827 650 62.5 778.123 460.946
2582 0 52.0975 11.9008 620 63.3 777.961 461.123
2583 0 53.0758 11.7379 623 63.671 778.552 458.411
2584 0 59.0666 12.4097 733 61.2346 777.377 457.397
2585 0 57.1133 11.9762 684 62.1988 777.377 457.936
2586 0 62.0885 11.3226 703 61.7838 777.953 454.57
2587 0 64.0369 12.1961 781 60.84 777.597 454.058
2588 0 68.0994 12.2174 832 59.8762 778.163 454.369
2589 0 69.0688 12.712 878 59.4875 777.423 454.415
2590 0 71.0728 12.2691 872 60.2626 777.282 452.157
2591 0 73.0683 12.7141 929 58.9871 777.891 450.836
2592 0 73.1549 13.1092 959 59.3556 777.868 448.46
2593 0 76.0426 12.5851 957 59.8704 777.37 446.832
2594 0 78.1197 12.1352 948 60.4652 778.002 444.646
2595 1 134.227 12.2032 1638 49.9347 777.966 452.369
2596 1 84.0967 13.0683 1099 59.1374 778.386 443.071
2597 0 86.1593 12.5465 1081 59.7919 777.829 441.521
2598 0 89.2334 13.1789 1176 58.9056 777.538 439.82
2599 1 40.0468 11.6114 465 62.2925 778.086 465.237
2600 0 39.0293 10.2743 401 63.9177 778.387 461.998
2601 0 45.1273 10.7252 484 62.7459 778.014 463.13
2602 0 48.0662 11.2761 542 61.6384 777.299 462.496
2603 0 48.0466 11.3848 547 61.7916 778.605 461.616
2604 0 49.0927 11.1218 546 62.2894 778.315 461.83
2605 0 50.0212 11.815 591 61.5093 777.624 460.313
2606 0 52.0593 11.6982 609 61.1741 777.944 459.727
2607 0 53.0612 12.8342 681 59.7504 777.426 459.379
2608 0 57.0344 11.2739 643 61.3328 777.938 456.995
2609 0 56.0813 12.0539 676 60.7441 777.926 455.309
2610 0 60.0303 12.1272 728 59.9052 778.108 456.213
2611 0 59.154 12.4083 734 60.4728 778.426 454.218
2612 0 65.0446 12.8066 833 59.6399 777.381 455.175
2613 0 66.046 12.2188 807 59.891 778.125 451.499
2614 0 69.0559 11.6717 806 60.9802 777.862 451.7
2615 0 69.1281 12.4985 864 60.7106 777.914 450.601
2616 0 72.1146 12.5217 903 60.7829 778.347 448.545
2617 0 74.0649 12.3 911 60.888 777.896 448.013
2618 0 79.0489 12.7516 1008 60.1706 777.919 450.561
2619 0 81.1339 12.843 1042 60.0729 778.381 447.396
2620 0 85.0381 11.6536 991 61.2321 778.13 444.556
2621 0 89.061 11.3855 1014 61.3757 778.017 441.956
2622 1 39.043 10.1427 396 64.2146 777.874 467.076
2623 0 42.0522 10.1065 425 63.7576 778.661 465.068
2624 0 41.0416 11.5736 475 63.4484 778.743 465.684
2625 0 45.0364 11.5462 520 62.7442 778.01 465.223
2626 0 43.0592 11.2403 484 63.7459 778.004 463.12
2627 0 51.0606 11.9662 611 61.252 777.344 463.863
2628 0 50.0282 12.1931 610 61.7967 776.895 462.382
2629 0 49.0897 11.0817 544 63.6985 777.87 462.221
2630 0 54.055 11.1923 605 63.3091 777.752 460.098
2631 0 54.0472 10.8794 588 64.5391 777.32 459.634
2632 0 56.0292 11.4583 642 63.634 777.757 459.315
2633 0 59.0195 10.9455 646 63.6099 776.777 457.882
2634 0 58.0429 11.4398 664 64.0286 777.508 457.212
2635 0 60.0849 11.7168 704 64.0895 777.781 455.513
2636 0 67.1508 12.1518 816 62.7868 778.069 456.826
2637 0 64.0514 12.7398 816 63.5392 777.473 456.168
2638 0 66.0223 11.9959 792 64.7576 777.27 453.674
2639 0 70.0531 12.4905 875 64.0389 776.915 452.927
2640 0 71.0268 11.7561 835 64.7258 777.072 450.838
2641 0 73.1279 11.9243 872 64.8154 777.558 450.446
2642 0 78.0854 11.2185 876 65.0559 777.432 448.341
2643 0 78.0564 12.3116 961 64.4287 776.274 448.228
2644 0 85.0961 13.0676 1112 62.3363 776.785 449.43
2645 0 83.1032 11.8166 982 64.5835 776.726 446.457
2646 0 85.1059 11.5621 984 64.8577 777.164 441.808
2647 0 88.0508 11.7773 1037 64.5381 777.04 439.698
2648 0 93.1066 11.9755 1115 63.8152 776.518 441.169
2649 0 96.1993 12.6196 1214 62.8781 777.222 439.68
2650 0 99.0924 12.0494 1194 63.6583 776.846 437.307
2651 0 100.06 11.2832 1129 64.7422 777.082 435.827
2652 0 103.083 11.7381 1210 64.2248 776.106 433.383
2653 0 111.085 12.3239 1369 63.1315 777.343 432.351
2654 0 111.176 11.7831 1310 63.9779 777.049 430.347
2655 0 113.1 11.9717 1354 63.8397 776.955 429.362
2656 0 119.128 12.2893 1464 63.293 777.062 427.289
2657 1 47.0422 11.6704 549 62.6976 776.188 465.251
2658 0 51.0525 11.733 599 61.823 776.893 463.492
2659 0 51.0878 11.1573 570 63.2877 777.123 462.756
2660 0 50.0399 10.3917 520 64.5885 776.971 460.696
2661 0 55.0436 10.9186 601 63.8053 776.795 459.814
2662 0 57.0349 11.3089 645 62.6357 776.915 460.526
2663 0 56.0247 11.2629 631 63.4659 776.702 459.837
2664 0 62.0509 11.0393 685 63.0044 776.966 456.658
2665 0 64.0989 12.5899 807 60.5589 777.131 457.074
2666 0 63.0248 11.313 713 62.6171 777.811 457.617
2667 0 67.0169 10.6391 713 62.8177 776.976 456.994
2668 0 67.0724 12.0169 806 61.5844 777.806 452.424
2669 0 68.0555 11.2849 768 62.1185 778.439 452.725
2670 0 71.0256 11.4888 816 61.9105 777.858 451.754
2671 0 75.1296 11.3537 853 61.8488 777.413 448.717
2672 0 80.0741 11.2271 899 61.3026 777.251 449.428
2673 0 79.0507 11.1194 879 62.3936 777.74 446.588
2674 0 83.135 10.5972 881 62.6254 777.198 445.267
2675 0 86.0648 12.0723 1039 60.5967 777.537 445.589
2676 0 88.1078 11.3838 1003 61.4925 778.215 442.205
2677 0 90.1032 10.6988 964 62.0778 779.254 438.948
2678 1 41.0606 10.862 446 63.3834 777.944 465.54
2679 0 41.0204 11.1164 456 63.239 778.173 466.704
2680 0 44.0222 10.4038 458 63.4782 778.338 464.784
2681 0 45.0816 10.9579 494 62.9312 777.615 463.879
2682 0 46.0619 10.9852 506 62.9605 778.194 463.644
2683 0 49.0343 11.3186 555 61.5063 778.636 463.404
2684 0 51.0179 11.3098 577 61.714 778.043 462.523
2685 0 52.0255 12.3593 643 60.8631 778.352 461.529
2686 0 55.0205 10.7415 591 62.2623 777.91 460.332
2687 0 53.0713 11.1736 593 62.9157 777.931 459.685
2688 0 55.0919 11.5988 639 62.0282 778.235 458.908
2689 0 59.0258 11.3679 671 62.5961 778.663 457.291
2690 0 58.0322 11.373 660 63.1758 778.448 457.858
2691 0 64.027 11.6201 744 62.6922 777.532 457.577
2692 0 66.03 11.9037 786 62.86 776.995 454.003
2693 0 65.0767 11.4634 746 63.6408 777.676 452.135
2694 0 67.0779 11.5537 775 63.9252 777.348 451.788
2695 0 71.0876 11.7883 838 63.4964 777.573 450.638
2696 0 76.0388 11.6256 884 63.3744 778.595 450.362
2697 0 74.0945 11.7418 870 64.0782 778.538 450.607
2698 0 77.0861 11.3509 875 64.4446 777.997 448.85
2699 0 81.0983 11.9608 970 64.0474 777.926 446.827
2700 0 84.0542 11.5997 975 64.0708 777.925 446.855
2701 1 39.0157 11.5851 452 67.5111 778.157 466.938
2702 0 42.0155 10.9245 459 67.1394 778.887 467.185
2703 0 41.0069 10.9738 450 67.9133 778.398 465.233
2704 0 44.0941 10.659 470 67.8979 778.24 463.983
2705 0 47.0494 11.3923 536 66.3545 778.129 463.004
2706 0 48.0589 10.5079 505 67.5485 778.02 462.44
2707 0 50.1046 10.8573 544 70.5018 778.217 462.27
2708 0 52.0386 11.1456 580 69.9121 778.593 462.374
2709 0 51.0672 11.3576 580 70.4879 778.519 459.771
2710 0 55.0581 11.1337 613 70.2055 778.352 459.641
2711 0 59.061 11.6828 690 68.6029 778.859 459.043
2712 0 59.0374 11.3996 673 69.4814 779.241 457.807
2713 0 61.0652 10.4315 637 70.3407 778.002 456.532
2714 0 60.1286 11.2592 677 69.8774 778.665 456.245
2715 0 64.0274 10.7923 691 69.7699 779.158 454.942
2716 0 68.1416 11.1239 758 69.3602 779.274 453.427
2717 0 70.0616 10.9903 770 69.5169 779.43 452.918
2718 0 72.0969 11.11 801 69.4981 779.58 451.552
2719 1 35.0527 10.8408 380 72.9816 779.197 469.282
2720 0 35.0867 11.4573 402 73.2114 778.729 468.604
2721 0 41.0341 10.6497 437 71.9314 778.389 468.732
2722 0 37.022 11.4797 425 72.9553 778.405 467.44
2723 0 41.0496 11.3277 465 71.6645 778.022 467.649
2724 0 41.0532 10.9127 448 72.0603 777.723 467.808
2725 0 43.0963 12.1124 522 69.9425 777.753 466.203
2726 0 45.0249 11.2382 506 70.4526 777.071 465.083
2727 0 47.0615 10.7094 504 70.4663 777.796 463.071
2728 0 47.0376 11.5652 544 69.3493 778.132 463.835
2729 0 51.0752 11.1992 572 68.1206 778.911 461.986
2730 0 51.0346 11.7371 599 68.1102 777.865 461.284
2731 0 54.1649 12.0742 654 66.8211 778.04 460.586
2732 0 58.0289 11.4598 665 66.4662 778.123 458.97
2733 0 58.0681 11.7104 680 66.8838 778.159 457.226
2734 0 60.075 11.236 675 66.523 778.126 456.661
2735 0 62.0669 11.4393 710 65.9169 777.986 456.163
2736 0 62.0922 12.3365 766 65.0679 778.039 453.252
2737 0 70.1101 11.6103 814 64.2641 777.284 453.166
2738 0 69.1507 11.2652 779 65.9178 778.032 451.845
2739 0 73.0813 11.9045 870 64.9552 777.952 451.861
2740 1 30.0059 10.4979 315 70.1302 777.968 470.784
2741 0 32.0101 10.0281 321 70.5888 778.193 469.012
2742 0 34.0258 10.9035 371 68.5768 778.31 469.933
2743 0 34.0483 11.0138 375 68.8853 778.565 470.221
2744 0 35.0106 11.5679 405 68.3975 778.341 469.998
2745 0 35.0263 12.2765 430 68.5326 778.681 469.554
2746 0 37.0215 12.1281 449 67.9599 777.831 469.572
2747 0 39.0295 12.0165 469 67.7143 778.22 468.358
2748 0 40.0184 11.4197 457 68.3173 777.989 465.943
2749 0 42.0309 11.2774 474 67.5886 778.53 465.93
2750 0 44.0167 11.9727 527 66.7021 777.911 466.765
2751 0 48.0733 11.4825 552 66.5634 778.866 464.891
2752 0 48.031 12.6585 608 66.1201 778.227 462.398
2753 0 50.0607 11.7457 588 66.6446 777.942 461.776
2754 0 50.0537 11.7074 586 66.7474 777.618 461.797
2755 0 58.05 12.4031 720 64.4486 777.858 461.476
2756 0 56.0261 10.9235 612 67.3301 778.449 459.729
2757 0 56.0746 12.6439 709 65.7024 777.406 461.76
2758 0 61.053 11.7275 716 66.007 777.564 459.821
2759 0 59.0324 12.112 715 66.007 777.712 458.022
2760 0 64.0687 12.2525 785 65.2 778.034 459.197
2761 0 65.0435 11.5 748 66.6551 777.75 455.54
2762 0 67.0485 11.6781 783 66.6769 777.397 454.029
2763 0 69.0491 11.7887 814 66.2346 778.216 454.281
2764 0 71.0938 11.4356 813 66.5756 778.3 452.38
2765 0 75.0462 11.7661 883 65.6512 778.495 453.77
2766 0 80.1381 10.7939 865 66.3676 778.719 450.034
2767 1 39.019 9.71322 379 70.3456 777.388 468.525
2768 0 40.0287 11.3668 455 68.3472 777.925 469.732
2769 0 41.0563 11.2285 461 68.8655 777.61 468.811
2770 0 42.0469 11.0591 465 69.1656 777.555 466.11
2771 0 47.026 10.9089 513 67.7622 777.717 466.08
2772 0 46.0202 12.0816 556 66.6061 778.094 464.068
2773 0 47.0281 11.9078 560 65.6286 777.802 465.602
2774 0 49.1058 11.7909 579 65.3506 777.351 464.508
2775 0 50.0374 12.1309 607 64.687 777.219 462.552
2776 0 53.0744 10.8527 576 65.5538 777.774 458.719
2777 0 56.0687 12.128 680 62.9971 778.107 461.107
2778 0 58.0743 12.7767 742 61.3181 778.023 461.396
2779 0 57.0312 12.0636 688 62.5669 778 458.334
2780 0 62.041 12.0404 747 61.3146 778.525 459.299
2781 0 64.0583 11.7237 751 61.3422 778.939 456.634
2782 0 66.0532 12.0509 796 60.7412 777.705 456.887
2783 0 67.0612 11.5268 773 61.5614 777.877 454.261
2784 0 73.0556 11.019 805 61.3416 778.748 452.022
2785 0 72.0242 11.8849 856 59.9638 778.238 451.244
2786 0 74.119 11.7649 872 61.5975 778.417 449.557
2787 0 76.0666 11.6214 884 61.6527 777.781 450.363
2788 1 35.0065 10.3124 361 65.8476 777.742 470.643
2789 0 39.0572 10.0622 393 65.4198 778.02 470.44
2790 0 39.007 10.3315 403 66.0273 777.978 468.64
2791 0 43.0081 10.7189 461 64.2082 778.638 470.427
2792 0 42.0308 11.5392 485 64.5505 778.709 468.938
2793 0 43.0489 11.7541 506 64.2846 778.557 467.713
2794 0 47.0251 11.5045 541 64.0425 778.322 466.745
2795 0 46.0066 11.6288 535 64.3047 778.131 465.207
2796 0 50.0053 11.4388 572 64.1399 778.58 464.072
2797 0 49.0247 12.5039 613 63.2773 778.896 464.024
2798 0 54.0564 11.599 627 63.8963 778.155 462.238
2799 0 52.0402 12.2021 635 64.1811 777.781 462.124
2800 0 58.0244 12.0984 702 63.218 778.212 459.947
2801 0 61.0482 11.5482 705 63.4794 778.155 459.226
2802 0 61.0778 11.6573 712 63.243 778.062 459.153
2803 0 61.1045 12.0613 737 63.209 777.882 457.195
2804 0 66.1299 11.6891 773 63.097 778.541 455.709
2805 0 70.099 11.9545 838 62.3377 777.624 455.21
2806 0 71.0677 12.1011 860 62.0116 778.566 453.626
2807 0 73.0695 11.4685 838 62.9117 777.792 452.222
2808 0 79.039 11.5386 912 62.0241 777.714 451.172
2809 0 78.1058 12.0222 939 62.3099 777.93 451.563
2810 0 80.0969 11.561 926 62.2019 778.037 448.269
2811 1 36.0793 10.3938 375 66.2427 778.213 470.928
2812 0 36.0903 10.6677 385 67.6052 778.023 472.127
2813 0 37.0354 11.0435 409 66.9609 777.543 471.02
2814 0 37.0127 11.8338 438 66.2717 778.153 470.34
2815 0 38.0241 11.7031 445 66.982 778.375 468.631
2816 0 43.0299 11.5734 498 65.5643 777.823 467.41
2817 0 44.0358 11.695 515 64.4835 778.724 467.528
2818 0 46.0438 10.9895 506 64.4368 777.986 466.478
2819 0 46.0533 11.7255 540 64.4389 778.285 465.641
2820 0 48.0309 12.6377 607 62.7924 777.926 465.792
2821 0 50.0662 12.1239 607 62.9012 777.125 463.872
2822 0 54.0844 11.2972 611 62.838 777.637 461.658
2823 0 54.0154 12.2187 660 62.4364 777.432 461.817
2824 0 56.07 12.2525 687 61.8428 778.095 460.419
2825 0 57.0793 12.4388 710 61.3775 778.517 458.346
2826 0 62.225 11.7477 731 61.0246 778.599 458.271
2827 0 65.0795 11.9392 777 60.6873 778.42 457.792
2828 0 64.1257 12.6314 810 60.4346 778.412 455.899
2829 0 66.1043 11.497 760 60.75 778.609 455.074
2830 0 70.0961 11.2988 792 60.6591 778.761 451.726
2831 0 71.1422 12.0182 855 60.2152 778.099 453.267
2832 0 75.0677 11.5229 865 60.467 778.068 450.636
2833 0 80.2301 12.1775 977 59.2804 777.957 450.657
2834 0 80.2646 11.9854 962 59.8129 778.499 448.393
2835 1 33.0716 10.0691 333 65.2823 778.078 472.898
2836 0 32.0328 11.3321 363 65.7218 777.959 472.196
2837 0 33.0311 11.2015 370 65.4135 778.024 472.195
2838 0 34.0543 11.4523 390 64.8538 778.418 471.792
2839 0 35.0598 11.2665 395 65.2582 778.914 470.203
2840 0 36.1367 12.0653 436 65.2706 778.72 468.734
2841 0 38.0637 12.3215 469 64.3348 778.252 468.286
2842 0 39.2181 11.8568 465 64.871 778.563 467.91
2843 0 40.2084 11.8383 476 64.6008 778.206 467.88
2844 0 42.0602 11.8402 498 64.6888 778.442 466.165
2845 0 43.0678 12.3758 533 64.1576 778.028 465.373
2846 0 50.0359 11.7316 587 62.9267 777.913 465.291
2847 0 47.0202 12.484 587 64.2419 778.448 464.417
2848 0 52.0147 12.1312 631 64.9128 778.293 464.466
2849 0 51.0118 13.1342 670 64.6149 778.482 463.128
2850 0 53.0371 13.0663 693 64.9798 778.592 461.465
2851 0 56.0718 11.6993 656 66.1326 778.556 459.704
2852 0 57.0776 12.264 700 66.4314 778.466 460.367
2853 0 57.0399 12.6403 721 66.785 778.173 460.162
2854 0 58.0481 13.0581 758 66.971 777.584 459.153
2855 0 60.0522 13.1719 791 67.0291 778.429 457.815
2856 0 63.0648 12.6219 796 68.25 777.285 455.852
2857 0 65.0341 13.1162 853 67.1934 778.375 455.637
2858 0 67.0784 12.7165 853 67.7175 778.771 451.38
2859 0 67.0693 12.9866 871 68.4845 779.286 451.544
2860 0 72.0639 12.4473 897 68.5853 778.716 451.043
2861 0 75.1188 13.4187 1008 67.1528 777.792 451.248
2862 0 77.0766 12.9092 995 68.1116 778.53 447.946
2863 0 80.0794 12.9746 1039 67.9981 778.547 448.049
2864 0 82.0531 12.6382 1037 68.8148 778.355 444.165
2865 0 85.1108 13.1006 1115 67.8063 779.295 444.239
2866 0 90.0664 12.7239 1146 68.3316 779.628 442.421
2867 0 91.141 12.5081 1140 69.0509 778.515 441.277
2868 0 94.0956 12.7955 1204 68.6611 778.548 441.243
2869 1 46.0099 10.1283 466 74.2661 778.197 466.146
2870 0 47.072 10.4733 493 75.146 778.619 463.748
2871 0 47.0133 11.6775 549 74.0947 779.004 465.845
2872 0 50.1026 10.5982 531 75.2505 779.362 463.612
2873 0 53.0841 11.1709 593 74.4317 779.241 462.138
2874 0 54.1014 11.2751 610 75.0426 779.072 460.264
2875 0 54.1257 11.6765 632 74.9905 779.212 460.706
2876 0 53.0402 13.2541 703 76.1863 779.152 461.091
2877 0 58.0966 11.4637 666 78.0315 778.984 459.179
2878 0 60.0205 11.8626 712 77.0014 779.417 459.389
2879 0 60.0875 11.7495 706 77.5297 779.812 457.642
2880 0 64.1535 10.9425 702 78.1353 778.496 457.137
2881 0 64.067 11.925 764 77.3259 778.577 455.76
2882 0 67.0552 11.9006 798 77.1867 778.764 453.911
2883 0 72.1113 11.3852 821 77.2814 778.224 451.935
2884 0 72.0334 11.6613 840 76.6155 778.568 451.69
2885 0 75.1515 11.3371 852 77.4824 778.303 448.183
2886 0 78.0383 11.8788 927 76.617 778.95 449.49
2887 0 80.1049 11.6098 930 76.7957 778.64 447.313
2888 0 83.073 11.8811 987 76.3891 778.189 444.887
2889 0 86.1382 11.5048 991 75.9808 778.545 444.086
2890 0 92.0916 11.2714 1038 75.7909 778.732 442.482
2891 1 42.0212 10.8755 457 79.8403 778.654 466.085
2892 0 46.0485 10.5107 484 79.5496 778.734 465.419
2893 0 44.0092 11.2931 497 80.4447 778.668 464.6
2894 0 46.0411 11.0771 510 80.2745 778.243 462.004
2895 0 50.046 11.6493 583 78.1184 778.063 463.509
2896 0 53.058 11.1011 589 78.6265 778.874 460.747
2897 0 52.0393 11.3184 589 78.343 779.246 460.148
2898 0 53.0186 11.8449 628 78.1465 778.995 460.433
2899 0 59.0472 11.3469 670 76.8164 779.006 459.603
2900 0 56.0252 11.4234 640 77.2938 778.994 457.712
2901 0 60.0798 11.052 664 76.3569 778.765 457.895
2902 0 65.0897 10.6315 692 75.6951 779.303 455.555
2903 0 65.0676 11.6648 759 73.9407 778.729 454.278
2904 0 70.0906 11.4566 803 73.543 778.186 452.326
2905 0 69.1605 12.0155 831 73.0433 779.002 453.499
2906 0 73.0439 11.5684 845 72.903 778.467 450.462
2907 0 75.0933 12.2514 920 70.9663 778.564 448.607
2908 0 76.1029 11.0245 839 71.8927 778.222 448.021
2909 0 80.0802 11.014 882 71.4388 777.435 446.827
2910 1 35.0244 10.821 379 72.5435 777.768 470.681
2911 0 37.1183 10.4531 388 72.9278 777.825 468.454
2912 0 38.0356 10.8057 411 72.3479 778.311 468.959
2913 0 39.0505 10.8321 423 71.5957 778.504 466.735
2914 0 41.057 11.0578 454 70.9053 778.604 466.502
2915 0 43.0162 11.2748 485 69.9464 778.464 465.619
2916 0 44.0261 10.7663 474 70.2827 777.578 463.416
2917 0 46.0622 11.1371 513 69.5634 778.312 462.466
2918 0 47.0632 11.2827 531 69.3955 778.077 463.117
2919 0 49.0555 11.9253 585 67.6462 779.314 463.614
2920 0 53.0432 10.8025 573 68.267 779.302 461.168
2921 0 53.0346 11.7093 621 67.781 779.071 461.203
2922 0 53.0448 11.7071 621 68.2126 779.203 459.071
2923 0 58.0476 11.7145 680 67.5926 778.685 457.881
2924 0 61.0816 11.2964 690 67.8072 778.941 456.596
2925 0 61.034 11.5345 704 67.5653 778.964 455.74
2926 0 62.049 11.362 705 68.3248 778.081 454.243
2927 0 65.0562 11.7591 765 67.6497 778.735 453.881
2928 0 69.0781 11.7259 810 67.5877 778.946 452.251
2929 0 70.0966 11.5269 808 68.146 778.38 451.524
2930 0 74.0466 11.6818 865 67.0092 778 449.867
2931 0 76.1392 11.6629 888 66.7095 778.364 449.035
2932 0 78.1067 11.6635 911 66.1658 778.037 446.547
2933 1 34.043 10.2224 348 70.5316 778.017 468.583
2934 0 37.0282 10.6405 394 68.4188 778.17 468.662
2935 0 36.0357 10.9059 393 67.8779 777.837 467.226
2936 0 39.0231 10.8141 422 66.9976 778.552 466.521
2937 0 38.034 11.3057 430 66.9256 777.758 466.735
2938 0 43.0443 10.2685 442 66.0679 778.122 465.233
2939 0 45.1071 10.4418 471 65.5159 778.408 464.013
2940 0 49.0732 11.004 540 63.5148 778.306 464.635
2941 0 46.0373 11.7079 539 63.475 778.473 463.134
2942 0 50.0455 11.1299 557 63.2118 778.777 460.718
2943 0 50.0458 11.6493 583 62.3979 778.504 460.527
2944 0 54.0151 11.071 598 62.6789 777.982 458.702
2945 0 54.0732 11.1146 601 62.6522 778.492 457.749
2946 0 56.0758 10.9495 614 62.386 778.27 457.345
2947 0 58.0814 10.8468 630 62.9683 779.002 455.094
2948 0 63.0941 11.4115 720 61.0764 778.721 457.261
2949 0 62.0424 11.5888 719 61.7705 778.989 456.401
2950 0 66.1796 11.5443 764 61.445 778.978 453.548
2951 0 68.0745 12.1191 825 60.7394 779.126 452.173
2952 0 72.1232 11.8824 857 60.3722 778.6 451.051
2953 0 73.0647 11.7978 862 60.3016 778.672 450.114
2954 0 75.0815 11.2278 843 60.6168 777.945 448.058
2955 0 78.0656 10.9139 852 60.6138 778.52 446.734
2956 0 79.0783 10.85 858 60.5175 777.774 444.714
2957 1 40.031 9.66752 387 62.7132 778.202 467.003
2958 0 44.0148 10.3374 455 62.3385 778.56 464.945
2959 0 45.0436 10.5231 474 62.038 778.331 462.435
2960 0 46.0666 10.3763 478 61.9498 779.01 462.626
2961 0 47.0401 11.3945 536 61.1847 777.702 461.907
2962 0 48.0335 11.034 530 61.0755 778.43 460.06
2963 0 52.0626 11.0252 574 59.9826 778.312 460.071
2964 0 55.0668 10.2603 565 60.6266 778.152 459
2965 0 59.0425 10.4501 617 59.6305 778.326 457.7
2966 0 58.0326 10.5975 615 59.9561 778.013 455.857
2967 0 59.031 11.621 686 58.8076 777.863 455.032
2968 0 62.0261 11.076 687 59.2853 778.384 454.095
2969 0 65.0576 11.0979 722 58.5706 778.41 453.132
2970 0 67.0455 11.6936 784 57.9145 778.878 452.144
2971 0 73.0637 10.7304 784 58.2117 778.295 451.134
2972 0 72.0759 11.4601 826 58.224 778.174 447.2
2973 1 148.28 10.8848 1614 58.513 778.758 410.031
2974 1 81.0728 10.8791 882 57.9898 779.263 445.925
2975 1 34.0171 9.28945 316 62.943 778.212 469.019
2976 0 37.0449 9.69095 359 61.5376 778.875 468.671
2977 0 36.1077 10.7456 388 61.2758 778.436 466.701
2978 0 39.0109 10.6124 414 60.6739 778.536 467.246
2979 0 40.0259 10.0435 402 60.3706 779.112 464.881
2980 0 43.0186 10.9023 469 59.29 778.785 465.375
2981 0 45.0364 10.9023 491 58.4847 779.045 462.919
2982 0 46.0299 10.8408 499 58.8397 779.351 461.144
2983 0 50.0937 10.8397 543 58.2634 778.77 462.494
2984 0 49.0641 10.843 532 58.5019 778.944 461.083
2985 0 51.0317 11.0716 565 58.2726 779.331 458.812
2986 0 52.0553 11.2573 586 58.4164 779.215 458.42
2987 0 55.0571 11.2065 617 53.7034 778.54 459.624
2988 0 60.0367 10.3603 622 53.201 779.215 456.322
2989 0 60.0131 10.731 644 53.5031 778.986 454.71
2990 0 62.0287 10.9304 678 52.7212 779.291 454.706
2991 0 64.0405 11.4771 735 52.0966 779.226 453.563
2992 0 68.0347 10.4799 713 53.0912 778.644 451.398
2993 0 68.151 10.242 698 53.3768 778.57 451.762
2994 0 73.077 11.1116 812 52.2303 778.877 449.805
2995 0 77.0802 10.6902 824 52.5231 778.817 449.068
2996 0 78.0858 10.2323 799 52.6746 779.154 447.183
2997 0 79.1336 10.5265 833 52.9148 779.371 444.645
2998 1 37.0308 9.4786 351 55.4359 778.94 467.328
2999 0 41.0621 9.15686 376 55.2527 778.859 464.316
3000 0 42.0265 10.3982 437 54.2494 779.256 463.78
3001 0 45.0445 9.92352 447 54.047 779.553 464.613
3002 0 43.0407 11.0128 474 53.5106 779.452 465.304
3003 0 47.0295 10.3977 489 53.7975 779.395 461.802
3004 0 48.0272 10.8897 523 53.6616 779.306 461.363
3005 0 52.0624 10.6987 557 52.9749 779.512 460.654
3006 0 54.0531 11.0632 598 52.3311 778.405 458.946
3007 0 56.0776 11.4841 644 51.7267 778.376 458.57
3008 0 57.0639 10.6898 610 52.0213 778.9 457.754
3009 0 60.1165 11.1949 673 51.6612 779.241 456.288
3010 0 62.0981 11.0954 689 51.5051 778.73 452.665
3011 0 64.029 11.4792 735 51.3946 779.03 452.401
3012 0 66.0507 11.4609 757 51.6856 779.271 452.21
3013 0 67.1087 11.5931 778 51.8303 779.203 451.871
3014 0 68.1451 11.2994 770 52.0987 779.584 449.062
3015 0 73.2065 11.5564 846 51.5355 779.826 450.149
3016 0 73.0737 11.1394 814 52.7678 778.784 446.671
3017 0 77.1154 10.413 803 53.4022 779.397 444.638
3018 0 79.0954 11.1132 879 53.0319 779.907 444.245
3019 0 85.0696 10.7677 916 52.9017 780.231 442.642
3020 1 37.0457 10.2846 381 56.168 779.717 466.711
3021 0 40.0349 10.291 412 55.9418 779.905 463.243
3022 0 42.0192 10.9236 459 55.1939 779.516 463.15
3023 0 44.0731 10.8002 476 55.3529 779.813 461.95
3024 0 47.0704 10.9836 517 54.9884 780.101 461.868
3025 0 46.0388 11.2731 519 55.1657 779.759 459.832
3026 0 50.0333 10.7528 538 55.0799 779.97 459.143
3027 0 51.0168 11.4668 585 54.3385 779.54 458.426
3028 0 53.0493 11.1217 590 54.4186 780.122 458.227
3029 0 53.059 11.3459 602 55.0266 780.254 457.007
3030 0 55.0915 10.9817 605 55.3818 780.283 454.638
3031 0 59.0794 10.5959 626 55.1422 780.492 452.511
3032 0 60.1064 11.7957 709 54.0085 779.401 453.536
3033 0 60.0994 11.9635 719 55.0918 780.11 452.745
3034 0 63.0373 11.4694 723 55.2116 779.786 451.292
3035 0 67.1204 11.7401 788 54.599 780.202 450.594
3036 0 69.0601 11.7 808 54.5606 780.587 449.441
3037 0 74.0633 11.4902 851 54.3184 780.136 448.377
3038 0 76.1194 11.3112 861 54.5981 780.079 446.617
3039 0 77.1152 11.7876 909 54.5236 779.708 442.659
3040 0 82.0474 10.5792 868 54.8594 780.406 442.901
3041 0 82.0872 11.4147 937 54.6585 780.537 443.238
3042 1 37.0307 11.0449 409 56.8191 780.354 466.946
3043 0 40.053 10.9105 437 56.8078 780.101 465.552
3044 0 40.055 10.9599 439 57.4169 780.517 465.087
3045 0 45.0293 10.8818 490 55.9776 779.878 463.929
3046 0 43.0747 10.8649 468 56.5021 780.545 460.998
3047 0 48.0675 11.047 531 54.7665 780.687 461.034
3048 0 50.0485 11.1892 560 54.4411 779.955 462.046
3049 0 50.1192 11.1734 560 54.55 780.388 458.738
3050 0 52.0712 11.0234 574 53.5958 780.678 459.26
3051 0 53.0416 11.2742 598 53.6271 780.395 457.584
3052 0 55.0574 11.3518 625 53.2352 780.422 455.693
3053 0 59.0527 10.9733 648 53.054 779.41 455.111
3054 0 59.0438 11.754 694 52.7291 779.942 452.67
3055 0 65.1051 11.7195 763 51.6514 780.347 451.923
3056 0 66.1092 11.3146 748 51.8743 780.162 451.086
3057 0 67.155 11.7638 790 51.7228 779.416 449.323
3058 0 67.0828 10.9864 737 52.7951 779.707 446.81
3059 0 73.0345 11.3782 831 52.0361 780.962 448.647
3060 0 74.134 11.6006 860 51.8581 780.514 447.341
3061 0 77.065 11.0686 853 52.6764 780.703 444.427
3062 0 83.1205 11.2608 936 52.0769 780.016 443.943
3063 0 81.0879 11.728 951 52.4374 780.07 442.794
3064 0 85.1212 11.6187 989 52.4783 780.237 442.175
3065 1 40.0242 10.6436 426 55.1221 780.434 464.864
3066 0 40.0148 10.9959 440 55.5273 779.911 464.273
3067 0 43.0116 10.3926 447 55.5034 780.11 463.792
3068 0 43.0905 11.325 488 54.9201 780.412 463.559
3069 0 48.0368 10.9708 527 54.8539 780.097 462.685
3070 0 49.037 11.1956 549 54.5938 780.24 458.812
3071 0 49.0768 11.9201 585 53.5573 780.046 460.479
3072 0 53.0964 11.1684 593 53.7336 779.899 457.993
3073 0 56.0292 11.5654 648 51.6466 779.906 458.002
3074 0 57.0801 10.932 624 53.0978 779.542 456.479
3075 0 56.0469 11.1871 627 53.4721 779.421 454.11
3076 0 62.0957 11.7077 727 51.8033 780.133 453.55
3077 0 61.1133 11.8959 727 52.3164 780.589 451.406
3078 0 64.0363 11.7746 754 52.0729 779.903 450.877
3079 0 66.0642 12.2002 806 52.603 779.939 450.666
3080 0 72.2658 11.4992 831 52.2708 779.611 448.965
3081 0 71.149 11.9468 850 52.5671 779.681 448.416
3082 0 77.0854 11.2602 868 52.7316 780.645 446.56
3083 0 77.0872 11.4027 879 53.2196 779.974 444.421
3084 0 81.1421 11.8434 961 52.9698 779.504 441.313
3085 0 83.0672 11.906 989 52.9242 779.693 441.726
3086 0 87.1316 10.5702 921 53.8578 780.485 439.075
3087 0 88.1819 11.7031 1032 52.9079 779.986 439.274
3088 0 92.2435 11.6539 1075 53.1246 779.044 437.349
3089 1 45.0398 9.70253 437 57.1281 780.005 461.908
3090 0 45.0306 10.5928 477 56.6038 779.788 462.277
3091 0 47.1137 10.4004 490 57.1265 779.488 459.61
3092 0 50.087 11.2005 561 55.9144 779.998 457.927
3093 0 50.0803 12.0007 601 55.8369 780.215 459.684
3094 0 54.0914 10.8335 586 55.5529 779.693 457.108
3095 0 55.0818 11.6554 642 54.6355 778.952 456.556
3096 0 57.0998 11.3485 648 54.7022 779.765 454.248
3097 0 60.1193 11.4606 689 53.7649 779.716 453.382
3098 0 60.0912 11.7322 705 53.7773 779.85 451.889
3099 0 64.0117 11.7791 754 53.2984 780.009 452.422
3100 0 64.0921 11.4211 732 53.3511 780.019 450.051
3101 0 67.1071 11.9063 799 52.4368 779.946 448.558
3102 0 70.0403 11.2221 786 52.9275 779.631 447.536
3103 0 73.1635 10.9891 804 53.5137 779.274 446.854
3104 0 76.0626 11.977 911 52.4555 779.138 446.013
3105 0 79.165 11.4444 906 53.2759 779.196 443.703
3106 0 79.083 11.3046 894 53.3747 778.659 439.933
3107 0 84.1457 12.1456 1022 52.1438 779.488 441.359
3108 0 87.056 12.0267 1047 52.3343 779.897 438.857
3109 0 91.0677 11.3871 1037 52.5342 779.608 439.694
3110 0 92.1352 11.4397 1054 52.1091 779.292 438.95
3111 1 43.0591 10.8456 467 55.1863 779.623 459.619
3112 0 45.062 10.4301 470 54.9404 779.528 457.423
3113 0 48.0538 11.4039 548 53.3321 779.854 458.777
3114 0 50.0984 10.679 535 53.3047 779.583 456.4
3115 0 53.062 11.0248 585 53.0427 779.309 456.284
3116 0 55.0952 11.8341 652 51.9003 780.405 455.287
3117 0 55.0215 12.4133 683 51.3734 780.226 455.105
3118 0 57.1727 11.6314 665 51.7519 780.188 452.075
3119 0 57.0805 11.6327 664 51.9518 780.343 450.86
3120 0 59.0478 11.6346 687 51.9563 779.437 449.057
3121 0 65.0826 11.785 767 51.0717 780.182 449.232
3122 0 66.0354 11.5847 765 51.6078 780.383 448.128
3123 0 68.0474 12.5795 856 51.1799 780.347 447.736
3124 0 68.1151 11.275 768 52.1497 780.159 444.38
3125 0 73.1561 12.7672 934 50.8512 779.556 446.407
3126 0 74.0457 12.1411 899 51.5384 780.02 442.921
3127 0 77.0493 12.2519 944 51.2532 780.717 440.583
3128 0 79.0793 11.4316 904 52.1195 780.615 438.689
3129 0 82.0817 11.9637 982 51.2006 780.732 436.82
3130 0 86.0902 12.394 1067 50.9166 780.614 436.675
3131 0 93.1167 11.8668 1105 50.6995 780.61 436.452
3132 0 95.1532 11.6969 1113 51.0674 780.812 431.916
3133 0 94.1145 11.8154 1112 51.1709 780.845 431.666
3134 0 102.174 11.9405 1220 50.3295 780.852 433.011
3135 0 103.25 11.9807 1237 50.5368 780.643 428.059
3136 1 49.083 10.3091 506 52.4684 780.405 457.877
3137 0 48.0599 11.34 545 51.8018 780.763 458.717
3138 0 50.065 10.2467 513 52.614 779.982 455.053
3139 0 53.1519 11.1567 593 50.9747 780.314 455.384
3140 0 56.1256 11.7593 660 50.1712 780.548 455.886
3141 0 58.0236 11.616 674 50.0193 779.969 452.527
3142 0 58.0397 11.6817 678 50.0723 779.82 452.257
3143 0 62.1002 11.8518 736 48.8723 780.405 451.227
3144 0 64.0302 11.8069 756 48.8558 779.976 450.304
3145 0 67.075 11.4797 770 49.1481 779.853 447.979
3146 0 67.016 11.0272 739 49.3315 779.997 446.254
3147 0 70.0543 11.848 830 48.2976 779.955 446.012
3148 0 71.0975 11.6319 827 48.4498 779.491 442.295
3149 0 76.0784 12.1979 928 47.5323 779.334 442.491
3150 0 81.1114 11.515 934 47.3084 779.391 442.647
3151 1 113.926 15.2204 1734 38.1021 779.196 454.115
3152 1 87.0874 12.2176 1064 46.3609 779.853 437.876
3153 0 88.1366 12.2537 1080 46.1324 780.416 438.991
3154 0 90.0679 12.3351 1111 46.0378 779.91 434.653
3155 0 92.2387 10.9499 1010 46.5337 780.193 432.739
3156 0 98.1633 11.5827 1137 46.0941 779.858 430.986
3157 0 104.064 12.0694 1256 45.0669 779.283 429.818
3158 0 107.218 11.9104 1277 45.1731 779.981 430.462
3159 0 109.223 11.9846 1309 44.919 780.231 427.701
3160 0 115.175 11.0874 1277 45.5693 780.377 424.146
3161 0 118.146 11.6466 1376 45.3183 779.786 424.688
3162 1 47.042 9.73597 458 47.5873 780.343 460.688
3163 0 48.0301 10.5142 505 47.5287 780.952 458.754
3164 0 47.0935 9.89522 466 48.3133 779.987 457.532
3165 0 50.1146 10.8551 544 47.6048 779.618 458.377
3166 0 54.0796 10.4291 564 47.4663 780.064 456.706
3167 0 57.0662 11.0048 628 46.7611 780.167 455.597
3168 0 53.0582 11.3272 601 47.0549 780.146 454.561
3169 0 59.1177 10.5214 622 47.6125 779.555 453.408
3170 0 60.0539 10.6571 640 47.9609 779.469 451.944
3171 0 61.0818 11.6401 711 47.0324 779.034 451.745
3172 0 65.147 10.9905 716 47.1774 779.492 451.626
3173 0 68.1122 10.7176 730 46.989 779.358 450.16
3174 0 67.0828 11.3889 764 47.0969 779.387 447.41
3175 0 71.1446 11.7226 834 46.4664 779.348 449.192
3176 0 77.1072 11.3608 876 46.2557 779.08 447.442
3177 0 75.0288 10.9425 821 47.3142 779.373 444.95
3178 0 78.1356 10.7377 839 47.2455 779.249 443.249
3179 0 84.0818 11.1677 939 46.4718 778.683 442.34
3180 1 42.0512 9.63111 405 48.3383 778.225 463.168
3181 0 42.093 9.64531 406 49.0739 778.837 461.823
3182 0 45.016 9.99645 450 48.2711 778.904 462.976
3183 0 48.0869 10.9801 528 46.9015 778.828 463.074
3184 0 48.0379 9.74232 468 48.2671 778.759 459.15
3185 0 51.1372 10.7945 552 47.2536 778.813 460.326
3186 0 55.0795 10.6573 587 46.8876 778.428 458.237
3187 0 56.0271 10.6556 597 46.6348 778.457 458.273
3188 1 85.2471 12.7042 1083 38.6011 778.329 465.589
3189 1 55.0534 11.5524 636 46.7154 777.777 452.608
3190 0 61.0789 10.4782 640 46.7078 778.172 452.511
3191 0 62.0471 10.8627 674 46.4258 778.185 450.892
3192 0 65.0945 10.7075 697 46.3386 778.898 451.918
3193 0 66.104 11.1491 737 45.8779 779.064 448.176
3194 0 68.0694 11.0329 751 46.0466 778.015 449.237
3195 0 72.1718 11.0985 801 45.2072 777.995 446.978
3196 0 75.2307 11.3252 852 44.946 778.692 448.643
3197 0 76.1904 10.8281 825 45.3964 778.465 444.337
3198 0 82.1492 10.0914 829 45.532 778.129 443.896
3199 0 84.1425 11.1834 941 44.7428 777.885 442.492
3200 0 89.1115 10.2905 917 45.0785 778.354 441.484
3201 1 40.1159 9.82153 394 46.6675 778.19 463.944
3202 0 42.0846 10.0987 425 46.2988 778.991 463.534
3203 0 45.0553 10.0099 451 45.9335 778.315 461.971
3204 0 47.1278 9.6546 455 46.2527 778.477 460.404
3205 0 46.0769 9.57096 441 46.4966 778.111 458.029
3206 0 50.0537 10.4688 524 45.1336 778.552 459.258
3207 0 48.0498 9.7399 468 45.6923 778.299 456.521
3208 0 54.0342 9.75307 527 45.7875 777.602 457.04
3209 0 55.0909 10.1832 561 45.2763 778.221 455.936
3210 0 61.0404 10.7142 654 43.867 777.804 455.466
3211 0 58.0984 9.98306 580 45.0397 778.233 452.359
3212 0 63.1088 10.6007 669 44.2212 777.795 452.069
3213 0 62.0529 10.3299 641 45.0328 778.047 449.128
3214 0 62.1526 10.0237 623 45.1204 777.978 447.884
3215 0 69.088 9.84252 680 44.9029 777.706 447.512
3216 0 71.075 10.4678 744 44.6747 778.351 446.804
3217 0 73.0549 10.6632 779 44.8447 777.804 446.389
3218 0 77.1016 10.6353 820 45.2524 777.58 442.065
3219 1 35.0487 9.58667 336 48.0625 778.208 464.688
3220 0 36.0717 8.64944 312 49.032 778.157 461.41
3221 0 40.0303 9.26798 371 48.0485 778.623 462.482
3222 0 40.038 9.6908 388 47.817 777.982 460.66
3223 0 39.0355 10.3239 403 48.3722 777.953 457.995
3224 0 44.0228 9.76765 430 48.1256 777.814 455.677
3225 0 45.0705 9.00811 406 49.2192 778.323 455.601
3226 0 48.0333 9.51423 457 48.512 778.748 456.488
3227 0 48.0479 10.2398 492 47.9411 778.62 454.886
3228 0 54.0475 9.76919 528 47.9886 777.968 453.693
3229 0 53.0656 9.98764 530 47.6226 778.017 452.728
3230 0 55.0136 10.0339 552 47.3406 779.098 452.121
3231 0 54.0898 9.8355 532 47.5639 778.004 449.539
3232 0 61.04 10.0098 611 46.6874 778.412 448.736
3233 0 61.0367 10.4855 640 47.7844 778.548 447.347
3234 0 69.1379 11.6434 805 45.8683 778.237 450.073
3235 0 68.0876 11.5586 787 46.7789 778.332 447.113
3236 0 66.049 10.4619 691 48.191 778.978 443.082
3237 0 73.1177 10.9686 802 47.0948 779.531 442.474
3238 0 73.0405 10.7064 782 47.312 778.347 440.783
3239 0 78.088 9.89908 773 47.4373 779.111 438.598
3240 0 80.0829 9.78986 784 47.6173 779.129 436.756
3241 0 86.1386 10.5179 906 46.9614 779.413 436.584
3242 0 86.1145 10.068 867 47.6032 778.511 434.6
3243 0 90.0605 10.1043 910 47.5154 778.462 434.123
3244 0 91.058 9.25784 843 48.4021 779.291 429.241
3245 0 95.1056 10.0204 953 47.7513 779.132 429.533
3246 1 45.0291 9.81587 442 49.2851 779.934 457.025
3247 0 48.0463 9.38678 451 49.2106 780.579 455.093
3248 0 47.0874 9.30185 438 50.1461 780.55 455.242
3249 0 49.0683 9.1505 449 50.0668 780.18 454.492
3250 0 51.0433 9.73682 497 49.4789 779.901 453.748
3251 0 51.0258 9.83816 502 49.504 780.265 452.657
3252 0 55.0281 10.431 574 49.1411 780.53 450.768
3253 0 58.0223 10.4098 604 48.8361 779.878 452.447
3254 0 59.0827 11.3062 668 48.6692 779.66 451.305
3255 1 134.08 9.53161 1278 49.7003 778.658 408.667
3256 0 142.256 10.3335 1470 48.8279 779.651 409.393
3257 1 65.0955 11.0453 719 49.121 779.708 446.576
3258 0 70.0859 9.80226 687 49.9083 779.089 445.876
3259 0 70.0634 9.71977 681 50.0015 779.395 443.761
3260 0 73.1642 9.54019 698 50.2249 779.755 443.096
3261 0 76.1116 10.3664 789 49.9366 779.189 441.248
3262 1 39.0462 9.19424 359 51.6574 778.677 464.1
3263 0 33.1117 8.87903 294 53.8537 779.037 461.408
3264 0 37.0379 9.90876 367 52.4605 778.316 461.226
3265 0 40.0288 9.81794 393 52.4377 778.847 459.728
3266 0 44.0361 9.03804 398 53.0251 778.638 458.43
3267 0 47.0959 11.105 523 50.3117 779.308 459.994
3268 0 46.1273 10.5361 486 51.5041 778.938 457.735
3269 0 51.0345 11.2865 576 50.2847 779.017 459.075
3270 0 48.0262 10.3485 497 51.7123 778.467 456.903
3271 0 53.0534 9.76374 518 51.668 778.741 454.913
3272 0 53.0722 10.2502 544 51.693 778.596 454.601
3273 0 55.0932 10.4369 575 51.4348 778.804 453.567
3274 0 56.0828 10.6628 598 51.0803 779.027 453.783
3275 0 60.1073 10.0154 602 51.2309 778.429 451.726
3276 0 64.0813 10.5179 674 50.1261 778.644 450.936
3277 0 65.0305 11.287 734 50.0531 778.124 450.516
3278 0 64.1155 10.4343 669 51.426 777.718 448.849
3279 0 69.0766 10.1481 701 50.6733 777.599 447.944
3280 0 69.09 10.5515 729 50.2675 777.978 446.92
3281 0 75.0987 10.7592 808 49.8218 778.517 445.79
3282 0 74.0577 10.9779 813 49.8573 777.524 444.055
3283 0 81.1374 10.3158 837 49.6117 778.069 442.76
3284 0 83.04 10.501 872 49.4943 777.541 440.727
3285 0 85.0673 10.427 887 49.3788 777.405 438.233
3286 1 40.0502 8.83892 354 53.1186 777.477 462.003
3287 0 43.0519 10.3131 444 51.4775 778.025 463.464
3288 0 43.0612 9.591 413 52.6659 778.199 460.017
3289 0 42.0615 9.46233 398 52.5528 778.254 458.884
3290 0 47.0096 9.84906 463 51.8726 778.184 458.76
3291 0 50.0422 11.4703 574 50.3937 777.42 459.744
3292 0 52.0459 11.7204 610 49.9246 777.756 459.026
3293 0 50.0334 10.3931 520 52.0904 777.419 454.837
3294 0 53.072 10.043 533 52.0413 777.323 453.702
3295 0 55.0765 11.1481 614 51.215 777.637 453.41
3296 0 57.1264 10.1004 577 52.0104 777.513 452.073
3297 0 58.0861 11.0526 642 50.7991 778.271 452.216
3298 0 61.0847 11.0339 674 50.7774 777.871 449.826
3299 0 64.0717 11.2842 723 50.1798 778.415 449.632
3300 0 69.1169 11.0393 763 50.3421 778.415 447.882
3301 0 68.1088 11.2467 766 50.248 777.646 447.403
3302 0 73.038 11.939 872 49.0803 778.368 444.23
3303 0 73.0201 10.8463 792 50.2841 778.34 441.516
3304 0 77.0154 11.1796 861 49.5494 779.233 442.654
3305 0 78.086 11.3593 887 49.1702 778.574 440.434
3306 0 85.0552 11.3691 967 49.0228 778.76 439.027
3307 0 84.1476 12.0027 1010 48.5455 778.683 437.32
3308 0 87.0852 11.6093 1011 49.1157 778.75 437.518
3309 0 93.1143 11.2765 1050 49.4714 778.44 433.344
3310 0 95.1659 12.2103 1162 48.5387 778.834 432.528
3311 0 98.0921 10.9897 1078 49.4722 779.172 428.265
3312 0 99.1617 10.5888 1050 50.1686 779.091 426.569
3313 1 45.0586 10.5418 475 51.9832 779.213 459.467
3314 0 45.0066 10.1763 458 53.3122 779.581 456.485
3315 0 46.0435 10.2729 473 53.5349 779.3 455.455
3316 0 47.0911 11.2335 529 52.5633 779.646 454.609
3317 0 50.052 10.6889 535 53.1047 779.581 454.206
3318 0 51.0439 10.6967 546 53.0476 779.614 451.848
3319 0 50.0248 11.8341 592 52.5895 779.047 452.206
3320 0 53.0348 11.1248 590 52.7458 780.566 452.008
3321 0 55.0428 10.9006 600 52.8433 780.233 450.102
3322 0 58.0513 10.818 628 52.922 779.613 449.873
3323 0 57.022 11.8901 678 52.795 779.799 449.879
3324 0 57.0348 11.3439 647 53.6121 780.002 447.382
3325 0 60.0698 11.4534 688 53.564 780.801 446.188
3326 0 65.0863 12.5526 817 52.2778 780.627 446.422
3327 0 69.045 12.4122 857 52.5823 780.639 444.735
3328 0 70.0779 11.2304 787 54.0775 780.016 444.361
3329 0 72.0208 12.6075 908 52.9857 780.135 443.042
3330 0 74.1002 11.6194 861 53.6736 780.84 441.088
3331 0 74.0572 12.1663 901 53.6959 780.734 440.114
3332 0 78.1509 12.2072 954 52.8962 780.358 438.836
3333 0 82.0419 11.8476 972 53.1584 780.558 436.938
3334 0 83.0868 11.3616 944 53.5805 780.568 435.667
3335 0 88.1266 12.9473 1141 52.3032 780.433 435.521
3336 0 90.1275 11.8166 1065 52.8958 781.003 434.916
3337 0 92.1147 12.1805 1122 52.8004 780.147 434.355
3338 0 100.16 11.7512 1177 52.5692 779.916 432.216
3339 0 104.153 11.9247 1242 52.2786 779.921 431.048
3340 0 103.138 10.6362 1097 54.0574 779.908 425.356
3341 0 109.067 11.4425 1248 52.9944 779.595 426.108
3342 0 115.272 12.8392 1480 50.9966 779.707 427.436
3343 1 55.0614 10.2431 564 56.0762 780.424 452.429
3344 0 56.0639 11.041 619 55.58 779.826 451.942
3345 0 62.223 11.732 730 54.6877 779.406 453.4
3346 0 62.1171 10.9471 680 55.4868 779.731 449.684
3347 0 61.0473 10.9423 668 55.985 779.663 449.181
3348 0 64.0416 11.5394 739 55.3681 779.547 447.731
3349 0 65.0271 11.5029 748 56.127 779.345 445.102
3350 0 67.0706 11.5848 777 55.7362 779.462 445.8
3351 0 72.1128 12.0783 871 55.2928 779.048 446.921
3352 0 75.1328 11.5928 871 55.853 779.36 443.447
3353 0 74.0467 11.5873 858 56.3881 779.601 440.411
3354 0 78.1327 11.6085 907 56.2856 779.501 439.236
3355 0 83.1282 11.4281 950 55.9642 779.653 438.418
3356 0 84.1338 11.1489 938 56.3827 780.194 436.158
3357 0 85.0202 11.068 941 56.7726 780.101 433.961
3358 0 91.0337 11.4243 1040 55.7635 779.287 432.808
3359 0 96.1024 11.6334 1118 55.6941 779.651 432.345
3360 0 95.055 10.7096 1018 57.7073 779.592 430.62
3361 1 49.0287 9.99414 490 58.9776 779.578 457.149
3362 0 47.0619 9.49813 447 60.6085 780.177 453.622
3363 0 52.0404 10.8185 563 59.3677 779.133 454.485
3364 0 54.0779 10.3369 559 60.746 779.084 454.306
3365 0 56.0765 11.1811 627 59.3238 779.641 452.475
3366 0 58.151 11.367 661 59.5522 779.147 450.894
3367 0 58.0269 10.8915 632 60.9383 779.366 449.511
3368 0 62.0967 11.7559 730 59.6082 780.055 448.886
3369 0 62.028 11.6722 724 59.4461 779.717 448.153
3370 0 67.0404 12.0524 808 59.3762 779.958 447.781
3371 0 68.0821 12.1912 830 59.5132 779.847 445.174
3372 0 74.0857 11.4327 847 59.693 779.569 444.469
3373 0 73.0464 11.9102 870 59.4149 779.787 442.866
3374 0 74.0601 12.0848 895 59.4983 780.094 440.803
3375 0 80.0852 11.7 937 59.096 779.628 439.821
3376 0 83.0193 11.5395 958 58.6764 779.581 438.68
3377 0 84.2027 11.7811 992 58.6915 780.334 436.906
3378 0 88.1182 12.5059 1102 57.2514 780.027 436.584
3379 0 92.0963 12.2155 1125 57.4791 780.372 436.109
3380 0 93.1199 12.0812 1125 57.1129 779.95 434.27
3381 0 100.091 11.9491 1196 56.4047 779.576 432.884
3382 0 99.069 11.5273 1142 57.2785 779.976 428.614
3383 0 104.071 12.2416 1274 56.4819 779.86 427.9
3384 0 108.093 12.3043 1330 56.1316 780.792 423.958
3385 1 55.1249 10.6848 589 59.6248 779.744 454.297
3386 0 54.0913 11.1848 605 60.2529 779.603 452.428
3387 0 58.0375 11.1824 649 59.7103 780.687 452.872
3388 0 58.1012 11.7381 682 59.9032 779.859 452.528
3389 0 62.039 10.7352 666 60.6547 779.263 448.637
3390 0 62.0771 11.5018 714 60.5056 779.44 448.181
3391 0 66.1352 11.4765 759 60.1568 778.588 446.764
3392 0 67.0372 11.4862 770 60.539 779.182 444.297
3393 0 70.1203 11.8653 832 60.2236 779.667 444.111
3394 0 76.1008 11.8921 905 59.6188 779.418 444.981
3395 0 76.193 11.2084 854 60.6522 779.712 441.948
3396 0 76.0874 12.8142 975 59.7877 779.639 441.869
3397 0 78.0936 11.5374 901 61.1742 779.56 439.792
3398 0 82.059 11.6258 954 60.6562 780.363 439.128
3399 0 89.105 12.0532 1074 59.0661 780.33 438.742
3400 0 92.1386 12.4595 1148 58.6838 780.514 435.423
3401 0 90.0604 11.8032 1063 59.6943 780.282 433.2
3402 0 100.068 12.0018 1201 57.7436 780.326 428.767
3403 0 98.0858 12.3871 1215 60.4955 780.272 431.218
3404 0 99.0812 11.6369 1153 60.9124 779.28 430.232
3405 0 100.155 11.642 1166 61.0172 779.617 427.389
3406 0 108.181 11.5824 1253 60.348 779.946 423.848
3407 0 110.079 11.6552 1283 60.4903 779.247 422.656
3408 0 116.075 12.1559 1411 59.0241 779.773 419.902
3409 1 51.0404 10.3448 528 65.1193 779.686 453.562
3410 0 52.0649 10.8518 565 65 780.38 453.966
3411 0 53.0272 11.5601 613 64.1778 780.94 454.861
3412 0 56.1424 11.168 627 64.1116 781.027 454.36
3413 0 58.0756 11.5539 671 64.0328 781.162 451.216
3414 0 64.0736 11.1434 714 63.7255 780.913 450.726
3415 0 64.0775 10.8619 696 64.6753 780.614 447.973
3416 0 63.0448 11.3887 718 64.7354 781.216 447.588
3417 0 64.0351 12.4931 800 64.965 780.769 445.894
3418 0 67.0612 11.3628 762 66.2126 780.308 447.657
3419 0 73.0654 11.9619 874 63.8707 780.364 446.916
3420 0 70.0706 12.1021 848 63.6427 780.179 446.189
3421 0 77.0395 11.4357 881 63.4699 780.487 445.048
3422 0 76.0788 11.5407 878 63.8622 780.044 443.936
3423 0 80.1262 12.3555 990 62.5222 779.652 442.915
3424 0 83.0651 12.5203 1040 61.9558 779.827 441.076
3425 0 85.1702 11.6238 990 62.505 779.96 440.122
3426 0 87.1121 11.3761 991 62.884 779.722 438.639
3427 0 91.1657 12.1318 1106 62.2496 779.924 435.808
3428 0 97.0934 12.0296 1168 61.3416 779.294 434.229
3429 0 99.1459 12.0529 1195 61.2444 779.02 431.229
3430 0 104.223 12.1567 1267 61.1294 779.844 429.587
3431 0 109.116 11.7031 1277 61.1292 779.775 425.393
3432 1 50.0442 10.6306 532 64.7312 779.804 456.868
3433 0 51.0516 10.3621 529 64.7826 779.65 455.645
3434 0 53.0594 10.46 555 64.3712 779.42 458.193
3435 0 54.0445 10.7319 580 64.881 778.579 455.543
3436 0 56.0417 11.3665 637 64.1523 779.661 454.912
3437 0 60.0354 10.8603 652 64.4325 779.606 453.658
3438 0 59.0764 11.2905 667 64.6612 779.598 452.267
3439 0 65.0463 10.5617 687 64.7511 779.875 451.249
3440 0 63.0718 11.3204 714 64.2997 778.835 449.293
3441 0 68.1364 11.0514 753 64.1195 779.567 448.916
3442 0 69.0244 11.8074 815 62.3411 779.515 447.919
3443 0 72.0477 11.534 831 63.5102 779.02 446.714
3444 0 72.0661 11.8225 852 63.7559 779.479 444.646
3445 0 74.1493 11.9354 885 63.9785 780.042 443.115
3446 0 77.0888 11.8565 914 63.7265 780.221 442.663
3447 0 84.074 11.4899 966 62.9493 779.892 438.585
3448 0 85.0926 10.8588 924 63.2857 779.181 438.386
3449 0 87.0588 12.0378 1048 62.437 779.051 437.2
3450 0 91.1247 10.963 999 62.4354 779.635 433.417
3451 0 94.1383 11.6637 1098 61.2951 779.93 431.734
3452 0 97.1341 11.0775 1076 61.2091 779.918 430.504
3453 0 102.114 11.8495 1210 59.9554 779.197 428.365
3454 0 105.128 11.3195 1190 60.3361 779.61 425.91
3455 0 109.119 10.8414 1183 60.339 779.752 424.917
3456 0 114.082 11.4479 1306 59.2443 780.045 422.781
3457 1 47.0381 11.1824 526 63.1141 780.876 456.093
3458 0 49.0173 10.4453 512 64.2207 780.631 455.615
3459 0 51.086 10.8836 556 62.7338 780.757 455.108
3460 0 52.0226 11.3797 592 62.5912 780.688 454.826
3461 0 54.0231 10.8102 584 62.2414 780.7 453.132
3462 0 59.0414 10.4672 618 61.2767 780.799 452.623
3463 0 58.0263 11.0812 643 60.6439 780.966 451.955
3464 0 61.036 10.0924 616 61.2386 780.05 449.898
3465 0 63.0343 10.7878 680 61.2309 780.894 449.116
3466 0 66.0503 11.0219 728 60.4396 780.771 447.788
3467 0 67.107 10.2076 685 61.7007 780.382 446.886
3468 0 68.0435 11.8307 805 59.3913 780.257 447.666
3469 0 69.0447 10.5294 727 61.6107 780.688 445.62
3470 0 70.0605 11.7755 825 60.9636 779.968 442.962
3471 0 77.0504 11.0966 855 60.083 781.372 441.985
3472 0 78.0839 11.2059 875 59.4823 780.314 441.232
3473 0 79.066 12.2682 970 58.3371 780.663 440.787
3474 0 82.246 11.8912 978 58.2986 780.031 438.35
3475 0 84.0744 11.24 945 58.8762 780.189 436.752
3476 0 90.1074 10.3876 936 58.6143 780.76 433.385
3477 0 92.0788 11.0449 1017 58.4002 780.725 432.402
3478 0 97.1609 11.2906 1097 57.4622 780.825 432.396
3479 0 98.1789 12.2328 1201 57.2548 780.962 429.566
3480 1 39.0281 10.6077 414 62.4758 780.442 458.575
3481 0 44.0682 9.71221 428 63.222 779.78 458.124
3482 0 47.061 10.8157 509 61.4283 780.175 457.731
3483 0 46.0177 10.3873 478 62.7866 780.092 455.479
3484 0 48.0283 10.9519 526 62.635 780.04 455.308
3485 0 51.006 11.3908 581 62.1876 780.735 454.332
3486 0 51.0408 10.7953 551 62.6679 781.098 453.134
3487 0 54.0852 11.4634 620 63.0774 781.008 455.8
3488 0 55.021 10.9231 601 65.8802 780.829 451.745
3489 0 58.1124 11.8047 686 64.8178 780.987 453.418
3490 0 59.0911 11.1015 656 66.6692 780.912 450.087
3491 0 59.0655 11.8682 701 66.0656 781.521 449.715
3492 0 62.0688 11.2134 696 66.5977 780.772 450.231
3493 0 63.0519 11.2288 708 66.3051 781.267 447.992
3494 0 67.1393 11.2304 754 66.065 781.227 448.286
3495 0 67.0536 12.8256 860 64.386 781.391 445.472
3496 0 68.057 11.6667 794 65.0869 781.748 444.705
3497 0 72.0576 11.699 843 64.7378 780.875 443.217
3498 0 76.1555 11.529 878 64.1435 780.994 441.432
3499 0 77.1122 11.8269 912 63.6634 780.823 440.889
3500 0 83.0706 12.2426 1017 62.3215 781.442 439.189
3501 0 83.1166 11.6824 971 63.0752 781.303 437.81
3502 0 88.158 11.0937 978 63.3824 781.425 436.038
3503 0 91.068 10.7063 975 63.3426 780.937 434.543
3504 0 93.1629 11.7643 1096 62.26 780.763 433.493
3505 1 46.0312 10.6667 491 65.5866 781.185 458.285
3506 0 47.0799 10.4503 492 66.1484 781.951 458.494
3507 0 45.0392 10.7684 485 66.7938 781.478 455.99
3508 0 50.0297 10.194 510 66.6431 780.896 455.141
3509 0 50.0935 12.0575 604 64.7997 781.561 454.939
3510 0 52.0306 11.4164 594 65.3636 780.741 452.82
3511 0 53.0219 10.5994 562 65.8043 781.427 452.064
3512 0 57.098 11.3664 649 64.4299 781.79 451.851
3513 0 63.1224 10.6935 675 64.3778 781.541 450.289
3514 0 60.0872 11.3169 680 64.8824 781.203 448.219
3515 0 60.02 10.9963 660 64.6667 781.056 448.588
3516 0 64.0287 11.8697 760 62.9855 780.691 449.553
3517 0 67.1835 12.3245 828 62.3237 780.865 447.826
3518 0 67.0371 11.6354 780 63.0654 780.199 444.044
3519 0 71.1001 11.6315 827 62.3301 780.755 445.609
3520 0 72.0723 11.8215 852 62.48 780.425 443.806
3521 0 75.0343 11.9412 896 61.8471 780.646 440.77
3522 0 78.0783 11.9111 930 61.4419 780.668 442.625
3523 0 81.0672 11.7433 952 60.8057 780.915 440.666
3524 0 84.2129 11.9222 1004 61.1544 780.656 439.436
3525 0 87.1144 12.0761 1052 60.3184 780.532 439.414
3526 0 89.1493 11.8341 1055 60.1668 780.741 437.002
3527 0 95.0904 11.5048 1094 59.8016 780.263 433.939
3528 0 96.072 11.6787 1122 59.7594 780.305 431.428
3529 0 102.145 11.6207 1187 59.1146 780.058 432.408
3530 0 102.065 11.5906 1183 59.1792 779.617 429.459
3531 1 53.1123 9.54581 507 62.3807 780.229 455.438
3532 0 53.0873 10.3791 551 62.441 779.637 456.267
3533 0 57.0326 11.0814 632 61.0965 779.905 455.81
3534 0 58.0508 11.8345 687 59.952 780.365 452.525
3535 0 62.0687 11.5356 716 59.602 779.867 452.095
3536 0 61.0691 11.6917 714 218.039 778.863 452.401
3537 0 66.0227 11.0568 730 59.7904 779.308 450.164
3538 0 68.0548 11.7552 800 58.9262 779.68 450.501
3539 0 72.0689 12.1273 874 58.0309 778.836 449.859
3540 0 73.1146 11.3657 831 58.7112 779.04 445.357
3541 0 74.0322 12.1299 898 58.4499 778.92 444.208
3542 0 75.0524 11.7385 881 58.4245 778.857 442.771
3543 0 88.0692 11.1617 983 57.002 779.051 442.41
3544 0 83.0518 12.3537 1026 57.8207 778.804 439.428
3545 0 85.1373 11.1467 949 58.7924 779.255 436.603
3546 0 90.0819 11.3452 1022 58.0147 779.622 436.325
3547 0 90.1443 11.9808 1080 57.4518 779.97 434.972
3548 0 93.0859 12.0856 1125 57.4969 781.162 432.828
3549 0 98.1922 11.9765 1176 57.3503 780.094 429.758
3550 0 100.131 11.8945 1191 57.2427 779.455 427.33
3551 0 104.105 11.1714 1163 57.2838 779.977 420.197
3552 1 46.0175 9.30082 428 61.6145 780.007 453.895
3553 0 47.1029 9.93568 468 61.9487 780.97 450.378
3554 0 44.0317 10.3107 454 61.7401 781.491 448.786
3555 0 48.0383 9.7006 466 61.7747 781.779 447.654
3556 0 51.0669 10.2806 525 60.941 781.699 445.827
3557 0 54.0322 11.2896 610 58.9902 782.079 444.702
3558 0 51.078 10.6895 546 60.9377 781.7 440.879
3559 0 54.0343 11.3631 614 59.1954 782.326 442.454
3560 0 58.0491 10.8529 630 59.6921 782.227 439.768
3561 0 65.109 10.9969 716 58.2221 782.186 439.87
3562 0 61.0541 11.0558 675 58.3852 782.684 437.218
3563 0 68.0586 11.9456 813 56.3838 782.743 437.085
3564 0 68.0739 11.4141 777 57.0862 782.898 434.372
3565 0 70.0887 12.0847 847 56.0649 783.564 433.913
3566 0 73.1767 11.5064 842 55.9466 784.091 431.71
3567 0 73.0786 11.5629 845 56.355 783.838 430.843
3568 0 78.1904 12.0987 946 56.0465 784.227 430.204
3569 0 81.1232 11.1682 906 56.1435 785.012 427.636
3570 0 85.0554 12.0627 1026 54.9776 784.899 426.574
3571 0 87.0841 12.1492 1058 55.1182 784.332 426.425
3572 0 91.1608 12.1214 1105 54.5891 785.243 424.767
3573 0 94.1089 12.0711 1136 54.1153 785.278 422.585
3574 0 94.1118 11.2738 1061 55.6899 785.206 421.201
3575 0 97.1556 11.5073 1118 55.932 784.907 419.153
3576 0 101.131 11.5296 1166 55.6544 784.991 419.48
3577 0 104.103 11.383 1185 55.9578 785.253 417.297
3578 0 110.134 12.1397 1337 55.1892 784.744 418.313
3579 0 109.155 12.2762 1340 55.4933 784.372 415.763
3580 1 54.0764 10.3927 562 59.694 783.653 444.913
3581 0 53.0471 9.95342 528 60.125 783.521 444.087
3582 0 54.0317 11.5118 622 58.9502 783.556 444.143
3583 0 57.0431 10.343 590 59.9017 784.388 442.985
3584 0 59.0243 10.7075 632 59.7152 784.286 439.905
3585 0 60.0453 10.0258 602 60.1279 784.821 439.297
3586 0 62.0421 10.6541 661 59.4554 785.148 438.21
3587 0 65.0337 10.8867 708 59.6229 784.65 436.08
3588 0 67.0688 11.928 800 58.4562 784.956 434.429
3589 0 68.0441 10.9782 747 60.17 784.728 433.177
3590 0 72.0796 11.1682 805 59.3727 785.499 431.338
3591 0 71.1285 11.0785 788 60.231 785.129 428.293
3592 0 73.0572 12.3328 901 59.9201 785.11 429
3593 0 73.036 10.6797 780 62.1513 785.094 424.513
3594 0 78.0797 11.3474 886 60.6377 784.998 423.859
3595 0 82.048 11.6151 953 60.6464 785.644 426.141
3596 0 84.1307 11.3276 953 61.5719 785.422 422.612
3597 0 87.0239 12.0427 1048 61.666 785.431 422.587
3598 0 88.0995 11.1465 982 62.0947 784.756 420.923
3599 0 92.1342 11.0925 1022 61.2114 786.024 417.711
3600 0 95.0727 10.9285 1039 61.5515 786.152 417.287
3601 0 98.0882 11.0513 1084 61.5277 786.139 416.456
3602 0 103.067 11.5362 1189 61.434 786.463 415.769
3603 0 103.097 11.5619 1192 61.5294 785.761 412.917
3604 0 109.127 11.3079 1234 61.4927 786.569 411.852
3605 1 55.0564 11.1522 614 65.3811 786.003 439.464
3606 0 58.054 10.3869 603 66.1509 786.645 438.517
3607 0 57.0243 11.8897 678 65.236 786.972 437.982
3608 0 61.0666 11.9542 730 65.4726 787.732 436.186
3609 0 64.0465 11.3355 726 65.8264 787.263 435.72
3610 0 65.0397 11.4392 744 65.8696 787.581 432.931
3611 0 69.171 12.2016 844 64.6813 787.72 434.655
3612 0 71.0276 11.3477 806 65.5608 787.588 432.117
3613 0 71.07 13.0153 925 63.9654 786.568 431.778
3614 0 75.0698 11.8956 893 64.7436 786.523 429.426
3615 0 79.0685 12.5208 990 63.7192 786.358 429.935
3616 0 82.0598 12.3934 1017 62.9548 786.531 429.106
3617 0 83.1026 12.0333 1000 63.119 787.02 427.143
3618 0 87.114 12.2254 1065 63.1211 785.975 427.115
3619 0 91.1619 11.9458 1089 62.7254 786.917 425.634
3620 0 91.1419 12.3763 1128 62.539 786.326 423.374
3621 0 96.1798 12.6742 1219 61.6899 786.509 423.482
3622 0 100.077 11.5411 1155 62.4502 786.464 420.091
3623 0 103.065 11.8178 1218 62.3662 785.741 418.97
3624 0 107.208 12.0793 1295 61.644 785.516 418.217
3625 1 50.0856 11.2008 561 65.2977 785.61 448.355
3626 0 48.0464 10.8437 521 67.4376 785.702 444.633
3627 0 51.0531 11.0865 566 66.7933 786.085 445.037
3628 0 53.0509 10.7255 569 67.0474 786.044 444.891
3629 0 56.0455 11.0981 622 66.2685 785.106 443.034
3630 0 56.0412 11.1168 623 66.6244 784.812 442.265
3631 0 59.1266 11.8221 699 65.525 785.199 442.348
3632 0 58.0456 11.0603 642 66.4533 784.964 442.176
3633 0 63.0275 11.4712 723 65.5491 785.155 440.667
3634 0 66.0857 10.4107 688 66.2922 784.945 438.844
3635 0 66.0431 11.0231 728 66.6896 785.019 438.815
3636 0 66.0554 11.8234 781 65.4597 785.035 437.693
3637 0 71.1123 12.0795 859 63.7998 784.339 438.666
3638 0 75.0347 11.8212 887 63.5096 784.16 436.761
3639 0 77.0832 12.1297 935 62.8802 784.517 437.28
3640 0 78.0542 11.8507 925 63.2616 784.293 433.546
3641 0 80.0552 12.2291 979 63.094 784.346 433.18
3642 0 84.0878 12.9745 1091 62.8121 783.503 431.757
3643 0 84.0475 11.8742 998 64.1202 783.343 430.333
3644 0 92.1313 11.3859 1049 63.0162 783.936 429.383
3645 0 95.1841 12.1029 1152 62.4592 783.448 430.406
3646 0 96.0624 11.5238 1107 63.1427 783.261 426.697
3647 0 104.119 12.284 1279 61.8217 783.427 427.137
3648 0 104.1 11.22 1168 63.6241 782.624 422.897
3649 0 107.046 11.6492 1247 63.0593 782.484 421.357
3650 0 113.089 11.7164 1325 62.7751 782.802 420.948
3651 1 51.0356 10.8944 556 66.473 781.991 454.567
3652 0 53.0135 10.3747 550 67.6018 782.293 450.505
3653 0 52.0403 11.1452 580 67.1414 781.5 451.466
3654 0 55.0361 11.8104 650 66.0169 781.223 450.545
3655 0 58.0066 11.8435 687 65.7918 781.035 450.326
3656 0 60.0943 12.3473 742 65.3288 780.76 451.325
3657 0 60.0839 11.5006 691 66.2894 780.661 447.255
3658 0 61.032 11.6988 714 66.3249 780.415 445.924
3659 0 67.0971 11.9081 799 64.8773 780.563 447.802
3660 0 67.1203 11.606 779 64.3723 781.303 446.27
3661 0 68.02 12.0553 820 63.3915 781.478 445.816
3662 0 71.1008 12.7143 904 62.0487 781.352 446.243
3663 0 75.0569 12.5771 944 61.9068 780.079 442.749
3664 0 77.0443 12.3565 952 61.4821 780.828 442.012
3665 0 80.0772 12.3256 987 60.2746 780.366 439.783
3666 0 83.0441 12.8245 1065 59.7765 779.919 438.804
3667 0 85.0551 12.8035 1089 59.1745 780.131 436.37
3668 0 88.0684 12.4676 1098 61.5228 779.815 435.459
3669 0 91.0588 12.0911 1101 61.8774 779.828 433.879
3670 0 97.0455 11.6234 1128 61.3839 779.693 429.897
3671 0 98.2633 11.8254 1162 60.9759 779.976 429.705
3672 0 102.101 11.7432 1199 60.9324 779.827 426.532
3673 0 104.071 11.9341 1242 60.5129 780.547 425.186
3674 1 46.0614 10.7899 497 63.2233 781.569 457.592
3675 0 49.055 10.3557 508 63.9921 781.234 456.165
3676 0 49.0586 10.1104 496 64.998 780.905 455.573
3677 0 53.1627 11.1168 591 62.5854 780.592 456.995
3678 0 53.1066 11.7688 625 62.2592 781.544 456.947
3679 0 55.0128 11.5428 635 63.0173 781.191 455.602
3680 0 53.1242 11.6708 620 63.6516 780.744 453.04
3681 0 58.0844 11.2767 655 63.4244 781.055 452.388
3682 0 57.0727 11.2313 641 63.7925 781.51 451.17
3683 0 61.0386 10.2067 623 64.4719 781.417 449.547
3684 0 64.0868 11.4064 731 62.8728 780.692 449.501
3685 0 65.0705 12.0638 785 62.1516 780.804 449.394
3686 0 65.0616 11.9733 779 62.2195 781.167 448.786
3687 0 66.047 11.4767 758 62.7111 781.649 447.463
3688 0 70.106 12.0246 843 60.828 781.943 447.395
3689 0 73.0596 11.648 851 61.0893 781.938 443.157
3690 0 75.0733 12.308 924 60.3485 780.729 443.132
3691 0 76.0804 12.0925 920 60.2891 781.213 440.574
3692 0 78.1173 11.918 931 60.2352 780.793 438.531
3693 0 84.1099 11.4493 963 59.7342 781.863 437.304
3694 0 86.073 12.0828 1040 58.7067 781.707 436.898
3695 0 92.088 12.1623 1120 57.808 781.212 434.424
3696 0 93.0807 12.1937 1135 57.7436 781.345 432.612
3697 0 95.0833 11.9264 1134 57.776 781.405 430.142
3698 0 101.159 11.8922 1203 57.5054 781.81 428.648
3699 0 102.12 12.2405 1250 57.2432 782.142 427.397
3700 0 110.218 11.9944 1322 57.2065 782.12 426.846
3701 0 112.166 11.8396 1328 57.6393 781.715 425.864
3702 0 113.199 11.811 1337 57.8489 781.681 424.568
3703 0 120.307 11.3626 1367 57.8413 781.282 423.024
3704 0 120.144 11.9024 1430 57.8266 782.622 418.845
3705 0 128.078 11.4149 1462 58.0547 781.898 413.397
3706 0 131.104 12.2269 1603 56.9757 782.746 414.431
3707 1 62.0589 11.2313 697 59.8651 783.062 447.891
3708 0 64.1314 10.8527 696 60.217 782.734 446.628
3709 0 67.1864 10.9695 737 60.0516 782.179 444.624
3710 0 69.0674 11.5394 797 59.665 782.423 442.233
3711 0 69.1197 11.3282 783 59.6782 782.326 442.186
3712 0 75.1511 11.9226 896 58.7824 781.373 442.379
3713 0 76.0739 11.3442 863 59.3059 781.839 442.364
3714 0 79.0886 12.1256 959 58.3076 782.112 441.916
3715 0 83.1358 11.4391 951 58.2923 781.938 439.868
3716 0 81.0434 11.3519 920 59.4609 781.438 436.268
3717 0 90.1595 11.879 1071 57.6555 780.751 436.106
3718 0 89.1071 11.5479 1029 58.4665 781.156 434.644
3719 0 92.0963 11.1079 1023 58.3216 781.591 432.886
3720 0 96.0748 11.158 1072 58.403 780.801 433.257
3721 0 103.182 11.5621 1193 58.1559 781.014 431.71
3722 1 39.0886 11.1542 436 61.9725 780.381 461.016
3723 0 43.0362 10.9675 472 61.8475 780.907 460.869
3724 0 43.0709 10.7265 462 62.671 780.262 459.171
3725 0 48.0583 10.7161 515 61.7418 780.909 460.501
3726 0 46.1429 11.0526 510 62.6216 780.324 458.414
3727 0 46.0433 11.2503 518 63.0579 780.286 458.102
3728 0 51.0162 10.3301 527 63.055 780.476 457.742
3729 0 51.0461 10.2261 522 64.0728 780.466 454.249
3730 0 52.0464 11.1823 582 63.2921 779.321 455.421
3731 0 53.026 11.0323 585 63.8325 779.388 453.986
3732 0 56.037 11.0998 622 63.4502 779.764 454.482
3733 0 55.0942 11.1808 616 63.5032 779.544 452.394
3734 0 59.1778 11.5077 681 62.7739 779.44 453.203
3735 0 60.013 11.3642 682 63.1217 779.047 451.874
3736 0 64.1477 11.0838 711 62.7018 779.098 450.136
3737 0 69.1304 11.1528 771 61.5279 778.987 449.514
3738 0 69.2023 11.1846 774 61.6964 779.156 449.044
3739 0 71.0917 11.7313 834 61.3981 779.133 447.795
3740 0 73.0588 11.3881 832 61.6454 778.861 445.034
3741 0 76.0657 11.4769 873 61.7629 778.362 444.94
3742 0 77.0718 11.4179 880 61.8614 779.345 441.701
3743 0 83.1383 10.9456 910 62.0802 779.613 437.744
3744 0 86.137 11.4585 987 61.4853 779.923 437.8
3745 0 89.1242 10.85 967 62.272 779.36 436.44
3746 0 89.0368 10.5574 940 63.0649 779.712 434.257
3747 0 94.0511 10.7069 1007 62.3287 780.074 433.008
3748 0 99.0928 10.7778 1068 62.6348 780.259 433.796
3749 0 99.1022 9.96951 988 64.4868 780.064 429.649
3750 0 106.162 10.6064 1126 63.6572 779.893 428.382
3751 0 108.064 10.2532 1108 63.4016 780.363 425.524
3752 1 53.0294 10.7865 572 65.993 780.694 452.563
3753 0 55.0559 11.2613 620 65.2403 780.036 451.766
3754 0 57.0488 11.1834 638 65.4655 779.447 450.826
3755 0 58.041 11.2679 654 65.5046 779.977 449.139
3756 0 62.0593 10.8445 673 66.2689 779.743 447.752
3757 0 64.0799 10.5337 675 66.6904 780.261 446.609
3758 0 65.1054 11.059 720 66.0125 780.188 446.685
3759 0 67.0833 10.8671 729 66.1056 779.597 446.038
3760 0 69.1259 10.951 757 66.6407 779.958 444.243
3761 0 73.1748 10.4681 766 66.3851 780.39 440.762
3762 0 76.1196 10.5886 806 66.0112 780.233 438.787
3763 0 78.1641 11.6166 908 64.6828 779.615 439.54
3764 0 80.0663 11.0409 884 65.5283 779.715 436.226
3765 0 84.046 11.1962 941 64.9522 780.246 435.815
3766 0 85.1053 10.9511 932 65.5601 779.974 431.594
3767 0 89.1179 11.9841 1068 64.1573 780.272 433.313
3768 0 92.0836 10.6968 985 65.6914 780.001 429.789
3769 0 97.0782 11.1663 1084 64.8229 779.839 428.592
3770 0 101.088 10.9608 1108 65.1435 780.08 426.867
3771 1 44.0553 10.2825 453 69.1148 781.477 454.7
3772 0 47.0971 10.3403 487 68.4025 781.464 453.423
3773 0 47.0595 11.0498 520 68.3423 781.306 451.767
3774 0 47.0405 10.7354 505 68.9426 781.43 451.089
3775 0 52.0733 10.8693 566 68.2102 781.708 450.776
3776 0 51.0756 10.925 558 68.6738 781.251 450.344
3777 0 50.0597 11.2266 562 68.9039 781.605 449.683
3778 0 53.0611 11.1758 593 68.172 782.486 448.331
3779 0 54.0734 11.9282 645 67.6171 781.907 447.639
3780 0 58.0438 11.922 692 66.935 781.848 446.961
3781 0 59.0323 12.2475 723 66.8838 781.913 444.361
3782 0 62.0819 11.3882 707 66.9618 781.736 444.341
3783 0 68.0792 11.4572 780 66.1756 781.886 443.492
3784 0 67.1151 12.3966 832 65.607 781.255 442.983
3785 0 70.068 12.3594 866 64.9896 780.515 441.607
3786 0 72.0518 11.7971 850 65.3282 781.202 440.948
3787 0 79.0834 12.3667 978 63.1626 781.543 442.61
3788 0 76.1358 11.8867 905 64.2784 781.45 438.265
3789 0 80.1612 12.2254 980 63.0306 781.851 438.557
3790 0 84.0804 12.3453 1038 62.421 781.394 436.539
3791 0 86.1707 12.0807 1041 62.6282 780.785 434.112
3792 0 89.1416 11.8688 1058 62.1408 780.68 435.498
3793 0 95.0492 10.826 1029 62.2886 781.522 431.959
3794 0 96.1086 11.1124 1068 61.3652 781.015 430.286
3795 0 101.145 11.9135 1205 59.8415 780.787 429.261
3796 0 103.117 12.0446 1242 59.69 780.795 425.862
3797 1 44.0261 10.6073 467 63.2869 780.332 453.546
3798 0 51.0629 10.771 550 61.4945 781 456.078
