time division length width area intensity CMx CMy
1872 0 186.437 33.1908 6188 12.2141 242.245 467.226
1873 1 76.5722 5.77233 442 11.7692 242.93 524.697
1874 0 91.4317 30.9083 2826 11.494 238.398 499.64
1875 0 93.9569 30.2585 2843 11.426 237.603 500.832
1876 0 99.5 7.23618 720 12.4403 245.401 507.725
1877 0 93.0233 6.794 632 12.4604 240.821 510.535
1878 0 81.5744 6.8649 560 12.2982 241.212 511.857
1879 0 79.3813 4.83741 384 12.2109 242.841 519.326
1880 1 51.7996 6.62167 343 11.6239 238.131 526.598
1881 1 67.6901 14.8766 1007 70.4369 245.726 505.604
1882 1 66.5987 13.9642 930 11.5065 242.591 519.186
1883 0 66.4519 8.96889 596 11.7483 241.493 519.69
1884 0 67.2481 12.952 871 11.4845 240.343 517.458
1885 0 65.1959 8.48212 553 11.7902 245.427 517.024
1886 0 64.3535 13.3171 857 11.5519 244.38 513.09
1887 0 66.5855 18.6677 1243 11.4216 243.932 514.09
1888 0 73.5993 12.7719 940 11.617 245.006 515.687
1889 1 26.8407 10.879 292 11.0548 241.548 522.932
1890 0 21.4828 14.5232 312 43.0417 232.179 515.478
1891 0 6 12.3333 74 11.0811 222.257 531.486
1892 0 11.0041 7.99704 88 11.0909 222.682 531.909
1893 0 9.03641 14.4969 131 11.084 237 532.794
1894 1 0 0 0 -nan -nan -nan
1895 1 12.7797 18.7015 239 11.0586 240.18 535.439
1896 0 9.15724 34.1806 313 11.0767 240.061 526.735
1897 0 19.9708 17.0249 340 11.0824 231.529 526.232
1898 0 22.6757 13.6269 309 11.0615 227 525.744
1899 0 18.9124 12.9545 245 11.1061 232.673 534.326
1900 0 0 0 0 -nan -nan -nan
1901 0 3 8 24 10.4167 268.708 521.875
1902 1 35.1207 23.7182 833 11.078 240.779 524.827
1903 0 37.787 18.075 683 11.0703 232.139 518.859
1904 0 11.9542 7.11048 85 11.1882 240.282 534.106
1905 0 44.2044 17.6227 779 46.4211 237.392 522.154
1906 0 25.141 21.1209 531 11.0734 234.742 526.512
1907 0 21.1212 22.9627 485 11.0619 236.254 526.955
1908 1 57.3996 14.1987 815 11.546 241.086 520.739
1909 0 63.1891 11.157 705 11.7433 241.99 516.45
1910 0 65.035 22.4033 1457 59.5058 241.816 509.77
1911 1 0 0 2 13 241.5 485
1912 1 57.1894 26.5084 1516 11.2665 240.664 517.321
1913 0 84.6731 14.6446 1240 11.3226 242.023 513.773
1914 0 72.6136 19.8172 1439 11.3197 240.646 516.29
1915 0 50.3031 11.0331 555 11.7423 244.106 516.117
1916 0 59.3124 14.7187 873 11.4181 242.457 517.738
1917 0 67.1696 19.3987 1303 11.35 243.89 518.759
1918 0 82.3194 9.75468 803 11.5517 246.266 518.105
1919 1 0 0 0 -nan -nan -nan
1920 0 23.2224 28.0763 652 11.0675 242.456 528.725
1921 0 36.0672 15.8315 571 11.049 243.075 527.002
1922 1 0 0 0 -nan -nan -nan
1923 1 0 0 0 -nan -nan -nan
1924 1 0 0 0 -nan -nan -nan
1925 0 0 0 0 -nan -nan -nan
1926 1 109.149 14.6314 1597 13.6669 242.297 434.385
1927 0 114.045 12.3899 1413 13.6447 242.51 439.75
1928 0 105.013 13.8268 1452 13.6364 242.273 439.211
1929 0 112.771 13.8422 1561 13.713 243.083 435.115
1930 0 115.446 12.0402 1390 13.8173 243.363 441.215
1931 0 110.751 15.8644 1757 13.4735 242.317 418.686
1932 0 110.88 15.6566 1736 13.4758 242.067 419.856
1933 0 127.725 28.2796 3612 12.6235 242.188 440.218
1934 1 98.1592 14.4154 1415 13.6375 243.134 439.254
1935 0 108.165 13.4609 1456 13.6387 242.32 436.378
1936 0 110.649 12.6888 1404 13.683 243.601 436.991
1937 0 100.956 18.8794 1906 13.1794 243.267 428.437
1938 0 100.571 12.966 1304 13.6718 242.98 440.991
1939 0 100.358 13.7608 1381 13.6358 243.941 440.68
1940 0 106.502 12.6101 1343 13.6247 243.392 438.563
1941 0 105.007 12.7325 1337 13.6402 244.23 437.352
1942 0 105.109 11.0932 1166 13.8439 243.711 429.365
1943 0 121.352 9.30349 1129 13.8822 243.221 443.658
1944 1 106.101 26.3052 2791 12.7603 241.608 439.282
1945 0 99.52 21.8649 2176 12.9297 241.612 432.976
1946 0 95.2445 15.9694 1521 13.3103 242.959 431.677
1947 0 96.0177 18.4133 1768 13.1148 243.555 428.859
1948 0 100.726 17.6022 1773 12.9972 242.698 427.338
1949 0 111.608 11.3254 1264 13.4359 242.471 438.267
1950 0 115.045 10.8131 1244 13.4285 243.288 441.146
1951 0 103.789 11.4271 1186 13.4216 244.645 442.414
1952 0 95.0879 18.1832 1729 12.952 243.496 432.814
1953 1 201.307 5.19107 1045 34.3856 244.208 342.345
1954 0 202.476 5.20556 1054 34.8074 244.351 335.344
1955 0 197.472 5.58055 1102 35.1016 244.386 328.36
1956 1 186.58 3.04963 569 33.5852 244.473 358.989
1957 0 173.996 3.50009 609 32.1724 244.085 364.35
1958 1 101.605 10.1275 1029 13.3664 243.24 434.765
1959 0 115.328 25.9867 2997 12.5539 242.3 437.288
1960 0 121.73 24.5872 2993 12.4788 242.697 439.718
1961 0 110.406 25.8683 2856 12.4401 241.881 443.433
1962 0 108.837 26.3237 2865 12.4262 242.108 441.304
1963 0 98.3114 21.4421 2108 12.6594 242.82 431.828
1964 0 112.208 10.7122 1202 13.3186 243.646 441.7
1965 0 120.606 10.1819 1228 13.3225 241.622 439.116
1966 0 116.902 10.5815 1237 13.3452 242.823 438.418
1967 0 114.388 11.155 1276 13.3793 242.947 440.724
1968 0 106.224 25.2202 2679 12.6394 242.109 435.928
1969 0 104.588 11.3493 1187 13.3319 243.386 442.303
1970 0 103.852 10.5246 1093 13.2736 242.77 442.895
1971 0 109.553 9.66655 1059 13.2635 243.253 444.163
1972 0 121.534 16.9171 2056 12.7568 241.314 454.066
1973 0 139.394 15.3594 2141 12.7492 240.956 451.177
1974 1 169.002 44.1179 7456 11.7487 239.933 453.998
1975 1 115.524 29.7427 3436 12.4063 240.896 437.151
1976 0 136.478 17.0797 2331 12.6358 242.036 454.046
1977 0 126.036 12.5837 1586 13.0984 242.095 439.13
1978 0 123.308 11.1266 1372 13.2449 241.191 431.464
1979 0 131.635 23.8462 3139 12.483 241.604 442.631
1980 0 125.355 15.7553 1975 12.7159 239.975 452.989
1981 0 109.762 27.3319 3000 12.3847 240.108 442.436
1982 1 93.9457 16.5095 1551 12.7608 241.538 430.282
1983 0 98.2158 27.745 2725 12.3835 241.028 438.034
1984 1 133.635 22.7784 3044 12.3538 241.395 444.163
1985 1 103.554 23.0122 2383 12.4448 241.615 433.042
1986 0 122.391 24.3972 2986 12.3995 241.35 440.815
1987 0 103.546 19.2958 1998 12.5906 241.398 429.932
1988 0 97.9204 26.2458 2570 12.4432 242.159 437.133
1989 0 105.188 9.82998 1034 13.2611 243.162 442.567
1990 0 121.386 12.8598 1561 12.7713 242.006 450.304
1991 0 130.729 18.657 2439 12.4801 241.065 446.056
1992 0 142.737 23.708 3384 12.3777 241.014 436.931
1993 1 112.287 13.9821 1570 12.6739 242.851 450.283
1994 0 106.357 7.99194 850 13.1894 242.533 440.794
1995 0 113.701 7.62524 867 13.1315 243.566 442.052
1996 1 142.46 27.0673 3856 11.9987 241.384 463.55
1997 1 103.182 25.9155 2674 12.3852 242.58 431.917
1998 0 108.221 12.724 1377 12.7081 241.985 447.964
1999 0 133.963 21.7523 2914 12.3353 242.601 440.515
2000 0 119.989 8.90078 1068 13.1891 242.532 432.983
2001 1 137.169 21.3679 2931 12.3975 242.168 437.718
2002 1 142.649 21.4092 3054 12.3572 243.18 441.877
2003 0 116.196 23.8305 2769 12.4095 242.788 436.689
2004 0 106.347 22.9814 2444 12.3948 242.481 435.511
2005 1 135.34 21.7896 2949 12.3269 242.461 440.302
2006 1 115.376 24.0951 2780 12.3507 242.456 434.144
2007 1 90.7088 10.5943 961 12.9168 242.118 422.561
2008 1 99.7617 25.5008 2544 12.3251 243.883 432.783
2009 0 93.02 22.5866 2101 12.3912 243.416 426.722
2010 1 110.66 16.8173 1861 12.5287 242.628 414.412
2011 0 110.448 24.0295 2654 12.3263 242.382 434.824
2012 0 142.064 18.7803 2668 12.2879 244.388 442.823
2013 0 119.396 22.4882 2685 12.2905 242.806 437.068
2014 0 102.761 8.11596 834 13.1343 244.675 432.751
2015 0 106.765 7.81156 834 13.1067 243.243 420.403
2016 1 130.741 38.0752 4978 11.7101 242.152 437.662
2017 1 95.9401 17.6256 1691 12.4571 242.109 422.855
2018 1 139.177 19.8524 2763 12.2472 243.848 436.217
2019 1 91.2722 6.14645 561 13.1836 244.701 436.654
2020 1 167.17 30.6932 5131 11.7418 242.771 466.202
2021 1 98.0309 26.1448 2563 12.3172 243.757 432.795
2022 1 126.44 17.9057 2264 12.4413 242.985 449.633
2023 0 144.945 14.7987 2145 12.4308 243.567 451.68
2024 0 146.051 18.0142 2631 12.1741 242.583 462.114
2025 1 125.936 22.6067 2847 12.2504 242.583 442.887
2026 1 93.8272 15.1555 1422 12.4916 243.31 421.429
2027 0 100.121 25.2694 2530 12.2656 244.338 430.758
2028 0 127.433 19.2885 2458 12.2547 243.711 440.86
2029 0 124.512 19.8937 2477 12.2769 243.953 441.89
2030 1 158.23 26.196 4145 11.813 241.485 463.716
2031 1 116.279 21.4398 2493 12.3077 243.044 442.593
2032 0 114.358 23.4702 2684 12.3126 242.231 437.124
2033 0 124.512 10.8744 1354 12.6787 242.436 446.389
2034 0 105.249 6.71742 707 13.1952 244.197 435.97
2035 0 97.087 8.80654 855 13.1415 243.412 422.52
2036 1 154.598 17.1348 2649 12.2035 244.041 457.447
2037 1 105.997 6.38698 677 13.096 242.703 435.598
2038 0 114.782 16.0391 1841 12.3922 242.542 445.033
2039 0 7 2.71429 19 13.1579 244.474 472.158
2040 1 181.96 39.69 7222 11.1741 240.76 456.426
2041 1 122.179 14.2496 1741 12.5032 241.253 450.4
2042 1 404.737 11.7162 4742 32.6404 242.737 284.598
2043 1 369.47 12.1201 4478 34.0205 242.726 264.992
2044 1 162.629 3.6033 586 36.9744 242.778 346.962
2045 0 159.195 3.67475 585 37.1897 242.839 348.451
2046 0 159.552 3.76679 601 38.8669 242.757 342.364
2047 1 120.566 22.6266 2728 12.2687 240.396 439.037
2048 1 95.202 24.1907 2303 12.2644 240.701 434.539
2049 0 91.2389 13.514 1233 12.4647 239.34 419.045
2050 0 90.113 24.4804 2206 12.2892 240.984 438.036
2051 1 140.877 19.4212 2736 12.2029 241.012 449.579
2052 0 127.958 21.89 2801 12.2503 239.78 435.445
2053 0 132.096 21.5525 2847 12.2532 239.924 434.499
2054 0 135.668 13.2235 1794 12.4833 240.724 444.695
2055 0 114.471 8.76205 1003 12.7168 241.848 441.678
2056 0 112.076 21.9049 2455 12.2326 240.509 433.883
2057 0 121.547 15.6236 1899 12.3386 242.075 446.219
2058 0 110.171 11.4821 1265 12.5628 242.5 446.851
2059 0 115.717 22.4168 2594 12.2244 242.99 438.35
2060 1 83.5018 5.36515 448 13.0402 242.705 430.558
2061 1 138.076 41.9625 5794 11.5839 241.849 447.294
2062 1 102.595 24.046 2467 12.2383 241.594 435.808
2063 0 97.0941 22.3701 2172 12.2297 240.574 433.122
2064 0 95.8364 6.69892 642 13.0327 240.283 424.908
2065 0 102.514 24.2015 2481 12.2451 241.814 435.365
2066 1 102.887 25.7467 2649 12.2337 242.127 438.078
2067 0 118.897 22.7339 2703 12.2257 242.072 435.205
2068 1 172.642 18.3269 3164 11.8688 240.131 477.71
2069 1 122.235 5.62852 688 13.077 239.653 423.73
2070 0 114.01 18.8755 2152 12.2821 242.276 439.424
2071 0 101.546 5.94806 604 13.0497 242.449 428.406
2072 0 113.94 22.9858 2619 12.2428 242.963 438.425
2073 0 115.938 9.93634 1152 12.5842 241.201 447.733
2074 1 82.8698 6.15424 510 13.0843 243.818 429.953
2075 1 99.7717 23.7542 2370 12.235 243.508 437.53
2076 1 79.0437 15.599 1233 12.3479 243.946 422.683
2077 0 93.2703 22.7511 2122 12.2191 244.508 434.139
2078 1 136.612 29.2874 4001 11.7746 244.099 457.808
2079 1 85.9853 25.1322 2161 12.2064 244.072 434.113
2080 1 138.195 16.18 2236 12.2411 245.137 445.478
2081 1 158.431 15.8555 2512 12.2217 243.771 444.909
2082 1 107.435 16.1401 1734 12.3766 243.855 443.927
2083 0 109.65 23.4565 2572 12.2278 241.675 429.57
2084 0 121.302 20.4284 2478 12.2502 242.308 437.339
2085 0 97.0888 25.2552 2452 12.2349 242.964 434.957
2086 1 135.482 15.5446 2106 12.0043 242.84 467.67
2087 1 84.3548 15.7549 1329 12.3544 243.555 420.354
2088 1 165.773 24.3103 4030 11.8308 244.491 458.53
2089 1 93.548 23.1966 2170 12.2235 243.847 430.629
2090 1 113.474 33.0562 3751 11.8011 242.064 430.088
2091 0 95.095 24.1233 2294 12.2132 242.124 434.771
2092 1 120.288 21.5234 2589 12.226 242.255 433.154
2093 1 344.962 9.36334 3230 35.9824 244.426 300.168
2094 1 318.942 9.35279 2983 37.353 244.472 284.072
2095 0 305.012 9.61602 2933 36.9547 244.013 281.317
2096 0 305.751 9.21666 2818 34.6803 243.342 302.118
2097 1 106.624 20.774 2215 12.1874 242.164 439.821
2098 0 106.133 18.7972 1995 12.2371 241.466 441.834
2099 0 104.271 5.40896 564 13.0621 242.496 422.784
2100 0 97.7038 23.4382 2290 12.1886 241.878 431.967
2101 0 98.6612 12.5176 1235 12.3498 242.083 445.908
2102 1 122.845 19.9113 2446 12.159 241.305 433.435
2103 0 150.881 20.4466 3085 12.034 242.648 444.265
2104 0 130.983 19.888 2605 12.1969 241.002 434.091
2105 1 95.1853 22.1673 2110 12.1853 240.46 425.523
2106 0 91.7306 21.3887 1962 12.1743 241.026 431.697
2107 0 105.504 20.5299 2166 12.1648 241.057 434.4
2108 1 73.829 2.79023 206 13.068 243.296 453.762
2109 1 155.167 17.3298 2689 12.1183 241.984 439.385
2110 1 119.399 18.8025 2245 12.1911 241.872 426.322
2111 1 165.857 15.1214 2508 12.2002 242.654 439.455
2112 0 157.325 16.9776 2671 12.1662 241.093 430.877
2113 1 112.558 4.87747 549 12.9417 245.783 416.441
2114 1 205.074 19.4905 3997 11.7543 242.202 460.953
2115 1 103.808 3.63172 377 13.0265 244.934 424.639
2116 0 125.457 22.8047 2861 11.8298 240.587 447.206
2117 1 98.1908 18.7899 1845 12.1382 242.406 431.258
2118 1 127.328 19.5636 2491 12.0064 241.656 444.194
2119 1 181.77 33.0088 6000 11.4557 240.639 459.803
2120 1 12.0643 6.05091 73 11.9315 254.068 480.301
2121 0 6 3 18 12.2222 228.667 488.111
2122 0 5 3.2 16 12.125 246.062 479
2123 1 113.389 17.9912 2040 12.1461 241.64 438.119
2124 1 94.7593 18.9638 1797 12.1758 242.534 433.86
2125 0 112.573 18.8323 2120 12.1816 241.53 428.117
2126 0 113.78 18.2721 2079 12.1809 243.326 435.043
2127 0 112.347 17.624 1980 12.1717 243.918 434.484
2128 0 115.092 16.8909 1944 12.1656 242.881 433.624
2129 0 101.521 12.9628 1316 12.2386 244.563 420.669
2130 0 117.846 16.4706 1941 12.1448 243.076 434.837
2131 1 34.6496 10.13 351 12.2393 239.655 414.917
2132 1 105.387 17.374 1831 12.1458 244.183 439.586
2133 1 124.843 15.7397 1965 12.1481 244.062 442.066
2134 1 111.988 16.1 1803 12.1669 244.618 438.29
2135 1 159.694 37.6784 6017 11.3945 241.388 460.169
2136 1 93.3545 17.471 1631 12.1502 242.886 438.831
2137 0 86.9125 18.2367 1585 12.1401 243.427 434.5
2138 1 153.008 17.2474 2639 11.7347 242.452 472.247
2139 1 183.946 25.8554 4756 11.5334 241.965 470.162
2140 1 139.216 14.0285 1953 11.8966 244.048 469.723
2141 1 97.1502 6.78331 659 12.4006 244.256 455.08
2142 0 101.932 7.46576 761 12.4179 243.216 451.346
2143 0 90.1697 3.14962 284 13.0035 244.595 434.166
2144 1 163.854 27.97 4583 11.5872 241.975 465.024
2145 1 123.567 18.3463 2267 12.15 244.618 423.585
2146 0 152.476 14.7368 2247 12.1357 243.625 426.43
2147 0 111.004 18.783 2085 12.1578 243.501 421.327
2148 0 116.48 15.7881 1839 12.1506 242.5 430.582
2149 0 101.032 9.00704 910 12.2242 243.407 452.451
2150 0 105.515 8.16946 862 12.3538 244.21 449.3
2151 0 113.56 9.29907 1056 12.2424 243.934 448.741
2152 1 165.787 19.8266 3287 11.7308 243.036 460.36
2153 0 172.941 21.8687 3782 11.6756 242.98 463.992
2154 1 158.627 23.1108 3666 11.776 243.79 448.639
2155 1 109.435 19.6647 2152 12.125 243.418 424.018
2156 0 118.572 19.1023 2265 12.1541 243.492 426.57
2157 0 119.006 16.9655 2019 12.1268 243.999 425.857
2158 1 168.518 27.2611 4594 11.5799 242.497 463.019
2159 1 13.4579 5.57293 75 12.0533 252.387 483.547
2160 1 158.708 23.3637 3708 11.5742 242.591 471.461
2161 0 150.485 24.4343 3677 12.604 241.571 475.729
2162 1 103.832 18.5204 1923 12.1347 242.202 428.856
2163 0 108.339 19.4575 2108 12.1243 242.102 429.807
2164 1 128.733 20.8882 2689 11.9178 241.144 442.887
2165 1 123.729 16.4957 2041 12.1514 243.13 428.766
2166 0 127.147 14.6916 1868 12.1199 243.909 428.825
2167 0 127.262 19.8174 2522 11.6709 239.343 457.748
2168 0 105.001 16.438 1726 12.1263 243.211 435.577
2169 0 91.122 18.1405 1653 12.1113 243.044 437.002
2170 0 88.0065 18.3737 1617 12.1163 243.398 435.338
2171 0 84.5185 18.2918 1546 12.11 242.68 433.29
2172 1 268.441 22.2656 5977 33.4748 241.551 452.989
2173 0 232.549 6.36854 1481 34.5307 244.785 312.947
2174 1 268.578 51.6758 13879 15.9682 240.241 362.757
2175 1 193.243 40.7879 7882 19.4071 241.496 311.51
2176 1 264.232 39.102 10332 17.5342 241.61 336.954
2177 1 105.833 16.6299 1760 12.1108 243.709 433.437
2178 0 130.404 13.7113 1788 12.1135 245.308 433.204
2179 0 104.176 17.2016 1792 12.0926 242.349 426.948
2180 0 140.812 6.37018 897 12.4671 241.417 435.703
2181 0 111.03 17.5538 1949 12.1093 241.598 431.404
2182 0 114.59 27.3496 3134 11.6918 242.447 444.413
2183 0 117.159 22.8237 2674 11.7438 242.276 451.78
2184 1 107.218 9.37338 1005 12.3483 242.459 436.371
2185 0 122.788 7.19938 884 12.3756 243.605 442.548
2186 0 119.685 16.1006 1927 12.0939 244.961 429.553
2187 0 114.119 17.1401 1956 12.1201 243.197 426.397
2188 0 135.794 14.1465 1921 12.0979 243.307 441.506
2189 0 140.731 19.8392 2792 11.7958 243.441 445.678
2190 1 3 1.33333 4 12 233.25 518.75
2191 1 0 0 0 -nan -nan -nan
2192 1 20.6871 24.3147 503 8.66998 243.674 515.569
2193 1 116.443 14.1443 1647 12.1184 244.888 433.956
2194 0 90.4328 18.7653 1697 12.1037 242.874 428.778
2195 1 254.555 8.0847 2058 31.7021 245.117 322.933
2196 0 254.866 8.6163 2196 30.9736 244.709 321.533
2197 0 259.402 8.14565 2113 31.5878 245.734 318.14
2198 0 266.092 9.18102 2443 29.79 245.185 318.8
2199 1 219.963 11.2246 2469 23.32 244.176 347.613
2200 1 185.499 11.31 2098 25.2636 244.824 339.602
2201 1 270.889 7.13947 1934 24.5357 243.056 385.704
2202 1 222.73 33.8797 7546 17.116 243.474 359.355
2203 1 335.479 8.93051 2996 28.7467 244.42 331.671
2204 0 339.462 8.32788 2827 30.1298 244.313 320.222
2205 1 300.178 9.27782 2785 30.9741 245.248 301.092
2206 0 292.523 9.69495 2836 31.6897 244.99 299.874
2207 0 291.858 10.3509 3021 31.9944 244.628 290.976
2208 1 307.47 9.48712 2917 32.1186 244.499 302.818
2209 1 301.395 9.16406 2762 32.9638 244.307 291.244
2210 1 379.072 7.87976 2987 30.7208 245.193 314.936
2211 1 302.075 8.91832 2694 33.5787 244.842 288.782
2212 1 235.734 13.0274 3071 31.9538 244.455 293.165
2213 0 246.074 12.732 3133 31.3945 244.428 297.103
2214 1 174.305 12.1167 2112 36.0327 244.588 279.706
2215 1 122.381 12.1261 1484 12.0943 245.458 433.598
2216 0 104.706 16.5225 1730 12.1 244.992 434.34
2217 0 118.001 8.466 999 12.2302 243.568 446.863
2218 0 94.8313 5.55724 527 12.5275 243.123 431.636
2219 0 120.063 14.2759 1714 12.0758 244.506 433.928
2220 0 117.763 15.2764 1799 12.1073 244.997 429.088
2221 1 149.644 23.068 3452 11.5666 243.382 462.079
2222 1 0 0 0 -nan -nan -nan
2223 1 147.438 28.4052 4188 11.4768 242.504 461.634
2224 1 40.0501 18.352 735 12.0626 243.814 409.174
2225 1 125.559 19.7438 2479 11.7785 241.027 449.97
2226 1 29.6303 20.1483 597 12.0938 241.121 405.039
2227 1 107.811 15.3231 1652 12.072 241.461 433.459
2228 1 144.589 24.1581 3493 11.5958 241.324 460.216
2229 1 0 0 0 -nan -nan -nan
2230 1 117.142 15.0245 1760 12.0466 245.121 434.585
2231 0 106.069 17.2058 1825 12.1101 243.457 431.51
2232 1 289.321 15.6263 4521 28.9883 244.649 296.374
2233 0 200.566 13.3572 2679 35.2288 244.395 259.979
2234 1 395.735 50.5136 19990 17.3177 242.668 329.624
2235 1 352.902 47.9907 16936 18.4341 241.797 304.679
2236 0 335.534 12.1448 4075 31.2368 243.976 273.374
2237 1 179.614 4.15335 746 34.567 244.186 347.074
2238 0 189.288 4.01504 760 34.95 244.65 342.092
2239 0 198.794 4.29087 853 33.0023 242.818 350.984
2240 0 180.399 4.81156 868 32.4666 244.786 346.494
2241 0 187.906 4.92267 925 32.2476 244.905 349.985
2242 1 284.423 37.2684 10600 15.2032 241.866 399.247
2243 1 104.229 13.1153 1367 12.0775 242.5 434.295
2244 1 149.37 21.7916 3255 11.5416 240.565 469.137
2245 1 76.5944 16.4764 1262 12.061 241.635 429.288
2246 1 96.7181 14.2579 1379 12.0653 242.757 433.832
2247 1 121.395 14.4981 1760 11.7682 240.254 455.987
2248 1 159.191 15.4909 2466 11.5223 240.775 477.116
2249 1 322.002 32.6147 10502 19.9312 243.352 300.034
2250 1 380.836 29.1753 11111 18.9348 242.745 323.757
2251 1 229.34 15.1435 3473 27.3933 243.857 300.408
2252 1 163.212 10.9979 1795 34.151 244.709 271.499
2253 1 182.233 4.5107 822 27.3954 246.996 377.026
2254 0 174.481 12.0586 2104 33.5299 244.26 264.062
2255 0 180.394 12.6556 2283 32.346 244.779 263.396
2256 0 311.606 14.0402 4375 27.1934 244.239 290.602
2257 1 138.178 24.4106 3373 11.6208 242.961 452.32
2258 1 107.803 17.8103 1920 12.1151 242.277 420.578
2259 0 117.185 3.87422 454 12.6233 244.993 429.982
2260 0 101.283 8.78727 890 31.0596 244.731 341.924
2261 1 195.675 4.4206 865 30.6173 241.457 357.973
2262 1 185.688 4.79298 890 30.6303 245.366 357.999
2263 1 21.5533 14.9397 322 12.0745 239.801 396.745
2264 1 96.6358 16.0292 1549 12.0813 241.595 426.338
2265 1 0 0 0 -nan -nan -nan
2266 1 180.038 23.7338 4273 11.4049 243.315 469.318
2267 0 143.361 7.89616 1132 31.6493 244.436 337.074
2268 0 139.45 9.38689 1309 30.3629 245.065 332.006
2269 0 137.8 21.9956 3031 11.6734 242.104 458.661
2270 1 143.669 15.3895 2211 11.8869 242.18 442.617
2271 1 77.6121 1.80384 140 13.0643 246.1 427.9
2272 0 103.604 5.39556 559 12.2844 244.631 442.78
2273 1 143.918 16.5302 2379 11.6952 241.83 467.297
2274 1 6 3.16667 19 12.2105 265.684 383.895
2275 1 62.8136 12.0675 758 12.0989 245.272 404.868
2276 0 39.6966 10.4039 413 12.3245 242.099 407.31
2277 1 99.5197 10.0583 1001 12.1798 243.137 433.641
2278 1 147.576 13.0441 1925 11.9065 240.684 443.624
2279 0 116.167 6.1463 714 30.8305 245.73 342.644
2280 0 125.735 6.86362 863 29.1472 244.564 349.565
2281 1 111.384 49.5672 5521 17.3782 241.177 350.823
2282 1 185.528 35.143 6520 16.4836 241.409 364.456
2283 1 227.03 32.3658 7348 15.7677 241.168 379.163
2284 1 131.712 24.7129 3255 11.4175 242.135 463.263
2285 1 105.072 23.7552 2496 11.5308 242.025 453.692
2286 1 134.956 26.7496 3610 11.372 241.91 467.756
2287 1 49.4439 17.2114 851 12.1022 244.774 401.651
2288 1 160.812 21.1179 3396 11.6475 242.173 462.419
2289 1 149.919 18.3566 2752 11.7918 242.186 445.327
2290 1 182.741 15.0814 2756 11.7496 242.363 461.924
2291 1 153.488 18.6007 2855 11.6869 241.545 450.51
2292 1 132.527 15.0686 1997 12.1442 243.22 415.976
2293 0 119.771 14.9535 1791 12.1368 242.27 412.878
2294 0 104.917 13.8395 1452 12.082 244.57 422.085
2295 0 100.125 12.744 1276 12.0776 240.922 421.421
2296 0 98.4322 11.9981 1181 12.1202 242.166 415.057
2297 1 116.159 14.5749 1693 12.1158 244.565 414.898
2298 1 153.846 37.1216 5711 11.3929 242.212 437.001
2299 1 110.736 14.205 1573 12.0865 243.47 418.161
2300 0 104.19 11.4694 1195 12.2527 242.612 417.889
2301 1 132.441 11.5297 1527 12.0596 244.581 439.143
2302 0 148.71 13.2943 1977 11.694 244.126 459.932
2303 0 117.572 6.62572 779 30.5327 245.733 340.142
2304 1 93.8833 7.25369 681 12.1483 245.018 432.383
2305 1 143.238 21.8379 3128 11.4978 241.2 457.913
2306 1 149.653 37.1527 5560 11.2304 242.024 462.116
2307 1 143.632 29.1231 4183 11.3203 242.713 467.917
2308 1 108.581 19.193 2084 11.5537 242.486 451.648
2309 1 51.9522 12.165 632 12.0601 246.157 415.54
2310 1 164.52 21.2436 3495 11.4532 243.223 459.87
2311 1 4 2 8 13 261.25 391.625
2312 1 56.741 11.0502 627 12.0638 247.517 408.612
2313 1 112.494 10.8272 1218 12.0534 245.254 427.534
2314 0 112.857 22.6127 2552 11.5243 243.755 449.313
2315 1 59.5384 9.25453 551 12.0635 248.298 407.465
2316 1 12.3991 7.50057 93 11.5591 234.925 501.785
2317 1 0 0 0 -nan -nan -nan
2318 0 0 0 0 -nan -nan -nan
2319 1 91.3477 17.4936 1598 12.1001 243.411 418.746
2320 0 101.023 21.4506 2167 11.7282 239.601 433.718
2321 1 78.4637 15.4466 1212 12.0875 240.413 412.505
2322 1 17.4952 15.49 271 12.2362 233.808 389.771
2323 1 0 0 0 -nan -nan -nan
2324 1 158.423 25.7601 4081 11.4881 243.569 464.09
2325 1 41.0266 4.33865 178 12.5281 245.067 403.197
2326 1 94.1241 7.00139 659 12.2747 244.102 432.214
2327 0 79.889 15.2712 1220 12.05 244.543 426.734
2328 0 92.5265 10.2241 946 12.0581 243.993 433.252
2329 1 41.2388 10.0148 413 12.0581 244.908 412.748
2330 0 42.9047 9.64929 414 12.0556 243.123 411.505
2331 1 97.8053 17.4121 1703 11.6571 240.585 450.725
2332 1 94.3977 8.65487 817 12.0477 242.994 433.317
2333 0 67.7 11.935 808 12.0594 242.796 431.611
2334 0 0 0 0 -nan -nan -nan
2335 1 38.0916 5.30301 202 12.3366 242.035 410.089
2336 0 40.2897 4.24426 171 12.2924 240.602 408.444
2337 1 138.701 7.71445 1070 11.772 246.022 455.572
2338 1 159.25 22.7064 3616 11.4508 242.675 461.469
2339 1 240.831 12.7974 3082 29.0688 244.512 294.959
2340 0 235.202 12.045 2833 30.114 244.923 293.552
2341 1 93.3285 10.6506 994 34.1408 245.978 306.098
2342 0 107.525 8.53752 918 12.1275 245.1 424.056
2343 0 108.157 27.7836 3005 11.406 242.884 448.067
2344 1 72.8373 7.86685 573 12.0698 247.435 404.646
2345 0 42.6803 11.5744 494 12.0769 246.692 395.115
2346 1 133.674 14.9244 1995 11.7023 244.464 441.503
2347 1 0 0 0 -nan -nan -nan
2348 1 83.845 12.7855 1072 12.0541 244.712 424.948
2349 0 84.5692 7.26032 614 12.259 242.127 419.386
2350 1 37.4661 8.7012 326 12.4939 246.304 387.571
2351 0 16.9274 11.7561 199 12.6231 247.397 383.025
2352 1 10.7033 8.22176 88 11.4205 235.136 503.818
2353 1 13.6051 10.0697 137 11.146 222.401 485.241
2354 1 16.4202 8.2216 135 11.1333 247.733 533.807
2355 1 0 0 0 -nan -nan -nan
2356 1 102.491 9.32762 956 12.0397 245.166 427.724
2357 1 169.132 25.5717 4325 11.2946 242.502 466.432
2358 1 0 0 0 -nan -nan -nan
2359 1 99.9407 10.7864 1078 12.0408 244.705 427.388
2360 0 93.4449 17.0796 1596 11.8214 243.395 423.125
2361 1 67.0943 11.7298 787 12.1055 242.201 397.85
2362 0 41.0663 10.5439 433 35.388 245.79 331.247
2363 0 100.36 7.67235 770 12.0597 249.252 404.34
2364 1 170.8 36.3467 6208 11.2173 243.126 453.239
2365 1 0 0 0 -nan -nan -nan
2366 0 38.897 15.3996 599 12.0851 245.417 406.477
2367 1 13.6514 5.12767 70 12.1143 226.529 390.157
2368 1 0 0 0 -nan -nan -nan
2369 0 0 0 0 -nan -nan -nan
2370 0 51.7001 17.2727 893 12.1064 243.772 398.364
2371 1 0 0 0 -nan -nan -nan
2372 0 0 0 0 -nan -nan -nan
2373 0 0 0 0 -nan -nan -nan
2374 0 0 0 0 -nan -nan -nan
2375 1 211.661 6.12773 1297 29.185 248.884 361.596
2376 1 70.1625 11.2453 789 38.1141 246.12 318.915
2377 0 77.2611 10.3545 800 38.5462 245.802 316.195
2378 0 75.268 10.1105 761 39.0696 245.24 315.913
2379 0 81.181 10.3596 841 36.6005 245.162 317.124
2380 0 82.1467 10.883 894 37.9083 245.997 312.41
2381 0 85.1485 11.3214 964 38.2853 246.131 311.043
2382 0 91.2228 10.8526 990 39.3333 245.109 309.14
2383 1 170.011 4.47029 760 35.3513 245.042 345.52
2384 1 51.125 10.2103 522 40.1782 244.602 329.521
2385 0 50.2048 10.0986 507 39.5621 244.748 330.041
2386 0 50.084 10.0831 505 40.8574 245.251 329.178
2387 1 92.6395 10.1145 937 33.9221 245.894 338.04
2388 0 94.3867 10.1709 960 34.0208 244.056 337.449
2389 1 53.2414 10.9877 585 38.4239 245.441 327.197
2390 0 55.0486 11.0629 609 36.2282 245.041 326.992
2391 0 59.7239 10.1467 606 12.3086 242.365 407.119
2392 0 63.6678 14.8427 945 12.0582 242.421 417.843
2393 1 94.4786 15.0193 1419 11.8985 240.522 424.422
2394 1 66.7207 18.0604 1205 12.0988 241.217 406.161
2395 1 0 0 0 -nan -nan -nan
2396 1 147.909 14.1506 2093 11.8256 243.424 444.942
2397 0 109.872 23.2271 2552 11.7402 242.349 446.074
2398 1 44.7996 4.01789 180 12.9222 248.261 405.539
2399 1 0 0 0 -nan -nan -nan
2400 0 0 0 0 -nan -nan -nan
2401 0 63.7279 8.50491 542 12.2196 245.262 403.889
2402 0 0 0 0 -nan -nan -nan
2403 0 0 0 0 -nan -nan -nan
2404 0 45.839 17.1252 785 12.0764 243.098 407.143
2405 0 0 0 0 -nan -nan -nan
2406 1 1 32 32 11.5312 261.312 396.625
2407 0 0 0 0 -nan -nan -nan
2408 1 0 0 0 -nan -nan -nan
2409 0 0 0 0 -nan -nan -nan
2410 1 142.458 14.9448 2129 11.7558 244.537 448.607
2411 1 11.3457 10.8411 123 12.6016 245.602 388.732
2412 1 0 0 0 -nan -nan -nan
2413 0 0 0 0 -nan -nan -nan
2414 0 0 0 0 -nan -nan -nan
2415 1 175.179 9.57304 1677 11.7984 240.902 466.676
2416 1 33.5558 3.15892 106 12.9057 236.066 381.066
2417 1 0 0 0 -nan -nan -nan
2418 1 77.9585 8.67128 676 12.3609 244.297 415.109
2419 1 103.097 13.0557 1346 12.0594 243.049 418.86
2420 0 73.0579 10.4712 765 39.9307 245.567 316.765
2421 0 74.0745 10.7594 797 40.0326 245.779 314.905
2422 1 281.306 4.74216 1334 32.3816 247.711 355.403
2423 0 259.559 5.05087 1311 32.5774 245.297 342.388
2424 0 269.692 5.96977 1610 30.7019 246.252 350.112
2425 1 39.0459 10.1931 398 39.3844 245.749 333.714
2426 0 42.0521 10.2254 430 39.5954 245.251 331.877
2427 0 45.0275 10.7046 482 38.6473 245.328 332.079
2428 0 47.0371 10.3748 488 38.6516 245.252 329.182
2429 0 48.0283 10.3273 496 38.4496 245.135 328.742
2430 1 132.243 20.0918 2657 11.6251 243.333 450.487
2431 1 0 0 0 -nan -nan -nan
2432 1 148.898 20.3764 3034 11.5428 240.497 460.395
2433 1 120.672 8.25381 996 11.8655 241.371 445.98
2434 1 177.076 31.8789 5645 11.3182 239.549 455.897
2435 1 0 0 0 -nan -nan -nan
2436 0 0 0 0 -nan -nan -nan
2437 1 164.82 25.5673 4214 11.4877 242.988 460.085
2438 1 0 0 0 -nan -nan -nan
2439 0 40.5145 14.8589 602 12.0847 246.767 402.364
2440 1 0 0 0 -nan -nan -nan
2441 1 123.683 11.2384 1390 32.8223 245.042 328.019
2442 1 76.1221 11.5735 881 39.0488 244.927 314.411
2443 0 79.3844 10.2035 810 39.421 244.037 311.688
2444 1 152.484 8.68943 1325 34.9328 244.594 321.829
2445 0 185.169 11.8487 2194 11.6026 242.115 481.479
2446 1 24.4762 16.8327 412 12.4223 239.449 389.498
2447 0 0 0 0 -nan -nan -nan
2448 1 124.734 5.48368 684 33.9942 245.072 346.942
2449 0 195.969 12.0274 2357 37.5885 243.963 254.457
2450 0 204.71 12.5299 2565 37.5497 244.205 251.77
2451 0 223.972 8.1394 1823 33.5606 245.132 323.577
2452 1 165.403 11.5899 1917 33.5357 244.521 316.055
2453 1 107.521 27.4178 2948 27.9467 243.81 283.632
2454 0 106.363 26.4472 2813 28.4988 244.679 282.621
2455 0 112.166 9.79793 1099 33.7743 244.473 333.163
2456 1 144.726 6.92342 1002 35 243.522 335.537
2457 1 67.1946 23.4245 1574 29.5133 244.809 311.736
2458 1 183.11 29.3103 5367 11.4313 241.729 463.274
2459 1 55.2236 9.65168 533 12.3452 241.837 403.488
2460 1 0 0 0 -nan -nan -nan
2461 1 152.454 10.9017 1662 11.4386 243.669 488.348
2462 1 112.738 13.9439 1572 11.708 243.092 437.946
2463 1 0 0 0 -nan -nan -nan
2464 0 1 3 3 13 218.333 396.333
2465 1 54.2187 17.3187 939 12.1534 241.223 404.27
2466 1 14.9005 4.89915 73 13.0548 235.986 385.493
2467 1 0 0 0 -nan -nan -nan
2468 1 51.2849 3.70479 190 13.0368 238.789 391.216
2469 0 47.7344 10.2023 487 12.2669 241.524 404.105
2470 0 0 0 0 -nan -nan -nan
2471 0 42.3696 14.6331 620 12.2113 240.11 397.581
2472 0 0 0 0 -nan -nan -nan
2473 0 0 0 0 -nan -nan -nan
2474 1 18.4805 6.33098 117 13.0598 241.111 383.88
2475 0 15.1517 28.9076 438 12.2032 238.427 388.352
2476 1 0 0 0 -nan -nan -nan
2477 1 24.1494 8.77867 212 12.2783 227.542 392.981
2478 0 44.3948 5.20331 231 12.3117 232.814 384.719
2479 1 68.2842 12.6091 861 36.5842 244.046 321.95
2480 0 69.2669 12.1414 841 37.0071 243.206 318.56
2481 0 76.0652 11.7662 895 37.4615 243.364 316.051
2482 1 107.084 13.2045 1414 32.075 242.487 327.231
2483 1 80.0943 11.7986 945 36.437 243.241 315.75
2484 0 79.1461 11.523 912 37.1382 243.595 313.113
2485 0 87.3588 10.9892 960 37.5583 243.516 310.802
2486 0 85.2318 11.3807 970 37.9763 242.965 308.429
2487 0 109.229 8.33114 910 12.1758 240.234 422.658
2488 1 43.3014 10.323 447 38.2327 243.783 330.57
2489 0 50.6824 16.5146 837 12.1183 241.68 404.412
2490 1 86.8101 18.097 1571 11.9026 237.864 419.182
2491 1 0 0 0 -nan -nan -nan
2492 1 126.458 17.9111 2265 11.6494 239.987 439.237
2493 1 37.476 22.8146 855 12.0877 238.09 396.528
2494 1 413.616 8.96 3706 32.3346 242.184 285.284
2495 1 219.5 10.2688 2254 38.398 242.598 242.762
2496 1 374.453 11.4647 4293 30.4174 241.826 286.223
2497 0 375.563 12.0033 4508 28.8711 242.444 294.309
2498 1 214.55 12.6404 2712 35.4425 243.656 247.053
2499 0 267.149 21.8642 5841 26.165 243.271 285.944
2500 0 299.06 16.9899 5081 28.469 242.216 279.104
2501 0 334.299 7.99584 2673 30.9121 243.588 313.308
2502 0 297.632 5.43961 1619 32.4132 242.645 330.652
2503 0 306.497 8.74723 2681 30.928 243.198 293.506
2504 1 172.542 12.2289 2110 34.518 242.79 274.501
2505 0 187.579 13.6529 2561 28.4752 242.97 310.255
2506 0 177.38 12.1716 2159 35.1718 243.003 263.368
2507 0 343.562 11.4012 3917 28.6119 242.638 305.772
2508 1 111.637 6.19865 692 29.2356 243.759 346.828
2509 1 156.955 4.17318 655 30.6382 243.811 348.739
2510 1 238.839 31.8123 7598 14.7777 240.129 394.297
2511 1 138.836 20.6359 2865 11.5923 241.451 439.403
2512 1 63.3819 14.1365 896 12.0815 240.829 398.904
2513 0 0 0 0 -nan -nan -nan
2514 0 46.1071 15.9411 735 12.1252 236.683 394.513
2515 0 0 0 0 -nan -nan -nan
2516 1 104 9.26922 964 12.2376 241.579 414.712
2517 1 0 0 0 -nan -nan -nan
2518 1 174.214 15.7795 2749 11.4925 240.726 470.34
2519 0 158.956 19.2883 3066 11.456 239.268 470.856
2520 1 115.243 10.7338 1237 30.1738 242.818 330.995
2521 1 65.132 11.0545 720 34.9333 243.41 314.869
2522 1 256.935 4.97791 1279 27.4324 243.057 375.31
2523 1 245.854 6.17846 1519 29.1475 242.687 342.89
2524 0 250.67 5.87227 1472 29.2792 240.59 342.592
2525 1 189.843 8.06984 1532 28.3257 243.613 332.397
2526 1 89.3211 10.5126 939 33.2801 243.111 308.889
2527 1 257.379 5.65314 1455 28.789 242.831 340.115
2528 0 273.049 10.456 2855 28.2154 242.635 312.111
2529 1 191.708 15.6958 3009 27.9482 243.166 306.62
2530 1 47.1648 10.1559 479 34.3382 243.111 329.42
2531 0 46.058 9.20578 424 35.1439 243.017 328.071
2532 0 49.0639 10.6596 523 34.9522 243.367 328.027
2533 1 154.006 20.4992 3157 11.4054 241.516 472.542
2534 1 14.1857 17.13 243 12.0782 236.638 390.765
2535 1 75.9629 14.1385 1074 12.1369 241.588 401.323
2536 1 0 0 0 -nan -nan -nan
2537 1 164.694 20.9175 3445 11.5149 240.151 460.336
2538 1 0 0 0 -nan -nan -nan
2539 0 0 0 0 -nan -nan -nan
2540 1 128.344 17.4687 2242 11.5241 241.958 438.196
2541 1 31.0979 9.45401 294 12.1667 244.19 385.724
2542 1 51.1768 14.4011 737 12.0461 239.263 406.624
2543 0 49.196 27.4006 1348 11.0675 237.774 514.421
2544 0 0 0 0 -nan -nan -nan
2545 0 48.7173 12.747 621 12.0354 243.82 404.243
2546 1 95.7922 9.99038 957 12.0397 241.004 417.227
2547 1 128.01 40.2938 5158 11.2305 239.53 434.058
2548 1 69.9421 16.8425 1178 11.8676 236.159 407.886
2549 1 59.3928 13.335 792 12.1338 243.694 392.054
2550 1 75.7096 14.0405 1063 11.7479 241.223 413.813
2551 1 17.1579 23.1963 398 12.0678 240.324 392.935
2552 1 67.1441 21.2677 1428 11.7052 240.115 417.453
2553 1 41.9266 16.6004 696 12.0129 240.789 394.218
2554 1 166.041 38.7133 6428 11.2436 239.834 448.314
2555 1 116.754 14.7747 1725 11.7333 240.705 429.25
2556 1 0 0 0 -nan -nan -nan
2557 0 30.1432 16.7865 506 12.0791 239.255 397.322
2558 0 35.947 13.0748 470 12.0191 241.983 404.181
2559 1 125.726 21.7139 2730 11.3802 241.851 451.323
2560 1 0 0 0 -nan -nan -nan
2561 1 163.598 23.46 3838 11.3088 240.45 468.673
2562 1 0 0 0 -nan -nan -nan
2563 0 41.8448 11.6383 487 12.1807 244.478 393.002
2564 1 0 0 1 13 268 382
2565 0 43.7496 8.80008 385 12.0519 247.244 395.777
2566 1 112.06 17.4638 1957 11.4962 241.882 438.178
2567 1 13.8001 11.6665 161 13.1491 241.348 375.77
2568 1 45.0196 9.5736 431 31.703 243.643 325.114
2569 0 47.0495 10.032 472 31.8072 243.818 326.64
2570 0 104.891 7.56976 794 12.0479 243.374 409.292
2571 1 1 18 18 11.2222 216.944 393.722
2572 1 0 0 0 -nan -nan -nan
2573 1 146.863 26.494 3891 11.311 241.953 456.757
2574 0 149.038 18.1967 2712 11.4528 241.576 455.031
2575 1 120.272 11.5654 1391 12.0532 237.359 408.775
2576 1 19.5395 16.07 314 12.2293 234.621 381.236
2577 1 0 0 0 -nan -nan -nan
2578 0 0 0 0 -nan -nan -nan
2579 1 83.849 7.93092 665 12.1489 243.478 401.902
2580 1 6 16.8333 101 11.2574 219.337 389.693
2581 1 0 0 0 -nan -nan -nan
2582 0 0 0 0 -nan -nan -nan
2583 1 22.6361 16.9199 383 12.2768 237.953 381.178
2584 1 0 0 0 -nan -nan -nan
2585 1 139.633 20.3964 2848 11.5846 241.497 449.657
2586 1 11.5833 10.4461 121 12.3884 243.496 384.736
2587 1 285.685 6.03461 1724 28.0331 242.104 358.505
2588 1 90.2668 11.8316 1068 35.573 243.613 305.948
2589 0 94.2252 11.0798 1044 36.3103 243.221 303.895
2590 1 46.1262 10.5146 485 38.435 243.412 325.167
2591 0 49.0674 11.2498 552 36.8931 243.399 324.598
2592 0 77.218 16.2915 1258 12.132 241.551 401.552
2593 1 2 16.5 33 11.0606 218.848 401.152
2594 0 0 0 0 -nan -nan -nan
2595 1 8.02498 3.86294 31 13.0645 226.774 380.806
2596 1 0 0 0 -nan -nan -nan
2597 1 18.5985 11.4526 213 12.338 243.155 383.718
2598 1 0 0 0 -nan -nan -nan
2599 0 0 0 0 -nan -nan -nan
2600 1 47.3836 12.7048 602 12.4286 241.261 393.013
2601 0 0 0 0 -nan -nan -nan
2602 1 83.9648 8.34873 701 12.2368 242.421 404.431
2603 1 75.1448 11.0587 831 37.864 243.626 308.167
2604 0 82.221 11.0069 905 37.6398 243.46 306.813
2605 0 86.054 11.2952 972 37.7346 243.167 304.988
2606 0 86.2433 11.4328 986 38.0497 243.218 304.66
2607 1 211.058 17.706 3737 29.8761 242.735 292.305
2608 1 251.032 9.23788 2319 34.7702 243.06 292.124
2609 1 150.47 8.89216 1338 39.7451 243.326 272.965
2610 0 151.608 9.53773 1446 38.2095 243.475 274.741
2611 0 160.532 22.2199 3567 11.3757 242.515 474.885
2612 1 0 0 0 -nan -nan -nan
2613 0 0 0 0 -nan -nan -nan
2614 1 188.056 9.68858 1822 11.5812 243.668 483.822
2615 1 0 0 0 -nan -nan -nan
2616 0 0 0 0 -nan -nan -nan
2617 1 157.591 25.471 4014 11.3535 241.796 470.197
2618 1 0 0 0 -nan -nan -nan
2619 1 0 0 0 -nan -nan -nan
2620 1 0 0 0 -nan -nan -nan
2621 1 90.2151 35.0718 3164 11.2993 241.25 427.167
2622 1 32.32 13.1807 426 12.2934 236.979 392.406
2623 0 0 0 0 -nan -nan -nan
2624 1 11.0147 8.17087 90 13.1778 237.489 380.278
2625 0 11.1682 10.3866 116 13.1466 236.043 380.836
2626 0 18.4137 8.63486 159 13.0629 236.566 381.918
2627 0 17.3674 6.16097 107 13.0654 230.692 381.383
2628 1 43.0855 10.5604 455 43.7209 244.314 328.991
2629 0 48.2368 10.8216 522 43.1609 243.939 327.519
2630 0 45.1392 11.4535 517 43.7505 244.091 327.704
2631 0 47.0947 11.2752 531 43.0433 243.789 325.326
2632 0 49.1183 11.8897 584 41.2825 243.592 326.296
2633 0 49.2785 11.5466 569 40.6766 243.325 323.791
2634 1 63.0056 12.729 802 12.0985 242.955 403.685
2635 1 18.0985 15.5262 281 12.1886 247.107 392.822
2636 0 34.2391 3.79683 130 13.0462 245 387.969
2637 0 14.3287 18.4944 265 8.87547 228.174 525.374
2638 1 154.913 25.1754 3900 11.3182 239.583 458.025
2639 1 0 0 0 -nan -nan -nan
2640 1 139.985 10.0797 1411 11.5748 241.148 473.174
2641 1 0 0 0 -nan -nan -nan
2642 1 21.4847 3.30468 71 12.6056 247.239 393.535
2643 0 329.637 25.7344 8483 24.8493 241.635 275.584
2644 1 239.294 11.4378 2737 35.9247 241.81 233.451
2645 1 318.591 17.8693 5693 28.2457 241.44 273.558
2646 1 375.96 12.9934 4885 29.9191 242.068 269.967
2647 1 241.769 11.0064 2661 36.3273 241.437 238.629
2648 1 327.736 17.4653 5724 26.6324 240.754 294.374
2649 1 97.5058 11.025 1075 37.1395 241.963 305.552
2650 0 110.927 8.03234 891 31.0494 242.461 345.446
2651 1 48.3116 11.8398 572 37.5717 242.657 333.187
2652 0 68.8356 12.3483 850 12.2129 242.04 403.959
2653 0 50.3918 12.3234 621 38.868 242.527 329.296
2654 0 50.1305 11.8291 593 39.7538 242.046 327.868
2655 0 52.1355 11.5085 600 40.48 242.347 328.673
2656 1 187.455 4.58776 860 36.7128 242.057 340.042
2657 1 57.2532 11.9993 687 38.8996 242.703 329.048
2658 0 57.2776 11.4705 657 39.2816 242.635 325.682
2659 0 87.9241 14.649 1288 11.8587 240.356 428.644
2660 1 138.463 18.5753 2572 11.7904 237.642 447.76
2661 1 19.0785 10.9023 208 12.4279 237.678 393.202
2662 1 138.771 9.59854 1332 31.223 243.084 339.926
2663 1 74.165 12.6205 936 36.3718 242.699 327.237
2664 0 104.847 12.9713 1360 11.8537 241.501 437.332
2665 1 14.8156 6.20966 92 11.5435 227.826 503.152
2666 1 0 0 0 -nan -nan -nan
2667 1 78.1938 13.8246 1081 12.1138 239.485 424.069
2668 1 0 0 0 -nan -nan -nan
2669 0 0 0 0 -nan -nan -nan
2670 0 0 0 0 -nan -nan -nan
2671 0 0 0 0 -nan -nan -nan
2672 1 0 0 5 13 245 406
2673 1 0 0 0 -nan -nan -nan
2674 0 0 0 0 -nan -nan -nan
2675 1 10.0462 3.38438 34 13 240.735 412.412
2676 1 0 0 0 -nan -nan -nan
2677 1 10.1436 5.91504 60 12.8667 237.983 405.367
2678 1 0 0 0 -nan -nan -nan
2679 1 10.5514 6.44462 68 13.0147 237.324 403.088
2680 1 0 0 0 -nan -nan -nan
2681 0 0 0 0 -nan -nan -nan
2682 1 44.8641 11.2339 504 12.1687 244.272 416.504
2683 1 0 0 0 -nan -nan -nan
2684 1 48.5312 15.6806 761 12.1682 248.167 410.26
2685 1 76.3043 12.3715 944 39.8485 243.226 336.528
2686 0 76.6705 10.1864 781 40.8707 243.702 332.063
2687 0 79.1427 11.3466 898 40.8764 243.638 333.725
2688 0 84.4278 11.0745 935 39.2652 243.159 332.044
2689 0 88.4685 11.2017 991 39.5974 243.175 329.303
2690 0 88.3004 11.4269 1009 39.892 243.238 330.123
2691 0 90.1305 9.5972 865 42.0046 244.022 323.809
2692 1 154.817 10.5415 1632 35.617 244.686 340.317
2693 1 292.753 9.14424 2677 34.5233 243.842 326.232
2694 1 142.202 10.9633 1559 41.6517 244.176 295.577
2695 0 143.309 16.1958 2321 31.9341 244.202 337.086
2696 1 56.1071 10.9968 617 40.8201 243.849 344.152
2697 0 59.201 10.8275 641 40.9002 244.025 346.418
2698 1 97.1738 10.3423 1005 36.0388 243.96 353.521
2699 0 114.42 7.28894 834 12.3309 238.351 440.289
2700 1 40.8921 10.0019 409 12.5477 239.866 420.482
2701 1 7.04978 18.4403 130 12.0923 259.215 404.808
2702 1 0 0 0 -nan -nan -nan
2703 0 0 0 0 -nan -nan -nan
2704 1 15.0893 10.2059 154 13.0584 239.844 402.591
2705 1 0 0 0 -nan -nan -nan
2706 0 0 0 0 -nan -nan -nan
2707 0 0 0 0 -nan -nan -nan
2708 0 47.4376 15.4519 733 12.2196 242.291 427.076
2709 1 291.737 20.1003 5864 32.756 244.505 288.728
2710 0 294.225 18.7101 5505 34.1411 244.239 285.314
2711 0 284.782 12.4727 3552 43.4141 244.469 217.505
2712 0 288.25 11.0217 3177 40.8691 243.54 223.22
2713 0 301.279 11.1425 3357 41.6348 242.352 223.843
2714 1 171.38 14.5233 2489 31.7039 244.223 331.748
2715 1 191.743 12.329 2364 32.2305 245.28 334.195
2716 1 226.372 8.84827 2003 34.2836 244.276 328.635
2717 1 287.146 6.54022 1878 34.4281 245.062 330.899
2718 1 115.366 10.8351 1250 39.1552 245.392 308.996
2719 0 118.256 11.4498 1354 38.5643 244.654 310.752
2720 0 369.846 17.1639 6348 30.1336 243.916 276.242
2721 1 401.748 13.0853 5257 30.4948 243.949 282.967
2722 1 313.165 20.7175 6488 28.3687 243.779 292.88
2723 1 63.1464 11.8296 747 38.2718 245.012 335.936
2724 0 66.1465 11.2175 742 39.0957 245.457 335.828
2725 0 71.1548 10.6809 760 39.5368 245.411 333.979
2726 0 71.296 11.2489 802 40.202 244.996 331.004
2727 0 76.1227 11.4815 874 40.7494 243.998 329.951
2728 1 241.119 13.4166 3235 35.5985 243.687 307.552
2729 1 169.358 10.6048 1796 43.8864 243.853 283.46
2730 1 78.3129 10.3431 810 46.2938 244.449 237.579
2731 1 167.719 10.1897 1709 43.2106 244.159 282.672
2732 1 362.835 8.51075 3088 33.7244 244.466 334.245
2733 1 169.517 10.9842 1862 41.7331 243.317 284.397
2734 1 214.532 16.9345 3633 32.5981 243.362 312.752
2735 0 216.784 10.4712 2270 42.4731 244.3 261.374
2736 1 284.091 14.8614 4222 33.6288 243.51 290.353
2737 1 59.2242 10.6207 629 39.3037 243.73 339.676
2738 0 245.363 11.5992 2846 39.9202 243.746 241.472
2739 0 247.179 17.7159 4379 30.9274 243.308 302.318
2740 1 194.446 10.8925 2118 39.9688 244.025 267.374
2741 1 372.186 9.38508 3493 33.4071 243.232 308.778
2742 1 296.887 12.621 3747 32.9514 243.316 296.236
2743 0 314.361 15.5935 4902 30.807 243.86 296.148
2744 1 93.5616 16.759 1568 11.7245 238.749 450.48
2745 0 71.1129 12.8387 913 36.3702 244.595 333.873
2746 1 10.0183 28.6476 287 12.2021 240.317 404.815
2747 1 32.4849 26.166 850 12.1118 241.973 414.266
2748 1 58.1685 7.10006 413 12.2567 243.368 435.148
2749 1 170.129 18.7623 3192 11.5179 242.39 477.76
2750 1 0 0 0 -nan -nan -nan
2751 0 30.0214 21.951 659 12.2929 243.422 412.633
2752 0 0 0 0 -nan -nan -nan
2753 1 263.747 5.73655 1513 35.6576 244.588 345.722
2754 1 92.2471 11.6643 1076 40.1989 244.064 318.202
2755 0 118.694 14.4321 1713 11.6602 240.392 465.209
2756 1 0 0 0 -nan -nan -nan
2757 0 0 0 0 -nan -nan -nan
2758 0 0 0 0 -nan -nan -nan
2759 1 9.38835 20.8769 196 12.0969 234.816 410.857
2760 1 0 0 0 -nan -nan -nan
2761 1 7.02187 5.98131 42 13.0238 243.452 410.286
2762 0 11.6414 4.98221 58 13 238.379 404.759
2763 1 0 0 0 -nan -nan -nan
2764 0 0 0 0 -nan -nan -nan
2765 0 0 0 0 -nan -nan -nan
2766 1 139.029 9.13479 1270 11.9118 238.326 464.661
2767 0 121.041 11.8803 1438 33.0473 243.296 345.472
2768 1 75.0652 11.4301 858 40.0653 244.387 331.741
2769 0 79.1338 12.5105 990 39.8182 244.334 331.533
2770 0 80.1891 12.0839 969 40.7028 244.019 327.783
2771 0 83.0718 10.9905 913 41.3231 244.268 325.926
2772 1 159.897 12.1641 1945 11.5316 240.259 487.274
2773 1 54.2922 9.02523 490 12.198 243.798 415.253
2774 1 171.767 14.7001 2525 11.5715 241.005 479.731
2775 1 0 0 0 -nan -nan -nan
2776 0 247.731 24.1754 5989 27.2284 242.928 304.204
2777 0 258.842 23.6515 6122 27.3481 242.746 303.368
2778 0 208.467 12.2609 2556 37.079 243.706 258.183
2779 1 179.405 14.314 2568 29.6694 243.192 327.382
2780 0 186.07 16.6497 3098 26.7902 244.42 335.375
2781 1 159.702 19.8432 3169 26.8403 243.564 333.878
2782 1 306.279 8.06453 2470 28.3769 243.51 356.619
2783 1 260.637 9.49597 2475 29.4048 242.705 338.279
2784 0 291.49 25.9048 7551 27.0689 243.696 276.484
2785 0 314.502 13.5484 4261 28.7137 243.934 300.661
2786 0 303.489 15.9314 4835 28.2174 244.798 300.13
2787 0 283.852 9.92418 2817 29.2513 243.82 330.31
2788 1 304.548 16.8217 5123 27.9448 244.168 298.564
2789 0 416.458 14.8034 6165 26.8342 243.038 300.799
2790 1 234.292 11.7844 2761 36.3405 244.07 251.318
2791 1 275.27 20.5071 5645 28.3387 243.35 291.338
2792 0 286.108 16.312 4667 27.4442 242.782 311.651
2793 0 433.466 16.4373 7125 26.9997 243.35 280.274
2794 1 101.183 10.733 1086 36.395 243.91 318.14
2795 0 104.146 10.879 1133 36.8967 244.554 314.255
2796 0 125.536 18.664 2343 11.6573 241.641 455.503
2797 1 26.7745 23.3431 625 12.0912 241.174 414.194
2798 1 0 0 0 -nan -nan -nan
2799 0 56.0947 12.3898 695 12.1194 243.013 420.273
2800 0 35.2436 18.3295 646 12.0789 242.481 414.701
2801 0 28.481 10.744 306 12.2157 236.899 412.026
2802 0 36.7023 14.5767 535 12.1832 238.198 414.028
2803 1 75.3305 9.47823 714 12.1597 243.571 428.688
2804 0 45.3092 15.7143 712 12.1348 240.253 420.569
2805 1 122.515 11.0272 1351 11.9297 239.83 455.628
2806 1 0 0 0 -nan -nan -nan
2807 1 32.0194 10.3999 333 12.4685 235.76 408.739
2808 0 37.9492 19.368 735 12.102 241.367 411.204
2809 0 0 0 0 -nan -nan -nan
2810 0 41.2624 13.4748 556 12.2536 238.225 413.39
2811 1 187.344 10.2058 1912 39.3839 243.11 275.744
2812 0 189.319 10.1627 1924 38.0483 242.907 277.84
2813 0 188.407 11.2098 2112 38.3987 242.935 274.768
2814 0 188.534 10.9264 2060 37.0257 242.889 275.04
2815 1 364.687 9.73437 3550 30.2349 242.612 320.476
2816 1 284.603 13.1095 3731 30.6591 243.412 306.76
2817 1 367.131 8.75709 3215 31.6952 241.807 313.196
2818 1 188.332 10.5134 1980 38.201 242.788 278.546
2819 1 100 12.24 1224 11.8431 242.679 447.895
2820 0 64.0527 11.6779 748 38.7139 243.91 339.079
2821 0 68.1334 11.7563 801 38.2522 243.63 337.211
2822 0 70.1711 11.928 837 37.7479 243.125 334.81
2823 0 76.1775 10.9612 835 37.6886 243.035 333.335
2824 1 225.713 5.80826 1311 30.6003 244.434 361.266
2825 1 79.3233 11.5603 917 35.4918 242.617 330.782
2826 0 83.2269 10.8499 903 36.3987 242.156 328.46
2827 0 83.1387 11.4507 952 37.7458 243.182 328.491
2828 0 87.2004 11.8463 1033 37.031 243.293 326.679
2829 1 233.366 5.70349 1331 33.5913 242.969 350.023
2830 1 90.3134 11.1279 1005 35.9124 242.811 324.597
2831 1 242.425 14.9077 3614 30.4101 242.877 309.115
2832 1 176.426 11.4042 2012 38.083 242.99 283.909
2833 1 331.839 8.03702 2667 34.4541 242.748 302.584
2834 1 255.54 13.0665 3339 31.4594 243.167 311.493
2835 1 226.853 16.5922 3764 29.8733 242.873 314.405
2836 1 309.036 9.34197 2887 32.2709 242.807 309.997
2837 1 296.922 17.0146 5052 29.1789 242.19 297.19
2838 0 285.918 8.88367 2540 29.0532 243.155 347.896
2839 1 137.409 10.8144 1486 36.0976 243.231 305.648
2840 1 198.909 14.7152 2927 28.2238 242.88 324.911
2841 0 176.357 6.67963 1178 29.9924 243.989 353.934
2842 1 120.473 9.59548 1156 11.6306 240.345 474.471
2843 1 141.232 17.6589 2494 11.6211 239.96 462.914
2844 1 246.807 4.84995 1197 31.919 243.576 350.236
2845 1 80.2998 10.5106 844 35.7962 242.854 326.578
2846 0 95.0628 20.9861 1995 11.8015 241.134 445.852
2847 1 264.712 20.1879 5344 27.5266 242.803 295.366
2848 0 260.167 19.2415 5006 26.7617 242.418 309.311
2849 1 48.1294 10.2017 491 34.0998 243.346 347.804
2850 0 51.227 10.9317 560 33.6036 243.627 346.111
2851 1 229.491 3.94352 905 25.1182 238.525 416.61
2852 1 169.355 4.94229 837 28.5854 239.809 372.164
2853 0 154.845 5.94141 920 29.3446 241.826 364.489
2854 0 158.762 5.37282 853 29.9144 242.344 355.401
2855 1 132.008 45.202 5967 17.0845 237.835 364.679
2856 0 132.228 9.37017 1239 28.0282 239.873 357.852
2857 1 58.1485 10.8859 633 35.4423 243.573 340.376
2858 0 60.1957 11.3463 683 35.7394 243.182 336.874
2859 1 114.52 46.8478 5365 19.0923 241.36 347.13
2860 1 73.4014 25.054 1839 26.6683 243.676 326.153
2861 0 73.9594 13.1829 975 12.0636 242.587 429.018
2862 0 59.1528 16.1108 953 12.1459 240.961 422.132
2863 1 0 0 0 -nan -nan -nan
2864 1 115.774 11.9802 1387 12.0872 242.527 433.222
2865 1 0 0 0 -nan -nan -nan
2866 0 0 0 0 -nan -nan -nan
2867 1 77.705 16.7299 1300 12.0715 241.502 426.094
2868 1 151.341 39.3944 5962 10.6115 240.677 462.363
2869 1 0 0 0 -nan -nan -nan
2870 0 0 0 0 -nan -nan -nan
2871 0 53.7253 14.5555 782 11.9706 243.114 431.646
2872 1 63.7474 15.7653 1005 12.0975 242.5 428.841
2873 0 46.9506 18.1893 854 12.1276 241.201 426.382
2874 1 27.6884 20.4057 565 12.1292 240.685 419.096
2875 0 0 0 0 -nan -nan -nan
2876 0 27.0826 22.9299 621 12.211 243.23 413.101
2877 0 0 0 0 -nan -nan -nan
2878 1 148.507 10.6056 1575 11.6502 238.502 480.507
2879 1 92.5476 10.2434 948 12.0295 237.257 447.063
2880 1 0 0 0 -nan -nan -nan
2881 0 0 0 0 -nan -nan -nan
2882 1 39.2099 13.619 534 12.1854 238.53 418.833
2883 0 19.585 15.1136 296 12.1047 246.669 419.524
2884 1 0 0 0 -nan -nan -nan
2885 0 45.0603 17.5321 790 12.1127 240.177 424.657
2886 1 193.967 8.56846 1662 31.6582 244.656 350.732
2887 1 259.137 5.8579 1518 32.9934 241.959 358.611
2888 1 83.2194 12.9056 1074 39.5708 243.364 329.483
2889 0 86.2139 12.5502 1082 37.586 243.776 328.756
2890 0 94.3171 12.9351 1220 36.818 243.852 327.43
2891 0 92.242 12.2504 1130 38.7044 243.921 323.842
2892 0 96.2318 11.5347 1110 37.9261 244.186 319.932
2893 0 101.148 12.6646 1281 38.2709 244.298 322.109
2894 1 166.701 53.0771 8848 19.2193 242.522 341.442
2895 1 102.312 26.5168 2713 28.8316 243.767 304.38
2896 0 101.297 29.3593 2974 26.8867 243.915 304.257
2897 0 107.789 4.38819 473 12.2389 241.442 464.254
2898 1 153.157 14.6516 2244 11.5085 241.205 492.508
2899 0 165.834 7.13968 1184 29.8117 246.061 366.694
2900 1 119.215 10.8628 1295 31.2039 244.054 355.985
2901 1 0 0 0 -nan -nan -nan
2902 1 20.1587 29.8631 602 12.1063 241.282 419.118
2903 1 16.0198 15.6057 250 12.16 240.648 415.468
2904 1 147.459 12.7493 1880 38.7707 244.529 297.543
2905 0 150.342 11.9794 1801 36.538 243.95 294.684
2906 0 162.571 12.6099 2050 37.562 242.967 292.04
2907 0 166.585 12.0599 2009 38.3146 244.336 288.216
2908 0 174.886 8.11959 1420 34.0366 243.944 346.22
2909 0 211.384 39.5821 8367 18.6413 240.768 359.796
2910 1 152.172 10.1201 1540 33.8 244.034 345.369
2911 1 187.579 13.0718 2452 37.6085 245.227 275.713
2912 1 292.283 17.531 5124 28.8058 243.997 302.663
2913 1 241.554 6.97154 1684 32.3919 243.293 343.328
2914 1 147.871 14.5464 2151 31.2762 243.855 336.596
2915 1 104.299 11.5916 1209 37.7684 244.032 317.938
2916 0 110.377 11.4698 1266 38.1193 244.188 315.507
2917 1 99.8188 10.7194 1070 32.5187 245.05 355.571
2918 1 118.845 9.45771 1124 30.3621 243.678 356.525
2919 1 58.09 10.8969 633 37.3049 244.284 343.39
2920 0 63.0777 10.4633 660 37.7955 244.42 342.976
2921 0 62.1305 11.1539 693 37.3131 244.644 343.429
2922 0 68.3404 10.3306 706 38.9802 243.84 336.361
2923 0 66.1356 11.5067 761 38.661 244.353 339.138
2924 0 69.4253 11.1199 772 39.2189 243.907 336.49
2925 0 70.1263 10.4953 736 40.5842 244.25 334.808
2926 0 73.3282 10.5417 773 41.0737 244.397 334.096
2927 0 79.2048 10.7695 853 40.0152 243.98 335.185
2928 0 94.3308 6.83764 645 12.4899 241.119 443.031
2929 1 0 0 0 -nan -nan -nan
2930 0 0 0 0 -nan -nan -nan
2931 0 0 0 0 -nan -nan -nan
2932 0 37.6324 16.7143 629 12.3164 239.254 422.496
2933 0 0 0 0 -nan -nan -nan
2934 1 91.134 9.56833 872 12.4771 240.758 433.189
2935 0 75.7539 33.8596 2565 8.20663 241.507 504.421
2936 1 0 0 0 -nan -nan -nan
2937 1 0 0 0 -nan -nan -nan
2938 1 0 0 0 -nan -nan -nan
2939 1 3 4.33333 13 12.2308 266.231 416.538
2940 1 21.756 28.8196 627 12.1228 241.963 422.702
2941 1 137.422 13.3458 1834 11.7137 239.457 478.285
2942 1 0 0 0 -nan -nan -nan
2943 0 0 0 0 -nan -nan -nan
2944 1 20.4161 6.12261 125 12.64 229.304 410.72
2945 1 62.1436 8.52863 530 12.3094 240.828 421.058
2946 0 36.0395 10.5995 382 40.0864 244.615 352.003
2947 0 40.1703 10.7791 433 41.037 245.12 349.73
2948 0 43.195 10.6957 462 41.1255 245.264 350.13
2949 0 87.7245 13.0636 1146 11.8778 246.867 441.949
2950 1 12.3544 17.1599 212 12.7217 240.325 408.632
2951 1 0 0 0 -nan -nan -nan
2952 0 0 0 0 -nan -nan -nan
2953 1 14.1506 9.82288 139 13.0288 240.324 407.115
2954 1 30.7505 15.5445 478 12.2992 238.6 417.142
2955 1 198.87 19.1532 3809 30.4568 244.093 321.188
2956 1 161.287 11.7492 1895 39.7467 244.158 291.806
2957 1 250.547 12.4687 3124 33.7686 244.455 315.332
2958 1 125.286 10.9669 1374 39.3399 243.798 307.509
2959 0 165.788 12.902 2139 11.633 242.65 483.113
2960 1 0 0 0 -nan -nan -nan
2961 1 150.956 7.95594 1201 11.94 244.827 469.989
2962 1 0 0 0 -nan -nan -nan
2963 0 0 0 0 -nan -nan -nan
2964 1 18.3315 21.493 394 12.297 238.137 415.612
2965 0 18.798 8.03277 151 12.4768 229.702 410.43
2966 1 0 0 0 -nan -nan -nan
2967 1 251.315 9.85616 2477 34.895 243.63 317.57
2968 1 144.573 10.4307 1508 39.4814 244.163 302.034
2969 1 201.467 15.1191 3046 32.5489 243.803 325.085
2970 1 141.241 10.3653 1464 42.6045 243.743 298.977
2971 0 145.313 9.74448 1416 44.3912 244.541 295.941
2972 0 152.333 10.6084 1616 43.4548 244.131 293.663
2973 1 229.736 3.90449 897 35.3813 243.028 385.195
2974 1 99.8235 11.35 1133 33.9435 244.054 353.663
2975 1 139.117 7.83511 1090 32.6202 244.195 360.25
2976 0 144.183 15.5566 2243 11.7303 240.398 476.037
2977 1 0 0 0 -nan -nan -nan
2978 1 295.553 18.396 5437 30.037 244.383 300.866
2979 1 222.889 11.6336 2593 39.2997 244.424 259.831
2980 1 275.602 8.46511 2333 34.9074 244.534 322.282
2981 1 140.232 10.939 1534 40.1108 245.112 302.922
2982 0 137.431 10.4052 1430 42.6462 244.756 298.238
2983 0 267.799 25.2764 6769 28.1398 244.033 297.374
2984 1 219.611 11.1106 2440 41.1398 244.324 258.956
2985 1 277.439 17.7084 4913 32.2933 243.516 297.087
2986 1 37.0798 10.5448 391 42.688 245.194 348.591
2987 0 42.084 10.4078 438 39.5799 245.11 350.258
2988 0 41.0944 11.6804 480 39.9042 245.046 346.338
2989 0 44.1754 9.73392 430 39.7581 244.874 344.119
2990 0 47.1588 11.069 522 38.023 245.797 346.044
2991 0 49.2288 10.7661 530 37.7811 245.4 344.974
2992 1 0 0 2.00979e-268 -nan 0 2.31526e-303
2993 1 87.9308 12.1004 1064 12.0404 241.352 431.88
2994 0 51.2635 11.3531 582 38.0103 245.191 340.948
2995 1 111.672 10.3517 1156 31.2863 244.472 352.865
2996 1 60.2332 11.2894 680 38.9559 245.169 340.844
2997 0 61.1789 11.0169 674 40.0059 244.809 338.815
2998 0 64.1985 11.5267 740 39.8635 245.116 339.081
2999 0 63.2623 12.2506 775 36.9897 245.117 336.378
3000 1 148.716 47.251 7027 18.2321 243.548 358.553
3001 1 123.353 10.4578 1290 31.5574 244.625 347.35
3002 1 108.123 14.4281 1560 29.5064 244.86 350.845
3003 1 9 2.11111 19 12.7368 259.263 409.947
3004 1 0 0 0 -nan -nan -nan
3005 1 43.9747 5.86701 258 12.1822 236.705 417.19
3006 1 119.659 15.0845 1805 11.8615 241.747 446.13
3007 1 68.525 9.95257 682 12.1848 247.735 415.713
3008 0 255.581 12.5009 3195 35.9183 244.984 236.947
3009 1 446.588 11.5677 5166 29.2913 245.328 291.226
3010 1 331.984 18.0521 5993 28.2702 244.951 284.682
3011 1 254.756 10.2451 2610 36.8916 245.031 244.738
3012 1 319.545 18.9269 6048 28.522 244.526 288.339
3013 1 384.281 20.9664 8057 25.741 243.577 294.2
3014 0 223.853 13.2096 2957 35.3517 244.561 253.057
3015 1 229.416 18.3509 4210 29.0689 244.279 314.324
3016 1 173.35 11.3239 1963 38.9725 244.443 278.476
3017 0 174.488 11.1584 1947 39.6913 244.69 278.648
3018 0 166.603 6.18234 1030 36.1019 246.138 352.55
3019 1 0 0 0 -nan -nan -nan
3020 1 21.2965 25.4502 542 12.1273 241.697 412.022
3021 0 9.13123 32.8543 300 12.0967 242.64 408.367
3022 1 70.2048 12.2214 858 40.3963 245.026 330.458
3023 0 73.2136 12.3474 904 40.1615 244.973 329.973
3024 0 76.1981 12.0738 920 40.3337 245.178 328.78
3025 0 80.1585 12.4004 994 39.7958 244.525 327.744
3026 0 84.1968 12.352 1040 40.326 245.868 325.988
3027 0 84.1332 12.0999 1018 222.56 246.878 325.261
3028 0 93.3118 12.3457 1152 39.5312 245.249 325.037
3029 1 0 0 0 -nan -nan -nan
3030 1 73.2914 14.4628 1060 12.0811 241.358 426.97
3031 1 0 0 0 -nan -nan -nan
3032 0 0 0 0 -nan -nan -nan
3033 0 0 0 0 -nan -nan -nan
3034 0 0 0 0 -nan -nan -nan
3035 0 41.5385 22.2204 923 12.1538 243.553 423.685
3036 0 0 0 0 -nan -nan -nan
3037 0 49.5212 12.0958 599 12.1419 244.937 423.511
3038 1 305.33 10.451 3191 34.5973 244.793 304.392
3039 0 245.706 13.101 3219 37.9988 245.09 240.277
3040 1 249.156 18.8436 4695 30.8434 245.418 306.639
3041 1 198.657 11.3009 2245 40.2967 245.549 270.543
3042 0 205.329 15.5799 3199 32.4436 245.656 322.23
3043 0 229.762 17.0306 3913 29.3946 246.505 326.925
3044 1 149.534 11.3085 1691 39.8593 245.826 293.106
3045 0 150.335 11.8802 1786 40.6305 245.632 294.333
3046 0 147.995 12.2436 1812 35.2003 245.485 337.062
3047 1 101.117 10.9675 1109 40.101 245.399 318.651
3048 1 145.854 15.399 2246 31.4991 245.951 337.851
3049 1 102.397 11.4163 1169 40.0462 245.999 320.188
3050 0 105.503 11.3836 1201 39.2823 245.679 321.774
3051 1 143.303 15.4428 2213 32.8098 244.957 337.16
3052 1 108.415 11.6312 1261 40.2078 245.263 316.642
3053 0 112.467 11.9858 1348 39.9629 245.264 313.8
3054 0 112.192 11.5427 1295 40.3568 245.542 310.505
3055 0 120.242 10.928 1314 41.3158 245.353 307.037
3056 0 120.319 11.187 1346 40.4733 246.031 305.886
3057 0 126.342 11.7617 1486 40.3997 245.507 305.009
3058 0 128.094 8.36886 1072 35.8871 244.737 349.548
3059 1 65.3792 28.0059 1831 29.7051 245.235 326.309
3060 0 66.3724 27.5566 1829 29.6955 245.867 326.376
3061 0 64.3013 27.5733 1773 30.1528 245.763 325.817
3062 0 65.2496 28.0768 1832 29.8745 245.389 326.102
3063 1 33.7961 17.3689 587 12.1346 242.68 427.342
3064 1 0 0 0 -nan -nan -nan
3065 0 0 0 0 -nan -nan -nan
3066 1 31.2912 20.9324 655 12.1191 243.991 424.669
3067 1 0 0 0 -nan -nan -nan
3068 1 148.666 11.8454 1761 32.8836 245.321 341.036
3069 1 198.641 12.1375 2411 37.623 245.114 274.646
3070 0 201.311 11.8821 2392 38.1237 245.039 268.279
3071 1 161.312 11.2825 1820 38.0165 245.723 293.225
3072 0 163.292 11.2008 1829 39.6238 245.897 287.645
3073 0 158.632 14.77 2343 30.5706 246.32 336.461
3074 1 0 0 0 -nan -nan -nan
3075 1 64.216 9.77949 628 12.6433 245.748 411.285
3076 1 38.6901 6.97853 270 13.0259 234.963 401.096
3077 0 26.3092 2.09053 55 13.7455 243.055 395.691
3078 1 129.292 11.5939 1499 37.7979 246.756 303.285
3079 0 133.259 12.6971 1692 37.7004 246.256 303.861
3080 0 137.368 12.2081 1677 38.2498 245.885 297.5
3081 0 145.37 11.543 1678 38.7861 245.901 295.604
3082 0 151.182 11.7673 1779 35.8488 246.098 294.327
3083 0 158.095 13.2073 2088 30.295 245.614 336.262
3084 0 154.375 13.3117 2055 30.5431 245.706 337.05
3085 0 147.087 13.0535 1920 32.0417 246.082 335.33
3086 0 146.992 14.2457 2094 31.4336 246.429 339.736
3087 1 96.3166 11.9294 1149 38.4856 245.772 320.008
3088 0 100.439 11.4 1145 38.138 246.043 317.628
3089 1 312.915 20.5583 6433 26.7692 245.379 294.548
3090 1 364.891 16.9009 6167 27.7281 246.21 289.582
3091 0 350.899 18.0935 6349 27.9142 245.32 283.483
3092 0 390.408 15.8526 6189 27.0845 245.559 298.84
3093 0 257.268 27.0496 6959 26.5696 245.599 291.394
3094 1 357.554 11.3633 4063 31.8728 245.074 288.733
3095 0 364.033 11.2435 4093 31.2749 244.387 292.133
3096 1 152.292 9.79695 1492 37.8626 245.601 287.288
3097 1 223.432 16.4122 3667 29.1792 246.001 319.111
3098 1 155.252 11.4975 1785 38.3115 245.525 293.277
3099 1 193.621 18.7015 3621 30.142 245.181 317.719
3100 0 198.352 19.546 3877 29.1733 245.436 315.428
3101 1 80.2014 10.7604 863 37.8586 246.139 328.483
3102 1 138.529 11.6438 1613 31.6646 245.724 344.922
3103 1 188.54 10.9844 2071 37.0913 245.966 275.887
3104 1 337.714 10.805 3649 31.0485 245.084 310.318
3105 1 187.385 11.0468 2070 37.2652 245.668 274.198
3106 0 185.311 11.1704 2070 36.6734 245.291 273.568
3107 1 249.193 18.3392 4570 28.4254 244.875 310.516
3108 1 211.454 10.7731 2278 37.4289 245.757 256.61
3109 0 221.381 12.7247 2817 35.3312 245.075 254.016
3110 0 227.564 12.5152 2848 36.1819 245.472 250.687
3111 1 403.75 9.4068 3798 32.1277 244.727 279.429
3112 1 291.645 18.8037 5484 28.1997 244.23 295.315
3113 1 301.207 16.8788 5084 29.2779 245.429 292.072
3114 1 135.33 11.0101 1490 38.3893 245.951 300.768
3115 1 207.433 13.6189 2825 31.2662 245.139 323.374
3116 0 206.913 12.991 2688 32.2812 244.331 321.86
3117 1 134.62 10.4813 1411 39.3083 245.222 299.119
3118 1 297.009 8.31624 2470 32.6126 244.834 333.409
3119 1 32.7333 7.69858 252 12.6349 235.524 406.393
3120 1 0 0 0 -nan -nan -nan
3121 1 8.08599 12.2434 99 13.0505 243.192 398.404
3122 1 0 0 0 -nan -nan -nan
3123 0 0 0 0 -nan -nan -nan
3124 1 127.996 13.2582 1697 11.7107 242.261 462.194
3125 1 6 19.3333 116 11.3448 222.345 411.474
3126 0 1 17 17 11.7059 224.294 413.471
3127 1 62.8461 9.78581 615 12.1236 239.406 423.372
3128 1 28.1351 7.00194 197 12.2081 244.264 407.396
3129 1 0 0 0 -nan -nan -nan
3130 0 0 0 0 -nan -nan -nan
3131 1 298.825 7.11789 2127 30.9831 245.469 349.189
3132 1 113.18 12.2371 1385 35.6289 246.324 307.049
3133 1 62.7846 7.86817 494 12.166 243.559 434.032
3134 1 145.303 23.3236 3389 11.4323 243.518 480.792
3135 0 126.234 11.9699 1511 35.8008 246.013 299.24
3136 0 131.32 11.9175 1565 36.7815 245.831 297.192
3137 0 138.206 11.5045 1590 36.634 246.448 296.72
3138 1 316.813 15.5675 4932 29.1752 245.038 293.799
3139 0 324.289 12.9267 4192 31.0148 244.926 290.297
3140 1 173.551 11.1264 1931 37.4531 245.757 275.728
3141 1 267.396 19.0803 5102 27.2948 245.464 303.686
3142 1 298.513 15.5002 4627 28.3588 244.78 298.176
3143 1 253.696 20.6389 5236 27.3887 243.896 307.202
3144 1 189.574 12.3488 2341 36.3123 244.575 266.895
3145 1 249.049 19.458 4846 28.3541 245.354 300.878
3146 0 244.441 4.6187 1129 31.6156 245.273 372.212
3147 1 67.4651 24.9462 1683 28.281 243.172 319.633
3148 1 237.649 40.1223 9535 16.2298 243.356 387.592
3149 1 144.647 47.1148 6815 18.2442 241.245 352.05
3150 1 77.127 24.2716 1872 27.0342 242.524 319.293
3151 0 75.7645 23.1903 1757 27.6762 243.071 319.01
3152 1 128.865 6.40982 826 29.8269 242.318 361.402
3153 1 46.1806 9.65774 446 36.2623 245.377 344.28
3154 1 119.619 6.73803 806 29.83 244.733 355.949
3155 1 92.892 10.0654 935 28.8599 245.123 357.096
3156 0 141.328 12.1278 1714 11.8681 242.003 445.085
3157 1 0 0 0 -nan -nan -nan
3158 1 7 5.57143 39 12.6667 233.231 406.18
3159 0 22.8682 5.94712 136 12.1471 229.022 412.86
3160 1 159.797 14.9252 2385 11.4289 242.37 488.245
3161 1 14.9738 15.0262 225 12.1778 244.924 408.227
3162 1 171.789 31.5794 5425 11.2841 241.421 459.768
3163 1 0 0 0 -nan -nan -nan
3164 0 0 0 0 -nan -nan -nan
3165 0 63.3454 18.4228 1167 11.9452 242.227 425.248
3166 1 234.962 7.57571 1780 25.0022 244.82 386.235
3167 1 255.866 8.71159 2229 22.3665 241.777 410.944
3168 0 243.414 8.98879 2188 23.2303 242.685 392.031
3169 1 306.375 10.1575 3112 32.9929 243.252 205.654
3170 1 332.676 18.5796 6181 21.543 243.833 354.922
3171 0 345.283 19.6998 6802 20.8908 244.119 361.128
3172 1 292.318 9.20231 2690 22.2494 245.138 403.118
3173 1 225.545 5.75051 1297 23.2637 244.944 406.029
3174 0 229.872 7.16484 1647 21.456 242.979 423.568
3175 0 233.754 5.26621 1231 24.7173 243.267 402.112
3176 0 227.644 6.90114 1571 22.613 244.316 412.365
3177 0 234.362 6.28088 1472 24.5224 243.884 400.829
3178 0 236.356 6.24906 1477 25.1462 243.743 395.432
3179 1 164.11 15.9649 2620 11.3989 242.556 481.944
3180 0 146.429 17.2643 2528 11.5779 242.62 470.892
3181 0 155.027 9.34674 1449 11.677 241.257 480.613
3182 0 140.395 15.0147 2108 11.6395 241.655 470.355
3183 0 148.256 18.7851 2785 11.4305 242.073 484.108
3184 0 144.934 17.7184 2568 11.396 242.143 489.264
3185 0 158.444 11.7329 1859 11.5196 244.102 486.081
3186 0 130.493 18.5144 2416 11.5418 241.784 472.141
3187 0 128.5 19.8522 2551 11.4191 240.241 483.074
3188 0 130.149 10.5571 1374 11.4127 238.825 504.982
3189 1 128.552 19.2685 2477 11.5087 237.701 462.963
3190 1 144.547 24.1375 3489 11.3778 239.236 469.809
3191 0 134.888 16.9993 2293 11.5805 238.207 470.316
3192 1 151.086 22.7089 3431 11.4115 239.661 479.874
3193 1 135.55 16.7171 2266 11.5481 241.391 471.497
3194 1 135.469 21.2004 2872 11.4467 240.821 479.242
3195 0 145.551 2.52832 368 15.2717 239.117 458.378
3196 1 162.788 2.72133 443 14.3905 240.266 478.977
3197 1 323.202 10.6528 3443 28.2791 242.613 341.491
3198 0 326.437 11.7818 3846 26.8583 243.026 354.602
3199 1 349.346 10.2363 3576 28.8496 243.413 336.92
3200 0 345.925 11.3637 3931 27.5973 243.463 342.998
3201 1 116.737 1.66186 194 18.9278 243.402 413.619
3202 1 133.283 2.84357 379 15.3773 238.438 452.786
3203 0 135.029 2.43652 329 16.0881 237.173 442.301
3204 0 143.863 17.1621 2469 11.6634 241.189 465.427
3205 0 147.938 19.2514 2848 11.5481 239.34 475.149
3206 0 147.58 1.87018 276 16.7283 242.163 450.261
3207 1 132.07 2.61982 346 16.552 241.806 442.858
3208 0 142.159 19.035 2706 11.5591 238.912 471.841
3209 1 98.2793 16.5752 1629 11.8435 237.817 438.187
3210 1 119.421 12.7867 1527 12.0792 241.354 433.592
3211 1 154.599 14.9937 2318 11.5716 239.733 477.871
3212 1 138.268 12.7361 1761 11.6939 238.518 466.384
3213 1 133.875 9.34451 1251 11.9496 240.976 447.867
3214 0 155.908 7.20939 1124 11.9493 242.883 455.266
3215 1 75.7353 9.26912 702 12.2265 239.312 430.791
3216 1 138.783 11.5216 1599 11.7136 242.099 468.283
3217 0 141.731 13.6244 1931 11.7172 240.458 464.838
3218 1 40.8252 6.31963 258 11.1473 255.457 459.43
3219 1 115.655 19.1863 2219 11.4867 239.83 465.917
3220 1 93.3543 14.2361 1329 11.6418 242.676 444.453
3221 1 156.97 12.1807 1912 11.5492 237.054 482.089
3222 0 136.591 7.21129 985 11.9584 240.714 464.997
3223 0 153.575 14.2927 2195 11.5011 240.998 482.983
3224 1 111.713 14.9848 1674 11.7575 240.695 454.108
3225 0 120.842 15.0859 1823 11.5776 241.053 468.321
3226 0 104.524 17.6609 1846 11.6576 241.223 456.648
3227 1 112.269 15.0443 1689 11.8668 241.385 439.963
3228 0 92.9056 18.761 1743 11.7407 239.697 443.292
3229 0 76.6274 3.8237 293 20.4778 242.908 398.42
3230 1 111.84 16.1213 1803 11.6617 242.034 458.246
3231 0 82.4338 3.2147 265 20.5736 243.966 397.287
3232 1 102.891 2.75049 283 19.8975 245.163 407.265
3233 0 117.956 4.17954 493 16.714 249.288 422.834
3234 0 96.4729 34.362 3315 11.2929 239.32 466.809
3235 0 101.65 16.7634 1704 11.8504 240.989 442.984
3236 1 174.099 18.8743 3286 11.5694 240.901 474.977
3237 1 95.9072 3.26357 313 19.2939 246.562 410.556
3238 0 94.0583 16.3303 1536 11.7806 239.645 461.477
3239 1 154.794 13.1594 2037 11.7889 243.36 459.672
3240 1 139.047 13.2904 1848 11.7473 245.229 452.336
3241 1 122.27 21.1418 2585 11.5729 241.074 474.123
3242 1 96.8704 16.2279 1572 11.8206 241.838 450.649
3243 1 118.344 17.4406 2064 11.6071 240.675 472.043
3244 0 127.407 10.3134 1314 11.7603 238.982 470.231
3245 0 137.495 21.2735 2925 11.4738 240.589 474.424
3246 1 155.076 20.4481 3171 11.5046 241.241 482.326
3247 1 65.7781 14.7009 967 12.1055 240.584 422.404
3248 1 30.1882 15.9996 483 12.4203 242.795 415.089
3249 1 10.051 16.5158 166 13.0422 245.5 403.602
3250 1 15.2769 7.72407 118 11.5847 231.161 486.703
3251 1 45.6521 23.8981 1091 12.1815 244.948 411.46
3252 0 69.1036 7.53941 521 12.0595 246.246 426.491
3253 1 80.3996 18.6195 1497 11.7168 240.345 445.935
3254 1 10.3733 18.8948 196 12.102 246.097 417.673
3255 1 41.6663 18.2401 760 11.6842 243.92 433.143
3256 1 10.0507 6.16874 62 12.0323 264.419 418.032
3257 1 128.806 16.8005 2164 11.5273 244.907 471.524
3258 0 113.856 19.1557 2181 11.4567 241.818 467.487
3259 1 147.639 17.4818 2581 11.4219 242.761 483.033
3260 1 35.9564 15.936 573 12.0768 243.122 431.26
3261 1 26.0292 8.25994 215 12.0605 238.777 423.884
3262 1 56.1776 10.4846 589 12.0645 244.684 431.66
3263 1 58.5127 16.9365 991 11.7346 238.573 444.073
3264 0 75.9274 12.4329 944 12.053 243.424 434.249
3265 1 40.7372 6.70149 273 12.0916 240.747 418.407
3266 1 101.685 22.2058 2258 11.558 241.356 465.284
3267 0 111.923 13.42 1502 11.8003 241.964 456.763
3268 1 164.343 2.80511 461 21.7657 242.204 420.499
3269 1 26.0675 9.66721 252 30.2897 245.377 370.151
3270 1 83.0276 5.67281 471 23.9809 242.503 385.136
3271 1 125.83 30.6843 3861 14.7389 241.199 393.545
3272 1 147.142 45.0789 6633 13.1639 241.456 418.415
3273 1 105.436 4.34386 458 22.5764 245.668 392.476
3274 0 100.925 17.3099 1747 11.743 239.339 461.794
3275 0 123.904 21.1857 2625 11.456 240.562 472.802
3276 1 21.3981 6.86975 147 11.5306 251.762 494.041
3277 1 47.2185 16.6884 788 12.0685 238.398 428.676
3278 1 49.6582 12.4249 617 12.1053 244.715 422.741
3279 1 84.7561 22.7712 1930 11.6824 240.169 447.136
3280 0 79.6094 17.1713 1367 11.8786 241.094 445.192
3281 1 39.226 15.7804 619 12.1922 242.27 421.575
3282 1 125.364 16.0413 2011 11.6211 239.031 471.742
3283 0 138.22 6.69224 925 12.1914 241.051 458.294
3284 1 3 14.6667 44 11.4545 259.795 420.068
3285 1 52.1849 17.2464 900 12.17 240.786 423.447
3286 0 49.5701 18.4789 916 12.1987 238.521 419.511
3287 1 118.54 21.4779 2546 11.5479 236.479 467.874
3288 1 34.3043 10.6692 366 12.0683 246.708 418.005
3289 1 137.847 3.60544 497 26.6016 244.654 382.533
3290 1 85.9251 7.14576 614 25.5928 246.735 375.417
3291 1 177.612 4.36344 775 21.0284 243.819 425.077
3292 1 104.781 6.20341 650 24.2662 241.031 383.415
3293 1 214.614 3.71831 798 20.4749 246.57 443.603
3294 1 87.4267 9.04757 791 25.22 246.595 372.699
3295 1 167.382 3.78176 633 26.3318 241.82 394.254
3296 1 0 0 0 -nan -nan -nan
3297 1 98.5392 18.1755 1791 11.9576 240.716 446.67
3298 1 0 0 0 -nan -nan -nan
3299 1 36.594 9.2638 339 12.0914 232.587 414.097
3300 0 22.7329 9.54565 217 12.1244 220.217 413.899
3301 0 0 0 0 -nan -nan -nan
3302 1 163.851 6.96363 1141 11.9833 242.069 479.689
3303 1 0 0 0 -nan -nan -nan
3304 1 165.225 8.20699 1356 11.5531 240.192 500.625
3305 1 0 0 0 -nan -nan -nan
3306 0 0 0 0 -nan -nan -nan
3307 1 44.4132 8.60105 382 12.712 234.61 408.149
3308 1 61.1535 29.9083 1829 12.4073 237.618 411.42
3309 1 0 0 0 -nan -nan -nan
3310 0 0 0 0 -nan -nan -nan
3311 1 111.156 21.4743 2387 12.1299 243.328 426.591
3312 1 0 0 0 -nan -nan -nan
3313 1 57.3847 29.0844 1669 12.4721 244.442 407.316
3314 0 52.7274 31.9948 1687 12.3171 240.995 410.465
3315 1 177.347 22.3404 3962 11.7065 241.285 463.988
3316 1 50.7468 29.8541 1515 12.2752 240.317 409.712
3317 0 59.2536 19.2056 1138 12.1019 238.383 423.367
3318 1 333.174 13.4104 4468 41.1893 242.692 215.63
3319 0 349.036 13.5058 4714 40.9442 241.829 208.315
3320 1 326.848 7.47443 2443 34.4273 245.314 336.367
3321 1 180.646 5.99515 1083 30.2022 245.889 362.329
3322 1 147.21 7.74404 1140 29.7781 246.014 357.475
3323 1 78.246 11.2977 884 33.7692 247.14 342.787
3324 1 233.122 4.14375 966 32.8665 246.74 347.185
3325 1 74.3318 11.8254 879 34.7838 247.261 339.918
3326 0 75.1986 12.1811 916 34.8384 246.585 339.787
3327 0 74.3101 11.5058 855 36.1766 247.64 338.494
3328 1 123.236 10.7355 1323 31.4868 247.017 348.04
3329 1 297.676 13.293 3957 31.8049 245.629 306.49
3330 1 197.697 12.9339 2557 38.0892 246.73 278.993
3331 1 248.797 18.1232 4509 30.6241 246.262 308.205
3332 1 84.3857 11.3408 957 36.0554 247.838 336.931
3333 0 92.6159 7.87122 729 35.9218 248.122 355.968
3334 0 85.3346 12.0115 1025 36.478 247.318 337.087
3335 0 89.3902 11.4218 1021 37.145 247.099 335.177
3336 1 238.106 5.20776 1240 33.1734 246.262 356.765
3337 1 163.464 46.2119 7554 18.8122 242.007 354.584
3338 0 148.478 43.6428 6480 19.9998 243.262 346.362
3339 0 135.542 47.144 6390 20.0513 242.979 345.552
3340 1 27.7597 14.4454 401 12.3292 240.387 418.449
3341 1 48.8359 11.938 583 12.307 240.539 425.18
3342 0 0 0 0 -nan -nan -nan
3343 1 10.1628 11.7094 119 13.0504 245.269 408.445
3344 0 22.9427 2.92032 67 13 231.463 412.358
3345 1 58.3556 11.8069 689 12.193 241.457 420.919
3346 1 138.72 11.2168 1556 11.8747 240.79 455.353
3347 1 0 0 0 -nan -nan -nan
3348 0 0 0 0 -nan -nan -nan
3349 1 9.01811 2.32865 21 12.4286 224.667 406.095
3350 1 0 0 0 -nan -nan -nan
3351 0 5 15 75 11.28 221.053 430.24
3352 0 0 0 0 -nan -nan -nan
3353 0 0 0 0 -nan -nan -nan
3354 1 15.091 19.7469 298 12.2517 233.248 407.55
3355 1 0 0 0 -nan -nan -nan
3356 1 47.0728 17.3561 817 12.1848 241.532 425.559
3357 1 16.8899 4.38132 74 12.9324 235.338 407.635
3358 1 120.434 22.012 2651 11.645 241.041 452.932
3359 1 0 0 0 -nan -nan -nan
3360 1 30.1536 12.3368 372 12.1344 242.218 413.737
3361 1 0 0 0 -nan -nan -nan
3362 1 136.94 20.8631 2857 11.5397 242.947 468.634
3363 1 0 0 0 -nan -nan -nan
3364 1 139.524 16.7426 2336 11.5582 242.268 480.1
3365 0 140.822 7.93199 1117 31.4414 243.974 357.165
3366 1 74.4434 10.8002 804 36.4167 247.011 345.618
3367 1 127.793 7.80949 998 32.7485 245.761 354.663
3368 1 203.585 4.64672 946 31.7844 247.066 373.478
3369 1 252.637 33.0158 8341 16.4033 241.857 395.109
3370 1 91.8598 20.9885 1928 26.6743 242.709 332.997
3371 0 88.0649 22.3471 1968 26.9695 243.756 334.559
3372 1 234.44 4.46169 1046 30.6912 246.799 386.474
3373 1 73.3517 10.0475 737 37.8277 246.993 345.13
3374 1 141.283 6.80902 962 33.9376 245.186 354.081
3375 1 109.825 47.8489 5255 19.6297 243.771 351.284
3376 1 251.93 34.5771 8711 15.6062 242.013 396.182
3377 1 77.0637 28.976 2233 23.7009 243.995 332.734
3378 1 252.169 40.0882 10109 14.9942 241.358 402.788
3379 1 272.355 8.11074 2209 31.7981 245.329 334.114
3380 1 193.686 14.1828 2747 30.0175 246.212 329.543
3381 1 233.42 11.3358 2646 30.1247 245.975 334.966
3382 1 281.805 9.52431 2684 31.3387 243.526 328.82
3383 1 147.245 12.0683 1777 37.4024 245.805 306.779
3384 1 273.742 9.51992 2606 31.9958 245 331.968
3385 0 387.415 23.6464 9161 29.2506 243.457 268.875
3386 0 339.83 12.9918 4415 39.9318 242.549 212.327
3387 0 333.978 13.5548 4527 38.9954 242.55 217.008
3388 1 341.046 11.0366 3764 32.8039 245.107 304.97
3389 1 294.059 14.191 4173 31.7479 245.651 300.374
3390 1 274.417 17.2256 4727 29.6467 245.583 303.526
3391 0 279.067 11.2948 3152 30.9169 246.072 324.471
3392 1 329.78 9.661 3186 30.8519 245.454 335.871
3393 1 381.092 16.9749 6469 32.3265 244.881 264.037
3394 1 404.984 15.171 6144 33.2671 244.459 256.59
3395 1 308.439 13.5164 4169 39.1439 244.017 226.119
3396 0 307.241 12.8987 3963 38.107 244.069 223.644
3397 1 413.898 14.7621 6110 32.3005 243.99 258.75
3398 1 324.208 14.8608 4818 30.6077 246.209 295.579
3399 1 366.682 12.1631 4460 31.2406 244.983 296.187
3400 1 316.525 15.7207 4976 30.1893 245.291 295.819
3401 1 373.477 13.0771 4884 29.0162 244.838 305.42
3402 1 314.394 18.3909 5782 26.7996 245.785 302.203
3403 0 298.069 13.2419 3947 28.0565 245.307 320.356
3404 1 287.957 17.4123 5014 25.2324 244.583 329.983
3405 1 336.573 12.5946 4239 26.402 243.386 333.253
3406 1 278.134 8.21546 2285 31.2398 245.773 325.674
3407 0 288.44 8.76439 2528 29.4545 246.519 334.842
3408 0 276.136 12.9863 3586 25.9395 243.926 343.278
3409 0 277.855 11.3513 3154 27.1487 245.081 333.056
3410 0 303.687 13.6621 4149 23.7315 245.269 335.696
3411 0 273.633 17.8158 4875 24.2935 244.879 319.618
3412 0 283.306 15.0615 4267 25.2864 245.843 310.79
3413 1 263.34 17.6388 4645 25.3559 246.058 315.014
3414 1 356.499 11.066 3945 26.2745 245.215 326.302
3415 0 342.148 11.6587 3989 25.6681 245.183 326.301
3416 1 346.593 11.6361 4033 24.8849 246.089 318.238
3417 1 297.145 15.6422 4648 23.6299 244.523 324.602
3418 0 298.202 13.8564 4132 24.8921 245.712 312.035
3419 1 352.774 12.0672 4257 23.8804 244.001 339.763
3420 1 301.338 15.5108 4674 23.7762 246.097 321.017
3421 1 406.339 12.1893 4953 27.9322 245.023 277.658
3422 0 381.758 19.6878 7516 25.4568 244.297 274.235
3423 0 440.028 15.0445 6620 26.7761 244.937 277.339
3424 0 474.541 13.3413 6331 27.271 244.329 275.016
3425 0 502.622 11.7862 5924 29.1443 244.241 258.494
3426 0 478.508 15.007 7181 27.6746 244.107 264.369
3427 0 448.493 16.2745 7299 26.9899 243.575 278.319
3428 1 450.211 15.4639 6962 27.6531 243.494 266.018
3429 1 480.177 13.8657 6658 28.6805 243.131 268.008
3430 0 455.35 15.6144 7110 27.4253 243.6 269.336
3431 0 425.322 20.6644 8789 25.7052 243.541 277.669
3432 0 463.235 14.8629 6885 28.7348 243.172 263.28
3433 0 449.73 16.1875 7280 27.9688 243.033 264.666
3434 0 407.401 19.8281 8078 26.4794 242.914 269.542
3435 0 430.216 16.0361 6899 28.3751 243.434 261.792
3436 0 448.821 15.7902 7087 27.8367 243.224 270.982
3437 1 394.822 17.9169 7074 27.6173 244.352 270.495
3438 1 436.745 18.5669 8109 25.4615 244.462 281.06
3439 0 422.343 17.8054 7520 26.7476 243.716 271.93
3440 1 444.878 15.0311 6687 28.3689 242.241 265.25
3441 0 486.518 14.4126 7012 28.2675 241.89 274.809
3442 1 445.751 17.1127 7628 26.5371 242.097 281.682
3443 1 457.127 17.7763 8126 25.8127 242.477 290.229
3444 1 413.125 18.9507 7829 26.6853 243.196 275.207
3445 1 478.892 14.4062 6899 28.5657 242.796 261.851
3446 0 471.99 16.7652 7913 26.081 242.477 275.161
3447 0 447.75 16.2635 7282 27.3362 242.581 257.572
3448 0 460.285 15.9727 7352 26.7605 243.005 274.137
3449 1 505.907 17.4637 8835 24.8205 242.038 299.849
3450 0 500.139 14.0261 7015 27.7907 242.579 266.849
3451 0 478.857 22.8335 10934 24.1351 242.234 277.927
3452 0 478.434 21.3948 10236 24.925 242.009 269.836
3453 0 489.516 14.9331 7310 27.4596 242.877 282.915
3454 0 484.808 14.744 7148 27.7093 243.884 266.51
3455 1 378.265 13.6729 5172 24.5246 244.645 310.942
3456 0 386.892 14.8724 5754 23.0269 245.116 324.008
