time division length width area intensity CMx CMy
0 0 56.0288 10.6909 599 51.222 235.447 478.078
1 0 56.0863 10.9652 615 51.2699 235.99 477.496
2 0 59.094 11.1856 661 50.7549 236.188 475.599
3 0 58.0746 11.1408 647 51.408 236.185 474.628
4 0 59.063 10.9036 644 51.6335 236.703 472.921
5 0 66.1015 10.5141 695 52.1165 236.705 470.724
6 0 67.0561 10.4539 701 52.4593 237.522 470.405
7 0 67.0602 11.0199 739 52.3153 237.31 469.995
8 0 69.0818 10.8277 748 51.9786 236.985 468.354
9 0 70.1312 10.5516 740 52.577 237.496 466.585
10 0 73.0938 10.5891 774 50.407 237.362 465.12
11 0 74.1808 11.081 822 50.4185 238.29 464.892
12 0 76.0338 11.1003 844 51.1102 238.871 464.385
13 0 79.0883 11.4429 905 51.0707 238.759 462.938
14 1 42.0695 10.1023 425 49.4894 239.085 481.602
15 0 42.0625 10.4844 441 49.5193 238.147 480.327
16 0 44.0758 10.845 478 47.5921 238.933 479.013
17 0 46.0174 9.99621 460 48.1609 239.087 479.809
18 0 46.0903 10.5662 487 48.4682 238.663 478.879
19 0 50.0809 10.3832 520 47.9212 238.433 475.821
20 0 50.0885 10.3816 520 217.994 238.433 475.821
21 0 53.0652 10.0631 534 48.0487 239.807 474.253
22 0 55.0537 10.4807 577 46.0416 239.135 474.307
23 0 57.0344 10.6602 608 45.9638 239.589 472.911
24 0 57.0859 10.5981 605 46.7868 239.213 470.922
25 0 58.048 10.6291 617 47.7229 239.235 470.008
26 0 61.0354 10.4202 636 47.294 239.852 469.119
27 0 62.1452 10.7651 669 46.8999 239.854 467.442
28 0 62.1526 10.426 648 47.8225 239.486 467.529
29 0 66.1267 10.6916 707 48.6238 240.31 465.182
30 0 69.0764 10.8431 749 47.8291 240.234 465.418
31 0 71.1197 11.2768 802 47.4975 240.353 463.509
32 0 74.2632 10.3955 772 48.307 240.756 462.343
33 0 77.1782 10.7025 826 47.3354 240.211 461.295
34 0 78.1743 10.515 822 46.5985 240.136 460.044
35 0 82.2341 10.616 873 46.2405 240.687 460.276
36 1 41.0311 9.72434 399 45.4887 240.737 478.058
37 0 42.0161 9.94858 418 45.2344 239.955 477.239
38 0 44.0846 10.7294 473 43.9197 240.025 477.698
39 0 46.0831 10.0254 462 42.8939 240.1 475.647
40 0 48.1587 10.4031 501 42.8024 239.934 476.86
41 0 49.0896 10.654 523 42.9981 240.268 475.124
42 0 50.0556 10.6482 533 43.2495 240.345 474.681
43 0 52.1359 11.0672 577 42.5234 240.203 474.854
44 0 56.1432 11.0076 618 42.2152 240.633 473.354
45 0 56.0473 11.2048 628 42.4427 240.686 473.032
46 0 59.2051 11.0126 652 42.0261 240.983 471.952
47 0 63.1456 10.7054 676 40.682 241.345 471.615
48 0 60.213 10.5791 637 42.4662 241.206 467.918
49 0 65.0655 10.2051 664 42.2515 240.828 468.45
50 0 63.384 11.0911 703 41.5434 241.385 466.669
51 0 68.1041 10.6601 726 41.5882 241.613 467.978
52 0 70.092 10.8429 760 41.4711 241.318 466.012
53 0 74.1532 11.0042 816 41.511 240.711 465.364
54 0 74.0909 11.3509 841 41.9762 241.273 461.746
55 0 76.1004 11.0643 842 42.4252 241.71 462.5
56 0 79.1301 11.677 924 41.5779 241.782 462.031
57 0 82.1442 10.7007 879 41.4858 241.659 460.618
58 0 85.2391 11.1569 951 39.6856 242.511 459.356
59 0 89.1273 11.0965 989 39.0061 241.595 458.138
60 1 121.842 11.4657 1397 35.2706 241.194 464.408
61 1 90.1528 10.4156 939 40.8296 242.168 454.43
62 0 85.404 8.87546 758 35.0224 243.079 483.306
63 1 52.0461 10.2409 533 39.9174 240.657 476.178
64 0 50.0779 10.8231 542 39.2601 241.301 474.858
65 0 54.1055 11.4591 620 38.1048 242.002 475.098
66 0 54.0385 11.3993 616 38.0763 241.625 474.122
67 0 56.038 11.3673 637 38.2716 242.06 473.771
68 0 60.087 11.0673 665 39.1579 241.964 471.729
69 0 62.0636 11.3754 706 38.9674 241.11 473.265
70 0 63.1408 11.3714 718 39.1462 241.571 471.71
71 0 65.1032 11.4587 746 39.008 241.416 470.277
72 0 69.2321 10.8765 753 39.0584 241.167 467.685
73 0 68.2314 11.5343 787 39.1842 241.632 466.91
74 0 73.3245 11.0741 812 39.0025 241.75 469.132
75 0 75.3026 11.4073 859 38.0501 241.299 466.694
76 1 126.242 9.91746 1252 32.9409 242.547 479.297
77 1 78.1177 11.4443 894 39.2696 240.839 463.173
78 0 81.0966 11.1349 903 39.2126 240.897 461.877
79 0 82.3396 11.6226 957 39.1515 241.119 460.213
80 0 85.08 12.071 1027 38.11 241.76 461.228
81 0 90.1554 11.1252 1003 37.8814 241.277 458.615
82 0 91.0829 11.7695 1072 36.3918 242.044 458.897
83 0 91.1686 11.8133 1077 36.7753 241 454.791
84 0 96.1543 12.7191 1223 35.7449 240.612 455.547
85 0 101.147 11.7354 1187 36.9486 241.472 453.043
86 0 101.278 11.9473 1210 35.9207 241.408 453.942
87 0 105.247 11.7438 1236 37.212 241.138 449.369
88 1 51.0535 10.8318 553 38.1157 241.224 476.696
89 0 54.1047 11.1266 602 37.8987 241.179 474.987
90 0 54.2114 11.7503 637 38.4615 241.347 474.435
91 0 58.0926 11.671 678 38.4602 241.268 475.034
92 0 56.1886 11.3368 637 39.3595 241.495 474.009
93 0 58.0945 12.0321 699 38.7754 240.614 473.462
94 1 103.629 9.92965 1029 32.5918 240.677 482.364
95 1 61.1806 11.4579 701 38.7047 240.565 470.924
96 0 64.1275 11.2276 720 40.4708 240.59 469.994
97 0 62.1787 11.7886 733 39.8868 241.071 469.362
98 0 68.2579 11.7056 799 38.7384 240.529 467.855
99 0 68.1156 11.7594 801 38.8539 240.096 467.713
100 0 71.1922 11.7288 835 37.4539 240.59 467.917
101 0 72.1664 11.9308 861 38.3182 240.875 465.755
102 0 78.2169 10.9823 859 39 240.847 462.607
103 0 80.2679 11.1377 894 39.5425 241.062 463.124
104 0 81.1066 12.1198 983 38.7528 241.041 462.918
105 0 83.2514 12.4442 1036 37.471 240.41 462.133
106 0 87.2346 11.2685 983 39.1597 240.715 458.923
107 0 89.108 12.4231 1107 39.1183 239.941 458.205
108 0 90.2359 11.7913 1064 40.7707 240.081 456.565
109 1 49.0697 9.72086 477 42.5702 240.363 476.245
110 0 48.155 11.0061 530 41.9472 239.789 477.009
111 0 53.1179 10.5238 559 42.034 239.81 475.458
112 0 55.1846 10.927 603 40.3449 240.096 475.803
113 0 53.2984 10.7883 575 42.0591 239.915 473.657
114 0 57.2346 11.2345 643 41.647 240.093 474.435
115 0 59.0794 10.9852 649 42.678 239.414 471.367
116 0 61.0864 11.1154 679 42.6053 239.717 472.563
117 0 62.125 11.2837 701 41.7718 239.362 471.101
118 0 62.2999 10.8186 674 43.1795 239.205 469.042
119 0 66.0684 11.4578 757 42.5865 240.465 465.803
120 0 67.2412 12.0462 810 42.5494 240.46 466.463
121 0 69.149 11.844 819 43.2442 240.123 463.531
122 0 71.2507 11.4245 814 43.973 240.468 461.746
123 0 73.2068 11.1055 813 44.2202 239.995 460.134
124 0 74.2597 12.0792 897 43.7436 240.135 459.324
125 0 79.2108 11.8923 942 43.5382 241.49 457.677
126 0 80.1787 11.8735 952 45.0809 240.78 455.348
127 0 83.2256 12.2078 1016 44.7165 240.344 456.088
128 0 85.2016 12.2181 1041 45.0893 239.713 454.359
129 0 90.1656 11.9447 1077 44.8134 240.885 457.294
130 1 44.0511 10.0111 441 45.8231 240.177 474.605
131 0 48.0452 9.82409 472 46.6123 239.661 472.536
132 0 50.0869 10.2821 515 46.3689 240.08 473.581
133 0 46.0572 10.4652 482 47.6037 239.541 474.577
134 0 50.0692 11.5241 577 45.714 240.121 475.868
135 0 51.1943 10.4308 534 47.5599 241.066 475.309
136 0 51.0799 10.5521 539 47.2876 240.551 474.182
137 1 105.473 7.36683 777 41.2098 239.821 480.414
138 1 57.059 11.4618 654 44.948 239.497 473.526
139 0 57.1649 11.3181 647 45.2875 239.21 472.473
140 0 58.076 11.6399 676 45.7189 240.213 472.791
141 0 61.0538 11.2032 684 44.8158 240.083 472.906
142 0 59.1681 11.442 677 43.5096 240.411 471.659
143 0 65.0721 11.3259 737 42.6934 240.75 471.703
144 0 66.0856 11.5608 764 42.7893 240.162 470.101
145 0 69.1431 11.1797 773 43.0582 240.087 470.361
146 0 70.2217 11.8339 831 42.8424 240.691 463.838
147 0 72.229 11.8927 859 43.4261 239.172 464.001
148 1 126.292 10.0957 1275 37.3122 238.875 472.922
149 1 75.1335 11.992 901 42.9911 239.259 462.66
150 0 78.4463 11.3071 887 41.7012 239.344 460.975
151 0 83.2787 12.248 1020 41.152 239.323 461.269
152 0 85.2128 11.8057 1006 41.5676 239.201 460.853
153 0 87.2303 12.3466 1077 42.3027 239.328 458.631
154 0 89.2823 11.9733 1069 42.7091 239.598 455.167
155 0 93.1749 11.8272 1102 42.441 239.316 455.303
156 0 95.1617 11.1705 1063 43.3471 240.04 454.608
157 0 98.0813 11.8779 1165 42.9597 240.152 453.072
158 1 50.0361 11.6516 583 42.2247 239.245 476.172
159 0 51.0551 11.517 588 42.7636 239.002 475.092
160 0 55.0637 11.5321 635 42.7024 240.296 473.539
161 0 55.0436 11.6816 643 42.4774 239.77 476.148
162 0 59.16 11.3421 671 41.3204 239.313 472.125
163 0 58.1276 11.7156 681 41.7004 239.325 470.988
164 0 62.1476 11.3601 706 41.5581 238.911 470.87
165 0 62.1008 12.2543 761 41.4954 240.091 470.64
166 1 83.4455 12.3314 1029 37.4674 239.92 474.464
167 1 64.0919 11.6239 745 42.4403 240.874 469.152
168 0 69.0958 11.5347 797 40.2409 240.619 468.573
169 0 70.0605 12.0039 841 40.7348 240.166 466.434
170 0 71.0947 13.0389 927 40.0173 239.455 458.789
171 0 72.1985 12.0363 869 42.0092 239.885 459.9
172 0 75.3919 11.4866 866 43.485 240.522 461.008
173 0 76.1292 11.8483 902 43.8548 239.941 460.72
174 0 78.1764 11.1031 868 44.6475 240.255 458.553
175 0 83.0459 11.5358 958 44.0595 241.233 458.1
176 0 87.103 11.607 1011 43.7992 240.667 455.539
177 0 87.1363 12.1419 1058 44.2316 240.618 455.078
178 0 90.1163 12.5283 1129 44.264 240.722 454.712
179 0 95.0322 12.28 1167 44.3762 240.385 453.681
180 1 134.139 10.2804 1379 40.9797 239.902 461.117
181 1 51.0781 9.92598 507 45.8225 240.416 472.696
182 0 53.039 10.5017 557 45.7145 240.501 472.627
183 0 52.0867 10.9625 571 45.7881 240.496 471.315
184 0 57.1374 10.4835 599 45.0935 240.876 470.073
185 0 57.0275 11.2577 642 43.6215 241.43 471.167
186 0 59.1114 11.3176 669 43.7399 241.197 468.329
187 0 62.096 11.2407 698 43.4255 241.536 468.193
188 0 65.1106 10.5513 687 43.8821 241.646 468.099
189 0 65.1468 11.5125 750 41.3813 241.744 467.24
190 0 68.1027 11.0715 754 42.2268 241.324 465.907
191 0 70.0497 11.5347 808 42.0767 241.851 464.569
192 0 71.1672 11.4519 815 42.8491 241.713 462.993
193 0 74.2665 11.8223 878 42.6777 241.647 461.015
194 0 75.1563 11.6956 879 42.802 241.778 456.716
195 0 78.3242 11.2354 880 44.0864 242.115 455.17
196 0 83.1611 11.8325 984 43.0661 241.661 457.999
197 0 85.28 11.5854 988 43.2854 240.846 457.183
198 0 88.2557 10.9908 970 44.4072 242.344 455.571
199 1 43.2075 9.74368 421 44.5154 241.879 477.183
200 0 45.0353 10.0144 451 43.2262 241.392 477.933
201 0 46.0138 10.7359 494 43.6275 241.18 477.061
202 0 51.1348 10.6581 545 42.0459 241.495 477.565
203 0 52.0466 10.1448 528 43.4299 241.042 476.803
204 0 52.17 10.2741 536 44.3974 241.241 477.34
205 0 52.0237 11.0334 574 44.6272 241.796 476.618
206 0 56.0612 11.1485 625 42.96 241.099 476.174
207 0 56.0333 11.1362 624 43.274 241.433 472.885
208 0 57.1026 11.4706 655 42.9099 240.852 472.568
209 0 62.0753 10.7611 668 43.476 241.195 471.952
210 0 61.038 10.6983 653 43.9755 241.112 470.346
211 0 67.0744 11.0623 742 41.9798 240.844 471.872
212 0 65.0777 11.0944 722 43.3795 240.097 467.949
213 0 68.0639 11.3129 770 41.774 240.686 469.481
214 0 70.1437 11.0202 773 43.0918 239.962 466.225
215 0 73.2873 13.8223 1013 40.6604 239.982 458.874
216 0 75.1658 13.2906 999 41.2743 240.113 460.11
217 0 76.2358 12.5925 960 42.6333 240.395 460.57
218 0 78.1564 12.2063 954 43.3574 240.957 459.279
219 0 81.1701 11.8393 961 43.1134 240.709 460.997
220 0 81.2183 11.623 944 43.9343 240.887 458.289
221 0 85.0952 12.1863 1037 43.4619 241.089 456.982
222 0 89.1643 12.2134 1089 43.4068 240.534 454.766
223 0 90.1557 11.4247 1030 43.1583 240.48 452.078
224 0 94.2274 10.7081 1009 44.1031 240.463 452.401
225 1 49.0582 10.355 508 43.5413 240.835 475.768
226 0 51.0281 9.93571 507 44.3748 241.396 474.491
227 0 53.0672 10.0627 534 45.6891 241.195 474.418
228 0 52.042 10.7798 561 46.0963 240.34 472.56
229 0 55.046 11.2088 617 43.9984 240.984 471.833
230 0 58.1347 10.6821 621 43.9147 240.583 471.709
231 0 59.0539 10.8375 640 44.5641 240.202 469.338
232 0 62.0679 11.3102 702 43.8604 240.329 470.764
233 0 63.1403 10.9597 692 44.5159 240.529 468.517
234 0 65.1157 11.8405 771 43.8457 240.278 467.204
235 0 66.1469 11.8373 783 42.5811 240.757 464.839
236 0 69.2492 10.9171 756 43.5728 240.996 464.583
237 0 68.2059 11.6852 797 43.3827 241.066 463.723
238 0 72.2297 11.6711 843 43.6192 240.244 463.308
239 0 74.1217 11.1169 824 44.3519 240.351 460.738
240 0 75.3398 10.1274 763 45.9476 241.54 457.115
241 0 81.2959 11.7841 958 43.7933 241.125 458.437
242 0 81.1598 11.9764 972 43.892 241.243 458.949
243 0 85.2639 11.2357 958 43.9749 241.239 456.194
244 0 83.2558 10.9422 911 45.6015 241.24 454.789
245 1 44.0685 9.50793 419 46.3699 241.644 476.862
246 0 41.0181 9.58115 393 47.4631 241.384 473.975
247 0 44.0621 9.53199 420 45.9857 241.35 473.474
248 0 46.1129 10.2791 474 45.7932 241.443 474.055
249 0 49.1086 10.3851 510 46.1118 242.163 473.443
250 0 51.0772 10.9638 560 46.2625 241.086 472.912
251 0 49.0197 10.8324 531 47.8569 241.578 471.945
252 0 50.0523 10.9286 547 48.4059 241.296 471.218
253 0 53.0429 11.1042 589 48.3905 241.413 470.081
254 0 57.0745 11.4237 652 47.3957 240.67 470.041
255 0 54.0284 10.5685 571 49.1349 241.193 467.074
256 0 59.0578 10.2781 607 47.8715 241.572 466.273
257 0 61.0201 11.7011 714 46.4426 241.468 466.384
258 0 62.1502 10.8286 673 47.5141 241.618 465.462
259 0 67.1086 10.7885 724 46.8177 241.273 464.615
260 0 68.1255 11.5669 788 45.7462 240.627 464.636
261 0 69.0497 11.0066 760 46.9895 241.755 463.128
262 0 74.0754 11.2588 834 44.9952 242.229 461.61
263 0 73.1499 10.5673 773 47.1514 241.092 459.114
264 0 75.1858 10.4408 785 47.3847 241.669 458.963
265 0 76.2371 11.2937 861 46.9303 242.058 460.208
266 0 79.1156 10.8828 861 47.1196 242.178 458.103
267 1 39.012 10.4839 409 46.4914 242.298 478.861
268 0 37.0149 10.7794 399 47.7544 241.799 476.351
269 0 38.0261 11.0187 419 47.8902 241.711 477.169
270 0 42.026 10.4935 441 49.0567 241.469 477.029
271 0 43.0128 11.1827 481 48.0644 241.726 477.029
272 0 48.0279 10.4731 503 48.2485 241.877 474.225
273 0 44.0827 11.2743 497 47.5875 242.01 474.288
274 0 46.0376 10.7304 494 48.6761 242.146 473.773
275 0 47.0419 10.9902 517 48.8453 241.785 474.257
276 0 49.0624 11.4548 562 48.7954 240.956 474.137
277 0 51.0299 11.3071 577 48.9255 240.835 471.281
278 0 53.1452 10.9699 583 49.3002 241.329 471.214
279 0 54.0248 11.0505 597 48.7906 240.804 471.121
280 0 57.085 10.8785 621 46.5894 241.953 470.045
281 0 58.121 11.0975 645 46.5752 241.347 470.481
282 0 59.0465 10.6187 627 47.7815 241.078 469.951
283 0 61.0753 11.0028 672 47.7812 242.031 469.753
284 0 62.1288 10.5587 656 48.4604 241.424 469.096
285 0 68.076 10.738 731 46.9439 240.93 468.683
286 0 67.0452 10.8882 730 45.3041 240.438 465.541
287 0 71.1989 11.2642 802 44.788 241.788 465.658
288 0 73.1202 10.2708 751 46.3462 241.397 465.45
289 0 73.087 10.8638 794 46.9887 240.946 464.092
290 1 33.0401 9.74572 322 46.8354 240.941 481.739
291 0 39.0439 10.501 410 45.161 240.693 481.829
292 0 42.1347 9.89684 417 45.0096 240.465 482.41
293 0 38.0776 10.3998 396 46.1162 239.753 479.861
294 0 43.0772 10.8178 466 45.9163 240.279 479.577
295 0 42.046 10.7977 454 47.0573 239.683 478.861
296 0 45.0653 10.5846 477 47.2579 241.361 477.566
297 0 45.1076 10.6191 479 48.0146 241.532 478.123
298 0 48.128 10.7837 519 45.8998 240.744 478.545
299 0 48.0619 10.965 527 46.7476 240.958 475.994
300 0 53.0572 10.7054 568 46.7095 241.248 477.338
301 0 54.2126 11.4365 620 45.9919 241.095 477.874
302 0 54.0582 11.6541 630 46.5032 240.992 478.248
303 0 56.0631 10.8984 611 47.9067 239.596 475.247
304 0 57.1319 10.8871 622 48.0514 240.484 474.955
305 0 60.1014 11.3641 683 45.3865 239.414 472.327
306 0 63.1249 10.6772 674 45.8754 239.392 473.082
307 0 61.0485 10.5326 643 47.2582 239.849 470.229
308 0 65.1913 11.1211 725 46.2966 240.157 471.778
309 0 69.0417 11.0078 760 46.1 239.839 471.08
310 0 69.1242 10.5028 726 46.8526 239.793 466.055
311 0 74.1911 10.3651 769 46.8231 239.704 466.696
312 0 74.1817 10.7709 799 45.796 240.428 465.359
313 1 37.0097 9.02467 334 45.4611 239.225 484.56
314 0 37.1457 10.3377 384 45.224 238.82 484.63
315 0 36.0358 10.6006 382 44.5995 239.827 484.332
316 0 38.0407 10.1996 388 44.8557 239.402 483.505
317 0 41.1057 9.68234 398 43.5653 239.628 483.724
318 0 40.1792 10.1047 406 44.1773 240.298 484.84
319 0 42.2615 9.8908 418 45.0861 238.952 482.292
320 0 46.057 9.2494 426 46.6526 238.587 480.352
321 0 44.1825 10.7056 473 46.0296 238.886 478.611
322 0 45.1835 10.2692 464 46.8879 238.724 477.894
323 0 47.0866 10.3426 487 45.5996 238.836 479.4
324 0 49.037 10.6246 521 46.263 238.906 476.253
325 0 54.1131 10.4411 565 45.9522 238.48 476.972
326 0 56.028 10.2984 577 46.7487 238.43 475.464
327 0 55.0339 10.4481 575 47.167 237.713 475.122
328 0 56.0927 10.447 586 44.5017 238.447 474.341
329 0 57.0664 9.51524 543 33.6243 238.639 470.068
330 0 59.1992 9.62851 570 39.9509 238.695 469.512
331 0 62.1337 9.25424 575 43.52 238.694 469.414
332 0 65.0456 10.2543 667 42.2759 238.46 468.883
333 0 67.2131 10.8907 732 40.8907 239.068 467.56
334 0 67.1543 10.4387 701 43.8787 239.699 465.026
335 0 73.1177 10.1343 741 45.2632 240.059 466.565
336 1 38.0432 8.80577 335 47.7463 239.716 480.928
337 0 35.0349 9.93297 348 47.3994 240.856 480.302
338 0 39.0808 9.33963 365 48.2438 239.515 480.378
339 0 38.0695 9.64027 367 49.0409 239.537 478.738
340 0 41.0153 9.16731 376 49.0266 238.965 480.005
341 0 39.0661 9.62472 376 49.609 238.973 476.894
342 0 44.0484 9.8755 435 49.2023 238.922 478.345
343 0 45.0128 10.597 477 48.5891 239.065 476.73
344 0 46.0589 10.4214 480 49.0896 239.629 474.608
345 0 47.0573 9.73282 458 49.8253 239.882 474
346 0 51.0847 10.003 511 47.6223 240.043 474.804
347 0 51.0449 10.8924 556 48.5881 240.442 473.646
348 0 52.0863 11.1738 582 48.8677 240.663 472.823
349 0 54.0452 11.6199 628 49.0892 240.154 471.932
350 0 54.0201 10.0888 545 50.1064 240.409 468.991
351 0 58.0648 10.0922 586 48.7799 240.655 470.104
352 0 57.0908 10.387 593 47.9713 240.04 468.872
353 0 62.0409 10.2835 638 47.4843 240.35 468.566
354 0 63.0485 10.5633 666 46.7523 241.09 467.222
355 0 66.0775 10.0942 667 47.5622 240.696 464.409
356 0 66.0734 9.62565 636 47.8239 241.146 463.129
357 0 69.0957 10.5506 729 46.7791 240.527 463.754
358 0 73.0996 10.4378 763 45.3984 241.245 462.667
359 0 74.1415 10.1023 749 45.5941 241.252 462.036
360 0 75.0475 11.2462 844 44.8033 241.039 461.59
361 1 37.0552 10.3899 385 47.1091 241.291 477.927
362 0 36.0282 9.82564 354 47.9124 241.641 477.28
363 0 38.0669 10.2189 389 46.473 241.478 476.843
364 0 44.0238 10.2899 453 44.5011 241.87 478.062
365 0 42.0431 9.84704 414 46.971 242.42 477.087
366 0 44.0299 11.0152 485 46.5196 242.186 477.386
367 0 47.1885 11.3587 536 45.9888 241.513 475.836
368 0 46.1157 10.6905 493 47.9412 241.984 473.643
369 0 47.1002 11.2526 530 47.0321 243.128 473.126
370 0 49.066 10.8018 530 48.0208 242.743 472.789
371 0 50.0653 11.0456 553 48.8463 242.119 472.42
372 0 51.1175 10.29 526 50.462 243.021 468.985
373 0 53.1611 10.8162 575 50.4348 241.969 469.097
374 0 55.0909 11.6716 643 49.6299 242.596 470.614
375 0 59.141 11.2105 663 49.6516 243.205 468.867
376 0 63.1412 11.5139 727 47.9972 242.791 468.983
377 0 60.0632 10.3724 623 50.9149 241.374 466.904
378 0 64.1477 12.0191 771 48.7639 242.126 469.21
379 0 63.0522 10.9909 693 50.7489 241.551 467.496
380 0 66.1735 10.956 725 51.4166 241.15 464.906
381 0 70.1246 11.4653 804 50.755 241.138 463.374
382 0 72.0893 10.0847 727 52.4512 242.253 462.99
383 0 73.0709 10.6061 775 51.1794 241.505 463.479
384 0 74.1194 10.5775 784 51.6913 241.42 461.386
385 0 78.1279 10.4956 820 51.9037 241.95 460.11
386 0 83.1396 10.5485 877 51.52 241.171 459.493
387 0 84.1851 10.857 914 51.605 241.85 456.132
388 0 85.2814 10.3188 880 52.9068 241.261 453.498
389 1 42.034 10.7294 451 50.9357 241.769 478.576
390 0 44.0637 10.7798 475 51.2547 241.276 477.737
391 0 47.0349 10.2264 481 51.4033 241.301 476.266
392 0 50.0224 10.1355 507 51.2406 241.249 476.369
393 0 55.0484 10.5544 581 48.5387 241.422 476.434
394 0 53.038 10.6339 564 50.2943 242.5 474.541
395 0 52.0685 9.54512 497 53.6016 242.181 471.674
396 0 58.1235 10.5121 611 51.9345 241.489 473.09
397 0 57.0886 10.7552 614 52.7932 242.016 471.35
398 0 59.0994 11.1846 661 51.5688 241.522 471.896
399 0 62.2033 10.4496 650 50.7308 241.862 469.886
400 0 64.092 11.3587 728 49.7198 241.904 470.287
401 0 65.164 10.1283 660 51.6348 241.759 467.459
402 0 67.069 9.90025 664 52.3554 241.179 466.059
403 0 64.1114 10.3882 666 53.506 241.673 463.848
404 0 67.1348 10.9183 733 51.9018 241.404 463.18
405 0 71.1411 11.1469 793 51.4338 241.369 463.349
406 0 72.2343 9.89834 715 53.2839 242.657 461.256
407 0 77.112 10.4783 808 50.1782 241.796 460.115
408 0 77.1532 10.4597 807 50.6245 241.197 457.869
409 1 41.032 9.52915 391 50.4425 242.435 478.141
410 0 40.0705 9.23373 370 52.4432 242.768 475.976
411 0 40.0312 9.36769 375 52.0427 242.749 476.272
412 0 45.1211 10.9926 496 46.9415 242.554 477.796
413 0 44.055 10.0556 443 50.5508 242.991 476.045
414 0 44.0418 9.99051 440 51.5227 242.991 474.318
415 0 48.0527 10.2804 494 51.0162 242.532 473.117
416 0 53.1708 9.7986 521 50.7562 241.704 472.449
417 0 56.0434 8.63616 484 52.2066 241.19 471.622
418 0 53.0959 9.28508 493 51.7728 241.738 469.501
419 0 56.077 10.6461 597 50.0536 242.558 471.543
420 0 60.0732 10.5038 631 49.7591 242.794 470.686
421 0 57.1426 10.3076 589 50.4075 242.504 466.796
422 0 61.1119 10.2271 625 49.912 242.715 467.462
423 0 65.1911 10.0781 657 47.8676 242.597 465.868
424 0 65.2361 10.623 693 47.7157 242.427 467.012
425 0 70.0603 10.5909 742 47.1752 242.512 464.102
426 0 68.1565 9.28745 633 48.8389 241.859 462.793
427 0 71.1302 10.4878 746 47.3472 242.507 461.71
428 0 75.0342 11.5681 868 45.7972 242.627 460.735
429 0 77.0797 11.1054 856 45.889 242.265 460.21
430 0 78.1249 11.1616 872 45.8899 242.107 458.614
431 0 82.0678 11.0153 904 45.9369 242.456 458.18
432 0 83.072 10.7497 893 46.3415 242.728 455.847
433 0 86.119 10.9267 941 46.3571 242.262 453.829
434 0 88.0707 9.70811 855 47.5719 242.855 454.029
435 0 90.1729 10.6906 964 46.1587 242.904 452.363
436 1 49.017 9.58851 470 46.5447 242.904 471.387
437 0 51.021 9.81948 501 45.1178 244.072 474.026
438 0 53.0653 10.3834 551 44.6751 243.399 473.002
439 0 52.0589 10.7378 559 45.0877 242.853 471.689
440 0 53.0767 10.7203 569 44.8629 243.302 470.663
441 0 57.0949 10.4037 594 45.0741 242.734 468.298
442 0 57.1294 10.6075 606 45.231 242.254 468.21
443 0 59.1857 10.5431 624 45.1683 242.304 468.917
444 0 63.2117 11.5959 733 43.8854 242.733 468.729
445 0 62.0818 11.6942 726 44.8595 242.503 466.198
446 0 65.1665 12.6752 826 43.5073 242.356 463.144
447 0 68.1624 13.057 890 41.4764 242.804 465.789
448 0 70.0733 11.5308 808 43.6448 242.165 465.406
449 0 70.2743 11.8535 833 43.6591 242.304 464.241
450 0 76.2365 11.8316 902 43.6452 241.826 464.094
451 0 73.2347 10.3503 758 46.4314 242.156 460.153
452 0 75.2507 10.7906 812 46.0037 242.501 458.66
453 0 77.1582 11.4311 882 45.288 241.592 459.448
454 0 80.2443 11.0787 889 46.9843 241.399 457.106
455 0 78.253 10.9133 854 46.1874 241.954 454.285
456 0 82.1844 11.5594 950 44.9853 242.004 456.968
457 0 84.3155 10.2235 862 47.2459 242.442 452.502
458 0 86.2941 10.7423 927 47.1985 242.069 451.506
459 0 91.2155 11.3796 1038 47.1069 241.024 449.803
460 1 136.799 10.2047 1396 42.3238 240.726 461.606
461 1 96.1892 11.4254 1099 46.5323 241.283 454.502
462 1 50.0778 10.7433 538 47.1914 241.234 477.08
463 0 50.0575 10.6478 533 47.3302 241.493 478.066
464 0 46.0686 9.61608 443 50.6366 241.375 473.865
465 0 51.0379 10.1297 517 49.735 241.48 474.176
466 0 54.0203 11.1069 600 48.7 242.098 475.237
467 0 52.0332 9.99362 520 49.8365 241.352 472.362
468 0 51.0779 11.2377 574 49.7195 241.166 472.364
469 0 55.0946 10.8359 597 50.1374 241.623 470.412
470 0 56.0785 11.1807 627 50.3509 241.018 470.686
471 0 59.1428 11.1763 661 50.0787 241.165 467.992
472 0 61.0386 11.9596 730 48.8781 240.334 469.977
473 0 60.0551 10.8234 650 49.0154 240.374 465.14
474 0 62.0909 11.9341 741 48.6005 239.521 466.555
475 0 63.141 11.6248 734 49.4646 240.789 467.217
476 0 68.0444 12.6976 864 47.8646 240.825 467.737
477 0 70.0415 11.793 826 49.4213 240.538 464.294
478 0 70.1388 11.9192 836 49.0861 240.9 464.658
479 0 75.2415 13.9551 1050 46.0819 241.022 465.25
480 0 74.0853 11.9457 885 49.0746 240.955 463.22
481 0 77.1232 11.8382 913 48.3658 241.539 459.539
482 0 79.1465 11.8641 939 48.4931 240.84 460.696
483 0 81.1029 11.4546 929 49.4467 240.358 457.756
484 0 84.055 11.4687 964 48.888 240.113 456.54
485 0 89.1405 12.0035 1070 48.3617 240.074 456.536
486 0 91.0801 11.4515 1043 47.7296 239.467 454.603
487 1 45.0564 9.94308 448 49.3683 239.009 478.208
488 0 51.07 11.6703 596 47.6594 239.851 480.312
489 0 48.1268 10.4723 504 51.0337 239.891 475.76
490 0 50.0144 11.0968 555 50.5495 239.362 475.121
491 0 51.0273 11.4056 582 50.3093 240.043 473.77
492 0 54.0758 12.2606 663 47.8778 239.62 472.588
493 0 55.0621 11.1329 613 50.7896 239.328 470.036
494 0 59.0391 12.263 724 49.3163 239.597 471.652
495 0 58.0838 11.5178 669 51.2795 239.849 469.834
496 0 61.085 11.0993 678 52.1814 239.972 467.177
497 0 66.0415 12.2801 811 50.233 239.349 468.642
498 0 67.1143 11.2346 754 51.5 239.064 465.581
499 0 64.0768 11.5955 743 51.4145 239.292 463.218
500 0 66.1144 11.5255 762 51.0486 239.406 462.591
501 0 72.1717 12.6642 914 48.698 239.872 464.674
502 0 74.107 13.2241 980 48.298 239.997 461.166
503 0 77.1927 11.97 924 49.2316 239.724 460.631
504 0 77.0949 11.8685 915 50.1224 240.099 458.516
505 0 82.0925 13.5579 1113 48.3639 240.296 459.463
506 0 86.1293 12.6438 1089 48.5161 240.319 458.407
507 0 86.0615 12.2006 1050 50.0486 239.838 455.79
508 1 40.0473 9.43883 378 52.2593 241.042 477.876
509 0 41.0674 11.4933 472 50.8093 240.462 478.566
510 0 44.0257 11.6977 515 50.1709 240.272 479.126
511 0 42.0963 10.1434 427 54.2482 240.244 476.255
512 0 43.0184 11.2045 482 53.832 240.124 475.842
513 0 46.1388 10.5118 485 53.7155 240.111 472.948
514 0 46.0211 10.3431 476 54.1702 240.601 472.729
515 0 47.011 10.7847 507 53.7791 240.74 472.178
516 0 48.0487 9.84418 473 54.1416 240.249 468.425
517 0 47.0297 10.6741 502 53.4323 240.163 470.743
518 0 54.0636 11.8194 639 51.1847 240.13 470.989
519 0 50.079 10.763 539 54.0111 240.499 469.855
520 0 59.0341 12.281 725 49.851 240.101 471.193
521 0 58.0454 10.6296 617 51.7877 240.804 468.407
522 0 59.0686 10.8518 641 50.0328 240.612 465.52
523 0 63.0637 11.6707 736 49.9443 240.192 462.44
524 0 64.1227 11.1505 715 50.1287 240.506 462.52
525 0 66.0699 11.8814 785 50.0917 240.874 461.252
526 0 71.1229 12.3308 877 48.1494 241.244 462.553
527 0 74.172 12.8755 955 48.355 241.906 461.301
528 0 72.2049 10.9272 789 51.4575 241.3 457.627
529 0 74.1452 11.6258 862 51.9269 240.978 457.068
530 0 82.0447 11.9935 984 50.4238 241.318 457.64
531 0 78.0584 10.7996 843 53.1601 242.325 455.568
532 0 80.2049 11.0342 885 53.7243 242.253 454.337
533 0 85.12 11.008 937 53.1174 241.93 453.481
534 1 43.079 10.3995 448 50.1429 241.886 474.799
535 0 43.0535 9.59271 413 50.9903 241.765 475.293
536 0 41.0358 10.3081 423 51.4988 241.858 474.411
537 0 47.0359 10.5877 498 51.0402 242.494 472.675
538 0 49.0339 10.0339 492 52.1077 241.514 471.165
539 0 51.0345 11.2865 576 51.6562 241.325 471.505
540 0 56.0266 11.2268 629 51.0715 241.808 473.787
541 0 50.0097 9.25821 463 55.5832 241.132 468.497
542 0 56.0765 11.306 634 51.9574 241.467 471.08
543 0 58.0903 11.1034 645 50.8589 241.498 469.093
544 0 61.0404 9.89509 604 52.3394 241.55 467.51
545 0 64.1347 10.1505 651 52.6114 241.539 467.539
546 0 65.0474 10.9459 712 52.3778 240.91 467.958
547 0 67.1159 10.5042 705 52.5532 241.05 468.884
548 0 72.1436 11.4771 828 49.3587 240.977 468.366
549 0 71.1711 10.2008 726 57.0716 241.711 464.344
550 0 72.2248 10.9658 792 56.5909 241.967 463.692
551 0 72.0975 9.48715 684 59.4605 241.173 459.541
552 0 75.1503 9.5675 719 59.7357 240.693 458.744
553 0 77.0843 9.88528 762 60.0879 240.736 457.289
554 0 83.1101 10.8651 903 57.8317 240.553 459.101
555 1 45.0754 10.6932 482 54.0934 241.237 479.353
556 0 43.0474 9.71022 418 56.4426 241.208 475.263
557 0 42.0592 8.93977 376 58.0106 241.218 474.077
558 0 44.0219 9.01824 397 58.7456 240.768 471.935
559 0 51.0554 9.34279 477 59.2998 240.287 471.503
560 0 47.0953 9.61879 453 60.1082 240.208 470.932
561 0 52.1241 8.9402 466 60.5129 239.833 469.21
562 0 56.0238 9.44241 529 58.3459 239.794 468.529
563 0 56.0899 10.3406 580 56.1328 240.829 469.888
564 0 59.1128 10.37 613 55.3295 240.48 467.573
565 0 58.0886 9.3478 543 55.6004 240.341 464.681
566 0 60.1142 9.41542 566 55.7173 239.776 463.329
567 0 65.1903 9.01974 588 56.318 240.012 464.556
568 0 66.1102 9.51441 629 55.3005 240.186 462.383
569 0 64.1064 8.57949 550 55.4873 240.18 461.687
570 0 68.094 9.70717 661 55.7065 240.644 461.711
571 0 69.1272 9.46081 654 56.2446 240.202 459.327
572 0 74.1784 9.36931 695 55.8504 240.537 458.544
573 0 79.1911 9.14244 724 56.145 239.96 457.128
574 0 77.1545 9.12455 704 57.0241 240.341 456.964
575 0 82.1195 9.15739 752 56.4601 240.777 453.415
576 0 90.2308 11.9139 1075 52.5851 240.958 457.748
577 1 39.034 9.60701 375 55.9627 240.296 474.92
578 0 41.0572 9.10925 374 57.0561 241.455 472.861
579 0 49.1744 10.6763 525 53.4343 240.88 476.488
580 0 47.1294 8.82676 416 56.1971 241.221 472.978
581 0 54.0512 10.8971 589 53.0509 241.019 474.45
582 0 50.0413 8.9726 449 57.2784 241.719 470.991
583 0 55.0679 11.9307 657 52.1766 241.403 474.256
584 0 57.1983 11.6962 669 50.0942 241.114 472.638
585 0 51.1437 9.40488 481 54.3077 241.948 465.915
586 0 60.0861 11.4003 685 50.2467 241.737 470.13
587 0 57.045 9.15067 522 54.8199 241.155 464.59
588 0 64.1559 11.2227 720 51.8278 242.065 467.725
589 0 65.0568 11.5591 752 50.988 241.914 466.755
590 0 63.0968 9.09713 574 55.1916 241.598 461.364
591 0 69.1915 11.909 824 50.9308 241.277 464.875
592 0 66.2334 9.6477 639 56.061 241.623 458.146
593 0 75.2299 11.405 858 52.6037 241.796 462.268
594 0 76.2254 12.2663 935 51.5123 241.237 461.64
595 1 33.0361 8.02152 265 57.717 241.77 474.947
596 0 38.1132 8.60594 328 56.1829 241.695 475.476
597 0 42.0325 11.1104 467 52.5011 242.381 477.398
598 0 40.0621 8.18729 328 56.2591 242.134 474.229
599 0 43.0294 9.22624 397 56.3577 241.728 473.151
600 0 43.0422 9.3629 403 56.4814 241.243 472.928
601 0 48.0464 11.364 546 52.5659 241.568 473.764
602 0 45.0312 10.1263 456 55.6053 241.507 472.917
603 0 52.108 11.0348 575 52.9339 241.805 473.123
604 0 46.0429 9.23051 425 56.8094 242.146 469.158
605 0 54.0494 11.4155 617 54.0583 241.972 471.541
606 0 51.0558 9.61693 491 58.1018 241.287 466.527
607 0 56.0784 10.414 584 54.8116 242.091 468.699
608 0 59.0789 12.2379 723 51.7234 242.802 469.495
609 0 57.1339 9.81903 561 56.3975 242.602 464.166
610 0 61.0695 10.267 627 54.2695 242.397 462.856
611 0 62.1105 10.6262 660 53.7712 241.724 464.088
612 0 60.0434 9.52644 572 56.2797 241.388 459.701
613 0 61.1611 9.27059 567 55.8977 242.762 457.325
614 0 65.1218 9.93523 647 54.1159 242.128 459.674
615 0 67.1023 9.50787 638 54.0878 241.298 456.773
616 1 37.0039 11.3501 420 49.681 242.567 478.069
617 0 35.0065 8.8555 310 55.3742 242.597 474.635
618 0 32.0213 8.65049 277 54.4513 242.91 474.397
619 0 39.0496 9.85927 385 51.7091 242.322 474.242
620 0 38.0398 9.93696 378 53.0265 241.849 473.058
621 0 43.0616 11.1933 482 50.4544 241.429 474.654
622 0 41.0449 9.30689 382 52.1963 241.44 472.565
623 0 41.0339 10.0892 414 52.4734 241.848 472.357
624 0 46.0469 10.1418 467 51.8929 241.407 471.251
625 0 45.0472 10.3225 465 51.9097 241.443 472.402
626 0 46.0649 9.59515 442 52.2195 241.941 468.998
627 0 50.1551 10.0488 504 52.1786 241.53 470.161
628 0 51.0113 10.7623 549 50.7523 242.18 471.563
629 0 48.0964 9.79283 471 53.259 241.546 467.699
630 0 52.047 10.2984 536 52.6399 241.646 468.606
631 0 56.1326 9.85168 553 52.3363 240.765 467.089
632 1 109.872 10.9855 1207 35.3985 245.28 486.064
633 1 0 0 0 -nan -nan -nan
634 0 0 0 0 -nan -nan -nan
635 1 10.3088 11.7375 121 13.2562 242.157 519.785
636 1 33.0461 8.59405 284 51.6092 241.975 478.37
637 0 35.0401 9.8744 346 49.6069 241.249 480.032
638 0 34.0324 8.28623 282 50.2057 241.383 479.812
639 0 33.0481 8.71457 288 51.3715 241.069 479.656
640 0 34.0142 10.4074 354 51.4972 240.754 481.379
641 0 35.0629 10.4384 366 51.265 241.727 480.243
642 0 33.0683 10.312 341 53.7331 241.129 478.991
643 0 36.0936 10.3342 373 52.8794 241.466 480.338
644 0 38.0371 9.09638 346 54.7341 240.919 475.766
645 0 38.0474 10.7235 408 53.3358 241.311 476.652
646 0 44.0778 10.4361 460 51.7326 240.996 477.072
647 0 42.0612 10.77 453 52.3907 241.077 475.097
648 0 44.049 10.6699 470 51.8979 240.721 474.657
649 0 47.0504 10.9457 515 51.1184 240.654 474.417
650 0 48.0941 11.4775 552 52 240.342 473.987
651 0 49.0867 10.675 524 51.3779 240.282 474.191
652 0 53.0959 11.112 590 50.7983 240.483 472.775
653 0 55.0625 10.9875 605 52.4562 240.474 471.59
654 0 57.0778 11.6332 664 51.6732 241.161 471.84
655 0 55.1159 11.1039 612 52.5408 240.158 471.582
656 0 57.181 11.5598 661 52.2466 241.045 470.242
657 0 55.0517 10.6445 586 52.9522 241.613 469.563
658 0 60.0314 10.8943 654 51.6361 240.685 469.711
659 0 66.0688 9.67174 639 53.349 240.797 465.615
660 0 69.0882 11.0583 764 51.0982 240.317 465.675
661 0 73.1069 13.9111 1017 45.706 239.727 463.384
662 0 72.165 12.7208 918 47.7734 239.993 462.065
663 0 72.0836 12.1664 877 49.8358 240.538 462.242
664 1 37.201 10.1072 376 54.0957 240.955 482.213
665 0 38.0372 10.3057 392 54.6658 239.941 481.14
666 0 43.0612 10.5664 455 52.3846 240.802 481.31
667 0 39.0378 10.9381 427 54.5667 240.609 478.934
668 0 42.0237 10.7558 452 53.042 239.938 479.031
669 0 45.0415 10.7234 483 53.8137 239.76 478.58
670 0 45.0459 11.8102 532 53.6241 240.953 477.694
671 0 48.0128 10.9971 528 53.642 239.835 478.153
672 0 47.0529 11.6677 549 53.6047 239.288 476.989
673 0 52.0517 11.8728 618 51.5518 239.175 475.927
674 0 54.0872 11.1856 605 52.9422 239.39 474.631
675 0 55.0871 11.4727 632 53.9557 239.138 473.297
676 0 55.1142 11.6848 644 54.4441 239.231 471.66
677 0 58.1104 11.5642 672 53.7143 239.882 469.177
678 0 60.0787 11.4516 688 54.0945 239.6 469.249
679 0 61.0799 12.1316 741 51.8988 239.296 468.128
680 0 64.0734 11.8926 762 51.2428 239.31 467.337
681 0 65.1366 11.7445 765 52.3242 238.92 464.341
682 0 71.0753 11.2979 803 52.2379 239.598 463.215
683 0 72.0694 12.1549 876 52.1952 239.159 464.777
684 0 73.204 12.1578 890 50.3438 239.422 459.589
685 0 78.0382 11.4047 890 50.9978 239.627 459.285
686 0 80.1488 12.4019 994 50.175 239.426 459.418
687 0 80.0573 11.8665 950 51.5253 239.933 456.836
688 0 86.2162 11.7495 1013 51.5558 239.385 456.591
689 0 85.0847 11.2476 957 53.2278 239.246 453.062
690 1 42.0326 11.3721 478 52.6381 239.751 474.787
691 0 45.0309 11.6809 526 52.3346 240.137 474.055
692 0 46.0259 12.2757 565 52.3062 239.984 473.191
693 0 51.1251 11.7946 603 52.01 239.831 472.559
694 0 48.0632 11.152 536 54.4422 240.808 469.813
695 0 50.0358 11.6916 585 54.7675 240.215 469.183
696 0 56.0261 12.0658 676 53.6331 239.72 470.479
697 0 55.0752 12.2923 677 54.9424 240.566 467.225
698 0 55.0975 11.4343 630 56.619 240.059 463.964
699 0 57.1524 12.1255 693 54.4401 240.104 467.846
700 0 64.1634 12.1097 777 53.2574 240.813 465.389
701 0 63.0743 11.6688 736 54.0476 240.194 464.576
702 0 66.1218 12.1594 804 52.3333 240.832 464.149
703 0 69.1048 13.5591 937 50.9851 240.69 462.518
704 0 70.0966 12.0263 843 52.8482 240.078 459.887
705 0 76.0286 12.0876 919 51.7671 241.637 459.715
706 0 75.1222 11.9405 897 52.2174 240.311 454.359
707 0 78.1118 11.9316 932 52.4485 240.81 454.231
708 0 80.1399 11.9541 958 51.6597 241.127 453.158
709 0 83.0737 11.9292 991 50.9758 241.516 452.779
710 0 87.2421 12.3679 1079 50.8378 240.858 450.978
711 0 91.2563 12.58 1148 50.6908 240.469 448.158
712 0 95.1917 11.8183 1125 52.0249 240.866 445.944
713 1 46.0258 11.059 509 52.7603 240.063 469.788
714 0 49.0942 10.4697 514 52.4591 241.325 469.691
715 0 49.0711 11.1879 549 52.3953 241.12 468.382
716 0 52.0182 11.6882 608 51.3289 241.084 468.628
717 0 55.0366 11.0654 609 51.9228 240.703 466.483
718 0 56.0347 12.403 695 50.6561 241.65 466.088
719 0 56.1072 10.9433 614 52.6629 241.505 463.318
720 0 58.0346 12.0445 699 52.4592 242.013 463.548
721 0 59.0322 11.4175 674 53.135 241.671 461.456
722 0 62.0414 12.0403 747 52.1432 241.6 462.248
723 0 64.0865 11.1568 715 53.1958 241.884 458.578
724 0 65.155 10.8357 706 53.0028 241.799 459.105
725 0 67.1188 11.353 762 52.3202 241.72 457.286
726 0 71.2555 11.8026 841 51.8989 241.647 458.599
727 0 77.1307 11.3573 876 52.4578 241.909 459.484
728 0 77.1476 10.9919 848 54.375 241.304 456.942
729 0 78.2626 11.8064 924 51.8907 241.28 457.787
730 0 80.1094 11.5592 926 53.2484 241.478 456.539
731 0 89.1411 11.106 990 53.9495 241.516 454.114
732 0 85.0688 11.8375 1007 54.6415 241.125 453.105
733 1 44.0389 10.8313 477 56.1258 241.415 473.883
734 0 47.0782 10.3233 486 56.9527 240.994 471.496
735 0 48.1218 10.2033 491 57.5988 241.352 471.817
736 0 47.0185 11.3572 534 56.4382 241.264 471.041
737 0 50.0621 10.5868 530 57.666 240.642 470.074
738 0 51.0343 11.0906 566 57.5618 241.035 467.853
739 0 55.0294 11.9027 655 56.7023 241.438 468.518
740 0 55.0548 11.2615 620 58.15 240.984 466.7
741 0 61.046 11.2374 686 55.2055 240.975 467.962
742 0 62.1271 11.573 719 56.9193 241.822 464.342
743 0 64.1056 11.6682 748 56.4973 242.047 463.71
744 0 65.0307 11.8867 773 56.4838 241.451 461.957
745 0 72.0995 11.2067 808 56.0025 240.911 460.704
746 0 68.1433 11.9454 814 55.7862 241.104 459.639
747 0 76.1258 11.5073 876 55.0046 241.289 459.144
748 0 77.0682 12.2748 946 54.3541 241.458 458.601
749 0 78.1693 11.5007 899 56.2536 241.58 454.517
750 0 80.1753 10.9261 876 56.9429 240.627 450.912
751 0 80.2712 11.0002 883 55.4994 241.147 451.853
752 1 43.0261 9.66855 416 56.6274 241.712 473.392
753 0 43.0784 9.14612 394 58.2259 241.81 471.561
754 0 42.0477 10.3454 435 57.3058 241.368 469.993
755 0 50.0401 10.4716 524 56.3969 242.3 469.775
756 0 45.0516 10.2549 462 58.3918 241.545 468.255
757 0 53.1341 10.7652 572 56.5769 241.851 467.836
758 0 52.0698 10.0058 521 58.4127 241.345 465.666
759 0 59.1052 11.9617 707 53.9462 241.436 468.648
760 0 58.0938 11.6536 677 55.3264 240.795 464.415
761 0 62.0882 11.4837 713 55.0884 241.986 464.847
762 0 61.0657 10.5951 647 55.6136 242.538 463.187
763 0 59.0982 10.7279 634 55.6767 241.73 461.006
764 0 64.2136 10.6052 681 55.1468 242.07 459.714
765 0 68.0705 11.6791 795 54.3031 241.336 461.153
766 0 67.0279 11.6668 782 54.8082 241.832 459.836
767 0 72.0367 11.272 812 52.1736 241.064 457.413
768 0 72.0997 10.6797 770 53.261 241.447 454.169
769 0 78.0924 11.8321 924 51.3636 241.987 456.03
770 0 79.1173 10.7056 847 52.8418 242.176 452.007
771 0 84.0814 10.7277 902 52.98 241.841 451.425
772 0 84.0852 10.8343 911 53.7925 241.906 448.721
773 1 44.0702 9.41679 415 52.3663 243.01 473.294
774 0 44.0567 9.03381 398 52.8668 242.543 471.864
775 0 47.0178 9.42196 443 52.7607 242.28 470.88
776 0 46.0782 9.766 450 53.0378 242.884 470.66
777 0 47.0459 9.69265 456 53.5241 242.147 468.634
778 0 49.1295 10.3604 509 53.6739 242.02 468.654
779 0 54.0911 9.81677 531 52.8908 242.062 468.853
780 0 55.0553 9.9173 546 51.8187 241.954 469.304
781 1 89.1203 10.9178 973 43.5427 241.98 475.171
782 1 59.1018 9.98278 590 52.5356 241.832 466.036
783 0 58.0988 9.50106 552 52.4601 242.107 463.687
784 0 60.0928 10.151 610 52.1098 242.143 464.264
785 0 62.1352 10.2679 638 52.1317 242.201 463.741
786 0 66.07 11.624 768 51.1549 242.348 465.27
787 0 69.0564 11.1069 767 51.9804 242.557 461.854
788 0 70.1222 10.824 759 52.0685 242.032 460.161
789 0 71.2246 10.4178 742 52.5404 242.292 460.023
790 0 72.1821 10.1272 731 53.3324 242.648 460.029
791 0 77.0974 10.169 784 53.4656 241.764 456.761
792 1 41.2186 9.87417 407 51.43 241.329 480.799
793 0 35.094 9.28934 326 55.0767 241.727 479.058
794 0 44.2386 10.0139 443 51.6637 241.549 478.797
795 0 39.0428 10.0659 393 52.7634 241.514 477.3
796 0 40.0921 10.1766 408 52.7966 241.218 476.748
797 0 44.0683 10.3703 457 52.8009 241.731 474.19
798 0 46.1782 9.20348 425 53.9153 241.158 471.972
799 0 46.1875 10.111 467 53.4604 240.953 471.45
800 0 51.0855 10.042 513 52.7992 241.415 472.187
801 0 50.1668 10.1661 510 53.1961 241.408 469.584
802 0 49.1524 10.2335 503 52.8569 240.976 467.455
803 0 54.2023 10.1472 550 52.3164 240.86 466.544
804 0 55.1382 9.21322 508 53.5197 241.346 467.161
805 0 57.1092 10.5762 604 52.6391 240.651 466.609
806 0 57.123 10.5212 601 52.9251 240.531 464.805
807 0 60.1633 11.1031 668 51.3099 240.949 464.452
808 0 61.1313 10.273 628 51.879 241.535 462.253
809 0 62.1641 9.84491 612 52.6781 241.722 460.033
810 0 67.0614 11.2285 753 50.2802 240.757 460.954
811 0 69.1312 11.0948 767 50.395 240.494 458.709
812 0 70.0735 10.4034 729 51.5967 240.391 458.578
813 0 72.0939 11.0412 796 51.1985 240.249 458.411
814 0 76.0821 10.2126 777 51.4337 241.255 456.642
815 0 79.1567 10.9656 868 50.326 241.306 454.474
816 0 78.0811 10.4763 818 50.9511 241.266 451.721
817 1 40.0145 9.74647 390 51.0513 240.831 473.6
818 0 40.0497 10.3372 414 51.2101 241.014 473.068
819 0 44.0146 10.5874 466 49.8391 241.955 474.663
820 0 39.0501 10.9091 426 51.2512 241.364 472.277
821 0 43.0244 11.2029 482 50.8817 241.604 470.654
822 0 45.0237 11.5939 522 49.7337 241.303 470.69
823 0 46.073 11.5903 534 49.3146 241.828 467.429
824 0 48.0522 11.1962 538 50.6914 241.913 468.301
825 0 52.0308 9.18687 478 52.228 242.161 466.494
826 0 52.0746 11.6371 606 51.231 241.814 466.751
827 0 52.027 11.1096 578 52.5294 242.927 465.953
828 0 55.0182 10.8873 599 52.5726 243.063 465.077
829 0 57.1307 11.605 663 51.641 242.751 465.433
830 0 59.0867 11.2546 665 52.3624 242.544 464.065
831 0 61.1615 11.0691 677 51.5007 243.046 463.459
832 0 60.0657 11.3043 679 52.4772 243.186 461.934
833 0 62.1185 11.4298 710 52.5676 243.576 461.472
834 0 63.3578 10.5749 670 54.2537 243.448 459.803
835 0 68.1135 10.1301 690 54.1101 243.481 459.159
836 0 68.055 10.8148 736 53.7799 242.8 458.959
837 0 71.1704 10.6646 759 53.2925 242.891 457.315
838 0 72.1654 10.6006 765 53.5046 242.316 457.684
839 0 72.1096 10.6088 765 53.9268 242.644 454.624
840 1 36.0303 9.51975 343 55.9534 242.857 476.306
841 0 39.0676 9.57315 374 56.0882 242.243 474.668
842 0 40.017 9.37101 375 55.464 242.904 472.837
843 0 40.053 11.1353 446 53.7332 242.726 473.498
844 0 41.0201 11.4578 470 54.5362 242.555 474.245
845 0 43.0701 11.0982 478 53.4331 242.054 471.946
846 0 45.0511 11.3871 513 53.2417 241.789 472.951
847 0 48.0388 11.3242 544 53.3015 243.04 473.257
848 0 46.0201 10.4737 482 55.0643 242.942 470.917
849 0 49.0447 10.888 534 53.9906 242.298 469.751
850 0 55.0792 10.6211 585 52.1145 241.491 470.862
851 0 54.0456 11.0092 595 52.8454 241.647 471.183
852 0 54.0697 11.0413 597 52.8141 241.467 469.466
853 0 57.1024 10.3848 593 52.7976 242.182 468.707
854 0 62.0386 11.2833 700 51.22 241.934 470.037
855 0 63.1378 10.7384 678 52.4852 240.926 466.804
856 0 65.1478 11.3588 740 50.9311 241.512 465.972
857 0 67.0359 12.8588 862 49.7448 240.934 460.148
858 0 69.0642 12.5246 865 50.037 240.43 461.254
859 0 71.1596 10.8067 769 51.5202 240.36 460.113
860 0 72.1368 10.7851 778 51.8098 241.375 458.718
861 0 74.1258 10.1179 750 52.1147 241.591 457.468
862 0 76.1772 9.97674 760 53.1184 241.699 455.918
863 0 80.1118 10.5602 846 52.9232 241.411 457.061
864 0 83.1079 11.106 923 51.9751 240.769 454.204
865 1 39.0964 9.89862 387 55.2326 240.987 476.016
866 0 39.0871 10.0545 393 55.8448 240.664 474.293
867 0 39.0538 10.0886 394 55.7081 241.332 473.043
868 0 42.0805 10.9314 460 54.2478 240.641 473.591
869 0 45.0643 10.0967 455 55.3187 240.809 472.068
870 0 44.0294 10.5157 463 55.5508 240.637 472.816
871 0 46.0754 11.0037 507 55.6982 239.801 468.961
872 0 50.0558 10.9478 548 54.4872 240.46 468.714
873 0 48.0845 10.9599 527 55.4687 241.015 468.277
874 0 55.0692 10.278 566 54.9594 241.11 466.537
875 0 54.0666 11.3749 615 54.1902 241.143 466.577
876 0 56.0311 10.637 596 55.0319 241.284 463.842
877 0 59.1942 10.3726 614 54.7948 241.143 465.075
878 0 60.0568 11.6556 700 53.4357 240.889 463.78
879 0 65.0519 9.85368 641 54.7098 241.115 461.122
880 0 63.1241 10.7249 677 53.8006 241.018 460.165
881 0 70.0685 11.3603 796 50.9422 241.411 459.946
882 0 70.162 12.3286 865 51.6532 241.519 457.676
883 0 73.0893 11.7938 862 52.0487 241.809 455.701
884 1 37.0332 10.4231 386 52.7124 242.308 477.028
885 0 36.0818 10.1713 367 55.4223 241.49 473.763
886 0 40.0872 11.1756 448 52.721 241.658 477.859
887 0 37.1517 10.0399 373 56.2547 242.399 474.067
888 0 41.1038 10.5586 434 53.7834 242.267 473.129
889 0 43.0537 11.5437 497 52.4366 242.843 473.781
890 0 44.1386 10.6483 470 53.9872 242.089 471.781
891 0 47.0417 10.9052 513 53.4639 242.02 471.187
892 0 50.0648 10.2467 513 54.3509 241.813 467.979
893 0 47.1026 11.1459 525 54.6819 242.286 468.116
894 0 52.0956 11.3445 591 52.6058 242.445 468.264
895 0 52.0813 11.7509 612 53.5196 241.938 468.716
896 0 53.0869 11.8485 629 53.2862 242.37 465.148
897 0 57.0448 11.4121 651 54.3733 242.257 465.341
898 0 59.1097 10.9119 645 54.6233 242.329 464.372
899 0 59.0328 11.1802 660 55.5758 242.52 462.352
900 0 62.0381 11.7186 727 54.5076 242.781 463.25
901 0 64.0852 11.5471 740 54.4365 241.885 460.177
902 0 64.211 11.0573 710 54.8352 242.473 459.042
903 0 68.1216 11.2299 765 53.4314 242.239 457.655
904 0 72.1202 11.1758 806 53.5831 241.603 458.203
905 0 76.0654 11.214 853 53.4818 241.783 456.381
906 0 78.2071 11.5335 902 53.2483 241.782 455.312
907 0 79.124 11.9433 945 51.0624 242.514 455.65
908 0 84.1031 10.0591 846 53.4858 242.158 455.077
909 0 83.1188 10.8399 901 52.5461 242.341 452.515
910 1 41.0536 10.06 413 53.8668 242.518 476.315
911 0 43.0381 10.9438 471 54.1253 241.518 473.911
912 0 44.066 9.82617 433 54.709 241.836 471.903
913 0 50.0279 10.9339 547 53.2943 241.826 473.026
914 0 50.0237 10.8149 541 53.7468 242.033 472.889
915 0 55.0877 11.4726 632 52.7057 241.29 471.533
916 0 60.1 12.1464 730 50.8096 240.881 471.944
917 0 55.0912 10.4917 578 54.7872 242.208 466.247
918 0 58.1854 11.2915 657 53.5525 241.597 468.172
919 0 57.0475 9.65862 551 55.3739 241.612 465.724
920 0 63.0644 12.1939 769 52.3316 241.938 466.588
921 0 64.0756 10.4252 668 55.241 241.741 463.554
922 0 66.0233 10.7538 710 54.6479 241.183 463.066
923 0 69.0906 10.7829 745 53.6765 241.636 462.064
924 0 72.1333 10.5915 764 52.8809 241.488 457.168
925 0 74.1009 10.8905 807 53.4449 241.182 457.361
926 0 76.1864 11.4587 873 53.6793 241.274 456.637
927 0 80.0429 11.2939 904 53.7434 241.336 457.48
928 0 82.1101 11.3872 935 52.7946 240.877 455.659
929 0 86.1227 11.4604 987 52.7801 241.678 453.366
930 0 87.1225 10.7091 933 53.2133 241.974 449.158
931 0 89.2325 10.3662 925 54.5416 241.091 448.122
932 0 96.1447 10.7754 1036 54.057 241.653 446.702
933 0 99.109 10.5641 1047 54.4155 242.394 445.822
934 1 50.0774 10.2841 515 53.8544 240.975 471.975
935 0 51.0888 10.2175 522 55.387 241.209 470.151
936 0 52.0805 9.73492 507 56.1499 241.732 468.917
937 0 56.0637 10.6486 597 54.8074 241.762 468.206
938 0 59.0261 11.3001 667 53.3943 241.094 468.781
939 0 65.0816 11.8159 769 50.2536 241.827 467.391
940 0 67.1328 12.2146 820 50.128 241.255 465.871
941 0 67.0976 12.4744 837 50.3752 241.673 467.256
942 0 68.0907 11.4406 779 52.0347 241.37 462.544
943 0 71.1521 11.6652 830 51.353 240.761 462.499
944 0 72.1177 11.814 852 50.1185 241.79 462.541
945 0 77.1776 11.8428 914 49.0263 241.57 460.725
946 0 82.1714 12.8634 1057 46.859 241.799 459.754
947 0 76.0911 10.6188 808 51.0631 241.387 454.04
948 0 83.1459 12.5803 1046 49.1185 241.2 457.199
949 0 83.0795 11.2663 936 50.9338 241.42 453.21
950 0 84.0659 10.694 899 52.3949 241.188 450.046
951 0 91.1215 10.8207 986 51.1389 241.528 448.264
952 0 93.0954 11.1713 1040 50.5317 241.506 448.722
953 0 101.086 11.5248 1165 49.3742 241.905 448.773
954 1 42.024 10.1846 428 52.993 241.372 470.278
955 0 45.0837 9.49345 428 53.3014 241.605 468.53
956 0 51.0299 10.0529 513 51.6608 241.743 469.246
957 0 54.0654 11.0422 597 49.7052 241.184 467.811
958 0 58.0755 12.0705 701 48.8388 241.01 466.914
959 0 55.0584 10.6614 587 50.6133 241.934 465.204
960 0 58.0792 11.0711 643 49.2753 241.182 462.686
961 1 93.878 12.0795 1134 40.2989 241.286 471.521
962 1 61.0846 10.8047 660 49.8773 241.839 461.635
963 0 64.1024 9.64082 618 50.9256 241.694 459.396
964 0 68.1351 10.9488 746 49.8485 240.966 459.692
965 0 73.1192 13.0335 953 47.2172 241.759 455.808
966 0 71.1376 11.2036 797 49.3927 242.137 452.748
967 0 74.1668 10.4899 778 49.0129 242.278 453.87
968 0 77.1394 10.9023 841 47.5291 242.301 450.804
969 0 79.0869 10.5454 834 47.4616 241.285 448.506
970 0 83.0434 10.2115 848 47.9953 241.789 445.874
971 0 85.1777 9.96739 849 47.8716 241.529 445.376
972 1 42.0691 9.91226 417 49.4412 241.993 467.029
973 0 45.1012 9.135 412 50.517 242.248 466.274
974 0 48.1002 9.16836 441 50.9955 241.934 464.399
975 0 51.0485 10.4998 536 49.5168 242.433 466.664
976 0 55.1611 10.6959 590 48.0186 242.029 463.895
977 0 55.1281 10.3758 572 48.8706 242.795 462.493
978 1 70.1108 11.0112 772 45.6166 242.707 458.724
979 0 70.2513 11.3165 795 47.0365 242.553 457.385
980 0 70.2875 9.88796 695 47.3899 242.275 455.14
981 0 76.1774 10.5674 805 47.7503 242.564 454.858
982 0 77.1459 10.7329 828 48.2234 241.868 454.482
983 0 77.2677 10.043 776 49.4549 241.787 451.764
984 1 128.005 12.7886 1637 38.5278 241.745 466.878
985 1 86.1894 11.0222 950 47.1274 242.238 451.965
986 0 91.2991 10.1644 928 46.8545 242.069 450.066
987 0 90.2946 10.1667 918 224.842 241.047 449.427
988 1 50.0272 10.4943 525 45.9143 242.139 472.819
989 0 47.2579 11.2785 533 44.97 241.842 470.966
990 0 49.1457 11.1912 550 43.4727 242.018 470.358
991 0 50.1059 10.1984 511 44.8591 242.096 468.898
992 0 54.1415 10.6203 575 45.0243 241.44 468.43
993 0 53.0497 11.6495 618 45.4709 241.714 466.948
994 0 60.1446 10.7075 644 45.0606 241.52 468.508
995 0 59.0999 11.0998 656 43.3841 241.428 466.986
996 0 61.0618 13.1015 800 42.3462 241.539 461.345
997 0 63.1641 11.9372 754 44.2586 241.406 459.954
998 0 64.0211 11.8399 758 44.0264 241.065 460.302
999 0 65.2151 10.3044 672 44.7783 241.004 458.887
1000 0 71.1266 10.5024 747 43.1004 240.916 459.853
1001 0 71.1992 11.0816 789 42.7098 241.317 456.982
1002 0 78.3611 10.9748 860 42.0837 241.158 458.245
1003 0 82.1815 12.8009 1052 40.6112 240.289 460.029
1004 0 80.195 11.2476 902 42.4956 240.399 454.737
1005 0 82.2938 11.2645 927 42.0442 240.844 453.661
1006 0 89.2708 11.762 1050 41.8648 240.09 453.947
1007 0 90.5233 11.4777 1039 43.5361 240.203 449.903
1008 0 93.5733 11.2105 1049 43.7398 240.416 449.199
1009 1 149.931 16.0074 2400 31.7342 240.27 466.287
1010 1 100.239 11.1333 1116 43.3835 240.297 445.6
1011 1 52.17 10.0441 524 45.6355 239.578 469.966
1012 0 54.1445 10.9152 591 45.9222 239.682 469.733
1013 0 55.1591 10.6419 587 45.4617 239.935 468.315
1014 0 58.1291 11.4057 663 43.1237 240.116 469.728
1015 0 57.0957 10.8765 621 45.2641 240.341 467.464
1016 0 63.0912 10.9682 692 45.3757 240.493 467.967
1017 0 63.1392 11.1975 707 44.9533 240.27 466.115
1018 0 66.1289 11.3264 749 45.1429 239.255 465.637
1019 0 65.2673 10.9856 717 45.523 238.763 462.937
1020 0 72.3208 10.5779 765 46.468 239.928 460.307
1021 0 72.3126 11.6715 844 46.6007 239.079 459.692
1022 0 73.2522 11.3171 829 47.7262 239.478 457.052
1023 1 116.25 13.1699 1531 38.6055 240.521 470.434
1024 1 80.2236 11.7173 940 46.9638 240.051 456.967
1025 0 83.1588 12.6505 1052 44.1939 240.148 455.399
1026 0 84.1781 11.939 1005 44.9721 240.896 454.806
1027 0 90.2147 11.6167 1048 45.1393 240.152 454.225
1028 0 91.4997 11.9891 1097 45.6263 240.259 453.772
1029 0 92.278 12.1156 1118 45.8184 239.884 448.93
1030 0 92.1574 11.9795 1104 46.6893 239.476 447.049
1031 0 96.3324 11.8652 1143 46.3963 240.535 448.378
1032 0 99.2325 12.123 1203 46.7914 240.264 446.616
1033 0 105.288 13.031 1372 44.3768 239.785 445.976
1034 0 109.171 11.6148 1268 46.3636 239.231 442.14
1035 0 109.199 12.2987 1343 46.554 239.517 442.395
1036 0 116.473 13.0846 1524 45.8084 239.603 441.875
1037 1 59.1965 11.2169 664 49.1069 240 467.331
1038 0 63.1232 11.4696 724 47.9613 239.971 467.228
1039 0 64.2012 10.9188 701 48.6277 239.909 465.756
1040 0 64.2907 11.6813 751 49.0959 240.313 462.573
1041 0 66.068 12.3206 814 48.484 240.117 461.686
1042 0 68.1012 11.292 769 48.5579 239.718 460.186
1043 0 74.1251 11.3052 838 48.1694 239.416 458.28
1044 0 78.0921 12.7798 998 45.6383 240.389 459.84
1045 0 78.1324 11.9669 935 48.0995 240.209 457.75
1046 0 78.1256 12.3903 968 48.9514 240.336 457.422
1047 0 81.0457 12.129 983 50.4741 239.076 453.92
1048 0 84.116 11.7576 989 50.0243 238.856 454.436
1049 0 87.1591 11.7945 1028 49.7607 238.797 450.513
1050 0 93.1614 12.1832 1135 48.259 239.334 450.6
1051 0 93.1199 12.4785 1162 48.1334 239.762 448.883
1052 0 98.2503 13.3231 1309 46.5921 239.904 449.972
1053 0 102.057 11.8267 1207 48.8956 240.346 445.976
1054 0 105.111 12.2156 1284 49.0241 239.914 442.48
1055 0 106.067 12.2281 1297 50.1557 239.754 440.542
1056 0 111.141 11.7148 1302 50.1229 241.05 439.729
1057 0 116.156 11.3468 1318 50.9947 240.659 435.695
1058 0 118.256 12.5322 1482 50.2888 240.872 436.585
1059 0 120.084 11.4503 1375 51.6058 240.306 432.273
1060 0 126.156 12.3974 1564 51.0518 240.756 431.442
1061 1 170.869 18.5815 3175 38.2101 240.567 451.329
1062 1 135.23 11.669 1578 50.9924 240.674 426.614
1063 0 137.157 11.4613 1572 51.9574 240.642 421.607
1064 0 142.244 11.7966 1678 50.9094 241.024 422.628
1065 0 148.301 11.3553 1684 50.946 240.452 419.24
1066 0 153.166 12.0458 1845 49.9035 240.396 418.685
1067 0 156.326 11.5592 1807 51.6458 240.707 411.803
1068 0 163.36 11.3124 1848 52.0097 240.137 412.508
1069 0 169.212 10.673 1806 52.5471 240.518 407.349
1070 0 173.187 11.7676 2038 50.131 240.62 405.514
1071 0 182.207 11.4595 2088 50.386 240.265 404.215
1072 0 184.18 10.8263 1994 52.7904 240.443 397.678
1073 0 191.343 11.273 2157 52.6184 241.25 395.384
1074 1 75.1306 10.941 822 57.0657 241.286 454.493
1075 0 79.1169 10.6551 843 55.6145 240.741 454.172
1076 0 81.1119 10.9848 891 56.982 240.672 451.969
1077 0 86.2509 10.5622 911 56.4731 241.2 448.587
1078 0 88.0849 11.0348 972 58.0422 241.118 446.682
1079 0 88.2558 10.8775 960 58.6417 241.415 445.003
1080 0 93.0976 11.0744 1031 59.0776 241.325 444.694
1081 0 96.2048 10.8103 1040 59.1942 241.279 442.43
1082 1 34.0453 9.63421 328 60.7012 240.692 472.747
1083 0 36.0216 11.0767 399 58.9724 241.531 472.331
1084 0 40.0372 9.59108 384 59.5755 241.276 471.497
1085 0 40.1128 11.2932 453 57.9625 242.547 473.349
1086 0 44.0113 10.0883 444 58.5991 241.694 471.164
1087 0 43.1472 11.0784 478 54.4895 241.847 469.711
1088 0 44.0203 11.0858 488 55.6701 242.045 469.709
1089 0 49.1374 10.6233 522 57.4004 242.766 469.033
1090 0 51.2305 11.3994 584 54.8562 242.877 469.325
1091 0 51.0602 10.7716 550 56.2582 241.889 468.551
1092 0 52.0296 10.7247 558 55.3118 242.154 464.916
1093 0 53.0447 10.6514 565 55.5451 241.931 463.894
1094 0 57.1303 10.3798 593 55.145 241.681 463.282
1095 0 59.0697 11.2579 665 54.9504 241.495 463.253
1096 0 59.1995 10.9967 651 55.6329 241.458 461.76
1097 0 63.1241 10.6615 673 55.6894 241.743 461.528
1098 0 65.0691 10.9576 713 55.2412 240.842 459.933
1099 0 67.0985 10.7901 724 54.5401 240.507 459.506
1100 0 70.1852 10.6148 745 53.494 240.652 458.361
1101 0 74.1745 11.8774 881 52.8944 240.549 456.163
1102 1 199.299 10.2108 2035 54.8521 240.368 390.668
1103 1 257.229 15.492 3985 43.1849 240.239 427.173
1104 1 81.2239 11.0805 900 52.9322 241.294 455.893
1105 0 86.2336 10.0773 869 53.2888 241.3 450.674
1106 0 87.0968 11.5044 1002 51.4551 240.372 449.953
1107 0 90.1787 10.5236 949 51.5595 240.763 448.014
1108 0 95.4313 10.6045 1012 51.0603 240.098 446.884
1109 0 96.1681 10.7728 1036 50.693 241.108 446.388
1110 0 101.16 10.093 1021 51.9579 239.685 444.281
1111 1 39.0535 11.0873 433 53.1478 240.046 476.273
1112 0 39.1245 10.4794 410 54.4463 240.19 474.371
1113 0 43.0616 10.9146 470 53.0277 239.419 474.894
1114 0 45.0466 10.589 477 52.3291 240.046 473.275
1115 0 46.1137 10.8428 500 50.942 240.536 474.004
1116 0 49.2962 10.5891 522 50.2874 240.504 475.222
1117 0 49.0603 10.5788 519 51.6031 240.678 472.634
1118 0 53.2812 10.8293 577 49.9289 240.107 472.123
1119 0 53.1844 10.6234 565 46.8903 240.101 470.127
1120 0 57.143 9.99248 571 47.9264 240.336 470.758
1121 0 56.1368 10.5991 595 47.9395 239.926 470.743
1122 0 58.1714 10.0049 582 49.1701 239.314 465.297
1123 0 62.2757 10.8871 678 48.8407 239.167 467.891
1124 0 65.2196 9.95099 649 49.9861 239.724 463.673
1125 0 72.4186 13.2425 959 45.9854 239.489 467.446
1126 0 66.4129 10.2841 683 48.7716 239.66 460.856
1127 0 73.0768 10.4274 762 46.9843 239.543 461.801
1128 0 78.7032 12.3375 971 45.9773 240.454 462.815
1129 0 74.168 9.99083 741 48.3657 240.313 458.197
1130 0 83.4032 11.7142 977 46.4145 240.446 459.56
1131 1 35.1431 9.61781 338 50.642 240.704 478.556
1132 0 35.0793 9.89187 347 51.9885 240.075 479.305
1133 0 35.0853 10.4887 368 52.269 240.622 478.253
1134 0 41.7211 11.2892 471 50.8302 240.692 478.73
1135 0 41.093 11.1454 458 51.0568 239.906 477.293
1136 0 40.0318 10.5416 422 50.5071 239.953 475.291
1137 0 45.1827 9.62759 435 48.669 240.97 475.014
1138 0 45.0377 11.2572 507 48.5957 240.047 472.99
1139 1 105.355 9.35882 986 48.8164 241.157 439.253
1140 1 57.0676 9.65521 551 47.8457 241.071 411.739
1141 0 50.3057 11.3108 569 44.1336 240.267 471.218
1142 0 51.104 11.0754 566 44.8922 240.539 469.163
1143 0 55.2278 11.4073 630 45.1984 240.829 468.302
1144 0 58.373 10.6556 622 46.0482 240.669 466.658
1145 0 59.2715 11.7763 698 46.4083 241.017 465.264
1146 0 58.1733 11.2423 654 47.5306 240.387 464.102
1147 0 65.2422 10.6373 694 46.9135 240.865 465.842
1148 0 62.3619 11.3691 709 47.2906 241.159 462.296
1149 0 66.2379 11.8361 784 46.5969 241.2 459.922
1150 1 120.884 12.5988 1523 37.241 242.42 475.473
1151 1 74.1461 11.8954 882 48.585 241.76 460.868
1152 0 77.2815 12.4221 960 49.0823 241.349 459.249
1153 0 78.3811 12.3116 965 49.372 241.418 457.107
1154 0 79.194 11.9706 948 51.4156 240.93 454.775
1155 0 83.1955 11.9718 996 51.3223 241.835 454.937
1156 0 83.2134 11.7409 977 52.1853 241.469 451.799
1157 0 88.3392 11.9879 1059 51.6497 241.921 451.5
1158 0 93.4197 12.856 1201 50.2581 241.574 451.015
1159 0 93.3163 12.0879 1128 50.3901 241.038 448.046
1160 0 96.3687 12.639 1218 50.1823 241.222 448.423
1161 0 102.324 11.2779 1154 51.1343 241.941 443.969
1162 0 100.224 10.7061 1073 50.0904 242.263 440.862
1163 0 107.422 10.5658 1135 49.548 242.039 441.426
1164 1 57.2545 10.6717 611 53.5957 242.345 464.545
1165 0 58.1784 10.4506 608 53.1875 242.602 462.857
1166 0 60.1768 11.2668 678 53.5015 242.212 462.835
1167 0 63.1398 11.0073 695 53.4086 241.999 461.279
1168 0 63.1368 11.8314 747 53.6212 242.438 460.027
1169 0 69.1818 10.9422 757 54.1915 242.186 459.81
1170 0 68.2053 11.524 786 52.4249 242.426 458.574
1171 0 71.1208 11.6281 827 53.1403 242.684 457.827
1172 0 73.1549 11.4415 837 51.1219 242.664 456.03
1173 0 74.1073 11.5778 858 51.4942 242.436 454.416
1174 0 76.0534 11.1238 846 53.1513 242.492 453.233
1175 0 82.1411 12.0524 990 52.796 242.768 453.687
1176 0 86.4108 11.8041 1020 53.7471 242.013 451.628
1177 0 87.2326 12.4724 1088 54.3355 242.6 450.489
1178 0 88.2473 11.8984 1050 55.4429 242.443 449.054
1179 0 92.0962 11.8897 1095 51.8968 242.83 447.393
1180 0 94.2223 11.7806 1110 52.9928 242.297 445.678
1181 0 97.3225 11.3232 1102 53.9174 242.906 443.417
1182 0 103.285 12.3832 1279 53.1009 243.156 444.905
1183 0 106.164 11.7365 1246 54.4181 242.148 442.056
1184 0 110.297 11.5325 1272 54.658 242.614 439.887
1185 1 291.792 19.2603 5620 36.2203 241.914 429.051
1186 1 115.267 11.3128 1304 53.5376 241.751 435.24
1187 0 120.481 11.811 1423 53.1448 241.83 434.991
1188 0 124.396 11.7849 1466 52.8179 241.705 434.153
1189 0 132.25 11.1456 1474 53.1079 241.874 432.849
1190 1 50.2323 10.8894 547 57.4753 241.534 467.865
1191 0 54.18 11.1111 602 52.6312 242.005 468.053
1192 0 55.2139 11.2291 620 54.2339 241.145 465.869
1193 0 58.1949 11.4787 668 54.0269 240.99 467.421
1194 0 60.2078 11.5101 693 54.531 241.506 466.274
1195 0 62.2905 11.5587 720 54.4736 240.669 465.579
1196 0 62.146 11.4086 709 54.4344 241.234 465.425
1197 0 67.2283 10.7693 724 56.3066 240.656 462.867
1198 0 70.1844 11.6408 817 56.4382 240.367 464.299
1199 0 70.2822 11.5819 814 56.6622 240.425 461.348
1200 0 72.3081 12.1425 878 57.8724 240.765 459.831
1201 0 73.3755 12.4565 914 54.5438 240.204 456.286
1202 0 80.2967 12.1051 972 54.2099 239.988 456.916
1203 0 79.1391 11.9663 947 55.2249 240.95 454.124
1204 0 82.1063 12.0454 989 55.7492 240.427 453.843
1205 0 85.2899 12.3579 1054 54.4222 241.11 455.304
1206 0 88.257 12.3163 1087 54.8776 241.524 453.465
1207 0 89.2777 12.0523 1076 55.6125 240.956 448.383
1208 0 93.2741 12.3293 1150 53.3791 241.127 448.323
1209 0 95.1838 13.1535 1252 52.0184 240.813 445.507
1210 0 98.2079 12.107 1189 53.3995 240.688 442.902
1211 0 104.355 11.6238 1213 52.2622 241.115 444.137
1212 0 104.439 11.9974 1253 53.9872 240.883 440.889
1213 0 109.197 13.0223 1422 52.7173 241.001 442.271
1214 0 110.201 12.1596 1340 54.5112 241.031 439.483
1215 0 116.454 12.2796 1430 53.872 240.789 438.014
1216 0 118.273 11.9639 1415 52.6643 240.484 435.297
1217 1 175.388 17.6295 3092 38.7131 240.769 455.387
1218 1 125.187 12.6131 1579 52.6567 241.392 431.954
1219 0 129.234 12.1485 1570 53.2822 240.975 429.308
1220 0 138.41 12.1306 1679 52.4973 241.484 428.016
1221 0 139.476 12.4824 1741 50.4721 241.542 424.706
1222 1 58.2665 10.3147 601 54.2745 241.451 467.413
1223 0 55.3199 11.1714 618 54.6602 241.484 465.555
1224 0 60.2706 11.5645 697 55.8551 241.242 465.067
1225 0 60.2063 11.8094 711 56.2138 240.996 462.447
1226 0 62.2346 10.9425 681 57.6226 241.535 463.131
1227 0 68.6045 11.3987 782 54.8069 241.205 464.761
1228 0 66.1493 11.2322 743 54.4926 241.537 460.233
1229 0 71.557 12.0184 860 53.0465 242.008 461.498
1230 0 70.1463 11.2194 787 55.4003 241.863 456.414
1231 0 74.4493 11.8067 879 54.9283 242.077 455.739
1232 0 74.4416 11.4855 855 56.0339 241.685 454.87
1233 0 79.3428 11.5448 916 57.0306 241.796 453.781
1234 0 80.2324 11.18 897 55.4281 242.514 452.87
1235 0 84.4062 12.3095 1039 52.7834 242.392 452.324
1236 0 86.2551 11.1877 965 54.7057 242.272 449.836
1237 0 91.1977 11.349 1035 54.9594 241.718 448.667
1238 0 90.3468 10.9688 991 55.4117 242.006 447.091
1239 0 96.3527 11.1777 1077 56.2015 241.5 445.119
1240 0 98.3133 11.5752 1138 56.0677 241.911 445.228
1241 0 100.276 10.6207 1065 56.5681 242.42 442.364
1242 0 105.341 10.3379 1089 56.3985 241.793 439.035
1243 0 108.141 10.9116 1180 53.1932 242.105 439.742
1244 0 113.229 11.7726 1333 53.4659 241.545 438.659
1245 0 116.295 11.3505 1320 54.3318 241.899 436.028
1246 1 99.8728 11.2844 1127 45.0408 242.523 476.496
1247 1 59.2589 10.4457 619 55.5315 242.96 466.158
1248 0 59.0945 11.4393 676 54.1982 242.95 464.494
1249 0 59.0723 11.5621 683 54.3206 243.091 463.597
1250 0 62.0778 10.9862 682 53.4135 242.894 462.565
1251 0 67.1856 11.4459 769 53.6866 242.202 462.151
1252 0 70.4007 12.2158 860 52.9209 243.222 462.285
1253 0 70.1872 11.2841 792 55.0417 242.771 458.766
1254 0 71.1585 10.7225 763 56.6435 242.7 456.052
1255 0 76.2839 11.1033 847 55.7981 242.673 454.706
1256 0 77.2141 11.0861 856 56.1822 242.214 452.508
1257 0 78.1719 11.0654 865 54.8092 242.289 451.392
1258 0 83.1669 10.8697 904 53.3684 242.636 450.367
1259 0 85.0861 11.459 975 52.9969 242.898 449.293
1260 0 88.3611 11.0682 978 53.0644 242.972 448.263
1261 0 90.297 11.0192 995 53.1096 243.338 445.397
1262 0 95.264 10.6441 1014 52.9329 243.351 441.943
1263 1 34.3449 10.3363 355 54.5014 242.761 474.482
1264 0 36.1989 9.83455 356 55.4747 242.792 474.924
1265 0 35.1331 10.9583 385 57.2961 242.551 472.74
1266 0 37.2174 11.0432 411 55.5474 242.676 473.467
1267 0 38.2527 11.0842 424 57.2005 242.608 473.005
1268 0 43.1168 10.344 446 56.6749 243.383 471.39
1269 0 41.3002 10.6053 438 59.016 242.674 467.895
1270 0 43.1216 11.2241 484 57.814 242.727 470.702
1271 0 43.1143 11.1332 480 57.65 242.244 469.792
1272 0 48.1491 10.4675 504 56.873 242.2 467.978
1273 0 44.0951 11.4979 507 58.3886 242.538 466.58
1274 0 48.1881 10.7495 518 58.6004 242.181 467.38
1275 0 54.2499 10.9493 594 56.7811 242.032 467.483
1276 0 53.2097 10.9754 584 57.5856 242.491 466.635
1277 0 53.3445 11.1352 594 56.931 242.727 465.128
1278 0 55.1388 11.1355 614 57.987 242.642 463.63
1279 0 57.2547 11.1257 637 58.1287 243.513 462.832
1280 0 58.1539 10.7302 624 58.3574 242.761 461.502
1281 0 63.2308 10.1849 644 57.132 243.318 460.384
1282 0 65.2882 11.6407 760 54.5592 242.445 460.307
1283 0 67.2464 10.7366 722 56.6731 242.848 460.461
1284 1 31.2242 10.857 339 58.3628 241.95 477.31
1285 0 34.4027 10.784 371 59.9973 241.935 473.507
1286 0 33.0551 10.8607 359 60.702 242.526 474.822
1287 0 36.2408 11.1752 405 60.3506 242.931 473.4
1288 0 35.1524 10.4971 369 60.2493 242.228 471.87
1289 0 35.046 11.0997 389 58.401 241.689 471.812
1290 0 38.1579 11.5572 441 59.1088 242.141 471.873
1291 0 38.0599 11.4293 435 60.3402 241.614 471.149
1292 0 39.0363 10.5287 411 61.5474 242.277 469.414
1293 0 41.0242 11.1885 459 61.6383 241.856 469.869
1294 0 46.0766 10.8081 498 61.492 242.243 469.412
1295 0 47.0316 11.269 530 62.0736 242.311 467.247
1296 0 49.0474 10.8874 534 62.0375 241.667 467.026
1297 0 46.0105 11.2583 518 63.1602 242.483 465.622
1298 0 50.0374 11.0118 551 63.1016 242.441 463.673
1299 0 51.141 11.0479 565 63.4035 242.058 463.596
1300 0 54.0569 11.3954 616 64.2808 242.385 463.86
1301 0 55.0515 10.9715 604 63.9834 242.507 462.714
1302 0 57.197 10.9621 627 64.0191 242.518 460.128
1303 0 60.0356 11.793 708 63.2641 242.797 459.249
1304 0 61.0512 11.2528 687 62.5357 242.7 459.636
1305 0 64.2366 11.4576 736 62.6766 242.257 459.125
1306 0 69.2812 10.378 719 63.9903 241.993 457.394
1307 0 69.1081 11.3735 786 62.0967 241.81 457.384
1308 0 72.1689 10.7526 776 63.4626 242.451 454.352
1309 0 73.2517 10.9349 801 63.191 241.863 453.971
1310 0 75.1318 11.0872 833 62.2809 242.327 452.541
1311 0 79.1148 10.8324 857 60.8308 241.954 450.746
1312 0 83.1662 10.5331 876 61.403 242.527 447.889
1313 0 84.2136 10.9484 922 61.1323 242.223 447.796
1314 0 88.0381 11.4723 1010 60.6782 242.858 448.464
1315 0 90.3148 11.4599 1035 59.8676 242.506 446.127
1316 1 43.0376 11.4551 493 61.3732 242.142 469.521
1317 0 45.266 10.6261 481 61.42 242.428 468.156
1318 0 47.0687 12.0462 567 60.2064 242.326 467.705
1319 0 47.1062 11.6545 549 58.9836 241.933 466.277
1320 0 50.0674 11.7442 588 59.2296 242.551 466.119
1321 0 54.0871 11.9992 649 60.1248 241.693 464.749
1322 0 53.0212 12.1838 646 59.3638 242.056 465.347
1323 0 56.0684 11.9675 671 60.0432 241.93 463.997
1324 0 57.0782 12.1938 696 58.4454 242.141 462.612
1325 0 61.0592 11.5625 706 58.6912 241.831 461.027
1326 0 61.0541 12.1695 743 58.8977 241.622 459.678
1327 0 62.1407 12.1498 755 60.1099 241.664 459.44
1328 0 65.0514 12.5439 816 59.7206 241.542 460.582
1329 0 66.0705 12.8348 848 60.7913 241.434 457.788
1330 0 67.079 12.5822 844 62.5545 241.897 457.568
1331 0 71.2711 12.2771 875 62.4366 242.049 454.704
1332 0 73.0958 12.4084 907 61.9063 242.596 455.262
1333 0 76.1928 12.7177 969 61.1063 242.416 454.605
1334 0 77.0941 12.6469 975 61.2974 242.178 451.509
1335 0 80.178 12.6843 1017 61.7827 242.319 451.824
1336 0 82.2894 12.9786 1068 62.4878 242.062 450.064
1337 0 85.0984 12.891 1097 62.6609 242.335 448.544
1338 0 87.0447 12.5108 1089 62.3903 241.881 445.953
1339 0 89.1288 12.0275 1072 63.3218 241.996 444.307
1340 0 92.2302 11.9158 1099 63.1174 242.113 444.548
1341 1 38.0413 12.171 463 63.2462 242.57 472.164
1342 0 39.0883 12.3566 483 64.5487 242.526 471.855
1343 0 41.0481 12.1078 497 65.7606 242.324 470.642
1344 0 40.1216 12.0633 484 66.9504 242.345 469.769
1345 0 43.2473 11.7233 507 66.5838 242.609 469.442
1346 0 48.0533 10.967 527 64.4497 242.953 468.423
1347 0 47.1527 11.8763 560 62.7482 242.907 466.505
1348 0 50.1913 11.7351 589 61.7606 242.815 465.501
1349 0 50.1109 11.8338 593 62.2934 242.184 466.196
1350 0 51.1332 11.9687 612 63.3709 241.98 466.709
1351 0 53.1063 12.1455 645 63.5659 242.143 464.278
1352 0 55.0527 12.37 681 63.0323 242.41 464.345
1353 0 57.1182 12.4829 713 63.7475 242.746 464.003
1354 0 58.2649 12.426 724 64.9213 241.66 462.673
1355 0 60.1956 12.2434 737 65.1981 241 461.623
1356 0 64.1046 12.2456 785 65.8777 241.651 459.144
1357 0 63.1645 12.4437 786 66.4669 241.921 459.6
1358 0 68.2215 12.1223 827 65.3253 241.306 456.452
1359 0 68.0929 12.5711 856 65.0502 242.553 455.07
1360 0 71.0488 12.4985 888 65.1802 243.006 454.746
1361 0 74.1567 12.7163 943 64.5376 241.557 456.586
1362 0 76.19 12.4688 950 63.401 241.948 453.232
1363 0 80.113 11.9955 961 65.2737 242.233 452.725
1364 0 83.0369 12.7172 1056 63.6847 242.053 452.095
1365 0 84.1536 12.2752 1033 63.9255 242.255 448.904
1366 0 89.2042 12.1071 1080 65.2852 241.032 447.915
1367 0 92.2471 12.163 1122 66.0802 241.039 446.36
1368 1 39.116 11.7855 461 69.6985 241.072 471.826
1369 0 42.2391 11.5769 489 69.6646 241.92 468.663
1370 0 42.0702 11.9562 503 70.6422 242.016 468.714
1371 0 44.096 12.5862 555 68.7189 241.025 467.18
1372 0 46.0863 12.5417 578 66.2353 241.533 468.651
1373 0 49.0909 12.4056 609 66.601 241.276 467.406
1374 0 53.1042 12.1836 647 65.6352 241.901 465.331
1375 0 52.0594 12.2552 638 66.1082 243.299 462.774
1376 0 54.2508 12.7556 692 64.7066 242.984 462.116
1377 0 58.0802 12.0006 697 66.7317 242.96 461.492
1378 0 59.1481 13.2041 781 65.4315 242.448 461.086
1379 0 61.1336 12.4972 764 64.0393 242.75 460.119
1380 0 64.1165 12.0406 772 64.6205 242.039 460.793
1381 0 63.1468 12.9698 819 65.2076 241.868 459.69
1382 0 66.1764 13.1467 870 65.2448 242.41 458.051
1383 0 68.1658 12.8804 878 64.9408 242.412 456.429
1384 0 71.3427 12.8955 920 65.0554 242.77 452.872
1385 0 75.2147 13.1756 991 63.8436 242.707 454.237
1386 0 79.2856 11.7802 934 64.1296 241.354 451.536
1387 0 78.1871 12.7259 995 63.8131 241.839 450.374
1388 0 80.1457 12.7393 1021 63.2174 241.771 450.851
1389 0 84.1437 12.8471 1081 62.3645 241.749 448.965
1390 0 87.2424 13.1587 1148 60.885 241.884 447.116
1391 0 89.239 12.136 1083 62.5476 242.292 444.186
1392 0 91.2762 12.632 1153 63.5794 242.301 443.835
1393 0 97.1866 12.2856 1194 64.0461 242.422 441.576
1394 1 35.0384 12.0439 422 70.8626 242.235 470.623
1395 0 35.0617 11.8077 414 74.8478 242.403 470.246
1396 0 37.0392 10.8804 403 75.1414 242.434 469.28
1397 0 39.0513 11.7794 460 73.4304 242.42 470.374
1398 0 36.0511 11.8443 427 78.5808 242.112 468.988
1399 0 42.0355 11.5379 485 76.4 242.402 466.823
1400 0 42.0518 11.7236 493 77.8215 241.568 467.519
1401 0 38.0091 12.6812 482 77.4253 242.274 465.672
1402 0 40.0383 12.4381 498 78.9438 242.542 466.872
1403 0 40.0511 12.8336 514 78.3444 242.379 466.893
1404 0 45.1028 11.9505 539 76.9128 241.996 465.306
1405 0 46.044 12.336 568 78.4877 242.713 466.312
1406 0 42.0724 12.8113 539 80.8386 242.512 465.911
1407 0 46.1804 11.9531 552 83.0978 243.297 466.016
1408 0 44.2916 11.8307 524 85.4313 243.227 463.996
1409 0 47.1133 12.2258 576 83.4965 243.377 465.964
1410 0 47.0916 12.0828 569 86.8981 244.125 466.049
1411 0 48.043 11.7811 566 87.3004 244.205 463.643
1412 0 48.3314 12.5384 606 85.9191 243.538 465.842
1413 0 46.0903 13.3434 615 85.7106 243.758 463.893
1414 0 47.2995 13.0234 616 87.4854 243.666 462.641
1415 0 47.1627 13.6125 642 89.7025 243.866 461.165
1416 0 50.527 12.5675 635 91.0362 243.805 461.811
1417 0 50.4275 13.2864 670 91.0358 243.473 460.087
1418 0 49.1386 13.3907 658 92.2568 243.85 458.225
1419 1 112.891 15.0411 1698 60.9258 242.45 477.206
1420 1 46.116 13.2275 610 103.949 243.661 456.508
1421 0 43.3112 14.061 609 108.852 243.034 457.678
1422 0 43.3802 13.0935 568 115.759 243.166 456.13
1423 0 46.1383 12.1374 560 115.607 244.091 457.138
1424 0 47.571 13.1593 626 111.84 243.47 456.355
1425 0 50.3448 11.3617 572 117.612 243.026 455.837
1426 0 47.5138 12.4385 591 117.149 243.756 457.032
1427 0 47.3398 12.3152 583 118.043 243.876 456
1428 0 50.3755 11.5731 583 115.108 243.583 456.736
1429 1 66.6172 12.5493 836 104.462 243.179 466.061
1430 1 11.023 5.80605 64 95.4531 238.266 488.391
1431 0 11.0175 6.98888 77 92.6104 238.922 489.221
1432 0 13.0224 5.29858 69 94.5797 238.362 490.377
1433 0 11.0098 6.7213 74 95.4595 238.568 490.662
1434 0 11.0032 6.72531 74 94.8514 238.527 491.324
1435 0 14.0139 4.92368 69 91.5652 237.638 490.493
1436 0 12.0279 5.73665 69 94.5362 237.333 489.029
1437 0 15.0259 4.72517 71 95.0986 237.239 488.972
1438 0 13.0073 5.84288 76 93.329 237.974 489.513
1439 0 13.0202 5.52985 72 92.875 238.264 490.139
1440 1 70.7065 11.5265 815 109.123 242.508 458.863
1441 0 67.2573 11.8946 800 110.574 242.502 459.148
1442 0 67.4735 11.4267 771 108.187 242.071 458.608
1443 0 67.6053 11.1974 757 109.756 241.848 458.618
1444 0 66.535 11.152 742 112.252 242.756 457.143
1445 0 70.3916 11.777 829 110.655 242.438 460.294
1446 0 71.7098 11.937 856 107.732 242.014 459.714
1447 0 66.4294 11.9827 796 110.333 241.548 460.668
1448 0 67.3689 13.1218 884 108.143 241.009 462.041
1449 0 68.5724 11.8707 814 110.88 240.903 460.644
1450 0 68.4712 13.9037 952 102.993 241.236 460.542
1451 0 68.3707 14.2312 973 102.338 241.488 460.29
1452 0 67.3643 13.9985 943 104.414 241.759 460.417
1453 0 66.3415 14.5912 968 103.014 241.499 461.582
1454 0 70.881 15.3779 1090 96.7229 242.207 457.384
1455 1 55.7347 13.5104 753 106.6 242.327 448.567
1456 1 69.3941 14.1367 981 98.5658 241.26 458.787
1457 1 12.0208 4.74178 57 97.2982 236.579 487.509
1458 0 11.0093 5.6316 62 97.371 236.565 488.629
1459 0 15.033 4.39034 66 95.7576 236.409 488.742
1460 0 12.0213 5.823 70 92.9571 236.914 488.729
1461 0 14.0047 4.35569 61 96.377 237.475 488.492
1462 0 12.0245 5.40565 65 95.6923 237.2 488.646
1463 0 16.0163 4.30812 69 118.087 236.826 486.913
1464 0 18.0447 4.9322 89 141.708 237.449 487.36
1465 0 14.0476 6.69155 94 145.564 236.904 486.043
1466 0 18.0231 4.77166 86 146.174 237.244 485.86
1467 0 18.0381 5.26663 95 144.147 237.895 486.358
1468 0 14.0479 6.47785 91 147.011 237.198 487.066
