time division length width area intensity CMx CMy
0 0 37.0463 16.3039 604 118.089 509.268 499.619
1 0 37.0597 16.4869 611 107.319 510.394 500.324
2 0 38.1146 16.188 617 116.222 511.233 501.287
3 0 40.3304 15.5466 627 115.912 512.156 502.276
4 0 38.1405 15.3905 587 121.237 511.889 502.031
5 0 41.1078 16.3959 674 114.803 510.742 502.861
6 0 41.0805 16.2364 667 114.843 510.388 504.058
7 0 42.0538 16.3124 686 114.656 510.035 505.471
8 0 43.1556 16.0814 694 115.5 508.607 504.833
9 0 44.023 16.7867 739 115.543 507.365 505.039
10 0 45.0271 16.4345 740 117.646 505.599 504.093
11 0 47.0463 17.5572 826 112.138 505.278 503.201
12 0 47.0609 16.6805 785 116.688 502.332 504.67
13 0 48.0438 15.7356 756 121.38 501.361 505.657
14 0 49.0539 17.0425 836 118.507 498.84 506.067
15 0 50.0211 17.4327 872 120.26 497.812 505.591
16 0 51.0418 16.5355 844 124.175 494.704 505.462
17 0 54.0626 17.0913 924 120.709 491.874 505.003
18 0 55.0632 17.1621 945 119.586 490.594 503.138
19 0 56.0363 17.2031 964 120.462 489.831 502.025
20 0 59.025 18.5853 1097 117.821 485.806 499.053
21 0 59.0322 17.8039 1051 120.702 485.846 497.282
22 0 64.0698 18.0116 1154 116.931 486.315 496.406
23 0 68.1201 18.7169 1275 111.965 486.562 494.349
24 0 69.1149 20.068 1387 109.327 487.428 492.146
25 0 70.0754 18.0805 1267 116.023 488.83 490.628
26 0 73.1478 17.6219 1289 115.988 490.656 490.402
27 1 37.0358 11.7994 437 122.494 492.824 509.835
28 0 41.1341 11.9852 493 122.505 494.822 508.103
29 0 41.0733 11.9055 489 124.632 497.141 508.818
30 0 38.0219 11.1252 423 124.662 499.513 510.22
31 0 41.1262 13.4464 553 122.369 501.966 508.244
32 0 44.0185 13.4262 591 118.359 502.078 510.587
33 0 44.0286 13.355 588 119.27 503.056 510.827
34 0 46.3076 13.7558 637 119.157 502.661 507.703
35 0 49.1871 14.4144 709 115.203 503.446 509.227
36 0 50.0456 14.1871 710 115.8 502.727 507.646
37 0 52.0633 15.2123 792 111.302 502.221 509.001
38 0 54.0634 15.4818 837 111.593 500.65 509.968
39 0 55.0793 15.3052 843 113.349 498.834 507.782
40 0 59.0748 17.0631 1008 107.849 497.719 507.479
41 0 60.1936 15.0348 905 113.828 495.309 508.004
42 0 62.167 16.1661 1005 111.365 493.751 507.505
43 0 65.0802 15.2888 995 112.417 492.436 506.725
44 0 69.1761 16.4074 1135 107.563 490.582 505.866
45 0 70.1766 16.0025 1123 162.104 489.609 505.825
46 0 74.0783 16.5635 1227 105.403 485.447 504.709
47 0 76.0447 14.9123 1134 108.387 484.711 504.295
48 0 79.1444 16.3751 1296 105.193 482.304 503.819
49 0 80.1999 15.7606 1264 106.909 480.522 500.636
50 0 83.0965 15.8611 1318 106.84 479.512 500.149
51 0 86.1461 16.2166 1397 106.047 478.226 493.763
52 0 88.081 15.8604 1397 107.487 477.231 492.059
53 0 92.1549 16.2878 1501 105.169 476.925 490.476
54 0 94.34 16.6737 1573 103.986 475.709 486.768
55 1 48.111 11.2864 543 109.201 475.33 508.781
56 0 52.0412 12.4132 646 106.819 476.404 506.231
57 0 54.1072 11.6805 632 108.068 477.701 504.445
58 0 54.0839 12.684 686 100.972 479.331 501.331
59 0 57.1353 14.6494 837 100.079 481.49 498.875
60 0 58.0692 14.3794 835 102.74 482.552 499.652
61 0 60.1492 15.3784 925 100.661 485.275 500.635
62 0 63.1207 14.2426 899 103.167 487.695 499.642
63 0 64.1852 14.2089 912 103.622 489.44 502.105
64 0 64.1579 13.6226 874 107.333 492.024 499.561
65 0 68.1883 15.1786 1035 102.964 494.245 500.122
66 0 69.0814 15.2284 1052 104.357 494.456 498.399
67 0 72.1291 14.7375 1063 105.862 494.923 500.613
68 0 76.2132 14.9843 1142 104.947 495.868 499.573
69 0 79.0613 14.9884 1185 108.022 496.362 500.137
70 0 80.0936 15.2447 1221 109.772 494.872 499.229
71 0 81.0594 14.9643 1213 110.81 493.62 499.824
72 0 86.1105 16.7343 1441 105.765 491.663 499.396
73 0 86.0992 14.3788 1238 111.359 489.786 499.191
74 0 90.1536 14.442 1302 110.976 488.323 497.013
75 0 92.1535 14.3565 1323 111.616 486.519 496.979
76 1 47.077 11.3856 536 108.121 483.952 519.91
77 0 50.1319 11.5894 581 106.079 482.781 519.243
78 0 50.0841 12.6387 633 102.303 480.273 518.134
79 0 51.0644 11.319 578 103.775 478.433 517.979
80 0 56.1269 12.6499 710 102.586 476.987 517.017
81 0 56.0486 12.3108 690 103.741 475.712 514.822
82 0 58.1351 14.7415 857 97.818 473.986 513.623
83 0 58.1704 12.7728 743 102.128 472.952 513.166
84 0 61.3949 12.4603 765 100.475 472.193 511.009
85 0 64.1087 13.5707 870 99.423 471.308 506.962
86 0 66.1685 14.2364 942 99.6093 471.241 504.592
87 0 68.248 14.3594 980 100.838 470.869 505.797
88 0 71.4205 15.1217 1080 100.172 470.055 501.877
89 0 74.2171 13.7165 1018 103.352 470.448 498.405
90 0 76.1232 13.7934 1050 103.292 471.186 498.385
91 0 79.2774 14.1024 1118 102.252 472.447 496.337
92 0 82.3109 14.9069 1227 100.589 474.076 495.41
93 0 81.297 15.1666 1233 136.157 476.101 495.484
94 1 45.1806 11.3102 511 106.315 476.718 512.162
95 0 46.3594 11.3893 528 104.153 479.669 513.725
96 0 50.2998 12.9225 650 101.037 482.505 511.275
97 0 51.0803 12.2161 624 96.7356 485.147 511.737
98 0 52.0778 11.5212 600 98.1583 488.455 511.492
99 0 51.1009 10.6652 545 100.519 489.466 513.563
100 0 56.1852 13.0817 735 95.366 490.758 513.642
101 0 57.0808 12.3334 704 98.6349 490.893 513.969
102 0 59.1039 13.8739 820 96.0707 491.463 513.824
103 0 60.0824 12.383 744 101.922 489.685 514.925
104 0 63.0836 12.3646 780 102.955 488.54 514.327
105 0 64.0873 13.466 863 102.648 487.18 512.658
106 0 65.038 12.854 836 103.727 485.361 513.24
107 1 37.0862 9.59925 356 105.36 483.907 527.093
108 0 37.25 10.3087 384 103.177 482.461 528.193
109 0 36.1611 10.4532 378 106.421 480.717 527.349
110 0 39.2694 10.9245 429 103.103 479.361 527.867
111 0 41.5239 12.3784 514 98.7004 478.712 524.588
112 0 40.2432 9.74077 392 100.038 475.079 519.679
113 0 42.1463 13.0735 551 94.8966 473.269 525.835
114 0 43.1208 12.2679 529 95.2665 472.168 524.571
115 0 44.0722 11.6173 512 95.5215 470.918 524.367
116 0 48.0362 12.782 614 92.544 468.892 522.948
117 0 48.2319 12.0045 579 95.9965 467.617 520.37
118 0 48.1155 11.514 554 98.4007 467.343 519.874
119 0 51.1709 11.8622 607 96.2652 466.873 517.336
120 0 51.0333 12.2273 624 96.766 465.997 513.351
121 0 54.0926 12.2752 664 95.3795 467.071 513.392
122 0 56.1723 11.7674 661 94.0681 467.171 512.484
123 0 59.0818 12.6604 748 91.7901 467.495 510.011
124 0 58.1238 11.1658 649 94.1294 468.379 507.378
125 0 61.0912 11.5401 705 93.1319 468.099 506.372
126 0 64.1193 14.3483 920 88.8228 469.257 503.886
127 0 67.1945 13.7511 924 89.7294 472.506 503.226
128 0 70.0862 13.5119 947 89.1985 475.758 503.485
129 1 35.1242 9.623 338 93.4231 479.45 521.831
130 0 36.0594 9.59527 346 95.2601 482.769 520.997
131 0 38.1208 10.8602 414 95.7198 481.42 520.785
132 0 41.0499 11.4982 472 92.892 483.398 520.867
133 0 41.0669 11.1282 457 93.6849 487.532 520.768
134 0 42.0544 11.7467 494 93.5547 488.755 522.731
135 0 44.2077 13.1199 580 90.3897 488.369 522.483
136 0 44.0515 13.6431 601 88.9301 488.913 524.319
137 0 47.0355 13.5004 635 88.2677 488.005 524.186
138 0 47.0576 14.3654 676 88.5754 487.953 522.392
139 0 48.0433 13.7376 660 90.297 485.503 521.147
140 0 48.0611 12.7754 614 93.6466 484.624 525.907
141 0 50.0291 13.5321 677 92.839 483.041 523.168
142 0 51.0207 13.1907 673 93.7325 480.747 521.709
143 0 51.0207 13.1515 671 137.687 478.756 521.736
144 0 55.0366 13.7545 757 92.0198 478.502 522.022
145 0 55.0366 13.7363 756 137.466 477.512 522.041
146 0 57.0874 12.7349 727 93 474.878 521.996
147 0 58.0545 12.0749 701 95.2653 472.197 522.758
148 0 63.0557 12.7031 801 93.4345 471.322 519.944
149 0 64.1082 12.7129 815 94.2037 471.058 517.475
150 0 65.0833 13.0295 848 93.5424 468.515 516.434
151 0 66.1147 13.1741 871 93.5408 468.301 514.251
152 1 35.0408 10.9016 382 95.7147 467.725 528.055
153 0 40.0524 10.3365 414 97.7657 467.123 523.572
154 0 36.0746 9.64668 348 100.931 467.238 524.586
155 0 39.1239 10.7607 421 97.3967 466.463 523.071
156 0 38.0734 9.24529 352 100.332 466.631 520.602
157 0 44.0873 11.636 513 94.4055 467.676 518.189
158 0 44.1336 11.8957 525 93.8267 469.274 519.467
159 0 43.0183 12.855 553 93.8861 469.982 517.492
160 0 46.0498 13.3117 613 91.987 472.253 515.896
161 0 48.0404 13.6136 654 91.0673 473.951 516.826
162 0 51.0148 12.6434 645 92.2093 476.143 516.864
163 0 51.0632 13.826 706 91.0666 478.783 515.982
164 0 53.1627 14.5779 775 88.9187 481.001 515.908
165 0 53.1627 14.6155 777 130.526 483.022 515.91
166 0 52.1027 12.5713 655 94.4901 484.365 515.612
167 0 57.036 12.7814 729 92.1015 485.31 517.427
168 0 59.1703 13.6386 807 90.9529 485.829 516.512
169 0 61.1337 13.9203 851 91.8425 486.737 514.85
170 0 63.0731 15.2204 960 90.6427 487.26 514.409
171 0 63.0731 15.157 956 134.221 487.279 514.449
172 0 68.101 13.5974 926 93.5346 484.846 513.676
173 0 68.1008 13.7884 939 94.0905 483.184 513.855
174 0 72.0857 14.1498 1020 94.8039 481.611 512.493
175 0 74.1785 13.3327 989 95.6694 479.074 511.085
176 0 77.1388 14.623 1128 93.5106 477.426 511.114
177 1 41.1045 10.1935 419 99.9714 475.036 526.647
178 0 43.1776 11.1632 482 96.8548 474.851 526.687
179 0 46.0488 11.8353 545 95.8147 473.281 525.55
180 0 48.2974 12.0503 582 93.4347 470.637 524.682
181 0 48.2874 12.467 602 95.3422 469.571 523.566
182 0 51.0212 14.5822 744 90.5847 467.866 520.528
183 0 53.053 14.3818 763 85.7248 465.24 521.869
184 0 56.1122 14.9165 837 85.8996 465.139 516.732
185 0 57.0733 14.2098 811 88.9864 463.139 514.668
186 0 59.2279 14.9254 884 90.0532 463.171 512.421
187 0 60.1115 13.9907 841 92.9774 462.25 512.273
188 0 62.1092 13.1221 815 93.4687 463.352 511.748
189 0 64.148 13.7962 885 93.3785 463.794 507.975
190 0 66.1748 13.5248 895 93.9374 464.974 506.58
191 0 69.1504 13.9262 963 94.4278 466.3 502.394
192 0 71.1782 13.2204 941 95.9001 467.801 504.283
193 0 75.2117 14.4525 1087 93.2788 469.81 501.062
194 0 76.3168 13.326 1017 96.5133 472.287 502.777
195 0 79.1588 13.7951 1092 96.1081 474.631 498.262
196 1 39.0929 11.0762 433 99.3279 477.517 521.169
197 0 39.0929 11.1018 434 158.113 480.505 521.205
198 0 44.0657 11.324 499 100.094 482.824 520.954
199 0 46.1111 12.5566 579 98.7029 484.333 521.421
200 0 46.314 13.0414 604 93.4354 485.526 518.003
201 0 44.1365 11.2379 496 99.2177 486.802 515.274
202 0 47.1747 13.7786 650 98.4708 486.315 522.246
203 0 47.186 12.1858 575 103.043 487.805 521.826
204 0 49.1016 14.0118 688 100.16 486.195 521.035
205 0 51.0864 12.5865 643 102.453 486.117 521.972
206 0 54.0754 13.0558 706 99.0765 484.891 524.113
207 0 55.0793 13.4715 742 97.2493 482.383 521.904
208 0 57.1096 14.8837 850 94.9529 480.96 521.722
209 0 59.1388 14.2039 840 95.5893 478.936 522.211
210 0 58.1565 12.8275 746 99.2145 476.456 520.323
211 0 63.2815 14.8385 939 93.3472 474.285 521.58
212 0 68.2664 15.1026 1031 95.4685 474.034 513.04
213 0 70.0844 14.1401 991 97.2119 469.273 515.711
214 0 72.1336 14.1404 1020 98.0294 468.141 514.276
215 0 77.233 15.2525 1178 95.5891 465.825 511.048
216 0 79.1704 14.7277 1166 97.8345 465.366 507.164
217 0 82.1856 15.1608 1246 96.9045 464.666 504.657
218 0 83.1688 15.2581 1269 97.773 464.49 502.611
219 0 88.1261 15.3984 1357 97.1776 463.105 500.726
220 1 45.0168 9.99627 450 103.671 464.231 521.087
221 0 50.0793 11.7613 589 102.374 463.229 519.752
222 0 49.124 10.4022 511 104.325 465.145 519.115
223 0 51.0832 13.018 665 102.266 465.929 516.889
224 0 52.1587 12.692 662 104.003 467.695 514.198
225 0 53.238 13.2236 704 103.009 468.905 511.997
226 0 56.1683 14.0115 787 102.615 470.947 512.767
227 0 56.0484 13.3634 749 101.554 473.459 513.744
228 0 58.0794 14.5663 846 100.68 475.422 511.476
229 0 61.0191 14.6348 893 100.188 478.085 511.305
230 0 63.0408 14.3875 907 100.397 480.336 514.83
231 0 65.0772 14.0602 915 103.042 482.532 511.097
232 0 66.0882 13.9964 925 104.165 483.898 510.949
233 0 69.0752 14.9402 1032 102.531 484.155 508.548
234 0 72.0237 15.6337 1126 100.73 485.968 510.133
235 0 71.1006 13.0238 926 108.733 486.334 511.636
236 0 77.0969 13.8008 1064 104.695 485.697 511.117
237 0 80.0623 14.3014 1145 103.637 483.937 509.152
238 0 82.106 14.3229 1176 104.421 482.584 509.15
239 0 84.0902 14.8531 1249 103.078 481.445 506.296
240 0 86.1099 14.7486 1270 104.391 480.189 507.06
241 0 90.2832 15.1745 1370 102.049 476.348 509.114
242 0 94.1291 15.1175 1423 103.138 474.438 506.463
243 0 97.1073 15.2615 1482 102.503 474.024 506.788
244 1 46.0343 9.34086 430 111.933 472.954 528.551
245 0 51.1146 11.3079 578 110.059 470.725 523.69
246 0 53.1449 11.591 616 107.81 469.606 525.417
247 0 55.0922 12.5789 693 103.949 467.387 525.514
248 0 57.1114 14.6731 838 100.044 465.272 519.854
249 0 58.1262 14.2965 831 100.759 464.369 518.895
250 0 59.3673 12.3806 735 104.611 462.762 517.024
251 0 61.159 13.5712 830 104.982 462.386 515.026
252 0 65.2476 13.4718 879 104.105 461.658 513.085
253 0 66.3857 13.6475 906 103.762 461.376 511.53
254 0 68.2674 13.5643 926 104.769 461.602 508.746
255 0 67.5366 12.7783 863 110.267 461.117 505.112
256 0 72.4279 13.4064 971 108.635 461.047 504.082
257 0 75.3979 14.4566 1090 108.529 462.075 499.63
258 0 78.3912 14.1342 1108 109.562 462.825 499.942
259 0 80.4192 13.5415 1089 111.645 464.856 496.624
260 0 83.5635 15.1023 1262 108.333 467.384 496.554
261 1 41.1273 8.53448 351 112.766 469.954 518.51
262 0 45.0869 10.2247 461 102.959 474.195 516.534
263 0 47.2173 11.0129 520 103.288 477.075 515.992
264 0 47.2029 10.762 508 104.549 477.789 516.049
265 0 50.1562 12.0025 602 101.211 482.316 514.081
266 0 52.1103 12.1089 631 101.624 482.837 516.301
267 0 51.123 12.6753 648 103.745 485.054 517.37
268 0 53.1177 13.4607 715 103.898 484.855 516.586
269 0 53.0726 12.3793 657 107.041 485.178 518.619
270 0 56.1408 12.3261 692 105.91 485.399 520.282
271 0 61.1345 13.4294 821 103.058 482.831 516.848
272 0 61.1633 11.8208 723 106.408 482.342 516.635
273 0 64.2659 13.3197 856 103.347 482.004 517.533
274 0 65.2111 13.5406 883 104.356 479.643 516.29
275 0 67.2257 13.0159 875 104.544 477.501 515.913
276 0 70.2387 12.3436 867 105.911 477.295 515.947
277 0 73.2336 13.4638 986 103.104 474.178 514.798
278 1 39.1802 9.23936 362 108.144 473.735 530.243
279 0 38.2385 11.219 429 106.828 472.124 528.914
280 0 40.252 11.2541 453 104.053 471.486 529.89
281 0 41.0367 9.35747 384 101.885 469.984 532.315
282 0 44.0455 11.9422 526 98.8308 467.85 527.508
283 0 44.2167 11.6924 517 99.0116 465.373 525.609
284 0 47.1166 13.7531 648 94.2315 464.718 525.974
285 0 48.1577 13.7673 663 95.4555 464.498 522.617
286 0 50.1041 14.1705 710 97.6296 463.232 518.669
287 0 49.0716 13.1644 646 101.673 462.947 518.406
288 0 51.0752 13.999 715 134.52 462.962 517.106
289 0 54.18 14.0273 760 98.3026 461.721 512.955
290 0 54.1824 13.676 741 102.049 463.737 511.78
291 0 57.1414 14.0353 802 97.6334 464.187 511.784
292 0 58.1522 14.7544 858 96.2459 465.089 509.655
293 0 60.2307 13.5811 818 98.5208 467.604 509.883
294 0 60.1205 14.4709 870 97.977 469.748 507.164
295 0 60.1205 14.4543 869 133.942 472.733 507.112
296 0 64.2245 14.5894 937 97.937 474.726 507.117
297 0 69.1701 15.8595 1097 94.1787 477.721 508.258
298 0 69.1866 14.338 992 98.4516 480.204 506.706
299 0 71.1706 14.8235 1055 97.8408 481.243 505.809
300 0 71.0836 12.8581 914 103.019 484.105 507.214
301 0 74.081 13.7687 1020 101.807 484.235 506.383
302 0 76.1345 13.8308 1053 102.146 483.96 508.465
303 0 80.1865 14.5037 1163 100.735 484.733 507.857
304 0 80.181 12.6464 1014 106.386 484.391 507.481
305 0 85.2418 13.8195 1178 103.72 483.356 505.913
306 0 86.3049 13.1626 1136 106.06 481.719 506.669
307 0 90.3045 13.3659 1207 105.303 479.602 503.984
308 0 94.274 14.0336 1323 104.503 478.081 501.681
309 0 98.132 15.0206 1474 104.887 475.714 501.077
310 0 100.22 13.9593 1399 108.149 474.54 499.926
311 0 102.265 14.3256 1465 107.66 471.509 497.01
312 0 106.195 14.5298 1543 106.434 471.034 496.813
313 0 110.282 16.0044 1765 102.986 469.299 492.068
314 0 114.332 14.9389 1708 105.638 467.362 491.408
315 0 117.44 14.8075 1739 106.411 466.411 486.764
316 0 120.442 14.8703 1791 104.453 464.201 480.075
317 0 126.445 15.4771 1957 104.616 463.22 476.637
318 1 66.364 10.6986 710 99.1916 461.228 515.623
319 0 71.3412 12.5173 893 101.458 461.108 506.786
320 0 73.3371 13.3493 979 101.063 460.848 503.391
321 0 74.2778 11.3897 846 103.251 460.065 501.009
322 0 78.2672 13.9905 1095 98.2091 459.944 495.959
323 0 81.1573 13.5786 1102 99.0699 460.285 497.672
324 0 83.1527 13.9382 1159 98.3356 461.885 498.301
325 0 86.244 13.856 1195 98.2218 461.889 495.142
326 0 89.1737 14.5446 1297 97.8327 463.186 491.681
327 0 89.1917 13.5551 1209 101.224 464.134 488.17
328 0 93.2994 13.73 1281 98.5714 466.792 487.938
329 0 98.2023 14.908 1464 96.2657 469.961 488.637
330 0 99.1559 13.857 1374 98.6317 472.344 490.338
331 0 102.279 13.4828 1379 99.4213 475.806 485.571
332 0 105.294 13.5146 1423 100.502 477.787 486.033
333 0 109.342 14.3678 1571 99.0312 480.008 484.007
334 0 110.438 13.3469 1474 100.809 481.918 484.402
335 1 74.1363 8.51135 631 100.227 482.2 508.843
336 0 76.2605 10.7002 816 97.5319 482.589 505.55
337 0 78.3484 11.2319 880 97.0443 481.935 506.845
338 0 82.1676 12.8031 1052 95.8251 482.378 506.13
339 0 84.137 13.4661 1133 95.1889 481.232 506.891
340 0 86.197 13.0167 1122 97.1328 479.758 507.564
341 0 88.0592 12.8323 1130 98.2106 477.574 503.114
342 0 91.0567 12.8382 1169 100.491 475.646 507.212
343 0 97.0894 13.9253 1352 96.4334 473.001 505.388
344 0 96.1225 12.7129 1222 99.928 472.465 500.903
345 1 54.1326 10.1048 547 93.6307 471.06 526.097
346 0 55.1314 10.611 585 92.9419 469.771 526.219
347 0 57.2236 10.9046 624 93.1538 466.904 522.421
348 0 59.0348 12.5011 738 91.687 467.26 524.42
349 0 61.0584 13.266 810 89.2296 465.315 519.814
350 0 63.0337 11.946 753 91.3665 463.393 521.317
351 0 65.2269 11.5137 751 92.8882 464.692 515.812
352 0 65.2105 13.7861 899 88.9778 462.889 512.769
353 0 66.471 11.4336 760 92.0171 461.797 511.954
354 0 68.3453 13.0367 891 89.8216 462.072 507.377
355 0 71.3866 13.3779 955 88.2785 461.663 506.957
356 0 75.2603 14.5362 1094 85.766 462.127 505.827
357 0 77.233 14.4109 1113 86.4492 462.351 502.613
358 0 79.1785 14.5115 1149 87.0914 462.54 500.053
359 0 81.2898 14.1592 1151 88.5821 463.545 498.962
360 0 84.3834 13.6875 1155 88.4978 466.397 498.042
361 0 87.2395 13.675 1193 88.6329 468.002 496.232
362 0 88.2301 13.6688 1206 89.762 470.472 493.816
363 0 90.2606 13.0843 1181 93.1152 472.948 492.052
364 1 46.0463 11.0324 508 92.4744 478.561 515.211
365 0 49.0297 10.871 533 93.5084 480.76 514.058
366 0 51.0465 10.0692 514 93.5331 483.453 516.325
367 0 51.0769 11.1401 569 92.2917 484.276 518.766
368 0 51.0769 11.1009 567 140.014 485.245 518.845
369 0 55.2253 13.1461 726 90.6736 485.964 515.262
370 0 58.2371 13.84 806 90.3983 485.244 514.339
371 0 59.0609 14.6459 865 89.5549 484.949 516.395
372 0 61.0668 13.739 839 91.4529 484.43 517.292
373 0 61.0839 13.1131 801 95.2722 482.302 518.396
374 0 64.0848 13.0452 836 95.9988 480.998 519.226
375 0 66.1028 12.8588 850 96.9694 478.285 518.509
376 0 70.0769 14.0417 984 94.5305 476.225 517.915
377 0 73.0596 15.3984 1125 93.0524 474.921 515.86
378 0 75.1449 15.1574 1139 94.2959 473.574 514.291
379 0 79.0926 15.3617 1215 93.1259 472.174 513.724
380 0 80.0649 13.514 1082 98.0628 469.471 512.187
381 0 83.1245 13.8587 1152 96.6641 468.477 510.386
382 0 86.073 14.3018 1231 95.58 466.747 507.494
383 0 89.161 14.0308 1251 95.5835 466.129 506.192
384 0 93.1488 14.9009 1388 93.9027 464.876 505.5
385 1 46.0776 11.2853 520 98.5673 463.935 524.981
386 0 51.1311 11.2065 573 96.8656 462.175 524.302
387 0 51.1419 10.8522 555 98.2739 461.915 522.674
388 0 54.0429 13.8408 748 93.0027 460.786 518.048
389 0 55.1958 12.2292 675 92.4518 460.683 517.837
390 0 56.1145 12.7953 718 95.7075 461.507 515.787
391 0 58.0716 13.4489 781 94.338 462.083 514.545
392 0 58.117 14.0579 817 95.0502 463.351 512.083
393 0 59.0556 12.5306 740 97.3919 464.584 512.18
394 0 62.0957 13.3181 827 95.1088 466.6 511.239
395 0 62.0631 13.0029 807 95.5725 469.252 509.254
396 0 66.0824 12.9384 855 95.4947 471.082 507.653
397 0 66.0706 11.8207 781 97.7324 474.789 506.396
398 0 71.0739 13.8447 984 94.3201 476.472 504.229
399 0 74.0886 13.7808 1021 95.4104 480.029 504.301
400 1 36.0233 9.07745 327 97.4985 482.648 526.098
401 0 40.0181 10.2204 409 96.1247 482.831 524.367
402 0 44.1197 10.3355 456 94.2763 483.357 526.25
403 0 45.1241 11.1692 504 94.2679 483.98 526.25
404 0 45.0307 10.9481 493 93.8053 484.564 529.598
405 0 48.1845 11.1032 535 95.8991 483.484 526.834
406 0 47.2439 12.0227 568 98.287 482.738 525.729
407 0 52.1894 12.9145 674 96.4555 480.886 524.66
408 0 50.3985 11.0718 558 102.047 478.634 525.582
409 0 53.3557 13.3257 711 98.3333 476.522 523.463
410 0 54.3427 11.8691 645 99.6016 474.093 523.471
411 0 58.2269 13.1726 767 96.0991 469.944 523.279
412 0 58.3848 12.5718 734 98.1785 470.403 521.049
413 0 61.2432 12.6871 777 98.103 468.821 520.38
414 0 63.2393 12.5555 794 97.5378 468.086 517.942
415 0 64.2979 12.5199 805 97.7727 466.406 518.142
416 0 66.2878 12.8229 850 98.6976 466.2 517.924
417 0 67.4142 12.7866 862 100.131 464.571 509.892
418 0 70.343 13.7754 969 97.7183 463.379 510.087
419 0 73.4044 13.2281 971 98.2709 462.028 507.681
420 0 75.3449 12.7149 958 95.5919 461.229 504.168
421 0 76.2546 12.2615 935 97.2267 460.339 501.801
422 0 81.3297 14.4842 1178 91.5238 460.584 502.22
423 0 82.2252 12.5631 1033 97.9516 460.942 502.111
424 0 86.1973 13.5039 1164 94.6272 460.076 495.229
425 1 44.1717 9.46306 418 91.6507 462.801 516.134
426 0 47.088 10.6184 500 91.102 464.02 516.482
427 0 46.0898 10.5446 486 93.1811 464.683 514.992
428 0 49.1985 11.606 571 91.8091 466.636 512.797
429 0 52.1112 11.3028 589 90.0408 471.565 518.888
430 0 51.396 12.0048 617 91.8898 473.749 514.663
431 0 53.313 12.9612 691 91.1274 475.85 514.376
432 0 55.1894 11.9588 660 92.0561 478.858 515.709
433 0 57.4041 12.3859 711 90.9353 481.201 517.378
434 0 58.3406 13.2841 775 91.1974 482.876 515.197
435 0 59.3938 12.274 729 93.4856 484.86 515.495
436 0 63.4328 12.9428 821 91.8136 484.909 515.924
437 0 65.3184 13.5796 887 90.7125 486.007 517.454
438 0 67.2971 14.8001 996 89.74 484.882 516.512
439 0 67.2829 12.6481 851 94.4489 484.164 516.242
440 0 71.3183 13.573 968 93.218 482.234 513.525
441 1 38.1259 10.0719 384 95.6745 480.849 530.646
442 0 40.0165 9.37113 375 92.1733 479.304 532.795
443 0 45.2211 10.9683 496 92.4375 477.399 529.994
444 0 40.1855 11.1732 449 93.3942 476.18 532.038
445 0 44.125 10.5156 464 91.6034 474.03 530.953
446 0 46.1519 12.8055 591 89.0254 472.323 528.553
447 0 46.229 10.5129 486 93.4156 467.535 526.041
448 0 48.338 13.3642 646 89.9907 467.002 521.681
449 0 48.3075 13.2485 640 91.6094 465.594 518.886
450 0 51.1773 13.0917 670 87.191 466.436 522.412
451 0 50.1664 12.6778 636 88.3679 465.447 521.072
452 0 55.0978 13.4306 740 85.0703 464.323 520.427
453 0 56.3384 13.9514 786 85.8728 462.864 517.821
454 0 57.1615 13.1382 751 86.3356 461.238 516.108
455 0 60.248 13.2619 799 86.1464 460.626 515.524
456 0 64.2923 15.4295 992 81.9446 460.446 509.803
457 0 65.3257 14.5578 951 83.9737 461.43 508.131
458 0 64.2554 12.9016 829 88.6405 461.983 507.119
459 0 68.1897 14.0197 956 86.1841 462.964 504.114
460 0 66.1848 12.7371 843 132.671 463.056 505.435
461 0 71.2386 12.9705 924 89.342 466.818 503.263
462 0 75.1516 14.2645 1072 86.3069 469.282 501.253
463 0 77.134 13.6256 1051 87.96 472.776 501.579
464 0 79.2035 13.863 1098 88.5729 475.972 499.412
465 0 83.2198 14.0832 1172 87.4881 478.573 500.15
466 0 85.2839 13.5078 1152 89.3724 480.388 501.446
467 1 45.1173 10.5059 474 92.27 483.73 520.732
468 0 49.389 10.7311 530 91.2887 485.326 520.9
469 0 49.2569 13.3179 656 88.4055 486.085 519.526
470 0 50.3576 12.729 641 89.3229 485.661 518.51
471 0 52.5002 13.1619 691 91.0463 485.365 516.615
472 0 54.221 12.5044 678 90.09 485.09 519.844
473 0 54.1501 13.4256 727 88.6259 482.206 522.638
474 0 59.2702 13.9699 828 87.0544 480.076 520.147
475 0 60.0807 14.4306 867 86.4683 478.321 518.593
476 0 61.1347 13.4621 823 87.8335 476.591 519.007
477 0 63.1064 12.7562 805 88.0708 474.224 519.265
478 0 67.0889 13.3554 896 86.6373 472.795 517.725
479 0 67.0796 12.2839 824 90.4733 471.235 518.671
480 0 71.1751 13.53 963 87.3593 469.606 517.596
481 0 73.2312 14.2562 1044 87.1034 467.745 515.773
482 0 72.131 12.2555 884 92.2308 466.044 512.071
483 0 76.1498 12.6855 966 92.1501 465.419 508.052
484 0 80.3257 13.2336 1063 90.1439 463.705 510.392
485 0 83.1318 13.0034 1081 90.1952 462.938 508.769
486 1 46.0413 11.9024 548 88.6515 461.529 527.095
487 0 46.0963 10.4781 483 91.06 460.493 521.598
488 0 47.0408 10.9692 516 90.3256 460.556 519.037
489 0 50.0347 12.5513 628 86.7643 459.818 519.435
490 0 52.1024 12.034 627 88.4498 460.38 517.297
491 0 54.1948 12.3628 670 87.1403 461.551 513.897
492 0 55.177 13.9732 771 84.1816 462.099 512.083
493 0 56.0958 12.5856 706 85.6856 464.599 511.472
494 0 58.0981 13.4944 784 86.287 466.485 511.202
495 0 59.0387 13.4488 794 85.4887 468.7 512.594
496 0 60.2377 13.4135 808 84.3317 471.356 510.145
497 0 63.3652 14.5348 921 82.253 473.25 505.878
498 0 65.3742 13.6139 890 82.6697 477.013 510.21
499 0 68.2808 14.206 970 84.2062 479.812 508.899
500 0 69.2541 14.0208 971 84.6972 480.581 508.65
501 0 69.1643 13.1426 909 88.0077 482.477 507.416
502 0 72.046 12.0201 866 89.0139 484.639 514.85
503 0 76.1089 14.1639 1078 86.7931 485.223 511.159
504 0 77.1546 13.1943 1018 89.275 484.514 511.533
505 0 79.1712 13.654 1081 89.3515 484.394 509.713
506 0 83.1316 14.447 1201 88.1332 482.635 509.763
507 1 45.0302 10.0599 453 89.8609 481.746 530.47
508 0 46.0223 9.29985 428 89.4042 480.411 532.619
509 0 46.0456 10.0335 462 90.3009 477.851 531.074
510 0 50.1808 12.8137 643 87.7341 473.988 528.028
511 0 52.0599 13.0042 677 87.0812 471.164 529.569
512 0 55.0922 13.9766 770 82.313 470.879 528.427
513 0 56.0829 14.853 833 79.599 470.857 528.78
514 0 55.0578 11.9511 658 86.1763 469.722 524.982
515 0 55.1507 12.3117 679 87.3225 467.717 527.404
516 0 60.0246 14.6273 878 82.1583 466.449 524.613
517 0 59.1836 13.7369 813 83.8549 465.442 523.824
518 0 63.1109 13.8328 873 83.5922 464.173 521.969
519 0 63.0588 13.4319 847 85.5832 463.515 519.881
520 0 62.1095 12.0916 751 88.9814 461.525 514.499
521 0 66.0951 13.8739 917 86.5453 462.312 515.176
522 0 68.1783 13.5967 927 86.315 461.552 508.871
523 0 69.1591 13.7654 952 86.7742 461.293 510.161
524 0 72.1423 13.1268 947 89.2376 460.722 504.942
525 0 74.1065 13.3457 989 89.6684 461.197 504.658
526 0 76.0633 14.4485 1099 87.8453 463.598 504.736
527 0 81.321 14.4243 1173 86.3026 463.928 501.198
528 1 44.1661 9.50955 420 90.6333 465.462 521.698
529 0 45.0397 10.7683 485 90.3732 468.52 519.701
530 0 47.0463 11.9882 564 87.0479 472.227 520.947
531 0 47.0905 10.7453 506 91.998 475.006 518.198
532 0 50.0914 12.1977 611 87.8707 476.627 519.959
533 0 49.2556 11.1459 549 85.3989 478.222 511.847
534 0 50.3121 11.051 556 85.9838 480.138 513.225
535 0 53.1842 12.8046 681 79.3186 481.117 514.48
536 0 55.0876 11.7994 650 80.8769 482.163 512.589
537 0 57.1292 11.8153 675 80.9778 482.196 513.874
538 0 59.0683 12.1046 715 81.5077 481.843 513.148
539 0 62.0412 12.6368 784 81.2066 481.177 516.574
540 0 64.1285 12.0539 773 82.2031 480.467 515.666
541 0 67.0555 13.0489 875 81.0309 478.798 512.378
542 0 67.0913 12.252 822 83.1594 476.964 514.207
543 0 72.1216 14.6003 1053 79.8281 475.274 513.04
544 0 73.0954 13.8312 1011 82.0524 472.445 509.14
545 0 75.0872 12.319 925 83.667 469.574 512.44
546 0 79.1392 12.9392 1024 83.6992 468.887 507.578
547 1 43.1455 9.34048 403 83.2829 467.593 528.077
548 0 45.0679 10.6062 478 81.9854 466.402 527.42
549 0 42.1007 9.40603 396 84.9318 465.843 525.24
550 0 46.0862 8.87467 409 84.6577 464.191 524.235
551 0 49.0646 10.8225 531 85.2957 462.539 525.002
552 0 50.0698 12.5824 630 80.4222 462.862 519.708
553 0 49.0629 12.7184 624 81.7949 461.357 516.165
554 0 55.1506 13.5447 747 89.4819 459.577 520.161
555 0 56.0861 13.8002 774 89.7054 459.444 516.419
556 0 57.0471 13.9709 797 89.1493 458.898 514.056
557 0 58.0621 14.5017 842 88.6865 458.835 512.966
558 0 60.0787 12.933 777 91.3977 458.902 511.624
559 0 62.0916 13.9955 869 89.2382 460.791 513.825
560 0 65.1107 14.3141 932 90.0311 461.498 504.602
561 0 67.0651 14.3592 963 88.7508 463.404 506.727
562 0 69.0743 14.4916 1001 86.4456 465.372 506.617
563 0 73.1179 12.8012 936 92.0534 467.755 505.458
564 0 75.0696 14.5065 1089 86.9495 471.253 502.939
565 1 41.0192 10.6292 436 90.1101 474.431 521.314
566 0 42.0563 11.4133 480 87.9771 477.338 521.523
567 0 43.0271 8.97108 386 92.4845 478.104 522.433
568 0 47.1156 12.3526 582 87.2096 481.515 526.375
569 0 46.1578 9.35919 432 91.963 482.866 522.468
570 0 50.1246 12.3891 621 85.9275 482.937 525.802
571 0 49.1741 11.1034 546 90.5678 482.932 525.284
572 0 50.2159 11.9086 598 89.0334 483.866 523.254
573 0 54.1358 13.0043 704 91.625 479.391 523.854
574 0 54.1248 13.8753 751 91.0746 477.623 523.607
575 0 56.058 12.9152 724 93.3439 476.717 521.677
576 0 59.0283 12.7566 753 93.7689 474.082 524.348
577 0 60.0682 13.1018 787 94.7408 472.191 519.479
578 0 63.1939 14.3526 907 92.3969 470.838 521.326
579 0 66.2965 14.6916 974 91.2218 469.933 519.845
580 0 67.145 13.6421 916 94.0338 467.926 517.639
581 0 69.2391 13.6917 948 93.8386 466.124 519.538
582 0 71.2363 12.8446 915 97.3213 465.094 516.309
583 0 73.2925 13.7122 1005 96.8129 464.734 515.057
584 0 75.2657 13.5653 1021 97.8149 463.523 511.743
585 0 79.5375 14.182 1128 95.703 462.338 507.538
586 0 82.4089 13.3602 1101 97.5114 461.906 506.687
587 0 83.4109 14.9141 1244 95.2178 462.065 507.28
588 0 89.5046 15.5411 1391 93.8239 461.554 504.019
589 1 45.1792 10.89 492 98.0569 461.409 526.081
590 0 46.1018 10.954 505 98.2891 461.141 523.517
591 0 46.1032 11.0405 509 93.5481 461.627 520.599
592 0 51.0339 11.2082 572 92.7168 462.266 518.114
593 0 53.0769 11.813 627 92.7815 463.153 515.64
594 0 54.1744 12.3121 667 91.6222 465.123 514.072
595 0 56.0955 12.8353 720 89.3181 467.489 512.039
596 0 55.0654 12.6758 698 91.616 469.577 513.438
597 0 59.1419 13.9664 826 88.5048 472.446 511.197
598 0 60.0771 12.9001 775 92.3703 475.622 510.95
599 0 61.0557 12.5951 769 93.5995 477.135 512.633
600 0 64.0918 15.353 984 88.1839 479.487 509.671
601 0 66.022 14.6618 968 90.4432 481.672 513.732
602 0 67.1212 14.66 984 91.3811 483.24 508.901
603 0 70.0914 15.2943 1072 90.6231 483.382 510.837
604 0 73.1328 14.8907 1089 92.3903 485.229 510.233
605 0 76.075 13.5393 1030 95.4078 485.37 512.647
606 0 78.2033 14.3728 1124 94.7028 484.161 512.544
607 0 82.166 15.0792 1239 94.1332 481.944 509.517
608 0 79.2353 12.4692 988 101.408 479.985 512.088
609 0 84.3676 13.7019 1156 97.4585 478.294 509.19
610 1 48.1588 10.2785 495 102.269 475.717 530.84
611 0 45.0471 9.87855 445 107.067 472 533.427
612 0 47.1405 10.946 516 103.81 471.273 531.454
613 0 50.1232 12.2698 615 101.127 468.841 528.6
614 0 51.1918 12.502 640 101.134 468.503 526.517
615 0 52.2568 14.046 734 97.8242 466.732 525.834
616 0 55.3386 14.6733 812 94.3929 465.664 520.883
617 0 54.5067 12.9158 704 98.3963 464.845 520.518
618 0 56.172 12.4083 697 98.66 461.494 520.722
619 0 60.4207 13.8032 834 94.1559 462.692 516.668
620 0 60.3157 13.7941 832 88.262 462.376 516.864
621 0 61.3526 12.5667 771 90.5344 461.524 515.978
622 0 62.199 13.2157 822 88.6618 462.635 515.663
623 0 63.0489 13.0375 822 90.7117 462.275 511.939
624 0 65.1122 12.3786 806 92.4615 462.247 510.284
625 0 68.177 12.7316 868 92.3848 463.275 506.5
626 0 69.2239 13.478 933 93.1683 463.673 509.002
627 0 72.1551 12.0712 871 94.2744 465.589 504.356
628 0 74.1331 13.179 977 93.1801 467.143 503.48
629 0 77.1766 14.2141 1097 92.7566 468.941 501.158
630 0 77.2563 14.0571 1086 95.6004 470.502 500.169
631 0 81.206 13.8537 1125 95.2622 473.969 500.959
632 0 81.206 13.7551 1117 139.936 477.956 500.961
633 0 85.1524 12.8006 1090 100.355 478.667 499.405
634 0 88.1672 13.0661 1152 100.549 481.025 500.068
635 0 91.1196 14.2011 1294 100.126 482.379 499.838
636 0 92.1373 13.9249 1283 102.085 484.336 497.992
637 0 97.1127 16.0638 1560 96.1897 484.31 499.681
638 0 98.1697 15.0046 1473 100.46 483.865 494.108
639 0 102.208 14.4607 1478 101.23 483.793 496.673
640 0 106.18 15.257 1620 100.36 483.39 495.234
641 0 111.173 15.2555 1696 100.347 481.448 494.991
642 0 116.303 15.7519 1832 99.4236 479.721 494.526
643 0 119.34 16.2142 1935 100.972 477.528 489.183
644 0 122.313 15.5584 1903 103.824 475.789 486.533
645 0 127.495 14.5339 1853 107.353 472.678 486.717
646 0 133.395 15.9226 2124 103.999 470.872 489.102
647 0 136.495 15.1873 2073 106.582 470.69 486.164
648 0 141.405 16.2653 2300 103.983 467.753 478.361
649 0 145.691 15.876 2313 104.949 466.264 478.732
650 0 149.646 14.8016 2215 106.605 466.419 473.637
651 0 155.588 17.0965 2660 101.87 464.415 462.607
652 0 159.867 16.1321 2579 104.287 462.689 461.983
653 0 163.754 16.2988 2669 104.058 462.148 457.998
654 1 91.6134 12.6728 1161 103.216 461.295 496.875
655 0 91.3601 10.5407 963 104.065 460.807 499.548
656 0 96.5664 12.6959 1226 102.149 460.605 491.429
657 0 98.3972 13.8825 1366 99.3499 459.836 492.675
658 0 100.323 13.4166 1346 101.5 460.982 488.03
659 0 102.323 13.4672 1378 157.97 461.964 487.436
660 0 107.095 13.2872 1423 100.312 461.585 486.278
661 0 112.198 14.0912 1581 98.58 463.29 485.511
662 0 115.248 14.4645 1667 99.1056 464.821 482.224
663 0 118.262 12.8275 1517 102.506 467.479 480.247
664 0 123.259 13.6785 1686 100.744 470.594 476.025
665 1 68.1888 11.9814 817 98.8629 475.146 506.907
666 0 69.1452 11.5409 798 101.657 478.505 508.977
667 0 72.1886 12.2457 884 99.905 479.805 506.93
668 0 74.1188 12.3451 915 101.375 482.016 506.943
669 0 76.0625 13.4363 1022 100.125 483.469 506.993
670 0 81.0617 15.8768 1287 97.9122 484.751 508.839
671 0 83.1502 12.9885 1080 105.955 485.906 507.831
672 0 83.0894 13.8044 1147 104.874 485.03 507.36
673 0 89.2471 16.1686 1443 98.2128 482.832 504.948
674 0 93.1288 15.3443 1429 100.627 481.461 504.16
675 0 96.2684 13.7117 1320 104.658 479.947 503.316
676 0 99.2225 15.2486 1513 99.5142 478.981 505.434
677 0 101.161 13.7603 1392 103.338 475.43 501.234
678 0 108.325 14.2626 1545 94.9935 472.488 502.538
679 0 109.116 13.3619 1458 99.5514 469.095 501.652
680 0 113.149 14.0788 1593 101.891 467.851 496.543
681 0 117.197 14.6079 1712 100.2 465.636 493.249
682 0 121.231 14.7651 1790 100.724 464.206 490.152
683 0 123.119 12.9468 1594 103.925 462.548 491.046
684 0 128.19 14.026 1798 102.439 461.299 490.152
685 0 131.225 12.6272 1657 104.785 461.81 486.193
686 0 137.424 14.67 2016 97.3814 460.717 480.35
687 0 139.214 13.7845 1919 99.1074 460.091 480.142
688 0 144.33 14.5708 2103 98.2088 459.473 475.141
689 0 148.437 13.5007 2004 100.343 459.282 473.67
690 1 80.2561 12.5598 1008 96.5952 460.017 506.92
691 0 80.152 9.68161 776 102.96 460.642 505.75
692 0 83.1753 12.9005 1073 94.7847 460.059 501.927
693 0 87.1884 13.9468 1216 90.2064 460.55 502.325
694 0 89.2102 13.7316 1225 88.1535 461.198 498.246
695 0 91.2133 13.5068 1232 89.1997 462.306 494.654
696 0 94.283 14.5201 1369 89.0679 464.514 493.844
697 0 98.1457 14.0505 1379 89.0406 465.821 493.767
698 0 101.354 13.6354 1382 90.5051 468.717 492.633
699 0 103.408 12.9003 1334 93.6402 471.311 488.652
700 0 107.224 13.6164 1460 92.7185 474.046 486.773
701 1 48.0208 8.82951 424 91.1651 478.281 522.884
702 0 49.0537 10.886 534 89.3015 480.506 521.376
703 0 51.0587 10.9678 560 90.8 481.552 520.389
704 0 54.1179 12.4913 676 87.1953 482.462 519.814
705 0 54.1234 12.6932 687 88.9112 482.723 520.953
706 0 56.1054 11.7814 661 89.0741 481.995 524.339
707 0 59.1136 12.8228 758 88.7084 480.6 522.123
708 0 58.0386 11.8197 686 91.1079 477.523 525.895
709 0 60.1177 11.9432 718 91.6462 478.522 524.861
710 0 60.0361 11.6763 701 92.9786 476.461 523.663
711 0 64.1338 12.7078 815 90.8307 473.444 520.944
712 0 67.0943 14.0101 940 87.967 471.668 521.871
713 0 71.1388 13.565 965 87.9212 470.47 521.341
714 0 71.2337 12.1151 863 89.7497 468.885 520.778
715 0 71.114 11.3058 804 93.6542 465.133 520.249
716 0 78.1251 13.6704 1068 87.7219 466.287 517.18
717 1 39.0372 9.19635 359 94.7187 464.914 533.741
718 0 41.0427 10.7936 443 91.8939 463.059 532.167
719 0 42.0327 10.6822 449 91.4699 462.833 531.049
720 0 42.1748 10.741 453 93.1413 462.461 531.066
721 0 45.1043 13.0143 587 90.0068 461.092 525.744
722 0 46.0953 12.3006 567 90.7954 456.806 525.908
723 0 47.339 10.7945 511 86.225 457.728 520.478
724 0 46.0576 11.9199 549 88.0328 456.055 518.851
725 0 47.1275 11.8614 559 89.195 456.565 516.306
726 0 50.0318 13.0717 654 90.6376 456.286 518.187
727 0 54.0698 13.0757 707 89.3734 456.778 516.482
728 0 52.0426 12.4898 650 92.3292 458.168 516.474
729 0 54.0628 13.1329 710 92.2028 459.292 513.863
730 0 56.0763 14.0523 788 89.7056 461.915 513.834
731 0 58.0561 14.1932 824 89.8847 463.734 514.436
732 0 61.0884 13.5869 830 91.8132 466.889 515.558
733 0 61.0532 13.6766 835 93.9964 469.677 515.353
734 0 65.0472 13.3442 868 93.8283 471.895 515.008
735 0 64.0363 13.9765 895 94.3464 474.469 514.808
736 0 67.1194 14.3327 962 94.3669 476.657 513.782
737 0 67.1137 13.5889 912 96.9156 477.363 511.722
738 0 73.2199 13.958 1022 94.7701 478.339 512.433
739 0 73.0723 14.3283 1047 95.0506 478.253 513.71
740 0 77.0543 13.5489 1044 97.5661 477.937 513.339
741 0 80.1174 14.7034 1178 96.3353 476.858 513.5
742 0 80.0627 14.4387 1156 98.2154 475.448 514.362
743 0 86.1087 14.563 1254 97.7759 474.763 511.868
744 0 88.1067 16.1395 1422 93.8404 472.973 512.877
745 1 48.0522 13.0483 627 99.2265 470.392 529.075
746 0 51.1011 13.6201 696 97.0905 468.072 529.523
747 0 53.1376 14.8294 788 93.8642 468.643 529.902
748 0 52.3758 13.9186 729 91.8505 467.488 523.792
749 0 54.0611 13.4662 728 86.8764 464.809 525.611
750 0 56.3317 13.7755 776 95.5902 464.009 528.039
751 0 57.1848 13.8149 790 85.6899 462.69 522.982
752 0 58.2011 13.1613 766 87.6345 461.04 523.219
753 0 60.1623 14.3944 866 85.3187 459.846 518.518
754 0 64.2242 14.3871 924 85.2164 459.396 518.565
755 0 65.1914 14.4344 941 85.6727 459.061 514.864
756 0 66.159 15.236 1008 85.2073 458.267 514.98
757 0 68.1647 14.685 1001 86.0669 458.321 511.347
758 0 70.0375 13.5499 949 88.5585 458.627 511.309
759 0 74.1044 14.9924 1111 84.9505 459.53 510.354
760 0 77.1538 15.4626 1193 83.5524 459.318 506.172
761 0 76.0989 14.3498 1092 87.0082 459.808 506.364
762 0 79.112 14.9661 1184 86.2382 460.648 504.024
763 0 82.2352 14.2032 1168 87.601 462.438 503.182
764 1 44.0761 11.1171 490 87.3306 463.98 523.429
765 0 42.1168 11.4919 484 89.9959 466.103 522.934
766 0 47.1482 10.7958 509 90.4715 467.784 521.397
767 0 45.1072 9.73237 439 93.1207 471.232 523.556
768 0 49.1325 13.3313 655 88.2122 474.594 521.495
769 0 50.08 12.5399 628 89.9873 476.213 520.24
770 0 52.1902 15.3477 801 87.7665 478.508 522.617
771 0 55.1421 16.2671 897 85.942 479.701 521.763
772 0 57.1398 14.6483 837 87.1135 479.571 518.992
773 0 59.1844 15.6291 925 85.2022 480.478 519.482
774 0 63.2325 14.6602 927 88.3031 479.886 522.401
775 0 65.1121 15.9725 1040 86.0125 479.547 521.164
776 0 65.1205 14.9108 971 86.3244 477.715 520.415
777 0 69.149 14.8665 1028 86.2111 477.301 521.885
778 0 71.079 14.6598 1042 87.3378 475.184 518.987
779 0 73.1544 14.9547 1094 87.0347 473.169 516.952
780 1 39.0775 10.4664 409 91.3839 470.958 536.834
781 0 40.0716 12.0534 483 90.5155 469.168 535.783
782 0 41.0072 9.65684 396 93.6061 467.624 536.23
783 0 45.1446 11.7844 532 91.0489 465.773 532.724
784 0 44.0303 11.265 496 93.8851 464.411 532.222
785 0 47.0736 11.5564 544 96.3879 463.476 530.235
786 0 49.0185 13.5663 665 91.6677 461.868 529.39
787 0 49.094 13.8102 678 93.1667 460.145 524.043
788 0 52.0948 13.8977 724 92.2003 460.153 521.435
789 0 53.1206 14.1941 754 90.321 459.032 522.45
790 0 56.257 13.2606 746 93.3003 458.487 518.312
791 0 57.2275 14.5385 832 91.8834 459.556 516.126
792 0 58.1135 14.0243 815 93.5558 458.513 514.894
793 0 60.2259 14.1966 855 93.0374 459.274 511.398
794 0 62.1195 14.7619 917 92.59 459.942 512.264
795 0 65.1684 15.8359 1032 90.0727 460.015 509.925
796 0 66.1387 13.8346 915 94.6295 461.528 509.995
797 0 67.472 14.154 955 95.444 462.552 504.825
798 0 70.2423 14.6351 1028 94.6576 463.867 503.991
799 0 74.3561 15.2509 1134 93.2196 465.907 503.34
800 0 75.391 14.7896 1115 95.3058 468.17 500.964
801 0 78.169 14.2896 1117 97.2247 470.948 499.914
802 0 78.3796 13.4729 1056 99.7244 474.723 498.095
803 1 40.3172 10.3678 418 98.2297 475.715 523.763
804 0 40.2658 11.6228 468 98.5214 477.966 522.385
805 0 42.2599 13.3223 563 95.0782 479.179 522.975
806 0 45.3367 12.5947 571 95.8704 479.855 524.312
807 0 45.2305 12.8674 582 97.4656 480.222 525.775
808 0 48.207 13.9606 673 95.321 480.241 524.12
809 0 49.2297 13.6097 670 94.8716 479.039 523.563
810 0 52.3531 14.6505 767 94.2242 477.768 524.147
811 0 54.2047 13.0062 705 97.044 476.408 525.216
812 0 57.1555 14.1019 806 95.0645 474.47 525.125
813 0 58.1589 14.512 844 94.6386 472.705 523.833
814 0 60.2186 14.8127 892 95.4238 470.07 521.705
815 0 61.1393 13.5919 831 98.4164 468.747 521.523
816 0 65.2517 15.1414 988 94.7915 467.091 520.312
817 0 66.1817 14.7322 975 94.8738 465.587 523.231
818 0 70.2339 14.4375 1014 95.5641 464.313 521.02
819 0 72.1654 14.2312 1027 96.1743 462.501 516.928
820 0 74.286 14.5384 1080 95.1407 461.895 512.987
821 0 78.2535 15.5776 1219 92.7482 460.162 512.153
822 0 80.1096 15.1667 1215 92.9704 459.928 510.015
823 0 82.1548 15.982 1313 91.3549 458.335 504.65
824 0 85.1855 14.5799 1242 94.2327 458.913 504.21
825 0 86.3369 14.8372 1281 94.1296 457.987 501.22
826 1 46.0265 12.7101 585 94.3709 457.981 521.014
827 0 46.0265 12.797 589 135.384 456.976 521.129
828 0 47.066 11.6432 548 94.761 458.631 518.066
829 0 49.1282 11.8669 583 95.1492 460.232 515.48
830 0 51.1217 12.4996 639 92.2739 460.947 513.235
831 0 51.0892 11.705 598 94.5217 462.614 510.656
832 0 56.353 14.9415 842 91.8112 465.3 514.683
833 0 56.361 13.9281 785 95.2127 469.116 513.417
834 0 57.17 12.0343 688 96.5799 470.468 512.003
835 0 58.2407 12.4312 724 96.395 473.428 510.287
836 0 62.2528 14.0235 873 93.4135 475.485 510.615
837 0 64.2043 12.2733 788 95.4454 478.56 512.069
838 0 67.1685 14.7093 988 91.5962 480.133 510.404
839 0 69.2008 14.2628 987 94.2715 480.925 509.481
840 0 71.1896 13.9768 995 96.0543 480.883 510.839
841 0 77.1811 13.2545 1023 96.8846 481.473 513.285
842 0 77.4649 13.7353 1064 98.0611 479.649 510.891
843 0 78.5457 13.1007 1029 101.316 477.754 505.112
844 0 83.6613 15.001 1255 96.7458 476.227 507.063
845 0 85.4611 14.2638 1219 99.4824 474.217 505.291
846 0 88.8034 14.7629 1311 98.5286 472.238 503.349
847 0 90.7094 14.2874 1296 98.9066 468.982 502.032
848 0 95.807 14.8528 1423 96.2867 468.483 501.236
849 1 51.5127 10.4052 536 96.2649 466.72 524.274
850 0 50.4401 10.8247 546 97.348 466.396 523.342
851 0 53.5146 11.6604 624 96.3157 462.864 520.782
852 0 57.4442 11.1064 638 95.1458 462.067 522.614
853 0 59.4619 12.6131 750 93.5613 461.683 521.284
854 0 57.3567 12.5879 722 95.2244 460.029 515.727
855 0 63.4862 13.625 865 91.2277 459.117 517.477
856 0 62.4173 13.2175 825 94.9782 458.513 512.886
857 0 66.54 14.202 945 91.3788 458.34 510.095
858 0 68.3708 13.9826 956 93.8912 458.149 507.816
859 0 72.4379 13.8325 1002 92.7824 457.808 508.363
860 0 70.6383 13.2789 938 95.2228 458.055 506.574
861 0 74.1223 12.4254 921 97.4528 459.009 505.768
862 0 76.2268 12.7908 975 96.2697 460.524 506.332
863 0 80.1924 12.4077 995 97.4191 461.687 502.417
864 0 81.1724 13.4036 1088 96.6232 463.083 501.206
865 0 83.2617 13.0672 1088 97.3061 464.068 500.619
866 0 85.3842 12.9532 1106 98.5976 466.7 499.889
867 0 88.4287 14.1696 1253 96.2977 468.999 497.505
868 0 88.3201 12.0131 1061 101.992 471.401 496.223
869 0 92.5034 12.7671 1181 100.354 473.268 496.638
870 1 53.4049 11.4971 614 94.3241 475.277 519.951
871 0 54.187 11.0174 597 94.5159 476.337 520.392
872 0 56.2533 11.146 627 92.9234 478.311 520.552
873 0 59.3291 11.5963 688 91.2922 479.119 521.452
874 0 59.1533 12.121 717 92.9317 480.664 519.379
875 0 62.0423 12.2014 757 91.4848 480.982 520.332
876 0 62.0606 11.8433 735 94.7619 479.546 519.403
877 0 65.0415 13.1762 857 93.2205 478.256 519.832
878 0 67.0766 11.3452 761 96.7424 476.963 521.996
879 0 71.1029 11.7998 839 94.4613 474.843 519.03
880 0 74.1062 13.1703 976 92.2613 472.491 519.279
881 0 75.0729 13.347 1002 92.7964 470.427 516.224
882 0 78.1045 13.3795 1045 92.1866 467.496 515.401
883 0 81.05 13.1894 1069 93.8017 466.353 510.568
884 0 82.1328 13.0886 1075 94.8837 465.754 511.964
885 0 86.1574 12.1638 1048 96.3731 463.574 508.391
886 1 47.0452 11.0957 522 91.3046 462.998 530.404
887 0 49.0459 9.90908 486 91.3889 461.675 530.533
888 0 49.0403 10.7463 527 94.5465 460.512 523.085
889 0 52.0842 10.7134 558 93.8441 459.538 523.573
890 0 54.1586 11.9464 647 94.2751 458.734 520.365
891 0 56.1193 11.529 647 95.6105 455.179 517.167
892 0 57.1602 11.669 667 91.0195 455.98 519.003
893 0 56.0514 10.9542 614 91.5554 455.287 518.482
894 0 57.038 11.5537 659 92.5645 456.637 515.595
895 0 61.1095 11.6349 711 90.2068 457.52 516.412
896 0 62.0869 13.6905 850 87.3882 458.302 512.719
897 0 61.0338 10.6498 650 93.0323 458.457 510.629
898 0 64.0569 11.521 738 92.5081 461.075 510.533
899 0 70.0404 13.4208 940 87.6489 462.436 510.37
900 0 69.0245 11.5321 796 93.1156 464.597 508.47
901 0 72.0626 11.5594 833 94.2137 468.622 511.029
902 0 73.0727 13.2608 969 91.6481 471.535 510.626
903 0 75.038 11.7674 883 94.9309 473.553 509.502
904 0 78.092 12.7286 994 94.4779 475.995 510.22
905 0 81.1063 12.0213 975 95.3805 476.953 504.629
906 0 84.0451 10.8751 914 97.2385 477.51 506.065
907 0 88.0589 13.1503 1158 95.3057 477.159 504.687
908 0 90.1244 12.5937 1135 97.467 477.67 505.187
909 0 96.1982 14.0959 1356 95.0885 477.375 502.407
910 0 98.1905 11.5795 1137 100.249 476.536 506.046
911 0 103.308 12.8742 1330 98.9436 476.762 506.673
912 1 55.0362 13.0641 719 96.5188 475.726 528.641
913 0 54.2071 12.5998 683 98.2767 474.562 527.909
914 0 58.0963 14.0284 815 95.454 471.909 526.602
915 0 57.0538 13.9693 797 97.6863 470.113 524.217
916 0 61.0864 13.3909 818 96.9535 467.888 526.985
917 0 63.1385 14.6345 924 94.9524 466.979 525.255
918 0 65.1693 13.7641 897 96.4114 464.909 521.506
919 0 67.1379 13.3457 896 96 463.413 522.83
920 0 69.2315 14.4876 1003 94.0947 461.655 518.107
921 0 72.1652 14.3698 1037 94.1543 461.784 517.376
922 0 73.2382 13.9408 1021 95.7277 459.253 513.41
923 0 75.3185 15.1888 1144 94.1049 458.531 511.774
924 0 76.1988 14.2653 1087 96.3735 458.53 509.574
925 0 81.139 14.8264 1203 93.882 457.905 506.904
926 0 83.3039 14.6332 1219 94.1969 457.843 502.99
927 0 85.1109 14.3225 1219 96.2445 458.718 503.583
928 1 43.0438 12.3363 531 101.476 459.883 523.134
929 0 44.0515 11.5093 507 102.724 460.777 522.112
930 0 45.0138 12.4406 560 103.034 461.255 519.47
931 0 48.031 12.0755 580 99.7862 462.852 519.191
932 0 50.031 12.2124 611 96.3519 465.288 519.025
933 0 50.0461 13.4076 671 95.1222 467.282 517.955
934 0 53.111 13.6695 726 94.4959 469.409 517.337
935 0 52.0317 13.7993 718 95.8746 471.44 520.762
936 0 53.0326 13.0863 694 98.0173 473.824 519.321
937 0 55.1348 12.9138 712 98.9803 477.291 518.101
938 0 57.1192 13.358 763 97.7811 479.075 517.553
939 0 61.1127 14.9232 912 93.7873 480.545 516.956
940 0 61.1457 14.6045 893 95.5398 480.992 517.016
941 0 64.05 14.5824 934 95.3951 481.731 518.724
942 0 66.0788 13.2872 878 98.5945 481.227 520.557
943 0 68.058 13.8558 943 98.2025 479.069 516.746
944 0 70.1301 14.1737 994 97.328 479.025 518.46
945 0 75.114 14.9639 1124 96.7714 476.873 517.773
946 1 40.0126 10.8716 435 100.991 475.782 535.995
947 0 40.0132 12.4459 498 100.914 473.568 534.568
948 0 42.0638 11.5539 486 101.426 470.403 534.601
949 0 43.3084 13.4616 583 98.1406 466.683 529.557
950 0 42.2807 12.6299 534 96.4045 466.659 524.034
951 0 45.0984 11.5747 522 92.7644 463.45 528.306
952 0 46.1595 13.1501 607 90.6112 462.661 525.285
953 0 46.117 13.2055 609 91.1018 461.108 523.123
954 0 50.1684 12.8766 646 89.7508 459.734 522.269
955 0 52.0721 12.6939 661 89.8517 458.961 520.342
956 0 53.2713 13.572 723 89.1438 457.698 518.765
957 0 53.2534 13.6329 726 90.5606 457.313 515.898
958 0 54.0911 12.2571 663 92.822 456.967 514.569
959 0 57.1375 12.2162 698 93.159 456.659 513.812
960 0 59.0831 14.5896 862 88.7958 456.976 509.919
961 0 61.1319 14.7877 904 87.5752 457.739 505.42
962 0 63.0623 13.6532 861 88.9582 459.228 506.574
963 0 63.0996 11.6166 733 93.3083 460.045 506.055
964 0 67.0994 13.8153 927 89.0701 462.305 504.68
965 0 69.2376 15.2952 1059 86.7951 464.377 504.069
966 0 71.0676 14.2822 1015 90.0877 466.702 502.918
967 0 73.1684 14.1728 1037 91.5815 469.354 503.878
968 0 77.2573 14.1087 1090 92.0881 472.298 504.227
969 0 79.0526 14.231 1125 94.0836 474.962 502.596
970 1 40.0457 11.0374 442 95.8937 477.432 522.787
971 0 43.0216 11.5523 497 94.6056 480.139 525.099
972 0 42.1268 11.2992 476 93.8193 480.025 520.456
973 0 44.1924 12.1288 536 93.375 481.377 523.019
974 0 45.1194 11.4142 515 96.2466 481.67 522.569
975 0 46.0545 11.9424 550 97.2182 480.378 523.442
976 0 49.1313 12.8431 631 94.7623 478.578 523.672
977 0 50.197 12.0127 603 95.4793 477.824 524.085
978 0 53.231 13.8453 737 89.4179 475.486 522.925
979 0 54.0993 12.1443 657 92.414 473.167 522.813
980 0 56.1299 14.2348 799 89.1877 470.841 517.954
981 0 56.1982 12.9186 726 92.0276 468.745 519.591
982 0 60.2214 13.8821 836 91.0096 467.368 516.989
983 0 63.1374 13.4152 847 92.013 466.059 515.313
984 0 63.2103 12.3398 780 94.2436 464.459 514.409
985 0 68.1932 13.799 941 89.4176 462.868 512.588
986 0 68.1418 12.1364 827 93.9323 461.125 508.99
987 0 70.2129 12.9891 912 93.0241 460.561 506.104
988 0 73.2123 12.2794 899 92.0011 458.966 505.855
989 0 76.3031 13.9575 1065 90.0751 457.962 500.778
990 0 76.3435 13.4131 1024 93.6084 457.547 499.738
991 1 43.1005 10.4407 450 94.8667 457.591 517.12
992 0 41.0341 9.35807 384 98.9557 456.497 512.984
993 0 46.0418 10.0778 464 94.3987 457.297 511.746
994 0 44.3237 9.83672 436 96.4381 458.248 508.135
995 0 49.2206 12.637 622 90.8826 459.283 509.876
996 0 51.3224 13.1716 676 90.1612 460.848 506.001
997 0 52.022 12.0718 628 84.7261 463.352 508.387
998 0 53.1002 12.58 668 83.9371 465.4 508.662
999 0 54.0884 11.9249 645 86.2899 468.011 506.642
1000 0 53.0593 10.5165 558 92.6882 471.871 507.699
1001 0 58.1076 11.8057 686 89.6122 473.768 505.646
1002 0 62.0819 12.113 752 87.5465 477.105 507.384
1003 0 63.0911 13.1397 829 87.0434 478.567 507.503
1004 0 65.128 12.3296 803 88.0473 480.814 505.933
1005 0 67.0884 11.224 753 89.0438 481.834 507.709
1006 0 71.2028 12.1063 862 87.71 482.487 508.365
1007 0 74.1134 12.3594 916 87.7183 482.448 507.776
1008 1 39.1601 10.3932 407 82.2211 481.533 527.744
1009 0 41.1821 5.97346 246 84.6626 479.321 528.65
1010 0 42.1275 9.66114 407 81.9803 478.767 526.408
1011 0 44.1088 9.34055 412 83.2767 477.738 528.002
1012 0 46.0717 11.9162 549 83.3151 475.47 527.874
1013 0 47.1214 12.3298 581 85.0774 472.924 528.148
1014 0 49.1965 12.0537 593 90.9899 471.162 526.484
1015 0 51.0758 13.7443 702 87.5954 469.51 528.788
1016 0 50.0171 10.8163 541 93.5453 468.083 527.791
1017 0 53.0679 13.8502 735 89.3823 465.868 525.814
1018 0 55.0744 13.8721 764 88.7958 466.096 525.182
1019 0 57.078 14.5415 830 87.7699 463.253 523.033
1020 0 58.0752 13.5342 786 91.5802 462.561 522.288
1021 0 60.1137 13.1418 790 91.9278 461.603 519.206
1022 0 61.1312 13.2993 813 91.6015 460.348 517.742
1023 0 64.2961 13.5467 871 91.5247 460.474 513.046
1024 0 66.084 13.6644 903 92.2669 459.708 511.24
1025 0 69.0564 13.9596 964 92.251 459.733 509.768
1026 0 71.0913 14.8823 1058 91.2316 459.616 508.241
1027 0 72.071 14.2637 1028 93.536 459.484 506.081
1028 0 74.041 13.6006 1007 95.2522 460.7 505.64
1029 0 76.0632 13.9489 1061 95.345 461.57 503.582
1030 0 80.115 14.242 1141 94.8203 464.386 499.998
1031 0 82.1165 15.1614 1245 93.8402 465.708 498.096
1032 0 87.2058 16.1457 1408 91.8388 467.624 497.253
1033 0 88.2055 15.838 1397 94.3085 471.068 495.172
1034 0 91.105 14.8071 1349 96.7124 473.196 495.876
1035 1 51.0207 11.9363 609 98.1051 475.479 518.243
1036 0 52.1273 11.1074 579 102.48 477.767 520.452
1037 0 54.0922 11.9611 647 101.977 479.199 519.236
1038 0 56.2967 12.9848 731 101.669 480.391 517.959
1039 0 60.0448 14.2893 858 99.2902 479.514 519.051
1040 0 61.4044 14.4941 890 99.7596 480.237 518.385
1041 0 64.4284 15.7074 1012 98.0069 478.989 517.688
1042 0 68.453 15.6896 1074 96.6182 478.303 518.863
1043 0 68.2946 14.8914 1017 100.925 476.185 518.4
1044 0 74.389 15.6475 1164 97.89 474.69 518.944
1045 0 75.4351 14.7677 1114 101.306 471.607 517.483
1046 0 76.3604 15.178 1159 101.541 469.467 517.475
1047 0 80.2299 15.9916 1283 99.0826 467.936 515.587
1048 0 83.4655 15.8988 1327 99.0603 466.197 514.629
1049 0 87.2917 16.7943 1466 97.5061 464.45 511.381
1050 1 45.1467 11.1415 503 104.119 463.111 533.032
1051 0 46.06 10.66 491 100.798 463.043 532.475
1052 0 49.1475 13.2458 651 96.3932 461.766 528.281
1053 0 48.1153 11.223 540 101.676 460.689 526.824
1054 0 50.3506 11.9363 601 102.02 459.324 523.246
1055 0 52.2368 12.4816 652 99.977 458.544 521.945
1056 0 53.1224 12.0288 639 101.437 458.099 520.529
1057 0 52.0803 13.5944 708 99.0607 457.504 519.757
1058 0 58.1065 14.6627 852 94.4777 457.484 516.473
1059 0 60.1568 16.0082 963 92.3936 457.348 514.159
1060 0 62.2224 14.5125 903 95.6722 457.71 510.879
1061 0 62.1901 14.5522 905 97.4011 459.515 509.07
1062 0 65.1544 14.6268 953 95.8017 459.962 509.147
1063 0 66.1113 13.084 865 99.5538 461.699 504.838
1064 0 68.2744 14.3978 983 95.4781 463.812 504.828
1065 0 71.1879 14.7216 1048 94.7424 465.559 503.943
1066 0 75.2268 14.0243 1055 94.3062 468.128 502.698
1067 0 77.1398 15.3617 1185 91.2523 470.997 500.621
1068 0 80.2215 14.8464 1191 92.6003 472.981 503.003
1069 0 83.2844 15.309 1275 91.0329 475.049 498.767
1070 1 42.1026 10.3794 437 97.8741 478.412 521.146
1071 0 49.1406 13.9599 686 93.3222 477.866 520.71
1072 0 50.2469 11.8017 593 93.7437 479.133 522.147
1073 0 50.3545 11.8957 599 95.1436 478.694 521.104
1074 0 53.2741 12.9519 690 92.0551 478.59 521.188
1075 0 54.3531 14.2586 775 90.2297 476.883 519.294
1076 0 57.0388 14.008 799 89.3354 475.527 521.327
1077 0 58.0391 13.4564 781 90.8233 474.935 520.785
1078 0 59.0687 14.6609 866 88.746 473.431 519.993
1079 0 61.0365 13.3527 815 88.3583 470.366 519.572
1080 0 65.0396 12.5308 815 88.5755 468.768 518.045
1081 1 36.0205 7.44022 268 95.1903 467.377 533.981
1082 0 41.0934 8.73619 359 93.507 467.772 528.838
1083 0 37.0414 7.31613 271 96.7196 466.683 529.816
1084 0 39.1551 7.8917 309 93.657 465.197 531.139
1085 0 39.1551 7.91724 310 120.419 464.2 531.342
1086 0 36.0174 9.24552 333 96.4625 459.099 527.183
1087 0 38.0257 9.94064 378 93.3783 458.291 527.675
1088 0 48.0222 11.932 573 90.5724 456.969 520.953
1089 0 46.0539 10.2489 472 92.9555 456.551 521.216
1090 0 46.0293 10.6888 492 91.7805 456.78 520.878
1091 0 51.0386 12.3632 631 88.8542 457.244 517.954
1092 0 53.0681 12.7383 676 89.2396 457.706 515.713
1093 0 53.0158 13.2602 703 90.0711 457.789 513.92
1094 0 54.0772 13.1664 712 91.2374 458.857 511.596
1095 0 54.087 12.1286 656 82.1677 462.203 510.639
1096 0 57.0425 13.0955 747 80.0576 463.672 509.244
1097 0 59.0366 11.5522 682 81.8534 466.428 510.528
1098 0 61.0775 13.7039 837 80.3955 468.676 506.763
1099 0 63.0613 12.6385 797 82.4291 470.11 508.553
1100 0 65.076 12.8004 833 82.5354 473.441 507.432
1101 0 70.1242 13.1909 925 82.253 474.831 507.977
1102 0 71.0765 13.7457 977 82.9611 477.286 505.926
1103 0 73.091 13.5584 991 84.441 478.454 506.44
1104 0 77.113 13.3311 1028 84.9893 479.062 507.686
1105 1 41.0489 10.8164 444 84.6802 479.288 525.041
1106 0 43.0706 10.2622 442 86.5611 479.891 525.59
1107 0 48.0413 10.5326 506 85.5138 479.085 525.787
1108 0 47.0718 12.5553 591 95.3503 475.765 525.99
1109 0 51.1066 14.9687 765 91.0915 474.838 526.583
1110 0 51.1857 12.0932 619 90.5154 473.488 522.777
1111 0 53.0962 12.5621 667 94.7961 471.117 520.306
1112 0 55.1871 13.9707 771 97.9857 467.693 523.973
1113 0 58.1469 14.9621 870 95.6356 465.13 521.341
1114 0 60.1316 14.2853 859 97.1746 463.884 521.623
1115 0 62.2211 13.9663 869 99.8711 462.593 517.812
1116 0 65.1712 14.8532 968 97.0919 461.072 517.909
1117 0 66.2178 15.0866 999 97.5706 459.769 515.753
1118 0 68.1339 14.3394 977 99.7462 458.006 512.65
1119 0 71.2415 15.2299 1085 98.6857 457.969 508.905
1120 0 76.3238 15.7618 1203 96.6309 456.395 506.234
1121 0 77.3855 14.4988 1122 100.142 456.05 505.414
1122 1 37.2694 10.8132 403 104.052 456.181 521.911
1123 0 38.2115 10.1017 386 104.764 456.181 521.163
1124 0 42.1916 11.5663 488 103.535 456.545 517.449
1125 0 42.1927 13.0828 552 101.732 457.9 515.92
1126 0 43.2918 12.5197 542 102.026 459.137 517.013
1127 0 46.3636 12.8549 596 101.044 460.844 516.765
1128 0 45.2496 13.3482 604 102.535 462.757 516.058
1129 0 48.1465 15.0374 724 98.8881 465.068 515.202
1130 0 49.1849 14.0084 689 101.817 467.485 514.38
1131 0 51.3014 14.4051 739 100.245 470.238 514.87
1132 0 51.2731 14.8421 761 100.951 473.037 514.286
1133 0 53.1848 14.8915 792 100.832 474.965 514.986
1134 0 53.3074 13.5066 720 104.149 476.901 516.336
1135 0 57.2658 15.9083 911 98.4226 479.155 516.645
1136 0 59.248 13.7389 814 103.869 479.534 515.034
1137 0 62.215 14.0802 876 102.074 479.911 516.341
1138 0 65.211 15.5649 1015 98.069 479.871 517.952
1139 0 66.2107 14.2273 942 101.815 479.048 516.311
1140 0 72.2647 14.2116 1027 93.1655 476.5 514.528
1141 0 71.2112 13.8883 989 97.5076 475.908 514.018
1142 0 75.3601 13.5881 1024 98.4951 474.899 511.013
1143 1 39.3179 11.0891 436 97.3005 469.711 531.706
1144 0 40.3148 9.50024 383 96.8747 467.279 535.326
1145 0 40.0896 11.4494 459 97.597 466.024 531.961
1146 0 43.171 11.883 513 98.5672 464.737 528.023
1147 0 45.2175 12.473 564 98.7429 463.574 527.011
1148 0 46.4091 12.6053 585 99.9641 462.212 525.973
1149 0 49.1774 14.8442 730 94.9 460.738 525.251
1150 0 51.1499 14.4868 741 94.2915 458.955 523.397
1151 0 52.0185 13.649 710 99.0437 457.124 520.956
1152 0 56.127 15.3046 859 99.4948 455.575 522.631
1153 0 58.1361 14.0704 818 102.95 455.469 519.1
1154 0 58.1952 13.9359 811 103.457 454.803 516.75
1155 0 60.0884 13.6466 820 104.893 454.271 515.573
1156 0 61.1167 14.9877 916 102.669 454.581 512.878
1157 0 64.0349 14.1173 904 102.597 455.638 511.324
1158 0 67.1208 14.9879 1006 99.9781 456.318 511.49
1159 0 70.2459 15.3461 1078 99.0946 457.627 508.289
1160 0 71.3464 15.0393 1073 100.385 458.99 505.568
1161 1 38.081 12.6835 483 92.0021 462.29 523.426
1162 0 39.0996 12.2508 479 91.2401 465.081 524.837
1163 0 39.0438 11.7816 460 94.3239 467.543 521.98
1164 0 41.1386 11.4977 473 96.0909 470.381 525.734
1165 0 41.0614 11.5193 473 98.296 472.592 523.715
1166 0 45.051 12.9631 584 93.5616 474.565 523.791
1167 0 46.116 14.984 691 93.9884 476.766 526.577
1168 0 47.0316 14.6285 688 95.6163 477.92 525.321
1169 0 50.0612 14.8219 742 93.9151 478.887 526.338
1170 0 52.1139 13.6624 712 95.9452 478.549 527.676
1171 0 52.1165 13.2012 688 97.1919 477.823 528.501
1172 0 55.0925 14.0673 775 94.3987 476.155 526.824
1173 0 57.0347 14.5525 830 93.147 475.004 528.884
1174 0 59.049 14.8859 879 94.7873 473.202 529.455
1175 0 61.0123 14.5708 889 96.2553 471.256 526.993
1176 0 66.0342 15.6434 1033 92.3195 468.379 526.011
1177 0 66.0711 14.7266 973 96.3577 466.247 523.839
1178 0 69.1015 15.3687 1062 94.8305 464.186 522.551
1179 0 71.0684 14.6056 1038 96.7245 462.651 521.259
1180 0 73.0909 15.255 1115 95.6708 461.865 521.909
1181 0 77.1377 15.1677 1170 93.9316 459.015 519.874
1182 0 78.1662 16.2474 1270 93.4717 458.835 516.592
1183 0 81.0918 15.8832 1288 94.8502 457.257 514.337
1184 0 83.0778 15.636 1299 98.3156 456.85 511.386
1185 0 85.2566 14.732 1256 100.502 455.817 510.137
1186 0 87.2686 13.1663 1149 105.259 454.778 508.03
1187 0 91.1985 15.384 1403 101.098 455.233 505.239
1188 1 48.1301 11.552 556 106.914 454.95 527.059
1189 0 51.0752 12.3152 629 107.041 456.671 523.412
1190 0 53.1243 14.0049 744 104.56 457.075 521.468
1191 0 53.0193 14.3721 762 104.899 457.707 519.47
1192 0 54.1731 14.9336 809 102.838 458.457 515.4
1193 0 55.1724 14.3913 794 103.655 459.409 519.016
1194 0 58.1992 14.3816 837 103.993 462.234 516.794
1195 0 60.1058 15.7722 948 101.402 464.919 514.755
1196 0 62.1289 15.0333 934 103.194 466.586 516.357
1197 0 64.1157 14.739 945 104.016 469.344 515.844
1198 0 67.1255 14.4952 973 108.925 472.528 513.641
1199 0 70.0981 15.7351 1103 106.1 475.16 513.81
1200 0 73.1318 15.9438 1166 106.356 476.172 513.765
1201 1 37.0736 11.9492 443 113.393 476.512 531.804
1202 0 40.1096 11.7428 471 111.609 477.372 531.622
1203 0 42.1292 11.7496 495 113.095 477.838 532.806
1204 0 43.0908 14.1098 608 110.643 476.855 531.965
1205 0 45.0251 13.7257 618 110.914 475.905 531.717
1206 0 47.0982 14.629 689 111.743 475.061 529.001
1207 0 50.0866 15.2935 766 111.367 473.191 527.522
1208 0 52.1246 14.3502 748 112.287 469.789 528.084
1209 0 54.1611 16.0632 870 107.341 467.89 524.709
1210 0 55.1121 16.2033 893 107.792 465.853 525.997
1211 0 59.1622 16.3449 967 107.37 464.839 522.952
1212 0 61.0571 16.1324 985 108.669 463.485 520.618
1213 0 62.0309 15.718 975 116.938 460.529 519.347
1214 0 65.0639 16.6298 1082 113.787 459.472 517.988
1215 0 68.1847 16.3233 1113 114.147 458.12 514.495
1216 0 69.06 16.0295 1107 117.401 456.49 511.813
1217 0 72.1868 16.3465 1180 116.41 456.048 511.895
1218 0 73.0703 15.6014 1140 117.822 456.073 509.207
1219 0 77.1217 16.4026 1265 115.043 456.287 506.364
1220 1 38.056 13.7954 525 119.855 456.524 524.255
1221 0 41.0358 14.0853 578 119.106 455.99 523.503
1222 0 38.3627 11.678 448 124.853 456.446 523.569
1223 0 40.0473 14.6077 585 120.306 457.901 520.771
1224 0 43.0781 14.8567 640 119.475 457.981 518.414
1225 0 44.108 14.8499 655 121.267 460.405 518.27
1226 0 47.1523 16.0331 756 118.415 461.737 516.218
1227 0 49.1049 16.4953 810 117.817 465.409 516.216
1228 0 50.1695 15.8662 796 121.976 467.799 516.338
1229 0 53.0849 18.3103 972 115.715 470.619 515.046
1230 0 53.2493 16.9767 904 121.833 473.678 516.952
1231 0 57.1577 17.4955 1000 119.748 475.269 517.597
1232 0 59.12 17.0331 1007 122.17 477.571 517.621
1233 0 60.157 16.9556 1020 124.264 478.426 515.787
1234 0 62.1002 16.8759 1048 126.018 479.609 515.114
1235 0 66.2566 16.4512 1090 125.553 479.258 515.921
1236 0 68.2588 16.5986 1133 126.502 479.152 516.992
1237 0 70.131 17.0966 1199 125.996 478.212 516.253
1238 0 74.3313 17.718 1317 122.858 476.683 515.969
1239 0 75.3874 17.5759 1325 124.595 475.212 515.136
1240 0 78.488 17.595 1381 125.028 473.986 513.701
1241 0 80.371 16.287 1309 129.324 471.505 513.157
1242 0 82.2916 18.082 1488 124.387 468.907 513.55
1243 0 87.2478 18.4188 1607 121.9 466.699 509.691
1244 0 89.3754 16.5258 1477 126.236 465.009 508.075
1245 0 94.5297 17.1798 1624 123.514 463.969 505.655
1246 1 40.1031 14.2882 573 140.529 461.67 530.408
1247 0 44.2955 14.4033 638 140.528 460.564 529.92
1248 0 44.3075 14.6476 649 140.695 459.425 528.291
1249 0 47.3507 16.1983 767 137.477 458.261 524.602
1250 0 49.2183 16.8433 829 134.694 457.616 521.045
1251 0 52.3711 18.0634 946 129.116 457.393 518.682
1252 0 54.185 17.0896 926 132.04 457.272 516.238
1253 0 53.3144 17.4999 933 133.36 456.862 513.796
1254 0 56.2828 16.5415 931 136.521 457.883 512.158
1255 0 58.397 17.8434 1042 132.055 458.57 511.591
1256 0 61.3521 18.4835 1134 129.377 458.745 508.324
1257 0 65.2503 17.8083 1162 128.306 459.553 509.131
1258 0 65.2739 17.1585 1120 134.078 461.729 508.404
1259 0 67.3562 17.5336 1181 132.679 463.934 506.438
1260 0 68.2848 17.8517 1219 130.63 466.914 506.142
1261 0 71.2149 17.4261 1241 126.223 469.591 503.762
1262 0 75.1884 18.0214 1355 122.868 472.521 504.932
1263 0 76.2902 17.381 1326 125.343 475.011 504.216
1264 1 37.25 13.2349 493 130.268 476.073 524.897
1265 0 38.2507 14.5357 556 129.39 478.156 524.507
1266 0 36.2477 13.4353 487 136.053 478.345 524.324
1267 0 39.3664 15.1398 596 130.606 479.017 525.713
1268 0 44.2927 17.136 759 124.316 479.353 526.655
1269 0 43.1865 15.5373 671 133.32 478.444 525.855
1270 0 45.1774 16.1142 728 131.468 477.857 526.04
1271 0 48.3893 16.7186 809 128.32 475.792 525.869
1272 0 47.1801 16.2781 768 131.911 475.021 526.069
1273 0 49.1429 17.0727 839 130.914 473.072 526.669
1274 0 52.0725 17.0531 888 132.8 470.652 525.733
1275 0 54.1738 17.2224 933 133.213 468.07 525.882
1276 0 55.1951 17.5559 969 134.298 467.065 523.762
1277 0 57.1644 15.9715 913 139.131 466.621 522.664
1278 0 58.1556 16.6622 969 139.255 464.813 522.451
1279 0 61.2077 16.5666 1014 139.822 462.39 521.212
1280 0 61.1365 16.3241 998 143.525 461.353 517.792
1281 0 65.2292 17.5075 1142 138.838 460.329 517.218
1282 0 67.1453 16.0696 1079 143.599 459.098 515.122
1283 0 70.1074 16.8741 1183 140.574 458.238 511.723
1284 0 73.2646 16.4609 1206 142.21 457.255 509.052
1285 0 73.1393 16.7215 1223 142.033 456.881 505.959
1286 0 78.1748 16.9364 1324 139.418 456.829 505.428
1287 0 80.0366 16.5424 1324 141.392 457.522 502.557
1288 0 82.1379 18.0794 1485 138.056 458.535 499.37
1289 0 85.1423 16.5135 1406 145.474 460.521 497.573
1290 0 88.1571 17.4461 1538 140.765 461.203 496.603
1291 0 89.1465 16.9272 1509 143.638 464.027 495.076
1292 0 94.1532 16.983 1599 144.331 465.886 493.819
1293 1 54.1304 13.7446 744 152.23 468.056 515.017
1294 0 55.0672 14.4914 798 151.674 470.521 513.046
1295 0 56.166 13.6203 765 153.489 473.02 513.592
1296 0 58.0712 14.775 858 151.379 475.956 510.984
1297 0 62.1032 16.5531 1028 144.324 477.95 510.614
1298 0 62.1381 16.0127 995 146.657 478.409 511.168
1299 0 66.0254 15.9181 1051 146.5 480.002 510.598
1300 0 68.0686 16.1896 1102 147.054 479.837 512.71
1301 0 69.06 16.8404 1163 145.383 479.891 512.18
1302 0 74.055 17.4735 1294 147.192 476.187 510.159
1303 0 78.1374 16.2534 1270 148.376 474.265 509.85
1304 0 79.1087 17.0398 1348 147.208 472.818 510.086
1305 0 73.1667 15.5262 1136 161.444 470.678 509.779
1306 0 74.0909 16.9791 1258 161.548 468.746 510.901
1307 0 78.0987 16.1334 1260 161.127 466.736 508.021
1308 0 78.1387 15.4213 1205 121.641 465.445 506.857
1309 1 0 0 7 72 465 469
1310 0 0 0 4 76.75 464.5 469
1311 1 58.0736 13.259 770 141.184 460.979 440.84
1312 0 61.0812 13.8832 848 139.627 460.261 415.229
1313 0 67.0794 15.668 1051 138.574 457.2 364.89
1314 0 68.0507 16.1497 1099 139.237 456.542 346.097
1315 0 72.0222 16.1756 1165 138.161 456.222 344.734
1316 0 73.0525 16.3034 1191 137.478 456.479 342.784
1317 0 77.1839 15.5861 1203 138.518 456.347 337.378
1318 0 80.1296 16.8727 1352 133.342 457.703 337.728
1319 0 85.1087 17.93 1526 128.259 459.342 328.98
1320 0 86.1542 16.9348 1459 133.004 459.179 325.718
1321 0 86.1058 15.6552 1348 139.297 461.682 308.353
1322 0 92.1849 17.1829 1584 132.804 464.547 266.149
1323 0 95.1639 17.5907 1674 129.713 466.141 250.198
1324 0 96.2077 16.9633 1632 132.896 469.158 242.468
1325 0 102.117 17.8227 1820 129.347 471.2 245.897
1326 1 52.0817 12.2692 639 138.939 473.192 274.762
1327 0 55.1534 13.9792 771 136.514 473.743 273.213
1328 0 58.0883 14.1681 823 137.679 474.629 277.745
1329 0 62.0809 16.0436 996 132.256 474.79 275.016
1330 0 65.1218 16.9068 1101 129.005 475.197 276.956
1331 0 67.0673 15.8647 1064 130.607 473.914 274.267
1332 0 69.0488 15.7715 1089 133.395 472.307 271.358
1333 0 75.0494 15.6297 1173 129.103 470.212 273.703
1334 0 78.0955 16.5823 1295 123.217 469.161 276.629
1335 0 79.2111 15.6417 1239 128.044 465.697 272.85
1336 0 83.0944 16.3308 1357 126.026 463.751 270.167
