time division length width area intensity CMx CMy
0 0 55.3633 17.7193 981 111.232 656.134 436.836
1 0 56.3187 15.3768 866 117.634 658.372 437.329
2 0 59.2785 16.161 958 114.394 657.963 436.434
3 0 58.0926 15.4925 900 115.591 658.941 424.274
4 0 63.1709 18.2837 1155 105.557 658.945 423.713
5 0 63.1676 17.4615 1103 108.757 658.836 424.41
6 0 65.1885 16.8281 1097 112.108 657.633 422.961
7 0 64.1096 15.0212 963 120.39 655.74 424.432
8 1 37.0101 10.4296 386 122.339 654.259 441.526
9 0 36.0116 11.6629 420 129.095 653.269 439.517
10 0 38.013 10.9436 416 127.788 651.8 440.188
11 0 37.0068 11.052 409 130.79 649.736 440.12
12 0 39.0095 11.7664 459 129.288 647.621 435.214
13 0 39.0095 11.8176 461 177.716 645.601 435.217
14 0 43.0283 12.5266 539 125.245 644.197 436.636
15 0 43.0328 12.9204 556 124.844 642.126 435.795
16 0 44.0843 12.771 563 124.98 640.105 436.948
17 0 46.0309 14.9899 690 118.69 638.264 435.03
18 0 47.1049 13.3107 627 122.297 635.244 436.995
19 0 47.0672 13.6826 644 123.14 634.202 437.312
20 0 51.0978 15.5193 793 117.237 631.385 432.841
21 0 54.0354 14.6941 794 117.885 631.578 432.581
22 0 55.0959 15.0465 829 116.696 632.3 432.381
23 0 54.0788 15.0336 813 117.742 632.817 430.517
24 0 57.0276 14.6596 836 118.535 633.251 428.458
25 0 59.0662 15.6942 927 114.74 634.536 429.9
26 0 59.0493 15.0891 891 117.166 637.098 427.495
27 0 63.0543 14.6382 923 116.746 638.995 426.608
28 0 63.0593 13.8124 871 120.658 640.696 426.039
29 0 67.128 14.6735 985 117.798 643.204 425.888
30 0 69.1262 15.4645 1069 114.262 644.886 425.74
31 0 72.0786 15.3027 1103 115.029 647.065 426.733
32 0 73.1796 16.0154 1172 113.218 649.445 428.381
33 0 73.1088 16.1403 1180 114.559 650.236 427.464
34 0 73.1088 16.195 1184 152.871 650.209 427.432
35 0 79.1834 15.7735 1249 114.375 650.456 427.897
36 0 81.3048 15.0545 1224 116.315 649.882 427.859
37 0 86.2874 16.3755 1413 111.971 649.61 428.597
38 0 87.1672 16.2332 1415 113.563 647.999 429.251
39 1 48.0921 10.9997 529 120.883 645.522 450.026
40 0 47.042 11.883 559 121.852 643.971 447.991
41 0 51.1196 11.9132 609 118.425 641.946 450.45
42 0 50.1147 12.3118 617 117.486 640.327 439.374
43 0 51.1491 12.5124 640 117.484 638.806 436.464
44 0 53.1278 13.1193 697 114.353 636.471 429.089
45 0 57.139 15.086 862 108.445 635.178 431.961
46 0 56.1228 14.4148 809 114.126 632.671 437.315
47 0 59.0486 14.8352 876 112.369 630.555 436.675
48 0 60.0958 14.2273 855 113.437 628.088 434.204
49 0 64.0641 14.345 919 110.638 627.396 431.99
50 0 67.0562 14.719 987 110.199 626.011 432.991
51 0 70.2331 14.8648 1044 107.761 624.221 429.689
52 0 69.188 14.1788 981 110.977 623.476 428.32
53 0 72.0311 15.6321 1126 108.895 622.46 425.343
54 0 75.0455 15.4306 1158 109.786 623.092 423.997
55 0 77.1269 15.8051 1219 110.816 623.489 421.841
56 0 80.0835 16.0458 1285 109.826 623.264 420.09
57 0 83.1136 15.2201 1265 110.951 624.963 419.685
58 0 85.2237 14.8316 1264 112.873 625.629 418.523
59 1 45.104 11.1077 501 118.196 627.693 436.673
60 0 46.1581 11.2873 521 119.77 630.649 433.618
61 0 47.1969 11.5262 544 118.721 632.338 435.033
62 0 48.1899 11.0189 531 118.921 634.252 437.578
63 0 52.1467 11.1225 580 115.833 636.719 434.464
64 0 53.1797 12.8433 683 113.534 638.641 432.826
65 0 54.1251 13.4503 728 113.598 640.056 433.96
66 0 56.2776 14.0553 791 114.057 643.067 434.248
67 0 60.1471 13.6831 823 114.906 643.582 439.094
68 0 59.1294 13.648 807 118.123 643.402 437.261
69 0 61.1948 13.2854 813 119.581 642.523 439.417
70 0 66.1675 15.4154 1020 112.815 641.564 440.772
71 0 66.1335 14.0625 930 117.565 640.543 439.991
72 0 69.2147 14.9968 1038 113.984 639.026 441.494
73 0 69.2147 14.7223 1019 158.41 636.972 441.873
74 0 75.1836 14.7373 1108 114.614 634.993 440.306
75 0 74.2379 14.467 1074 117.93 632.36 439.558
76 0 77.1396 14.3895 1110 117.287 631.483 439.573
77 0 83.2188 15.3331 1276 112.194 628.225 437.028
78 1 40.2449 9.83976 396 117.997 627.366 457.568
79 0 42.1844 10.5963 447 116.506 626.696 457.318
80 0 45.4317 11.5118 523 116.455 625.21 454.019
81 0 47.4655 11.4609 544 112.329 624.388 453.62
82 0 47.4655 11.3767 540 155.926 622.424 453.707
83 0 49.4629 12.3123 609 111.411 621.493 451
84 0 48.5704 13.465 654 110.948 620.465 440.469
85 0 52.0477 14.2562 742 108.616 618.097 444.787
86 0 52.0365 13.4521 700 112.336 616.133 443.097
87 0 54.0685 13.1315 710 112.497 616.546 443.308
88 0 55.1552 14.287 788 112.01 616.629 439.81
89 0 57.0724 13.4916 770 111.552 617.987 439.701
90 0 60.0275 14.0769 845 107.909 617.491 438.873
91 0 61.0669 13.8045 843 108.873 618.849 436.308
92 0 63.0229 13.8997 876 108.227 621.394 436.482
93 0 66.0655 14.1678 936 106.541 622.794 435.483
94 0 68.0857 14.3936 980 107.301 624.717 436.194
95 0 71.0656 13.973 993 107.074 628.426 435.478
96 0 70.0197 12.7964 896 111.443 630.347 433.358
97 0 75.0859 14.6366 1099 105.036 633.927 432.556
98 0 77.0819 14.8673 1146 104.387 636.719 429.894
99 0 78.1083 13.7885 1077 105.09 638.046 431.118
100 1 43.1116 10.9483 472 106.941 638.03 449.218
101 0 43.1153 10.1124 436 107.722 638.429 447.812
102 0 44.0613 9.82722 433 107.924 639.453 449.048
103 0 48.1363 11.1766 538 103.34 638.435 451.093
104 0 49.187 11.7714 579 104.026 636.984 448.14
105 0 52.1084 13.2416 690 99.9986 635.406 450.413
106 0 52.0918 14.1673 738 98.9892 633.476 457.577
107 0 53.1164 14.0823 748 99.3503 631.942 456.234
108 0 56.0835 14.4071 808 97.6225 630.321 455.068
109 0 57.2607 14.3554 822 97.2044 628.405 456.63
110 0 60.2208 13.5335 815 97.3092 626.196 454.908
111 0 61.2423 13.1935 808 98.7314 624.17 453.865
112 0 64.1534 13.6859 878 97.4089 622.703 453.556
113 0 65.0856 12.9829 845 99.9254 621.103 451.968
114 0 67.0469 12.9163 866 100.181 620.665 448.24
115 0 72.0799 14.4284 1040 95.1894 619.258 447.655
116 0 73.0667 12.3449 902 98.9834 617.664 450.115
117 1 40.0764 11.4781 460 99.5652 616.62 462.202
118 0 40.0558 10.3106 413 103.116 615.324 461.211
119 0 43.0571 10.8925 469 101.448 614.67 457.8
120 0 44.0549 11.3722 501 102.451 614.01 455.427
121 0 47.2404 12.8703 608 99.796 613.38 448.638
122 0 48.0548 14.0881 677 99.1123 613.591 449.965
123 0 49.0867 15.1976 746 98.0992 613.315 448.887
124 0 51.0333 12.8935 658 102.643 615.109 447.731
125 0 53.109 13.2746 705 103.055 616.688 449.716
126 0 55.0257 12.9576 713 102.477 618.226 450.834
127 0 55.0234 12.8309 706 103.028 620.229 450.585
128 0 57.1206 14.3906 822 101.028 622.027 448.187
129 0 58.0584 12.9008 749 104.738 625.475 449.174
130 0 58.0584 12.8836 748 154.607 627.465 449.199
131 0 62.2004 14.1318 879 100.382 629.703 448.973
132 0 63.1944 14.1468 894 100.181 631.45 449.031
133 0 67.154 14.1466 950 100.205 632.34 448.909
134 0 67.154 14.1168 948 147.46 632.353 449.026
135 0 68.0648 13.5165 920 103.901 634.759 447.788
136 0 72.2227 13.9707 1009 101.857 635.166 448.785
137 0 73.0716 13.3157 973 104.144 633.807 446.2
138 0 76.2314 13.8263 1054 103.149 633.585 446.232
139 0 77.1291 12.5893 971 106.495 631.851 446.349
140 0 81.2453 13.7485 1117 104.066 629.819 444.592
141 1 45.2898 10.0906 457 103.825 627.952 462.952
142 0 47.1954 10.3612 489 106.27 627.46 459.867
143 0 47.2332 11.6867 552 103.462 625.98 461.987
144 0 47.1043 9.19237 433 110.242 622.298 460.591
145 0 52.2842 12.0878 632 102.263 621.828 459.815
146 0 53.3548 11.5828 618 104.675 620.05 459.997
147 0 55.385 13.1082 726 102.366 619.974 458.106
148 0 55.385 13.1624 729 155.595 620.985 458.107
149 0 60.1694 13.8941 836 99.2488 615.97 458.971
150 0 61.0439 14.121 862 99.9745 615.27 457.918
151 0 61.1441 13.9834 855 100.786 614.005 453.73
152 0 62.172 13.8165 859 100.31 612.469 450.984
153 0 64.1435 14.3896 923 97.5038 612.308 448.824
154 0 67.1052 13.7545 923 99.5341 611.595 444.928
155 0 70.1255 14.2459 999 98.1251 611.323 444.588
156 0 71.1473 14.9971 1067 97.5708 612.355 440.355
157 0 74.2202 15.0902 1120 96.9982 613.037 439.862
158 0 77.2198 13.8436 1069 98.5201 614.435 441.439
159 0 79.1742 14.0829 1115 98.6538 615.42 438.43
160 0 83.0984 15.3553 1276 95.9044 617.335 435.595
161 1 44.0341 11.3548 500 100.756 619.69 455.022
162 0 42.0425 9.72824 409 106.13 621.616 455.125
163 0 46.0425 12.2278 563 99.6856 624.654 455.167
164 0 46.0597 11.4851 529 102.336 626.053 454.399
165 0 46.0941 11.8236 545 102.536 629.073 452.776
166 0 51.0247 14.346 732 96.3374 629.643 452.895
167 0 50.0847 13.1178 657 99.656 630.839 456.377
168 0 52.1007 12.9365 674 102.221 632.043 456.651
169 0 55.0432 14.6794 808 98.1002 631.443 454.491
170 0 55.0493 13.2608 730 101.148 630.959 455.255
171 0 59.0272 14.5187 857 96.1389 631.116 456.004
172 0 62.1179 14.6496 910 95.144 629.978 454.566
173 0 61.1725 14.0096 857 97.5403 629.237 454.438
174 0 64.1021 13.7125 879 97.2446 627.031 454.753
175 0 67.1643 13.2511 890 97.5562 626.03 456.109
176 0 69.0878 15.0678 1041 94.9011 623.05 455.39
177 0 72.1251 13.8232 997 97.1625 621.204 456.013
178 0 72.158 13.8723 1001 156.695 620.214 455.959
179 1 41.0512 10.6209 436 101.78 619.172 469.922
180 0 42.0459 10.1793 428 101.659 617.182 470.037
181 0 44.0289 10.9701 483 100.706 615.509 468.106
182 0 44.0225 11.1988 493 102.239 613.233 465.844
183 0 47.0677 12.4926 588 98.9609 612.585 465.48
184 0 48.0223 12.8274 616 98.9286 612.498 462.763
185 0 49.0612 13.8806 681 96.8546 611.407 458.765
186 0 50.0525 12.7266 637 101.352 609.738 458.672
187 0 51.0441 12.3227 629 103.948 609.787 459.893
188 0 53.1036 12.5603 667 103.28 609.639 458.81
189 0 53.1427 13.7554 731 102.572 610.23 455.464
190 0 54.1726 12.5709 681 105.969 610.727 455.151
191 0 57.2236 14.12 808 101.934 612.156 454.936
192 0 57.151 12.8782 736 105.792 613.685 453.86
193 0 59.1176 12.9403 765 104.174 615.702 453.273
194 0 61.1174 12.5823 769 106.601 617.291 450.853
195 0 66.1121 15.5645 1029 97.7425 619.907 451.147
196 0 65.1578 13.7052 893 104.729 622.994 450.226
197 0 67.0566 13.5855 911 105.127 625.756 450.227
198 0 71.1045 14.6404 1041 102.86 628.436 449.298
199 0 73.1189 14.1687 1036 104.385 630.775 449.696
200 0 75.1708 14.9127 1121 103.424 631.269 447.303
201 0 78.1104 15.3373 1198 102.552 631.594 447.996
202 0 80.0709 14.5371 1164 105.329 633.359 448.453
203 1 42.0438 8.5625 360 110.956 632.061 468.336
204 0 41.0296 10.0659 413 108.898 632.078 469.271
205 0 41.0179 9.65431 396 111.328 630.634 468.513
206 0 45.0252 9.94997 448 110.326 629.121 470.002
207 0 50.0259 13.1532 658 103.208 628.319 467.409
208 0 50.039 11.7508 588 105.588 626.264 470.628
209 0 51.24 14.0906 722 101.511 624.385 469.414
210 0 52.162 12.8638 671 105.003 623.158 468.766
211 0 52.2279 13.039 681 105.979 622.833 466.949
212 0 58.1226 12.9554 753 106.786 618.895 461.207
213 0 58.1188 13.5584 788 105.5 614.596 463.407
214 0 57.1174 12.3605 706 111.149 613.84 463.244
215 0 60.0479 13.3727 803 108.137 611.532 460.636
216 0 63.2588 14.4328 913 105.625 610.731 456.969
217 0 65.1221 13.2213 861 107.668 609.344 456.149
218 0 67.0807 13.4465 902 108.048 609.049 454.151
219 0 68.0399 13.6685 930 107.988 609.374 451.909
220 0 70.1551 13.7125 962 109.21 609.017 447.368
221 0 71.1084 13.7536 978 108.883 609.148 447.346
222 0 78.2258 14.113 1104 106.781 610.51 445.946
223 1 43.0735 11.0045 474 106.418 610.059 462.711
224 0 41.0434 9.7214 399 107.589 611.01 462.897
225 0 42.1303 10.4675 441 110.558 614.132 458.528
226 0 46.1107 11.1688 515 109.2 616.895 458.328
227 0 46.0712 11.1566 514 109.905 619.383 458.85
228 0 47.1116 12.672 597 107.623 621.28 457.784
229 0 50.1075 12.1938 611 106.3 624.673 457.745
230 0 50.3201 13.3545 672 104.814 627.027 455.28
231 0 50.0944 12.9555 649 107.555 627.428 454.575
232 0 54.0592 14.4471 781 102.003 629.922 456.699
233 0 54.0464 13.5439 732 104.798 630.855 456.706
234 0 56.0257 12.5121 701 107.21 631.494 455.752
235 0 58.0303 12.3556 717 107.848 630.826 460.851
236 0 61.2061 14.0345 859 104.744 631.449 457.885
237 0 64.283 13.2383 851 105.781 630.793 457.926
238 0 66.2027 14.1535 937 103.962 629.534 457.784
239 0 70.1724 13.3956 940 104.723 627.629 457.883
240 0 71.1556 14.8126 1054 104.32 626.064 456.916
241 0 74.1868 14.6792 1089 104.541 624.978 456.145
242 0 75.1436 15.3306 1152 104.385 622.723 456.348
243 0 77.1221 14.9633 1154 106.241 621.002 454.926
244 0 79.1345 15.4168 1220 106.208 620.134 451.963
245 1 44.0408 9.85451 434 111.878 617.396 471.684
246 0 47.182 11.3179 534 109.464 614.481 469.717
247 0 46.1339 12.0302 555 108.926 612.539 470.486
248 0 47.0361 11.3317 533 111.762 612.608 467.516
249 0 50.1224 12.7288 638 108.933 611.082 465.744
250 0 50.175 13.1739 661 108.787 609.28 464.767
251 0 51.176 13.2679 679 155.694 607.343 464.424
252 0 53.0694 14.6035 775 108.139 607.837 459.415
253 0 56.0911 13.9416 782 108.788 606.725 458.595
254 0 56.0603 14.6093 819 107.571 607.427 456.016
255 0 59.091 14.08 832 110.175 607.618 455.57
256 0 60.1661 13.6622 822 111.389 608.398 454.454
257 0 61.0689 14.3608 877 110.919 608.487 452.171
258 0 61.0694 13.6238 832 113.936 610.41 452.323
259 0 66.109 15.1719 1003 108.936 611.862 449.874
260 0 67.142 13.8661 931 112.843 614.541 447.88
261 0 68.214 14.8503 1013 109.347 617.572 448.378
262 0 72.0989 14.9656 1079 107.708 619.182 449.512
263 0 73.2858 15.1462 1110 108.483 622.659 447.886
264 0 79.1945 14.9758 1186 106.174 625.059 446.056
265 1 40.0714 12.2032 489 106.192 627.55 465.358
266 0 40.0243 9.99392 400 112.988 629.688 465.83
267 0 45.0338 11.347 511 105.769 629.086 465.386
268 0 44.0833 11.501 507 108.278 630.294 466.99
269 0 48.099 14.0335 675 101.409 630.37 467.96
270 0 49.0455 12.8044 628 105.568 630.97 468.56
271 0 48.1712 12.2895 592 106.924 629.576 468.27
272 0 50.2807 12.8479 646 107.447 627.805 468.255
273 0 48.227 12.1094 584 111.735 626.527 466.786
274 0 52.3722 12.9649 679 108.206 625.641 467.532
275 0 54.1401 13.6683 740 107.308 623.673 467.672
276 0 56.1493 13.5175 759 107.717 622.345 468.646
277 0 56.0568 12.1662 682 111.817 620.377 466.688
278 0 59.0862 14.6227 864 105.016 619.493 468.447
279 0 60.0974 15.1587 911 104.816 618.252 463.302
280 0 61.1684 13.5527 829 108.928 616.343 460.662
281 0 64.1635 14.5721 935 104.365 614.67 461.559
282 0 66.1115 13.5831 898 106.566 613.624 457.361
283 0 69.1012 14.0519 971 105.612 613.049 456.854
284 0 68.1716 13.8767 946 107.611 609.254 451.987
285 1 39.1716 10.6199 416 106.935 608.548 467.57
286 0 41.3551 10.4945 434 106.724 609.111 467.952
287 0 40.2532 11.527 464 109.591 608.845 465.198
288 0 42.1401 11.6516 491 106.244 608.847 466.377
289 0 44.0674 12.5717 554 106.603 608.715 463.437
290 0 45.2084 12.564 568 107.806 610.403 461.803
291 0 45.2959 12.2528 555 108.613 611.025 464.777
292 0 47.1069 12.928 609 107.627 612.632 460.888
293 0 47.1296 12.4975 589 111.299 613.905 460.065
294 0 47.207 11.7991 557 113.145 616.198 456.013
295 0 50.1579 13.9958 702 108.145 619.254 456.279
296 0 53.1478 13.6224 724 109.681 621.865 456.362
297 0 55.2305 14.7201 813 106.066 624.94 455.541
298 0 57.2011 13.1466 752 109.586 626.689 455.297
299 0 60.1847 15.7515 948 102.791 629.974 458.443
300 0 58.1238 13.9186 809 109.712 630.514 455.764
301 0 60.113 13.6576 821 109.233 632.354 457.566
302 0 63.2299 15.4199 975 104.39 632.651 458.823
303 0 65.1349 14.4009 938 107.132 632.763 459.316
304 0 66.1224 15.2142 1006 106.334 631.802 458.073
305 0 70.1331 14.9002 1045 104.993 631.187 457.418
306 0 70.1126 15.4751 1085 106.21 629.37 453.792
307 0 73.0927 14.9262 1091 107.526 627.998 453.076
308 0 74.0902 13.8885 1029 109.322 626.434 452.74
309 1 39.0555 10.6515 416 109.724 623.207 470.154
310 0 42.0182 11.5426 485 107.703 621.021 471.14
311 0 42.054 13.0071 547 106.155 618.89 470.693
312 0 42.0314 12.1576 511 107.562 617.66 468.419
313 0 45.1717 14.2125 642 103.738 616.989 466
314 0 44.0342 12.7174 560 110.634 615.33 465.48
315 0 46.1448 13.4576 621 108.151 613.781 459.338
316 0 48.2492 14.4873 699 101.947 611.874 461.066
317 0 48.1791 14.0102 675 105.196 609.791 460.519
318 0 51.0703 14.0003 715 105.898 609.189 461.586
319 0 51.1099 15.3591 785 105.269 608.132 454.222
320 0 52.1097 13.1645 686 110.38 607.44 454.443
321 0 54.0663 13.4649 728 109.332 607.229 451.776
322 0 56.0747 14.9622 839 107.496 607.265 447.745
323 0 58.116 13.8688 806 109.584 606.835 446.748
324 0 59.0586 14.0708 831 109.274 608.065 443.455
325 0 61.0493 14.0051 855 107.506 609.67 441.675
326 0 64.1112 14.3501 920 106.047 610.715 438.775
327 0 65.0852 14.0585 915 106.392 613.537 437.714
328 0 69.1575 15.2695 1056 102.844 615.251 437.944
329 1 34.0362 10.9295 372 107.992 617.753 454.191
330 0 40.0411 10.5142 421 107.081 620.803 451.057
331 0 37.0449 10.7437 398 108.49 623.611 453.498
332 0 40.0219 11.6186 465 107.482 626.067 452.718
333 0 39.0888 11.7425 459 106.754 627.007 455.61
334 0 43.0697 12.9325 557 105.571 629.829 454.928
335 0 41.1114 10.8486 446 110.016 629.942 457.415
336 0 44.0692 11.6635 514 110.644 630.138 454.502
337 0 46.0317 12.7955 589 108.024 630.282 455.903
338 0 48.0481 14.7769 710 104.576 628.341 456.048
339 0 49.0793 15.261 749 104.107 627.167 456.591
340 0 50.0735 14.1991 711 107.276 625.889 456.408
341 0 52.077 14.805 771 105.086 623.899 454.876
342 0 53.0511 14.4201 765 107.267 622.714 453.69
343 0 56.0341 14.6518 821 104.229 621.208 456.19
344 0 56.053 14.5755 817 105.343 617.759 451.95
345 0 59.028 15.7891 932 100.853 615.749 451.663
346 0 60.0501 14.7044 883 103.846 615.434 451.947
347 0 60.0569 13.9867 840 106.358 614.833 450.705
348 0 63.068 16.0779 1014 102.13 612.569 448.708
349 0 65.0649 14.4779 942 106.024 612.308 446.857
350 0 66.013 14.7395 973 105.329 610.753 444.22
351 0 70.0973 15.45 1083 103.911 608.325 441.754
352 0 72.099 15.2984 1103 103.255 609.029 440.756
353 0 73.0614 14.4399 1055 106.527 607.274 436.929
354 0 77.0786 17.1773 1324 99.5891 606.092 434.56
355 0 79.1282 14.9378 1182 104.855 605.936 435.045
356 1 41.1042 13.0644 537 107.507 606.067 450.553
357 0 43.0579 12.518 539 109.2 606.334 447.505
358 0 44.1313 12.5081 552 110.795 607.808 434.384
359 0 46.0942 13.7761 635 107.77 609.309 435.12
360 0 47.1173 15.5569 733 103.307 612.783 433.954
361 0 49.0985 13.7479 675 102.902 613.197 434.865
362 0 48.0525 14.1512 680 103.944 616.084 435.043
363 0 49.0599 14.2275 698 103.983 619.552 435.458
364 0 52.0362 13.4714 701 105.357 623.031 435.957
365 0 53.1299 13.2694 705 105.461 625.255 435.216
366 0 54.0572 15.0766 815 104.015 627.118 432.742
367 0 56.1779 13.1724 740 107.649 628.992 433.974
368 0 59.318 15.7962 937 101.238 629.419 435.112
369 0 61.2276 15.1566 928 103.397 630.404 435.725
370 0 63.0829 14.1401 892 105.683 629.991 435.281
371 0 66.2664 15.8904 1053 104.821 630.598 433.103
372 0 67.2341 14.9032 1002 106.122 627.954 434.587
373 0 69.1025 15.0067 1037 106.082 627.29 434.178
374 0 71.0926 13.8411 984 108.729 625.619 434.832
375 0 76.4092 15.3123 1170 108.528 623.542 434.208
376 0 76.1894 14.569 1110 112.769 621.757 430.92
377 0 82.2686 15.0969 1242 109.509 619.487 431.288
378 0 84.1506 15.0682 1268 110.099 617.286 429.524
379 0 87.3671 15.9442 1393 108.23 616.246 427.396
380 0 88.5883 14.2908 1266 112.313 614.505 425.766
381 0 90.434 15.4256 1395 110.551 614.011 423.148
382 1 48.1533 11.6088 559 113.939 612.716 444.531
383 0 50.2392 12.8983 648 113.471 612.025 442.323
384 0 52.5723 12.7063 668 113.341 611.566 440.254
385 0 53.1489 12.9259 687 112.328 610.015 438.406
386 0 55.1958 14.5663 804 106.053 608.729 434.711
387 0 55.5378 13.4503 747 112.643 607.983 436.835
388 0 59.4508 14.9367 888 108.795 607.453 430.634
389 0 63.1973 14.431 912 106.624 606.076 429.547
390 0 64.2358 15.5209 997 104.033 605.988 426.145
391 0 68.2558 14.3138 977 105.09 606.62 421.305
392 0 72.3378 15.787 1142 101.256 608.242 420.509
393 0 72.3034 14.6051 1056 105.25 609.794 417.88
394 1 38.3872 12.3739 475 104.156 611.678 436.556
395 0 38.25 10.7451 411 103.122 613.657 438.034
396 0 39.1419 10.7557 421 107.798 616.399 434.879
397 0 40.1593 12.2512 492 105.25 621.126 433.045
398 0 43.3395 12.5751 545 102.024 623.547 434.639
399 0 43.1333 12.6584 546 103.165 625.709 434.489
400 0 47.1857 13.1819 622 99.2508 627.826 434.399
401 0 45.0925 12.2415 552 104.636 628.966 433.426
402 0 48.2692 15.5586 751 101.551 630.113 445.294
403 0 49.3858 14.5183 717 102.777 630.135 447.05
404 0 53.3448 17.4338 930 96.4172 630.177 447.894
405 0 54.9002 15.7741 866 98.3337 629.274 448.786
406 0 57.9792 17.3855 1008 94.4911 627.039 447.353
407 0 56.5099 15.6079 882 100.126 625.723 444.884
408 0 62.4692 17.1124 1069 94.7858 624.623 448.003
409 0 61.7817 13.8876 858 102.42 622.917 446.901
410 0 64.5762 14.4945 936 102.08 620.302 444.261
411 0 65.6126 14.0217 920 103.677 617.932 444.397
412 1 37.4187 10.8769 407 101.356 616.808 462.479
413 0 34.4352 11.1514 384 103.182 615.068 461.172
414 0 35.5348 11.3973 405 105.049 614.514 456.459
415 0 37.4217 11.5976 434 103.714 612.899 455.952
416 0 39.1249 14.5943 571 98.4326 611.751 456.49
417 0 39.1639 11.4647 449 105.129 609.666 450.512
418 0 40.1964 13.7575 553 100.758 609.854 450.002
419 0 43.1568 14.0187 605 99.2066 607.04 455.608
420 0 45.173 14.6105 660 97.4182 606.733 453.877
421 0 47.2111 13.8527 654 99.4128 606.613 451.089
422 0 48.2599 15.0643 727 97.1967 605.41 446.55
423 0 50.2714 14.74 741 97.1188 606.711 449.638
424 0 50.2124 14.4387 725 98.4441 607.39 444.754
425 0 52.1494 13.6339 711 100.813 607.273 442.866
426 0 53.2483 14.9864 798 97.9236 608.855 441.996
427 0 53.1926 13.5921 723 101.9 609.86 439.596
428 0 56.2271 14.726 828 98.4891 612.163 441.261
429 0 58.3323 14.846 866 97.7598 615.364 441.447
430 0 60.37 13.6823 826 100.402 618.925 441.117
431 0 60.4681 14.8673 899 98.5184 622.227 440.342
432 0 65.3353 14.219 929 98.6857 624.512 439.83
433 0 67.6432 15.4783 1047 97.0411 627.414 438.24
434 1 33.2028 9.99916 332 106.398 629.22 454.747
435 0 36.2633 11.6923 424 102.158 630.467 453.8
436 0 37.4719 11.1283 417 104.086 631.221 456.508
437 0 37.5139 11.809 443 152.194 633.172 456.318
438 0 41.449 12.063 500 101.18 630.642 457.536
439 0 41.2081 12.5946 519 102.331 629.393 456.091
440 0 46.2637 12.5368 580 100.183 627.497 457.103
441 0 46.1258 14.0485 648 98.1836 624.208 459.062
442 0 48.203 14.0863 679 98.4404 622.144 457.904
443 0 51.1534 14.0362 718 98.3176 620.503 457.1
444 0 51.2483 13.9127 713 98.6073 618.383 457.55
445 0 53.2232 14.9747 797 96.611 616.285 455.964
446 0 53.4087 14.3235 765 98.936 615.353 457.128
447 0 56.3416 15.4415 870 94.8402 614.438 457.277
448 0 56.1607 13.9065 781 99.8848 612.64 452.376
449 0 59.2803 14.1362 838 97.9678 611.426 443.465
450 0 60.2089 14.3999 867 97.1246 610.877 441.102
451 0 61.2839 15.0447 922 95.4154 610.145 439.392
452 0 64.3767 14.3685 925 95.1384 609.014 436.536
453 0 67.4472 13.6551 921 96.7405 608.835 432.768
454 1 37.3444 9.61323 359 98.8384 606.418 448.304
455 0 38.394 11.0955 426 96.7864 607.765 444.716
456 0 35.2838 10.1746 359 94.6992 606.827 442.596
457 0 45.4587 10.999 500 92.276 606.992 439.534
458 0 41.4306 12.2373 507 93.6923 608.197 438.11
459 0 41.3866 12.6128 522 95.2241 609.136 435.695
460 0 43.2807 12.7771 553 93.5823 611.094 434.036
461 0 45.2282 14.0399 635 92.0646 612.205 435.583
462 0 47.3132 13.8439 655 93.5252 614.534 433.768
463 0 48.249 13.9899 675 95.5896 617.542 437.48
464 0 48.0872 14.0578 676 97.5828 621.648 436.175
465 0 48.0872 13.8914 668 152.37 625.621 436.148
466 0 51.1918 13.6936 701 97.8245 625.779 437.252
467 0 53.1934 15.1335 805 95.6012 626.923 436.268
468 0 54.2514 14.101 765 97.9438 629.093 438.492
469 0 55.184 13.7721 760 98.9434 630.616 437.728
470 0 55.2572 13.0843 723 100.538 631.088 436.408
471 0 60.2468 14.5236 875 96.8686 630.416 435.489
472 0 60.2914 13.5674 818 99.7702 630.208 433.681
473 0 63.3791 14.8945 944 96.1356 627.978 434.588
474 0 64.2591 14.5505 935 98.6054 626.825 431.112
475 0 66.3286 14.1116 936 98.937 624.175 431.859
476 0 68.5403 14.9985 1028 98.7704 622.518 430.762
477 0 73.2917 15.8681 1163 96.6535 619.482 430.561
478 0 76.503 14.5092 1110 98.1829 617.104 430.167
479 0 78.412 16.2475 1274 95.1931 616.306 429.568
480 0 80.2299 14.3837 1154 98.8969 614.571 427.183
481 0 82.1974 14.8423 1220 98.2664 612.593 428.011
482 1 43.0984 11.2069 483 100.207 611.662 445.137
483 0 45.2491 9.54715 432 102.706 610.257 445.037
484 0 47.1218 12.0751 569 98.6257 608.935 443.782
485 0 48.2023 11.3273 546 101.256 609.355 441.751
486 0 49.1329 12.7206 625 101.886 608.6 441.434
487 0 53.1146 12.9343 687 97.2198 606.862 438.403
488 0 54.1518 13.9792 757 95.712 606.445 434.787
489 0 55.2125 13.4209 741 99.9986 606.812 435.926
490 0 55.2319 14.3939 795 100.135 606.552 431.249
491 0 59.1773 14.6171 865 97.5249 607.02 430.124
492 0 62.2883 15.059 938 95.5235 606.76 428.143
493 0 64.3549 14.6531 943 97.7497 608.522 424.786
494 0 64.3549 14.7774 951 151.528 609.5 424.755
495 0 71.2958 15.6811 1118 94.8166 613.192 424.111
496 0 72.3694 15.0064 1086 96.2781 616.063 425.607
497 0 74.2187 14.2686 1059 99.5486 618.511 421.649
498 0 78.318 17.1097 1340 93.147 621.235 424.218
499 0 79.2423 15.1687 1202 96.8261 623.46 423.577
500 0 82.3046 14.6893 1209 97.1001 626.04 423.734
501 0 87.4057 15.3079 1338 94.6517 626.675 423.999
502 0 89.1914 14.1157 1259 97.7109 627.955 427.171
503 1 47.1562 10.9 514 101.714 628.665 448.333
504 0 47.1432 13.8726 654 98.1697 628.324 445.372
505 0 50.1485 11.3264 568 102.449 627.468 446.761
506 0 52.1242 14.6765 765 99.4248 626.735 445.388
507 0 53.135 14.322 761 100.396 624.898 447.258
508 0 56.1914 13.2049 742 102.402 623.888 447.004
509 0 59.2708 14.7459 874 98.8055 621.521 447.704
510 0 60.0893 15.0776 906 98.0055 618.592 447.593
511 0 63.2636 14.7478 933 97.8585 616.811 446.527
512 0 66.1629 15.3107 1013 96.4492 615.261 443.801
513 0 67.4016 14.51 978 97.68 613.235 443.68
514 0 69.3902 13.8348 960 99.0208 611.943 441.949
515 0 73.2392 14.7735 1082 97.3031 611.613 442.523
516 0 76.3588 16.9463 1294 91.796 609.58 443.054
517 0 75.2292 14.1435 1064 99.7077 608.992 439.395
518 0 78.3615 14.0247 1099 100.346 607.161 434.657
519 0 81.365 16.1986 1318 94.566 606.685 435.292
520 0 83.2593 14.5809 1214 98.8797 605.757 432.575
521 1 44.1809 12.1093 535 102.548 605.652 450.114
522 0 45.1089 12.2149 551 103.762 604.476 441.123
523 0 47.3045 12.874 609 101.956 604.778 441.864
524 0 47.134 12.3266 581 104.102 605.478 439.398
525 0 51.0727 12.3941 633 102.468 606.125 439.202
526 0 51.2286 12.005 615 105.655 607.528 434.953
527 0 53.2303 14.334 763 101.647 608.575 427.624
528 0 53.3006 14.3526 765 103.344 611.489 438.642
529 0 57.4758 14.0581 808 103.469 613.337 441.89
530 0 58.6107 15.2873 896 101.242 616.835 438.58
531 0 60.4554 13.481 815 103.901 619.729 440.918
532 0 64.4246 14.8856 959 100.766 623.3 439.322
533 0 66.7418 14.6085 975 100.17 625.857 442.292
534 0 68.739 15.217 1046 98.7533 626.521 439.598
535 0 70.6153 13.9913 988 101.148 627.808 439.868
536 0 73.9166 15.3687 1136 97.0114 628.308 441.024
537 0 76.7143 15.864 1217 96.7264 628.256 437.83
538 0 78.7694 14.4599 1139 99.9078 628.289 436.958
539 0 81.701 14.3205 1170 100.026 626.716 439.584
540 0 83.6845 15.0327 1258 99.5787 624.978 440.905
541 0 87.2842 14.6991 1283 100.815 623.274 437.471
542 0 90.7739 16.6788 1514 96.1982 621.634 439.009
543 0 91.9544 14.7791 1359 102.873 619.82 435.227
544 1 51.4864 10.4105 536 102.847 618.97 457.401
545 0 52.4228 12.3038 645 99.3473 617.195 459.248
546 0 54.7288 12.3518 676 99.9009 614.786 455.38
547 0 57.5215 12.8648 740 97.4932 614.293 458.858
548 0 56.3269 13.7412 774 96.6628 611.385 458.317
549 0 60.2656 13.1584 793 97.8525 610.185 465.765
550 0 59.2543 11.6616 691 101.454 608.712 464.207
551 0 61.4038 12.5237 769 101.72 606.85 460.143
552 0 63.3858 13.4257 851 99.4536 606.674 461.843
553 0 67.4234 14.7872 997 95.7643 606.192 458.617
554 0 67.3319 12.1488 818 99.945 604.837 458.634
555 0 69.3742 12.9875 901 97.9889 605.021 454.602
556 0 73.3252 13.7197 1006 96.0139 604.982 451.818
557 0 75.3192 13.5158 1018 96.2662 605.699 453.377
558 0 78.2953 14.0877 1103 94.3935 606.244 449.849
559 0 82.5481 14.6581 1210 92.7479 606.784 448.74
560 0 85.5642 13.148 1125 95.6907 607.741 444.524
561 1 45.3869 10.047 456 99.7259 609.428 462.522
562 0 48.2565 10.9208 527 97.6622 611.983 466.23
563 0 50.577 10.9734 555 98.6216 614.881 464.879
564 0 50.4018 11.7456 592 99.2365 617.698 460.133
565 0 50.4018 11.5075 580 150.586 619.655 460.014
566 0 55.2791 14.5444 804 92.6393 623.022 459.277
567 0 56.4964 13.0097 735 96.8286 625.933 459.716
568 0 56.3874 13.6733 771 97.0117 627.218 464.006
569 0 58.3188 13.4948 787 98.5845 628.727 460.13
570 0 61.3804 13.3919 822 97.7287 629.161 463.343
571 0 62.4325 14.0632 878 97.1879 628.689 463.965
572 0 64.251 13.992 899 96.1268 627.834 466.94
573 0 65.4619 12.0528 789 100.937 627.01 464.726
574 0 69.4581 16.2112 1126 91.476 625.353 464.057
575 0 72.4239 13.8352 1002 95.3373 622.703 466.072
576 0 73.6476 14.0398 1034 96.4159 620.984 464.608
577 0 77.4768 13.9526 1081 95.2821 618.859 463.224
578 0 76.5225 12.7936 979 99.1042 616.866 463.829
579 1 44.43 11.2086 498 93.2329 615.777 482.703
580 0 45.2918 9.27321 420 96.2881 614.16 484.183
581 0 45.3856 9.5625 434 97.1613 612.77 483.182
582 0 47.1861 11.2745 532 94.297 611.859 482.419
583 0 48.3083 11.882 574 93.324 610.305 481.141
584 0 49.0566 12.5569 616 92.336 608.753 477.693
585 0 51.2235 12.2014 625 93.2432 608.245 473.275
586 0 51.2965 11.0729 568 96.5317 607.829 472.637
587 0 54.2753 12.1602 660 93.4833 606.929 470.739
588 0 55.2585 12.5773 695 93.3094 606.812 467.004
589 0 55.4504 13.1108 727 93.0633 607.154 463.4
590 0 56.4164 12.0532 680 95.7662 606.1 461.081
591 0 56.3209 12.2335 689 94.6792 606.907 457.653
592 0 60.3853 13.6623 825 91.24 606.415 456.652
593 0 60.2562 12.7124 766 93.0627 607.803 456.262
594 0 62.5106 13.2777 830 92.1626 608.189 454.104
595 0 63.797 11.8344 755 94.3086 611.26 454.748
596 0 65.5035 11.8162 774 95.6021 612.959 453.49
597 0 68.314 12.1205 828 94.0592 616.011 456.043
598 0 70.5006 12.0425 849 94.5371 620.101 454.403
599 1 37.3887 7.64938 286 94.1224 623.996 475.227
600 0 38.2419 8.52467 326 93.1932 626.307 470.834
601 0 39.3187 10.8854 428 89.7079 627.956 477.093
602 0 41.3533 11.3171 468 89.6453 629.538 470.303
603 0 42.2101 12.8405 542 87.4428 630.581 475.871
604 0 43.282 11.5752 501 90.1018 630.146 476.816
605 0 47.1469 12.1111 571 88.1734 629.184 482.846
606 0 45.3267 10.7883 489 93.2638 628.65 479.231
607 0 48.1886 12.7623 615 88.265 626.218 481.211
608 0 50.1469 11.7854 591 91.9036 623.826 480.325
609 0 52.0814 12.9605 675 89.5896 620.95 478.806
610 0 52.0845 11.7885 614 93.044 618.909 481.451
611 0 52.0676 12.3685 644 93.2919 617.708 483.489
612 0 53.0454 11.4053 605 94.5471 614.97 478.86
613 0 56.0201 13.9593 782 90.2558 613.095 476.54
614 0 58.0982 14.3378 833 90.7095 612.143 475.373
615 0 58.0982 14.3722 835 129.928 610.142 475.407
616 0 60.2134 13.7179 826 91.8862 609.439 473.475
617 0 63.2596 12.8518 813 94.0947 609.64 471.513
618 0 64.2859 13.0822 841 93.3829 608.341 470.63
619 0 66.2628 13.3408 884 94.2952 607.15 467.154
620 1 31.049 7.72973 240 96.925 606.212 483.179
621 0 36.0211 9.71653 350 92.18 604.829 482.174
622 0 36.0527 10.762 388 91.1778 604.196 481.503
623 0 35.0331 10.1904 357 93.4398 604.709 477.602
624 0 37.2126 9.86226 367 93.1308 605.646 478.36
625 0 40.1782 11.5486 464 90.6422 605.692 458.716
626 0 41.2808 11.3612 469 91.4478 606.77 460.087
627 0 43.1968 13.3343 576 88.0625 608.288 460.632
628 0 44.2633 13.8715 614 87.6466 610.524 459.272
629 0 43.1682 12.9957 561 90.9768 612.119 456.749
630 0 45.1499 13.5105 610 89.6262 613.841 453.797
631 0 47.1217 12.3085 580 91.769 618.203 452.817
632 0 47.0324 12.3532 581 93.2909 620.442 458.745
633 0 49.1331 12.9241 635 91.8913 624.506 453.809
634 0 50.0782 12.76 639 92.2003 626.402 455.424
635 0 53.0636 11.8725 630 94.1127 627.357 455.727
636 0 51.02 12.9165 659 93.692 628.516 456.036
637 0 56.2259 14.4773 814 89.3231 630.118 456.9
638 0 57.2393 14.3258 820 89.3061 629.934 455.871
639 0 59.0653 14.831 876 87.9612 628.039 454.731
640 0 61.2002 14.8039 906 87.0861 627.768 456.393
641 0 60.1816 12.9442 779 91.7805 627.213 454.371
642 0 65.1386 14.093 918 88.085 626.127 456.208
643 0 67.1139 13.2014 886 90.465 623.845 452.686
644 1 36.0458 9.73762 351 93.2878 619.259 466.829
645 0 37.0319 9.10027 337 93.4065 617.941 470.599
646 0 40.0329 10.966 439 91.2779 615.879 470.385
647 0 41.0379 10.9167 448 91.0268 613.886 469.422
648 0 42.0266 10.5647 444 91.0022 612.968 466.286
649 0 45.0132 11.2634 507 90.0868 611.554 464.043
650 0 47.034 12.7993 602 87.3837 609.242 461.196
651 0 48.0617 12.2967 591 88.819 608.773 462.052
652 0 47.0618 12.1542 572 91.1696 607.708 458.685
653 0 51.0514 12.8302 655 90.2458 606.192 458.24
654 0 52.1035 12.5135 652 90.3589 605.814 457.814
655 0 54.0652 13.3542 722 89.1759 604.91 456.759
656 0 54.0753 12.5936 681 91.2775 605.104 452.72
657 0 56.0671 13.68 767 88.7406 605.387 451.626
658 0 58.085 14.2894 830 88.4313 605.258 451.177
659 0 58.1103 13.0786 760 92.0105 605.995 450.125
660 0 59.0459 12.9391 764 93.0393 606.288 448.204
661 0 63.0741 14.6811 926 89.6674 608.39 449.478
662 0 63.0675 13.3825 844 93.0201 610.54 445.114
663 0 66.0874 14.0269 927 90.8198 613.313 446.156
664 0 67.084 13.5055 906 91.9779 615.301 444.291
665 0 70.0459 13.534 948 91.4778 619.378 443.011
666 0 72.1956 14.53 1049 90.6578 621.387 444.426
667 0 75.1188 13.9512 1048 90.8244 624.225 444.814
668 0 78.1445 14.5116 1134 91.1437 628.437 442.885
669 0 79.2929 13.1285 1041 94.0163 629.755 444.226
670 1 43.1232 10.3193 445 94.1708 629.798 465.476
671 0 42.1192 9.11699 384 98.2422 629.674 466.036
672 0 43.1109 10.2758 443 96.4402 630.53 470.49
673 0 48.1645 12.395 597 92.3333 627.174 466.863
674 0 48.1893 11.4133 550 96.5309 626.222 466.491
675 0 50.1009 11.3571 569 95.3234 623.749 469.239
676 0 53.0911 13.863 736 91.8818 621.795 467.476
677 0 53.1381 12.157 646 95.9195 620.271 467.968
678 0 56.3201 13.37 753 92.2151 617.51 466.359
679 0 58.2205 13.8783 808 92.229 615.256 463.603
680 0 58.1953 13.111 763 93.2818 613.546 465.316
681 0 62.3091 14.6207 911 89.9583 611.861 461.416
682 0 63.244 12.7443 806 94.4119 609.521 460.046
683 0 65.1757 14.5453 948 89.6108 608.521 460.636
684 0 66.088 12.9524 856 92.3563 607.154 458.655
685 0 70.0758 14.0562 985 90.7137 606.688 454.347
686 1 35.0395 8.362 293 94.3515 605.915 470.45
687 0 37.1704 10.815 402 90.8035 605.316 468.351
688 0 37.0955 9.65076 358 92.3156 605.165 468.45
689 0 39.2166 10.8118 424 91.3608 604.488 466.446
690 0 41.1405 11.6916 481 91.3243 604.62 464.264
691 0 41.294 12.2536 506 90.2411 606.168 457.648
692 0 40.6403 13.3857 544 89.4485 606.024 451.062
693 0 43.4243 12.9421 562 89.2082 606.005 452.461
694 0 45.1843 14.4519 653 85.9142 605.43 457.61
695 0 46.2011 13.8308 639 89.4444 606.905 458.623
696 0 47.2001 13.4957 637 91.4961 608.746 456.334
697 0 47.1084 12.6729 597 94.1441 610.606 453.961
698 0 49.0732 13.8161 678 92.4056 612.591 452.394
699 0 51.0947 12.6432 646 95.7384 615.929 453.115
700 0 54.0276 14.1039 762 92.4567 618.009 452.176
701 0 57.1394 14.2984 817 90.6132 620.622 451.791
702 0 59.126 14.5959 863 90.3812 622.955 451.599
703 0 61.0702 15.1138 923 89.0336 624.652 453.864
704 0 61.1389 14.328 876 92.2842 625.341 449.823
705 0 63.1224 14.8283 936 91.4744 626.746 452.1
706 0 67.097 14.5163 974 90.2433 625.745 451.794
707 0 68.08 15.7756 1074 89.5587 624.927 450.455
708 0 73.0866 16.8841 1234 87.1021 623.678 448.471
709 0 73.2206 14.0671 1030 92.6913 621.338 449.05
710 0 76.1468 14.8529 1131 91.6295 620.238 447.97
711 0 77.1157 14.1605 1092 93.7106 617.625 445.004
712 0 81.2825 14.4804 1177 92.0297 615.864 446.326
713 0 83.1984 14.9522 1244 92.4003 614.17 442.848
714 0 85.3946 13.4786 1151 94.4179 612.357 442.119
715 1 45.211 10.8381 490 94.198 610.631 462.937
716 0 47.2087 10.9937 519 95.1445 609.42 461.459
717 0 49.3554 11.8123 583 96.5506 608.533 456.021
718 0 50.345 11.6397 586 97.2355 608.121 455.316
719 0 50.3306 14.8816 749 91.1122 606.778 454.486
720 0 53.0934 12.5251 665 95.2617 603.983 454.929
721 0 54.165 13.5143 732 94.3566 603.63 451.257
722 0 57.092 12.6813 724 94.5138 602.757 450.378
723 0 58.032 14.3714 834 91.8933 602.929 450.399
724 0 59.2339 13.8265 819 93.3736 603.06 446.803
725 0 63.1492 15.2654 964 89.5726 603.42 446.832
726 0 64.1134 14.8955 955 91.4953 603.848 446.995
727 0 64.0825 14.1224 905 94.242 605.108 446.668
728 0 68.2104 14.426 984 93.2795 605.851 444.173
729 0 66.2063 12.8689 852 98.9437 607.228 442.631
730 0 71.1828 15.2424 1085 93.9548 609.069 442.759
731 0 72.0707 14.236 1026 97.9747 611.79 442.325
732 0 75.2131 15.2101 1144 96.5437 614.825 443.799
733 0 78.1955 16.6506 1302 95.3487 617.582 438.152
734 0 82.3077 15.029 1237 97.9321 620.552 435.953
735 1 43.0554 11.9149 513 99.2534 623.197 456.347
736 0 45.0686 12.4255 560 100.509 625.196 455.762
737 0 46.1165 11.7962 544 99.0827 625.38 457.513
738 0 49.0911 11.3463 557 98.9946 626.201 459.325
739 0 51.2588 12.5052 641 96.1373 626.997 455.24
740 0 51.2929 13.3352 684 99.0892 627.02 458.905
741 0 53.057 12.8541 682 101.444 624.059 462.548
742 0 56.0305 13.8318 775 99.8529 622.212 462.035
743 0 57.0566 13.916 794 99.5605 620.928 462.855
744 0 60.0586 14.5025 871 97.8599 619.163 463.243
745 0 62.0968 14.5096 901 97.8158 617.194 459.748
746 0 66.1606 14.5857 965 98.2622 615.291 458.663
747 0 68.2227 14.4966 989 97.7988 613.341 459.949
748 0 71.2129 14.4777 1031 97.8089 612.038 459.322
749 0 71.0637 13.4949 959 101.945 610.371 455.551
750 0 75.0871 14.0637 1056 101.107 609.262 454.424
751 0 75.1406 13.2285 994 103.074 607.737 452.725
752 1 41.0508 9.62222 395 105.615 606.722 468.375
753 0 41.0998 9.51342 391 105.982 605.611 466.128
754 0 45.2295 13.3983 606 98.2558 604.479 463.769
755 0 45.1161 11.282 509 102.525 603.972 462.89
756 0 45.1589 12.4007 560 102.571 603.916 461.727
757 0 48.3153 13.7845 666 99.6231 604.674 457.625
758 0 48.3669 12.095 585 103.234 604.82 459.385
759 0 49.3334 12.8716 635 101.989 604.833 456.844
760 0 51.1239 13.2814 679 100.594 603.957 455.972
761 0 52.0347 15.8932 827 95.8114 604.634 456.353
762 0 52.1466 13.0402 680 102.521 606.441 454.497
763 0 55.1617 13.8139 762 99.4803 607.963 455.568
764 0 57.0738 15.4186 880 95.9045 610.017 453.733
765 0 60.0527 14.3208 860 97.2454 611.657 448.341
766 0 60.0756 14.798 889 97.0202 613.585 446.191
767 0 61.1322 14.5913 892 97.0583 616.211 449.411
768 0 65.1495 13.3386 869 97.725 619.22 448.604
769 0 67.0572 13.9731 937 96.5624 621.792 451.398
770 0 69.179 14.6721 1015 96.3704 622.857 448.819
771 0 72.0783 15.7329 1134 94.8042 624.469 450.444
772 0 74.1705 14.3723 1066 98.591 625.797 449.119
773 0 75.1475 14.2919 1074 99.1359 625.747 453.26
774 0 79.1263 13.7122 1085 99.5226 626.151 451.911
775 0 82.1378 14.4513 1187 99.8888 623.92 449.069
776 1 46.1198 11.3617 524 100.347 622.973 469.7
777 0 48.1095 10.289 495 102.695 621.725 470.622
778 0 50.0652 10.8858 545 101.872 619.092 469.609
779 0 54.1927 11.7913 639 99.1612 618.027 466.628
780 0 54.129 12.1377 657 100.836 615.333 464.951
781 0 56.109 13.6876 768 98.1406 613.073 465.54
782 0 59.1209 15.1554 896 94.9375 612.511 465.364
783 0 59.1084 13.9405 824 98.7779 611.103 463.984
784 0 60.0919 14.3114 860 97.4977 609.81 460.591
785 0 66.1446 15.194 1005 93.1851 608.266 462.715
786 0 66.1578 14.2689 944 95.2193 607.615 456.489
787 0 68.2816 14.2791 975 95.4123 605.726 452.436
788 0 70.0952 14.3947 1009 95.5976 605.434 448.197
789 0 71.1656 13.8691 987 96.9656 604.943 448.953
790 0 73.2455 14.1579 1037 96.2507 604.591 445.371
791 0 77.1422 15.3483 1184 93.8024 604.52 444.292
792 0 79.1769 14.2971 1132 96.053 604.584 442.324
793 1 43.0774 10.8874 469 93.7335 603.689 460.772
794 0 45.0962 11.4866 518 93.2683 603.728 455.938
795 0 45.1671 11.07 500 97.232 604.264 452.8
796 0 44.0143 11.3827 501 97.2675 604.75 451.521
797 0 49.0403 12.0309 590 94.639 607.197 450.585
798 0 49.0877 12.5286 615 94.3512 609.141 448.53
799 0 50.1771 12.0772 606 94.3729 613.822 440.86
800 0 51.0317 12.4628 636 98.3522 614.434 451.535
801 0 56.052 14.8969 835 92.1413 616.981 451.885
802 0 58.1225 13.7296 798 93.0827 619.39 453.046
803 0 60.0721 14.5991 877 92.2623 622.237 452.967
804 0 60.056 13.6706 821 95.4251 623.669 451.227
805 0 62.1174 13.6194 846 95.3085 624.966 452.212
806 0 66.1555 16.0531 1062 90.0687 626.332 453.507
807 0 65.0958 12.5815 819 98.6081 626.096 453.256
808 0 69.054 15.3069 1057 92.9858 625.561 452.194
809 0 71.0739 13.8166 982 96.0519 625.648 451.004
810 0 76.1735 13.8631 1056 95.4091 623.133 451.062
811 0 78.1259 14.2974 1117 94.4288 621.679 451.23
812 1 40.032 9.59232 384 101.562 619.076 469.664
813 0 43.1273 9.414 406 99.3374 617.177 470.212
814 0 46.0852 11.9561 551 95.7822 615.372 466.583
815 0 44.1045 10.8606 479 100.092 613.831 467.518
816 0 48.3075 11.8201 571 97.0666 613.312 465.793
817 0 49.3446 13.3753 660 94.9318 612.247 459.514
818 0 50.1816 12.7138 638 96.9075 609.82 465.788
819 0 52.1147 13.7965 719 94.7691 607.627 460.989
820 0 54.0888 13.0711 707 95.5219 607.157 458.796
821 0 57.1558 14.4517 826 92.0751 605.832 457.414
822 0 58.2743 16.062 936 89.5812 604.886 455.187
823 0 58.1825 14.5405 846 92.435 604.532 454.079
824 0 60.1797 14.8389 893 91.6103 604.417 452.73
825 0 63.1385 14.6662 926 92.2052 604.029 448.781
826 0 65.164 15.3459 1000 91.296 603.584 446.34
827 0 65.164 15.2999 997 142.568 602.573 446.257
828 0 66.3188 14.0986 935 95.708 605.483 444.502
829 0 68.0971 13.9213 948 96.5116 606.32 442.482
830 0 72.1127 15.5035 1118 93.042 606.993 441.33
831 0 74.0673 15.8505 1174 92.8382 608.715 440.07
832 0 75.1071 16.1769 1215 93.2296 610.55 440.857
833 0 78.3537 15.3024 1199 95.3219 613.972 440.984
834 0 79.2277 15.4365 1223 97.1423 616.28 439.106
835 0 82.2724 16.0807 1323 96.6848 619.42 438.393
836 1 45.2105 9.53319 431 102.898 620.988 461.807
837 0 48.0833 12.0416 579 98.9965 623.389 459.931
838 0 48.1687 11.7919 568 100.257 624.384 461.9
839 0 49.048 12.763 626 98.853 625.776 462.813
840 0 53.0582 12.9292 686 99.5598 625.972 462.044
841 0 56.0835 15.3521 861 92.6005 624.691 457.537
842 0 56.0291 13.4751 755 99.1709 624.007 457.167
843 0 57.0502 14.163 808 98.3057 622.49 455.86
844 0 62.1013 14.9111 926 95.6793 620.908 458.181
845 0 61.2247 12.5113 766 101.873 620.881 457.587
846 0 64.1477 14.6693 941 97.6153 618.086 456.723
847 0 66.1075 13.0394 862 100.662 615.436 459.186
848 0 71.1751 15.6094 1111 93.009 613.177 458.313
849 0 73.2969 14.2571 1045 98.0057 611.81 457.056
850 0 77.2717 14.5461 1124 95.4199 611.325 459.15
851 0 76.1521 13.4862 1027 100.063 610.476 454.396
852 1 41.1103 8.85423 364 101.08 608.519 475.201
853 0 43.0567 9.8707 425 101.449 606.76 475.238
854 0 46.1189 11.2535 519 97.9499 605.572 469.886
855 0 46.0437 10.2077 470 100.047 603.694 468.794
856 0 49.135 12.4148 610 96.6967 604.856 463.739
857 0 50.5763 13.1089 663 93.7542 604.665 454.75
858 0 49.311 12.2691 605 98.519 605.241 455.516
859 0 51.1157 13.8118 706 96.0963 604.224 462.46
860 0 53.2316 13.2816 707 97.8571 604.444 460.103
861 0 55.116 13.9161 767 95.5111 604.666 461.334
862 0 58.0583 14.0548 816 94.0625 605.344 461.263
863 0 58.1348 14.6556 852 93.7512 606.122 458.664
864 0 59.3075 13.9611 828 96.3152 608.475 457.198
865 0 59.1104 12.4005 733 101.106 610.476 455.211
866 0 63.3221 14.3236 907 95.9206 612.423 450.853
867 0 66.115 14.3538 949 94.8883 614.471 455.281
868 0 68.1808 14.8722 1014 94.1686 617.034 457.762
869 0 68.1522 13.2351 902 98.7916 619.302 457.238
870 0 72.1017 14.7569 1064 94.4248 622.318 458.282
871 0 71.1322 14.0724 1001 98.4965 624.326 456.972
872 0 76.0978 14.8887 1133 96.4254 624.836 454.952
873 0 77.1476 14.6472 1130 99.1973 625.302 456.521
874 0 78.1212 14.5927 1140 100.961 625.477 452.912
875 1 44.0922 10.8182 477 103.753 625.044 468.767
876 0 43.052 9.26787 399 107.411 624.346 468.845
877 0 46.0902 12.0199 554 103.81 621.442 468.43
878 0 47.0496 12.7738 601 104.933 620.261 469.072
879 0 48.1284 13.1108 631 103.528 619.35 466.577
880 0 48.0514 13.0693 628 106.494 616.119 467.818
881 0 51.0642 15.6274 798 100.575 614.5 466.861
882 0 52.0488 14.179 738 105.27 614.06 466.542
883 0 52.1554 12.9421 675 109.476 611.318 465.673
884 0 56.0725 14.9093 836 103.684 608.852 464.167
885 0 57.0584 13.5826 775 106.145 607.896 463.268
886 0 60.0224 14.7445 885 103.459 606.214 460.437
887 0 64.0368 13.3517 855 105.94 604.974 460.868
888 1 32.0733 10.1018 324 109.444 604.756 473.611
889 0 35.0053 10.6841 374 108.107 603.428 472.733
890 0 35.0057 10.284 360 112.261 602.647 470.428
891 0 36.0075 10.5534 380 112.739 602.353 467.453
892 0 37.0468 12.4707 462 109.732 602.706 467.591
893 0 40.036 11.3398 454 111.159 602.903 466.029
894 0 39.1134 12.0675 472 111.703 603.114 464.466
895 0 40.1305 13.0076 522 111.14 604.073 464.305
896 0 42.0606 13.6232 573 108.757 604.466 462.866
897 0 43.0833 13.1606 567 109.393 605.921 460.067
898 0 45.0849 12.9977 586 108.978 606.778 459.546
899 0 40.0144 12.2456 490 116.749 608.984 455.502
900 0 47.077 12.299 579 112.456 610.627 456.922
901 0 47.1185 13.1583 620 111.687 613.334 457.34
902 0 49.0841 13.3852 657 109.721 616.843 458.998
903 0 50.0367 12.5308 627 113.206 618.649 459.994
904 0 51.066 13.414 685 111.679 621.688 459.254
905 0 52.0439 13.2388 689 112.446 622.981 459.7
906 0 51.052 12.8497 656 116 624.21 458.102
907 0 54.0712 12.9644 701 114.402 623.732 461.542
908 0 56.1137 13.0093 730 113.8 624.084 459.921
909 0 58.1012 13.8207 803 112.609 622.953 458.23
910 0 57.0736 13.8418 790 114.975 621.499 458.149
911 0 61.0664 13.821 844 113.68 620.286 460.749
912 0 60.0325 13.9924 840 113.983 617.919 461.055
913 0 62.062 13.132 815 115.966 616.84 461.6
914 0 62.031 13.9608 866 116.346 614.652 461.753
915 0 72.0824 17.7991 1283 97.0818 612.225 453.716
916 0 76.2766 18.4198 1405 94.7666 611.382 454.033
917 0 92.1144 16.5772 1527 91.7197 608.739 449.283
918 0 78.1582 16.1979 1266 104.102 607.526 455.303
919 0 78.0865 17.3782 1357 100.684 606.661 453.006
920 0 77.5609 20.023 1553 94.32 604.87 446.661
921 0 76.157 17.2144 1311 105.041 604.918 449.376
922 0 74.1316 16.8349 1248 109.721 604.135 448.688
923 0 82.1148 15.5636 1278 109.469 602.159 448.764
924 0 80.1211 15.0772 1208 113.204 601.849 446.526
925 0 80.0363 16.8424 1348 111.05 601.918 445.383
926 0 79.1165 15.1675 1200 118.471 601.809 444.468
927 0 76.0765 13.1052 997 131.401 602.044 445.207
928 0 76.0788 14.1038 1073 128.569 603.017 445.822
929 0 77.1484 12.7806 986 132.39 603.302 445.997
930 0 80.1112 13.706 1098 129.427 605.654 444.564
931 0 78.1594 12.5385 980 135.274 607.135 444.228
