time division length width area intensity CMx CMy
0 0 47.1461 15.908 750 108.839 124.195 496.347
1 0 49.179 14.7217 724 109.448 124.242 498.931
2 0 51.1242 14.8071 757 111.54 123.133 495.221
3 0 49.0483 13.5581 665 116.075 123.386 493.835
4 0 53.0416 14.7243 781 112.287 122.673 492.54
5 0 53.0696 14.3208 760 114.064 123.501 491.438
6 0 54.0871 14.4027 779 115.11 125.648 490.711
7 0 59.1747 15.1923 899 113.633 126.961 488.958
8 0 60.117 15.6694 942 111.237 126.875 486.098
9 0 60.1894 14.6205 880 115.819 128.697 485.562
10 1 32.0118 12.6516 405 122.047 131.314 496.827
11 0 33.0094 11.8148 390 123.392 133.451 497.954
12 0 34.0294 13.8116 470 120.689 134.434 494.813
13 0 37.0077 11.8084 437 123.84 135.977 494.838
14 0 35.0038 13.0557 457 124.877 138.282 494.068
15 0 38.0106 13.391 509 122.167 139.974 494.892
16 0 36.0521 13.2863 479 127.217 142.58 494.342
17 0 38.0173 12.9152 491 129.613 144.397 493.118
18 0 39.0443 15.5208 606 121.868 146.122 492.337
19 0 40.0841 15.1681 608 122.564 147.327 492.711
20 0 43.0347 16.4286 707 117.917 148.29 492.161
21 0 44.086 15.1749 669 123.858 148.321 493.109
22 0 48.0727 14.6653 705 121.949 148.099 492.43
23 0 49.0413 16.6594 817 113.7 147.814 491.149
24 0 49.0261 15.5427 762 116.812 147.657 493.028
25 0 50.076 15.3766 770 121.797 145.612 492.91
26 0 52.0709 16.9768 884 117.61 144.187 491.742
27 0 53.1232 15.1911 807 123.721 141.15 487.357
28 0 55.0375 15.117 832 124.016 138.84 488.388
29 0 58.0966 15.6464 909 121.374 136.598 487.314
30 0 59.069 15.7951 933 120.603 133.982 484.39
31 0 60.0684 15.782 948 120.52 132.556 482.736
32 0 65.1131 16.8015 1094 115.456 131.392 482.388
33 0 64.1193 16.3601 1049 117.991 130.54 478.64
34 0 69.0635 15.2613 1054 117.464 130.69 478.118
35 1 36.0215 11.049 398 119.585 130.146 492.701
36 0 37.0243 11.3439 420 120.617 130.076 488.945
37 0 39.0292 11.1199 434 120.965 131.604 488.569
38 0 40.0284 12.3912 496 119.133 133.016 486.962
39 0 41.0938 13.2137 543 117.448 134.587 485.182
40 0 40.0606 13.4047 537 120.547 137.151 483.037
41 0 44.0459 14.0535 619 117.173 137.876 483.069
42 0 44.0632 12.9133 569 119.747 140.596 480.552
43 0 46.0428 15.6811 722 112.079 141.932 479.914
44 0 49.1958 15.1639 746 116.433 142.32 478.953
45 0 48.2903 14.9305 721 119.064 143.969 476.491
46 0 51.1171 14.2614 729 119.241 146.966 477.355
47 0 53.1133 16.0035 850 115.771 148.747 474.831
48 0 54.1203 17.0916 925 112.656 150.293 475.345
49 0 55.0604 14.9109 821 117.244 151.901 478.27
50 0 57.1771 15.4083 881 115.565 153 475.767
51 0 61.2171 17.8545 1093 106.339 154.778 476.593
52 0 61.1124 15.9869 977 110.963 155.521 478.876
53 0 62.0693 16.9971 1055 110.166 156.107 479.529
54 0 63.1665 15.1188 955 115.65 156.886 480.473
55 0 66.1615 15.9458 1055 112.266 157.066 479.516
56 0 68.0662 15.6171 1063 113.971 155.777 478.397
57 0 71.1893 16.7722 1194 111.264 154.818 475.987
58 0 74.1149 17.6483 1308 109.838 153.404 477.561
59 0 75.2623 14.5757 1097 117.605 150.852 475.469
60 0 76.0837 15.7327 1197 117.194 149.052 473.138
61 0 80.3166 16.8832 1356 112.033 145.578 470.19
62 1 45.099 11.9736 540 112.62 143.967 489.778
63 0 46.1434 12.2444 565 111.504 141.609 487.685
64 0 46.3264 12.9084 598 110.806 138.674 483.082
65 0 48.326 12.4364 601 110.622 136.83 480.712
66 0 49.2546 12.5877 620 111.892 136.24 478.445
67 0 49.3568 13.5544 669 111.284 136.166 477.118
68 0 54.2427 14.343 778 109.181 135.206 475.031
69 0 56.3666 14.8847 839 109.948 135.841 470.678
70 0 56.1554 13.89 780 113.413 137.2 473.026
71 0 59.2367 14.2986 847 113.403 139.135 469.724
72 0 61.2275 14.3236 877 115.164 141.741 470.694
73 0 64.2493 14.2725 917 108.844 142.862 469.037
74 0 66.1549 14.4963 959 107.467 144.49 466.583
75 0 70.0741 15.6549 1097 106.038 145.995 464.732
76 0 71.2005 15.8566 1129 106.755 149.028 462.659
77 0 73.1809 13.9381 1020 111.321 150.386 460.896
78 1 38.1582 12.4744 476 105.013 151.998 478.168
79 0 40.0437 11.4625 459 105.963 153.013 479.312
80 0 40.215 12.8808 518 105.319 154.755 476.444
81 0 44.2242 13.2959 588 100.934 156.321 478.832
82 0 44.1138 11.8557 523 102.956 158.228 479.635
83 0 46.0917 13.6033 627 99.4466 159.711 479.25
84 0 49.0593 12.9843 637 100.59 160.706 479.733
85 0 49.1629 15.5605 765 96.0065 162.758 478.741
86 0 50.0681 14.6201 732 100.309 163.833 480.199
87 0 51.0499 13.6533 697 101.26 163.435 480.086
88 0 54.0752 14.9976 811 95.852 162.265 480.053
89 0 56.423 14.9939 846 95.7163 161.695 479.948
90 0 57.0145 14.0841 803 98.3213 160.555 477.867
91 0 60.1277 14.2696 858 98.9639 159.843 477.784
92 0 61.1385 15.6857 959 96.7883 156.639 477.377
93 0 61.1349 14.7052 899 104.121 156.722 476.592
94 0 63.2653 15.19 961 98.4651 153.4 473.959
95 0 67.1981 16.8755 1134 94.2972 150.753 473.894
96 0 62.1382 13.6792 850 103.458 147.124 473.434
97 0 62.1916 13.8443 861 107.334 144.829 473.069
98 0 65.1487 15.5337 1012 104.539 142.296 470.113
99 0 67.2645 16.0411 1079 110.433 141.69 471.208
100 0 67.449 15.8045 1066 112.831 141.912 469.739
101 0 70.2044 15.4121 1082 113.667 140.862 470.327
102 0 69.3565 15.3699 1066 115.01 141.631 466.71
103 0 71.2455 16.3659 1166 113.518 141.873 464.811
104 0 72.2116 16.0778 1161 115.953 143.606 465.077
105 0 75.2451 17.8749 1345 110.181 144.503 463.019
106 0 75.3478 17.0941 1288 111.691 146.496 459.136
107 0 75.513 15.1497 1144 111.998 147.668 455.835
108 0 77.4233 17.372 1345 107.28 149.146 452.78
109 0 79.3751 16.9575 1346 106.225 151.952 452.381
110 0 81.2442 16.4689 1338 106.037 154.271 451.854
111 0 81.1512 16.0564 1303 108.137 156.087 447.252
112 1 41.1032 11.0454 454 104.026 157.203 472.454
113 0 43.1745 11.2798 487 107.074 159.54 469.041
114 0 44.325 12.7016 563 107.107 160.989 470.599
115 0 42.122 11.253 474 114.065 161.92 468.219
116 0 42.122 11.2055 472 152.752 162.919 468.208
117 0 47.1231 14.9396 704 117.482 165.233 473.381
118 0 47.1882 14.0713 664 121.625 166.077 474.535
119 0 51.0662 15.1568 774 113.747 165.782 469.124
120 0 52.0668 14.0012 729 117.883 165.977 472.259
121 0 53.0354 14.6883 779 117.131 166.926 473.979
122 0 53.026 14.1063 748 124.687 166.098 476.341
123 0 56.2545 15.0032 844 122.353 164.897 476.142
124 0 58.1212 15.7086 913 119.955 163.934 477.524
125 0 60.1084 15.3889 925 120.613 162.856 476.143
126 0 61.0787 15.7665 963 120.528 161.444 474.961
127 0 64.2322 15.6464 1005 120.898 159.55 475.198
128 1 33.0413 12.0455 398 121.42 156.701 489.52
129 0 33.0269 12.2325 404 121.413 154.124 487.988
130 0 35.0236 12.563 440 118.552 151.47 487.086
131 0 37.0971 11.2408 417 119.492 150.141 485.257
132 0 40.1241 12.8352 515 114.546 149.109 483.113
133 0 40.1856 13.6118 547 116.596 146.868 480.25
134 0 41.1869 13.0138 536 117.674 145.864 477.539
135 0 42.1549 13.996 590 117.197 145.042 477.203
136 0 43.116 13.7768 594 117.576 146.013 475.534
137 0 46.0489 16.4173 756 110.452 146.241 471.853
138 0 47.0989 14.7137 693 114.618 146.929 471.416
139 0 49.1435 15.3835 756 114.384 149.265 471.366
140 0 51.1152 15.3966 787 112.773 150.22 470.478
141 0 52.1266 15.117 788 114.848 151.221 466.798
142 0 54.1807 15.4114 835 112.574 152.843 466.804
143 0 56.152 15.0484 845 114.47 156.213 465.644
144 0 58.2535 15.8102 921 113.824 157.516 463.346
145 0 59.135 16.1326 954 114.36 158.494 463.358
146 0 61.2071 16.1092 986 113.971 160.499 462.01
147 0 63.1319 15.9666 1008 112.886 160.757 462.403
148 0 65.2604 16.0128 1045 113.22 163.048 462.485
149 0 68.1623 16.1379 1100 113.294 164.933 461.701
150 0 70.2699 17.3616 1220 110.366 166.172 461.124
151 0 72.2792 16.713 1208 111.839 167.305 461.679
152 1 38.0481 12.1162 461 114.813 167.959 476.835
153 0 41.1164 12.2092 502 112.006 168.325 479.635
154 0 43.0908 13.7849 594 107.37 168.628 480.283
155 0 41.0606 12.4694 512 111.502 168.602 482.023
156 0 45.0348 13.3896 603 105.065 168.01 482.612
157 0 45.0861 13.9954 631 105.775 168.48 482.754
158 0 46.146 13.869 640 104.294 166.394 481.559
159 0 47.0326 13.7351 646 103.859 164.74 481.591
160 0 50.0306 14.9109 746 102.304 162.657 480.645
161 0 51.1271 14.904 762 101.282 159.367 478.738
162 0 54.0713 13.8706 750 102.76 156.553 477.579
163 0 56.1107 15.0595 845 99.6059 153.246 477.244
164 0 56.1074 14.1871 796 104.186 151.109 471.433
165 0 59.0424 14.1254 834 102.42 149.078 472.341
166 0 62.1545 14.5927 907 102.014 147.712 469.131
167 0 62.1257 13.521 840 104.387 146.95 467.501
168 0 65.0633 15.1237 984 100.768 146.214 465.001
169 0 67.0814 13.4613 903 105.776 145.623 461.786
170 1 34.0162 10.6126 361 104.645 146.053 479.657
171 0 35.0605 11.1807 392 104.031 147.196 477.556
172 0 38.0311 11.5169 438 103.203 148.265 475.233
173 0 41.0293 12.6982 521 101.923 149.837 474.355
174 0 42.0605 12.91 543 101.037 151.716 473.348
175 0 43.0279 14.479 623 102.955 154.804 471.612
176 0 42.1531 14.0915 594 106.534 157.391 470.024
177 0 45.0885 12.5309 565 106.565 158.69 472.628
178 0 46.0689 13.1108 604 106.118 160.684 469.45
179 0 48.073 13.4795 648 103.457 163.088 470.554
180 0 50.0503 13.7861 690 102.759 164.851 467.791
181 0 52.1507 15.0142 783 98.6935 166.502 467.321
182 0 53.0973 13.8048 733 101.716 167.569 468.312
183 0 57.088 14.2762 815 99.5129 168.375 469.526
184 0 56.0622 15.5898 874 98.3993 168.759 469.787
185 0 59.1655 13.927 824 102.133 169.471 469.138
186 0 62.1653 15.7483 979 97.5107 171.091 471.058
187 0 63.0953 14.5811 920 99.8696 171.553 470.009
188 0 65.0803 14.9968 976 99.8186 171.732 468.011
189 0 67.1356 14.493 973 102.485 171.48 467.996
190 0 69.0504 14.8008 1022 100.87 170.051 469.652
191 0 72.1081 14.714 1061 102.098 168.633 467.677
192 0 75.0561 16.0413 1204 100.027 166.683 466.038
193 0 76.182 15.0692 1148 101.065 165.203 464.634
194 0 82.15 15.5813 1280 99.4305 161.729 462.631
195 1 42.0546 10.5339 443 102.553 159.386 482.298
196 0 45.0661 11.7161 528 102.392 156.595 481.362
197 0 47.0188 12.3993 583 101.59 154.916 478.396
198 0 47.0281 12.2055 574 105.35 151.929 474.801
199 0 49.0285 12.7477 625 104.496 149.533 475.07
200 0 51.039 13.2252 675 102.548 148.31 473.766
201 0 55.0748 14.3441 790 95.4658 147.735 472.853
202 0 54.0425 14.174 766 98.5104 145.809 470.983
203 0 55.1012 15.1176 833 98.1345 146.867 466.001
204 0 57.0615 14.2127 811 100.116 148.149 464.741
205 0 58.226 13.1556 766 102.414 148.96 462.804
206 0 57.1535 13.3325 762 102.094 150.546 462.231
207 0 66.211 16.8552 1116 91.2294 151.797 458.014
208 0 71.2962 17.3361 1236 89.3568 153.828 456.193
209 0 69.1418 15.461 1069 95.4275 155.167 454.051
210 0 67.2422 14.0091 942 102.203 156.87 453.219
211 0 72.2245 15.3411 1108 98.9305 158.612 453.991
212 0 77.2646 14.4568 1117 102.203 162.589 453.88
213 0 79.1806 14.1322 1119 104.178 164.789 453.609
214 0 83.1938 14.5804 1213 102.513 165.038 452.774
215 0 86.1392 14.4069 1241 101.255 166.966 458.137
216 0 90.2139 15.7404 1420 100.79 167.673 452.908
217 1 50.2064 12.0901 607 106.39 168.784 473.488
218 0 48.2358 12.3352 595 106.524 169.761 475.995
219 0 50.1994 13.7053 688 105.321 168.878 475.033
220 0 55.1098 14.2624 786 103.043 169.174 475.803
221 0 55.1975 13.9318 769 105.991 171.009 473.209
222 0 57.0199 15.9067 907 101.255 171.352 472.314
223 0 59.1345 15.3887 910 101.255 169.975 474.699
224 0 61.0611 14.51 886 101.187 168.061 473.014
225 0 63.0342 13.7862 869 103.678 166.025 470.818
226 0 65.0617 15.8926 1034 99.6044 163.686 470.004
227 0 66.2376 14.7348 976 102.241 160.922 467.973
228 0 68.1022 14.4342 983 103.168 158.652 465.166
229 0 73.0639 14.5763 1065 102.044 156.354 464.817
230 0 75.07 15.7053 1179 99.1798 154.047 462.14
231 0 77.2067 14.3899 1111 101.172 151.948 461.365
232 0 78.0693 14.1413 1104 101.628 150.626 459.854
233 0 83.0974 15.0787 1253 97.6704 149.362 457.49
234 0 84.0749 14.2611 1199 100.229 148.39 450.892
235 0 88.2991 14.5981 1289 98.4484 148.665 450.299
236 1 44.0642 11.4152 503 101.489 148.666 469.01
237 0 48.0911 9.87709 475 100.676 150.415 470.415
238 0 48.0381 11.4909 552 100.283 152.005 467.676
239 0 50.0723 13.0411 653 98.1577 152.513 465.58
240 0 52.1043 15.0659 785 95.8293 155.739 461.619
241 0 53.1098 14.4229 766 97.9948 154.496 462.168
242 0 58.2243 16.2475 946 89.5211 155.466 463.124
243 0 57.06 13.7224 783 96.6207 157.258 462.181
244 0 59.1824 14.0244 830 95.7036 158.323 460.127
245 0 62.216 15.1729 944 93.4025 160.435 460.692
246 0 63.1095 13.8489 874 96.4703 162.137 458.416
247 0 64.2412 14.9748 962 94.5759 164.48 460.169
248 0 68.2329 15.9747 1090 90.8028 165.414 460.364
249 0 69.1609 15.4712 1070 92.772 167.818 459.737
250 0 73.2495 16.8329 1233 89.15 170.082 461.092
251 0 74.11 14.7888 1096 94.4443 170.375 460.248
252 0 76.0998 14.9672 1139 94.7217 171.388 459.76
253 0 82.5438 16.6094 1371 90.5106 172.509 457.972
254 1 40.5454 11.1973 454 96.511 173.604 478.383
255 0 43.3402 12.5057 542 94.0978 173.487 478.959
256 0 44.491 13.0139 579 94.582 173.491 478.948
257 0 47.3448 12.2505 580 93.8483 172.674 480.35
258 0 48.1542 12.9999 626 92.7061 171.065 481.152
259 0 49.0675 13.4712 661 89.8215 168.033 483.325
260 0 49.2972 15.2341 751 88.0985 165.932 480.397
261 0 50.4099 14.5606 734 89.9469 162.937 479.33
262 0 52.3778 12.6007 660 91.7136 161.061 479.571
263 0 52.4187 14.2697 748 90.7513 158.029 475.311
264 0 55.2469 14.3899 795 89.9648 153.75 475.189
265 0 59.1719 17.6435 1044 83.5316 151.566 469.51
266 0 63.2821 15.0596 953 86.9328 150.686 469.295
267 0 66.3002 18.3408 1216 80.2804 149.081 464.814
268 0 65.2191 16.5596 1080 85.05 148.995 462.869
269 0 64.1762 14.0862 904 90.9347 149.197 462.258
270 0 74.3073 16.4318 1221 82.1769 148.218 453.361
271 0 76.3219 20.1515 1538 76.5345 150.248 453.38
272 0 80.4087 17.2245 1385 81.5357 151.776 455.058
273 0 84.3016 16.9154 1426 81.8724 152.321 452.756
274 0 81.2513 17.772 1444 83.5859 154.123 449.627
275 0 77.1762 13.9292 1075 93.3358 156.446 454.393
276 1 45.0429 12.5214 564 94.2766 158.573 469.523
277 0 44.1075 12.1748 537 93.7952 160.471 471.041
278 0 44.0925 10.9769 484 99.3161 162.209 468.864
279 0 47.0684 11.239 529 99.4631 163.59 468.554
280 0 49.106 12.8294 630 97.5444 165.135 467.081
281 0 49.0954 13.1173 644 97.6413 164.8 467.762
282 0 50.118 12.8497 644 96.9798 164.863 468.772
283 0 52.2756 15.0739 788 94.401 167.674 466.643
284 0 56.1521 14.9594 840 91.1821 168.742 465.795
285 0 57.3066 14.2915 819 93.641 168.392 465.321
286 0 58.2127 14.7219 857 92.2637 169.469 463.489
287 0 61.1708 14.9908 917 91.8364 170.207 462.417
288 0 61.2495 13.2573 812 95.7303 170.486 465.271
289 0 65.2559 15.2477 995 92.7648 170.306 466.865
290 0 67.4438 15.7464 1062 91.709 168.421 466.838
291 0 67.1075 14.3501 963 96.8152 167.775 465.739
292 0 70.2367 15.3481 1078 93.7774 166.172 465.083
293 0 72.1123 14.2417 1027 95.4187 163.675 464.294
294 0 73.125 14.2359 1041 96.5716 161.345 461.922
295 0 77.1692 14.1248 1090 96.4046 159.049 460.869
296 1 41.1426 11.2292 462 100.998 155.792 476.039
297 0 42.2296 12.5504 530 99.7302 152.772 476.638
298 0 43.0553 11.2413 484 102.767 150.512 475.483
299 0 45.1054 12.6592 571 100.552 148.473 474.193
300 0 45.1327 11.0784 500 104.174 148.628 473.434
301 0 47.4624 12.7891 607 100.753 146.723 467.863
302 0 50.6302 13.5492 686 97.777 146.983 467.876
303 0 51.2241 14.4073 738 97.2547 147.442 468.89
304 0 53.0973 13.6919 727 98.0096 149.003 467.649
305 0 55.2757 15.4679 855 94.6842 148.009 464.433
306 0 57.2133 13.371 765 97.8523 149.467 463.732
307 0 58.3415 14.5351 848 96.5967 151.33 461.114
308 0 59.1866 14.26 844 97.3566 152.797 462.155
309 0 63.3286 15.1117 957 94.0178 155.387 458.563
310 0 63.2695 13.3556 845 98.1988 157.146 457.897
311 0 67.3254 15.1206 1018 94.4214 159.113 456.98
312 0 68.314 14.0088 957 96.5183 160.386 458.41
313 0 71.1809 15.3974 1096 93.6487 161.674 454.806
314 0 74.2749 15.8735 1179 92.5623 164.517 456.045
315 0 75.2926 13.9323 1049 97.857 164.934 453.315
316 0 77.2782 14.2084 1098 94.7769 166.883 455.359
317 0 82.2963 15.0311 1237 94.4268 168.164 450.127
318 0 84.1938 13.9084 1171 96.8019 169.388 453.601
319 0 88.2613 15.4881 1367 94.0205 170.627 453.936
320 0 90.2116 14.865 1341 96.7286 172.101 453.099
321 1 47.069 10.0703 474 98.5422 170.051 468.901
322 0 51.1011 12.5829 643 94.7045 170.449 474
323 0 53.1056 13.106 696 92.0747 169.917 472.004
324 0 56.1064 13.314 747 90.6921 168.195 475.281
325 0 57.0487 14.2159 811 90.016 167.128 473.678
326 0 55.1903 13.1364 725 95.8552 166.152 474.059
327 0 60.0973 15.0256 903 91.5803 164.117 475.489
328 0 58.1318 13.435 781 96.5301 161.138 472.283
329 0 62.1042 13.7189 852 94.365 158.741 472.745
330 0 65.0982 14.3783 936 93.3472 155.798 470.666
331 0 65.0861 15.2106 990 93.2444 152.991 467.82
332 0 67.1953 14.5397 977 94.7308 150.903 466.624
333 0 71.2724 14.171 1010 94.1079 148.877 463.676
334 0 74.2175 16.3439 1213 90.3982 147.284 460.735
335 0 77.1235 15.5076 1196 91.6572 146.478 459.039
336 0 78.1009 14.763 1153 93.4397 146.337 455.647
337 0 80.2378 14.5567 1168 93.8014 147.874 454.654
338 0 83.1993 14.5073 1207 94.9967 149.123 451.114
339 0 83.1538 13.0722 1087 98.965 151.096 451.514
340 1 46.0348 9.92728 457 95.9365 152.35 469.659
341 0 49.0331 10.911 535 96.871 153.062 467.398
342 0 50.0642 14.4415 723 91.2462 154.784 465.448
343 0 52.0816 12.634 658 92.8602 156.266 464.155
344 0 54.1804 13.695 742 90.9973 158.31 462.07
345 0 55.0485 14.2057 782 88.702 159.39 462.931
346 0 57.0369 14.0786 803 89.5978 160.782 465.463
347 0 59.0298 14.0946 832 89.7392 162.298 464.279
348 0 60.0603 13.6196 818 89.5648 163.557 463.74
349 0 62.1807 12.9301 804 90.9142 164.474 462.759
350 0 68.0649 18.0857 1231 80.0138 166.706 460.395
351 0 69.1551 16.0653 1111 83.6085 168.336 461.315
352 0 69.1336 15.7666 1090 84.9165 169.145 461.919
353 0 70.1799 15.0043 1053 86.6049 170.82 462.264
354 0 71.1006 14.7397 1048 88.6756 170.789 463.51
355 0 74.1745 14.776 1096 89.1031 171.003 463.778
356 1 39.054 9.93495 388 93.5206 171.446 483.423
357 0 42.1689 11.5488 487 91.2628 171.279 482.938
358 0 42.63 10.8609 463 92.8445 172.484 480.14
359 0 41.4834 13.0414 541 92.4769 171.183 477.181
360 0 44.3076 14.8507 658 87.2234 168.843 481.807
361 0 46.2385 13.1925 610 87.9967 167.285 478.561
362 0 46.2011 13.4412 621 86.6409 163.596 479.308
363 0 48.2646 15.2285 735 84.5388 160.32 475.171
364 0 47.2128 12.9202 610 90.5738 157.152 475.295
365 0 51.372 12.7307 654 89.4083 154.101 474.167
366 0 49.216 12.4553 613 91.2594 152.042 472.853
367 0 52.1467 13.0018 678 89.3466 150.916 471.805
368 0 56.321 14.2753 804 85.8545 150.178 468.857
369 0 56.1962 13.88 780 87.6538 149.095 466.2
370 0 57.3125 14.0982 808 87.0124 149.199 465.621
371 0 61.1323 16.7996 1027 80.6933 149.751 464.626
372 0 61.2788 14.7522 904 85.3396 151.472 459.275
373 0 66.1624 15.0539 996 83.6998 152.997 460.311
374 0 65.0841 14.5811 949 84.9958 153.37 458.744
375 0 70.244 14.8482 1043 83.8303 155.922 457.582
376 0 71.2157 15.432 1099 84.5833 158.38 455.503
377 0 73.2806 13.7417 1007 87.5372 160.265 456.047
378 0 74.1241 14.5027 1075 86.0958 161.615 455.389
379 0 76.3 14.0891 1075 88.5181 163.322 452.502
380 0 80.1142 15.1034 1210 85.8504 164.155 450.507
381 1 43.1293 8.60205 371 91.9973 166.488 470.504
382 0 44.0303 11.6738 514 87.9436 167.809 472.128
383 0 47.0228 9.31463 438 87.8356 168.854 473.326
384 0 48.2748 11.5381 557 87.6248 169.655 470.978
385 0 48.0508 12.2787 590 87.7881 171.027 471.612
386 0 51.1193 11.5612 591 87.1134 172.459 474.103
387 0 52.0686 12.8676 670 86.7209 173.79 473.687
388 0 55.1693 15.0446 830 82.3795 173.573 473.798
389 0 58.26 17.3704 1012 78.3152 173.144 474.122
390 0 58.2661 12.9578 755 85.3815 174.021 476.105
391 0 60.0905 14.1453 850 83.6565 172.049 476.264
392 0 61.1997 13.8399 847 85.2172 171.642 474.17
393 0 62.3801 14.2513 889 85.8279 170.161 474.067
394 0 64.3446 13.6764 880 87.8989 168.118 473.603
395 0 67.4969 15.1118 1020 85.1765 166.114 470.034
396 0 69.4968 14.7057 1022 87.0479 162.157 469.848
397 0 71.3556 14.1404 1009 89.9851 158.534 466.988
398 0 74.1696 13.6983 1016 90.5748 156.586 465.089
399 1 39.0065 9.53688 372 95.078 154.444 480.586
400 0 40.0549 11.0099 441 93.8435 152.345 479.125
401 0 44.0195 11.6312 512 89.8848 150.229 479.307
402 0 42.1752 12.5903 531 92.2825 150.499 473.712
403 0 45.0494 11.7649 530 89.4245 146.353 472.402
404 0 47.0271 11.7804 554 90.0397 147.032 471.258
405 0 47.3542 12.227 579 90.1278 151.71 466.088
406 0 48.0363 13.927 669 90.2511 153.375 468.626
407 0 50.0857 15.0342 753 90.6972 153.839 464.837
408 0 53.075 14.8281 787 90.155 155.543 466.391
409 0 53.0599 13.0042 690 94.4855 158.175 466.443
410 0 55.1366 13.1673 726 93.2052 160.555 464.04
411 0 58.0951 14.0115 814 91.7113 163.198 461.598
412 0 59.0583 13.3089 786 94.0483 164.277 464.043
413 0 61.0607 14.1171 862 91.9443 165.391 462.089
414 0 64.0716 14.6399 938 91.1695 166.656 462.523
415 0 66.0705 14.2726 943 91.228 168.178 461.269
416 0 65.2078 12.4832 814 96.1057 168.482 459.904
417 0 68.0496 13.6518 929 93.5867 169.259 460.017
418 0 71.0641 15.2538 1084 90.3293 171.275 460.053
419 0 73.087 14.9548 1093 90.8683 172.342 461.782
420 0 74.1008 12.2941 911 96.7585 173.237 460.369
421 1 41.044 11.1588 458 94.0699 174.306 479.445
422 0 40.1031 10.5229 422 94.5664 173.671 481.818
423 0 44.0985 11.2249 495 91.0687 172.749 481.531
424 0 45.0372 11.7236 528 92.5985 172.11 480.85
425 0 46.1585 12.2621 566 93.0477 171.549 482.436
426 0 47.0156 12.9319 608 94.3454 170.02 479.788
427 0 47.0866 13.953 657 94.382 167.353 478.072
428 0 50.1547 14.5749 731 91.9521 164.826 479.85
429 0 51.1493 14.1155 722 94.6676 161.364 476.824
430 0 55.1381 13.3664 737 95.2727 158.999 477.358
431 0 53.1751 13.5402 720 94.5819 155.86 475.304
432 0 54.1321 14.0397 760 94.2237 153.764 475.63
433 0 58.1831 14.0934 820 93.2341 151.34 473
434 0 60.1795 14.8223 892 92.2399 149.426 468.805
435 0 60.0594 15.4847 930 92.529 148.219 466.78
436 0 61.0993 13.6336 833 96.2197 147.319 463.993
437 0 65.0808 15.6114 1016 91.8406 147.299 462.353
438 0 66.2895 13.9389 924 96.066 147.568 461.008
439 1 35.1194 10.3077 362 96.3481 149.459 477.688
440 0 36.1282 12.7601 461 92.9631 151.725 476.165
441 0 39.1099 12.5032 489 94.9407 152.71 473.082
442 0 37.0905 9.30157 345 99.2377 155.096 475.394
443 0 39.0613 12.3652 483 93.4265 157.716 473.795
444 0 40.0713 11.8539 475 95.4042 159.128 471.874
445 0 43.2381 14.8249 641 94.6443 161.209 471.078
446 0 46.3391 15.2571 707 92.0523 161.188 471.859
447 0 48.1144 14.4863 697 94.0273 163.634 470.72
448 0 48.1055 14.78 711 94.1603 164.828 471.862
449 0 49.0825 15.4638 759 93.7404 166.043 471.04
450 0 50.0757 14.5779 730 95.5219 166.837 473.123
451 0 51.1128 14.2626 729 96.3978 167.536 473.984
452 0 51.0662 15.3135 782 94.7391 168.598 474.797
453 0 53.0687 15.7343 835 93.2695 168.898 472.257
454 0 55.0794 14.9602 824 94.733 170.706 475.052
455 0 56.089 14.0491 788 97.4454 170.702 472.954
456 0 60.0771 17.2112 1034 90.3211 170.414 475.831
457 0 59.0985 14.772 873 97.7698 170.432 473.912
458 0 63.125 15.3505 969 96.3375 169.42 471.906
459 0 62.0185 15.6244 969 97.4747 167.583 472.045
460 0 65.0735 15.2136 990 98.7051 166.132 474.781
461 0 67.1221 14.9876 1006 100.084 163.703 468.242
462 0 68.071 15.3957 1048 100.895 161.028 464.727
463 0 72.2814 18.0544 1305 93.692 157.872 465.73
464 1 34.0194 10.0531 342 104.161 154.287 484.444
465 0 39.0324 12.0669 471 102.669 152.081 481.038
466 0 38.0036 11.2884 429 104.562 150.986 482.31
467 0 41.1001 12.5304 515 103.105 148.87 477.924
468 0 42.1497 13.2148 557 103.754 147.318 476.522
469 0 45.1925 13.8076 624 101.231 147.165 473.929
470 0 45.1045 13.2138 596 99.2366 146.178 473.284
471 0 47.0345 14.2023 668 97.0344 145.907 472.168
472 0 49.086 14.607 717 95.6974 147.572 470.385
473 0 50.0557 14.2242 712 96.6517 149.419 468.983
474 0 53.1571 14.7675 785 95.3248 151.743 466.692
475 0 53.0923 13.7685 731 97.3215 152.691 463.034
476 0 55.1521 14.3603 792 96.3763 154.77 463.918
477 0 57.1281 14.7913 845 96.4107 157.238 462.725
478 0 61.2542 14.8235 908 93.9251 159.423 463.23
479 0 62.1282 14.1964 882 96.0612 160.905 461.552
480 0 63.1237 14.5587 919 97.2764 162.533 460.331
481 0 66.1717 13.4801 892 98.5841 163.984 461.058
482 0 72.1399 15.8719 1145 92.855 166.499 459.893
483 1 35.1496 13.0585 459 100.449 167.763 475.647
484 0 37.1668 14.0179 521 95.1612 168.395 476.942
485 0 39.1946 12.6038 494 100.02 168.923 478.095
486 0 38.0465 13.3521 508 98.8661 169.953 478.002
487 0 39.0689 13.0283 509 99.7957 171.391 478.02
488 0 43.1332 15.371 663 93.1463 171.247 477.998
489 0 43.1943 14.4927 626 97.1086 171.834 480.024
490 0 44.304 13.7685 610 98.523 171.91 480.128
491 0 46.2293 14.9256 690 95.8232 171.884 478.504
492 0 46.5529 13.1248 611 101.061 170.763 480.676
493 0 48.4272 15.0122 727 97.238 169.486 478.594
494 0 50.3793 14.3313 722 97.8435 167.323 477.589
495 0 53.3826 14.4429 771 98.0143 164.349 474.917
496 0 54.2773 14.9786 813 96.54 161.959 474.957
497 0 56.2778 15.6367 880 96.4102 160.128 472.405
498 0 58.3673 15.9164 929 96.5963 156.706 470.723
499 0 61.5967 14.9683 922 97.3742 153.993 470.152
500 0 61.3577 16.6564 1022 93.1468 152.053 468.375
501 0 65.5556 16.4441 1078 94.0445 151.029 464.182
502 0 67.3131 15.8662 1068 96.1489 149.215 461.24
503 0 70.5544 16.4554 1161 94.4823 149.783 457.889
504 1 37.2371 12.8098 477 98.2662 149.535 472.564
505 0 37.4449 11.0829 415 101.643 151.518 469.489
506 0 42.5163 14.1358 601 95.5857 153.443 467.384
507 0 41.7299 12.6288 527 101.404 154.509 465.159
508 0 44.6166 13.9634 623 96.4302 155.302 463.708
509 0 44.4808 12.7246 566 99.3958 157.714 466.046
510 0 48.5545 15.5701 756 93.7262 159.241 463.303
511 0 48.6052 14.7104 715 96.1161 161.497 463.183
512 0 51.4988 15.4955 798 94.2669 163.426 462.457
513 0 52.1775 14.6998 767 94.7366 165.1 467.145
514 0 54.1979 13.8382 750 96.5213 165.184 466.508
515 0 56.2613 15.0903 849 93.4134 167.547 464.707
516 0 59.2071 14.5253 860 93.3814 169.203 462.627
517 0 61.2061 15.0312 920 91.2739 169.96 465.998
518 0 61.3884 15.1983 933 91.7481 171.598 465.951
519 0 65.3294 15.4142 1007 88.9424 171.639 465.756
520 0 66.3429 15.8269 1050 88.4162 173.312 465.427
521 0 68.5629 14.9498 1025 91.3532 173.372 464.282
522 0 68.5401 14.8672 1019 91.4799 173.28 456.602
523 0 71.7524 15.5256 1114 88.8779 172.868 457.23
524 0 73.4335 13.931 1023 93.5415 172.077 457.688
525 0 76.698 15.9457 1223 91.1365 171.795 457.998
526 0 78.483 14.9077 1170 92.6581 170.318 461.079
527 1 39.5311 12.4459 492 95.6606 169.945 478.691
528 0 43.8207 12.3458 541 95.2237 167.684 477.763
529 0 43.3425 12.482 541 94.0591 165.037 473.623
530 0 43.0966 11.9731 516 95.5988 159.874 473.291
531 0 43.1091 11.4593 494 97.8178 157.306 473.496
532 0 49.4116 13.4584 665 91.806 154.665 469.296
533 0 50.3583 15.2507 768 87.6432 153.539 467.299
534 0 53.3618 15.3481 819 86.177 150.979 466.527
535 0 54.1793 14.3228 776 87.5387 150.677 465.448
536 0 54.2777 14.4074 782 87.4348 149.696 465.208
537 0 58.4334 14.4438 844 85.9704 150.174 465.025
538 0 59.5079 14.8384 883 84.4304 151.571 461.067
539 0 61.3696 14.3556 881 85.7128 152.098 460.461
540 0 64.3077 16.4988 1061 82.3261 153.847 458.186
541 0 67.5753 16.5297 1117 82.0197 155.185 457.016
542 0 69.3044 15.3814 1066 84.5206 157.169 454.841
543 0 69.4072 17.0011 1180 86.0737 159.751 455.745
544 0 72.3867 14.6712 1062 90.629 160.651 453.156
545 0 74.4503 15.2182 1133 87.6549 162.322 452.682
546 0 75.4127 15.4881 1168 87.3116 164.02 451.92
547 0 78.2916 15.123 1184 88.5042 165.693 451.376
548 0 81.3567 14.8974 1212 89.3952 167.086 442.866
549 0 86.5013 16.4391 1422 86.2335 168.006 444.486
550 0 86.7181 14.599 1266 90.6232 169.239 445.642
551 0 89.7839 16.4617 1478 86.9499 170.94 443.053
552 1 50.5993 11.265 570 91.4684 171.521 467.751
553 0 49.4531 11.9103 589 92.0357 172.749 469.178
554 0 50.5279 11.459 579 95.0967 172.655 467.005
555 0 54.3998 13.1986 718 92.0864 173.404 468.87
556 0 56.5331 14.2925 808 90.1683 173.839 468.391
557 0 55.2007 14.239 786 89.1196 174.351 465.734
558 0 56.1602 11.7877 662 93.3595 173.792 466.489
559 0 60.2001 15.1993 915 85.4929 171.83 466.58
560 0 60.1513 14.0978 848 87.4646 170.844 465.443
561 0 65.2707 14.9991 979 84.2482 168.846 466.313
562 0 66.2693 15.2559 1011 84.9782 166.03 463.288
563 0 69.4428 14.9043 1035 86.7797 162.821 461.835
564 0 70.2317 14.9363 1049 87.184 160.058 459.143
565 0 73.1868 14.3468 1050 89.0819 157.748 456.8
566 0 77.2042 15.051 1162 88.9768 154.911 455.6
567 0 78.1573 14.3045 1118 90.8909 153.798 454.844
568 1 44.1043 11.3821 502 91.1434 151.827 472.436
569 0 45.0171 11.64 524 92.7844 151.45 470.124
570 0 49.3265 14.2317 702 86.4088 150.343 467.769
571 0 48.2618 12.5151 604 86.7136 149.647 459.677
572 0 52.1965 13.7365 717 81.2371 149.644 458.55
573 0 55.127 15.0561 830 79.8506 151.681 465.594
574 0 56.2378 14.5809 820 84.4549 153.785 463.651
575 0 58.1204 13.5236 786 86.6628 154.775 460.971
576 0 60.1005 13.2611 797 87.0213 157.374 460.609
577 0 63.0425 15.2437 961 82.7242 159.813 458.61
578 0 65.1309 13.7109 893 84.0672 160.372 449.39
579 0 67.1136 13.8124 927 84.0378 162.443 451.371
580 0 69.3761 13.8809 963 83.999 163.084 452.665
581 0 70.3273 13.3234 937 86.0128 165.803 454.344
582 0 75.1809 15.0038 1128 81.664 166.558 454.859
583 1 38.0472 9.88246 376 85.609 167.136 473.702
584 0 41.0521 10.0604 413 84.8184 167.927 474.029
585 0 40.0349 9.31687 373 87.8633 169.654 474.563
586 0 43.0885 11.4184 492 85.7175 171.13 476.835
587 0 44.1115 11.3349 500 87.132 170.382 474.838
588 0 45.1706 12.9509 585 86.9915 171.46 473.621
589 0 47.102 14.9887 706 81.3541 172.232 474.347
590 0 45.2211 13.9537 631 83.9382 174.615 477.762
591 0 47.2898 12.5397 593 84.656 174.358 475.917
592 0 51.2515 15.141 776 78.7526 174.023 479.478
593 0 49.1525 13.3055 654 83.8043 172.803 479.959
594 0 52.2959 13.5575 709 82.7221 171.415 478.756
595 0 53.2313 14.1646 754 81.1194 169.102 475.565
596 0 55.1288 13.405 739 81.6265 165.931 472.524
597 0 52.3242 13.0915 685 84.6803 163.447 468.479
598 0 57.3448 12.9044 740 82.2595 159.57 470.304
599 0 59.4167 12.6059 749 83.0748 157.431 469.557
600 0 61.2926 13.7048 840 80.9667 153.836 466.71
601 0 62.2671 12.077 752 83.6051 151.69 464.076
602 0 66.27 13.8222 916 80.3133 150.679 461.769
603 0 69.2987 13.1604 912 82.0625 149.64 458.974
604 0 71.4658 14.1746 1013 83.3317 148.988 456.659
605 0 75.538 15.6875 1185 79.9181 148.577 450.381
606 1 40.2147 10.4937 422 83.6327 149.763 463.808
607 0 41.1058 10.0229 412 84.8277 151.903 463.93
608 0 41.1288 10.2605 422 85.2322 153.185 461.507
609 0 45.3092 12.3595 560 82.2179 155.346 460.766
610 0 48.5294 12.6933 616 82.164 157.909 459.133
611 0 50.1623 14.1939 712 84.802 160.972 461.917
612 0 51.3246 14.0284 720 84.4194 162.919 463.301
613 0 54.2352 15.0271 815 83.7153 164.694 463.771
614 0 58.1895 14.6934 855 82.3871 166.899 465.552
615 0 57.1588 13.5062 772 87.0972 167.237 464.319
616 0 59.173 15.0238 889 85.3555 169.215 465.147
617 0 59.145 12.6807 750 84.7707 169.605 466.724
618 0 62.1046 13.1552 817 85.6671 172.371 466.241
619 0 64.2755 14.2823 918 83.2876 172.88 466.235
620 0 63.4016 12.3814 785 86.9452 173.906 467.088
621 0 66.1897 13.8088 914 85.0066 174.747 468.476
622 0 70.3412 15.0125 1056 82.8788 174.405 465.852
623 0 68.2346 13.8346 944 87.2691 173.988 467.889
624 0 72.3263 12.6233 913 88.0526 174.234 470.197
625 0 77.2076 14.6359 1130 84.9124 173.127 468.663
626 0 77.1609 15.0594 1162 86.2504 172.946 467.179
627 0 81.1615 14.9209 1211 84.9554 171.585 466.168
628 0 83.2361 14.609 1216 84.8273 168.193 467.919
629 1 47.0584 11.9214 561 87.2549 166.135 483.517
630 0 48.0292 12.9088 620 86.6177 163.25 482.484
631 0 53.275 14.2281 758 81.9103 160.652 480.847
632 0 51.1029 13.1891 674 79.9184 157.068 473.592
633 0 51.0805 12.6467 646 85.435 151.45 470.686
634 0 51.0683 12.4539 636 87.1226 149.841 466.481
635 0 56.1731 15.8439 890 81.4247 148.912 463.178
636 0 57.1092 13.3078 760 85.7105 147.649 462.391
637 0 59.1376 15.1511 896 81.6362 148.038 462.719
638 0 60.1212 13.3896 805 85.2062 148.503 457.398
639 0 64.2215 13.6403 876 84.0103 149.204 458.672
640 0 66.1428 13.9244 921 84.0695 149.756 460.403
641 0 68.0591 14.6343 996 84.4438 150.799 456.891
642 0 70.1144 14.6617 1028 83.823 152.423 455.986
643 0 73.1679 14.4189 1055 85.3033 155.048 453.011
644 0 75.1475 14.3318 1077 85.8728 157.477 449.209
645 0 80.1705 15.0055 1203 83.1031 161.123 453.81
646 1 45.0531 11.4975 518 85.6873 162.187 471.535
647 0 46.0538 12.7242 586 86.7321 162.36 467.826
648 0 46.0377 12.5984 580 87.2328 163.769 466.817
649 0 50.358 12.5303 631 85.168 167.022 469.803
650 0 49.0341 11.2167 550 88.6255 167.731 468.809
651 0 51.0672 12.8458 656 86.5884 168.416 468.253
652 0 55.0867 12.1808 671 85.4903 170.303 471.086
653 0 54.2037 14.3164 776 84.3621 171.262 468.925
654 0 57.2608 13.3075 762 89.3215 172.512 470.453
655 0 58.3214 13.8543 808 88.4072 172.936 469.486
656 0 60.3816 13.9612 843 88.0973 172.868 469.345
657 0 63.3495 14.9962 950 85.5316 173.066 471.306
658 0 64.4402 14.8975 960 85.4344 172.822 471.082
659 0 62.304 14.8305 924 88.4134 171.554 469.797
660 0 66.2727 14.5611 965 87.4663 171.289 469.543
661 0 69.3294 15.1739 1052 86.8089 169.487 468.61
662 0 72.1966 14.6683 1059 85.2285 166.258 467.717
663 0 75.2465 15.8413 1192 84.0856 163.677 467.36
664 0 78.3953 15.7535 1235 84.783 161.419 462.074
665 1 40.1799 10.7765 433 89.291 157.43 482.079
666 0 42.3402 11.998 508 91.8346 156.028 477.258
667 0 44.1023 11.4733 506 91.0099 152.427 477.648
668 0 45.0879 12.1097 546 91.4139 150.051 475.562
669 0 46.171 11.0242 509 93.8507 148.866 474.806
670 0 50.1875 12.254 615 91.2797 147.587 470.379
671 0 50.0967 12.8751 645 87.8837 148.014 467.803
672 0 53.4384 14.1846 758 86.6807 149.943 463.71
673 0 56.2971 16.6083 935 82.0642 151.983 463.886
674 0 56.1703 15.3284 861 83.8699 151.714 459.826
675 0 60.0643 14.7176 884 83.3066 152.994 462.911
676 0 60.1401 14.3831 865 85.9191 155.673 459.775
677 0 64.1087 18.2658 1171 76.9804 156.888 455.365
678 0 68.0797 14.2774 972 86.3796 161.088 456.811
679 0 66.4821 15.0116 998 88.2124 162.952 451.689
680 0 71.2779 16.2322 1157 85.8254 164.907 450.424
681 0 73.3718 15.1421 1111 87.6688 166.381 450.662
682 0 76.3173 18.0955 1381 82.3852 167.985 451.097
683 0 78.4311 16.8173 1319 83.486 169.256 447.763
684 1 43.2958 10.5553 457 87.0525 168.554 469.23
685 0 41.2734 10.4668 432 87.912 169.322 466.044
686 0 43.1154 10.901 470 86.7043 171.364 468.732
687 0 45.1823 12.1508 549 84.9199 172.63 471.148
688 0 48.3355 13.4684 651 82.3057 172.754 469.298
689 0 46.2446 12.8231 593 82.6779 173.31 472.833
690 0 50.0653 13.8419 693 80.3203 174.864 473.078
691 0 51.0352 15.3032 781 78.1665 172.988 471.764
692 0 50.1105 13.6099 682 82.5645 176.01 475.93
693 0 55.1537 14.4687 798 80.4674 175.726 472.654
694 0 55.0693 14.7814 814 80.2629 174.511 474.759
695 0 55.2116 13.3849 739 83.4993 172.989 472.832
696 0 57.1371 14.1239 807 82.5824 171.09 468.556
697 0 59.2502 15.2067 901 80.3008 168.153 468.158
698 0 60.0916 13.4461 808 83.349 165.668 470.324
699 0 64.2858 14.0778 905 82.9149 163.177 468.176
700 0 67.2997 14.4429 972 83.7047 160.252 464.128
701 0 68.3829 14.8868 1018 83.2348 156.451 460.026
702 0 68.5636 14.8621 1019 85.0108 155.087 457.044
703 0 73.3607 15.4033 1130 82.6602 154.092 458.596
704 0 75.4632 16.6174 1254 79.9769 152.199 454.263
705 0 77.7057 14.2847 1110 84.4748 151.955 454.285
706 0 77.419 13.1492 1018 83.6788 152.188 449.377
707 1 43.2744 8.06482 349 84.9542 154.516 466.023
708 0 43.3696 10.6757 463 81.162 156.216 464.844
709 0 49.113 13.1126 644 82.4317 158.194 463.745
710 0 46.0284 11.9274 549 88.8179 160.111 462.27
711 0 50.4015 12.6782 639 89.3427 161.189 455.623
712 0 53.0247 13.5032 716 86.9022 165.809 461.961
713 0 55.0575 14.6211 805 84.7627 166.899 458.643
714 0 56.0211 12.9415 725 87.9793 168.819 459.412
715 0 57.034 14.1845 809 85.3894 170.48 460.326
716 0 61.1129 15.1032 923 82.9632 172.319 457.931
717 0 62.1114 12.9284 803 87.7372 172.361 459.125
718 0 64.08 13.9357 893 85.7514 174.439 461.335
719 0 64.0896 13.4967 865 88.4601 175.274 460.482
720 0 67.1204 13.9302 935 88.369 176.227 460.968
721 0 69.2 14.7399 1020 88.5275 176.698 460.437
722 0 70.0876 14.2964 1002 90.2415 177.416 461.227
723 0 73.2333 14.7474 1080 88.5639 176.704 459.826
724 1 38.0377 10.5422 401 90.7232 177.411 480.613
725 0 38.1321 11.5651 441 90.8617 176.639 480.045
726 0 40.0913 11.1745 448 90.6183 175.908 481.219
727 0 40.091 11.0748 444 89.6014 173.088 480.417
728 0 41.1024 12.408 510 87.8725 171.625 477.792
729 0 43.0529 13.5879 585 86.1983 170.032 478.675
730 0 43.05 12.7758 550 87.2491 169.505 480.653
731 0 46.4232 12.8169 595 87.321 168.168 476.521
732 0 47.227 13.8692 655 88.1405 165.267 475.62
733 0 49.2024 16.7268 823 86.6258 162.44 474.032
734 0 50.2277 16.1266 810 88.5272 158.679 473.379
735 0 52.2697 13.8704 725 92.8455 156.873 473.234
736 0 54.2376 13.828 750 92.6987 154.969 470.428
737 0 56.3019 16.678 939 85.8914 153.435 467.181
738 0 56.1689 14.3496 806 92.0397 152.301 461.186
739 0 60.14 16.8773 1015 86.8394 152.965 460.263
740 0 63.1984 16.5669 1047 87.6141 152.534 458.414
741 0 62.2002 15.4179 959 92.7477 154.026 459.038
742 0 65.471 15.0754 987 93.4995 155.415 454.323
743 0 67.2765 15.4586 1040 91.1798 156.909 455.956
744 0 70.1362 15.8406 1111 91.5095 158.754 452.348
745 0 74.334 15.6456 1163 91.3835 161.236 449.597
746 1 38.2268 10.7516 411 97.7056 163.934 467.345
747 0 41.0648 11.2018 460 92.2435 164.502 468.763
748 0 41.1433 10.3784 427 95.2084 166.326 466.766
749 0 45.1112 14.7857 667 86.5427 167.646 467.003
750 0 45.0788 13.3766 603 90.0862 169.277 467.149
751 0 46.3436 12.7094 589 91.1409 171.74 464.98
752 0 48.2064 15.0188 724 88.8384 173.157 464.96
753 0 50.0622 14.9814 750 91.5613 172.653 464.825
754 0 51.0668 14.3342 732 90.3743 173.5 468.459
755 0 53.2515 14.2156 757 90.6803 174.148 468.786
756 0 53.0537 13.0811 694 92.4914 174.686 469.213
757 0 57.0457 14.8653 848 88.7441 175.333 468.647
758 0 59.1134 15.3772 909 86.7184 175.255 467.534
759 0 61.0774 14.8991 910 87.2011 174.642 467.242
760 0 61.0867 14.4385 882 89.1156 174.119 468.338
761 0 65.0728 15.3981 1002 85.7774 173.908 468.42
762 0 65.0697 16.3517 1064 86.0987 172.405 466.985
763 0 69.159 14.8787 1029 87.3052 170.081 465.942
764 0 70.0883 15.5233 1088 86.955 168.642 464.914
765 0 71.144 15.1243 1076 89.1626 166.179 465.419
766 0 74.0883 14.6177 1083 88.9012 164.274 464.645
767 0 76.1636 14.784 1126 88.3819 161.433 462.702
768 1 40.0538 11.5594 463 88.1015 158.266 476.909
769 0 43.2186 11.1526 482 86.6598 156.421 478.461
770 0 44.0305 11.2195 494 88.7935 154.374 471.401
771 0 45.3671 13.3136 604 89.9636 153.632 472.856
772 0 47.0825 14.6764 691 86.7033 152.52 470.467
773 0 48.1288 14.4197 694 87.1686 152.911 467.357
774 0 50.2858 15.4517 777 84.5302 153.804 466.631
775 0 51.1893 14.6906 752 88.9176 155.605 464.41
776 0 53.1098 14.31 760 89.9316 156.918 464.932
777 0 54.1446 14.6829 795 89.6377 157.526 461.756
778 0 57.3584 14.9586 858 88.4545 159.045 457.501
779 0 60.2421 16.0519 967 85.94 162.024 457.114
780 0 61.361 14.8466 911 90.0637 163.979 458.18
781 0 61.133 14.4766 885 95.6768 165.4 456.84
782 0 67.2812 17.4938 1177 88.9244 167.387 456.977
783 0 68.4235 17.684 1210 89.7727 168.002 455.93
784 0 68.3742 15.9417 1090 95.8183 170.209 454.035
785 0 74.4806 17.038 1269 91.9898 170.897 452.262
786 0 75.697 18.2306 1380 89.6239 172.362 453.109
787 0 78.4797 14.7299 1156 91.0363 172.874 455.585
788 0 78.449 16.4183 1288 89.6856 172.658 451.292
789 0 82.4729 15.5809 1285 91.6545 173.306 450.658
790 1 44.319 11.0111 488 94.9365 173.473 474.01
791 0 48.4919 12.8475 623 92.183 174.141 473.743
792 0 46.4561 12.4634 579 94.1572 174.527 474.741
793 0 48.106 11.932 574 94.3868 174.279 477.355
794 0 51.3101 13.8959 713 92.7083 174.06 473.236
795 0 53.2321 13.3942 713 93.9257 173.164 473.945
796 0 52.4792 13.2433 695 95.9899 172.184 472.986
797 0 56.2935 14.4955 816 94.3836 170.349 466.496
798 0 58.1871 14.5221 845 95.7219 168.195 467.916
799 0 63.1635 15.1828 959 91.7091 164.971 466.633
800 0 62.2295 14.4465 899 94.267 161.861 468.267
801 0 66.3535 14.9502 992 93.4496 159.772 468.637
802 0 66.1792 14.4758 958 97.5052 157.378 464.86
803 0 69.3263 15.3044 1061 94.7615 155.608 462.845
804 0 72.3056 15.0611 1089 95.1671 153.637 459.936
805 0 75.394 14.1921 1070 97.7056 152.595 459.754
806 0 78.1135 15.3111 1196 96.1848 151.823 454.922
807 0 83.3233 16.0339 1336 95.6841 151.274 452.717
808 0 85.1911 15.3302 1306 97.6776 151.773 448.786
809 1 44.0966 11.7923 520 102.45 154.363 467.906
810 0 46.0862 9.9596 459 98.4423 156.05 470.828
811 0 50.1625 10.0673 505 98.6158 157.22 467.871
812 0 48.3063 13.1039 633 97.425 158.791 463.109
813 0 51.3626 12.7914 657 97.0487 161.604 464.292
814 0 52.52 13.6139 715 97.3231 162.852 463.291
815 0 56.4672 13.7602 777 95.5199 165.097 462.79
816 0 57.1185 14.4612 826 94.1162 166.488 460.034
817 0 56.1457 13.6253 765 97.4431 168.362 463.413
818 0 59.1794 15.0559 891 94.5847 169.77 461.47
819 0 61.1527 14.0304 858 96.9476 170.497 462.774
820 0 63.2845 13.5578 858 97.789 172.114 462.087
821 0 67.2079 14.775 993 95.0775 173.115 462.651
822 0 69.2069 15.3164 1060 94.3491 173.177 458.392
823 1 36.0803 12.4999 451 95.0488 175.102 479.246
824 0 33.0103 10.421 344 101.424 176.491 479.273
825 0 37.0485 13.2259 490 97.3469 176.078 479.271
826 0 38.1177 12.6451 482 98.3921 175.705 480.28
827 0 38.1101 10.837 413 102.203 174.429 479.748
828 0 41.0546 12.7391 523 98.2333 174.293 479.855
829 0 42.0542 14.8142 623 92.2986 172.263 482.52
830 0 45.108 13.3901 604 95.0116 171.581 480.594
831 0 46.154 13.78 636 94.5189 170.377 479.406
832 0 46.1899 13.0115 601 95.8752 166.484 477.216
833 0 49.0949 15.4599 759 91.5494 163.357 473.474
834 0 51.1617 14.3076 732 95.7377 160.339 473.348
835 0 56.1011 12.9766 728 98.2569 159.297 474.736
836 0 56.2787 17.3956 979 87.0531 157.902 473.971
837 0 58.2722 16.7661 977 91.0358 155.7 468.577
838 0 59.4263 16.7098 993 92.7069 152.986 464.724
839 0 60.2658 14.6849 885 97.6757 152.287 464.19
840 0 67.1631 17.3012 1162 89.7823 151.564 458.961
841 0 68.2816 17.0031 1161 92.3127 152.451 456.988
842 0 72.3822 17.6286 1276 89.2892 153.944 451.512
843 0 72.2744 16.9216 1223 92.4554 154.875 452.012
844 0 73.4325 15.47 1136 96.7993 156.46 448.889
845 0 78.4519 15.6657 1229 96.1237 158.696 449.746
846 0 80.3901 15.7233 1264 96.159 161.055 448.343
847 1 42.2709 12.6091 533 98.4709 163.891 466.752
848 0 44.2037 12.3972 548 99.4161 165.63 467.445
849 0 44.2418 12.9063 571 100.799 167.385 466.252
850 0 45.4207 13.6281 619 100.753 167.622 463.656
851 0 47.4247 13.959 662 98.3595 169.958 465.988
852 0 48.7908 14.0395 685 100.772 171.747 465.156
853 0 51.2905 15.8899 815 97.0896 172.661 464.579
854 0 51.3016 14.9118 765 99.4026 174.433 466.705
855 0 52.2279 13.9198 727 101.847 175.287 468.399
856 0 56.2128 14.8009 832 99.8377 175.513 468.04
857 0 57.2318 15.2712 874 98.3638 175.668 467.406
858 0 60.2544 16.281 981 97.4067 175.55 468.278
859 0 62.2172 16.8442 1048 97.75 175.631 468.498
860 0 62.2741 15.0785 939 103.322 175.921 466.865
861 0 64.2407 16.0023 1028 101.408 174.697 468.095
862 0 67.1017 15.9609 1071 102.137 173.808 466.773
863 0 67.2492 15.0336 1011 105.641 172.831 466.166
864 0 69.1788 15.7418 1089 105.05 171.239 466.757
865 0 70.275 15.8662 1115 106.97 169.556 465.269
866 0 72.4116 15.7986 1144 107.529 166.614 462.975
867 0 76.2615 15.3288 1169 105.999 165.433 464.023
868 0 78.611 15.9774 1256 106.127 161.743 457.505
869 0 82.3567 18.5534 1528 100.346 159.411 456.535
870 1 39.3197 12.9197 508 108.785 158.175 470.809
871 0 41.3025 10.4836 433 111.238 156.18 474.18
872 0 45.1534 12.6458 571 106.14 155.841 469.469
873 0 46.3157 12.4796 578 109.292 154.467 466.856
874 0 49.2144 14.386 708 104.744 153.777 464.401
875 0 50.3101 13.0391 656 107.245 153.817 462.617
876 0 54.3284 14.4307 784 102.064 156.068 461.925
877 0 56.3349 14.5735 821 103.555 157.224 458.782
878 0 58.2483 15.5026 903 102.107 158.657 458.001
879 0 60.2112 15.0969 909 103.145 161.325 455.52
880 0 60.2984 14.9755 903 104.413 164.187 456.795
881 0 63.168 15.7516 995 103.634 164.666 453.231
882 0 68.2561 15.4418 1054 102.376 167.255 454.648
883 0 70.2093 15.9238 1118 103.386 169.273 453.791
884 0 73.163 16.306 1193 100.447 169.894 453.645
885 0 75.3114 16.0268 1207 100.15 170.772 453.172
886 1 40.1364 12.4326 499 101.525 173.906 470.717
887 0 41.2062 12.304 507 105.024 175.201 471.759
888 0 41.1863 12.5042 515 104.305 176.497 472.351
889 0 43.1042 12.2726 529 104.582 176.979 472.921
890 0 43.1095 12.7582 550 104.289 177.625 472.436
891 0 47.1379 14.7015 693 100.983 177.183 474.27
892 0 47.0584 14.4714 681 102.285 177.101 472.562
893 0 47.1964 14.7257 695 103.183 175.347 467.311
894 0 48.0582 14.6697 705 100.522 174.264 471.66
895 0 50.0397 14.9881 750 99.5573 173.015 474.263
896 0 52.0972 14.5689 759 98.4638 172.708 473.283
897 0 54.2873 15.7496 855 95.9637 171.062 474.497
898 0 54.0811 15.8281 856 96.6776 169.581 472.426
899 0 58.1217 15.7256 914 95.4519 167.874 472.597
900 0 59.19 16.5231 978 97.4121 166.211 471.573
901 0 61.2612 15.6216 957 97.7628 162.97 466.42
902 0 62.146 15.3027 951 98.8644 159.785 465.882
903 0 65.2218 16.8195 1097 95.2106 157.931 465.82
904 0 65.2785 15.273 997 99.9819 156.351 462.163
905 0 69.2761 16.3404 1132 97.1051 154.444 458.306
906 0 71.2789 16.0917 1147 96.2049 154.36 457.124
907 0 72.5161 14.4382 1047 100.868 154.257 454.535
908 0 74.3305 15.4714 1150 98.5539 154.798 453.877
909 0 78.6428 16.3651 1287 95.0979 154.592 450.74
910 1 39.2629 12.3017 483 100.085 156.824 469.292
911 0 44.3225 12.6347 560 100.518 157.973 464.975
912 0 44.4092 13.0153 578 100.327 159.884 464.441
913 0 47.3361 15.316 725 96.4621 161.257 461.701
914 0 46.2165 12.9391 598 101.712 164.237 463.968
915 0 50.1864 15.4026 773 97.467 165.809 463.074
916 0 51.3342 15.3114 786 100.285 167.279 460.747
917 0 53.3933 15.4326 824 100.062 169.26 460.178
918 0 56.3353 15.4788 872 97.9358 170.468 460.526
919 0 57.5617 16.0523 924 96.1818 172.473 460.552
920 0 56.369 14.2632 804 101.109 173.767 463.286
921 0 61.4948 16.4241 1010 96.9594 173.482 463.208
922 0 63.4603 15.8682 1007 100.203 175.794 463.317
923 0 65.3587 16.1723 1057 99.7474 176.426 462.9
924 0 67.5187 16.3066 1101 100.324 176.212 464.026
925 0 70.5247 16.0936 1135 101.162 176.561 465.022
926 0 71.7511 16.5294 1186 102.761 176.782 465.148
927 0 73.5124 17.5889 1293 103.095 175.985 461.192
928 1 36.3028 13.3323 484 109.134 176.213 482.473
929 0 35.2604 12.2801 433 109.808 175.439 484.201
930 0 39.5457 13.0229 515 108.817 173.103 481.907
931 0 37.5003 13.1999 495 110.178 172.075 482.299
932 0 41.284 13.4435 555 108.589 169.923 480.773
933 0 42.2177 15.0174 634 109.823 166.418 477.601
934 0 44.2689 14.4797 641 109.002 164.872 478.816
935 0 44.1796 14.1468 625 112.685 162.234 477.662
936 0 47.1414 16.3126 769 109.921 159.031 473.991
937 0 48.243 16.2718 785 110.459 157.14 470.842
938 0 51.2381 17.1747 880 105.36 155.607 469.936
939 0 52.2457 16.2884 851 107.618 154.002 467.736
940 0 55.3782 16.306 903 106.62 153.136 465.66
941 0 58.361 15.8668 926 106.788 153.262 463.727
942 0 58.3582 16.9128 987 106.613 153.676 460.913
943 0 60.6232 16.6768 1011 107.647 155.682 455.076
944 0 62.5593 17.2956 1082 105.249 157.082 458.597
945 0 65.6503 17.0601 1120 106.267 158.801 457.057
946 0 66.5602 17.3677 1156 107.284 160.686 452.242
947 0 69.4706 17.619 1224 107.916 162.822 454.454
948 0 71.4115 18.1623 1297 106.397 164.683 453.214
949 0 73.4838 17.3372 1274 107.135 165.996 450.79
950 0 77.6906 17.5568 1364 106.348 167.268 450.408
951 0 78.5501 16.8937 1327 107.401 169.404 451.039
952 0 82.4072 18.7605 1546 102.555 170.677 451.873
953 0 84.5339 18.7262 1583 103.853 171.929 449.166
954 0 87.5154 17.7683 1555 105.978 172.982 447.809
955 0 89.6863 17.4497 1565 106.907 174.354 450.339
956 0 93.4269 18.089 1690 106.542 174.725 449.296
957 0 96.2141 18.9161 1820 104.578 175.043 449.052
958 0 99.3655 17.5715 1746 105.754 175.594 450.078
959 0 102.454 18.3106 1876 105.074 175.667 450.071
960 0 106.514 18.8801 2011 103.796 175.537 449.071
961 0 108.415 17.5713 1905 106.783 173.736 445.588
962 0 112.483 17.8071 2003 107.057 173.611 447.161
963 0 116.429 18.2172 2121 106.883 171.733 445.245
964 0 119.331 18.2266 2175 108.919 168.835 444.07
965 0 124.453 19.0112 2366 106.542 167.077 442.502
966 1 64.3046 15.8931 1022 113.919 165.549 470.176
967 0 64.374 15.7983 1017 118.395 162.44 466.874
968 0 65.202 16.1191 1051 121.201 160.528 464.696
969 0 68.5365 16.8086 1152 119.793 156.862 462.424
970 0 71.3416 17.6054 1256 118.482 154.39 461.776
971 0 73.4503 17.7671 1305 118.919 153.433 457.087
972 0 76.5322 18.5804 1422 117.854 152.165 455.411
973 0 82.5681 20.7102 1710 110.887 151.882 451.906
974 0 81.4724 18.092 1474 119.491 152.371 449.755
975 0 87.3131 19.1724 1674 115.609 153.171 447.474
976 0 90.4335 19.2738 1743 112.801 154.91 446.814
977 0 93.4196 18.9789 1773 113.457 155.016 444.506
978 0 97.4339 18.9154 1843 113.38 157.857 439.823
979 0 103.35 19.042 1968 113.026 159.186 438.69
980 0 107.48 18.6732 2007 112.799 161.566 438.464
981 0 111.416 18.606 2073 113.331 163.137 431.931
982 1 55.3387 14.8359 821 120.629 165.889 463.853
983 0 58.372 16.155 943 119.363 167.004 458.824
984 0 60.5206 17.1181 1036 119.309 169.017 460.868
985 0 60.5752 16.8221 1019 120.973 169.587 459.138
986 0 65.4662 18.2384 1194 116.799 171.884 460.058
987 0 66.9877 18.3019 1226 119.494 172.798 459.324
988 0 69.5069 18.3147 1273 119.192 173.378 460.053
989 0 73.4693 18.7017 1374 116.226 174.14 460.373
990 0 74.7207 17.6256 1317 119.469 174.851 458.7
991 0 78.5512 17.67 1388 118.014 174.405 457.568
992 0 79.576 17.1032 1361 119.621 175.215 460.363
993 0 82.5633 17.8409 1473 117.726 174.337 459.497
994 0 86.4408 18.9262 1636 115.721 174.216 456.897
995 0 88.6422 18.7608 1663 117.001 171.684 452.023
996 0 91.6174 18.0533 1654 116.725 170.805 453.419
997 0 94.5626 17.1738 1624 118.335 168.542 452.733
998 0 99.6112 18.7228 1865 114.149 166.735 448.795
999 0 102.527 17.6929 1814 117.373 164.044 447.18
1000 0 106.542 18.6312 1985 115.219 161.205 442.909
1001 0 112.357 17.5067 1967 116.016 158.587 438.38
1002 0 115.68 18.9488 2192 113.572 154.302 435.673
1003 1 58.4413 13.6376 797 120.521 154.696 462.395
1004 0 61.2892 13.6892 839 118.74 153.784 461.014
1005 0 64.1904 14.1766 910 119.535 151.766 458.923
1006 0 65.3279 13.6542 892 124.322 151.758 456.252
1007 0 70.2216 15.7786 1108 118.753 152.818 452.841
1008 0 70.1786 12.9812 911 75.3535 153.988 457.117
1009 0 74.2286 14.2533 1058 122.319 154.65 449.171
1010 0 78.1578 14.6882 1148 119.33 156.052 446.909
1011 0 83.2451 15.2802 1272 116.998 158.505 446.572
1012 0 86.3215 14.2143 1227 121.038 161.073 443.909
1013 0 86.1767 13.7972 1189 121.355 162.689 444.715
1014 0 89.2753 13.296 1187 123.436 164.385 441.409
1015 0 95.2773 14.8619 1416 119.518 166.339 440.602
1016 0 100.327 15.2402 1529 119.205 168.085 437.948
1017 0 105.279 16.0336 1688 116.678 169.023 436.552
1018 1 64.3428 12.2624 789 108.134 171.399 461.636
1019 0 65.3371 13.1319 858 106.52 172.296 459.615
1020 0 68.2162 11.2437 767 110.347 172.877 458.961
1021 0 70.4745 12.6429 891 108.658 174.155 457.529
1022 0 73.4184 12.7352 935 106.78 175.472 460.413
1023 0 76.2961 14.4044 1099 101.096 174.541 458.064
1024 0 78.3455 12.4321 974 103.65 175.153 457.986
1025 0 82.3837 14.0804 1160 100.748 174.715 456.042
1026 0 84.3318 14.0516 1185 99.6414 174.127 457.149
1027 0 86.3046 14.8544 1282 99.0023 173.736 454.085
1028 0 90.2762 12.3621 1116 103.72 172.763 455.012
1029 0 94.3701 14.2842 1348 100.787 170.866 452.036
1030 1 52.2363 9.76333 510 93.8255 170.069 476.604
1031 0 54.2551 8.57063 465 94.5763 168.133 476.316
1032 0 52.0703 9.31432 485 96.4021 166.192 471.668
1033 0 56.2358 11.5407 649 91.4114 162.324 472.607
1034 0 55.2236 9.95952 550 94.6564 160.533 472.256
1035 0 59.3327 11.4608 680 92.225 158.526 470.109
1036 0 62.2727 11.2891 703 92.1764 155.851 465.605
1037 0 62.3091 10.6084 661 94.7474 154.218 465.233
1038 0 65.2808 10.3399 675 93.9052 153.341 464.244
1039 0 68.269 10.7369 733 93.5935 153.989 460.411
1040 0 71.2421 10.8503 773 92.9897 154.135 457.389
1041 0 74.2113 11.346 842 91.9311 155.011 454.567
1042 0 78.1509 12.2327 956 90.7354 156.407 451.544
1043 0 80.1691 10.7897 865 92.5399 157.042 451.154
1044 0 85.2799 12.2186 1042 89.1593 158.749 445
1045 1 35.0815 9.32115 327 85.2844 160.08 469.547
1046 0 30.0429 10.7846 324 83.4074 161.735 472.349
1047 0 27.0762 8.16213 221 88.7919 163.647 470.778
1048 0 30.1184 8.26736 249 86.5663 166.361 475.361
1049 0 31.2024 8.14041 254 87.9646 168.157 475.031
1050 1 106.575 13.6711 1457 93.9739 169.184 430.767
1051 0 109.279 12.555 1372 96.2427 171.201 436.537
1052 0 113.444 13.6014 1543 95.4038 172.035 431.906
1053 0 117.458 14.022 1647 94.4748 172.48 429.783
1054 0 123.615 14.6746 1814 92.726 174.25 430.183
1055 1 67.605 9.76259 660 87.3121 175.967 468.118
1056 0 68.6137 10.5081 721 89.2816 175.336 463.157
1057 0 70.5558 10.6866 754 91.5385 175.684 460.93
1058 0 72.6025 12.8921 936 89.8675 176.312 456.683
1059 0 76.4171 12.6542 967 87.5863 175.568 463.844
1060 0 77.5122 12.8496 996 87.5884 174.682 466.25
1061 0 79.3043 12.8871 1022 89.3464 173.175 460.813
1062 0 82.6012 12.409 1025 90.4888 172.66 461.824
1063 0 84.4649 13.2836 1122 89.7549 170.65 460.136
1064 0 87.3834 13.4808 1178 90.3048 168.031 458.478
1065 1 47.7866 11.6978 559 88.6619 167.818 475.345
1066 0 48.5449 10.6087 515 90.9612 164.254 476.794
1067 0 50.3701 13.0236 656 88.9299 161.438 475.596
1068 0 52.6315 12.255 645 92.4078 158.468 469.122
1069 0 56.8544 14.2645 811 88.0999 157.145 468.249
1070 0 56.7027 13.3503 757 90.9577 154.462 472.734
1071 0 55.5146 12.3751 687 96.1936 154.476 468.624
1072 0 57.333 14.0582 806 92.5906 154.328 468.774
1073 0 58.3438 13.0091 759 96.8735 154.631 464.49
1074 0 60.57 14.4131 873 93.0424 155.115 463.062
1075 0 62.5452 12.423 777 99.148 156.135 461.64
1076 0 64.5583 12.206 788 99.0799 157.972 458.695
1077 0 66.7146 13.85 924 95.3626 159.381 454.518
1078 0 69.7486 13.8784 968 93.9081 162.183 451.747
1079 0 70.3685 12.5056 880 97.6591 164.893 455.735
1080 0 74.7105 13.9204 1040 95.2365 166.672 451.91
1081 0 76.7606 13.718 1053 95.792 166.581 451.089
1082 0 77.676 13.1572 1022 96.3816 167.872 449.851
1083 0 79.7997 13.3083 1062 98.0989 169.605 449.773
1084 1 44.7008 11.879 531 96.4878 171.382 468.787
1085 0 43.7147 10.7744 471 96.9894 172.554 468.605
1086 0 47.6199 12.0748 575 96.1148 173.32 466.847
1087 0 48.6352 11.5965 564 96.7092 173.812 469.356
1088 0 50.6876 11.6399 590 95.7661 175.022 470.985
1089 0 53.666 13.5654 728 91.419 175.86 473.191
1090 0 54.5241 14.6174 797 90.4404 175.077 470.928
1091 0 56.495 13.9304 787 95.5235 175.133 475.173
1092 0 58.2278 15.3878 896 95.5938 174.138 473.708
1093 0 57.4547 14.4288 829 99.62 173.686 470.908
1094 0 59.3671 14.7388 875 99.6971 171.416 470.099
1095 0 61.3403 14.2484 874 99.881 170.293 468.547
1096 0 61.4799 14.2974 879 99.9113 168.073 469.429
1097 0 63.3292 14.022 888 99.5338 166.422 468.357
1098 0 65.2829 15.1035 986 96.6917 163.826 467.16
1099 0 66.5325 13.903 925 96.5124 161.568 466.071
1100 0 70.5029 15.5313 1095 92.8621 157.875 463.527
1101 0 70.448 13.6555 962 97.1518 155.814 459.687
1102 0 72.3822 13.9123 1007 95.6276 154.331 457.883
1103 0 76.3295 15.1449 1156 94.3849 152.127 454.998
1104 0 78.3356 14.0932 1104 96.3859 152.051 450.303
1105 1 40.2045 11.1181 447 94.5996 151.888 469.28
1106 0 41.2681 11.4374 472 92.1568 151.451 465.248
1107 0 40.2895 10.2508 413 95.9831 154.174 464.094
1108 0 42.4046 10.5177 446 93.3677 153.74 462.466
1109 0 47.2631 12.8007 605 88.9752 155.709 461.759
1110 0 47.1929 13.5402 639 87.6432 157.811 460.324
1111 0 48.2045 13.7539 663 85.0015 160.623 457.489
1112 0 46.0417 11.8154 544 90.057 161.958 459.838
1113 0 48.0888 13.3711 643 86.4495 164.345 459.802
1114 0 54.2163 14.3499 778 82.5964 166.599 459.201
1115 0 55.3785 13.9043 770 83.8052 166.801 458.287
1116 0 58.4247 14.6342 855 83.1556 169.312 460.468
1117 0 61.5295 15.6023 960 81.526 171.947 460.061
1118 0 58.4391 14.3397 838 86.0788 173.004 458.616
1119 0 62.6845 15.4743 970 82.934 174.628 461.427
1120 0 63.3107 13.568 859 86.1676 175.498 462.95
1121 0 64.5079 17.1142 1104 84.4248 176.465 463.869
1122 0 65.7673 14.1408 930 89.7559 175.959 465.083
1123 0 67.6457 16.3647 1107 86.5312 176.204 468.406
1124 0 66.4742 17.4504 1160 85.3164 175.4 466.453
1125 0 66.323 14.7762 980 90.4827 173.982 467.128
1126 1 39.4332 12.8318 506 87.6877 172.458 481.907
1127 0 36.446 10.6733 389 94.3728 171.208 483.91
1128 0 38.3367 11.712 449 96.6503 168.927 484.677
1129 0 37.2935 11.8788 443 100.436 166.946 482.709
1130 0 39.3931 12.4895 492 96.4837 164.242 484.356
1131 0 39.2423 12.8943 506 94.2391 162.125 483.279
1132 0 37.156 12.4879 464 96.7371 159.461 482.625
1133 0 40.2102 11.7134 471 98.1359 158.159 481.667
