time division length width area intensity CMx CMy
0 0 37.383 14.6591 548 107.487 351.673 499.365
1 0 37.1803 14.7121 547 107.691 351.099 502.19
2 0 41.1098 14.4491 594 102.212 350.077 500.185
3 0 40.1258 15.8003 634 103.584 349.831 499.347
4 0 41.1356 14.0511 578 110.109 348.934 497.178
5 0 41.303 13.631 563 111.027 349.829 495.707
6 0 42.2085 14.7838 624 108.252 351.647 496.25
7 0 43.3341 15.1843 658 110.456 353.366 493.248
8 0 45.2698 13.4306 608 112.625 353.561 491.122
9 0 44.1692 14.4897 640 113.85 355.088 489.261
10 0 45.2728 16.0803 728 109.304 356.995 486.698
11 0 47.4499 14.5838 692 110.909 359.634 489.058
12 0 48.1938 14.9397 720 111.49 360.588 486.044
13 0 49.3406 15.6261 771 110.11 362.24 484.84
14 0 49.3511 14.6704 724 112.285 364.616 486.972
15 0 52.3143 15.426 807 109.597 366.392 485.696
16 0 51.0658 15.529 793 108.291 368.638 486.515
17 0 53.0724 14.81 786 109.462 370.615 484.059
18 0 55.1453 15.7765 870 107.072 372.683 483.661
19 0 56.105 16.7008 937 105.251 374.091 483.785
20 0 58.0814 16.2014 941 106.633 375.166 483.311
21 0 61.0643 17.2441 1053 102.578 375.774 484.73
22 0 63.1008 16.3389 1031 103.896 375.532 482.56
23 0 63.1149 14.5608 919 108.338 374.508 483.147
24 0 63.1636 14.8503 938 108.807 374.372 483.006
25 0 65.0311 15.3773 1000 106.167 372.629 483.17
26 0 70.0879 15.5519 1090 104.34 371.026 481.963
27 0 72.0974 18.3641 1324 99.3119 367.918 475.502
28 0 73.1525 16.0213 1172 105.849 366.009 476.578
29 0 77.1599 16.0057 1235 104.744 363.523 477.683
30 0 77.1464 15.9956 1234 143.342 361.515 477.786
31 0 83.1656 14.393 1197 110.317 359.065 470.911
32 0 83.2306 16.8568 1403 105.633 357.882 468.148
33 0 84.1502 16.0309 1349 107.05 356.961 462.706
34 0 89.1937 15.8868 1417 105.701 357.023 461.536
35 0 90.3455 15.485 1399 107.109 356.808 459.162
36 1 46.2324 10.6419 492 110.815 358.199 480.797
37 0 49.1827 11.3251 557 108.192 359.49 478.654
38 0 51.2089 15.0169 769 107.788 361.103 478.605
39 0 52.1733 14.9119 778 107.04 362.952 477.878
40 0 56.2005 14.0746 791 107.497 364.063 473.661
41 0 57.2479 14.8477 850 107.854 365.332 473.195
42 0 59.0777 16.0805 950 104.793 367.521 470.723
43 0 62.1468 17.5552 1091 101.214 369.482 471.478
44 0 63.1644 16.1167 1018 104.653 370.786 469.453
45 0 65.1953 15.7373 1026 105.898 372.307 466.528
46 0 68.1164 15.9433 1086 105.326 375.203 466.397
47 0 71.137 16.9673 1207 102.809 377.053 467.571
48 0 76.2639 18.1213 1382 100.452 378.63 465.232
49 0 76.2683 17.1893 1311 103.699 380.076 466.289
50 0 78.2321 16.8601 1319 104.75 381.182 465.701
51 0 81.3536 18.5241 1507 101.701 382.896 461.749
52 0 84.1626 16.979 1429 104.49 383.462 464.521
53 0 88.2133 16.9589 1496 105.023 383.848 466.189
54 0 90.3562 16.9662 1533 106.978 384.428 466.577
55 0 92.1339 17.4312 1606 106.1 384.666 463.463
56 0 96.162 17.4705 1680 105.224 383.446 463.093
57 0 99.1438 16.6122 1647 107.594 382.505 461.848
58 0 101.204 16.7188 1692 108.314 381.174 460.199
59 1 53.1135 12.2191 649 108.649 379.21 483.311
60 0 59.0674 11.326 669 109.223 377.404 483.894
61 0 60.1124 13.5746 816 104.669 374.054 481.227
62 0 61.1298 14.1011 862 106.368 372.024 476.448
63 0 63.1132 13.7689 869 104.197 367.944 476.174
64 0 67.2023 13.9281 936 101.302 367.864 474.149
65 0 70.2022 15.3841 1080 98.6639 365.999 472.269
66 0 73.1121 13.0758 956 103.519 365.301 468.992
67 0 75.3024 13.9836 1053 102.64 365.323 463.106
68 0 79.2172 16.3979 1299 97.3657 363.942 461.727
69 0 80.2711 13.8406 1111 103.213 364.644 458.041
70 0 83.2199 14.1432 1177 103.311 364.862 456.366
71 0 88.2602 14.5592 1285 102.114 366.821 456.287
72 0 89.1666 13.5252 1206 104.944 369.217 455.31
73 0 92.1451 15.3888 1418 101.953 370.416 453.311
74 0 95.1895 15.5059 1476 101.612 372.195 451.146
75 1 54.0232 10.1993 551 105.243 374.316 472.183
76 0 57.0975 12.6801 724 99.4144 376.912 469.377
77 0 58.0631 12.5553 729 99.2757 378.219 468.927
78 0 60.0495 11.9735 719 100.189 379.976 467.624
79 0 62.2346 13.3045 828 98.9336 381.6 467.384
80 0 64.1025 14.82 950 96.2937 384.134 464.791
81 0 66.1973 13.8374 916 97.7424 384.904 465.397
82 0 69.1672 13.1565 910 97.1648 386.875 466.776
83 0 71.0993 14.0367 998 95.5942 387.596 464.143
84 0 73.1569 13.7923 1009 94.9098 388.678 465.284
85 0 75.1884 13.7654 1035 95.2628 389.846 465.446
86 0 79.1729 13.5653 1074 95.2803 390.376 463.381
87 0 82.2248 14.7036 1209 90.5558 389.65 463.208
88 0 83.3421 12.9106 1076 94.3903 389.385 466.713
89 0 88.2184 15.643 1380 90.5058 388.883 461.761
90 1 47.1566 9.75474 460 95.6326 389.252 483.407
91 0 48.2684 10.0687 486 96.7963 388.193 481.874
92 0 51.1467 11.9656 612 94.3954 384.786 480.002
93 0 53.1916 12.3516 657 94.0959 384.096 481.134
94 0 56.0532 14.5754 817 89.4308 382.009 480.554
95 0 58.0821 13.5153 785 87.865 378.366 477.73
96 0 60.2675 15.3482 925 84.0368 375.168 476.867
97 0 60.1033 13.8096 830 87.9578 372.394 474.736
98 0 62.265 14.0368 874 87.3204 369.808 472.207
99 0 64.2311 12.6886 815 88.7252 367.517 469.794
100 0 66.2835 13.6987 908 87.8612 367.508 466.565
101 0 70.3198 14.8607 1045 85.4144 366.934 468.959
102 0 71.1978 14.2841 1017 86.7463 368.034 466.538
103 0 74.2008 13.0052 965 90.3275 368.393 463.796
104 0 75.4173 14.8109 1117 88.6893 370.343 461.251
105 0 78.3866 14.9133 1169 89.077 371.334 458.107
106 0 82.4092 14.0882 1161 89.3712 373.693 457.755
107 0 84.6174 13.9097 1177 89.1589 374.579 455.22
108 0 84.5871 13.7019 1159 91.7256 376.114 453.649
109 1 49.5985 12.5206 621 88.5636 379.725 474.142
110 0 49.5395 11.8693 588 84.7041 383.066 474.209
111 0 47.5129 9.32379 443 88.9142 385.598 473.093
112 0 50.4978 12.0599 609 86.2085 386.507 470.81
113 0 51.4312 11.6272 598 89.0686 388.634 468.105
114 0 54.5986 12.363 675 89.7289 389.816 468.911
115 0 55.746 13.3283 743 90.0781 390.276 468.062
116 0 54.7394 13.0436 714 143.188 391.402 468.398
117 0 55.0739 13.2004 727 97.6245 393.514 470.308
118 0 57.0633 12.7753 729 99.1481 394.066 471.483
119 0 59.0411 15.1251 893 94.7525 394.156 469.55
120 0 61.0939 13.7493 840 96.9643 395.498 471.555
121 0 63.1871 12.55 793 98.1917 396.494 473.816
122 0 64.1622 12.6087 809 98.9209 395.949 472.504
123 0 66.1359 14.1829 938 96.5949 394.322 469.606
124 0 68.1222 13.2703 904 97.4912 393.292 472.253
125 0 70.1964 13.4765 946 97.0603 392.151 469.289
126 0 73.1516 13.5199 989 96.4014 390.588 470.819
127 0 77.2431 14.668 1133 95.1774 388.206 467.241
128 0 78.2088 15.8038 1236 92.5744 385.745 466.374
129 0 81.1364 15.1473 1229 94.1383 382.563 464.349
130 0 81.1287 13.9162 1129 96.3419 379.479 464.958
131 0 88.2565 16.758 1479 90.4388 376.851 458.475
132 0 87.3469 13.4864 1178 97.7462 375.469 455.108
133 1 48.2386 10.7383 518 97.4691 372.048 476.363
134 0 51.1301 11.4414 585 96.4239 371.164 472.246
135 0 52.0479 10.9899 572 96.7622 371.565 473.308
136 0 52.1466 11.8512 618 96.7023 371.261 469.087
137 0 54.0981 11.9043 644 94.2966 371.522 467.848
138 0 57.0777 13.6831 781 89.1319 372.11 465.773
139 0 58.0662 11.3491 659 93.5372 374.734 467.197
140 0 59.0522 12.5482 741 91.2888 375.603 465.157
141 0 60.0785 13.4158 806 90.1501 376.7 463.182
142 0 61.1094 10.6367 650 93.6108 378.377 463.114
143 0 67.0755 14.1035 946 88.0444 381.932 461.724
144 0 68.1348 12.6367 861 92.6016 383.206 457.477
145 0 71.1025 14.0783 1001 89.8601 384.32 459.566
146 0 73.1147 14.3473 1049 88.6864 386.317 456.56
147 0 73.1089 15.4974 1133 86.8208 386.657 457.852
148 0 81.1185 16.2725 1320 84.1523 388.894 457.298
149 1 40.0185 10.2952 412 91.835 390.095 476.078
150 0 42.0442 10.4414 439 92.3212 391.581 475.403
151 0 43.0521 13.0772 563 88.2593 392.783 476.337
152 0 43.052 11.6139 500 89.138 393.048 475.628
153 0 46.0385 12.533 577 88.8752 393.428 476.742
154 0 45.0812 11.9118 537 90.8026 393.646 477.527
155 0 48.046 12.0718 580 86.6328 394.081 479.64
156 0 50.1015 14.1712 710 81.0845 396.199 479.935
157 0 49.0239 12.4837 612 85.8137 397.155 481.379
158 0 52.1115 13.5671 707 84.3154 395.132 479.057
159 0 53.0772 13.6217 723 85.5436 393.524 477.621
160 0 54.1149 15.0975 817 84.0049 391.647 478.2
161 0 55.1147 14.1705 781 85.5493 388.214 476.256
162 0 57.0781 13.8757 792 86.6692 385.824 475.89
163 0 60.0789 14.2646 857 85.6733 382.924 475.727
164 0 58.1301 14.3987 837 89.3847 380.748 471.231
165 0 61.0557 14.0527 858 90.2401 378.614 472.007
166 0 61.0911 13.5863 830 92.4145 377.241 469.716
167 0 65.0573 14.6333 952 90.0651 376.537 467.987
168 0 66.0584 13.5486 895 93.1732 375.627 463.384
169 0 68.0914 12.777 870 97.254 375.078 461.336
170 1 38.0382 10.8838 414 100 375.947 475.012
171 0 39.1192 10.0462 393 102.036 376.735 473.616
172 0 46.087 12.1509 560 93.5071 377.586 475.555
173 0 44.0642 12.4364 548 97.0055 379.184 474.359
174 0 45.218 12.0969 547 98.3675 381.015 471.863
175 0 47.1242 13.4114 632 95.4731 382.728 471.248
176 0 47.0721 12.364 582 96.579 385.131 470.787
177 0 47.0307 12.7789 601 98.0333 386.526 470.424
178 0 49.1468 14.711 723 90.7137 388.465 469.517
179 0 50.2565 13.9882 703 91.7752 391.085 471.191
180 0 51.1006 13.1114 670 94.3806 392.569 468.151
181 0 51.2477 12.5274 642 96.3614 394.43 468.07
182 0 55.2554 13.7362 759 93.6864 395.308 468.433
183 0 54.1905 12.7513 691 96.1621 396.237 471.256
184 0 57.1308 13.0577 746 95.6676 396.71 471.976
185 0 57.1899 12.3099 704 98.402 397.445 472.602
186 0 60.2868 15.1443 913 94.5674 398.864 473.352
187 0 60.2906 13.9325 840 98.075 399.052 470.969
188 0 63.2184 13.6986 866 99.5162 398.998 471.254
189 0 66.2606 14.2619 945 98.2063 398.428 473.077
190 0 67.2861 14.312 963 99.5389 397.061 470.898
191 0 69.3003 15.44 1070 99.571 395.591 469.214
192 0 72.3822 14.3267 1037 102.13 393.858 469.566
193 1 41.1652 11.3931 469 100.78 392.802 484.586
194 0 39.0742 10.6208 415 106.978 389.61 481.241
195 0 43.1911 11.9237 515 101.581 385.814 481.882
196 0 42.1884 10.8324 457 107.335 383.256 481.742
197 0 44.119 11.8996 525 106.417 381.434 479.549
198 0 46.264 12.6016 583 105.537 378.506 476.952
199 0 45.1648 12.4433 562 98.5036 376.461 471.879
200 0 47.3714 12.0115 569 100.789 376.71 477.796
201 0 49.1018 13.4007 658 98.7204 374.448 474.616
202 0 48.0769 11.4192 549 105.191 374.423 475.066
203 0 51.1749 13.4441 688 101.935 374.346 470.298
204 0 52.1357 13.1004 683 101.997 375.754 469.786
205 0 53.1863 13.4997 718 102.503 376.288 466.443
206 0 54.2052 13.9101 754 101.21 377.728 464.967
207 0 56.1717 14.3845 808 97.6906 379.204 467.238
208 0 58.1614 12.8264 746 103.18 381.452 463.575
209 0 58.2126 13.6053 792 100.905 382.799 462.563
210 0 62.3262 14.6166 911 98.7651 384.451 460.879
211 0 65.3002 15.712 1026 95.8782 386.216 461.811
212 0 68.2628 14.4442 986 99.0649 389.945 458.018
213 0 72.3204 15.3622 1111 96.0657 392.669 458.958
214 0 71.1809 15.1164 1076 96.9405 393.716 456.391
215 0 74.3876 15.231 1133 96.7158 396.093 457.236
216 1 39.0362 11.2203 438 99.3607 398.053 477.422
217 0 41.0282 11.6993 480 99.5062 399.135 475.173
218 0 41.0313 11.0404 453 98.7042 399.684 478.583
219 0 44.0291 11.447 504 97.3929 397.784 478.724
220 0 44.0727 10.0062 441 100.166 396.426 478.689
221 0 45.2176 10.1288 458 101.642 395.483 476.969
222 0 49.2279 12.2492 603 99.4793 395.37 474.813
223 0 49.2656 11.5091 567 101.155 393.899 477.123
224 0 52.2259 11.8907 621 98.4686 391.921 474.206
225 0 53.2109 13.4935 718 96.2006 390.245 472.719
226 0 57.0713 14.7184 840 94.7548 390.717 474.899
227 0 58.021 17.2007 998 90.7204 388.095 474.375
228 0 58.1463 17.112 995 93.4291 385.864 469.729
229 0 59.0451 14.1756 837 99.2151 383.664 469.952
230 0 59.0975 13.5539 801 100.145 381.387 468.918
231 0 62.0693 13.7105 851 99.4524 379.313 465.142
232 0 65.1807 13.9612 910 98.7066 377.824 467.297
233 0 65.1492 13.6916 892 100.081 376.712 462.888
234 0 68.0922 13.8048 940 99.8638 375.556 459.637
235 0 72.1393 14.8601 1072 98.0093 375.757 456.768
236 0 73.2642 14.086 1032 102.322 375.468 454.571
237 0 75.1578 15.4209 1159 101.613 377.04 452.361
238 0 77.1204 14.6135 1127 104.632 378.622 450.905
239 0 82.2542 14.9293 1228 103.912 378.732 448.666
240 0 83.1194 16.362 1360 103.032 381.953 446.746
241 0 85.2939 16.0035 1365 104.28 383.599 445.719
242 0 88.0919 15.2341 1342 101.332 383.616 447.634
243 0 90.1939 14.369 1296 103.522 385.446 447.937
244 0 93.1651 15.0807 1405 103.493 386.692 442.828
245 0 97.0755 16.173 1570 101.589 389.018 443.799
246 0 99.2063 15.503 1538 104.272 390.622 441.687
247 1 55.0469 13.3704 736 104.973 392.647 466.17
248 0 57.0914 12.5938 719 106.559 393.935 465.615
249 0 58.0307 12.7002 737 107.554 396.168 465.019
250 0 57.0977 13.0128 743 108.661 398.058 464.218
251 0 62.242 14.0259 873 102.802 398.259 465.885
252 0 66.1846 15.2452 1009 100.169 399.517 465.23
253 0 65.2828 13.7402 897 105.417 400.155 465.117
254 0 70.2205 14.839 1042 101.978 399.21 466.678
255 0 71.0892 15.8393 1126 102.322 399.62 465.048
256 0 73.0439 15.0184 1097 104.473 399.787 467.136
257 0 76.0954 15.8485 1206 103.387 398.501 466.219
258 0 77.0945 15.9544 1230 103.888 397.291 466.141
259 0 80.2284 15.0445 1207 107.349 394.821 464.889
260 0 82.1232 14.6365 1202 108.98 393.037 464.899
261 0 83.1579 15.3924 1280 109.25 389.98 462.484
262 0 86.1895 14.8858 1283 109.684 387.872 459.38
263 0 93.2114 16.3392 1523 106.471 384.56 446.022
264 0 96.1652 15.9309 1532 102.523 378.963 451.485
265 0 94.1651 14.6232 1377 107.508 377.272 451.61
266 0 100.191 18.0655 1810 100.1 376.364 449.421
267 1 53.0568 11.0071 584 107.788 374.307 471.2
268 0 56.0866 12.4094 696 107.388 374.297 465.595
269 0 58.1509 11.4873 668 108.087 374.385 465.855
270 0 60.1613 12.5828 757 105.493 373.684 461.008
271 0 63.1238 12.4992 789 103.636 375.834 462.635
272 0 64.2968 13.1266 844 106.302 377.376 457.405
273 0 67.1706 13.2796 892 106.352 377.783 455.332
274 0 71.1838 14.2589 1015 104.147 379.585 452.079
275 0 72.1252 14.6828 1059 103.754 381.668 454.261
276 0 75.1627 14.6349 1100 104.383 382.942 451.82
277 0 77.1613 14.2299 1098 106.698 384.526 450.645
278 0 80.1274 15.0386 1205 105.323 386.308 448.747
279 0 82.1482 14.9486 1228 106.127 387.621 448.067
280 0 81.1133 14.1654 1149 109.051 390.041 447.345
281 0 88.1055 14.8118 1305 105.962 390.956 447.765
282 1 50.0195 11.7954 590 105.168 391.647 468.712
283 0 50.0135 10.8171 541 107.024 394.634 469.327
284 0 50.2189 11.41 573 105.23 399.459 468.757
285 0 52.0754 12.2515 638 104.531 398.165 469.55
286 0 55.1187 14.0606 775 99.4465 398.414 471.867
287 0 57.1906 14.985 857 94.8821 400.68 472.096
288 0 57.1505 13.3507 763 99.7562 400.017 471.963
289 0 59.2097 13.3931 793 101.581 400.975 471.56
290 0 60.2649 13.2581 799 102.089 399.013 471.504
291 0 63.111 14.53 917 100.232 398.107 470.369
292 0 63.113 13.4679 850 103.751 396.879 470.739
293 0 67.1485 14.6988 987 100.163 394.38 470.692
294 0 69.2803 13.0196 902 103.941 392.081 469.192
295 0 70.2427 14.336 1007 103.212 389.374 466.805
296 0 73.279 13.3463 978 106.141 386.983 466.171
297 0 77.2196 16.6927 1289 99.2676 383.014 465.507
298 0 80.3486 16.1919 1301 101.427 380.801 462.169
299 0 78.1889 13.1093 1025 111.29 378.233 458.169
300 0 84.2593 15.1437 1276 106.279 376.966 455.65
301 1 44.0551 10.6004 467 111.154 375.223 474.786
302 0 48.1107 11.723 564 108.005 375.278 472.97
303 0 49.2257 12.1684 599 107.94 373.838 468.518
304 0 50.285 12.1905 613 107.522 374.718 468.209
305 0 52.1731 13.1677 687 106.25 376.124 466.662
306 0 52.1256 11.5298 601 101.997 378.581 459.534
307 0 58.0472 13.9197 808 104.193 380.048 464.506
308 0 57.1458 13.8943 794 105.938 379.407 464.094
309 0 58.1436 14.3954 837 104.201 382.023 461.358
310 0 62.3175 15.2285 949 101.719 383.876 461.302
311 0 62.0656 15.0969 937 102.104 385.695 462.504
312 0 63.0527 14.0993 889 104.722 386.879 461.048
313 0 66.0521 14.8519 981 101.216 388.249 461.735
314 0 68.1237 14.3709 979 101.846 391.332 462.445
315 0 68.2455 13.0412 890 107.326 391.518 459.164
316 0 70.2747 14.0591 988 103.002 393.924 456.421
317 0 72.2355 13.8713 1002 105.499 395.249 457.056
318 0 73.2282 13.9973 1025 105.084 396.401 458.756
319 0 76.2256 14.7982 1128 103.483 397.375 458.68
320 0 76.0893 13.4973 1027 104.618 399.055 459.88
321 0 81.1486 15.5517 1262 98.2916 398.563 459.541
322 0 83.1791 14.4027 1198 103.432 398.427 459.937
323 0 87.2694 14.4839 1264 102.337 397.929 459.403
324 1 47.1254 11.0556 521 105.367 395.856 480.582
325 0 50.1184 11.2334 563 105.208 394.753 479.242
326 0 51.0209 12.0539 615 104.917 393.345 476.267
327 0 52.0487 12.6228 657 105.046 391.152 478.058
328 0 55.1005 12.0144 662 106.136 389.074 476.079
329 0 55.4962 13.4424 746 103.499 389.391 472.623
330 0 57.0966 13.9763 798 103.025 386.327 471.472
331 0 57.0261 14.2742 814 103.299 383.464 470.743
332 0 62.0581 13.6485 847 102.627 381.213 469.035
333 0 63.1085 13.659 862 102.325 379.823 464.587
334 0 65.1232 14.3113 932 101.288 378.231 463.456
335 0 68.1284 16.0873 1096 96.6095 377.349 463.66
336 0 67.0899 13.3552 896 105.528 377.526 458.382
337 0 70.0662 13.9297 976 104.35 378.595 458.815
338 0 71.1131 15.4261 1097 103.263 379.273 454.273
339 0 76.0527 14.3716 1093 104.779 380.231 455.9
340 0 78.1089 15.5168 1212 102.509 381.837 452.673
341 0 78.1167 13.9151 1087 107.877 383.34 450.518
342 0 82.115 15.8193 1299 103.542 385.009 447.925
343 0 84.1563 13.5343 1139 107.279 386.698 447.687
344 1 43.036 11.1999 482 104.56 389.577 467.515
345 0 44.039 11.4898 506 99.9249 390.804 467.613
346 0 47.13 10.4604 493 98.6836 392.469 470.611
347 0 46.1383 10.8153 499 101.816 393.543 468.429
348 0 48.0738 11.9608 575 95.7391 394.897 469.233
349 0 49.1544 12.1047 595 96.1681 395.471 469.397
350 0 53.1392 14.7349 783 90.9055 397.272 469.386
351 0 53.1896 12.8785 685 95.1577 399.053 470.247
352 0 55.1381 14.3821 793 92.5271 399.584 468.426
353 0 54.1294 13.0244 705 96.373 401.587 469.325
354 0 59.1615 13.3364 789 94.9848 401.387 470.715
355 0 58.2877 14.2226 829 94.918 401.238 470.239
356 0 59.2336 13.1682 780 97.8064 401.795 471.463
357 0 60.1407 12.6703 762 100.182 401.108 472.06
358 0 64.1731 15.801 1014 94.7771 399.382 469.142
359 0 66.1448 15.4056 1019 95.8979 398.557 467.898
360 0 67.0878 14.4438 969 99.8627 397.082 467.531
361 0 70.1376 14.9135 1046 96.8384 394.649 467.992
362 0 71.2053 14.6759 1045 98.8612 391.29 464.249
363 0 75.1431 14.7452 1108 97.9143 387.721 463.446
364 0 76.211 14.696 1120 99.5268 384.79 462.422
365 0 79.1776 15.0548 1192 98.2081 381.709 460.571
366 0 80.1466 15.0973 1210 98.8074 379.669 457.345
367 1 57.8991 10.3456 599 98.3022 379.447 475.339
368 0 45.0334 10.4145 469 104.959 378.84 471.535
369 0 50.0436 11.8696 594 100.995 377.513 469.311
370 0 52.0203 12.5336 652 99.7684 377.515 467.834
371 0 51.0238 12.1512 620 101.577 378.174 466.313
372 0 54.0576 13.5411 732 96.9932 379.738 465.578
373 0 57.1407 13.0905 748 98.3128 381.11 463.781
374 0 61.133 14.7547 902 93.0776 381.718 462.965
375 0 61.1108 14.3346 876 95.2728 384.417 461.588
376 0 63.0737 13.9044 877 96.7104 387.048 460.145
377 0 65.1026 14.6845 956 95.3724 388.612 460.486
378 0 63.1529 14.837 937 97.0245 390.072 456.337
379 0 65.2031 14.2018 926 95.0076 391.55 457.84
380 0 68.2781 13.5329 924 96.2468 392.526 458.161
381 0 70.0849 12.7702 895 96.4615 393.925 458.763
382 0 72.1396 14.1393 1020 95.2843 395.21 459.157
383 0 74.1218 13.6802 1014 95.5641 396.207 457.512
384 0 77.0641 14.8059 1141 94.6021 397.005 456.606
385 0 79.2271 14.4016 1141 95.8028 398.31 455.453
386 1 41.0799 9.88319 406 99.867 400.429 475.98
387 0 45.2181 12.4287 562 95.2936 401.29 476.689
388 0 47.251 12.1056 572 95.7832 399.164 474.753
389 0 48.2412 13.3081 642 95.5016 399.36 475.069
390 0 48.1155 12.3661 595 88.4958 401.145 471.306
391 0 49.0371 12.4396 610 96.8508 396.33 474.987
392 0 51.1021 13.3263 681 95.815 395.827 473.554
393 0 52.0309 12.1466 632 97.9446 394.66 476.475
394 0 53.2386 12.228 651 93.6713 393.422 480.247
395 0 55.2082 11.7736 650 93.7415 391.643 478.214
396 0 57.1363 13.004 743 92.646 387.595 476.655
397 0 57.1313 12.6726 724 95.0843 384.123 472.753
398 0 57.122 12.1144 692 95.7009 382.147 473.092
399 0 61.074 12.9351 790 95.1772 379.065 468.439
400 0 64.0675 12.8302 822 93.3358 377.279 465.887
401 0 66.1447 12.1854 806 94.0335 375.718 466.016
402 0 69.1735 13.5167 935 93.184 375.953 461.466
403 0 71.3769 12.455 889 94.279 375.154 460.673
404 0 72.1349 12.4766 900 95.6767 375.88 455.478
405 0 77.1404 12.4967 964 95.611 376.733 453.273
406 0 79.1052 13.9814 1106 92.9828 378.497 453.184
407 0 82.1997 13.4307 1104 95.5915 379.509 449.358
408 1 45.0423 9.92399 447 96.2841 380.318 469.756
409 0 45.0558 11.7632 530 94.0623 383.104 468.077
410 0 47.0213 9.69773 456 95.5636 385.629 468.406
411 0 49.0566 12.5569 616 92.1623 388.326 464.386
412 0 50.1566 12.78 641 97.5351 389.626 468.201
413 0 51.1754 12.8773 659 97.0303 390.727 466.64
414 0 53.2875 12.3294 657 96.2998 392.93 468.044
415 0 55.3595 14.6858 813 92.893 395.312 464.679
416 0 57.4658 12.7728 734 96.1485 395.564 465.071
417 0 56.4756 12.9791 733 97.2538 396.299 464.834
418 0 58.5735 13.0093 762 96.6955 398.402 466.467
419 0 61.5357 13.3581 822 94.309 399.41 465.769
420 0 64.3417 15.2934 984 92.126 399.794 463.505
421 0 62.3163 12.7575 795 97.9648 400.887 466.396
422 0 65.2475 12.5215 817 98.9486 400.345 467.067
423 0 69.3138 14.1675 982 94.6029 399.626 466.089
424 0 69.2128 14.3037 990 90.0556 399.478 465.291
425 0 73.1598 15.227 1114 88.8312 399.165 467.279
426 0 75.2722 14.9059 1122 90.1212 398.404 467.245
427 0 77.1793 15.5223 1198 90.9491 396.348 464.921
428 0 79.247 14.0699 1115 94.5776 393.951 464.343
429 0 80.2125 14.9852 1202 94.3453 390.493 459.133
430 1 42.2874 11.4691 485 94.9505 388.814 481.503
431 0 44.2079 12.1924 539 91.256 385.421 479.918
432 0 45.3331 10.4339 473 96.2241 383.6 478.66
433 0 48.6388 13.5489 659 91.2504 380.475 474.718
434 0 48.4685 12.0903 586 96.8515 378.512 469.578
435 0 50.3638 13.9187 701 93.4551 377.556 469.964
436 0 53.3088 12.8497 685 94.0905 375.399 470.453
437 0 52.1603 14.0912 735 95.083 375.516 467.58
438 0 54.1351 15.0365 814 92.7469 375.93 466.684
439 0 58.3319 12.7546 744 96.0094 377.321 466.144
440 0 59.4296 13.2762 789 95.9087 379.984 464.349
441 0 61.1646 14.3547 878 94.9431 380.514 462.308
442 0 65.192 14.2962 932 93.7554 383.302 461.769
443 0 64.2347 13.2327 850 98.1882 385.08 459.587
444 0 65.1259 12.5603 818 100.484 386.737 457.753
445 0 68.3081 14.8006 1011 97.2779 390.196 456.705
446 0 73.2729 14.6166 1071 95.3464 390.57 458.136
447 0 74.6383 14.3492 1071 97.098 393.247 455.5
448 0 75.5753 13.7876 1042 98.0192 394.262 455.706
449 1 41.2592 10.325 426 97.4225 396.282 472.556
450 0 44.6508 9.18237 410 97.8 397.166 473.446
451 0 46.6028 11.759 548 92.2482 397.859 474.717
452 0 45.5817 12.1101 552 94.9565 398.572 472.804
453 0 47.7047 11.9904 572 93.3951 398.846 471.213
454 0 50.3609 12.0927 609 92.5057 400.1 472.417
455 0 54.1815 14.7836 801 87.0387 398.758 474.529
456 0 52.547 12.6173 663 93.6456 399.891 475.207
457 0 51.0808 12.4704 637 96.3438 398.717 476.601
458 0 55.2381 14.9354 825 91.8679 397.998 475.285
459 0 55.2359 13.0893 723 94.9142 396.084 476.188
460 0 57.2213 14.6799 840 94.6893 394.582 475.833
461 0 58.4572 14.0787 823 93.8943 392.45 475.428
462 0 62.232 15.1851 945 92.5111 390.073 472.929
463 0 62.1399 14.58 906 93.1887 386.538 470.326
464 0 67.295 12.6309 850 94.6753 383.232 470.004
465 0 70.7295 14.3363 1014 92.5966 380.764 465.814
466 0 70.3386 13.8899 977 93.4084 379.48 465.719
467 0 73.4071 14.331 1052 93.6578 377.38 460.609
468 0 77.3401 15.0245 1162 92.1833 375.73 462.015
469 1 42.2543 12.5904 532 94.6898 375.703 475.164
470 0 45.2654 12.5482 568 92.0845 374.856 472.856
471 0 45.3967 13.6574 620 89.5935 375.645 471.089
472 0 46.4078 12.1316 563 93.2256 377.657 468.984
473 0 49.1822 12.4639 613 90.2121 378.899 468.935
474 0 50.2883 13.6016 684 88.6915 381.659 467
475 0 52.2408 13.2463 692 90.396 380.954 462.272
476 0 53.1886 13.5932 723 89.5809 383.199 465.178
477 0 52.1343 12.8514 670 92.9313 385.364 462.199
478 0 56.1451 14.0351 788 88.3782 387.878 463.07
479 0 59.3136 14.2969 848 88.0106 389.537 461.517
480 0 62.2141 15.077 938 86.3881 391.157 461.491
481 0 64.1812 15.3004 982 85.999 393.208 461.636
482 0 65.3886 14.8344 970 88.6258 395.474 460.394
483 0 66.1611 14.0415 929 91.1087 397.474 458.326
484 0 69.2334 14.8628 1029 86.7979 397.924 458.066
485 1 36.3638 10.4775 381 88.9265 399.53 479.885
486 0 37.1916 12.5566 467 89.4904 400.156 475.812
487 0 38.1272 7.73725 295 93.2847 402.092 479.431
488 0 41.2578 10.1314 418 90.1388 401.574 480.234
489 0 42.2159 12.7914 540 89.2278 400.906 479.596
490 0 45.524 13.6192 620 87.9065 401.558 477.913
491 0 46.4949 12.9476 602 88.7326 401.337 477.362
492 0 46.3216 11.6792 541 93.281 400.49 479.043
493 0 49.2124 15.3417 755 87.7113 398.652 477.143
494 0 48.4095 14.2121 688 90.1279 396.515 476.599
495 0 54.2514 16.4604 893 84.4244 393.671 475.315
496 0 56.3043 14.2618 803 88.2441 390.991 473.563
497 0 57.3018 14.2404 816 90.7341 388.914 471.393
498 0 60.2874 15.8574 956 87.7887 385.381 470.727
499 0 58.3239 13.6136 794 94.3804 382.738 470.06
500 0 60.2032 14.3514 864 91.9086 380.861 467.236
501 0 62.3621 15.7147 980 90.9061 379.62 462
502 0 66.2215 16.1428 1069 91.9252 376.263 462.567
503 0 68.3417 15.8761 1085 92.447 376.841 460.517
504 0 73.3164 18.3997 1349 86.7005 376.763 457.032
505 0 73.2336 15.157 1110 94.9198 378.085 452.41
506 1 41.1264 13.2275 544 98.7574 379.974 469.873
507 0 42.149 10.4154 439 102.319 381.287 471.189
508 0 42.0476 11.8675 499 101.285 382.044 466.275
509 0 43.0924 12.6704 546 101.185 384.855 466.722
510 0 46.2009 13.8526 640 99.0438 386.073 464.755
511 0 46.4809 13.64 634 99.6956 389.823 463.853
512 0 50.3445 13.9042 700 93.0957 392.116 464.406
513 0 53.1041 15.7803 838 92.2566 394.86 466.477
514 0 52.0906 14.5708 759 96.4954 395.011 465.773
515 0 54.0594 14.854 803 95.3076 397 464.339
516 0 56.1147 15.4148 865 93.4358 398.511 463.423
517 0 57.0789 15.6275 892 92.3128 399.402 465.584
518 0 58.1743 15.7973 919 91.7943 400.842 466.649
519 0 60.1675 15.2907 920 91.0239 400.924 466.966
520 0 63.1748 16.2723 1028 88.0516 402.283 464.908
521 0 61.3168 14.6453 898 89.471 401.992 467.011
522 0 66.2927 15.869 1052 86.2747 401.944 466.161
523 0 67.3081 14.8273 998 84.1824 401.421 468.229
524 0 70.332 15.4268 1085 85.27 400.684 464.765
525 1 37.085 11.1905 415 90.2988 401.031 481.2
526 0 39.1057 11.6351 455 88.9451 399.514 483.134
527 0 40.1522 11.2073 450 89.5778 398.071 482.7
528 0 42.0738 11.7888 496 90.3105 396.046 481.361
529 0 43.3638 14.1593 614 91.2101 393.07 480.08
530 0 45.113 14.3639 648 90.6127 389.174 478.043
531 0 45.181 14.4751 654 90.5979 386.636 476.512
532 0 46.071 13.5877 626 94.155 383.703 475.613
533 0 49.1088 15.2111 747 90.4926 381.91 472.167
534 0 51.0946 15.9899 817 89.2999 379.991 470.706
535 0 51.2354 15.38 788 91.7602 378.834 468.291
536 0 54.1558 16.1017 872 89.6067 377.083 466.683
537 0 55.1944 15.0015 828 93.1159 377.684 465.472
538 0 55.1774 14.9518 825 94.3588 379.173 462.307
539 0 59.2427 15.2593 904 96.4989 379.752 464.071
540 0 61.1928 14.871 910 98.7637 381.61 460.762
541 0 62.0441 15.763 978 98.8712 382.657 459.121
542 0 67.1127 17.1503 1151 96.2997 384.073 453.47
543 0 70.2176 16.3777 1150 99.5087 386.917 453.348
544 0 72.3961 15.6915 1136 101.981 387.79 449.752
545 0 73.2134 16.3222 1195 102.503 389.63 447.635
546 1 37.1968 11.2644 419 105.895 391.253 468.687
547 0 41.1656 14.2109 585 102.238 393.068 466.961
548 0 39.1132 13.7294 537 105.775 394.587 466.857
549 0 41.252 13.4054 553 105.429 395.828 468.394
550 0 43.2966 13.5346 586 107.532 397.235 467.09
551 0 46.2465 14.2497 659 102.988 398.728 466.774
552 0 47.224 14.3359 677 103.207 399.093 468.57
553 0 47.3387 14.2378 674 104.671 400.589 470.521
554 0 47.1211 15.3222 722 103.233 399.712 471.165
555 0 50.1881 15.5017 778 101.999 400.46 470.767
556 0 53.0799 15.0528 799 100.945 400.892 475.393
557 0 53.2592 15.2837 814 103.478 401.07 475.828
558 0 53.2912 15.0119 800 104.686 400.171 472.208
559 0 58.1736 15.5741 906 102.073 398.849 469.619
560 0 57.291 15.6744 898 102.665 397.968 470.479
561 0 61.4259 16.4751 1012 100.407 395.793 467.21
562 0 64.3096 16.9026 1087 99.3238 393.005 468.322
563 0 67.4102 15.9472 1075 102.242 389.746 465.9
564 0 66.3622 15.2346 1011 104.719 386.653 463.442
565 0 69.3413 16.5991 1151 102.147 383.846 459.581
566 0 71.3878 16.8656 1204 102.081 381.07 458.659
567 0 74.2885 15.4398 1147 104.457 379.8 456.359
568 0 73.5109 14.6509 1077 108.357 377.512 454.339
569 0 81.3446 16.4485 1338 102.47 376.836 452.114
570 0 83.4613 15.648 1306 105.279 376.956 449.701
571 0 86.3157 15.1421 1307 105.725 376.447 445.95
572 1 47.1446 14.9328 704 99.3125 377.22 465.592
573 0 48.3976 12.0874 585 106.034 379.554 462.446
574 0 48.3901 14.3418 694 103.347 381.29 460.723
575 0 51.1219 13.282 679 105.479 382.155 459.817
576 0 53.1422 15.8443 842 100.285 384.739 458.722
577 0 55.1327 15.8527 874 101.089 387.46 458.931
578 0 58.563 15.5047 908 99.0308 388.54 456.412
579 0 57.468 14.5994 839 102.824 390.484 457.797
580 0 62.468 15.1278 945 100.624 391.417 454.574
581 0 64.3533 15.8345 1019 99.9676 394.18 454.852
582 0 66.423 16.2444 1079 98.0028 394.961 458.053
583 0 68.5431 16.1796 1109 98.1894 396.146 455.346
584 0 72.3253 14.5454 1052 101.143 396.821 454.63
585 0 73.3534 15.9502 1170 99.2222 398.103 454.774
586 0 75.3618 14.4901 1092 102.451 399.219 455.783
587 0 78.5097 15.8197 1242 100.828 398.816 453.531
588 0 80.5009 15.6272 1258 101.66 399.43 452.826
589 0 81.5451 15.7459 1284 101.897 400.266 454.051
590 0 83.5163 16.404 1370 100.75 400.128 454.964
591 0 86.4479 15.8477 1370 101.083 399.758 449.807
592 0 90.5597 15.7797 1429 100.114 399.682 454.796
593 0 96.5062 18.1957 1756 95.5256 398.495 451.665
594 1 48.1946 12.906 622 101.416 397.222 475.394
595 0 50.1245 14.2445 714 98.5476 395.099 473.098
596 0 52.1683 14.6449 764 96.4319 391.869 471.054
597 0 55.4844 14.9231 828 97.5906 389.384 468.499
598 0 57.5868 14.8645 856 97.6028 385.339 467.187
599 0 59.5511 15.6168 930 96.8118 383.087 466.042
600 0 61.4476 14.9721 920 97.7207 379.846 462.136
601 0 64.3976 15.8857 1023 95.6442 377.832 459.771
602 0 66.4718 16.3227 1085 95.8101 377.008 457.616
603 0 67.6355 15.1104 1022 99.5313 375.947 456.693
604 0 72.5467 18.4709 1340 92.8657 375.469 452.855
605 0 75.6342 14.9932 1134 100.468 375.851 451.37
606 0 77.6615 15.5161 1205 100.877 377.708 447.198
607 0 80.8213 16.0478 1297 100.736 379.539 446.814
608 0 82.5635 15.7091 1297 102.415 380.847 442.674
609 0 85.7064 15.3198 1313 103.739 382.6 442.005
610 1 44.3218 11.8903 527 108.017 385.173 461.381
611 0 48.5449 12.1125 588 103.325 388.276 462.486
612 0 48.4021 14.0283 679 99.9912 390.49 460.895
613 0 50.5593 12.1442 614 104.137 391.691 463.415
614 0 53.4981 14.6734 785 101.824 392.926 460.299
615 0 54.378 13.351 726 106.088 393.526 460.698
616 0 55.404 14.3853 797 106.181 395.355 462.146
617 0 57.3139 13.7838 790 108.525 395.723 463.258
618 0 58.4214 14.8405 867 108.01 397.397 461.652
619 0 61.365 14.1449 868 108.177 397.839 460.869
620 0 64.4954 14.8693 959 104.892 398.892 462.811
621 0 65.7973 15.107 994 106.475 399.913 462.695
622 0 68.5825 15.0622 1033 105.964 399.804 459.453
623 0 70.5142 16.2662 1147 103.936 399.308 463.469
624 0 70.7077 14.6236 1034 108.965 399.618 463.914
625 0 74.7294 15.603 1166 106.23 398.71 465.503
626 0 74.754 15.3972 1151 110.107 398.685 463.242
627 0 79.7958 16.1287 1287 107.103 397.459 460.778
628 0 81.6728 14.9132 1218 110.38 394.314 461.041
629 0 85.9268 15.6761 1347 107.788 391.68 460.549
630 0 88.4744 18.6608 1651 101.955 389.055 456.691
631 0 89.6435 15.2716 1369 107.583 386.265 456.309
632 0 94.6018 14.9151 1411 108.98 383.3 451.785
633 0 94.4835 14.2988 1351 111.927 379.329 451.383
634 1 51.3548 12.5986 647 111.586 377.816 467.59
635 0 55.3523 13.658 756 107.663 376.925 466.45
636 0 55.3088 13.2709 734 110.723 375.83 462.619
637 0 59.2253 13.8961 823 107.888 374.987 461.866
638 0 59.3196 15.0878 895 107.4 375.625 455.771
639 0 64.6673 14.9844 969 105.445 376.036 456.385
640 0 66.4102 15.344 1019 104.994 376.892 454.092
641 0 67.3085 15.0947 1016 107.569 378.379 450.099
642 0 68.46 15.3813 1053 107.373 379.928 448.709
643 0 74.4896 16.0022 1192 105.758 382.43 447.267
644 0 75.2425 15.3238 1153 108.116 384.799 446.269
645 0 78.3168 15.8204 1239 108.688 387.383 443.846
646 0 81.4501 16.7342 1363 106.485 389.672 443.076
647 0 84.2827 15.6734 1321 110.185 389.956 442.673
648 0 85.5778 15.4246 1320 111.468 391.555 441.57
649 0 89.5467 15.7236 1408 111.305 394.576 439.518
650 0 90.6109 14.6561 1328 115.785 395.406 438.027
651 0 94.5353 15.4017 1456 114.652 396.01 437.102
652 0 97.4706 15.6765 1528 114.478 397.754 438.849
653 1 56.3143 10.4592 589 114.141 398.088 462.404
654 0 56.1489 10.49 589 111.233 399.073 460.234
655 0 59.1777 12.623 747 110.407 399.206 464.21
656 0 60.2219 12.6034 759 111.597 401.188 464.543
657 0 62.2639 13.2501 825 109.885 401.653 467.718
658 0 63.1764 13.3594 844 107.687 399.754 467.376
659 0 64.2277 13.1563 845 109.817 398.338 465.611
660 0 67.0822 12.7903 858 109.829 397.907 464.96
661 0 71.2025 14.7607 1051 104.834 396.279 465.903
662 0 73.1839 13.4729 986 105.853 393.019 463.647
663 0 74.2555 13.5882 1009 106.763 390.581 462.944
664 0 78.2834 14.4347 1130 103.599 388.054 461.115
665 0 82.2416 14.2629 1173 103.893 384.801 459.553
666 0 82.3202 13.3139 1096 107.92 383.254 456.352
667 0 86.3175 13.7052 1183 105.962 379.997 453.456
668 0 89.1815 14.1621 1263 106.786 377.706 449.81
669 0 92.128 13.0579 1203 109.022 376.595 449.067
670 0 93.0928 13.0408 1214 110.011 376.527 440.708
671 0 99.3129 15.1944 1509 103.993 376.876 442.123
672 0 100.249 13.1772 1321 110.316 377.185 437.584
673 0 105.211 13.9434 1467 109.062 379.135 435.701
674 0 110.239 14.2872 1575 105.303 379.777 431.977
675 0 113.499 14.3438 1628 104.709 381.159 431.515
676 1 61.4174 8.84114 543 105.466 384.75 458.227
677 0 66.4465 10.5348 700 99.1257 386.206 456.16
678 0 68.4325 11.4858 786 93.9008 388.505 454.422
679 0 70.4801 14.0323 989 88.9242 390.925 450.94
680 0 71.3576 11.1691 797 91.9511 393.233 452.488
681 0 74.2649 11.3782 845 92.9112 394.845 450.561
682 0 75.3707 10.0304 756 93.2593 396.205 452.865
683 0 79.369 11.6418 924 87.7381 397.748 452.078
684 0 81.3506 12.3539 1005 86.0398 397.781 452.297
685 0 84.3362 11.9522 1008 87.1696 398.853 448.762
686 0 87.2836 12.7744 1115 86.0036 400.624 447.979
687 0 90.287 12.0505 1088 86.9237 401.565 451.505
688 0 91.3737 11.0426 1009 89.6036 401.489 448.631
689 0 93.4706 13.5016 1262 84.6094 402.254 450.513
690 0 96.1543 11.8767 1142 88.6699 402.291 446.778
691 0 100.287 12.7634 1280 87.0281 401.633 447.72
692 1 57.2354 9.81909 562 85.8434 403.333 471.779
693 0 57.2254 9.64606 552 85.9384 402.214 470.563
694 0 58.2807 9.29982 542 85.524 401.507 472.227
695 0 64.2434 12.3125 791 83.1113 399.334 468.793
696 0 65.0648 11.5116 749 84.3872 397.912 465.45
697 0 66.4244 11.6674 775 83.2077 393.276 465.559
698 0 69.4079 11.8719 824 82.2415 391.004 467.083
699 0 72.427 13.9313 1009 80.7374 388.769 463.821
700 0 74.3626 13.6762 1017 82.5978 386.022 461.029
701 0 74.3302 11.9467 888 85.6374 382.078 456.936
702 0 78.4418 13.2965 1043 83.5427 381.088 455.937
703 0 80.1986 12.0825 969 88.3684 381.141 451.779
704 0 83.3341 12.3479 1029 88.2187 379.02 448.029
705 0 83.1957 13.1016 1090 89.9092 378.941 445.782
706 0 88.3155 13.882 1226 88.5171 380.619 443.67
707 1 44.6749 11.1024 496 84.6855 382.692 464.45
708 0 44.3958 10.3388 459 87.0588 384.048 461.898
709 0 45.5481 10.4944 478 87.1653 385.19 458.759
710 0 51.5794 11.3611 586 85.186 387.698 458.468
711 0 51.5948 11.2608 581 85.4028 389.974 456.527
712 0 52.7893 12.5973 665 83.2331 392.645 457.218
713 0 51.1703 11.4129 584 87.0308 394.305 461.998
714 0 54.2203 12.2095 662 85.1254 396.177 463.039
715 0 52.1801 10.9045 569 88.1195 398.049 462.96
716 0 54.3521 11.1127 604 88.0828 399.586 460.06
717 0 57.4184 13.2013 758 85.1887 399.72 460.458
718 0 57.4629 12.7735 734 85.0736 401.685 462.071
719 0 60.2551 12.3973 747 84.7323 402.598 464.198
720 0 62.3464 12.5268 781 85.6108 403.402 465.448
721 0 61.1895 12.8617 787 86.9161 403.779 464.093
722 0 65.5333 14.1302 926 85.1026 404.459 462.428
723 0 67.2922 12.9881 874 86.4085 404.019 462.307
724 0 68.27 12.7728 872 86.3681 404.234 463.495
725 0 69.2435 13.0409 903 85.2425 404.982 463.641
726 0 70.3189 13.4672 947 86.7909 404.616 464.568
727 0 72.1737 12.6639 914 89.3895 403.503 462.625
728 0 73.2589 13.2817 973 87.3135 402.04 458.959
729 0 79.2438 14.916 1182 84.4078 400.355 457.772
730 0 79.1866 14.8636 1177 86.4401 398.719 457.534
731 0 83.2616 13.8599 1154 87.7366 395.49 458.181
732 1 41.1905 11.3133 466 90.5987 393.779 474.094
733 0 43.1278 10.3645 447 91.9709 390.987 474.264
734 0 45.1406 13.1146 592 89.0895 385.738 474.312
735 0 42.2043 11.0178 465 93.1527 385.288 474.172
736 0 47.336 11.7458 556 93.4173 382.66 468.941
737 0 50.3147 12.6603 637 88.7268 381.673 468.565
738 0 50.4095 11.7835 594 93.1633 380.202 459.652
739 0 51.1618 12.1966 624 91.367 380.958 461.92
740 0 54.3415 14.5009 788 86.9569 381.028 460.98
741 0 54.3829 12.1913 663 91.9563 382.291 461.609
742 0 57.1664 12.9797 742 91.2385 383.722 457.827
743 0 63.3699 13.2239 838 86.7458 385.419 458.848
744 0 64.4012 15.4035 992 83.5 387.403 457.482
745 0 64.2202 13.516 868 89.3491 389.817 453.881
746 0 67.2884 15.4707 1041 85.3141 391.641 453.232
747 0 69.1844 15.4804 1071 85.704 393.235 451.658
748 0 72.193 14.1565 1022 88.0411 394.682 448.851
749 0 73.3392 13.8398 1015 88.2709 395.7 450.025
750 0 76.2309 13.4853 1028 88.4708 397.138 451.36
751 0 80.4729 14.3278 1153 86.8144 398.869 449.283
752 0 83.3169 14.1268 1177 87.5658 400.489 451.535
753 0 84.2266 13.9148 1172 88.7713 401.683 449.672
754 1 47.2658 8.90708 421 90.4109 403.819 474.221
755 0 47.2661 12.546 593 88.4739 404.184 470.821
756 0 50.2251 12.006 603 87.8192 404.92 471.98
757 0 50.0473 10.6499 533 92.4897 404.788 473.887
758 0 51.3049 13.566 696 91.6236 404.682 471.148
759 0 54.0362 13.676 739 90.1258 404.399 472.398
760 0 52.1329 13.5999 709 92.103 403.819 473.762
761 0 52.2259 12.9055 674 88.8665 403.497 472.206
762 0 53.1379 12.4958 664 90.1943 402.017 473.827
763 0 57.1639 14.887 851 84.4912 399.295 468.897
764 0 57.1759 13.8345 791 87.0657 397.933 471.853
765 0 58.289 14.2909 833 87.096 395.504 471.084
766 0 59.2196 13.2557 785 89.1465 393.73 469.355
767 0 64.2712 15.2323 979 84.0644 390.725 467.356
768 0 67.3092 14.0248 944 84.4682 387.553 463.517
769 0 69.2497 15.0759 1044 83.8276 384.648 461.31
770 0 70.2154 14.6264 1027 86.3496 382.887 454.419
771 0 75.4718 14.31 1080 86.6593 381.847 458.981
772 1 35.1682 9.75312 343 92.2682 381.087 475.192
773 0 39.1599 10.3678 406 92.2734 381.342 471.229
774 0 39.2548 11.4636 450 92.1689 381.984 468.382
775 0 43.227 13.9265 602 84.9103 382.422 468.002
776 0 45.3616 12.3232 559 84.4204 382.15 466.487
777 0 44.0189 13.4033 590 81.2508 384.212 465.247
778 0 48.0435 13.467 647 83.5518 385.841 464.519
779 0 49.0676 14.0011 687 82.8472 388.281 462.323
780 0 48.1124 13.9257 670 85.594 390.016 462.624
781 0 52.0631 14.3672 748 84.766 391.624 462.354
782 0 52.0885 14.0338 731 85.5663 394.047 461.613
783 0 56.1446 15.0326 844 84.1623 394.351 459.405
784 0 54.1812 13.3995 726 89.4573 396.736 461.935
785 0 57.0693 13.6676 780 88.5308 397.431 458.718
786 0 59.0818 14.0653 831 86.2948 399.012 460.67
787 0 61.1373 14.3447 877 85.049 399.733 464.036
788 0 63.1473 15.06 951 82.2681 400.672 461.124
789 0 64.0901 14.2144 911 84.7805 401.549 461.018
790 0 64.2015 14.4233 926 85.5151 402.077 462.964
791 0 67.1325 14.6427 983 85.3784 402.53 463.556
792 0 71.3858 15.7174 1122 83.5802 402.81 461.593
793 0 74.1108 14.3569 1064 85.969 402.797 464.935
794 0 73.0828 14.3536 1049 88.082 402.102 461.519
795 0 73.1277 13.7021 1002 90.4301 401.281 462.939
796 1 38.1587 10.7708 411 88.3285 398.742 481.326
797 0 39.0384 10.733 419 89.7852 396.592 480.556
798 0 41.179 11.5836 477 88.7526 394.717 477.981
799 0 43.0065 11.4401 492 86.9187 391.888 477.039
800 0 44.1514 12.8195 566 84.0088 389.677 474.519
801 0 44.1922 12.0836 534 88.4906 388.255 473.466
802 0 47.0703 13.1505 619 85.895 385.868 475.863
803 0 48.1335 13.8988 669 85.3558 382.483 471.855
804 0 50.103 14.0111 702 86.0285 380.916 469.781
805 0 51.0771 14.5075 741 86.8003 379.978 469.379
806 0 52.134 13.7914 719 88.267 379.33 465.654
807 0 55.159 13.5427 747 88.9946 379.133 464.971
808 0 57.187 13.3072 761 88.9737 379.825 463.719
809 0 59.1676 14.3491 849 90.8822 382.014 463.384
810 0 61.1466 16.485 1008 86.6617 383.508 461.645
811 0 63.3103 15.195 962 89.1341 385.31 459.121
812 0 64.1812 15.3004 982 90.9919 386.521 454.355
813 0 66.1727 14.6284 968 92.468 388.712 456.912
814 0 71.2388 15.4972 1104 90.269 389.691 456.768
815 1 37.0755 12.0565 447 94.3311 392.714 472
816 0 36.0362 10.5727 381 96.4541 392.147 470.507
817 0 40.0945 11.1985 449 95.6971 393.784 470.379
818 0 44.0758 13.1365 579 91.7478 395.587 471.04
819 0 43.0531 12.9607 558 94.1165 396.242 471.095
820 0 44.1014 12.3805 546 96.3425 397.852 469.451
821 0 47.2909 14.6328 692 92.6445 399.581 468.569
822 0 50.1343 13.9426 699 92.5908 399.435 469.642
823 0 50.0785 14.6969 736 93.5788 399.948 471.826
824 0 52.0736 13.8842 723 95.5187 401.397 472.596
825 0 53.0313 15.274 810 92.5963 401.286 475.258
826 0 54.0772 14.9971 811 95.1899 400.674 473.186
827 0 55.0994 15.0092 827 96.3216 399.32 471.036
828 0 55.1082 14.7528 813 97.1181 399.477 471.857
829 0 58.1364 14.3112 832 96.6514 397.927 474.897
830 0 58.1985 14.399 838 97.9523 397.82 473.138
831 0 63.1124 14.9099 941 94.2901 396.834 473.193
832 0 63.206 14.6189 924 96.7662 394.334 471.751
833 0 65.3126 14.8976 973 95.704 390.998 467.678
834 0 66.419 15.6732 1041 95.6013 388.332 468.313
835 0 69.2316 14.7621 1022 98.1252 386.686 465.065
836 0 70.3544 14.7112 1035 98.4715 384.816 462.528
837 0 71.4689 13.5164 966 102.67 382.929 460.656
838 0 76.4375 15.8692 1213 98.7683 380.113 455.455
839 0 79.3577 15.008 1191 100.886 379.363 453.173
840 1 39.132 10.3496 405 105.052 379.64 469.716
841 0 41.1835 11.4366 471 104.399 380.779 464.244
842 0 42.2757 10.6208 449 103.051 381.775 461.276
843 0 47.1933 12.7349 601 99.203 382.659 462.221
844 0 47.1211 12.627 595 100.612 384.321 460.057
845 0 49.0533 13.4751 661 98.5537 385.758 459.209
846 0 52.0685 13.8471 721 90.4965 387.684 459.248
847 0 54.1 15.4344 835 88.8826 389.752 454.01
848 0 55.0361 12.5372 690 94.6913 392.055 455.739
849 0 57.1377 13.4762 770 93.8078 393.712 456.571
850 0 62.1303 14.8076 920 88.2217 393.984 454.751
851 0 64.069 14.0942 903 90.5371 396.225 456.359
852 0 63.2183 14.1731 896 89.9978 398.335 456.753
853 0 68.1607 15.1847 1035 88.9575 399.472 455.1
854 0 69.24 16.3345 1131 87.8621 400.926 453.171
855 0 74.3038 15.7596 1171 87.6055 401.995 455.4
856 0 76.1688 17.6319 1343 85.9077 402.204 454.723
857 0 78.2488 15.2846 1196 89.4022 402.599 453.916
858 0 79.2167 16.2592 1288 89.9053 402.512 454.593
859 0 82.3287 16.1062 1326 91.2738 402.934 455.057
860 1 39.2342 11.699 459 96.6362 402.952 473.917
861 0 42.1409 12.743 537 93.5233 401.199 479.685
862 0 44.2157 12.1224 536 98.0746 400.104 475.927
863 0 45.131 12.1646 549 98.3169 399.035 476.446
864 0 47.2327 13.5076 638 97.174 397.464 477.464
865 0 49.2328 14.4416 711 96.2827 396.083 476.508
866 0 51.1933 14.8652 761 95.0499 392.959 474.535
867 0 52.0575 15.1563 789 94.0228 391.428 475.698
868 0 52.0312 15.1255 787 95.8463 387.816 472.629
869 0 54.1518 14.7179 797 97.7905 385.57 469.556
870 0 56.1523 14.9949 842 96.3634 383.567 465.874
871 0 57.1983 14.6683 839 99.7092 381.315 465.633
872 0 62.1183 16.9193 1051 94.1979 381.167 459.702
873 0 65.1736 16.878 1100 93.3945 380.028 462.096
874 0 66.1253 15.8184 1046 97.131 379.641 457.378
875 0 66.2854 14.4225 956 100.851 380.013 458.077
876 0 71.3444 17.9131 1278 92.0493 382.189 453.834
877 0 74.1823 15.8394 1175 98.5166 382.963 451.176
878 0 76.1662 15.7681 1201 98.3855 384.956 449.797
879 0 79.2983 15.8894 1260 97.2683 387.555 446.386
880 0 82.1912 16.3156 1341 95.8098 390.2 447.514
881 0 86.137 16.6015 1430 95.3573 391.017 444.445
882 1 46.092 12.1062 558 101.487 393.337 465.789
883 0 46.0383 11.5121 530 103.772 395.083 466.109
884 0 46.0938 11.4983 530 101.434 398.113 466.006
885 0 46.0872 12.433 573 96.192 398.475 463.051
886 0 50.0497 13.1469 658 89.0091 398.506 464.234
887 0 52.119 13.9105 725 87.9255 400.29 465.183
888 0 53.0364 13.6699 725 89.7434 401.538 466.728
889 0 56.0942 15.3313 860 85.9488 401.917 467.274
890 0 59.1419 15.0316 889 86.703 402.652 466.819
891 0 59.1764 16.0537 950 86.1063 402.518 465.605
892 0 60.1632 14.8097 891 87.514 402.054 466.961
893 0 63.0937 15.1045 953 87.3033 402.829 467.736
894 0 65.1147 13.9753 910 88.9264 402.636 465.224
895 0 66.0701 14.7571 975 88.9251 401.053 466.312
896 0 69.1746 15.3235 1060 86.266 400.697 465.261
897 0 72.1125 15.462 1115 86.4422 398.128 465.168
898 0 75.3363 16.3932 1235 84.7895 396.554 462.138
899 0 74.3552 14.8207 1102 88.6624 394.44 459.989
900 0 78.2225 15.3792 1203 87.6434 392.979 456.213
901 1 42.1983 12.7493 538 88.7714 388.896 471.255
902 0 40.1895 11.3214 455 90.9538 385.554 471.767
903 0 41.0335 10.9667 450 90.8844 383.567 473.884
904 0 43.0395 13.0345 561 88.8414 383.141 473.954
905 0 46.0356 12.6858 584 89.9486 380.135 469.572
906 0 49.0438 13.9467 684 87.2719 380.379 468.965
907 0 50.3159 13.773 693 89.1847 381.837 465.277
908 0 50.2531 13.3922 673 89.9004 382.596 463.799
909 0 55.2529 15.8182 874 83.8032 382.566 461.227
910 0 56.5797 15.4296 873 86.1306 384.355 458.578
911 0 58.4182 14.7214 860 87.8302 385.623 456.566
912 0 61.4934 13.351 821 90.6078 387.566 455.703
913 0 61.2792 13.7404 842 91.6283 389.062 454.137
914 0 66.3824 15.5312 1031 88.3026 391.744 454.194
915 0 66.2877 14.603 968 92.0785 393.412 452.801
916 0 68.3519 15.113 1033 92.9952 394.846 448.588
917 0 72.4474 15.2663 1106 92.0479 396.874 449.961
918 0 73.1975 15.3694 1125 92.8462 396.472 452.417
919 0 77.2276 15.9658 1233 90.7672 398.609 454.007
920 0 78.1938 15.1291 1183 94.1006 399.96 453.915
921 0 81.1553 14.7125 1194 96.732 399.645 452.879
922 1 43.0959 10.9755 473 98.1924 402.203 474.786
923 0 45.099 11.8406 534 96.6667 402.76 474.195
924 0 44.2571 11.1621 494 100.64 402.478 473.891
925 0 47.0563 13.0057 612 95.9314 403.07 475.376
926 0 49.1827 12.0774 594 98.9983 403.311 476.135
927 0 51.1536 14.4858 741 92.8016 404.914 473.417
928 0 53.0988 13.5408 719 95.8331 403.651 474.167
929 0 55.0188 15.0676 829 91.3245 400.993 475.821
930 0 58.191 14.7961 861 90.2497 398.178 471.566
931 0 60.2024 14.3017 861 91.403 397.439 470.51
932 0 60.1126 13.9904 841 94.9798 394.845 469.931
933 0 62.1178 15.1325 940 94.1096 391.805 466.519
934 0 64.1186 16.7034 1071 91.4641 390.088 466.053
935 0 66.088 14.4656 956 97.8525 387.55 464.796
936 0 70.1524 15.5376 1090 94.6569 384.272 463.909
937 0 72.2332 14.7162 1063 97.3838 382.563 459.088
938 0 74.2131 15.186 1127 95.9752 381.035 457.373
939 1 42.1063 11.3285 477 98.5996 379.247 474.608
940 0 43.076 12.8842 555 96.5622 378.532 472.332
941 0 44.078 11.6838 515 97.1165 379.825 471.181
942 0 42.4499 11.7315 498 92.7269 380.588 461.347
943 0 43.0991 12.0188 518 88.3649 382.421 459.861
944 0 46.0787 11.2633 519 89.1156 384.283 462.079
945 0 45.0523 10.5211 474 92.3987 385.53 460.525
946 0 49.1636 12.5093 615 87.9415 387.795 459.418
947 0 51.1118 10.9368 559 92.3631 389.746 460.258
948 0 54.0787 12.7962 692 88.039 391.574 459.796
949 0 53.0591 12.5332 665 89.1865 393.044 457.033
950 0 58.0577 15.1229 878 90.5638 394.968 459.958
951 0 58.0577 13.9344 809 92.4549 397.227 458
952 0 59.1193 13.0414 771 94.7315 398.482 461.04
953 0 62.0705 12.5341 778 95.2506 399.59 462.996
954 0 64.2074 13.7679 884 93.4163 401.76 458.439
955 0 66.1353 12.4896 826 96.6622 403.156 459.424
956 0 68.2239 12.7082 867 97.1223 403.533 460.739
957 0 72.1614 14.7586 1065 93.5521 403.594 458.634
958 0 74.2009 14.9055 1106 91.7495 404.078 460.05
959 1 40.0525 9.21291 369 99.7615 405.545 480.019
960 0 42.048 12.7473 536 95.8937 405.05 478.121
961 0 44.1148 10.0647 444 97.3986 403.214 476.64
962 0 46.1004 11.6485 537 95.4339 403.02 478.324
963 0 47.0979 12.3997 584 96.0993 400.834 475.897
964 0 48.0533 12.3613 594 94.7424 397.714 477.195
965 0 50.1154 13.409 672 93.0045 395.963 476.365
966 0 52.1909 14.6769 766 89.2702 394.681 473.154
967 0 54.1217 14.1533 766 92.8877 391.815 470.909
968 0 54.1439 14.129 765 95.5895 389.673 469.038
969 0 57.0959 14.4143 823 92.9052 385.796 469.378
970 0 57.0866 12.665 723 95.4786 382.639 468.523
971 0 58.3268 13.6472 796 93.098 382.158 460.484
972 0 61.23 13.6861 838 93.0979 381.158 459.755
973 0 64.2394 14.4615 929 91.409 380.97 457.416
974 0 65.2028 12.7449 831 95.5981 381.298 457.439
975 0 68.208 13.8107 942 94.1072 382.182 454.552
976 0 71.1405 13.5366 963 91.1931 384.128 457.865
977 0 75.2039 14.7599 1110 90.2027 383.921 453.75
978 1 41.0585 10.7164 440 94.7409 387.72 467.832
979 0 44.0359 12.1265 534 92.0112 388.923 468.096
980 0 44.0628 11.8694 523 93.5851 391.373 469.216
981 0 45.0314 13.1242 591 93.247 392.91 464.983
982 0 49.0258 13.7683 675 87.8237 395.222 467.593
983 0 51.1312 12.8688 658 86.3997 396.269 462.641
984 0 49.0142 13.1391 644 88.3587 396.953 468.38
985 0 51.0193 12.6423 645 88.6093 397.767 466.561
986 0 51.1101 11.8959 608 90.1678 399.612 468.661
987 0 54.1114 12.4743 675 89.5096 401.985 466.373
988 0 57.0654 14.1942 810 85.4259 402.544 468.699
989 0 57.1586 12.7365 728 88.0824 403.352 468.324
990 0 60.1872 13.6242 820 85.872 403.926 468.224
991 0 61.1517 14.6848 898 84.2962 403.273 465.697
992 0 63.1108 12.4226 784 86.8622 404.371 470.25
993 0 63.1805 12.5355 792 87.1061 403.386 470.54
994 0 68.1278 13.4453 916 86.1255 403.165 467.493
995 0 71.3149 13.798 984 84.8364 400.763 464.825
996 0 72.2042 14.8052 1069 82.8849 399.703 465.299
997 1 38.1158 11.1502 425 86.0424 398.435 482.113
998 0 39.1357 10.9874 430 87.1186 396.512 480.795
999 0 39.0208 11.5323 450 85.7867 393.749 481.562
1000 0 42.0567 11.2229 472 87.3114 390.924 476.983
1001 0 42.0632 12.9091 543 83.1897 388.295 475.547
1002 0 44.1391 11.9169 526 88.4125 383.582 474.375
1003 0 47.0613 13.0681 615 88.2195 382.26 472.01
1004 0 48.0401 13.0516 627 84.6954 379.15 470.582
1005 0 49.0784 13.0811 642 85.5358 377.955 469.695
1006 0 50.0606 13.5236 677 86.1669 378.001 467.929
1007 0 52.0724 13.1548 685 87.038 379.609 464.336
1008 0 55.1986 14.5112 801 54.9401 380.001 464.176
1009 0 56.1117 13.7226 770 84.8987 381.435 463.549
1010 0 56.0689 12.2706 688 88.0509 382.977 459.531
1011 0 59.1132 14.4976 857 84.9463 385.34 458.889
1012 0 59.102 13.7897 815 86.2282 388.178 459.553
1013 0 63.0687 12.859 811 87.6893 388.223 455.621
1014 0 64.059 13.5344 867 86.0657 390.191 454.792
1015 0 68.1958 13.9305 950 84.0758 392.235 454.44
1016 0 70.1453 14.2989 1003 84.1256 394.038 454.889
1017 1 41.0084 10.8758 446 87.7309 394.249 470.951
1018 0 42.0518 10.1779 428 90.3084 396.107 469.329
1019 0 42.0657 11.2919 475 89.52 396.983 468.149
1020 0 42.079 11.7398 494 88.9838 401.796 472.308
1021 0 46.0361 12.2513 564 88.156 403.259 472.129
1022 0 46.1726 12.8864 595 90.7866 401.269 473.346
1023 0 49.2437 14.2962 704 82.9716 402.402 472.683
1024 0 50.19 13.9868 702 89.6681 402.011 474.356
1025 0 52.1194 13.5266 705 91.9872 401.396 472.24
1026 0 52.1355 14.002 730 91.4055 400.896 474.608
1027 0 53.1208 14.3447 762 91.5709 400.501 475.352
1028 0 54.096 14.4373 781 93.2855 398.977 472.085
1029 0 58.1161 14.4194 838 93.3079 397.057 471.894
1030 0 57.0649 13.7563 785 95.4064 395.442 471.809
1031 0 62.061 15.5976 968 90.6074 392.638 471.259
1032 0 64.0574 16.454 1054 88.7381 390.648 469.137
1033 0 64.0782 14.2794 915 93.6787 386.744 466.532
1034 0 68.1594 14.4074 982 92.1405 384.798 465.463
1035 0 70.0548 15.6163 1094 89.9305 382.987 462.015
1036 1 37.0094 11.8619 439 92.8314 379.82 475.59
1037 0 38.0224 10.6779 406 93.0394 378.234 476.116
1038 0 38.0776 11.1352 424 93.0307 377.533 475.146
1039 0 39.022 13.2746 518 91.8378 378.154 471.083
1040 0 42.0206 12.6843 533 90.0056 378.486 469.587
1041 0 44.1819 14.9609 661 86.6263 380.616 468.85
1042 0 44.08 13.9519 615 85.7951 384.577 466.428
1043 0 49.1039 15.0701 740 82.5878 385.197 466.157
1044 0 48.1162 15.9406 767 81.9831 386.934 462.562
1045 0 49.0976 14.3184 703 85.33 390.309 464.092
1046 0 50.0599 14.9421 748 85.0254 392.426 461.631
1047 0 51.127 13.887 710 87.8873 394.328 461.132
1048 0 53.1653 14.201 755 87.8742 396.568 463.268
1049 0 56.1046 14.3304 804 87.5958 398.067 463.359
1050 0 58.0882 15.5281 902 87.1774 399.076 460.287
1051 0 57.262 14.8441 850 90.5294 400.225 462.074
1052 0 61.0933 14.486 885 90.5876 401.372 462.756
1053 0 64.1531 14.7304 945 89.6476 402.07 464.635
1054 0 66.2327 17.4234 1154 85.5433 403.69 465.895
1055 0 67.1631 15.7378 1057 88.5771 404.58 465.694
1056 0 68.2205 15.4792 1056 90.5729 404.345 464.724
1057 0 71.1365 14.8728 1058 91.4216 404.917 464.575
1058 0 75.3593 15.6716 1181 89.1177 405.122 463.605
1059 1 40.145 11.5332 463 97.2095 404.138 482.754
1060 0 42.1658 11.858 500 96 402.972 482.724
1061 0 42.2785 13.2928 562 94.1085 401.365 481.968
1062 0 44.4892 12.2951 547 95.181 400.667 481.005
1063 0 45.1304 13.738 620 94.4613 399.247 480.29
1064 0 47.3518 14.1283 669 95.0972 396.928 479.224
1065 0 47.0868 14.9299 703 96.0967 396.454 478.147
1066 0 50.1088 14.4486 724 97.5622 393.046 475.631
1067 0 52.2031 14.6351 764 96.8154 390.444 476.267
1068 0 52.1071 14.547 758 99.4406 387.578 471.711
1069 0 55.1041 16.1331 889 96.2441 385.766 472.004
1070 0 56.1071 14.6862 824 100.226 383.657 471.217
1071 0 56.2038 12.7038 714 100.735 383.496 469.008
1072 0 58.1747 14.1986 826 98.2748 382.912 467.163
1073 0 62.2599 15.2426 949 96.0759 383.262 466.219
1074 0 63.1705 15.0228 949 97.6923 383.759 463.022
1075 0 68.2501 14.989 1023 97.5806 384.729 463.274
1076 0 69.2429 14.6008 1011 99.5757 386.337 458.741
1077 0 74.1549 15.8452 1175 94.823 387.517 457.344
1078 1 40.0937 11.8971 477 100.094 390.14 473.264
1079 0 37.05 11.471 425 100.986 392.266 475.348
1080 0 40.1069 12.9155 518 99.0135 394.162 473.151
1081 0 40.0536 12.9577 519 101.715 393.881 471.653
1082 0 45.1533 15.082 681 93.9927 395.345 472.993
1083 0 46.0643 14.4146 664 97.881 397.277 471.901
1084 0 46.2704 14.1127 653 92.9112 398.032 467.93
1085 0 49.1935 14.9613 736 87.0163 398.747 466.615
1086 0 49.3193 15.3084 755 88.2834 399.693 465.995
1087 0 51.2177 14.6043 748 88.107 400.283 469.773
1088 0 52.115 14.161 738 90.7168 402.225 470.871
1089 0 53.1005 14.9716 795 88.4943 402.117 471.74
1090 0 56.0861 15.3336 860 91.4221 402.255 471.969
1091 0 60.1453 16.51 993 87.2719 401.385 475.028
1092 0 62.0642 17.1113 1062 87.0744 400.288 474.065
1093 0 60.0715 14.1997 853 94.2075 399.755 474.279
1094 0 64.2331 15.8485 1018 91.2171 397.619 472.824
1095 0 65.0888 15.5787 1014 92.9221 396.513 471.948
1096 0 68.0668 16.2781 1108 90.9404 394.401 471.092
1097 0 70.085 16.908 1185 90.3257 392.789 471.251
1098 0 70.1385 16.8381 1181 92.2235 390.351 468.461
1099 0 72.1764 15.7946 1140 93.2114 387.976 468.048
1100 0 73.0557 16.0152 1170 94.0701 384.484 464.45
1101 0 77.1394 17.2286 1329 92.3642 382.307 463.226
1102 0 80.1858 18.0705 1449 91.4513 380.881 457.605
1103 0 80.1328 17.2589 1383 97.3124 378.795 461.437
1104 0 82.1243 17.6318 1448 102.035 378.313 457.223
1105 0 81.0675 17.7506 1439 104.748 377.796 454.682
1106 0 85.1396 17.6886 1506 103.662 377.973 453.139
1107 0 86.1012 19.2796 1660 101.583 380.599 452.161
1108 0 86.096 18.0961 1558 104.954 380.837 450.223
1109 0 87.2094 17.7963 1552 105.372 384.093 448.638
1110 0 89.1877 19.2964 1721 102.759 386.414 448.536
1111 0 92.3808 19.8742 1836 100.237 389.333 446.352
1112 0 90.1687 17.0902 1541 109.046 390.778 449.122
1113 0 91.1905 17.5128 1597 107.092 393.055 449.364
1114 0 93.3602 19.398 1811 102.207 394.637 449.331
1115 0 94.174 19.5277 1839 102.049 395.336 449.083
1116 0 95.3702 19.461 1856 100.121 397.632 445.621
1117 0 95.2721 20.0793 1913 93.2462 399 443.886
1118 0 96.4813 18.6979 1804 95.1508 400.141 447.979
1119 0 96.4053 17.748 1711 96.8808 401.756 449.311
1120 0 93.4116 15.8974 1485 101.655 402.489 451.148
1121 0 91.2077 16.3802 1494 102.503 403.446 452.09
1122 0 93.3862 16.0516 1499 102.141 402.892 454.191
1123 1 47.1557 12.9359 610 97.9492 403.867 478.6
1124 0 45.1476 12.1823 550 101.94 402.789 477.876
1125 0 47.2244 11.4771 542 99.4871 401.589 480.747
1126 0 47.2573 12.4637 589 100.382 399.042 479.088
1127 0 47.3566 12.6065 597 101.305 397.101 477.678
1128 0 48.0753 13.6037 654 97.8853 394.424 479.826
1129 0 49.1069 13.9695 686 103.58 391.964 480.255
1130 0 48.0543 14.109 678 99.8156 389.634 479.134
1131 0 50.0684 14.2205 712 99.0211 387.083 477.968
1132 0 49.0368 14.8256 727 98.8473 384.204 478.073
1133 0 49.05 14.475 710 100.221 383.125 475.617
1134 0 48.0421 13.1551 632 100.119 381.32 476.946
1135 0 50.0436 15.1668 759 95.1094 379.235 475.065
1136 0 50.0747 14.7979 741 94.9865 378.54 473.884
1137 0 49.0552 14.5754 715 94.4126 378.041 471.344
1138 0 51.1168 14.3593 734 93.703 379.119 470.001
1139 0 50.0268 15.4917 775 92.6555 379.479 468.471
1140 0 49.0087 14.426 707 95.3522 382.076 469.315
1141 0 51.1233 15.9223 814 91.9595 385.506 467.845
1142 0 49.0928 13.0365 640 98.55 386.7 468.511
1143 0 49.173 12.9949 639 99.3897 389.009 468.058
1144 0 50.0893 13.6357 683 98.6413 391.643 464.908
1145 0 50.0913 14.753 739 95.0717 393.509 468.853
