time division length width area intensity CMx CMy
0 0 44.1539 13.8153 610 124.372 570.588 505.22
1 0 46.1091 14.2922 659 122.484 569.326 503.643
2 0 47.3517 13.8327 655 126.037 566.914 500.65
3 0 49.2361 14.8062 729 122.52 567.608 498.56
4 0 49.1964 13.7409 676 126.01 567.359 498.223
5 0 53.3018 14.765 787 120.661 568.357 495.802
6 0 50.1595 13.8757 696 128.105 569.004 495.48
7 0 54.2442 16.352 887 124.68 570.242 491.665
8 0 56.2152 15.1027 849 128.145 570.779 489.628
9 0 57.2133 15.9229 911 129.24 573.065 487.931
10 0 57.4176 15.6224 897 131.695 573.718 485.156
11 0 59.3175 15.594 925 125.514 575.642 487.603
12 0 59.1637 14.9585 885 128.102 577.659 484.385
13 0 63.2682 15.4738 979 125.504 579.548 482.402
14 0 64.2408 15.6598 1006 125.279 581.129 483.612
15 0 67.3795 14.6335 986 128.495 583.309 480.878
16 1 34.0695 10.1851 347 132.516 586.265 498.801
17 0 34.3698 11.6381 400 135.6 588.535 497.655
18 0 36.1324 12.6479 457 133.276 589.851 497.665
19 0 39.1729 13.8361 542 131.282 591.852 496.124
20 0 41.1743 13.5036 556 130.824 592.104 495.696
21 0 45.2754 12.9872 588 130.175 592.429 495.753
22 0 45.2218 14.7053 665 125.486 592.232 495.487
23 0 47.1148 15.3243 722 120.794 592.015 497.729
24 0 48.1063 15.05 724 122.499 591.512 496.87
25 0 48.1063 15.1539 729 160.54 590.547 496.929
26 0 51.044 14.7324 752 121.044 587.351 493.987
27 0 53.0731 15.733 835 117.275 584.59 490.097
28 0 52.1845 15.1769 792 120.795 581.883 489.745
29 0 57.0766 15.5756 889 116.524 579.694 489.389
30 0 58.1232 15.0886 877 121.986 578.233 489.255
31 0 60.1269 16.3321 982 119.12 576.404 485.997
32 0 62.0813 16.5589 1028 118.125 575.692 485.124
33 0 65.1115 16.5562 1078 116.494 574.462 481.077
34 0 67.1 15.6334 1049 118.419 574.5 480.141
35 0 70.1003 17.5463 1230 115.996 574.347 476.421
36 0 73.1762 17.3554 1270 115.669 574.76 474.594
37 0 75.2209 16.8437 1267 117.138 576.338 474.252
38 0 78.0774 16.996 1327 117.466 577.566 469.255
39 0 81.071 15.8256 1283 118.769 578.391 468.458
40 0 83.0772 16.2138 1347 119.578 579.768 466.773
41 0 86.177 15.9323 1373 120.136 580.859 464.881
42 1 44.0774 12.9999 573 121.286 583.953 484.178
43 0 46.1152 12.5772 580 121.717 585.474 483.486
44 0 48.11 12.3259 593 121.779 587.941 483.03
45 0 50.1216 13.4672 675 118.753 590.282 477.901
46 0 52.0956 14.8381 773 113.735 592.77 480.069
47 0 51.1556 14.3093 732 114.072 594.609 481.369
48 0 54.1469 14.239 771 113.326 596.102 480.17
49 0 56.0445 14.4885 812 112.995 598.063 480.92
50 0 59.1158 14.0741 832 112.85 598.672 480.023
51 0 60.0951 13.8281 831 113.36 599.502 479.788
52 0 63.1665 14.343 906 110.211 600.794 481.971
53 0 65.212 14.8899 971 109.756 601.335 480.34
54 0 68.1343 16.0125 1091 106.694 602.135 481.555
55 0 70.1263 15.4863 1086 106.718 601.767 481.575
56 0 71.2033 14.8729 1059 107.11 600.455 480.76
57 0 74.1355 15.5661 1154 103.823 599.371 482.135
58 0 78.2329 15.6328 1223 105.509 598.289 478.363
59 0 81.274 14.4327 1173 107.767 596.39 476.902
60 0 81.1277 14.8655 1206 109.873 593.409 474.588
61 0 86.1474 14.9859 1291 110.102 590.923 470.46
62 1 48.0871 10.4394 502 113.88 589.998 492.715
63 0 52.0359 11.5305 600 112.085 587.432 489.233
64 0 52.14 12.3514 644 111.579 585.728 486.377
65 0 53.0503 14.0621 746 109.712 583.503 483.709
66 0 53.1437 12.6261 671 114.106 582.9 480.882
67 0 57.0707 13.4044 765 110.417 581.692 481.135
68 0 59.0704 13.7125 810 110.615 580.416 476.272
69 0 58.0744 13.741 798 113.811 580.955 474.366
70 0 63.0496 14.4331 910 112.62 584.221 472.155
71 0 66.0402 14.4306 953 112.345 585.221 470.71
72 0 69.0787 15.562 1075 109.615 587.183 468.783
73 0 69.1108 14.9326 1032 107.199 588.339 469.813
74 0 73.1114 15.0866 1103 107.236 588.594 467.158
75 0 78.21 15.6374 1223 104.454 590.67 467.643
76 0 78.1162 14.056 1098 108.474 592.28 462.133
77 0 83.2217 15.7171 1308 104.394 594.19 460.856
78 0 83.2186 15.6455 1302 151.015 596.199 460.791
79 0 88.1215 15.5013 1366 105.186 598.228 458.159
80 0 91.3204 14.4327 1318 107.341 599.791 456.084
81 0 96.193 15.3234 1474 103.879 602.002 456.921
82 0 99.1584 16.751 1661 100.621 603.412 456.417
83 1 51.1544 10.3217 528 109.633 605.271 481.496
84 0 52.079 11.809 615 106.333 606.667 480.719
85 0 55.1229 12.1728 671 105.11 606.735 481.1
86 0 56.5085 11.6797 660 112.008 606.585 479.394
87 0 59.4352 12.5683 747 105.07 608.264 478.763
88 0 62.3767 14.1559 883 103.002 608.086 477.487
89 0 64.3356 13.1809 848 107.79 608.795 481.246
90 0 66.2323 15.3248 1015 103.387 605.854 478.753
91 0 67.2596 12.3105 828 110.105 604.771 478.813
92 0 71.2831 14.1548 1009 105.309 603.808 478.769
93 0 73.3655 13.1533 965 107.087 601.65 476.594
94 0 74.5631 13.1566 981 110.422 598.275 475.114
95 0 77.4601 13.2713 1028 109.48 595.949 473.251
96 0 80.4595 13.4602 1083 108.644 592.814 471.745
97 0 82.482 13.2877 1096 109.543 589.662 465.883
98 0 86.3828 14.6904 1269 103.8 588.704 467.159
99 0 87.6066 13.9487 1222 105.91 586.472 460.459
100 0 90.4789 13.4064 1213 105.125 584.832 454.683
101 1 47.143 9.29088 438 102.589 586.612 479.856
102 0 51.1677 10.6708 546 100.295 586.811 476
103 0 53.1576 11.0426 587 104.441 588.031 472.549
104 0 55.1326 13.3678 737 97.4545 588.801 472.718
105 0 58.3087 12.8111 747 97.3025 590.327 473.503
106 0 56.2401 12.2866 691 98.9696 591.922 472.187
107 0 60.3109 13.0822 789 98.1483 593.106 470.186
108 0 63.3054 13.8061 874 94.5492 594.943 472.199
109 0 64.3259 13.4627 866 95.8995 597.166 469.902
110 0 66.2947 13.7266 910 94.8648 599.048 468.608
111 0 68.4489 12.7248 871 96.2457 600.35 467.118
112 0 69.2187 12.6989 879 96.0284 602.778 467.324
113 0 72.3482 12.9789 939 96.2748 604.407 464.661
114 1 40.0362 12.2639 491 94.7271 607.87 481.623
115 0 43.1167 10.1817 439 96.3554 609.426 481.943
116 0 43.0273 10.9698 472 96.608 610.86 482.273
117 0 44.1034 11.1783 493 95.9797 612.26 482.373
118 0 44.1319 12.5306 553 96.6781 612.143 482.591
119 0 48.0772 12.9167 621 93.8116 613.164 482.984
120 0 47.0281 12.5244 589 96.0424 613.786 484.08
121 0 49.076 13.1021 643 95.0451 613.243 486.151
122 0 53.0849 14.6181 776 91.0052 612.544 485.67
123 0 52.023 11.6679 607 97.7743 612.855 484.096
124 0 53.2273 14.5226 773 94.3622 611.291 483.987
125 0 54.036 13.1579 711 96.4037 609.824 483.27
126 0 56.0413 13.0261 730 96.5329 607.837 483.642
127 0 69.4796 21.733 1510 57.6497 605.983 490.47
128 0 59.0853 13.2182 781 96.2689 602.539 480.225
129 0 59.04 13.0589 771 96.6939 599.342 480
130 0 61.1032 13.2399 809 96.665 597.284 478.915
131 0 63.0814 12.5077 789 98.8859 595.949 475.11
132 0 63.1063 12.8355 810 98.4444 592.549 472.146
133 0 66.2862 13.2305 877 99.1779 591.304 472.331
134 0 70.1154 13.6774 959 97.3785 589.728 467.983
135 0 72.1332 14.1544 1021 96.2615 589.591 467.4
136 0 73.6381 15.0601 1109 96.1316 589.443 463.619
137 0 75.4262 14.3584 1083 98.1311 589.745 461.591
138 1 42.0054 8.66554 364 100.401 593.437 480.327
139 0 45.1384 11.5644 522 98.1073 594.241 479.582
140 0 41.1822 9.59151 395 101.825 595.408 479.997
141 0 46.1354 11.8998 549 97.7268 596.712 476.175
142 0 47.0964 10.5953 499 97.3447 599.882 476.351
143 0 47.2865 11.2929 534 97.8371 600.021 474.625
144 0 51.185 12.6209 646 94.9458 601.175 474.059
145 0 49.2901 11.97 590 95.7288 604.878 472.286
146 0 53.0866 13.7511 730 61.8877 602.736 472.46
147 0 54.1399 12.8556 696 91.6609 604.296 472.162
148 0 52.0842 10.579 551 97.3702 605.348 474.94
149 0 57.2826 12.5693 720 93.8639 607.243 473.219
150 0 57.1268 12.7611 729 93.6571 608.645 472.859
151 0 61.1773 12.57 769 93.1053 609.49 473.724
152 0 63.1635 12.6655 800 93.0412 610.5 473.452
153 0 65.2586 13.1324 857 91.0152 611.244 475.918
154 0 66.3503 13.7754 914 90.6346 611.042 475.17
155 0 67.2884 12.9294 870 92.9621 611.821 476.11
156 0 69.1648 14.0389 971 91.9238 611.216 474.633
157 0 72.2738 13.3243 963 93.1267 609.742 474.113
158 0 74.2921 11.8317 879 95.4949 608.98 475.545
159 0 78.2066 13.4388 1051 93.4272 606.35 472.064
160 0 79.4982 14.4909 1152 95.2396 604.719 471.294
161 1 42.4457 11.0494 469 102.783 601.567 486.731
162 0 43.3177 12.0274 521 100.689 599.987 485.576
163 0 44.2629 12.1547 538 99.6822 596.768 484.671
164 0 46.3301 11.4828 532 101.374 594.758 483.581
165 0 46.1302 13.2885 613 99.6819 592.365 481.701
166 0 49.179 14.5184 714 95.5238 591.672 481.493
167 0 51.4159 14.6453 753 95.6494 591.278 479.22
168 0 50.2615 12.3753 622 102.77 590.746 476.875
169 0 52.3949 15.6885 822 95.5462 588.97 475.263
170 0 53.2742 15.5047 826 96.1562 590.53 472.59
171 0 50.0727 11.663 584 103.904 590.884 473.418
172 0 56.2711 13.8437 779 95.9499 593.063 472.696
173 0 55.2182 13.8541 765 98.417 594.681 469.902
174 0 56.352 13.2737 748 98.619 595.422 470.241
175 0 60.2103 14.2002 855 95.5637 598.026 468.855
176 0 61.2368 14.0112 858 96.8415 599.513 468.422
177 0 61.2368 14.0928 863 145.134 600.524 468.473
178 0 66.1099 14.0675 930 97.4075 602.496 469.296
179 0 66.1391 13.6077 900 101.704 604.328 465.016
180 0 69.1529 14.6342 1012 100.94 606.108 462.26
181 0 73.1766 14.4855 1060 99.8792 606.279 463.28
182 0 74.2505 13.7912 1024 101.673 608.341 463.667
183 1 41.0855 10.1982 419 106.422 609.2 480.761
184 0 45.0604 10.608 478 102.222 611.889 483.155
185 0 45.0454 11.9435 538 104.654 612.052 480.591
186 0 47.1317 11.1178 524 102.996 613.55 484.183
187 0 48.1601 12.936 623 103.512 615.093 481.092
188 0 49.3686 14.4221 712 96.8975 615.785 482.84
189 0 52.2563 14.3715 751 95.032 614.2 483.583
190 0 51.191 13.8696 710 101.145 611.676 482.758
191 0 52.3134 13.4 701 102.405 611.048 482.555
192 0 55.2152 14.2352 786 100.625 608.518 482.386
193 0 54.1818 13.6208 738 104.152 605.392 480.462
194 0 58.1923 14.7614 859 100.823 602.955 478.973
195 0 60.057 14.6527 880 99.7136 600.231 478.202
196 0 62.0858 14.5766 905 100.927 597.559 475.596
197 0 65.0854 15.134 985 99.464 594.847 473.152
198 0 67.1183 15.0779 1012 94.9822 592.514 469.592
199 0 68.062 13.1939 898 99.1759 590.841 468.915
200 0 72.0709 14.9991 1081 95.1998 589.634 467.326
201 0 73.1175 14.1963 1038 97.447 588.833 465.201
202 0 76.1121 13.5984 1035 97.8087 588.998 462.893
203 1 43.0247 10.7613 463 100.451 588.212 477.644
204 0 43.0316 10.1321 436 103.179 589.034 477.576
205 0 44.0207 10.7904 475 102.32 590.187 474.48
206 0 46.0813 10.6117 489 102.963 592.661 475.344
207 0 50.022 13.3341 667 98.7421 592.555 472.048
208 0 51.0463 14.1048 720 96.9986 594.628 468.601
209 0 51.1081 14.0095 716 95.5559 598.642 471.719
210 0 51.0661 14.726 752 94.6543 601.548 468.048
211 0 54.0785 13.9797 756 95.3783 603.54 469.741
212 0 60.325 15.2176 918 93.8105 607.927 468.258
213 0 60.2895 14.8782 897 96.8763 609.708 466.416
214 0 62.2158 14.1925 883 98.7327 610.969 464.74
215 0 65.2596 14.0362 916 100.336 612.329 467.953
216 0 67.3407 14.5974 983 98.6307 613.734 466.118
217 0 70.2259 15.564 1093 95.2736 614.466 468.814
218 0 73.1398 15.4225 1128 97.1977 615.588 468.46
219 0 76.1829 15.7253 1198 95.1094 615.755 467.727
220 0 79.1948 16.7435 1326 94.4472 616.064 466.985
221 0 81.2522 15.2611 1240 97.6589 615.96 467.536
222 0 82.1655 14.9698 1230 104.092 614.406 466.783
223 1 40.0992 10.9478 439 107.51 613.989 489.592
224 0 45.0365 11.0799 499 109.066 613.323 485.206
225 0 55.4452 10.9117 605 102.453 610.423 486.365
226 0 48.0888 13.4335 646 103.797 607.529 484.226
227 0 51.0811 12.9989 664 103.128 604.938 482.387
228 0 50.0444 14.0076 701 99.5136 601.976 480.11
229 0 55.0744 14.4713 797 99.8218 598.76 481.979
230 0 53.1082 14.2539 757 103.125 595.857 478.746
231 0 57.0788 16.3633 934 98.2056 593.128 475.927
232 0 59.094 16.2622 961 98.1301 591.359 476.301
233 0 60.1117 14.523 873 101.66 591.28 473.647
234 0 61.0985 14.7303 900 102.65 589.941 467.556
235 0 66.1523 13.8922 919 101.782 589.687 467.614
236 0 67.1309 16.2518 1091 98.2686 591.388 464.126
237 0 70.093 15.3082 1073 99.397 593.302 463.445
238 0 71.0732 15.9272 1132 99.735 593.035 460.318
239 0 73.0784 15.4355 1128 100.093 594.902 459.307
240 0 76.059 15.1724 1154 101.2 597.549 457.113
241 0 79.1415 14.7205 1165 101.517 598.786 456.166
242 0 81.1289 15.9006 1290 100.388 600.545 451.407
243 0 85.0931 15.4419 1314 101.03 601.9 452.661
244 1 45.0186 11.0177 496 100.153 603.794 474.579
245 0 43.0328 9.89942 426 105.779 605.129 472.96
246 0 48.0403 11.4071 548 101.266 605.538 472.427
247 0 49.1683 11.2878 555 99.8991 608.141 474.074
248 0 52.07 11.2157 584 99.9829 609.188 472.673
249 0 51.0458 12.8512 656 100.03 611.505 471.788
250 0 53.2204 13.1904 702 95.5912 613.474 470.132
251 0 54.2469 12.4615 676 99.0207 613.642 471.76
252 0 56.1824 13.4206 754 104.93 617.102 472.95
253 0 60.2252 15.1432 912 99.0077 617.038 474.885
254 0 61.2691 16.044 983 97.6226 618.55 473.45
255 0 62.4552 14.0261 876 103.152 617.452 472.307
256 0 65.3944 14.8789 973 99.5992 617.424 476.76
257 0 66.2936 14.8431 984 101.66 616.166 474.575
258 0 69.4747 13.5877 944 103.452 614.858 474.781
259 0 70.3541 16.687 1174 97.7232 611.532 472.912
260 0 73.3387 14.2081 1042 102.544 610.128 472.242
261 0 75.367 14.582 1099 100.366 607.859 471.081
262 0 78.2623 15.3331 1200 99.9083 604.412 470.19
263 0 80.3241 15.3877 1236 102.01 600.706 464.608
264 1 43.0674 10.7738 464 102.08 599.685 483.164
265 0 45.0324 12.0136 541 99.695 597.882 481.673
266 0 46.0114 10.4539 481 100.457 597.222 481.981
267 0 48.1292 12.0717 581 100.017 594.639 478.203
268 0 49.0565 13.0869 642 99.6916 594.718 474.472
269 0 51.0768 13.8028 705 97.2227 594.145 473.521
270 0 49.2452 12.2042 601 96.7953 593.641 465.072
271 0 51.2058 13.1821 675 94.9526 595.19 467.951
272 0 52.3542 13.7525 720 95.5056 594.742 465.288
273 0 54.1462 13.0388 706 96.1516 597.023 466.05
274 0 55.2454 12.9604 716 93.6075 598.351 462.404
275 0 58.1618 12.4136 722 93.8241 599.868 464.752
276 0 60.2571 11.7497 708 94.572 601.888 463.811
277 0 66.087 14.8138 979 91.6813 601.973 465.004
278 0 66.0952 15.0389 994 91.2978 604.16 464.198
279 0 67.0552 13.7648 923 94.5731 605.569 463.035
280 0 70.0697 15.2705 1070 91.8804 606.515 464.567
281 0 73.0949 14.1597 1035 92.8686 607.71 462.358
282 0 74.1316 13.7189 1017 94.2822 610.61 462.711
283 0 78.0552 14.336 1119 93.1332 610.654 462.441
284 0 81.0486 14.7319 1194 91.9414 611.044 461.087
285 0 84.1037 13.8995 1169 94.6886 614.624 460.861
286 1 45.059 10.5861 477 96.9853 614.386 482.954
287 0 46.055 11.4428 527 95.0209 613.565 482.768
288 0 48.0499 11.4673 551 93.4773 614.198 482.425
289 0 49.0811 11.2059 550 94.7236 613.931 484.162
290 0 49.0811 11.1856 549 161.018 613.929 484.206
291 0 52.0655 14.3665 748 91.0735 612.459 481.279
292 0 54.0329 15.1019 816 88.1569 610.62 482.039
293 0 52.2293 13.6896 715 92.4434 610.915 483.759
294 0 56.1509 13.2322 743 92.502 608.209 483.211
295 0 57.1609 13.0334 745 151.515 606.227 483.383
296 0 58.1266 13.9695 812 93.548 600.325 478.143
297 0 60.2263 12.2538 738 97.3659 597.355 478.789
298 0 64.0766 15.1694 972 90.7274 595.816 477.591
299 0 64.2294 13.623 875 94.7486 594.326 472.873
300 0 67.0999 15.3204 1028 91.1877 592.158 471.508
301 0 68.1881 14.0347 957 94.3898 591.352 468.359
302 0 70.2196 13.7284 964 96.0228 590.932 465.35
303 0 72.219 13.7775 995 96.405 591.032 465.274
304 0 78.1638 14.2521 1114 95.0745 591.692 463.884
305 0 79.1879 15.5958 1235 93.1951 593.663 461.023
306 0 82.1516 14.3637 1180 95.3195 594.497 457.28
307 0 84.2002 13.0879 1102 99.1379 595.093 456.502
308 0 87.1173 14.7388 1284 94.5319 598.11 454.741
309 0 90.1143 14.8922 1342 93.8182 599.103 454.023
310 1 46.0824 11.8049 544 96.8732 601.649 475.099
311 0 49.0466 12.743 625 98.0144 602.699 471.614
312 0 51.0252 11.7785 601 97.7571 604.301 474.584
313 0 54.0506 13.9499 754 93.6764 606.202 473.202
314 0 53.0817 12.6032 669 96.1644 607.286 472.661
315 0 55.0806 13.3804 737 93.2415 608.125 472.212
316 0 55.0974 13.7393 757 92.605 609.716 471.194
317 0 58.1971 15.7396 916 88.4323 611.996 470.797
318 0 60.1606 14.4114 867 91.0046 613.618 473.864
319 0 62.1075 14.6198 908 90.7048 614.656 472.003
320 0 65.253 14.7733 964 90.7095 615.144 475.339
321 0 66.132 14.7281 974 88.4825 613.499 471.679
322 0 69.0472 14.7725 1020 88.8961 614.66 473.432
323 0 72.1846 14.546 1050 90.021 613.537 471.858
324 1 38.0111 11.9439 454 89.315 613.83 490.65
325 0 39.0287 13.2979 519 85.2601 612.407 491.432
326 0 42.0603 11.9353 502 88.259 610.944 487.984
327 0 41.0286 10.7242 440 91.0841 609.693 490.457
328 0 43.053 13.2163 569 89.6503 607.032 486.185
329 0 45.1997 13.4293 607 88.4563 606.946 482.901
330 0 44.0414 10.808 476 89.8592 602.24 483.708
331 0 47.1382 12.6012 594 82.6684 599.769 478.98
332 0 46.3736 12.3777 574 83.9808 596.652 475.138
333 0 53.1178 14.4961 770 84.2948 593.513 478.534
334 0 53.1547 13.1879 701 87.4864 591.449 475.489
335 0 52.0785 14.0749 733 88.7967 591.31 474.098
336 0 54.1882 13.3239 722 89.5942 591.474 470.943
337 0 57.1511 15.4678 884 85.9842 592.243 468.423
338 0 56.0461 13.4532 754 91.6592 593.436 467.267
339 0 59.1849 13.1114 776 92.4678 594.202 468.622
340 0 64.0375 14.8819 953 91.3494 599.384 464.3
341 0 64.0375 14.96 958 157.377 602.357 464.33
342 0 68.0857 13.9383 949 93.7302 602.54 461.478
343 0 68.0688 14.074 958 96.0344 604.359 459.76
344 0 71.036 13.3313 947 98.2386 605.486 459.354
345 1 39.0214 10.0201 391 100.921 606.803 475.437
346 0 43.0616 12.9814 559 96.0483 608.803 477.029
347 0 42.079 11.4071 480 100.417 609.688 476.631
348 0 44.1687 12.1126 535 97.9701 611.239 477.641
349 0 46.0565 11.4207 526 100.945 612.357 476.667
350 0 45.1096 11.3501 512 101.809 612.522 478.713
351 0 46.0715 12.307 567 100.483 612.12 476.148
352 0 47.0865 12.1691 573 102.335 613.45 475.571
353 0 51.0514 13.457 687 96.0102 613.435 476.207
354 0 52.1616 14.0333 732 94.377 614.474 475.878
355 0 54.0305 15.991 864 91.4792 617.289 479.414
356 0 54.0333 12.9365 699 99.4549 616.765 480.873
357 0 56.163 12.624 709 102.646 615.451 480.394
358 0 57.1018 13.4146 766 101.377 615.604 477.96
359 0 59.0786 14.0491 830 99.7398 613.306 478.942
360 0 58.0789 14.222 826 102.345 611.384 475.666
361 0 61.0634 13.3959 818 101.439 609.474 477.632
362 0 63.0487 13.9733 881 99.0284 606.905 474.893
363 0 65.1024 13.256 863 101.146 602.219 469.406
364 0 69.0938 14.4297 997 97.4373 598.31 470.132
365 0 72.0424 13.9918 1008 98.1062 596.405 469.098
366 0 74.149 13.2166 980 100.609 595.246 466.73
367 0 77.1936 13.4985 1042 99.5566 593.528 463.362
368 0 81.0357 14.7713 1197 96.2623 591.881 462.484
369 0 90.3188 15.1242 1366 92.011 591.9 460.407
370 0 86.1612 15.0184 1294 95.3431 592.698 456.271
371 0 88.261 13.8453 1222 98.7512 594.118 452.872
372 0 94.1765 14.4516 1361 96.5239 595.32 448.716
373 1 51.0633 10.6926 546 94.7637 596.163 471.877
374 0 49.0609 9.92643 487 94.2998 597.604 472.85
375 0 53.0259 11.8244 627 91.378 601.188 472.132
376 0 54.0712 9.89437 535 94.5084 602.811 467.265
377 0 55.15 10.9882 606 92.3251 605.243 468.731
378 0 58.2348 13.5314 788 92.5305 607.34 466.034
379 0 58.2684 13.1461 766 92.7115 609.436 465.441
380 0 57.3079 12.1624 697 96.3185 609.647 465.99
381 0 60.2256 11.7226 706 96.1841 611.972 466.17
382 0 64.3254 12.9031 830 93.5952 612.494 467.418
383 0 65.3062 12.5869 822 94.2518 614.026 465.97
384 0 66.4351 13.1105 871 92.1091 614.634 469.637
385 0 68.365 12.5942 861 94.7619 616.031 466.919
386 0 70.3115 13.0846 920 94.9641 617.209 466.416
387 0 74.5225 13.2041 984 94.1484 617.268 468.149
388 0 77.3683 14.4116 1115 91.5229 617.688 466.738
389 0 81.4222 14.6643 1194 89.9364 616.721 469.626
390 0 82.6559 14.5664 1204 92.5955 616.633 468.199
391 1 44.0499 10.5108 463 87.892 613.628 486.533
392 0 45.113 9.39862 424 89.7807 613.547 487.578
393 0 48.2747 9.52881 460 87.587 611.248 484.922
394 0 51.2381 11.9637 613 86.9641 608.809 482.984
395 0 53.271 12.2581 653 86.6401 606.19 479.818
396 0 56.2542 11.9636 673 86.4785 603.605 479.47
397 0 57.1027 13.572 775 84.4258 603.315 480.067
398 0 58.2783 13.3497 778 89.9254 597.625 478.947
399 0 59.1539 12.6281 747 91.83 595.001 475.554
400 0 61.146 12.0368 736 93.2215 594.246 472.535
401 0 63.1497 13.1909 833 91.5774 592.149 472.808
402 0 65.1714 12.8584 838 92.9738 591.672 468.319
403 0 68.2369 12.8962 880 91.9045 590.944 467.869
404 0 72.1901 14.6835 1060 89.184 592.095 464.391
405 0 73.334 12.7771 937 94.2743 593.461 461.83
406 1 40.106 10.1481 407 94.9681 593.794 478.686
407 0 42.2059 9.38256 396 96.4141 596.498 477.404
408 0 43.2063 11.827 511 94.5323 598.115 477.207
409 0 43.1916 11.4606 495 96.6 600.087 475.489
410 0 44.1303 12.1005 534 96.6891 602.322 473.479
411 0 44.2465 11.1421 493 100.032 604.471 472.178
412 0 46.1111 12.5566 579 87.6995 608.102 474.052
413 0 46.0698 10.636 490 91.7041 610.741 475.392
414 0 47.0645 10.7724 507 91.9093 610.633 476.852
415 0 49.0351 11.298 554 91.5289 611.839 474.82
416 0 49.1669 11.0033 541 92.0998 613.229 474.445
417 0 53.084 12.2824 652 90.7653 614.406 473.794
418 0 53.0329 11.54 612 91.6618 614.224 475.028
419 0 54.11 12.7148 688 88.9956 615.613 477.141
420 0 54.078 11.0026 595 91.963 615.827 476.165
421 0 56.1308 10.6181 596 93.6846 616.047 477.279
422 0 59.1552 11.5797 685 91.162 615.162 475.758
423 0 62.3128 14.4593 901 95.9156 616.784 473.952
424 0 64.2803 13.9701 898 95.4076 616.048 475.379
425 0 65.45 14.4385 945 95.4286 614.005 473.672
426 0 64.1223 13.1779 845 99.671 612.961 472.008
427 0 68.4109 13.4628 921 98.2334 611.276 473.684
428 0 71.344 14.6053 1042 94.5336 608.372 472.485
429 0 73.1869 12.5569 919 98.8161 604.52 468.194
430 0 75.1911 11.2247 844 101.434 603.352 469.653
431 0 77.312 12.6371 977 99.13 599.956 468.086
432 1 46.3902 11.7482 545 99.4459 596.598 482.283
433 0 47.2129 10.7598 508 103.018 595.567 480.732
434 0 49.2431 13.1998 650 98.48 593.074 478.623
435 0 51.9736 13.0451 678 98.8982 593.789 474.137
436 0 52.2876 14.5541 761 97.3114 592.622 471.127
437 0 53.3002 14.5215 774 98.8682 592.473 470.333
438 0 55.2615 14.8747 822 97.6326 592.961 470.251
439 0 57.2898 14.1736 812 99.7266 594.889 468.366
440 0 56.3542 13.8588 781 100.809 596.88 467.503
441 0 59.2883 14.1849 841 101.924 598.178 464.35
442 0 61.3946 13.8123 848 102.757 600.001 465.009
443 0 63.3122 14.2942 905 102.001 603.429 464.767
444 0 66.3074 14.6288 970 100.433 603.935 464.122
445 0 68.4131 13.8862 950 101.075 605.698 464.477
446 0 69.3714 13.9683 969 101.786 607.044 461.442
447 1 40.0598 9.93514 398 103.196 609.005 477.724
448 0 37.1009 9.272 344 104.901 609.349 478.017
449 0 39.0855 9.59436 375 101.856 611.269 482.011
450 0 40.1183 10.6684 428 98.6706 611.822 481.056
451 0 43.1236 11.5482 498 96.988 612.466 481.283
452 0 44.154 11.4825 507 98.4438 613.507 483.203
453 0 45.0748 12.5791 567 97.4709 614.074 480.628
454 0 44.6953 13.2452 592 97.1233 617.642 477.221
455 0 49.1248 13.2113 649 96.9599 614.995 481.094
456 0 49.0897 13.4448 660 98.1652 614.561 482.024
457 0 49.1406 12.9628 637 100.163 614.388 482.237
458 0 52.0507 13.2563 690 97.5087 613.854 481.048
459 0 56.1179 12.5807 706 96.2875 612.739 481.195
460 0 52.1696 13.5903 709 98.7489 611.779 482.134
461 0 57.1606 13.5758 776 96.5451 608.244 481.013
462 0 57.1831 13.6579 781 98.0973 606.398 478.279
463 0 59.1636 13.1331 777 98.435 603.012 478.26
464 0 61.1499 14.9959 917 95.5616 599.479 475.419
465 0 62.0838 13.659 848 98.3715 597.106 474.8
466 0 64.0868 14.0435 900 97.5267 594.474 474.963
467 0 65.1635 13.658 890 99 592.408 469.785
468 0 68.1312 14.7509 1005 97.3363 591.256 469.71
469 0 71.1496 14.0268 998 98.3818 591.008 466.59
470 0 71.0805 14.7157 1046 98.8623 590.194 460.114
471 0 74.0583 14.8262 1098 97.2076 591.76 463.28
472 0 75.1149 13.8987 1044 101.631 593.812 459.755
473 0 79.1438 15.2002 1203 98.7814 594.978 457.651
474 0 83.1605 14.8147 1232 100.606 596.731 456.493
475 0 84.2164 15.0565 1268 102.076 597.607 451.718
476 0 87.1675 14.0878 1228 104.081 600.581 452.726
477 0 88.2196 13.9538 1231 106.102 603.364 450.403
478 0 92.1384 14.7278 1357 104.701 604.735 450.062
479 0 95.1329 14.3378 1364 106.353 605.768 448.048
480 0 99.144 14.6857 1456 105.343 607.711 447.741
481 0 103.173 15.6339 1613 105.11 609.539 447.047
482 0 104.281 16.2542 1695 104.942 612.229 445.624
483 0 107.447 15.0586 1618 108.559 613.422 443.786
484 0 110.348 15.9948 1765 106.752 614.424 442.73
485 0 113.234 14.8188 1678 109.325 615.888 445.922
486 0 115.41 15.042 1736 108.783 617.238 443.735
487 0 116.436 15.5709 1813 165.161 618.109 441.111
488 0 123.453 15.0665 1860 107.63 616.905 441.432
489 0 128.422 15.3556 1972 106.271 617.985 441.752
490 0 134.35 16.4645 2212 105.473 618.136 439.81
491 1 70.1626 14.0103 983 103.235 616.802 471.186
492 0 72.2159 13.5289 977 101.504 614.175 466.955
493 0 74.43 13.0727 973 99.6321 615.319 470.227
494 0 78.3835 14.378 1127 96.614 614.416 469.578
495 0 80.2953 15.1939 1220 96.0221 611.524 464.89
496 0 83.4754 13.2494 1106 99.0859 609.303 464.694
497 0 85.345 14.5293 1240 98.4314 605.831 461.776
498 0 88.4773 13.4837 1193 101.054 602.028 459.497
499 1 50.201 12.0914 607 99.6689 601.517 479.199
500 0 51.2662 11.255 577 103.213 600.492 475.575
501 0 53.1183 10.2413 544 103.776 597.958 474.274
502 0 56.1916 11.4608 644 99.6972 597.093 473.632
503 0 54.054 10.73 580 105.343 596.755 469.041
504 0 57.3483 12.2061 700 104.03 593.973 460.671
505 0 59.3628 13.6618 811 99.8607 596.021 461.49
506 0 63.1117 14.3555 906 97.9238 600.07 466.348
507 0 63.1066 12.5977 795 97.1019 597.722 461.746
508 0 64.3022 12.519 805 95.3317 602.621 462.445
509 0 67.2488 13.5318 910 92.1681 604.584 462.562
510 0 69.3354 14.2352 987 91.613 606.211 460.439
511 0 72.3291 13.1206 949 92.2792 609.407 459.925
512 0 75.2509 13.3022 1001 90.4456 610.202 457.782
513 0 77.2894 13.443 1039 89.3253 611.188 459.265
514 0 79.2348 12.9489 1026 90.4717 613.796 459.066
515 0 81.3212 13.4897 1097 91.1449 614.226 455.447
516 1 43.0698 10.4017 448 88.9129 617.174 478.431
517 0 45.0265 8.19517 369 90.6748 618.721 480.911
518 0 48.0542 13.1726 633 87.0885 618.523 476.891
519 0 46.1409 12.05 556 89.0737 619.504 478.397
520 0 53.0963 12.3549 656 86.7302 621.046 474.799
521 0 51.051 12.6932 648 84.9784 620.264 477.725
522 0 52.2571 11.2138 586 87.058 619.947 478.522
523 0 53.2146 12.6093 671 83.8256 619.168 475.303
524 0 54.0788 12.4818 675 85.3348 617.03 476.591
525 0 54.1314 13.0054 704 88.571 615.247 477.216
526 0 53.1585 11.588 616 90.7256 614.888 479.76
527 0 58.2459 14.5418 847 85.6907 614.398 478.819
528 0 59.2103 13.3423 790 87.724 611.39 475.187
529 0 61.1426 13.5258 827 88.4075 608.14 474.698
530 0 65.0607 13.0032 846 88.565 604.454 473.803
531 0 65.1764 14.9594 975 85.8738 602.156 471.298
532 0 68.2465 13.5831 927 89.9612 599.709 469.214
533 0 68.2465 13.6417 931 150.019 597.739 469.288
534 0 73.1136 16.6453 1217 85.8472 594.857 464.365
535 0 74.3708 13.1503 978 92.4867 594.991 463.179
536 0 77.2561 13.8889 1073 91.9646 593.598 461.055
537 0 81.3282 14.4722 1177 91.2846 594.54 457.068
538 1 44.0779 12.7048 560 94.1607 594.973 472.843
539 0 43.1135 10.5303 454 99.7401 596.198 474.866
540 0 47.2672 12.9688 613 94.0914 597.794 473.705
541 0 49.2167 12.1097 596 96.9446 599.46 472.079
542 0 50.092 13.5151 677 97.0295 600.075 467.638
543 0 53.0753 12.5859 668 96.5748 602.027 470.981
544 0 53.3409 14.323 764 92.9568 607.767 464.132
545 0 54.3439 15.2731 830 90.3048 609.675 463.333
546 0 56.2862 14.1775 798 89.2243 611.51 466.885
547 0 55.1022 12.0322 663 93.7542 613.775 469.792
548 0 57.092 14.3102 817 90.7956 614.786 468.118
549 0 60.1564 14.6784 883 88.9479 615.895 470.801
550 0 61.1908 13.94 853 91.9801 618.054 468.406
551 0 64.1212 14.0203 899 90.2202 618.912 469.259
552 0 63.2246 14.0135 886 93.2856 618.859 467.977
553 0 66.2071 13.0651 865 92.4902 620.117 471.36
554 0 69.155 13.9686 966 91.795 619.477 470.733
555 1 34.0144 10.7014 364 95.8242 621.033 486.981
556 0 36.1126 12.3503 446 90.4215 621.361 488.112
557 0 36.0815 10.9474 395 92.8127 621.225 490.79
558 0 39.0748 12.7704 499 90.8617 620.449 486.459
559 0 40.084 11.0768 444 92.1441 618.099 488.146
560 0 35.0746 11.1477 391 94.5038 617.701 489.609
561 0 43.1927 10.7889 466 92.3948 615.468 487.815
562 0 43.2092 12.2428 529 90.9943 613.176 487.786
563 0 45.1616 11.5585 522 94.1743 609.554 485.402
564 0 44.1847 12.7872 565 94.1558 606.271 481.352
565 0 44.1847 12.6967 561 150.988 603.283 481.444
566 0 46.1076 13.2516 611 91.1637 600.707 478.555
567 0 49.0844 15.2187 747 87.1727 599.175 476.312
568 0 50.0138 14.436 722 90.0097 594.055 474.512
569 0 52.0932 14.8388 773 89.3066 594.567 473.001
570 0 53.0804 14.2237 755 90.9722 593.608 470.609
571 0 55.0553 13.5137 744 91.8293 593.083 469.266
572 0 57.0173 16.0127 913 87.7032 595.048 465.289
573 0 60.0271 15.1098 907 89.2084 597.2 465.103
574 0 63.1557 15.4855 978 88.7699 598.554 464.414
575 0 65.0482 15.6653 1019 89.5545 600.003 461.174
576 0 67.0626 17.2227 1155 87.0104 602.633 460.901
577 0 68.2036 15.659 1068 91.9148 605.317 458.452
578 0 71.0618 15.6061 1109 92.1208 606.515 458.492
579 0 73.1049 15.4299 1128 93.852 608.32 459.537
580 0 75.123 15.6011 1172 93.6425 609.796 456.743
581 0 77.0796 16.0354 1236 93.4862 611.465 459.222
582 0 80.0582 16.6504 1333 93.7157 614.965 460.252
583 1 41.0583 11.0087 452 100.044 615.934 476.723
584 0 43.1755 14.1052 609 96.3218 616.765 475.854
585 0 45.1048 11.9943 541 100.116 617.861 476.773
586 0 48.1208 13.0297 627 97.4801 619.327 478.005
587 0 48.115 14.5277 699 97.1731 619.745 476.169
588 0 49.0631 13.4724 661 95.2572 618.678 479.286
589 0 50.081 14.6363 733 95.2647 617.621 480.776
590 0 49.1 14.1955 697 91.7202 618.317 482.509
591 0 53.0791 13.8284 734 92.8678 618.723 478.29
592 0 52.2312 14.2826 746 93.803 616.169 482.497
593 0 57.0952 16.9541 968 89.6922 615.955 480.612
594 0 57.1473 14.8913 851 93.7521 614.123 482.276
595 0 58.1106 15.2124 884 92.9559 612.772 478.21
596 0 62.0653 14.8392 921 95.1021 609.385 476.163
597 0 63.057 16.1917 1021 94.7218 606.87 472.474
598 0 63.0378 14.9434 942 98.655 603.942 471.541
599 0 66.0585 15.7739 1042 97.5969 600.558 470.379
600 0 69.0847 15.4882 1070 97.7533 598.472 469.237
601 0 71.1059 15.7652 1121 98.5638 596.38 465.632
602 0 75.1141 15.9091 1195 97.8251 594.813 462.988
603 0 78.0358 17.21 1343 95.9032 594.598 460.987
604 0 80.2794 16.7789 1347 97.8857 594.59 456.727
605 0 84.0778 16.568 1393 97.6834 594.34 454.487
606 1 46.1322 12.2041 563 103.863 596.609 471.842
607 0 46.3136 13.1063 607 103.115 600.142 471.119
608 0 49.4315 12.2189 604 103.709 600.452 468.3
609 0 50.1909 13.9468 700 94.0343 602.067 464.539
610 0 52.1693 12.7086 663 94.4736 604.172 461.937
611 0 51.1189 13.5762 694 90.9885 605.708 464.749
612 0 55.1491 15.449 852 86.5188 607.85 463.779
613 0 55.1491 15.4672 853 135.257 609.859 463.672
614 0 58.055 14.6585 851 88.3008 610.813 464.329
615 0 60.1592 14.3619 864 87.8218 612.509 462.803
616 0 62.1601 14.2213 884 88.4265 613.553 465.673
617 0 63.1233 13.4182 847 91.046 616.042 464.848
618 0 64.1027 14.5548 933 90.9668 616.582 463.371
619 0 66.1628 13.8446 916 90.464 617.547 466.284
620 0 69.211 13.8273 957 90.976 619.012 466.329
621 0 72.1442 14.5126 1047 90.3066 618.495 466.271
622 0 73.1022 16.3743 1197 87.0961 618.041 464.87
623 0 77.1939 15.9339 1230 88.1065 618.574 467.077
624 0 78.3459 15.0104 1176 90.6981 618.604 466.268
625 0 80.227 15.3315 1230 92.6496 617.885 465.47
626 0 81.1305 15.4319 1252 92.3498 616.483 465.582
627 0 86.1848 15.8845 1369 93.9452 615.457 468.058
628 0 90.2611 17.2167 1554 92.6628 613.568 469.75
629 0 93.2628 17.8313 1663 91.6747 611.296 465.841
630 0 94.3655 16.9342 1598 96.1471 607.519 462.76
631 0 99.192 17.9652 1782 95.0022 605.128 460.671
632 0 102.226 17.3438 1773 97.9301 602.109 457.5
633 0 105.355 16.5915 1748 99.9554 600.288 456.023
634 1 55.1118 12.7196 701 103.15 598.852 476.284
635 0 58.0521 14.4353 838 100.81 597.125 473.654
636 0 61.3766 14.077 864 101.269 596.428 469.287
637 0 64.2569 14.8311 953 97.3683 594.518 462.027
638 0 68.1598 14.4807 987 93.3364 592.974 462.516
639 0 69.0578 13.8724 958 95.4207 593.276 463.081
640 0 73.0734 15.5871 1139 92.8507 595.23 458.464
641 0 75.1069 14.7257 1106 93.2911 596.928 456.864
642 0 78.1926 15.2444 1192 92.3565 600.164 456.105
643 0 82.1564 15.008 1233 94.0114 602.607 452.397
644 0 85.2251 15.9577 1360 92.525 604.07 449.76
645 0 87.1063 14.798 1289 95.8076 607.839 449.74
646 1 48.0346 12.4702 599 95.3606 609.504 470.82
647 0 49.1745 12.4048 610 92.9459 611.59 469.887
648 0 52.0797 11.3672 592 95.723 613.708 468.998
649 0 52.1001 12.8598 670 94.5597 613.773 469.621
650 0 56.0781 14.6225 820 92.0329 613.966 467.096
651 0 60.3867 14.7052 888 89.786 616.39 468.254
652 0 60.4015 13.2944 803 94.0037 616.961 470.941
653 0 61.1799 15.2828 935 92.046 616.638 469.168
654 0 65.2209 14.2899 932 91.6685 617.998 471.578
655 0 66.3122 15.427 1023 90.7859 618.134 471.793
656 0 68.2237 14.4085 983 92.3276 618.532 469.872
657 0 70.379 15.3029 1077 90.8932 619.727 471.992
658 0 71.4567 15.156 1083 92.5189 618.591 471.625
659 0 72.3437 13.9473 1009 96.0159 617.615 470.623
660 0 75.2761 15.1974 1144 94.1005 616.895 469.475
661 0 78.206 15.6638 1225 94.32 615.451 468.877
662 0 80.2198 14.8592 1192 98.7701 613.669 467.73
663 0 84.292 16.2056 1366 98.2321 610.042 466.742
664 1 39.0375 10.1441 396 101.755 609.187 486.013
665 0 46.2898 10.1102 468 102.368 605.282 482.248
666 0 50.2096 10.9939 552 100.826 602.328 481.098
667 0 48.3375 13.1368 635 97.726 600.973 479.805
668 0 52.6003 11.9011 626 101.308 597.995 475.973
669 0 53.3466 13.5904 725 98.9931 596.68 474.204
670 0 54.7252 13.1201 718 100.836 594.78 467.558
671 0 57.474 14.4761 832 98.5553 595.474 466.728
672 0 60.1239 15.9837 961 94.5942 596.91 467.061
673 0 61.1234 14.6098 893 96.9418 597.885 467.704
674 0 63.2152 15.297 967 96.1303 598.298 460.641
675 0 64.1733 14.5699 935 97.046 599.371 462.18
676 0 68.4059 13.3176 911 98.1438 602.407 461.154
677 0 72.3726 15.0333 1088 93.4384 604.642 456.45
678 0 74.2924 15.9639 1186 91.6214 607.305 454.233
679 0 75.3649 14.5558 1097 94.1304 609.2 453.581
680 1 39.301 11.5264 453 97.989 611.528 470.903
681 0 40.1754 12.4703 501 98.3134 612.934 470.934
682 0 45.1 12.6164 569 97.188 614.107 471.777
683 0 45.1927 13.1437 594 96.2458 614.987 471.609
684 0 47.2958 12.2421 579 97.4007 617.088 472.796
685 0 48.3176 12.5213 605 98.2496 617.785 469.377
686 0 51.2611 14.6505 751 94.0186 619.102 471.477
687 0 52.3209 14.3155 749 93.2163 618.84 472.107
688 0 55.4152 15.5192 860 92.6105 620.271 471.137
689 0 53.1095 12.6719 673 98.9881 620.544 475.034
690 0 56.4209 13.9133 785 96.7376 620.511 473.232
691 0 59.2333 14.8396 879 94.3572 620.461 473.168
692 0 58.1596 14.1507 823 96.3815 620.273 475.123
693 0 61.2212 15.9912 979 90.8284 619.475 474.404
694 0 61.2299 14.1271 865 94.2139 619.104 475.998
695 0 63.2236 13.9505 882 96.2959 615.841 472.443
696 0 67.1889 15.0471 1011 93.8368 614.308 471.066
697 0 69.1675 14.5878 1009 95.0823 612.47 468.369
698 0 71.1631 15.3872 1095 94.0228 609.491 470.856
699 0 71.3056 14.1924 1012 97.7569 606.004 469.521
700 0 75.1829 14.8039 1113 96.8257 604.091 464.516
701 0 79.3493 15.312 1215 96.572 601.334 460.868
702 0 80.2432 15.9515 1280 96.8258 599.328 458.616
703 1 42.1982 12.6309 533 100.583 599.856 476.914
704 0 46.0613 12.2011 562 101.804 597.968 471.872
705 0 46.1184 15.0049 692 96.5867 600.129 471.746
706 0 49.413 12.608 623 98.5024 600.3 468.265
707 0 51.3503 13.9434 716 98.4693 600.637 465.758
708 0 51.2883 15.4811 794 97.0957 602.972 462.985
709 0 51.359 14.7978 760 97.9118 604.263 461.457
710 0 55.2148 15.2314 841 98.239 606.42 461.873
711 0 56.1795 15.5751 875 96.4389 607.025 461.392
712 0 58.1677 15.4897 901 96.9223 608.824 461.163
713 0 60.1745 14.1422 851 98.7579 610.484 459.535
714 0 64.2547 14.5359 934 96.2398 612.404 462.588
715 0 66.1397 16.2384 1074 93.2663 613.738 461.485
716 0 68.2624 16.8614 1151 91.6768 615.192 457.582
717 0 71.325 15.7589 1124 95.3488 617.422 459.132
718 0 72.4716 15.9925 1159 94.1838 619.118 459.973
719 0 74.3246 15.4996 1152 94.5634 619.232 458.606
720 0 77.3127 16.5303 1278 93.1737 619.995 458.119
721 0 81.4789 15.685 1278 95.5822 621.027 458.998
722 0 80.1583 14.8332 1189 99.6796 620.378 457.459
723 0 84.4966 16.0243 1354 96.0864 621.758 457.419
724 0 86.3125 16.3244 1409 96.269 620.788 456.167
725 1 44.4336 12.8506 571 97 621.361 477.068
726 0 45.4038 12.8183 582 95.9399 622.038 478.466
727 0 48.6313 12.5845 612 97.7042 620.471 476.675
728 0 49.715 13.5573 674 95.2537 619.539 474.092
729 0 49.5754 13.2122 655 96.4641 617.817 475.985
730 0 51.5898 13.8593 715 95.9888 616.007 475.696
731 0 53.6412 14.0564 754 96.5252 613.919 471.936
732 0 56.547 16.3404 924 92.7857 610.982 471.725
733 0 57.4094 13.7782 791 100.521 607.962 470.25
734 0 59.4478 14.5001 862 97.8562 605.658 470.224
735 0 62.5429 14.8378 928 97.791 602.531 467.162
736 0 62.5645 14.9606 936 99.4957 601.73 461.312
737 0 68.7785 16.5023 1135 94.6203 600.083 460.264
738 0 68.7076 14.7436 1013 99.2004 599.184 455.095
739 0 72.7018 15.708 1142 97.5666 599.308 454.462
740 0 74.6367 14.7247 1099 100.575 599.781 452.359
741 0 78.5584 15.899 1249 100.375 601.568 451.437
742 0 79.6696 16.2421 1294 101.046 602.148 447.646
743 0 79.6696 16.2923 1298 160.238 603.146 447.644
744 0 85.7015 14.9472 1281 105.187 606.849 446.192
745 0 87.9247 14.9787 1317 105.793 608.245 442.266
746 0 91.6364 15.7034 1439 103.723 610.325 442.698
747 0 94.4618 16.1547 1526 102.957 610.942 441.4
748 0 96.6761 15.7743 1525 104.559 612.138 436.034
749 1 53.4232 11.1188 594 98.6633 614.796 463.896
750 0 55.4907 11.984 665 94.5534 617.21 465.862
751 0 58.3538 11.2932 659 94.868 618.454 463.313
752 0 59.1726 11.289 668 94.7874 619.076 464.808
753 0 62.381 12.4717 778 92.9666 618.789 459.766
754 0 62.1217 13.0711 812 92.6835 618.75 465.065
755 0 65.389 11.6075 759 93.5362 619.821 467.072
756 0 66.6186 11.6934 779 93.3209 620.246 466.403
757 0 71.6456 12.3246 883 92.2752 620.339 465.424
758 0 71.3152 11.9189 850 93.5612 620.881 464.712
759 0 75.3091 12.9599 976 90.9232 619.293 465.185
760 0 77.5388 12.7936 992 90.2641 619.592 465.422
761 0 80.4789 14.6249 1177 88.0552 618.686 461.028
762 0 82.2545 12.5221 1030 92.9621 618.046 458.86
763 1 45.1944 9.29318 420 86.8595 616.521 481.488
764 0 46.2518 7.63213 353 89.3371 616.541 485.295
765 0 47.3287 9.86717 467 88.94 612.839 484.672
766 0 47.2439 9.94838 470 91.2149 610.798 480.068
767 0 50.2447 8.95617 450 89.04 607.447 481.344
768 0 52.4329 12.2442 642 85.5109 604.502 475.006
769 0 54.3509 12.8793 700 88.2043 601.343 474.506
770 0 54.1587 13.0912 709 92.5896 597.917 468.134
771 0 57.211 13.4065 767 91.7184 597.742 472.34
772 0 57.1159 11.2928 645 97.6868 596.6 467.375
773 0 57.1465 11.7767 673 97.8128 596.363 466.097
774 0 61.2275 12.968 794 94.6662 597.992 464.567
775 0 62.467 13.6072 850 94.4271 598.716 461.859
776 0 64.4063 12.1572 783 93.9183 601.047 464.434
777 0 65.4838 10.6286 696 98.9698 602.226 459.181
778 0 69.3519 12.5303 869 94.6237 604.505 458.866
779 1 42.3204 10.2787 435 94.0437 607.055 474.391
780 0 39.1152 9.02462 353 101.411 609.113 471.331
781 0 44.1894 11.8807 525 96.181 610.606 471.238
782 0 44.2001 9.75112 431 99.1879 611.824 472.566
783 0 46.1526 12.502 577 96.6915 614.035 471.116
784 0 49.1339 12.7407 626 95.4377 615.877 472.345
785 0 48.2455 12.3949 598 97.8244 615.744 470.589
786 0 51.0803 13.6452 697 94.1133 618.9 468.704
787 0 49.0714 10.556 518 89.805 619.71 476.894
788 0 50.1014 13.4128 672 86.7946 620.091 474.195
789 0 51.0825 11.1976 572 91.021 621.114 472.25
790 0 54.115 12.8615 696 88.7356 620.996 477.23
791 0 54.0753 12.1497 657 89.9543 620.983 476.132
792 0 55.1175 12.1558 670 89.8179 622.012 476.985
793 0 56.222 11.6324 654 89.9266 621.402 477.885
794 0 60.2604 12.7281 767 85.8644 620.819 476.056
795 0 59.1582 14.6387 866 83.6686 620.187 476.416
796 0 61.2695 13.2366 811 86.4624 619.132 475.269
797 0 63.2062 13.5588 857 84.8506 618.125 475.152
798 0 65.2809 13.2658 866 85.9734 615.657 473.775
799 0 67.1255 12.5735 844 87.2405 612.24 471.481
800 0 69.227 13.4629 932 86.2833 610.271 468.648
801 0 72.1337 13.3086 960 86.9615 606.889 467.271
802 0 71.2344 11.6517 830 92.2036 604.107 465.636
803 0 76.3444 13.9761 1067 90.7854 600.367 463.793
804 0 79.3209 13.8299 1097 90.3026 598.954 460.215
805 0 80.3127 12.8249 1030 90.9476 599.249 460.396
806 1 45.1346 12.1193 547 91.5027 600.064 473.885
807 0 45.2607 9.9424 450 93.9422 598.824 474.329
808 0 51.1622 13.5647 694 87.4798 600.324 469.161
809 0 50.246 13.2747 667 87.2279 601.958 468.1
810 0 49.1034 12.0358 591 86.6007 602.166 468.973
811 0 51.3007 12.0271 617 88.0324 603.031 467.052
812 0 54.2037 12.5084 678 87.8319 605.363 466.676
813 0 53.3621 11.6749 623 90.2664 607.575 466.546
814 0 55.2579 12.6679 700 89.2329 609.774 466.521
815 0 58.232 12.9825 756 86.7183 611.464 464.468
816 0 63.2675 13.2295 837 85.4636 612.869 463.087
817 0 65.2976 15.4523 1009 82.8791 613.168 464.398
818 0 63.1932 11.8051 746 90.6501 615.668 465.303
819 0 67.2527 13.0701 879 88.2935 616.54 462.099
820 0 69.4028 11.0658 768 90.2878 617.35 463.385
821 0 69.27 12.8338 889 88.1057 618.243 463.641
822 0 77.2292 14.334 1107 84.4074 618.846 463.309
823 0 80.318 13.9944 1124 85.4875 620.036 464.497
824 0 79.2044 13.0422 1033 87.7793 619.568 464.493
825 0 84.2131 15.1402 1275 85.0133 619.618 464.613
826 0 83.2367 13.6478 1136 88.1972 619.638 465.192
827 1 45.1451 11.0532 499 90.5731 620.254 480.986
828 0 56.1188 12.2062 685 83.8307 619.474 483.615
829 0 46.1192 13.27 612 87.317 619.516 485.41
830 0 49.1821 14.0498 691 84.9262 617.887 483.92
831 0 49.2157 15.1781 747 86.7992 613.339 474.143
832 0 49.1286 12.1111 595 84.4639 611.329 480.415
833 0 51.272 14.7644 757 89.6235 607.888 479.633
834 0 53.4225 15.3868 822 89.9732 605.759 478.236
835 0 55.401 15.1983 842 89.6936 603.065 475.08
836 0 55.639 15.8342 881 89.4211 600.955 476.367
837 0 58.3435 14.7746 862 91.0916 599.559 473.849
838 0 57.2875 15.012 860 92.3674 596.469 468.077
839 0 60.1882 15.0362 905 90.5801 596.462 468.807
840 0 62.1931 14.9534 930 90.2978 596.934 463.315
841 0 64.2592 15.204 977 88.7288 596.853 464.901
842 0 66.277 14.7562 978 90.3027 597.349 459.044
843 0 69.3506 14.9097 1034 90.2785 599.287 457.215
844 0 71.3287 14.5383 1037 87.4156 601.467 457.551
845 0 75.2638 14.509 1092 87.3828 604.158 455.368
846 0 76.1984 14.0948 1074 89.8538 605.923 452.71
847 0 78.3012 14.0611 1101 88.8783 607.694 449.375
848 1 42.1021 12.6122 531 86.2505 608.819 471.708
849 0 42.2435 10.4395 441 91.297 610.07 469.712
850 0 43.137 7.41822 320 92.8562 612.256 474.103
851 0 46.1701 11.7609 543 89.3112 614.972 469.687
852 0 47.4465 12.414 589 90.3022 614.873 468.992
853 0 50.3852 13.4166 676 87.6021 615.916 466.88
854 0 51.4333 15.3208 788 86.2335 617.849 466.489
855 0 52.5139 13.3298 700 90.6943 617.963 468.567
856 0 55.2104 14.5625 804 88.9042 620.327 467.575
857 0 54.1826 13.9713 757 89.0951 619.915 473.16
858 0 58.1994 15.5328 904 86.0299 620.424 473.86
859 0 59.1646 15.3808 910 86.6901 620.022 473.515
860 0 62.0877 15.3654 954 87.9067 618.495 470.497
861 0 65.1607 14.2878 931 87.8206 618.835 475.702
862 0 65.1441 15.458 1007 88.4459 618.269 468.971
863 0 66.2016 14.3199 948 90.4093 616.706 469.574
864 0 70.1136 15.1041 1059 88.0151 615.335 470.362
865 0 72.2472 15.5577 1124 88.8683 613.525 468.442
866 0 74.1266 15.0688 1117 90.9114 610.289 465.756
867 0 78.1043 14.98 1170 90.6376 607.215 466.559
868 0 79.0629 13.3438 1055 97.2739 607.129 465.248
869 0 83.118 15.9653 1327 92.8621 604.332 461.871
870 0 86.1578 16.0287 1381 91.4526 602.03 455.529
871 1 43.0983 9.25791 399 95.9649 598.962 476.524
872 0 43.0708 11.1909 482 95.2573 596.919 471.836
873 0 46.1648 11.0474 510 93.1686 596.396 474.718
874 0 49.2528 12.7709 629 93.9396 596.83 466.248
875 0 51.071 13.2365 676 94.2559 598.368 468.01
876 0 50.209 13.165 661 94.23 599.818 467.259
877 0 55.3492 14.526 804 92.0286 601.465 465.713
878 0 56.3383 14.1644 798 93.3308 604.283 463.223
879 0 59.2293 13.9289 825 93.023 606.389 459.606
880 0 61.5511 14.5733 897 91.6945 608.183 459.406
881 0 65.4549 14.1471 926 94.5043 610.14 459.219
882 0 66.2278 13.9519 924 96.1591 612.218 459.067
883 0 69.4677 15.3597 1067 93.5033 612.841 458.45
884 0 69.5663 14.1017 981 97.3099 614.686 457.041
885 0 75.2 16.0904 1210 91.9331 616.159 458.716
886 0 73.3431 14.7935 1085 96.9945 617.58 455.991
887 0 76.6605 14.8838 1141 96.9904 618.85 457.437
888 0 79.5557 15.0838 1200 97.2775 621.002 454.23
889 0 79.6272 13.7265 1093 101.818 620.378 454.991
890 0 85.8115 15.6739 1345 98.4037 622.025 454.462
891 1 42.6512 11.6292 496 100.558 622.347 474.542
892 0 42.6512 11.5589 493 162.673 622.369 474.604
893 0 46.4939 10.7971 502 98.8008 622.791 478.263
894 0 48.6509 12.9699 631 96.5452 620.158 474.336
895 0 50.5874 13.6002 688 95.2006 620.23 477.638
896 0 51.4028 13.1705 677 95.0665 619.09 476.121
897 0 54.0777 14.9415 808 92.4171 615.521 478.558
898 0 55.1482 15.2136 839 93.2539 613.435 476.368
899 0 57.1419 15.4353 882 93.3991 611.395 476.152
900 0 59.1939 14.6806 869 95.4902 609.102 475.732
901 0 58.1056 14.1983 825 99.9758 604.703 469.653
902 0 63.2153 16.167 1022 94.3924 603.269 469.62
903 0 61.2148 14.6533 897 100.788 600.651 468.087
904 0 66.2831 15.9166 1055 96.5573 599.687 468.772
905 0 68.2215 15.1565 1034 100.669 597.902 463.598
906 0 70.2102 15.8381 1112 100.604 598.27 462.888
907 0 73.4591 14.3209 1052 104.798 597.991 460.223
908 0 75.306 14.5274 1094 106.154 598.496 457.367
909 1 41.2055 11.4305 471 106.561 599.297 471.701
910 0 44.0471 12.5547 553 99.8969 600.618 471.559
911 0 44.0486 11.7597 518 101.512 601.637 470.357
912 0 44.0382 12.6481 557 98.1329 604.846 471.068
913 0 44.0382 12.6027 555 150.739 605.856 470.96
914 0 50.3743 13.896 700 95.7871 610.55 464.133
915 0 50.0429 14.2478 713 99.4642 612.31 467.133
916 0 50.047 13.5273 677 103.294 614.381 462.764
917 0 55.0762 14.9792 825 98.0255 615.223 464.179
918 0 55.1007 14.7911 815 99.7264 616.195 464.042
919 0 55.1098 14.0447 774 100.451 618.291 465.904
920 0 57.1876 15.1432 866 99.0993 618.829 465.094
921 0 60.1755 14.4743 871 100.077 619.718 465.893
922 0 61.0944 15.4679 945 98.8931 622.053 466.558
923 0 62.0842 13.8844 862 101.186 621.432 466.819
924 0 65.2783 15.1965 992 97.7621 622.284 468.026
925 0 67.1373 14.6119 981 99.6524 622.344 469.339
926 0 68.0967 14.0682 958 102.018 621.929 469.476
927 0 69.0796 14.6353 1011 102.282 620.599 468.451
928 0 71.0681 15.1263 1075 101.552 620.96 467.912
929 0 73.1113 14.5395 1063 98.4581 618.786 472.066
930 0 72.0402 13.4231 967 103.946 618.685 470.928
931 0 77.0764 15.5949 1202 98.6597 615.691 468.594
932 0 80.1374 15.2114 1219 99.146 613.31 466.169
933 0 81.0666 15.9375 1292 99.1053 610.516 464.673
934 1 44.0578 11.6211 512 105.377 608.527 483.129
935 0 47.0244 13.3973 630 102.195 603.886 481.735
936 0 47.0922 11.4032 537 104.793 601.184 481.309
937 0 48.0212 13.2233 635 105.682 600.318 475.894
938 0 52.0666 14.2126 740 102.157 598.339 473.164
939 0 54.022 14.0869 761 101.852 596.558 472.616
940 0 55.0577 15.1296 833 101.664 596.752 469.421
941 0 57.0514 15.3896 878 98.3417 597.672 464.597
942 0 61.2443 15.0055 919 97.6648 600.257 465.297
943 0 63.2202 15.7386 995 97.406 601.41 461.831
944 0 64.2602 15.4995 996 97.2149 602.454 461.035
945 0 68.3148 14.6674 1002 98.489 604.287 461.653
946 0 68.1226 15.017 1023 98.9101 606.955 460.8
947 0 69.1947 15.1312 1047 100.476 608.46 457.835
948 0 73.1195 15.3994 1126 99.7993 610.729 458.042
949 0 73.0858 13.3542 976 104.785 611.062 456.574
950 0 76.1133 14.3996 1096 103.608 611.899 454.708
951 0 80.1733 14.082 1129 101.829 615.178 458.008
952 0 81.1912 14.0532 1141 103.289 615.44 456.45
953 1 44.0789 11.729 517 103.952 618.151 476.019
954 0 46.1083 12.8177 591 104.249 617.736 473.516
955 0 46.0599 11.6153 535 105.48 619.933 475.265
956 0 45.0896 12.7967 577 105.094 620.99 475.886
957 0 47.0535 12.0076 565 103.396 621.202 476.28
958 0 48.0507 12.0706 580 139.731 622.207 476.1
959 0 52.066 13.8286 720 96.5 619.964 478.335
960 0 51.1558 13.2732 679 99.0722 619.28 478.635
961 0 53.0624 13.5878 721 97.9917 618.889 477.248
962 0 55.1087 14.6801 809 95.2015 618.344 482.431
963 0 57.2612 12.539 718 100.607 615.947 480.283
964 0 60.1653 13.33 802 99.3466 614.59 479.489
965 0 58.1542 13.2407 770 102.139 612.305 476.778
966 0 61.2081 13.3969 820 100.943 609.957 477.43
967 0 63.1051 13.6122 859 102.061 607.427 475.118
968 0 67.2001 14.2708 959 102.747 603.887 470.282
969 0 68.2374 13.5117 922 105.026 600.593 469.569
970 0 69.153 13.2171 914 105.152 600.441 471.636
971 0 73.1747 10.5091 769 109.507 597.87 466.168
972 0 74.2705 9.29036 690 106.851 597.671 471.08
973 0 71.3533 16.0189 1143 101.767 596.844 459.914
974 0 71.3583 15.6674 1118 101.656 596.388 459.864
975 0 71.3084 14.4162 1028 102.904 598.021 460.046
976 0 74.513 13.2997 991 101.312 599.344 463.615
977 0 73.1698 15.4572 1131 98.5482 602.228 461.721
978 0 72.2183 14.4008 1040 99.949 604.117 461.577
979 0 69.356 10.3236 716 104.279 607.244 464.81
980 1 147.912 13.5418 2003 107.599 607.867 428.316
981 0 144.852 13.607 1971 109.431 608.923 424.954
982 0 149.785 16.3434 2448 103.594 610.44 427.913
983 1 183.887 15.3845 2829 106.308 611.518 411.329
984 0 187.389 14.051 2633 108.217 613.078 415.826
985 0 186.375 14.5728 2716 108.763 613.697 412.676
986 0 187.089 11.1177 2080 105.825 615.42 420.436
987 1 65.3792 12.8022 837 93.5591 617.395 465.742
988 0 71.5272 14.3022 1023 85.8319 618.715 463.75
989 0 73.9001 15.4398 1141 83.8606 619.182 460.81
990 0 77.583 15.0935 1171 82.6798 619.61 461.069
991 0 75.4471 12.7904 965 86.7565 620.365 460.65
992 0 81.7357 15.1586 1239 82.6772 619.961 462.374
993 0 84.6541 14.6478 1240 84.9186 618.936 463.252
994 1 39.5713 10.3863 411 84.6959 619.326 484.915
995 0 43.6366 13.0624 570 81.993 617.653 480.244
996 0 54.4179 11.3749 619 77.6753 616.935 483.995
997 0 45.3705 13.0261 591 80.2166 614.858 482.347
998 0 48.4467 12.0545 584 82.6798 611.954 482.93
999 0 49.4662 14.3532 710 85.2296 608.887 479.566
1000 0 49.4084 13.2973 657 88.0928 606.405 476.306
1001 0 53.486 14.7889 791 83.0253 603.661 472.932
1002 0 56.2576 13.3493 751 85.8202 601.561 472.61
1003 0 56.2177 12.7362 716 89.9078 598.845 470.771
1004 0 58.5095 13.1603 770 90.4325 597.484 469.175
1005 0 61.4677 13.6332 838 90.0262 596.086 466.174
1006 0 63.2783 13.1957 835 91.1234 597.316 465.491
1007 0 67.5434 14.8053 1000 89.017 596.365 461.792
1008 0 67.7155 13.9111 942 90.7792 597.359 457.442
1009 0 71.4415 14.6973 1050 90.9314 598.703 452.41
1010 0 72.6834 13.6757 994 92.3501 600.3 452.557
1011 0 74.683 13.015 972 95.1204 601.281 450.501
1012 1 46.7493 11.3585 531 92.8286 603.976 465.904
1013 0 43.4839 12.7174 553 92.2839 606.966 466.371
1014 0 43.4721 13.7559 598 92.913 609.46 467.537
1015 0 44.3918 12.9303 574 94.2613 610.868 465.639
1016 0 45.3832 13.5513 615 92.9024 612.036 466.829
1017 0 50.2019 14.2226 714 89.591 614.024 470.228
1018 0 53.1702 14.7451 784 87.9949 616.721 472.142
1019 0 50.2923 13.5607 682 96.2434 617.062 470.991
1020 0 54.2459 13.6416 740 94.9703 619.22 473.268
1021 0 56.2242 14.6023 821 92.9306 620.429 472.935
1022 0 57.1768 14.8137 847 92.1948 619.478 475.187
1023 0 61.3109 14.2226 872 91.3922 620.404 473.061
1024 0 61.3154 13.4876 827 93.4438 620.27 475.088
1025 0 63.321 14.7029 931 94.9076 619.995 471.672
1026 0 66.2479 13.7363 910 97.1429 619.763 472.851
1027 0 68.2366 13.5265 923 97.8147 619.066 472.928
1028 0 69.1823 14.9749 1036 97.2394 618.453 471.338
1029 0 70.1432 15.1547 1063 97.8175 616.111 469.544
1030 0 75.0755 15.8773 1192 94.172 615.517 471.409
1031 0 76.0731 14.21 1081 100.919 613.601 468.329
1032 0 77.1369 15.4919 1195 99.6201 608.792 468.167
1033 0 80.3821 15.4512 1242 100.796 607.762 465.696
1034 0 82.3988 15.7162 1295 101.263 605.197 464.137
1035 0 86.572 15.2243 1318 104.111 602.603 458.699
1036 1 47.3352 11.7038 554 105.43 601.137 475.726
1037 0 50.145 12.2445 614 103.712 599.912 475.739
1038 0 50.1429 11.886 596 105.547 599.53 474.565
1039 0 53.0888 13.0724 694 103.857 599.579 470.618
1040 0 51.0923 10.5691 540 109.406 598.4 469.476
1041 0 57.0633 13.4237 766 103.093 598.693 466.597
1042 0 58.4325 14.3071 836 100.732 599.263 461.114
1043 0 61.2309 13.9799 856 100.505 600.421 462.821
1044 0 62.1743 13.1726 819 101.153 603.419 461.985
1045 0 66.2502 14.4754 959 98.5224 605.531 460.485
1046 0 68.1419 13.1784 898 101.177 606.812 458.522
1047 0 69.24 13.0271 902 102.197 609.5 455.583
1048 0 73.1994 14.1668 1037 98.1215 610.545 460.168
1049 0 74.2111 13.9737 1037 101.165 612.991 455.698
1050 0 79.181 16.3297 1293 94.8894 614.319 454.995
1051 0 80.1801 14.0309 1125 98.7084 615.83 456.322
1052 0 82.3868 13.995 1153 99.7008 617.493 453.025
1053 0 86.2462 14.8296 1279 96.8131 618.892 455.536
1054 0 89.3903 13.7151 1226 97.9062 620.406 455.991
1055 0 91.4434 14.1399 1293 97.3357 620.756 456.505
1056 0 96.4685 15.4455 1490 98.3336 621.552 456.452
1057 0 97.4233 15.0375 1465 99.6307 622.036 453.999
1058 1 53.139 12.4014 659 91.4355 621.487 478.842
1059 0 53.2783 12.8758 686 91.3309 620.329 480.004
1060 0 55.314 11.0279 610 93.3951 619.836 482.415
1061 0 58.4503 12.2668 717 90.205 619.036 483.802
1062 0 58.1849 12.0134 699 93.9585 618.153 480.794
1063 0 57.1416 13.3703 764 96.428 615.645 475.024
1064 0 62.4283 14.4326 901 92.1254 614.291 476.665
1065 0 65.1155 11.7176 763 70.6042 611.571 474.82
1066 0 66.1895 14.0355 929 87.6017 608.611 472.14
1067 0 68.166 14.7728 1007 87.1926 606.545 470.091
1068 0 72.2462 15.6548 1131 85.8453 604.828 467.9
1069 0 74.3037 15.975 1187 85.6681 601.837 466.351
1070 0 75.3521 15.1821 1144 88.8243 600.401 464.136
1071 0 80.1326 14.4386 1157 90.3129 599.674 462.959
1072 0 83.2952 14.4186 1201 93.7336 599.434 460.889
1073 0 84.1116 14.9326 1256 93.5135 598.955 457.098
1074 0 87.075 14.1372 1231 94.9659 599.405 452.338
1075 0 89.2225 14.7833 1319 94.4678 601.791 450.851
1076 0 92.3423 15.2368 1407 94.5345 602.304 446.405
1077 0 95.3817 14.8666 1418 95.2539 603.93 443.199
1078 1 52.2112 11.4152 596 91.5604 606.292 468.337
1079 0 55.492 11.9296 662 90.6239 608.687 467.61
1080 0 57.8687 12.8221 742 89.6469 610.323 462.125
1081 0 59.509 13.6114 810 87.8074 610.54 461.768
1082 0 58.9666 10.667 629 92.4134 612.382 462.254
1083 0 64.4394 14.5718 939 85.7646 612.944 465.161
1084 0 65.2748 14.1249 922 87.6302 614.042 466.758
1085 0 67.366 13.0333 878 89.4328 616.575 465.363
1086 0 70.2021 13.048 916 90.9389 616.821 464.654
1087 0 74.1574 13.6736 1014 90.3974 618.288 463.582
1088 0 73.4046 12.9147 948 93.4114 618.919 465.67
1089 0 76.3832 13.9821 1068 91.882 618.216 466.125
1090 1 45.1383 11.6752 527 90.8235 617.981 481.478
1091 0 44.2403 10.8498 480 90.6729 619.354 485.144
1092 0 45.2307 10.966 496 91.4173 619.105 485.073
1093 0 46.579 11.078 516 92.3372 619.533 482.525
1094 0 51.5916 11.7267 605 88.9769 618.416 480.06
1095 0 49.717 10.7207 533 92.9794 617.248 478.073
1096 0 49.5868 11.0715 549 93.1858 615.98 478.344
1097 0 52.5519 12.3687 650 92.2523 612.494 476.625
1098 0 54.5672 10.9956 600 94.9417 610.867 476.393
1099 0 53.6135 12.758 684 92.9722 607.814 475.867
1100 0 54.6005 11.9047 650 94.9754 605.018 474.482
1101 0 59.2857 14.0675 834 88.5216 601.777 471.794
1102 0 60.2643 13.3578 805 92.8025 599.36 472.537
1103 0 64.054 15.2215 975 88.7385 598.34 470.547
1104 0 66.1784 14.2796 945 91.3757 596.64 466.533
1105 0 69.3423 15.4019 1068 89.6142 597.444 464.164
1106 0 71.2048 14.7462 1050 92.0143 597.069 460.964
1107 0 74.2157 14.6465 1087 92.563 598.056 459.589
1108 0 76.1753 14.8473 1131 93.1892 599.09 456.378
1109 1 43.1719 9.72855 420 94.1929 600.55 476.833
1110 0 43.1816 10.0737 435 96.5862 603.393 472.621
1111 0 47.1357 11.7109 552 91.1341 605.018 472.545
1112 0 45.2393 10.3229 467 93.4647 606.927 474.227
1113 0 48.1156 11.9504 575 90.1426 609.306 475.299
1114 0 49.1352 10.2778 505 91.802 611.069 475.711
1115 0 50.1337 12.1874 611 92.4059 613.154 472.946
1116 0 54.2427 12.3519 670 90.5045 614.837 473.609
1117 0 55.1171 14.5871 804 87.347 616.772 472.386
1118 0 55.2619 14.6756 811 87.9162 618.037 473.171
1119 0 57.2068 12.3761 708 91.7924 618.542 475.712
1120 0 60.1666 13.2798 799 95.8235 620.019 474.77
1121 0 62.1743 13.1726 819 95.8718 620.52 475.006
1122 0 62.2327 13.6263 848 93.4198 620.892 475.778
1123 0 67.255 15.6271 1051 89.4329 620.791 475.941
1124 0 67.2892 15.2179 1024 92.1553 620.385 475.198
1125 0 70.1947 15.7562 1106 91.4141 619.242 475.564
1126 0 71.5954 15.853 1135 93.4467 616.626 473.528
1127 0 73.259 15.0562 1103 94.8187 615.095 474.559
1128 0 76.391 15.905 1215 93.3942 613.605 471.356
1129 0 77.2101 15.7622 1217 94.2383 611.086 470.049
1130 0 81.335 15.6021 1269 94.1024 607.966 470.127
1131 0 80.2263 16.0421 1287 94.7739 605.294 465.693
1132 0 84.2528 15.5841 1313 93.8682 602.594 464.935
1133 0 87.4804 15.6378 1368 94.3531 599.838 461.6
1134 0 88.194 15.8514 1398 95.6888 598.538 457.159
1135 1 50.2736 9.68699 487 98.154 597.111 477.304
1136 0 57.1614 11.4588 655 93.2122 596.667 476.134
1137 0 53.0932 9.3609 497 98.5775 596 472.054
1138 0 59.1841 13.5171 800 90.6738 596.214 465.77
1139 0 59.2144 11.6019 687 94.7758 597.734 464.339
1140 0 61.1641 13.2758 812 90.9335 600.268 463.606
1141 0 64.0552 14.3002 916 91.0535 600.633 459.29
1142 0 65.0718 14.0768 916 92.6867 603.282 461.455
1143 0 68.1383 14.6173 996 91.2831 606.812 458.036
1144 0 73.177 14.5947 1068 91.0777 608.786 456.313
1145 0 72.1904 13.7137 990 93.8939 611.041 455.927
1146 0 77.1748 14.4866 1118 91.4061 613.145 455.433
1147 0 79.2446 14.247 1129 92.2321 614.458 454.634
1148 0 80.2961 13.3381 1071 71.7227 615.889 456.576
1149 0 85.3116 14.5115 1238 90.5856 616.963 455.408
1150 0 89.455 15.3261 1371 88.3472 618.19 455.408
1151 1 43.0689 9.07847 391 88.5064 621.015 478.274
1152 0 45.0289 10.3489 466 86.8584 620.337 478.781
1153 0 47.1028 12.9079 608 85.0724 621.37 477.584
1154 0 52.0607 13.8492 721 81.1595 622.283 479.72
1155 0 51.1006 12.1134 619 84.8821 622.341 478.397
1156 0 54.0486 12.9328 699 82.0544 622.124 479.319
1157 0 53.0313 13.6523 724 76.1809 620.844 480.722
1158 0 53.0553 14.5132 770 76.6195 620.516 479.386
1159 0 56.1971 13.0256 732 77.2732 619.35 482.392
1160 0 56.0641 11.2015 628 80.242 618.626 481.613
1161 0 59.0967 11.4896 679 81.2872 615.897 478.864
1162 0 60.0984 10.5826 636 83.1258 612.997 478.083
1163 0 61.0567 11.2191 685 85.5796 611.026 473.126
1164 0 62.035 11.7837 731 85.3365 608.361 473.391
1165 0 68.169 14.9922 1022 80.0646 605.051 472.315
1166 0 70.1609 13.6971 961 84.1249 603.329 467.613
1167 0 72.0723 13.0147 938 85.9478 601.752 467.277
1168 0 75.12 14.2039 1067 85.1265 599.96 465.517
1169 0 78.1113 13.0071 1016 89.2864 599.635 459.195
1170 0 81.1091 14.2524 1156 88.3599 599.712 456.989
1171 1 44.031 10.856 478 92.9937 601.015 475.188
1172 0 46.0506 13.3331 614 91.4609 603.114 471.484
1173 0 49.0236 12.7286 624 91.7404 603.952 469.829
1174 0 51.0666 12.611 644 92.0186 606.177 467.79
1175 0 52.1797 14.3542 749 89.4232 607.331 465.534
1176 0 51.1534 13.8798 710 91.2423 609.975 467.354
1177 0 53.0636 12.2495 650 95.3615 611.542 465.043
1178 0 55.1415 12.6039 695 95.4446 614.283 466.609
1179 0 57.1622 13.8903 794 95.4635 615.015 465.069
1180 0 61.0746 13.3771 817 96.1089 617.991 464.856
1181 0 64.0864 13.6222 873 96.0561 619.191 464.859
1182 0 65.1299 14.1563 922 95.9349 619.096 465.182
1183 0 68.2131 15.3929 1050 93.4029 620.836 465.836
1184 0 70.1708 14.6215 1026 95.9133 621.968 465.953
1185 0 74.3077 15.3954 1144 94.625 622.007 465.18
1186 0 75.1651 15.1932 1142 97.2329 621.834 465.364
1187 0 76.1843 14.1499 1078 101.072 622.019 464.76
1188 0 78.1726 14.0586 1099 100.701 622.108 467.189
1189 0 81.2507 14.646 1190 100.487 621.512 466.214
1190 1 46.094 11.7586 542 104.847 619.969 483.653
1191 0 48.1133 12.1796 586 105.969 620.102 482.234
1192 0 48.1465 12.1297 584 108.378 618.084 480.512
1193 0 52.1973 13.7938 720 103.974 615.779 481.625
1194 0 52.19 13.585 709 106.894 613.409 480.419
1195 0 51.0543 12.379 632 102.875 611.665 481.416
1196 0 52.1629 12.2501 639 103.099 610.039 482.942
1197 0 53.0664 13.3795 710 106.062 607.045 477.121
1198 0 53.0664 13.9825 742 155.357 605.09 477.538
1199 0 57.0988 12.6097 720 111.199 601.017 472.942
1200 0 59.2043 13.7321 813 110.835 600.308 471.24
1201 0 60.1614 12.1008 728 114.541 598.742 470.473
1202 0 63.1138 14.1174 891 113.1 598.181 466.696
1203 0 65.1576 13.7206 894 115.492 599.331 465.204
1204 0 64.1146 12.9612 831 119.353 600.06 464.626
1205 0 69.1221 14.4093 996 115.407 601.607 461.791
1206 0 73.1013 14.0353 1026 116.134 602.756 459.485
1207 0 73.0655 12.742 931 121.687 606.289 459.223
1208 0 76.0892 14.4436 1099 119.827 608.061 456.328
1209 0 77.1362 13.7678 1062 122.753 610.503 458.46
1210 0 83.0569 14.472 1202 119.073 612.676 455.694
1211 0 83.1262 14.0629 1169 120.868 613.234 454.499
1212 0 85.0898 13.3388 1135 123.565 615.373 453.965
1213 0 91.1951 15.3627 1401 117.668 616.87 451.757
1214 0 94.176 15.9064 1498 114.487 617.478 452.597
1215 0 94.0922 14.422 1357 117.258 620.268 453.974
1216 0 99.1497 15.0177 1489 116.057 619.784 451.022
1217 0 103.324 15.6498 1617 113.412 620.747 449.557
1218 0 104.112 14.6573 1526 114.945 620.599 452.525
1219 0 108.096 15.1162 1634 114.495 620.846 451.688
1220 0 111.124 15.5413 1727 116.164 621.027 448.143
1221 0 113.126 15.0983 1708 118.833 620.882 448.169
1222 0 118.194 16.2783 1924 117.877 619.496 448.905
1223 0 121.121 16.017 1940 118.203 619.216 449.07
1224 0 124.101 14.9475 1855 121.084 617.56 445.228
1225 0 128.306 15.7124 2016 119.262 615.946 443.027
1226 0 133.11 16.4074 2184 117.12 613.65 441.407
1227 0 136.127 15.6105 2125 118.812 610.923 439.297
1228 0 140.2 15.2497 2138 120.709 608.225 434.725
1229 0 143.194 14.9448 2140 121.037 605.087 433.492
1230 0 150.205 15.4189 2316 118.759 603.811 430.837
1231 0 152.22 14.4265 2196 122.225 601.03 427.18
1232 0 158.172 14.8066 2342 120.198 599.191 425.828
1233 0 165.318 15.3522 2538 118.433 598.049 420.582
1234 0 173.307 15.7467 2729 116.812 598.675 415.939
1235 0 179.258 15.1681 2719 117.122 598.666 412.715
1236 0 186.257 16.4021 3055 113.923 598.522 408.897
1237 0 194.461 16.1421 3139 115.582 599.474 396.968
1238 0 202.466 17.193 3481 115.067 601.29 393.097
1239 0 209.59 16.5132 3461 118.718 602.931 389.733
1240 1 52.1537 9.472 494 111.619 605.802 469.328
1241 0 52.2048 10.5546 551 109.247 608.241 469.873
1242 0 54.2705 13.5801 737 101.628 609.381 467.107
1243 0 55.3013 11.8984 658 101.807 611.871 466.869
1244 0 54.2738 10.7787 585 102.918 612.969 470.573
1245 0 56.395 10.2846 580 102.628 615.51 470.398
1246 0 58.4312 11.552 675 102.196 616.547 467.797
1247 0 60.2594 12.6287 761 100.217 617.021 467.405
1248 0 63.3446 13.1661 834 97.6415 618.771 467.743
1249 0 64.2249 12.4251 798 98.1729 619.716 469.706
1250 0 66.2334 11.9426 791 97.4374 619.382 471.444
1251 0 67.4643 11.7395 792 98.4533 619.606 469.87
1252 1 39.0329 10.3503 404 95.2252 621.339 486.015
1253 0 39.0813 9.82568 384 95.0599 621.432 486.672
1254 0 41.0617 10.058 413 95.4479 620.552 485.375
1255 0 43.0892 10.397 448 91.5246 620.158 487.154
1256 0 42.1408 9.61064 405 92.642 618.733 487.721
1257 0 45.1043 11.4845 518 89.8764 616.62 488.911
1258 0 46.0546 11.5298 531 90.1507 614.84 487.663
1259 0 47.3714 12.9614 614 87.1596 612.684 483.927
1260 0 47.1938 12.1202 572 89.9073 609.054 483.434
1261 0 49.1252 14.0458 690 81.7739 606.583 483.32
1262 0 51.0951 11.3318 579 82.7703 604.492 484.437
1263 0 51.1749 13.3073 681 84.2819 602.361 478.123
1264 0 52.2203 11.9877 626 86.5831 599.973 475.34
1265 0 56.223 10.8852 612 86.5572 599.453 475.642
1266 0 57.2327 13.3665 765 85.4039 598.851 470.627
1267 0 58.2672 11.31 659 89.0637 598.557 469.09
1268 0 59.2819 13.2081 783 88.0447 598.285 465.596
1269 0 62.2054 13.5197 841 87.7051 599.553 465.551
1270 0 65.2023 12.8983 841 87.201 601.254 465.79
1271 0 68.4069 14.4576 989 85.2002 602.281 462.625
1272 0 68.2454 11.8689 810 90.9198 603.593 461.485
1273 0 74.1658 15.4519 1146 85.5079 605.241 459.896
1274 0 75.253 15.7867 1188 87.4158 607.984 458.774
1275 0 75.2399 14.5402 1094 90.2751 610.08 459.059
1276 0 81.4249 16.0025 1303 86.1949 610.659 458.982
1277 1 47.0968 11.4658 540 90.1444 613.37 475.463
1278 0 44.0428 11.9429 526 89.9411 615.167 477.184
1279 0 46.1033 11.5827 534 90.4101 615.833 476.44
1280 0 47.0908 14.5251 684 86.3596 617.526 476.594
1281 0 47.0451 14.4542 680 87.1838 618.841 477.201
1282 0 47.0639 10.9426 515 92.5437 619.709 478.084
1283 0 49.0482 14.3329 703 87.1181 621.023 476.89
1284 0 52.0505 13.6406 710 87.9056 621.123 477.939
1285 0 52.0708 13.6737 712 86.368 621.996 479.14
1286 0 55.0754 16.1052 887 82.1184 620.674 481.786
1287 0 57.2153 15.9573 913 81.6298 620.56 481.702
1288 0 58.1393 14.7061 855 84.7345 617.768 481.235
1289 0 59.2568 15.61 925 90.0151 617.297 479.783
1290 0 57.292 13.6145 780 94.0936 614.705 477.531
1291 0 63.3236 15.6814 993 88.1068 612.707 478.454
1292 0 63.3573 15.1048 957 91.6301 609.782 474.429
1293 0 65.2564 14.8032 966 92.7267 607.724 472.851
1294 0 68.1734 16.1207 1099 90.0118 604.891 472.059
1295 0 71.3687 16.0434 1145 89.579 603.34 469.979
1296 0 71.4708 16.0345 1146 90.6108 600.617 468.93
1297 0 76.2386 16.2123 1236 90.7282 600.007 466.657
1298 0 76.1795 15.0959 1150 93.4444 599.592 465.264
1299 0 77.2271 14.2049 1097 96.5433 597.984 463.585
1300 0 82.4332 16.6802 1375 93.5636 598.052 458.212
1301 0 81.3086 15.558 1265 95.8395 597.679 457.571
1302 0 87.4857 16.5398 1447 93.8597 602.267 452.638
1303 0 85.3112 14.2537 1216 98.986 604.056 451.803
1304 0 90.3319 16.2844 1471 94.2706 605.378 451.164
1305 0 92.4787 15.6685 1449 93.5307 607.723 451.496
1306 0 94.3382 15.5398 1466 92.2797 609.084 449.647
1307 0 94.3076 15.6615 1477 91.6913 610.798 450.015
1308 1 55.108 12.8475 708 92.9294 614.763 468.514
1309 0 59.2407 14.2976 847 88.3601 615.145 470.504
1310 0 57.0487 12.0599 688 93.2544 616.179 471.626
1311 0 57.1745 14.7793 845 95.2355 617.238 470.471
1312 0 56.1158 13.1514 738 89.5488 617.852 475.033
1313 0 58.1122 14.8678 864 95.3472 620.485 474.819
1314 0 56.288 12.2762 691 100.763 621.084 478.064
1315 0 58.1501 14.7377 857 96.5263 620.916 477.231
1316 0 58.2083 13.0909 762 98.832 620.169 478.088
1317 0 60.1014 13.993 841 95.7467 620.09 478.8
1318 0 59.1597 14.1312 836 95.5742 618.884 478.843
1319 0 60.1834 14.19 854 96.3981 617.686 475.875
1320 0 59.204 13.918 824 96.6044 616.165 476.924
