time division length width area intensity CMx CMy
0 0 35.028 14.3885 504 104.833 346.157 498.774
1 0 36.0746 14.8027 534 104.313 343.122 498.382
2 0 36.0746 14.8027 534 167.725 339.12 498.249
3 0 36.0355 13.792 497 109.966 344.034 495.245
4 0 38.0434 15.0354 572 106.385 344.03 492.962
5 0 39.0833 14.4051 563 107.384 344.234 491.824
6 0 39.1055 14.2691 558 109.952 345.179 493.425
7 0 40.1216 16.0512 644 104.969 346.34 492.553
8 0 42.2509 13.7748 582 109.089 347.271 490.668
9 0 44.0623 15.4781 682 105.258 348.133 487.664
10 0 44.2786 14.9056 660 106.948 348.75 486.739
11 0 44.0962 13.6066 600 108.65 353.078 487.795
12 0 46.1917 14.5914 674 107.656 353.899 485.182
13 0 50.2086 14.858 746 103.895 355.999 484.365
14 0 48.1575 15.3247 738 105.228 357.306 485.091
15 0 50.0285 14.6317 732 107.286 359.53 482.971
16 0 51.0825 15.6414 799 102.866 362.258 484.354
17 0 51.2254 14.6217 749 108.909 364.355 482.242
18 0 52.3563 15.1462 793 106.902 366.422 483.299
19 0 54.0447 15.2651 825 108.559 367.576 480.347
20 0 59.1197 15.9676 944 104.368 369.601 481.415
21 0 59.1948 15.7784 934 106.057 369.249 481.194
22 0 60.1052 16.0386 964 105.221 368.505 480.206
23 0 64.1841 16.811 1079 101.553 367.458 480.565
24 0 68.272 18.8804 1289 101.787 366.062 478.587
25 0 69.1632 16.2659 1125 107.293 364.163 478.26
26 0 72.3336 17.5161 1267 102.418 361.747 477.534
27 0 73.3247 17.6203 1292 103.709 359.618 471.902
28 0 75.1826 16.0409 1206 108.238 357.255 472.802
29 0 81.2776 18.16 1476 100.267 356.142 472.291
30 0 80.2109 17.641 1415 103.627 353.088 467.992
31 0 84.1489 17.9563 1511 101.561 351.803 465.531
32 0 84.2205 17.7866 1498 103.372 350.117 464.845
33 0 88.1019 16.2653 1433 105.544 348.736 460.902
34 0 91.1959 16.7332 1526 104.102 348.848 458.455
35 0 91.1959 16.8429 1536 166.625 349.837 458.523
36 0 99.1049 19.1615 1899 97.9689 349.896 452.63
37 0 101.231 17.228 1744 101.042 351.333 452.872
38 0 105.296 17.4081 1833 100.551 352.242 449.747
39 0 107.264 16.8557 1808 102.116 352.633 446.153
40 0 111.246 17.385 1934 101.829 355.417 444.741
41 0 114.265 17.0394 1947 103.236 357.308 439.011
42 0 120.264 19.3907 2332 97.8649 359.02 438.82
43 0 123.567 16.5416 2044 104.003 360.932 436.028
44 0 130.533 17.9341 2341 99.7638 362.987 436.686
45 0 133.484 16.5862 2214 102.575 365.04 428.869
46 0 140.39 16.269 2284 103.377 366.038 428.413
47 1 75.2157 13.787 1037 104.899 369.276 461.841
48 0 77.253 15.3004 1182 105.546 371.567 455.19
49 0 81.193 14.6318 1188 98.2062 373.562 455.794
50 0 83.1225 14.3643 1194 105.284 375.511 458.951
51 0 87.166 17.2544 1504 100.362 375.979 457.146
52 0 90.0777 16.0417 1445 102.009 377.641 457.896
53 0 94.1778 17.4351 1642 100.202 377.998 456.702
54 0 97.1451 17.2217 1673 100.595 379.054 458.145
55 0 100.509 16.128 1621 102.399 377.088 458.397
56 0 104.326 16.8798 1761 99.3748 375.871 455.71
57 0 107.093 19.0489 2040 94.2176 374.729 455.346
58 1 56.0613 10.8453 608 102.775 373.112 480.954
59 0 62.0704 13.1947 819 98.0085 372.264 476.926
60 0 61.0527 12.0388 735 94.3415 369.419 481.656
61 0 67.1611 12.3286 828 93.6184 364.295 476.246
62 0 66.2205 12.1413 804 96.791 361.934 473.295
63 0 69.2343 11.3383 785 97.3898 360.005 471.897
64 0 69.0854 11.6812 807 98.0682 358.431 468.591
65 0 76.1164 13.6764 1041 95.3775 358.639 467.29
66 0 78.0668 14.4235 1126 96.675 356.883 462.981
67 0 78.3036 12.7963 1002 97.507 357.193 461.6
68 0 83.2675 15.0479 1253 94.2322 356.714 457.797
69 0 84.1804 13.5661 1142 97.1068 358.208 454.65
70 0 89.1451 15.6823 1398 94.2031 360.03 452.175
71 0 91.3144 15.8354 1446 94.4467 361.839 450.688
72 0 93.4084 14.8916 1391 97.3372 361.893 446.514
73 0 97.2515 13.8918 1351 98.436 365.098 446.466
74 0 99.3232 14.2263 1413 97.9682 367.276 446.105
75 1 56.0704 12.3951 695 94.7971 369.617 466.649
76 0 55.173 10.6574 588 96.0459 371.759 467.296
77 0 58.1385 11.6446 677 94.9188 373.656 464.613
78 0 59.0881 12.7268 752 93.3497 375.596 462.364
79 0 60.1815 11.3656 684 97.6988 375.342 464.143
80 0 62.3229 13.2696 827 94.2793 377.891 461.41
81 0 65.2874 13.8924 907 92.1621 379.503 460.402
82 0 67.3171 13.8301 931 87.261 381.178 462.057
83 0 68.2768 13.5478 925 88.9092 383.801 461.488
84 0 71.223 14.3493 1022 87.1321 383.904 464.046
85 0 72.2192 13.279 959 89.6632 383.567 462.36
86 0 74.1755 13.1715 977 89.1238 385.376 463.169
87 0 75.2612 12.9947 978 89.3906 385.123 462.86
88 0 80.3035 14.1463 1136 89.1514 385.262 460.697
89 0 82.201 15.0971 1241 87.4948 383.516 459.403
90 0 84.3689 14.0218 1183 89.9535 382.512 461.021
91 0 86.4452 14.46 1250 93.6296 381.828 458.724
92 0 90.3104 15.8121 1428 91.8277 379.714 455.616
93 0 89.3567 15.3542 1372 94.2383 376.743 453.009
94 0 92.4401 14.2146 1314 95.4893 375.055 453.532
95 0 95.2027 14.4324 1374 93.1747 370.365 454.817
96 0 99.3399 15.5426 1544 91.3083 367.191 450.865
97 0 101.196 15.1686 1535 92.4619 364.572 447.593
98 0 104.267 14.904 1554 93.3391 363.396 445.046
99 0 106.199 15.0096 1594 92.9379 362.718 441.575
100 0 110.421 15.785 1743 92.7275 361.635 440.813
101 0 113.513 17.1698 1949 91.8415 361.852 437.622
102 0 117.424 14.7499 1732 96.5508 362.262 434.028
103 1 64.1482 9.18187 589 94.146 363.219 465.589
104 0 66.1188 11.9028 787 88.5654 363.551 461.79
105 0 69.1867 11.1438 771 89.4669 365.593 458.001
106 0 71.2677 13.0775 932 88.1041 364.653 449.828
107 0 77.0883 14.2564 1099 88.172 369.207 454.957
108 0 76.1126 12.9939 989 91.2376 370.884 454.55
109 0 79.1326 13.509 1069 91.2021 372.819 451.708
110 0 80.0772 14.1738 1135 90.3181 373.734 450.706
111 0 83.1175 14.4494 1201 90.3838 376.329 448.243
112 0 87.2762 14.4942 1265 90.8798 378.319 447.941
113 0 88.1489 14.6003 1287 91.0303 379.688 445.806
114 0 92.2031 15.6285 1441 89.3185 381.924 445.947
115 0 93.1018 13.6517 1271 89.7695 382.454 446.258
116 0 97.1115 14.3958 1398 87.3326 383.79 446.627
117 0 100.248 14.085 1412 88.0659 384.871 449.278
118 0 103.065 14.127 1456 91.0426 386.408 445.139
119 0 103.153 15.2201 1570 89.6885 387.223 441.64
120 0 108.148 15.4696 1673 88.2481 388.689 444.927
121 0 108.148 15.4326 1669 151.391 389.697 444.911
122 0 115.243 13.7188 1581 92.2486 387.493 443.847
123 1 65.0585 8.89969 579 87.8221 387.644 472.466
124 0 65.2114 11.7004 763 86.7444 387.353 469.195
125 0 67.0588 12.5412 841 86.1427 384.195 467.25
126 0 71.1124 13.8513 985 88.1645 383.477 467.269
127 0 72.1937 13.9624 1008 84.1895 378.297 465.315
128 0 74.1026 13.9671 1035 89.5594 377.482 464.739
129 0 76.2173 13.8682 1057 90.2971 375.7 461.833
130 0 77.1058 12.8654 992 91.8327 375.204 461.406
131 0 78.1689 15.0699 1178 89.0756 372.08 456.023
132 0 83.1913 14.2924 1189 89.3852 368.895 453.8
133 0 83.1457 14.2401 1184 89.6816 368.214 452.177
134 0 88.1491 16.4154 1447 84.877 366.589 450.035
135 0 89.2607 14.3512 1281 88.1132 366.902 446.268
136 0 92.2001 13.5466 1249 88.7278 366.609 447.319
137 0 93.3311 13.5967 1269 89.4492 365.964 439.742
138 0 97.3845 15.1256 1473 86.3449 368.062 441.725
139 0 99.365 14.0291 1394 87.9648 369.242 440.792
140 0 101.487 12.5434 1273 90.4973 370.625 438.433
141 0 106.204 14.4251 1532 86.8923 374.213 437.159
142 1 60.0874 9.5694 575 85.24 375.471 462.619
143 0 62.0611 10.9569 680 85.9956 376.641 459.779
144 0 64.1005 11.1544 715 84.0573 378.862 457.703
145 0 68.1151 12.4936 851 83.7685 381.038 454.469
146 0 68.0641 14.0456 956 79.3745 380.135 453.773
147 0 71.0629 12.1723 865 88.0717 384.057 452.106
148 0 76.1531 12.6587 964 87.0166 385.54 452.546
149 0 74.1157 13.5869 1007 88.4111 386.458 449.753
150 0 79.2811 14.1143 1119 86.8776 387.045 452.622
151 0 81.3017 12.8903 1048 89.2767 389.171 451.225
152 0 83.5146 15.3746 1284 85.8427 389.819 448.729
153 0 85.2862 11.9832 1022 91.5362 390.718 451.834
154 0 89.3508 14.3591 1283 87.3562 390.844 452.31
155 0 91.4393 13.8453 1266 88.2449 389.369 451.897
156 1 48.0838 9.42105 453 89.3929 390.263 473.695
157 0 51.0941 11.0385 564 82.6826 390.021 474.085
158 0 52.032 11.0124 573 86.4188 388.147 472.85
159 0 55.1077 11.3959 628 82.5924 384.645 473.92
160 0 55.1077 11.3596 626 130.465 380.644 473.904
161 0 57.0703 12.2305 698 81.8868 381.082 471.765
162 0 56.3694 11.9569 674 89.5682 378.337 469.558
163 0 61.3459 15.8283 971 80.7765 376.386 468.006
164 0 60.1752 13.0453 785 87.2586 373.237 466.483
165 0 64.2979 13.313 856 86.2909 372.438 464.256
166 0 66.2121 14.2874 946 84.4958 370.836 464.589
167 0 66.2552 12.799 848 87.6792 370.074 462.296
168 0 69.1802 15.2067 1052 83.6692 369.503 457.085
169 0 70.2166 13.7717 967 87.0931 369.208 456.073
170 0 74.3736 13.8893 1033 86.7793 370.901 452.838
171 1 37.0471 10.8511 402 86.9279 370.943 469.197
172 0 41.0333 9.55321 392 85.5281 372.717 470.087
173 0 39.0685 9.41935 368 86.6875 373.054 470.774
174 0 43.1346 10.0152 432 85.9051 374.03 468.542
175 0 44.0848 9.91272 437 89.2586 376.341 467.041
176 0 46.1199 12.6843 585 85.1333 378.219 466.468
177 0 44.1656 11.2078 495 89.1737 380.917 464.939
178 0 47.6186 12.9571 617 85.9287 381.183 463.084
179 0 50.4319 12.6706 639 79.3224 380.51 463.208
180 0 52.1165 13.2971 693 86.7316 384.092 460.703
181 0 52.0868 13.7079 714 86.4454 386.672 463.787
182 0 50.0261 12.2536 613 84.7145 386.739 466.323
183 0 54.1205 13.1189 710 83.5085 388.445 466.18
184 0 54.0503 13.2469 716 83.764 390.553 466.866
185 0 53.0367 10.389 551 89.0345 391.628 469.541
186 0 57.1045 13.2214 755 83.8106 391.852 468.919
187 0 59.0477 12.1089 715 84.9888 392.109 469.98
188 0 59.0189 11.5726 683 87.2152 391.539 468.596
189 0 61.0986 12.2261 747 86.9224 388.086 466.878
190 0 64.1054 14.8193 950 82.6347 387.341 466.353
191 0 64.1511 11.7691 755 88.2755 386.094 468.352
192 0 67.1737 12.0285 808 88.2228 383.995 468.754
193 0 69.1603 13.6205 942 87.5541 381.724 464.985
194 0 71.1646 11.7896 839 90.3147 379.451 463.825
195 0 75.1426 13.9202 1046 87.8011 377.044 461.293
196 0 75.0951 13.0368 979 90.3279 374.414 463.108
197 0 79.1665 14.6779 1162 88.0043 372.122 456.951
198 1 43.0308 10.4344 449 93.8486 369.252 473.488
199 0 46.0067 10.1942 469 94.1237 366.554 473.821
200 0 49.0817 11.7763 578 91.8633 365.019 471.602
201 0 49.0713 11.0859 544 92.7518 365.564 468.621
202 0 54.0811 13.6462 738 87.1463 364.673 465.371
203 0 53.4251 12.7468 681 89.1424 368.117 460.577
204 0 57.1144 13.3942 765 86.0092 369.374 462.102
205 0 57.2052 11.3451 649 90.7427 371.743 461.421
206 0 58.0807 12.1211 704 90.223 372.712 458.756
207 0 60.1379 12.7041 764 89.0196 374.237 459.662
208 0 62.166 13.8661 862 87.6775 375.307 455.31
209 0 63.1416 13.6043 859 88.2165 376.967 455.199
210 0 64.3164 11.8477 762 90.832 378.458 453.755
211 0 67.2127 12.5274 842 89.4264 380.35 453.007
212 0 77.2848 12.9521 1001 88.6014 385.128 451.067
213 1 42.1156 10.1863 429 91.5268 388.126 466.867
214 0 52.9166 10.6961 566 84.8622 389.848 470.157
215 0 47.1007 12.7387 600 89.7733 391.203 465.537
216 0 49.1858 11.67 574 90.7387 391.866 466.92
217 0 50.114 12.0725 605 89.4099 393.122 468.083
218 0 49.013 12.3437 605 90.8926 392.03 469.522
219 0 54.1174 13.3414 722 87.2632 389.398 467.911
220 0 57.1017 15.4286 881 87.6016 389.78 471.404
221 0 55.0949 14.4115 794 93.5919 388.602 468.281
222 0 59.0384 15.7186 928 90.5043 387.885 469.588
223 0 56.1155 11.6545 654 96.7278 387.494 473.498
224 0 61.0856 13.3747 817 95.2754 386.564 468.694
225 0 61.1667 13.1444 804 95.5995 382.852 468.321
226 0 61.0176 11.6852 713 98.2651 380.112 468.602
227 0 61.1077 12.8789 787 97.4079 377.746 464.633
228 0 66.0975 13.4347 888 95.5225 375.798 462.118
229 0 69.1386 12.569 869 97.2371 373.452 463.084
230 0 71.3455 13.6659 975 95.559 372.105 461.908
231 0 73.0666 12.8787 941 97.4251 370.626 457.13
232 0 75.3172 12.9187 973 97.0576 369.122 458.203
233 0 75.2486 11.5351 868 100.833 367.286 454.099
234 1 40.2037 12.4118 499 93.8056 366.232 468.353
235 0 41.1481 9.38075 386 97.557 367.528 467.549
236 0 43.2214 11.4526 495 92.5677 368.772 466.974
237 0 45.269 10.8021 489 94.6278 369.429 465.773
238 0 46.3382 12.7972 593 91.1636 371.391 462.847
239 0 47.1836 12.3136 581 92.0034 373.141 461.685
240 0 48.0381 12.0737 580 94.0552 373.578 459.714
241 0 51.1273 12.7525 652 91.7025 375.143 459.043
242 0 51.079 12.9016 659 92.912 376.645 458.98
243 0 52.0339 13.3182 693 92.4805 378.755 459.492
244 0 53.1188 13.4039 712 92.8048 380.374 457.629
245 0 54.0444 13.0078 703 94.111 380.747 457.72
246 0 56.05 13.5236 758 92.1148 382.215 457.247
247 0 56.05 13.488 756 144.397 384.222 457.193
248 0 58.0356 12.2339 710 93.9563 386.399 459.579
249 0 59.0741 13.4746 796 92.1244 387.573 460.202
250 0 60.089 13.1472 790 91.957 387.633 458.249
251 0 63.089 13.901 877 90.5017 387.363 459.212
252 0 65.1078 13.086 852 92.6643 388.602 460.326
253 0 69.1277 14.0465 971 89.69 389.804 460.943
254 0 69.1216 15.5668 1076 88.6561 390.417 458.875
255 0 70.1002 13.766 965 92.8249 390.631 458.728
256 0 74.0722 14.6344 1084 91.6006 389.929 461.731
257 0 75.063 14.1481 1062 92.9708 387.955 460.257
258 0 77.0852 13.764 1061 95.181 386.816 457.827
259 0 79.0242 14.2488 1126 96.4858 386.464 457.391
260 0 82.341 13.5534 1116 97.0421 386.556 457.987
261 1 45.0923 9.80212 442 95.8484 385.344 477.471
262 0 48.047 10.8019 519 94.7187 382.087 475.626
263 0 50.02 13.6545 683 91.7584 379.559 471.701
264 0 50.0711 11.1242 557 96.7828 377.361 469.408
265 0 51.0961 11.7034 598 96.7023 376.191 468.129
266 0 54.1955 13.1376 712 92.4438 372.5 465.367
267 0 57.1461 14.9267 853 83.8324 371.898 463.478
268 0 57.2401 13.0503 747 87.3373 370.945 460.574
269 0 58.4992 13.06 764 86.6204 370.356 462.411
270 0 62.3667 14.1903 885 85.1898 372.98 456.458
271 0 62.5293 14.1214 883 85.6693 372.133 457.569
272 0 64.318 13.5887 874 87.5652 373.167 454.323
273 0 65.3676 14.778 966 85.8437 375.522 451.953
274 0 65.3661 14.7783 966 125.692 378.555 452.077
275 0 67.243 13.5776 913 90.9376 378.394 450.447
276 0 71.3483 13.8335 987 91.2097 380.023 448.332
277 0 74.3304 15.8751 1180 87.8381 380.681 447.162
278 0 75.3335 14.5354 1095 91.0174 382.452 448.721
279 0 77.276 15.2052 1175 89.7379 383.497 445.275
280 0 81.4297 14.8103 1206 90.4378 384.793 446.459
281 0 84.2667 15.2017 1281 90.3724 387.213 447.404
282 0 89.4157 14.5836 1304 90.1741 388.108 446.179
283 1 47.1122 11.3771 536 93.9272 391.007 468.104
284 0 48.1285 12.9445 623 90.1734 392.941 466.777
285 0 58.3463 10.9004 636 90.2673 394.068 470.385
286 0 51.1606 12.7051 650 95.2908 393.762 470.155
287 0 52.1605 12.7875 667 97.8201 391.961 467.781
288 0 49.0301 11.0544 542 95.8192 394.12 464.662
289 0 53.0208 13.2401 702 92.2664 392.682 467.437
290 0 55.0361 12.8461 707 94.4427 392.55 465.504
291 0 57.0472 13.9358 795 92.3623 391.165 466.706
292 0 56.1065 12.708 713 95.5666 389.781 466.386
293 0 55.2873 11.7387 649 93.3328 387.151 468.496
294 0 57.2824 11.3648 651 93.3425 384.275 466.097
295 0 62.1952 12.1874 758 93.905 381.338 463.607
296 0 63.2128 12.1336 767 94.7784 378.433 462.844
297 0 66.372 12.2793 815 95.0761 375.286 461.729
298 0 69.3531 13.0636 906 92.5784 374.255 458.067
299 0 71.2696 14.9292 1064 89.7068 371.761 455.34
300 0 74.2511 13.9796 1038 91.9605 370.156 453.916
301 0 77.1816 13.4618 1039 93.9663 369.584 449.744
302 0 81.184 13.1799 1070 94.9075 368.434 447.914
303 0 84.2199 13.8447 1166 93.8799 368.239 444.176
304 1 45.0847 10.3805 468 89.344 370.239 465.517
305 0 45.1138 10.4624 472 89.6864 372.038 465.233
306 0 47.0961 10.5104 495 91.802 373.535 461.016
307 0 50.0845 13.5571 679 87.1591 374.483 460.445
308 0 51.1758 11.6657 597 90.3534 376.903 459.451
309 0 50.0712 11.8232 592 90.647 377.735 457.939
310 0 50.0465 12.4684 624 92.3958 378.75 457.833
311 0 54.1018 13.4931 730 90.8959 379.401 457.166
312 0 57.1001 14.1681 809 87.953 381.931 458.907
313 0 55.2165 12.5506 693 92.3074 382.55 459.381
314 0 58.2029 13.4529 783 90.0894 383.001 457.63
315 0 62.1741 13.2531 824 89.4782 384.775 457.589
316 0 62.1847 13.283 826 91.115 385.989 456.505
317 0 63.1664 14.2797 902 90.9845 388.739 459.033
318 0 65.1416 12.6647 825 94.2121 389.412 459.264
319 0 68.0833 15.3488 1045 90.8297 390.944 457.486
320 0 69.1926 12.0678 835 100.36 390.054 460.777
321 0 71.0645 13.143 934 97.8223 390.546 458.656
322 0 74.1689 13.9681 1036 94.2992 390.612 458.153
323 0 76.299 13.5388 1033 101.083 392.405 460.739
324 0 79.1085 14.2083 1124 100.583 392.488 459.935
325 0 83.1934 15.0974 1256 99.1393 391.643 460.664
326 0 84.0618 13.7161 1153 102.204 390.219 457.158
327 1 44.0592 12.2335 539 101.594 387.772 478.414
328 0 46.0456 11.9881 552 102.259 384.971 475.81
329 0 47.0715 11.4082 537 103.957 382.978 475.294
330 0 49.0311 11.6865 573 103.403 378.822 473.445
331 0 51.0205 14.4256 736 94.1332 377.019 471.247
332 0 53.326 14.1957 757 92.21 374.922 468.153
333 0 54.3576 13.1352 714 92.416 372.189 467.741
334 0 56.4845 13.3134 752 91.2527 371.441 464.981
335 0 54.4639 12.3752 674 95.2107 371.864 463.77
336 0 57.3721 13.2469 760 95.4961 371.521 462.074
337 0 59.4162 14.0366 834 93.8861 370.782 459.408
338 0 60.3066 13.6801 825 95.9127 372.833 459.4
339 0 62.5043 13.4871 843 97.5208 373.819 457.195
340 0 66.5406 13.8412 921 97.4028 374.808 453.265
341 0 67.4563 13.7867 930 98.0806 375.563 452.611
342 1 35.3144 10.0242 354 99.2345 381.212 468.147
343 0 38.0971 9.9745 380 101.903 381.705 466.608
344 0 39.1769 8.78069 344 101.52 382.872 467.846
345 0 42.2064 10.804 456 98.0417 384.184 465.513
346 0 42.439 12.5356 532 96.1748 385.808 465.338
347 0 45.467 12.7565 580 94.1483 385.771 464.3
348 0 46.3283 13.2532 614 93.4283 387.275 465.824
349 0 50.5483 12.6414 639 92.1534 387.554 468.326
350 0 49.5004 11.9595 592 94.4949 389.944 469.113
351 0 50.5815 13.0482 660 95.5333 391.018 466.465
352 0 53.2397 14.1436 753 92.9548 392.78 465.41
353 0 54.2273 14.4023 781 92.4417 393.096 466.945
354 0 55.3035 15.1528 838 91.4666 394.504 468.258
355 0 58.3406 15.598 910 90.256 394.223 468.384
356 0 61.3524 15.3213 940 88.6053 393.428 469.539
357 0 62.2542 15.244 949 90.3203 392.714 469.587
358 0 63.3764 14.5638 923 92.1863 391.821 467.579
359 0 64.2776 14.2351 915 94.0612 390.481 465.127
360 0 67.122 14.3172 961 93.1446 388.203 464.992
361 0 71.1497 14.5889 1038 92.1965 386.86 464.698
362 1 40.0225 11.4686 459 97.7691 385.076 475.972
363 0 38.0185 11.0472 420 96.8119 381.093 475.688
364 0 39.0427 10.988 429 98.648 378.55 475.198
365 0 43.0922 10.9301 471 98.7856 376.76 474.144
366 0 44.1417 13.4566 594 95.7609 374.133 472.337
367 0 45.0786 12.689 572 97.4843 372.406 468.297
368 0 45.1671 12.5091 565 98.8513 371.227 467.423
369 0 47.511 13.6811 650 96.82 369.895 461.308
370 0 49.1032 13.6651 671 93.3219 368.203 463.143
371 0 52.0719 13.635 710 93.6958 369.093 462.997
372 0 54.1535 13.6279 738 93.1287 370.466 462.34
373 0 52.1422 13.0413 680 96.9 372.429 460.779
374 0 53.1142 12.3507 656 100.561 374.659 460.771
375 0 56.1501 12.3419 693 100.532 376.088 461.99
376 0 59.2398 14.129 837 98.8638 377.737 457.354
377 0 61.1486 13.3936 819 99.3907 379.556 458.134
378 0 64.1108 13.1803 845 97.2107 380.811 458.077
379 0 64.1556 13.7634 883 97.9003 381.277 453.23
380 0 65.0857 11.4618 746 100.768 382.972 457.529
381 0 69.1421 12.7563 882 99.7642 385.061 453.183
382 0 70.1635 13.1407 922 100.555 386.92 453.6
383 0 74.216 13.7841 1023 97.9912 388.923 454.993
384 1 41.1413 11.4726 472 96.5064 389.146 473.015
385 0 39.2537 11.1072 436 99.5367 391.933 472.933
386 0 40.4356 11.2277 454 100.112 393.059 472.333
387 0 41.4496 11.4597 475 98.6926 392.939 474.541
388 0 44.6394 12.4554 556 94.9119 393.721 473.673
389 0 45.4705 13.0854 595 95.1445 393.995 476.832
390 0 46.1255 13.073 603 96.0448 392.071 478.765
391 0 48.0216 13.7646 661 94.9652 390.787 476.475
392 0 49.0682 14.5104 712 93.7542 389.268 475.281
393 0 52.1759 14.202 741 94.6289 387.381 473.811
394 0 50.3293 13.3918 674 97.503 384.466 475.553
395 0 53.1566 14.335 762 95.3031 382.391 474.314
396 0 53.116 14.0824 748 97.6497 380.164 473.041
397 0 54.0926 13.4584 728 98.8887 377.264 470.104
398 0 56.1755 12.8882 724 99.0732 374.872 467.707
399 0 57.1668 14.5364 831 95.4308 372.578 464.643
400 0 60.0681 14.8665 893 93.8455 370.521 464.941
401 0 62.2541 15.2761 951 92.7192 368.294 464.388
402 0 62.1803 14.9083 927 94.5005 369.058 459.067
403 0 65.2235 13.9214 908 94.7236 368.341 457.281
404 0 68.1495 14.6443 998 94.2124 369.664 455.732
405 0 69.1715 13.4159 928 97.3006 370.855 453.538
406 0 72.2316 14.8827 1075 93.8995 371.992 454.923
407 0 74.2057 14.3924 1068 95.1507 374.787 448.86
408 1 41.0999 12.7981 526 95.2471 376.029 466.506
409 0 44.102 10.2036 450 97.3711 377.976 467.431
410 0 42.0478 9.86972 415 98.5663 379.359 467.222
411 0 44.0826 9.82247 433 96.4457 380.774 467.589
412 0 46.0769 11.1119 512 94.4902 382.453 465.258
413 0 45.031 11.3477 511 95.2661 383.564 466.421
414 0 48.0661 12.7533 613 92.8271 384.943 465.788
415 0 50.0665 13.3023 666 91.9054 386.116 463.706
416 0 51.0441 13.694 699 90.5694 387.731 465.186
417 0 52.0627 13.6758 712 91.0758 388.816 463.9
418 0 55.3912 14.19 786 93.1361 391.55 462.239
419 0 56.0988 14.6527 822 91.337 390.153 467.135
420 0 58.1097 14.1801 824 91.415 391.138 464.825
421 0 59.174 16.122 954 88.1751 391.761 466.055
422 0 62.3251 15.2908 953 89.1469 391.807 465.916
423 0 65.2845 14.8887 972 90.7531 392.09 466.873
424 0 65.1411 14.9675 975 91.3723 391.696 463.501
425 0 68.2539 14.6512 1000 92.243 390.594 464.706
426 0 68.1229 14.2683 972 92.8776 389.888 464.649
427 0 72.1903 14.6003 1054 91.9412 388.118 464.147
428 0 78.1374 15.7543 1231 89.905 385.936 459.681
429 0 81.2418 16.1985 1316 90.1049 382.382 457.528
430 0 81.1696 13.7613 1117 95.6249 380.115 458.62
431 0 86.1761 14.7953 1275 92.5553 376.398 456.324
432 0 88.2541 15.7273 1388 91.446 374.244 447.223
433 1 49.092 11.7127 575 94.5826 370.92 470.108
434 0 51.07 13.1584 672 92.1949 368.262 467.513
435 0 49.1859 9.84021 484 93.2025 371.95 463.969
436 0 54.1601 12.3892 671 87.2385 371.107 461.353
437 0 55.1313 13.8397 763 88.9987 372.324 461.687
438 0 56.118 14.2735 801 94.5418 373.37 459.393
439 0 58.1129 14.5407 845 93.8817 375.083 457.967
440 0 60.1154 15.4037 926 92.2765 376.402 456.268
441 0 62.1906 14.1822 882 93.8163 377.628 455.086
442 0 63.1052 14.8482 937 93.3767 379.767 455.523
443 0 64.2402 14.3213 920 92.0348 381.579 456.639
444 0 67.2204 14.8616 999 91.0721 383.11 453.164
445 0 69.2239 14.3159 991 91.3592 385.089 453.561
446 0 71.279 14.0153 999 93.1041 387.149 453.305
447 0 73.2965 13.766 1009 93.3627 387.412 451.502
448 0 76.3382 14.868 1135 91.6062 388.519 450.328
449 0 78.2454 15.4642 1210 91.1322 389.696 450.506
450 0 80.216 14.2241 1141 93.0219 390.055 451.713
451 0 81.3079 15.4351 1255 92.7697 391.312 450.586
452 1 47.1744 11.8708 560 94.0446 393.395 470.393
453 0 43.1029 13.1546 567 94.0635 394.453 468.951
454 0 49.0561 12.0271 590 94.9797 395.105 471.171
455 0 48.0505 12.9863 624 95.7468 395.87 469.909
456 0 52.0618 11.9665 623 96.175 394.97 473.767
457 0 52.0994 13.3975 698 96.4699 391.983 470.009
458 0 57.2083 15.0328 860 94.3058 392.449 471.578
459 0 55.3551 13.8199 765 93.6719 390.805 463.41
460 0 58.1971 13.5402 788 91.618 389.798 466.292
461 0 60.4306 14.7111 889 96.9921 387.829 468.656
462 0 63.4816 15.1855 964 94.8797 385.101 465.504
463 0 64.3315 14.3787 925 98.2854 381.959 463.338
464 0 68.4353 13.6918 937 98.5251 378.08 461.965
465 0 70.5118 15.8839 1120 95.1688 374.092 458.966
466 0 73.3109 15.8912 1165 94.9691 372.983 459.252
467 0 74.4498 15.7556 1173 97.4979 372.19 454.687
468 0 78.2649 17.1341 1341 95.5175 370.658 453.006
469 0 79.3379 16.6629 1322 97.8669 370.155 447.772
470 0 82.2634 16.5566 1362 99.2885 370.038 446.331
471 0 83.2451 15.6165 1300 102.275 371.973 446.785
472 0 87.1767 15.7726 1375 102.241 372.908 443.89
473 0 90.1665 15.3272 1382 103.572 373.947 439.59
474 0 95.1886 15.9263 1516 101.597 376.644 439.441
475 1 49.0301 13.7263 673 102.443 379.419 456.125
476 0 50.0072 10.4385 522 106.387 381.128 459.9
477 0 54.0735 14.4988 784 100.864 383.059 455.143
478 0 54.0457 12.915 698 104.636 384.451 454.414
479 0 58.1757 15.6423 910 96.2264 385.649 450.814
480 0 61.2153 15.1759 929 88.4187 385.111 453.439
481 0 60.1305 13.4541 809 91.8529 386.638 454.101
482 0 63.3452 13.0397 826 91.8039 388.224 455.987
483 0 66.3859 14.4007 956 89.613 390.169 452.879
484 0 64.2408 11.7527 755 95.2344 392.232 452.45
485 0 70.3957 14.6742 1033 89.8577 392.739 452.095
486 0 72.6395 14.0419 1020 90.2275 393.252 451.725
487 0 72.1959 13.4218 969 93.5666 392.18 448.16
488 0 76.3514 14.1713 1082 92.3031 394.524 452.808
489 0 81.2792 14.4686 1176 92.9235 394.835 454.472
490 1 42.1257 10.8959 459 89.7342 393.832 475.322
491 0 45.0571 12.9391 583 86.6003 393.293 474.417
492 0 46.1298 10.6872 493 88.6775 391.769 476.284
493 0 46.014 11.8008 543 92.9263 389.845 476.875
494 0 48.0658 11.8171 568 90.2606 388.97 471.731
495 0 51.0654 14.7458 753 86.7291 385.862 469.015
496 0 53.1776 15.0627 801 89.4569 386.02 469.312
497 0 55.1632 15.9527 880 88.8489 382.84 468.135
498 0 56.1244 13.8621 778 90.6581 379.799 465.737
499 0 56.2266 14.5483 818 89.3655 379.172 464.655
500 0 58.2124 14.5845 849 89.7303 376.397 461.293
501 0 58.2124 14.6189 851 127.315 372.4 461.322
502 0 62.1017 13.8644 861 87.9988 373.105 456.778
503 0 66.2102 13.4269 889 89.4466 371.991 451.875
504 0 68.1199 14.313 975 88.6892 372.117 451.75
505 0 71.3361 13.7658 982 90.1477 373.484 448.943
506 0 74.3107 15.5698 1157 87.8911 374.455 448.357
507 0 76.1592 14.0495 1070 90.8729 375.971 447.836
508 0 79.1553 14.8442 1175 88.5081 377.66 444.934
509 0 81.1546 14.725 1195 88.7548 380.787 445.924
510 0 83.309 14.6083 1217 89.9737 383.832 443.287
511 0 88.4902 14.8943 1318 89.5425 385.061 440.539
512 1 46.1123 12.6864 585 90.0427 385.379 460.711
513 0 49.2764 12.3183 607 88.1977 387.079 461.468
514 0 50.2218 13.0023 653 89.124 388.516 462.156
515 0 54.2178 14.0729 763 86.0498 389.701 462.414
516 0 54.3055 14.5842 792 88.3169 391.655 457.792
517 0 55.8186 16.4461 918 83.0915 392.037 457.393
518 0 56.5439 15.1741 858 88.0548 393.217 455.99
519 0 60.2333 14.5601 877 87.7879 395.008 462.605
520 0 59.2421 14.4492 856 89.2815 394.152 458.153
521 0 61.4571 16.4993 1014 85.784 394.185 459.632
522 0 64.4701 15.0612 971 87.1864 394.864 461.237
523 0 65.3715 16.1538 1056 87.1828 395.463 459.741
524 0 68.3067 15.5622 1063 86.6914 393.772 460.403
525 0 69.5866 15.3622 1069 87.9326 393.719 460.241
526 0 74.651 16.1016 1202 86.9842 392.94 458.512
527 0 77.5061 17.2632 1338 85.3049 392.037 457.681
528 0 78.992 15.8244 1250 89.0472 388.474 454.499
529 0 81.6175 15.6829 1280 89.8516 386.452 453.577
530 0 83.4089 17.3243 1445 87.1439 382.834 452.16
531 0 85.469 15.5729 1331 90.7295 379.808 449.283
532 0 87.5229 16.1101 1410 91.9411 376.809 446.16
533 1 46.5154 12.6195 587 90.385 373.807 465.595
534 0 46.4175 12.1075 562 90.6762 372.525 463.902
535 0 50.3425 12.7527 642 91.7196 372.389 461.352
536 0 52.4537 13.0401 684 90.0336 371.583 459.822
537 0 53.3268 13.1641 702 90.1382 371.782 456.084
538 0 55.1777 13.0487 720 92.7194 372.035 455.844
539 0 59.2509 16.2192 961 86.1217 371.992 457.783
540 0 61.3895 14.2532 875 90.7291 374.309 452.534
541 0 64.3179 15.3923 990 87.9586 375.01 453.547
542 0 65.2116 16.0094 1044 87.9665 377.046 448.166
543 0 70.2819 15.6797 1102 86.5753 379.386 450.813
544 0 74.5338 16.7978 1252 84.5296 383.333 447.99
545 0 75.2992 15.3255 1154 87.7184 382.893 447.193
546 0 78.5067 15.4891 1216 86.7549 385.346 446.613
547 0 79.2661 15.0379 1192 87.9958 387.134 445.809
548 0 82.5585 14.6199 1207 89.251 388.097 443.791
549 0 85.5984 17.2667 1478 84.6272 390.028 443.725
550 0 89.5742 14.7029 1317 88.3895 391.99 442.374
551 0 91.4081 15.9505 1458 85.6989 392.389 440.808
552 0 92.4774 14.436 1335 88.7064 393.458 441.911
553 0 96.4662 13.8287 1334 88.7346 394.069 439.813
554 0 97.5816 13.9985 1366 87.8572 394.669 441.298
555 1 56.0747 11.4312 641 83.7925 394.415 463.738
556 0 57.2038 10.4539 598 82.6154 396.798 463.893
557 0 59.585 12.4864 744 78.6949 396.219 462.055
558 0 66.0294 12.8276 847 75.7603 395.808 463.373
559 0 63.3167 13.5825 860 81.7209 394.377 462.893
560 0 69.5222 13.6935 952 81.5525 394.125 464.741
561 0 70.373 13.7695 969 82.8349 392.204 459.844
562 0 73.3468 13.2657 973 78.3207 389.652 461.716
563 0 75.5072 13.2438 1000 79.087 386.733 459.444
564 0 75.2622 12.4365 936 82.047 382.816 454.261
565 0 80.3383 12.0366 967 81.9328 380.097 455.776
566 0 82.4684 11.9682 987 83.3465 377.517 452.851
567 1 49.1594 11.4119 561 77.451 376.615 468.169
568 0 48.2251 9.74596 470 79.6766 375.523 466.966
569 0 50.3795 9.50783 479 79.5052 375.48 466.509
570 0 51.3903 12.804 658 78.9422 374.34 463.067
571 0 54.2561 12.3304 669 76.7683 375.238 461.172
572 0 53.1567 9.27446 493 80.4564 373.905 462.777
573 0 56.4145 12.0536 680 79.6059 374.324 459.159
574 0 56.4145 12.1068 683 139.654 377.305 459.097
575 0 60.43 11.352 686 84.0743 378.765 455.118
576 0 63.1156 13.1663 831 81.2659 380.859 454.318
577 0 64.4026 12.6392 814 83.5393 383.554 453.093
578 0 67.2677 12.7104 855 83.6994 384.511 453.013
579 0 68.3691 13.4856 922 83.4631 386.71 452.909
580 0 70.4363 12.309 867 84.2457 387.913 452.176
581 0 71.3908 13.0409 931 84.3867 389.715 449.454
582 0 72.2047 12.2153 882 86.6814 390.734 452.051
583 0 77.2537 12.8538 993 85.8197 391.475 451.522
584 0 77.2616 12.7618 986 85.9077 394.004 451.553
585 0 80.2716 13.4169 1077 83.9703 393.545 452.463
586 0 83.3599 13.5317 1128 85.4566 394.724 450.771
587 0 86.4569 13.6484 1180 85.8542 394.937 450.596
588 0 87.2694 15.3318 1338 84.4619 395.324 450.438
589 0 90.3381 16.0619 1451 82.6251 395.267 452.892
590 0 93.4027 15.7918 1475 84.3966 395.906 451.057
591 0 93.375 14.9719 1398 87.4227 394.874 446.348
592 0 97.3107 14.8493 1445 87.4858 394.16 449.352
593 0 100.203 14.7401 1477 88.7996 394.234 447.963
594 0 104.307 15.9817 1667 86.4709 392.725 449.116
595 0 105.41 15.1504 1597 88.1828 390.779 444.367
596 0 108.44 16.2117 1758 87.4096 387.895 441.202
597 0 111.416 15.1953 1693 89.013 385.054 437.227
598 0 112.6 14.5737 1641 92.482 381.603 434.626
599 0 117.628 15.3705 1808 90.8617 379.093 434.355
600 0 120.645 14.5799 1759 92.9284 377.239 426.52
601 0 123.819 15.6681 1940 91.2376 375.661 418.662
602 0 132.878 17.4597 2320 85.8927 374.166 419.858
603 0 133.844 15.6675 2097 91.1116 373.209 416.607
604 0 138.878 17.1806 2386 88.0817 373.338 409.028
605 0 143.904 16.2608 2340 90.5256 374.256 408.735
606 0 149.721 18.4276 2759 86.7278 374.764 406.366
607 0 152.052 15.054 2289 93.7619 376.261 405.112
608 0 158.878 16.371 2601 91.787 377.496 396.215
609 0 165.796 17.2561 2861 91.0765 380.014 395.499
610 0 170.723 17.1037 2920 91.8048 382.193 389.313
611 0 174.083 14.8608 2587 95.9165 383.725 389.988
612 0 182.68 18.1246 3311 89.8493 384.525 387.288
613 0 188.985 17.4458 3297 90.9766 385.481 389.199
614 0 196.677 17.5466 3451 90.1701 388.774 386.158
615 0 199.647 14.9164 2978 94.1078 389.348 380.889
616 0 208.757 15.6593 3269 91.6497 391.729 386.097
617 0 215.677 16.4227 3542 90.1945 392.963 384.172
618 1 50.2591 9.25205 465 85.0086 396.974 465.009
619 0 52.1352 9.97406 520 84.0115 397.837 468.115
620 0 51.0862 10.8053 552 87.4837 398.442 467.431
621 0 52.2956 10.6319 556 84.5072 398.045 465.322
622 0 50.0745 10.4644 524 80.7118 397.838 465.922
623 0 54.1812 11.5723 627 78.8565 394.825 470.911
624 0 53.2653 10.5697 563 81.3606 393.362 470.146
625 0 58.1495 11.2125 652 78.9663 393.129 470.61
626 0 59.3226 11.1762 663 79.8371 392.303 472.113
627 0 57.0495 10.6925 610 82.9967 390.495 467.649
628 0 62.1291 11.4117 709 82.8406 388.433 470.188
629 0 64.1455 10.5697 678 82.0133 385.565 470.883
630 0 69.0883 11.9991 829 80.1074 383.302 465.414
631 0 69.1836 11.8092 817 79.8715 379.905 463.148
632 0 72.2132 10.746 776 82.0631 378.366 463.75
633 0 73.1772 11.9846 877 81.3672 375.089 460.08
634 0 77.1182 11.5407 890 82.1888 372.155 454.897
635 0 79.0912 11.885 940 81.6968 370.868 455.576
636 0 79.0882 11.0889 877 85.6613 371.787 448.885
637 0 84.1452 13.857 1166 81.1938 370.968 447.787
638 0 84.1443 11.1951 942 85.9066 370.16 446.008
639 0 90.3242 13.7505 1242 87.1087 374.679 447.39
640 0 93.5629 13.5631 1269 88.9291 375.958 442.832
641 0 96.3754 14.6095 1408 89.5455 377.83 434.214
642 0 106.992 28.0302 2999 67.1621 379.893 438.436
643 1 56.117 10.7811 605 91.2479 381.587 453.084
644 0 58.198 14.107 821 84.2095 382.258 451.206
645 0 61.4224 14.2293 874 85.5801 383.803 449.683
646 0 62.2702 14.132 880 85.4443 386.709 455.38
647 0 63.1866 12.8192 810 89.5086 390.92 449.322
648 0 64.2657 13.382 860 89.214 390.537 449.271
649 0 67.5543 14.9361 1009 86.1328 391.378 452.307
650 0 68.4898 13.9437 955 87.9916 393.249 450.737
651 0 69.441 13.3351 926 87.0432 394.217 453.19
652 0 72.498 13.4762 977 86.1842 395.043 454.73
653 0 70.4806 12.8688 907 89.8986 396.375 450.689
654 0 74.4822 13.3589 995 87.5899 396.473 454.578
655 0 76.4217 14.1583 1082 86.9908 397.382 453.332
656 0 77.345 14.1444 1094 85.3565 397.652 455.384
657 0 76.3195 11.976 914 90.9748 397.084 456.374
658 0 82.4046 14.7443 1215 85.1062 396.992 454.78
659 0 85.3841 14.3118 1222 84.1489 396.466 454.938
660 1 59.2675 8.87502 526 84.4011 397.205 474.443
661 0 50.1177 9.79693 491 88.0835 394.931 473.927
662 0 63.8343 9.24268 590 83.0237 393.578 477.61
663 0 52.0226 11.4566 596 86.8977 390.812 471.871
664 0 53.0879 11.8671 630 88.2016 387.754 468.47
665 0 54.9523 12.6109 693 87.088 380.465 462.72
666 0 54.5891 11.9987 655 83.3496 379.231 459.969
667 0 56.143 12.1832 684 83.7237 379.627 459.854
668 0 57.0561 12.1284 692 83.9538 377.238 456.406
669 0 58.0929 12.2907 714 85.2801 375.071 456.371
670 0 60.0269 11.7947 708 85.2782 374.695 452.411
671 0 62.067 12.1159 752 86.0678 374.926 450.908
672 0 62.1551 11.1174 691 87.0362 374.999 449.538
673 0 64.0713 12.0179 770 85.8714 376.027 450.71
674 0 66.0618 11.5498 763 87.5098 377.195 442.358
675 0 71.0862 12.6044 896 84.0357 379.134 446.478
676 0 71.1272 12.1191 862 87.4872 382.001 441.065
677 0 73.119 11.3924 833 86.88 384.03 440.206
678 0 79.0945 12.6557 1001 82.9021 386.029 439.034
679 0 80.131 12.4172 995 84.2754 386.934 436.374
680 1 45.1307 9.35062 422 78.0569 387.547 456.988
681 0 45.0755 11.2034 505 74.3307 389.36 458.762
682 0 45.0706 10.0953 455 76.4571 391.901 460.644
683 0 48.0385 11.9279 573 74.1693 394.445 458.501
684 0 49.4246 9.34757 462 76.3939 393.543 460.909
685 0 50.4918 12.101 611 78.3011 394.854 458.794
686 0 53.2225 11.8183 629 79.4213 393.31 462.921
687 0 51.0562 11.4384 584 85.137 393.466 463.759
688 0 52.0571 12.8897 671 83.0179 393.466 462.31
689 0 53.1358 9.88035 525 87.3886 394.076 465.196
690 0 55.0804 12.9447 713 82.5316 394.714 465.926
691 0 57.121 13.3751 764 82.8547 395.123 463.698
692 0 58.1609 12.1215 705 84.3929 394.784 467.054
693 0 60.2638 15.1833 915 79.4579 394.85 467.479
694 0 59.0366 12.0603 712 84.5716 393.647 468.959
695 0 62.1477 11.5853 720 85.9181 391.674 466.003
696 0 65.3897 14.1918 928 83.805 390.052 461.906
697 0 64.2154 13.1277 843 86.255 387.499 459.562
698 0 67.4053 12.6993 856 87.4579 384.551 460.838
699 0 69.3894 12.3794 859 87.17 382.82 460.993
700 0 71.4799 13.5563 969 86.2023 380.129 457.265
701 0 74.3917 14.7059 1094 83.2322 378.008 457.051
702 0 75.5522 14.6786 1109 85.6646 376.611 450.066
703 1 44.4815 9.26227 412 91.568 377.481 464.35
704 0 46.3774 10.3499 480 88.6521 376.079 462.471
705 0 46.3774 10.4361 484 162.074 374.091 462.506
706 0 49.2415 12.0427 593 86.8331 376.339 458.577
707 0 48.513 10.8218 525 80.6038 377.665 453.928
708 0 49.1671 11.6135 571 76.3835 377.697 451.807
709 0 49.0558 9.29553 456 80.9232 380.8 452.322
710 0 54.0921 12.793 692 76.052 384.159 451.676
711 0 53.046 9.21841 489 81.0798 385.603 449.892
712 0 56.0623 13.3423 748 75.9973 386.837 450.33
713 0 58.065 10.9188 634 80.317 388.792 447.912
714 0 59.2212 11.0096 652 79.1258 388.896 451.589
715 0 62.1568 12.6937 789 76.4778 389.71 451.089
716 0 62.2427 12.9332 805 78.4484 391.585 445.661
717 0 66.1406 13.5469 896 77.231 394.772 448.748
718 0 69.0767 13.1882 911 77.2503 394.623 449.542
719 0 71.1156 12.2336 870 78.0632 397.73 452.128
720 0 73.1071 12.4885 913 79.8927 399.685 450.548
721 0 74.1782 12.2408 908 81.1982 399.171 447.974
722 0 77.1327 12.1868 940 80.9553 399.3 449.787
723 0 81.2269 15.0566 1223 77.0973 399.544 446.836
724 0 81.1356 12.9906 1054 79.0655 399.096 449.141
725 1 44.2185 9.97321 441 77.1202 400.567 469.662
726 0 49.1119 10.0587 494 77.1802 400.549 470.433
727 0 47.2019 9.49114 448 80.3862 400.136 469.71
728 0 52.0811 13.671 712 80.2205 398.014 466
729 0 53.0769 12.9058 685 79.2526 396.282 471.54
730 0 54.6378 11.5488 631 85.9905 392.363 464.7
731 0 57.0637 12.7927 730 84.4055 387.516 468.777
732 0 56.1368 13.3602 750 86.052 384.147 464.531
733 0 60.0551 15.569 935 83.0332 381.601 461.658
734 0 61.165 14.1257 864 85.0069 378.874 460.142
735 0 63.0873 12.9028 814 87.4152 377.087 459.361
736 0 65.068 14.262 928 85.1153 375.322 455.998
737 0 68.1728 14.1259 963 84.2253 374.582 454.189
738 0 69.1625 14.4298 998 84.3487 373.624 450.734
739 0 71.1271 13.4829 959 86.5589 373.776 448.617
740 0 74.0726 14.7963 1096 84.979 374.248 446.397
741 0 75.0966 13.9554 1048 87.77 375.251 445.175
742 0 79.1863 14.447 1144 86.9205 377.393 441.427
743 0 83.056 14.5564 1209 86.0298 379.118 441.774
744 1 43.0366 8.71351 375 89.7147 380.139 461.432
745 0 45.1059 9.57747 432 92.3657 382.037 456.153
746 0 48.0642 10.0699 484 89.7376 384.382 456.907
747 0 50.1638 11.7615 590 88.8864 385.354 454.751
748 0 50.1656 12.0999 607 86.6705 392.105 453.364
749 0 50.1833 11.5775 581 83.0361 392.578 450.508
750 0 53.0553 12.2514 650 78.8554 394.415 454.646
751 0 55.1922 13.4621 743 78.8789 396.623 452.748
752 0 55.2503 13.104 724 80.3052 397.302 451.739
753 0 55.1982 14.0947 778 81.153 396.274 449.053
754 0 58.2075 12.1806 709 83.0959 397.91 455.739
755 0 60.2085 12.5065 753 83.2882 398.789 455.466
756 0 61.2681 13.596 833 81.4958 399.562 457.409
757 0 64.1329 13.129 842 82.0523 399.086 456.176
758 0 65.0978 12.9651 844 82.2251 397.976 456.451
759 0 64.1145 12.0877 775 84.9019 397.777 456.391
760 0 68.1391 12.225 833 84.7491 398.354 454.55
761 0 72.2281 14.0804 1017 80.4562 395.926 455.853
762 0 72.1494 13.5414 977 83.6991 395.681 454.019
763 0 74.1746 12.3492 916 83.6528 394.037 454.279
764 0 76.1125 13.8873 1057 83.9423 391.174 453.93
765 0 79.1876 15.7095 1244 83.1527 388.788 454.966
766 0 80.1603 13.6726 1096 87.0484 386.769 451.236
767 0 82.4157 14.1599 1167 87.4799 383.332 449.416
768 0 87.2736 15.629 1364 84.8776 380.922 444.999
769 0 88.2894 14.1467 1249 88.6677 379.192 443.062
770 1 47.1507 9.39541 443 84.3815 376.034 461.09
771 0 51.3481 11.7044 601 84.7388 375.958 460.86
772 0 52.0493 11.9118 620 87.8258 374.677 463.421
773 0 54.0349 11.0299 596 89.7148 374.871 459.47
774 0 55.1401 11.9151 657 89.6788 375.712 458.218
775 0 61.1004 14.5826 891 84.798 377.26 458.203
776 0 60.126 11.8751 714 90.2255 379.214 452.538
777 0 64.2915 13.4077 862 95.7993 380.933 451.809
778 0 67.2431 15.6745 1054 92.0313 382.615 448.975
779 0 70.1805 15.4601 1085 91.4912 386.453 448.1
780 0 72.248 15.4745 1118 91.5564 387.481 445.803
781 0 72.2087 14.4027 1040 93.7269 389.195 446.571
782 0 76.1693 14.9798 1141 87.1464 390.883 445.731
783 0 77.2809 14.4408 1116 89.7419 393.598 446.611
784 0 80.1172 14.2416 1141 90.553 394.445 448.138
785 0 81.1463 14.2952 1160 92.3172 394.997 443.679
786 0 84.1352 13.6209 1146 94.1606 396.374 445.134
787 0 86.28 14.6268 1262 93.5452 395.834 443.406
788 0 90.3057 14.6945 1327 92.1296 397.17 443.279
789 0 95.4086 16.5394 1578 88.1432 397.826 445.088
790 0 95.3211 15.0544 1435 93.0446 398.157 446.592
791 0 97.3132 15.2189 1481 93.4997 398.849 446.253
792 0 100.261 15.0906 1513 94.0839 397.304 446.779
793 1 55.2122 11.8271 653 95.4211 399.669 470.266
794 0 56.105 11.8884 667 95.3838 398.321 468.457
795 0 57.1515 12.7031 726 96.8774 396.76 467.091
796 0 62.2311 13.2731 826 94.8511 395.783 465.098
797 0 63.2572 14.4331 913 94.3625 393.92 465.843
798 0 65.2205 14.29 932 96.4002 392.362 465.138
799 0 67.0925 14.8452 996 92.6376 389.897 463.038
800 0 68.0594 15.9566 1086 98.7956 386.096 459.387
801 0 71.1342 15.7308 1119 98.2198 383.143 461.735
802 0 72.047 15.476 1115 100.161 382.043 457.041
803 0 75.0661 14.7603 1108 99.8078 379.592 457.018
804 0 77.1414 15.7633 1216 99.2319 378.93 449.248
805 0 80.0472 15.241 1220 98.6992 377.712 450.04
806 0 83.0552 16.4348 1365 96.5853 376.786 445.986
807 0 86.1332 17.0201 1466 95.897 376.818 445.597
808 0 84.1438 14.4633 1217 103.435 377.751 442.546
809 1 45.1635 11.4473 517 102.936 379.956 461.476
810 0 46.1268 12.1188 559 102.905 380.785 458.163
811 0 48.0929 12.7462 613 100.096 383.175 460.848
812 0 47.2156 11.1404 526 105.736 384.618 457.462
813 0 50.1405 11.6473 584 103.223 386.354 458.152
814 0 51.0846 12.6261 645 101.25 388.101 457.752
815 0 51.1923 12.7363 652 101.452 389.219 456.322
816 0 51.2593 13.0513 669 100.172 390.77 455.975
817 0 51.4126 13.7709 708 100.846 392.056 457.997
818 0 54.2673 13.1202 712 102.278 394.145 457.562
819 0 54.3262 13.7135 745 100.071 395.803 458.094
820 0 54.1971 12.8051 694 101.524 396.558 458.048
821 0 53.1532 12.812 681 103.67 397.389 462.047
822 0 55.2291 13.1271 725 99.6772 397.589 460.012
823 0 57.1839 14.5321 831 95.3321 398.681 464.491
824 0 55.1348 12.8594 709 99.1862 397.279 466.126
825 0 57.3225 13.9561 800 97.6488 399.205 464.925
826 0 57.1904 14.0933 806 98.5074 398.768 465.364
827 0 58.2442 13.6323 794 99.0479 398.446 464.608
828 0 57.3375 12.47 715 103.664 396.92 464.681
829 0 61.1515 14.4722 885 98.1853 396.572 467.79
830 0 59.2176 14.185 840 102.49 394.117 464.433
831 0 61.2723 14.8028 907 101.883 391.547 463.637
832 0 62.3632 14.4316 900 102.888 389.663 466.092
833 0 60.3088 12.9003 778 109.959 386.864 462.919
834 0 62.2902 14.8177 923 106.718 385.17 461.951
835 0 65.1799 15.0046 978 108.396 381.652 458.44
836 0 68.3977 14.8397 1015 109.953 379.046 459.626
837 0 67.2041 14.1658 952 113.669 378.436 459.519
838 0 67.1885 15.0621 1012 114.236 376.398 454.53
839 0 69.2258 15.6878 1086 114.685 375.877 453.752
840 0 70.1619 14.9084 1046 117.748 375.352 447.94
841 0 73.2838 15.5014 1136 114.027 376.064 450.067
842 0 72.3018 14.7438 1066 119.361 376.926 445.881
843 0 73.2818 15.4882 1135 117.776 380.196 444.757
844 1 41.0134 12.118 497 120.674 382.262 463.801
845 0 40.0856 11.8746 476 123.968 384.714 463.819
846 0 41.0258 12.7481 523 121.6 386.218 462.346
847 0 40.0294 13.0404 522 122.251 387.929 459.536
848 0 41.0253 14.0889 578 118.749 388.965 465.566
849 0 41.024 14.1625 581 123.406 390.506 463.465
850 0 41.0586 13.4929 554 125.316 393.89 464.834
851 0 40.0422 13.6106 545 127.684 394.29 465.251
852 0 39.0165 13.4558 525 128.478 395.225 465.549
853 0 40.0251 13.8163 553 129.123 396.637 464.49
854 0 41.0329 14.3787 590 126.229 397.602 466.81
855 0 42.0485 14.079 592 125.637 398.164 470.368
856 0 41.0981 13.9179 572 128.928 399.393 470.411
857 0 43.0189 13.5754 584 125.231 399.229 470.759
858 0 42.0463 14.3175 602 126.081 399.787 471.625
859 0 41.0346 14.4512 593 126.671 398.813 472.457
860 0 42.0768 13.9507 587 128.518 398.09 468.94
861 0 43.0948 13.8764 598 126.157 399.51 476.239
862 0 37.0076 12.1327 449 133.425 397.873 474.194
863 0 40.0446 14.2591 571 126.687 396.849 474.746
864 0 41.0169 13.6529 560 126.709 395.259 473.854
865 0 41.0549 13.9326 572 125.755 392.733 474.059
866 0 41.0287 13.2346 543 127.801 389.726 472.643
867 0 44.0969 13.8105 609 123.087 387.898 473.563
868 0 42.0412 14.0576 591 123.675 385.824 472.631
869 0 40.0681 14.2757 572 124.874 383.327 471.545
870 0 40.0301 12.8154 513 130.624 380.776 468.669
871 0 41.0444 13.595 558 127.98 378.303 468.301
872 0 42.0672 14.2867 601 125.175 378.604 464.955
873 0 40.0218 14.0673 563 127.22 377.918 465.725
874 0 41.0207 14.3586 589 123.623 378.173 464.91
875 0 41.0193 13.7253 563 124.526 379.158 464.583
876 0 41.1024 14.7193 605 122.25 380.207 463.345
877 0 44.0696 14.2956 630 121.449 381.281 462.214
878 0 43.0352 14.2674 614 122.91 382.894 462.292
879 0 41.0386 14.2549 585 126.01 384.344 458.419
880 0 41.0525 14.2501 585 126.644 387.039 461.123
881 0 40.0716 13.7753 552 129.17 389.486 460.009
882 0 41.0262 14.8929 611 124.249 390.736 462.116
883 0 42.0371 14.059 591 124.745 392.196 463.971
884 0 43.0136 15.0883 649 120.957 394.177 463.932
885 0 40.0529 14.5058 581 123.854 395.095 463.725
886 0 40.1314 14.6768 589 123.791 395.893 463.776
887 0 40.0227 13.8172 553 124.28 397.796 467.886
888 0 42.0372 13.8211 581 122.723 398.706 468.005
889 0 39.0514 13.4438 525 122.438 399.51 469.284
890 0 40.0481 14.108 565 122.832 400.297 469.618
891 0 41.0914 14.6016 600 121.003 400.437 471.247
892 0 43.0523 14.7959 637 119.226 400.264 470.841
893 0 40.0288 14.6145 585 123.255 398.904 474.019
894 0 41.1332 14.1005 580 119.364 397.869 472.991
895 0 41.0435 14.7161 604 119.217 398.222 474.781
896 0 40.0213 14.4673 579 119.85 396.781 474.238
897 0 42.0939 14.4439 608 116.309 395.525 475.845
898 0 41.0741 15.752 647 115.372 393.246 472.714
899 0 41.1465 16.0159 659 112.61 390.193 475.249
900 0 42.0399 15.0571 633 110.882 386.893 474.513
901 0 41.0488 14.8117 608 115.419 385.418 469.707
902 0 41.0439 14.6185 600 118.507 381.547 470.448
903 0 42.0439 14.5562 612 117.319 379.338 470.956
904 0 41.0655 13.8803 570 120.563 378.384 469.389
905 0 41.0496 13.4715 553 119.309 377.709 468.799
906 0 41.0734 14.2428 585 116.221 375.542 468.504
907 0 41.0734 14.1941 583 154.979 374.544 468.492
908 0 41.0821 14.7996 608 116.66 376.63 464.332
909 0 41.0965 14.1375 581 117.618 377.668 463.423
910 0 40.1133 14.5588 584 113.289 379.228 464.334
911 0 41.0301 14.3066 587 116.203 380.601 461.332
912 0 41.1186 13.0354 536 121.252 382.017 463.224
913 0 42.0604 14.289 601 110.983 384.877 462.536
914 0 41.016 14.9698 614 107.521 387.176 462.976
915 0 43.1476 13.5813 586 111.604 387.367 465.619
916 0 42.049 14.6972 618 110.06 388.366 462.893
917 0 42.1036 15.3431 646 108.238 391.06 462.243
918 0 42.0788 15.3759 647 108.49 392.41 464.108
919 0 41.0836 14.5314 597 110.27 393.464 465.687
920 0 41.0557 14.6386 601 110.73 394.739 468.992
921 0 40.0255 15.3652 615 112.016 397.65 467.55
922 0 40.0248 14.7659 591 113 397.387 470.14
923 0 42.0212 16.2775 684 106.618 396.602 470.509
924 0 40.0797 14.4712 580 112.636 399.114 474.816
925 0 40.0247 14.7659 591 112.433 398.949 474.565
926 0 40.0466 14.3083 573 108.079 397.899 477.113
927 0 41.039 14.3035 587 108.991 397.395 475.988
928 0 40.0403 14.5853 584 112.021 396.909 477.615
929 0 38.0253 14.3063 544 108.914 395.594 479.151
