time division length width area intensity CMx CMy
0 0 42.6978 12.7641 545 130.007 424.681 482.574
1 0 43.4792 14.4897 630 128.079 423.114 480.217
2 0 44.6141 13.628 608 130.52 424.331 478.962
3 0 49.3025 14.8268 731 125.289 423.566 477.78
4 0 49.3025 14.8877 734 146.268 422.56 477.842
5 0 51.3526 14.7412 757 127.791 423.624 473.663
6 0 50.5063 14.513 733 131.84 425.872 474.272
7 0 54.4114 15.3093 833 126.939 426.758 472.909
8 0 53.3472 14.265 761 133.159 428.068 469.587
9 0 55.3067 14.3925 796 131.707 428.796 469.889
10 0 54.1913 14.0429 761 135.346 430.208 467.506
11 0 58.1997 14.6221 851 129.215 432.506 468.491
12 0 59.1486 15.0468 890 128.688 433.747 466.419
13 0 60.1172 14.6381 880 128.656 434.752 464.024
14 0 62.0764 15.497 962 124.95 437.088 465.59
15 0 63.1651 15.879 1003 123.619 438.581 462.99
16 0 68.1628 16.2699 1109 119.385 441.499 463.03
17 0 68.1047 15.5202 1057 123.416 443.808 461.89
18 0 69.0693 16.4038 1133 121.952 445.99 461.079
19 0 73.1205 15.3582 1123 123.289 445.704 459.882
20 0 75.1678 15.5519 1169 123.959 448.803 457.979
21 0 77.2805 15.8643 1226 123.234 448.511 458.622
22 0 83.2915 15.92 1326 120.37 448.469 458.055
23 0 83.1846 15.4596 1286 121.87 447.887 458.711
24 0 86.353 16.1894 1398 120.155 446.866 458.064
25 1 47.0675 13.5125 636 123.97 444.219 476.142
26 0 48.0875 12.7684 614 125.863 442.637 475.638
27 0 49.0514 13.9242 683 123.779 439.789 473.668
28 0 53.1656 15.1602 806 119.831 437.794 472.739
29 0 53.0838 15.4661 821 119.491 436.058 471.234
30 0 53.0838 15.4661 821 168.089 435.058 471.234
31 0 56.2471 15.1297 851 118.953 431.11 460.613
32 0 59.1685 16.4277 972 114.325 429.664 460.238
33 0 60.2244 14.9441 900 117.753 429.434 455.991
34 0 62.2811 14.2419 887 119.4 429.672 456.256
35 0 65.1432 16.8705 1099 112.213 429.029 455.086
36 0 66.1349 14.4402 955 119.757 429.773 453.585
37 0 68.2283 14.9938 1023 118.048 431.519 455.612
38 0 71.148 15.1937 1081 117.543 433.332 454.457
39 0 74.1104 16.3675 1213 114.664 435.201 452.309
40 0 77.2341 16.5341 1277 117.202 437.396 448.546
41 0 79.267 15.4919 1228 120.105 439.581 447.226
42 1 43.0379 10.7347 462 121.84 439.561 466.792
43 0 41.0287 10.5292 432 122.762 442.488 467.88
44 0 44.0303 13.0819 576 118.497 444 466.861
45 0 45.0837 12.0443 543 120.759 445.6 461.873
46 0 46.2059 12.2062 564 121.681 447.202 460.445
47 0 49.1905 13.7831 678 117.92 449.553 460.602
48 0 49.1907 13.8034 679 117.748 451.515 459.091
49 0 53.0671 12.9082 685 117.727 453.025 463.73
50 0 53.22 15.3326 816 113.299 454.745 461.844
51 0 56.0743 14.9445 838 113.518 456.956 462.371
52 0 56.1544 14.6916 825 114.916 456.972 463.616
53 0 60.079 15.2632 917 114.173 457.736 462.924
54 0 59.0663 13.4256 793 116.967 456.974 465.029
55 0 63.2099 15.6779 991 110.756 459.984 464.334
56 0 65.0269 14.5325 945 115.021 458.437 465.183
57 0 65.07 14.0003 911 119.036 455.991 464.166
58 0 66.1593 13.7396 909 119.611 455.176 463.54
59 0 69.0744 14.4337 997 120.436 451.462 458.864
60 0 73.1034 14.1033 1031 120.608 449.245 459.984
61 0 75.1059 14.9123 1120 119.322 446.588 455.182
62 0 78.1165 15.3105 1196 118.017 444.228 455.719
63 0 77.2383 13.9698 1079 118.398 444.155 453.996
64 0 82.2743 15.0351 1237 118.909 442.802 449.888
65 1 45.1191 11.4142 515 117.087 442.922 468.272
66 0 46.0328 10.4056 479 119.72 439.937 467.52
67 0 49.0507 11.4779 563 118.03 439.726 464.808
68 0 48.0168 11.6418 559 120.538 439.692 462.948
69 0 50.0681 11.9038 596 120.003 439.161 461.341
70 0 52.0173 13.88 722 116.262 440.409 456.615
71 0 56.3077 14.7582 831 109.428 439.67 455.782
72 0 57.107 13.8337 790 111.981 442.524 455.262
73 0 58.0508 13.5226 785 113.316 445.141 453.668
74 0 61.084 13.9153 850 110.648 445.347 452.635
75 0 61.084 13.7843 842 148.127 444.346 452.666
76 0 66.126 14.1548 936 109.354 450.012 449.325
77 0 69.1845 13.9482 965 107.937 451.693 448.265
78 0 68.0986 13.2308 901 111.936 453.768 446.795
79 0 74.045 13.951 1033 110.903 455.322 445.955
80 0 74.036 13.9527 1033 110.108 457.656 444.166
81 0 79.1924 15.2035 1204 106.767 458.698 445.561
82 0 79.1124 15.2441 1206 106.994 460.561 444.127
83 0 82.1835 14.565 1197 110.281 462.062 442.552
84 0 87.2022 16.0776 1402 107.679 461.586 444.463
85 1 45.0792 7.63102 344 116.747 463.189 467.73
86 0 50.0821 11.8805 595 111.471 463.657 464.874
87 0 51.1051 11.5448 590 112.134 464.412 464.649
88 0 52.0572 11.6795 608 114.609 464.806 465.587
89 0 51.0993 12.2311 625 115.16 463.589 464.918
90 0 55.1037 13.5018 744 106.453 462.523 464.933
91 0 54.0386 13.2683 717 108.729 460.421 463
92 0 59.126 15.8982 940 102.37 458.152 464.227
93 0 58.0402 14.2315 826 109.172 455.786 462.701
94 0 63.1004 14.8018 934 106.524 454.054 462.444
95 0 63.0575 14.0665 887 110.025 450.467 459.716
96 0 64.0516 13.9731 895 108.358 447.727 458.533
97 0 68.0558 15.1493 1031 105.685 445.514 455.786
98 0 68.0705 14.6025 994 109.307 443.189 454.124
99 0 69.0494 15.1486 1046 108.456 441.765 450.011
100 0 73.0849 15.311 1119 108.112 441.402 448.08
101 0 74.066 14.9866 1110 109.635 441.032 448.334
102 0 76.0454 14.4124 1096 112.495 440.935 444.605
103 0 80.0552 14.5525 1165 110.891 442.437 442.197
104 0 84.116 14.2422 1198 111.741 444.888 441.222
105 0 85.093 13.7379 1169 113.335 446.201 438.674
106 0 89.1465 15.0987 1346 108.264 448.744 434.311
107 0 90.2723 14.3344 1294 109.213 450.655 434.512
108 0 94.2084 14.988 1412 108.074 452.516 433.78
109 0 98.1505 14.9974 1472 107.174 454.938 430.16
110 1 53.0662 11.137 591 110.162 458.337 452.959
111 0 54.0796 11.8529 641 108.44 459.842 450.516
112 0 56.1171 12.367 694 108.689 461.383 449.552
113 0 57.1967 13.6721 782 106.169 460.721 448.563
114 0 60.0483 12.873 773 104.021 463.514 449.841
115 0 63.0391 14.1975 895 100.238 464.518 451.093
116 0 66.1553 16.2647 1076 95.7807 466.427 451.988
117 0 68.1849 13.9327 950 101.791 467.671 450.156
118 0 70.0947 14.994 1051 100.23 468.422 450.206
119 0 71.1966 13.6383 971 102.019 469.299 451.762
120 0 72.2971 13.901 1005 103.025 469.248 452.603
121 0 76.3499 14.6169 1116 100.816 469.815 453.399
122 0 77.1598 13.5563 1046 105.235 469.327 451.205
123 1 42.0462 9.79875 412 109.665 469.699 468.396
124 0 44.0647 9.89453 436 108.745 467.367 470.044
125 0 46.0177 12.191 561 105.176 466.192 468.465
126 0 47.074 12.5759 592 105.111 464.086 465.785
127 0 50.0602 13.4838 675 102.274 461.788 466.428
128 0 52.0617 12.6581 659 103.313 459.824 464.258
129 0 52.0644 14.5781 759 99.1094 453.909 459.917
130 0 54.0467 13.2293 715 102.894 451.751 461.259
131 0 55.0507 12.7155 700 104.557 448.943 458.741
132 0 57.0457 13.5856 775 102.405 447.742 456.13
133 0 59.1272 14.1052 834 100.211 447.094 457.555
134 0 59.0411 13.3466 788 103.912 445.608 453.707
135 0 61.1156 13.1063 801 103.449 445.378 452.75
136 0 62.0859 12.4827 775 106.166 445.342 450.564
137 0 67.083 15.3243 1028 99.0788 445.959 445.206
138 0 72.1037 14.2434 1027 100.016 446.199 448.022
139 0 72.1849 14.7261 1063 100.715 448.821 444.751
140 0 74.1193 13.91 1031 102.764 450.621 442.794
141 0 77.1412 13.8577 1069 103.488 451.47 440.544
142 0 77.1276 14.0028 1080 104.809 452.885 437.936
143 0 82.1219 14.9899 1231 102.028 455.799 439.892
144 1 45.0836 9.71528 438 110.043 457.205 454.247
145 0 46.2016 10.0429 464 108.159 457.241 456.097
146 0 48.0287 11.389 547 104.172 460.592 454.899
147 0 51.1991 13.3205 682 98.1012 460.707 454.584
148 0 52.2543 13.3195 696 99.3621 466.624 451.351
149 0 53.1375 12.59 669 103.069 464.121 454.883
150 0 55.0938 13.5406 746 101.723 465.036 453.563
151 0 55.1391 13.6382 752 101.777 465.702 455.872
152 0 56.1178 13.1687 739 103.737 466.74 454.143
153 0 58.0754 13.1725 765 99.7686 467.554 454.877
154 0 61.1406 14.2622 872 97.3303 468.072 454.664
155 0 61.0847 14.5863 891 99.3423 467.38 455.932
156 0 63.1566 13.3794 845 102.409 466.827 454.596
157 0 64.2591 12.9631 833 103.906 466.291 455.271
158 0 67.2489 14.0969 948 101.084 465.119 455.805
159 0 69.2493 12.7077 880 103.307 463.136 456.389
160 0 70.1461 13.9708 980 101.183 460.336 452.779
161 0 75.1595 15.2609 1147 97.7681 459.214 451.633
162 0 77.1434 14.9851 1156 99.365 455.584 449.138
163 1 43.2909 9.97901 432 105.521 453.456 464.095
164 0 43.1883 10.6973 462 103.158 451.472 464.786
165 0 44.122 10.7656 475 105.6 449.604 461.817
166 0 47.1272 11.6069 547 102.508 448.72 460.724
167 0 48.0877 11.791 567 103.912 447.383 458
168 0 51.1997 11.2696 577 103.18 447.005 457.898
169 0 51.7092 13.1118 678 101.496 449.314 453.091
170 0 55.1667 13.0876 722 94.7909 450.744 451.794
171 0 52.0882 11.4421 596 98.4883 451.686 452.245
172 0 57.2526 13.3618 765 92.7046 453.054 451.038
173 0 56.5026 11.5039 650 98.1323 454.008 450.512
174 0 58.416 12.5308 732 94.7404 456.092 449.107
175 0 60.0918 12.8137 770 97.7455 455.722 449.748
176 0 60.0851 12.1328 729 99.5268 457.953 447.683
177 0 63.1166 13.2612 837 96.4086 459.949 445.413
178 0 63.1615 12.1593 768 99.5286 461.333 447.536
179 0 68.1489 14.2335 970 95.6887 462.928 445.937
180 0 67.2872 12.5284 843 101.074 466.741 442.827
181 0 72.2418 13.1226 948 100.417 469.023 442.655
182 0 73.2783 12.5276 918 101.438 470.523 444.398
183 0 79.2749 14.0019 1110 98.6405 471.496 444.591
184 1 43.0309 10.8992 469 103.527 472.279 460.77
185 0 42.0428 10.7509 452 105.684 472.819 461.732
186 0 46.0901 10.87 501 104.527 473.467 462.615
187 0 46.1592 10.4205 481 105.861 474.206 463.717
188 0 48.0333 11.492 552 101.207 472.438 464.375
189 0 51.0399 13.3033 679 98.053 472.118 463.72
190 0 52.0599 13.1963 687 98.0815 471.581 464.447
191 0 53.1763 13.3142 708 104.613 471.174 460.575
192 0 54.0984 13.5679 734 103.894 468.598 460.104
193 0 57.0356 14.0088 799 102.223 467.579 460.637
194 0 58.0595 14.4679 840 102.324 463.548 459.664
195 0 59.1127 14.3286 847 102.408 461.967 457.381
196 0 61.087 13.6527 834 105.55 458.204 456.659
197 0 64.1092 13.711 879 104.049 455.949 454.927
198 0 64.0771 14.1704 908 104.498 453.177 452.834
199 0 68.1155 12.9633 883 105.99 452.215 449.862
200 0 65.1093 14.3144 932 106.512 451.211 447.429
201 0 70.1314 13.9595 979 106.148 450.116 445.116
202 0 73.1205 14.7154 1076 104.613 449.799 442.763
203 0 74.1755 14.5331 1078 106.13 450.092 440.513
204 0 79.1105 14.9159 1180 103.399 451.027 439.585
205 1 39.0166 8.84239 345 108.151 452.632 457.971
206 0 41.0671 10.8359 445 105.38 454.234 456.144
207 0 43.0544 10.8235 466 102.453 455.562 456.378
208 0 43.0202 10.437 449 105.147 457.454 454.802
209 0 44.0494 11.8049 520 102.365 459.64 454.429
210 0 47.0259 11.7595 553 102.213 460.854 452.112
211 0 48.0852 12.2699 590 101.992 462.393 450.271
212 0 52.0937 14.4931 755 94.6106 462.623 453.494
213 0 54.0629 13.2623 717 96.5188 464.293 452.212
214 0 54.0629 13.2068 714 145.763 466.28 452.074
215 0 56.0493 13.4524 754 96.4934 468.472 453.801
216 0 57.074 12.002 685 99.0175 469.505 453.562
217 0 59.1539 11.9857 709 98.1114 470.56 452.938
218 0 59.1508 11.682 691 97.9841 469.98 454.726
219 0 62.1144 13.6522 848 95.6061 471.461 454.101
220 0 63.2394 13.3619 845 96.0036 472.178 454.14
221 0 67.1797 14.4091 968 92.6911 471.272 455.192
222 0 67.2906 13.7315 924 94.5628 472.916 454.181
223 0 70.2517 15.2452 1071 92.7852 471.932 454.646
224 0 71.3827 14.023 1001 95.5315 469.219 450.561
225 0 74.5217 14.2643 1063 94.858 466.259 448.866
226 0 78.4514 14.1489 1110 95.2685 463.215 449.917
227 0 80.3886 14.2184 1143 95.6579 462.472 445.843
228 0 81.3732 13.1739 1072 98.8004 459.86 443.019
229 0 84.4961 14.4977 1225 97 456.504 444.4
230 1 47.2802 10.9771 519 98.817 456.657 462.202
231 0 47.2821 11.5689 547 98.8958 453.737 458.26
232 0 46.1361 12.5715 580 96.4862 453.067 457.964
233 0 52.0944 13.8019 719 94.2295 450.523 457.463
234 0 50.5337 12.3284 623 100.868 448.62 450.751
235 0 52.103 13.3965 698 94.4212 448.188 449.646
236 0 54.0803 14.4045 779 93.6611 449.239 450.863
237 0 58.0448 14.127 820 92.7549 450.189 448.844
238 0 58.0815 14.6174 849 93.0683 452.545 446.117
239 0 59.0399 13.872 819 94.7424 453.328 445.393
240 0 63.1033 14.1356 892 93.4854 454.534 443.914
241 0 63.1213 13.4186 847 95.4156 456.874 443.438
242 0 67.1296 13.9283 935 94.1251 458.466 441.002
243 0 69.0758 13.9846 966 94.5217 459.759 439.642
244 0 68.0425 13.4916 918 96.2908 459.926 438.685
245 1 42.12 11.2773 475 93.7242 462.175 454.299
246 0 41.0101 10.7291 440 97.2159 463.855 452.055
247 0 44.0343 10.1739 448 95.7679 466.25 455.817
248 0 47.0347 9.75876 459 95.427 467.383 454.745
249 0 45.0725 11.3151 510 92.251 469.096 456.512
250 0 45.0861 11.6222 524 92.6279 470.088 456.01
251 0 47.059 12.6862 597 92.1206 470.98 456.126
252 0 50.173 12.8356 644 92.6817 473.2 457.949
253 0 51.2416 14.2658 731 87.3324 476.505 457.17
254 0 52.2907 11.5317 603 91.0547 475.458 457.925
255 0 53.2904 12.7978 682 90.2097 475.11 458.123
256 0 52.193 11.6491 608 92.3273 473.934 460.627
257 0 56.252 12.6218 710 90.4183 474.039 459.813
258 0 56.4106 11.2922 637 91.9105 471.43 460.923
259 0 58.2533 12.5315 730 91.5 469.952 458.234
260 0 62.3433 15.8798 990 84.7576 467.947 458.173
261 0 63.2516 13.1854 834 87.7518 464.528 460.445
262 0 65.1922 13.5753 885 87.4215 462.755 455.901
263 0 68.1996 13.9737 953 86.5257 459.038 453.493
264 0 69.2315 14.011 970 87.0289 456.818 452.425
265 0 72.2138 14.7894 1068 86.9757 454.312 449.173
266 0 75.3004 14.4621 1089 85.7961 452.618 449.364
267 0 75.3004 14.4488 1088 148.417 450.609 449.335
268 0 80.075 15.1483 1213 85.8508 451.272 440.502
269 0 84.1148 15.8236 1331 84.8452 451.568 437.417
270 1 49.1761 11.9774 589 85.18 453.514 456.309
271 0 49.0516 11.9874 588 89.102 455.017 454.364
272 0 51.0345 11.1101 567 90.6702 456.72 451.795
273 0 53.0584 12.5334 665 88.797 457.645 446.994
274 0 57.1212 13.2 754 86.0464 457.93 447.309
275 0 58.3332 13.3029 776 84.7771 460.023 449.312
276 0 59.2986 13.4067 795 85.3698 461.125 446.718
277 0 62.2928 14.1268 880 84.3011 463.299 445.552
278 0 62.3115 13.1918 822 85.4465 464.17 444.832
279 0 66.3163 13.9031 922 83.1508 465.406 443.846
280 0 68.2664 13.0811 893 85.6215 466.411 444.426
281 0 71.2674 15.0279 1071 81.8758 467.125 443.767
282 0 73.2706 15.4496 1132 81.5883 468.469 443.299
283 0 75.3155 15.601 1175 81.7387 471.192 443.957
284 0 77.2774 15.4379 1193 82.3009 472.825 443.617
285 0 80.2723 16.2447 1304 82.0775 471.643 442.772
286 0 82.3194 13.6663 1125 86.4267 473.555 445.916
287 1 42.0222 10.6848 449 89.3207 474.811 464.04
288 0 46.0412 11.077 510 88.1039 474.727 464.545
289 0 46.0412 11.0119 507 153.921 474.724 464.724
290 0 50.0537 10.8883 545 87.444 473.596 464.912
291 0 51.0921 10.5104 537 89.1993 472.022 464.825
292 0 53.1051 11.8633 630 89.5667 471.179 461.878
293 0 56.1956 13.6843 769 84.4486 468.351 463.1
294 0 56.0907 13.603 763 85.1402 466.109 459.911
295 0 58.1362 15.3949 895 82.514 463.303 460.811
296 0 62.2784 15.784 983 80.8739 461.149 457.45
297 0 64.165 15.1173 970 81.1546 458.564 456.742
298 0 66.0854 14.1332 934 83.9379 455.882 453.252
299 0 68.172 14.038 957 82.8495 452.55 450.522
300 0 69.1966 13.3966 927 86.1435 452.534 447.937
301 0 75.2 14.3218 1077 83.8403 451.043 445.782
302 0 75.2552 13.8861 1045 85.6383 451.511 442.173
303 0 78.1327 14.6801 1147 84.5702 452.125 439.221
304 0 81.143 15.0229 1219 84.0517 452.646 438.452
305 0 85.0941 15.1479 1289 83.3646 452.638 437.162
306 0 88.1605 15.5512 1371 83.2976 454.57 433.783
307 0 92.2919 17.4338 1609 80.0833 456.25 432.732
308 0 92.1557 14.508 1337 87.2057 458.223 428.583
309 0 96.2815 13.9695 1345 88.0416 461.356 429.52
310 0 98.0971 14.9342 1465 87.8737 462.31 427.5
311 1 57.065 11.4256 652 92.0015 465.107 448.486
312 0 56.0517 12.1852 683 89.1186 466.461 452.069
313 0 55.044 11.0457 608 92.454 467.288 450.888
314 0 57.0376 13.0966 747 89.3253 468.999 451.347
315 0 59.0569 12.107 715 92.9496 469.643 448.496
316 0 63.0749 14.2529 899 88.5184 471.393 448.06
317 0 63.0502 12.7993 807 92.4498 473.097 448.535
318 0 68.0972 15.5513 1059 87.6006 473.89 447.469
319 0 67.0588 13.8535 929 93.282 474.23 448.396
320 0 71.211 13.804 983 89.7182 472.834 450.031
321 0 73.3789 14.868 1091 89.1366 473.322 449.126
322 0 75.2078 14.3735 1081 89.6189 473.047 448.876
323 0 76.1511 14.2611 1086 92.4982 473.908 449.094
324 0 79.318 15.192 1205 94.3154 472.549 448.868
325 0 79.2277 16.0171 1269 92.8014 471.411 447.274
326 0 81.2655 14.5818 1185 97.3376 468.914 443.965
327 0 83.5432 14.9862 1252 98.1318 466.481 443.032
328 0 88.483 15.777 1396 95.2042 463.459 439.955
329 0 91.6899 17.5592 1610 93.0267 460.212 437.751
330 0 93.2061 12.864 1199 99.7348 456.998 439.223
331 0 93.2061 12.9069 1203 159.134 453.964 439.447
332 0 101.329 15.1585 1536 96.5872 453.693 436.26
333 0 104.352 12.4962 1304 101.177 451.714 432.88
334 0 108.58 13.7042 1488 98.8622 451.02 427.507
335 1 59.5299 11.238 669 96.7892 451.167 450.746
336 0 60.4884 11.06 669 98.1076 451.229 445.327
337 0 64.604 12.5998 814 93.4509 452.233 442.731
338 0 66.0804 12.6815 838 93.389 451.344 447.41
339 0 68.1839 14.2849 974 91.9651 452.358 444.89
340 0 72.1338 15.0276 1084 92.8487 453.634 439.757
341 0 74.1024 13.2924 985 94.1005 456.463 440.004
342 0 76.0879 15.4558 1176 90.4184 457.605 435.27
343 0 77.0949 13.9179 1073 92.4884 459.349 434.609
344 0 80.0828 12.6619 1014 93.929 461.118 435.785
345 0 83.1067 15.077 1253 90.1484 462.856 432.471
346 0 87.1348 16.2392 1415 87.2035 463.869 433.99
347 0 92.1065 16.2964 1501 86.3837 465.103 434.434
348 0 93.0798 15.8466 1475 88.3159 467.159 432.731
349 0 95.2533 16.1044 1534 86.94 467.332 433.452
350 0 97.2636 15.1547 1474 89.0943 469.523 433.942
351 0 100.22 14.4682 1450 91.5379 471.261 431.161
352 0 102.254 14.1999 1452 91.064 471.406 431.82
353 0 106.287 15.2323 1619 89.8968 472.609 429.004
354 1 58.0659 8.93813 519 91.7707 471.703 461.299
355 0 59.1013 9.94902 588 94.0374 471.747 458.313
356 0 63.1839 12.7406 805 91.0994 472.519 457.113
357 0 64.1991 13.2556 851 90.4959 473.915 457.154
358 0 68.336 13.9019 950 87.8705 472.144 454.757
359 0 69.1092 13.6885 946 90.0856 473.544 451.26
360 0 71.1367 13.5514 964 89.5944 470.767 453.146
361 0 72.0712 13.6254 982 90.1843 468.07 453.088
362 0 74.1319 14.717 1091 89.6829 464.63 450.877
363 0 75.2839 14.1066 1062 91.968 462.022 444.693
364 0 73.4642 15.0005 1102 93.6071 457.528 447.489
365 0 73.5371 14.6321 1076 97.144 455.557 446.382
366 0 77.5376 16.7532 1299 93.4219 452.991 445.511
367 0 79.4641 15.7555 1252 95.7276 451.512 442.808
368 0 81.4546 15.1618 1235 97.1587 450.886 441.917
369 0 81.376 14.9553 1217 98.4782 450.426 435.828
370 0 82.5184 13.5606 1119 101.584 450.911 432.844
371 0 86.3668 16.1405 1394 95.0165 451.319 433.407
372 0 88.4709 15.3497 1358 96.8255 453.845 430.257
373 0 92.4038 16.0708 1485 95.3784 455.562 430.158
374 0 95.3963 18.2921 1745 92.0934 457.12 429.954
375 0 97.548 17.0378 1662 94.725 458.56 427.004
376 0 100.418 16.6802 1675 92.6173 461.579 424.96
377 0 99.3754 15.7484 1565 96.9093 463.648 421.684
378 0 106.317 16.2815 1731 94.3408 464.159 423.914
379 0 112.432 18.589 2090 88.7273 465.751 418.932
380 0 111.436 16.6643 1857 93.5644 467.374 418.29
381 0 112.649 15.1533 1707 96.6889 467.486 421.353
382 0 112.613 13.5508 1526 100.096 469.632 422.38
383 1 69.4538 12.3247 856 97.4416 471.164 445.112
384 0 71.5083 13.2852 950 97.8642 471.646 441.879
385 0 75.3782 12.4572 939 98.0362 473.307 445.583
386 0 76.3297 14.0705 1074 98.5121 474.276 443.044
387 0 80.3517 13.752 1105 97.4317 474.647 443.948
388 0 83.3234 15.3138 1276 94.8339 475.46 444.399
389 0 85.395 14.1929 1212 97.948 476.081 445.24
390 0 86.4491 13.7075 1185 99.7932 475.74 444.637
391 0 92.331 15.6177 1442 95.8911 474.505 442.298
392 0 94.3593 14.254 1345 100.028 472.639 442.362
393 0 95.3318 14.0876 1343 102.167 470.503 442.546
394 0 99.1658 15.459 1533 99.8552 467.881 441.479
395 1 52.0661 9.54556 497 99.5936 466.986 464.563
396 0 54.1023 11.1455 603 99.1559 464.393 462.295
397 0 56.0441 10.2776 576 100.182 459.799 462.045
398 0 58.0616 10.7817 626 144.891 455.829 461.115
399 0 60.1197 11.5935 697 95.3343 454.608 454.844
400 0 63.1015 13.5338 854 92.582 452.352 451.698
401 0 64.0813 11.5478 740 93.5459 450.593 453.209
402 0 63.0793 9.74964 615 97.078 449.652 450.924
403 0 68.0797 13.2051 899 91.6452 450.552 447.014
404 0 70.0949 12.5687 881 92.6277 451.221 444.7
405 0 73.2555 13.4734 987 91.0304 451.982 440.318
406 0 74.1276 12.2357 907 92.9857 454.448 440.427
407 0 78.1248 12.2368 956 92.2123 455.695 438.752
408 0 81.2517 13.4397 1092 90.7747 458.899 438.484
409 0 83.2549 12.708 1058 92.3507 460.503 436.949
410 0 85.3183 12.342 1053 92.8386 463.008 435.256
411 0 88.2615 13.1088 1157 91.363 464.341 432.301
412 0 89.4722 12.6184 1129 92.6138 466.468 433.603
413 1 48.0603 10.1747 489 89.8344 468.147 454.902
414 0 48.0046 10.6031 509 89.0589 469.66 457.285
415 0 47.056 10.8594 511 89.4031 470.618 454.644
416 0 50.0725 10.9042 546 91.0293 471.626 452.927
417 0 54.0484 12.8958 697 89.8049 472.364 452.578
418 0 52.0363 11.6457 606 93.0693 472.439 453.343
419 0 53.1148 10.5244 559 88.0644 472.068 459.277
420 0 54.2133 11.4732 622 87.4084 474.085 456.461
421 0 55.1385 11.4802 633 88.801 473.754 456.782
422 0 59.2879 10.7442 637 87.989 474.819 459.947
423 0 62.1565 12.9512 805 86.3925 473.545 456.771
424 0 64.0901 11.359 728 88.6662 472.97 456.611
425 0 65.1921 11.98 781 89.0589 471.802 455.914
426 0 70.2061 12.506 878 87.3827 470.683 458.222
427 0 75.1057 14.1134 1060 84.0792 469.015 457.116
428 0 77.0384 14.8368 1143 84.6028 467.143 452.802
429 0 80.1598 13.6727 1096 87.2883 464.39 451.031
430 0 79.1566 12.7722 1011 92.4352 460.774 451.226
431 0 78.1474 12.2845 960 95.7417 456.978 449.066
432 0 87.1216 13.5787 1183 95.8022 455.753 443.61
433 0 89.219 15.0192 1340 94.2455 452.508 438.774
434 0 94.3138 13.6565 1288 97.4674 450.658 437.102
435 0 97.3372 15.3179 1491 95.1818 450.924 434.747
436 0 100.35 15.0374 1509 96.2777 450.027 430.674
437 0 104.443 15.2428 1592 96.2626 450.535 427.808
438 0 110.615 16.9959 1880 91.3527 452.362 430.204
439 0 110.487 13.178 1456 101.621 453.56 425.129
440 0 114.663 15.0354 1724 98.2616 455.872 419.44
441 0 118.773 15.9043 1889 98.1758 456.979 416.599
442 0 121.593 15.1736 1845 100.392 459.798 412.313
443 0 124.877 14.6785 1833 102.082 461.357 411.483
444 0 127.725 14.4921 1851 102.466 462.972 407.777
445 0 132.866 14.6237 1943 101.247 464.795 410.256
446 1 59.4601 10.5617 628 98.7691 468.615 446.904
447 0 61.5481 10.6096 653 100.617 468.775 445.161
448 0 64.4237 11.8435 763 98.7169 470.836 443.313
449 0 65.343 12.4879 816 99.3113 472.727 446.327
450 0 66.5906 13.6656 910 93.8088 472.801 443.621
451 0 68.4997 12.7446 873 94.4284 474.423 444.778
452 0 71.2113 12.0206 856 103.29 475.172 448.711
453 0 74.149 13.7426 1019 98.5201 474.487 448.869
454 0 75.22 12.7626 960 102.202 476.281 447.604
455 0 79.1066 13.741 1087 98.988 476.498 448.258
456 0 80.1213 13.6418 1093 100.092 476.448 447.732
457 0 84.2884 15.2097 1282 96.6326 476.13 447.552
458 1 43.0686 11.2611 485 98.7567 473.45 468.893
459 0 42.0487 9.84572 414 101.72 471.621 467.343
460 0 45.2141 9.55455 432 97.787 467.616 470.424
461 0 44.0962 10.5451 465 99.1806 466.308 468.034
462 0 51.0173 12.2899 627 93.6762 463.844 465.793
463 0 50.1017 12.8339 643 97.238 460.638 462.858
464 0 53.1754 14.0479 747 92.9987 457.626 461.447
465 0 55.146 13.3826 738 95.8211 456.133 459.4
466 0 56.1127 13.7759 773 95.3402 453.603 458.638
467 0 59.1338 14.2896 845 99.942 453.824 453.934
468 0 56.1653 12.6769 712 106.74 452.528 452.74
469 0 63.151 15.3125 967 96.7104 452.44 451.335
470 0 63.2278 14.0445 888 101.655 451.77 445.572
471 0 66.2105 14.6653 971 100.47 451.801 446.659
472 0 69.1591 15.6162 1080 96.5972 453.126 444.943
473 0 68.2409 14.4635 987 99.6474 456.043 442.843
474 0 69.2898 13.6095 943 102.425 457.104 441.528
475 0 70.1962 13.6332 957 102.612 459.084 436.961
476 0 74.2858 13.3135 989 102.729 459.358 439.886
477 0 78.2224 14.9701 1171 99.3143 461.619 436.42
478 0 79.5482 15.1229 1203 99.4946 463.526 435.273
479 0 81.609 14.9003 1216 100.082 464.863 436.444
480 0 82.4304 13.6236 1123 103.539 466.85 435.67
481 0 86.4308 14.1385 1222 101.493 468.613 434.913
482 0 89.759 14.9066 1338 99.7212 469.979 437.268
483 0 89.4771 13.5789 1215 101.278 471.202 432.612
484 1 47.192 9.26004 437 102.297 471.185 453.684
485 0 51.4096 11.2236 577 99.4055 472.106 456.475
486 0 51.4096 11.1458 573 150.89 473.099 456.45
487 0 51.3937 10.585 544 97.2702 473.833 457.138
488 0 53.5852 11.8316 634 95.9054 474.623 455.909
489 0 55.6712 13.8492 771 91.0493 475.529 453.768
490 0 58.5794 12.9397 758 90.8628 475.628 453.087
491 0 59.5481 13.3841 797 89.9887 475.149 451.274
492 0 59.4387 13.577 807 95.5452 474.88 455.626
493 0 62.2015 14.228 885 94.2508 473.766 455.659
494 0 65.4223 15.1936 994 90.7143 471.683 455.296
495 0 64.3589 13.0673 841 95.7075 468.439 450.434
496 0 67.2978 13.8786 934 90.2409 465.563 448.182
497 0 71.4574 13.2107 944 90.1409 462.668 448.842
498 0 72.4134 13.6715 990 90.0515 459.961 446.69
499 0 76.1832 14.9114 1136 89.4049 457.161 443.882
500 0 77.4861 12.5442 972 92.9156 454.413 441.448
501 0 81.5773 13.999 1142 90.2793 454.035 437.78
502 1 45.2731 10.5582 478 93.772 453.933 452.174
503 0 45.1999 12.6549 572 88.3147 452.484 451.65
504 0 48.3261 14.0918 681 87.4391 454.245 448.37
505 0 49.8104 11.343 565 91.5717 453.119 446.593
506 0 50.6136 13.7117 694 88.8718 455.988 446.009
507 0 52.291 13.0615 683 91.2035 456.187 444.253
508 0 56.128 14.2888 802 87.2868 456.576 443.762
509 0 56.1554 13.1421 738 90.6247 459.705 447.687
510 0 59.1525 15.367 909 86.2211 461.563 446.658
511 0 60.1782 14.1247 850 88.2706 463.361 444.582
512 0 65.2044 15.0296 980 84.8888 465.572 444.883
513 0 65.1524 13.9519 909 87.9879 467.603 445.111
514 0 67.2525 16.0143 1077 83.6305 467.655 445.768
515 0 69.236 14.6456 1014 84.8067 469.687 444.657
516 0 71.1025 14.022 997 86.8385 470.845 443.787
517 0 73.1511 15.3108 1120 84.7411 471.871 444.534
518 0 73.21 14.4379 1057 87.3775 473.646 445.468
519 0 77.302 15.0449 1163 86.0671 474.023 446.484
520 1 43.1026 10.9042 470 88.2872 474.017 461.93
521 0 44.2961 12.0101 532 87.2538 475.451 462.158
522 0 45.1577 11.5374 521 87.9117 476.843 465.246
523 0 46.2296 12.3946 573 89.5846 474.661 464.759
524 0 47.1738 13.7364 648 86.8951 474.34 463.407
525 0 48.33 12.1663 588 89.182 474.541 463.838
526 0 48.0876 13.0387 627 86.1404 472.094 465.405
527 0 50.0443 12.8486 643 87.0342 469.991 464.255
528 0 48.0793 10.7947 519 91.9287 467.748 460.954
529 0 51.1268 13.2416 677 87.8464 465.545 459.839
530 0 54.1174 13.2859 719 87.4298 462.726 457.701
531 0 56.1874 12.5651 706 87.0128 459.348 459.459
532 0 56.0928 10.9996 617 90.3728 456.376 458.465
533 0 58.1076 12.4424 723 88.332 454.599 454.429
534 1 33.1781 9.76547 324 87.5772 453.83 465.108
535 0 35.1407 10.9275 384 86.0859 452.849 462.714
536 0 34.3231 9.61452 330 86.5879 452.852 463.5
537 0 36.179 11.7195 424 85.0684 452.493 460.392
538 0 38.0977 12.9929 495 84.4667 453.568 457.103
539 0 40.2902 12.6582 510 86.3059 455.563 458.149
540 0 41.8845 13.4656 564 83.2996 458.108 452.066
541 0 40.2688 11.9944 483 90.0373 458.518 454.145
542 0 43.2231 12.7941 553 87.9132 460.123 453.447
543 0 44.1323 13.8221 610 87.1705 464.025 453.426
544 0 46.0938 13.9932 645 85.9395 464.961 454.606
545 0 46.0368 13.3372 614 87.6547 466.752 453.125
546 0 49.0687 13.7155 673 85.1426 469.863 452.199
547 0 47.084 13.1255 618 88.034 471.003 449.249
548 0 48.0888 12.7888 615 88.465 473.26 450.545
549 0 50.0333 13.531 677 86.322 474.672 453.864
550 0 53.0888 12.7522 677 87.873 475.817 452.569
551 0 54.1111 13.5462 733 86.2524 476.731 452.488
552 0 54.3084 13.8284 751 88.1851 474.165 454.225
553 0 54.2358 13.8654 752 87.9641 474.743 454.606
554 0 56.2224 13.9446 784 88.4949 476 454.098
555 0 55.2998 14.1411 782 88.2852 475.292 454.2
556 0 58.5052 12.7681 747 90.1058 475.501 455.364
557 0 61.1984 14.7553 903 85.6013 475.398 458.725
558 0 62.2726 13.5854 846 88.4574 474.688 454.404
559 0 66.4737 15.5851 1036 82.7876 474.533 455.457
560 0 66.1622 15.2957 1012 84.6364 473.368 457.187
561 0 69.2462 15.4954 1073 84.2684 471.158 453.267
562 0 72.2525 14.0895 1018 86.8919 468.794 452.794
563 1 37.1188 9.91412 368 89.9891 464.957 469.424
564 0 40.1714 11.5754 465 87.929 461.716 464.637
565 0 42.098 10.8319 456 87.5022 459.794 464.638
566 0 43.1281 11.6165 501 86.9401 457.088 464.068
567 0 45.1256 13.5843 613 84.7667 453.752 460.516
568 0 45.3693 12.1889 553 87.2604 453.906 454.577
569 0 44.184 11.769 520 87.5212 451.963 455.819
570 0 50.0767 13.9985 701 82.7874 452.67 452.613
571 0 53.147 14.2435 757 81.0066 453.577 453.102
572 0 54.121 15.1328 819 80.5751 454.258 450.978
573 0 55.1584 15.6821 865 80.8185 455.988 448.828
574 0 54.0932 13.4952 730 85.4342 457.936 448.549
575 0 57.1388 15.1211 864 83.375 459.818 446.454
576 0 58.2309 13.1717 767 87.5332 461.523 447.023
577 0 63.0789 14.2044 896 85.2121 464.137 444.943
578 0 64.121 14.7222 944 84.1377 465.559 446.327
579 0 68.0779 16.0551 1093 81.9167 467.041 444.654
580 0 65.1807 15.0351 980 85.7949 468.714 443.373
581 0 70.226 15.2223 1069 84.29 469.856 441.238
582 0 71.1512 14.1389 1006 87.2555 473.526 442.293
583 0 75.209 15.9156 1197 82.7519 474.87 446.568
584 1 38.0791 12.1064 461 91.0759 476.87 459.341
585 0 42.1545 12.7151 536 89.2108 476.998 460.011
586 0 44.1622 12.1824 538 89.6338 477.928 462.418
587 0 42.2322 12.6207 533 90.4972 478.478 461.257
588 0 43.1632 12.0473 520 92.4904 478.379 461.077
589 0 46.3249 12.2396 567 90.7372 479.079 463.979
590 0 46.1872 14.0082 647 89.9397 478.107 462.862
591 0 46.2746 12.9877 601 90.0183 476.815 457.476
592 0 50.2217 15.1926 763 87.2084 478.001 465.155
593 0 49.159 13.792 678 92.1903 477.021 464.698
594 0 53.076 15.3365 814 87.7383 476.257 464.731
595 0 54.0464 16.2638 879 86.132 472.85 462.134
596 0 54.068 14.5927 789 92.2484 470.626 459.307
597 0 56.0411 15.1496 849 91.9164 467.53 457.854
598 0 56.1613 14.583 819 94.1941 464.402 456.038
599 0 62.1445 16.9766 1055 87.1422 461.681 455.664
600 0 60.2019 15.4148 928 93.3869 458.087 451.995
601 0 74.8855 15.25 1142 85.9326 457.202 454.191
602 0 65.1511 16.1471 1052 91.0637 455.724 449.505
603 0 67.2296 15.4694 1040 93.3317 455.472 446.662
604 0 71.1707 16.2567 1157 91.8479 454.456 443.771
605 0 72.2377 15.9889 1155 93.1524 455.658 441.104
606 0 75.1791 17.9837 1352 89.9009 456.214 440.477
607 0 78.2799 15.9683 1250 94.1208 457.794 439.899
608 0 77.2237 15.3191 1183 97.8867 460.003 436.475
609 0 81.1833 15.6806 1273 97.3566 461.685 434.137
610 0 84.2778 15.9354 1343 98.7051 462.722 430.866
611 0 88.2931 16.4226 1450 97.2434 465.314 431.875
612 1 49.095 10.5713 519 100.761 468.701 452.347
613 0 49.1529 12.3492 607 98.86 470.631 453.99
614 0 52.1457 12.7911 667 100.151 471.825 452.915
615 0 52.2295 12.7514 666 100.842 472.718 450.488
616 0 56.1673 12.8901 724 96.3287 474.064 453.454
617 0 57.2599 13.7793 789 95.7858 473.792 453.388
618 0 59.3405 13.0602 775 96.0426 475.763 453.458
619 0 60.2401 14.2098 856 94.3049 476.893 455.235
620 0 62.2948 13.2756 827 96.7497 476.814 456.075
621 0 64.2828 14.2651 917 94.9487 477.118 455.156
622 0 64.195 13.35 857 96.8471 476.821 454.034
623 0 65.3523 14.2459 931 96.232 476.86 455.925
624 0 69.3509 14.7799 1025 94.5541 475.995 455.261
625 0 69.32 13.2285 917 100.064 476.212 454.626
626 0 75.4189 14.5322 1096 95.6998 475.815 456.62
627 0 76.3738 14.9397 1141 96.3225 474.678 454.982
628 1 38.1811 9.11446 348 103.376 472.707 474.488
629 0 41.2388 10.3058 425 100.202 470.4 473.416
630 0 42.1566 11.5522 487 100.7 467.897 469.285
631 0 45.1343 10.8343 489 101.871 463.84 466.386
632 0 49.0929 13.0976 643 96.409 461.938 466.74
633 0 47.2193 13.109 619 98.3344 458.252 462.879
634 0 50.3212 13.9901 704 95.7088 456.964 461.315
635 0 50.2111 13.0847 657 97.5571 456.98 461.318
636 0 51.3118 13.3693 686 99.516 455.308 457.226
637 0 52.3843 14.05 736 98.7636 454.917 455.052
638 0 55.4271 13.1885 731 99.5062 453.912 452.219
639 0 58.1682 13.9423 811 98.6301 455.474 451.279
640 0 57.4784 13.3789 769 100.434 456.98 450.358
641 0 59.3679 13.4248 797 100.524 458.332 445.939
642 0 63.4077 15.1717 962 96.1206 458.509 444.804
643 0 63.472 13.7068 870 99.8759 459.926 441.968
644 0 65.4047 14.4944 948 98.2036 462.939 436.47
645 0 71.5996 16.4526 1178 93.365 464.694 439.31
646 0 75.6149 16.4782 1246 93.6517 467.261 440.62
647 0 76.6653 16.3046 1250 94.744 467.622 437.055
648 0 77.3781 15.4049 1192 97.9505 468.33 434.905
649 0 81.5841 15.4565 1261 96.9175 470.165 437.121
650 0 81.7925 13.7665 1126 99.7496 472.296 432.921
651 0 84.845 14.2849 1212 98.0891 471.551 430.474
652 1 46.6244 12.0967 564 97.1028 474.076 451.271
653 0 47.6828 11.933 569 96.8805 474.685 449.944
654 0 49.5748 11.2154 556 95.3939 474.932 454.302
655 0 49.644 12.5091 621 95.3688 475.66 452.554
656 0 52.3334 15.0382 787 91.1779 474.845 450.783
657 0 51.6195 14.1807 732 93.1708 475.874 458.253
658 0 53.2823 14.2636 760 92.7263 476.879 460.942
659 0 55.3195 14.6964 813 91.3186 476.33 457.464
660 0 55.2856 13.7649 761 92.0946 475.1 461.275
661 0 54.4966 12.0925 659 94.8907 474.246 462.607
662 0 57.3664 15.2528 875 89.6926 470.546 460.8
663 0 61.4035 15.3737 944 87.9396 468.839 458.584
664 0 60.443 13.3514 807 92.0248 464.927 455.744
665 0 66.3576 15.959 1059 85.7781 461.781 455.106
666 0 65.5518 14.5229 952 89.9055 460.022 452.872
667 0 67.4472 14.3075 965 90.4135 456.739 449.817
668 0 68.4302 14.8911 1019 90.7095 454.905 446.68
669 0 72.3218 15.7214 1137 89.5207 453.289 443.515
670 0 74.5217 14.9755 1116 90.9113 453.63 439.226
671 0 77.3512 14.6345 1132 91.7544 453.394 438.555
672 0 81.4588 16.2413 1323 88.5087 454.081 435.985
673 0 82.7608 15.7563 1304 91.5851 454.965 432.57
674 0 83.7593 15.258 1278 93.1628 455.992 426.853
675 0 89.6732 15.4896 1389 92.1274 457.936 426.028
676 0 91.8312 15.4523 1419 93.3235 459.102 425.676
677 0 94.7253 15.7086 1488 92.9704 462.083 419.315
678 0 99.5772 15.6662 1560 90.666 463.725 411.045
679 0 101.55 15.7065 1595 91.4307 465.221 411.195
680 0 105.588 15.0395 1588 92.8703 466.885 410.645
681 0 107.568 14.6512 1576 94.9308 469.614 408.026
682 0 113.676 16.0017 1819 92.5712 471.593 408.939
683 0 116.579 16.1522 1883 92.8226 472.466 409.066
684 0 119.549 14.6384 1750 96.8109 473.313 407.309
685 0 125.72 16.9185 2127 91.9229 474.302 409.474
686 0 130.583 15.469 2020 94.6495 475.869 411.131
687 0 133.339 16.1243 2150 94.4819 476.086 408.202
688 0 137.442 15.2792 2100 95.8319 475.8 404.644
689 0 141.716 15.7286 2229 94.9103 475.802 404.86
690 0 145.619 16.6874 2430 93.3037 476.363 405.455
691 0 149.432 16.6966 2495 93.4281 475.36 403.139
692 0 153.726 15.2284 2341 95.8825 475.563 404.764
693 0 158.644 15.8972 2522 95.0222 475.289 404.695
694 0 163.625 16.3789 2680 94.8321 473.924 400.793
695 0 170.62 16.9851 2898 92.8948 472.603 398.289
696 1 79.363 12.3231 978 92.8579 470.198 440.446
697 0 81.3652 12.5484 1021 91.2468 467.406 441.361
698 0 81.3638 11.7374 955 94.9466 465.392 437.714
699 0 87.2636 13.3962 1169 90.5167 462.652 438.723
700 0 89.2071 13.9115 1241 90.5818 461.849 439.596
701 0 93.2008 15.193 1416 87.3948 459.56 436.398
702 0 95.2742 15.2507 1453 87.6814 457.682 432.037
703 0 99.4536 15.8969 1581 86.0209 456.323 429.241
704 0 103.18 15.1289 1561 86.7899 455.534 424.556
705 0 107.324 14.8243 1591 87.0415 455.816 423.635
706 1 46.2198 10.6881 494 86.5304 459.547 450.441
707 0 47.2685 11.3818 538 83.3885 461.314 451.578
708 0 47.1828 11.0633 522 85.1379 462.23 446.847
709 0 51.1233 13.2621 678 81.5192 464.22 447.56
710 0 52.0852 12.0188 626 87.5128 464.607 445.54
711 0 54.0722 12.5758 680 87.4868 468.563 442.284
712 0 57.0969 13.4158 766 85.5339 470.842 442.966
713 0 56.0599 13.7175 769 85.7529 471.817 439.527
714 0 60.0785 13.8985 835 85.0048 473.523 443.283
715 0 62.0803 14.449 897 82.9521 475.744 442.979
716 0 63.071 13.7464 867 84.9815 476.256 438.982
717 0 63.1183 13.245 836 87.1579 477.106 440.536
718 1 31.0059 9.51432 295 87.1593 478.773 460.698
719 0 34.0762 10.5646 360 85.3556 480.453 463.792
720 0 35.012 12.1958 427 83.7611 480.489 462.951
721 0 35.0303 11.4187 400 84.4025 480.912 462.308
722 0 36.0121 11.7461 423 84.1277 482.648 462.605
723 0 38.0205 11.1782 425 82.0871 481.626 463.967
724 0 40.0817 13.0484 523 80.5851 481.157 463.178
725 0 41.0098 13.3627 548 80.8376 480.474 462.987
726 0 41.0742 12.6357 519 83.8382 480.501 467.84
727 0 42.4493 12.2735 521 82.8656 476.86 460.449
728 0 43.3819 13.6463 592 83.3362 476.503 458.921
729 0 44.4923 13.5304 602 83.1395 475.188 463.552
730 0 46.3297 14.0515 651 81.4885 472.651 464.091
731 0 46.4117 13.0786 607 85.9012 469.367 460.035
732 0 47.3656 13.8286 655 85.5908 465.904 458.823
733 0 49.141 12.7185 625 86.6496 466.237 458.08
734 0 51.095 14.7764 755 83.0358 462.676 457.587
735 0 51.0901 13.2119 675 87.397 461.867 456.564
736 0 52.1107 13.8743 723 86.8506 459.718 451.123
737 0 55.0703 13.7824 759 86.921 458.809 451.506
738 0 55.1607 14.1405 780 86.8308 457.859 448.153
739 0 58.0914 13.6853 795 88.3849 457.891 446.187
740 0 58.4075 13.8167 807 89.4002 456.784 444.523
741 0 61.3057 14.1749 869 89.3786 457.844 442.499
742 0 63.3392 14.0198 888 89.616 459.928 439.446
743 0 66.2904 15.8394 1050 86.7495 461.164 440.227
744 0 68.3952 14.2554 975 88.5395 463.533 438.804
745 0 71.2076 15.2793 1088 87.3373 465.594 438.082
746 0 72.4121 16.0056 1159 86.7291 467.897 436.851
747 0 74.1942 13.559 1006 91.665 469.449 436.747
748 1 41.0846 12.3891 509 90.5383 468.904 450.511
749 0 42.0727 11.7178 493 91.4016 471.416 455.043
750 0 42.1362 12.2223 515 90.5689 473.132 455.724
751 0 45.1661 13.6607 617 88.1848 475.13 453.566
752 0 46.4039 13.6627 634 89.6814 475.317 455.183
753 0 47.5476 12.7662 607 92.3493 477.82 447.824
754 0 48.1641 13.3294 642 91.9969 477.877 456.165
755 0 49.0979 13.4629 661 90.174 477.98 458.132
756 0 52.1572 14.6672 765 87.4588 478.016 457.914
757 0 55.295 15.4444 854 85.3794 478.56 457.653
758 0 52.1054 14.8161 772 89.18 478.25 456.048
759 0 54.057 14.5772 788 89.3058 477.431 458.005
760 0 56.0752 14.8729 834 89.976 477.028 458.722
761 0 59.0939 14.79 874 88.3192 475.33 456.041
762 0 58.1416 13.5015 785 92.7121 474.098 455.585
763 0 61.1773 14.7767 904 89.1427 472.013 456.632
764 0 62.1163 15.4549 960 90.1531 469.172 454.797
765 0 64.089 14.3238 918 93.719 467.534 453.35
766 0 67.1902 14.4813 973 91.4717 464.029 452.142
767 0 72.0804 17.2724 1245 85.6008 462.544 451.297
768 0 70.2304 14.8369 1042 92.0873 460.226 446.93
769 0 75.0891 14.9822 1125 91.0293 457.812 447.42
770 0 76.2601 15.0406 1147 91.3104 456.21 439.983
771 1 40.1491 11.5071 462 95.0433 456.664 462.056
772 0 42.0868 10.5734 445 97.5483 455.115 459.926
773 0 44.1064 13.6488 602 93.2857 454.995 455.061
774 0 44.0601 11.4616 505 100.032 455.709 454.695
775 0 49.068 14.2659 700 94.9586 457.713 451.644
776 0 51.3832 15.0244 772 93.6114 461.15 451.376
777 0 54.5779 15.0794 823 94.1908 461.919 446.367
778 0 54.142 14.6097 791 95.7573 465.81 447.226
779 0 56.2063 15.1585 852 96.3146 467.391 440.096
780 0 60.0586 16.0676 965 92.5865 469.279 436.469
781 0 63.0178 16.6461 1049 92.4433 471.745 439.888
782 0 64.117 16.6882 1070 93.4355 472.435 437.416
783 0 67.0999 16.5872 1113 95.8176 473.962 436.751
784 0 70.2928 17.356 1220 94.3057 474.857 441.38
785 0 72.118 16.3205 1177 97.9159 476.997 438.986
786 0 74.1089 15.3018 1134 99.5847 476.756 436.844
787 0 77.1316 16.9191 1305 97.8008 478.1 438.282
788 1 40.1281 11.9866 481 102.834 478.734 457.613
789 0 40.0655 10.7574 431 105.234 478.905 455.587
790 0 42.0907 11.9979 505 104.04 479.828 458.109
791 0 42.2248 13.5229 571 103.797 478.858 455.779
792 0 43.0448 13.4743 580 103.453 479.069 457.05
793 0 43.1166 12.8721 555 104.636 479.602 459.085
794 0 49.0681 14.8773 730 96.6699 478.512 455.641
795 0 48.2183 14.6003 704 98.1705 477.382 455.953
796 0 51.1661 14.9318 764 97.3979 476.919 453.55
797 0 51.1393 13.8054 706 101.967 475.317 458.384
798 0 53.0751 16.373 869 97.985 472.422 459.014
799 0 55.1119 14.77 814 101.69 469.464 456.855
800 0 56.2487 14.2048 799 103.467 466.339 455.126
801 0 58.0616 16.1897 940 99.8596 464.787 455.768
802 0 61.1122 14.8415 907 100.8 461.343 453.556
803 0 66.2152 16.2047 1073 95.931 459.351 449.905
804 0 66.292 14.4814 960 100.096 457.616 447.511
805 0 67.4304 14.9784 1010 100.572 457.093 446.177
806 0 72.1099 16.3362 1178 98.1655 455.127 442.309
807 0 73.1629 16.0874 1177 99.4112 456.278 441.396
808 0 76.2174 15.2327 1161 101.458 456.528 439.529
809 0 80.4984 16.46 1325 99.7638 457.939 435.615
810 0 85.1719 15.9795 1361 99.4636 460.058 434.943
811 0 87.3803 15.8617 1386 101.382 461.333 430.172
812 0 89.4253 17.6572 1579 97.9493 463.246 428.339
813 0 93.2842 16.2943 1520 100.939 464.168 425.712
814 1 52.2769 13.1416 687 103.249 466.537 448.297
815 0 54.1792 13.7138 743 101.661 468.3 447.147
816 0 54.5167 13.8123 753 102.695 469.616 442.398
817 0 56.4374 14.866 839 102.144 471.932 443.064
818 0 58.3665 15.1286 883 100.612 472.922 442.935
819 0 62.1514 16.3311 1015 94.8089 474.53 446.688
820 0 64.321 15.9202 1024 95.4033 474.823 444.205
821 0 64.1356 14.8436 952 98.5515 477.043 447.855
822 0 67.2558 15.4485 1039 97.2435 477.423 447.405
823 0 70.2777 16.0364 1127 96.0027 477.848 448.484
824 0 70.2194 15.9073 1117 97.6088 478.143 445.846
825 0 73.225 15.0222 1100 98.9236 478.369 446.972
826 0 74.3687 14.8315 1103 99.1024 477.85 447.602
827 0 77.4202 15.3836 1191 97.8783 476.259 444.455
828 0 80.3279 15.4367 1240 98.0629 476.209 446.003
829 0 82.4687 17.2914 1426 95.0372 474.501 444.041
830 0 83.3676 16.1334 1345 98.5123 473.233 440.515
831 0 87.4212 16.6321 1454 98.0791 471.781 438.913
832 0 89.649 16.2634 1458 100.15 469.598 437.219
833 0 92.8209 17.0867 1586 98.9565 465.937 434.187
834 0 95.7381 17.4956 1675 98.4442 463.091 432.806
835 1 49.5369 12.092 599 105.003 460.18 453.29
836 0 51.3524 12.1124 622 107.103 458.648 453.166
837 0 54.3298 14.6513 796 101.975 456.296 450.451
838 0 57.3953 14.4437 829 100.464 454.846 444.726
839 0 59.2039 15.5902 923 99.2503 453.701 443.815
840 0 63.075 17.7883 1122 92.3824 453.453 443.234
841 0 63.3534 15.4688 980 98.752 455.179 440.689
842 0 65.1279 16.1528 1052 97.1806 456.424 439.738
843 0 67.2198 14.6683 986 101.693 457.978 436.236
844 0 72.1042 17.1696 1238 95.206 459.211 435.868
845 0 72.1103 16.2113 1169 98.1745 461.379 435.892
846 0 76.2394 16.8548 1285 95.9821 464.851 432.913
847 0 79.2907 17.0512 1352 95.4889 466.611 428.468
848 0 81.2459 16.087 1307 98.6496 469.188 432.757
849 1 38.1355 13.0849 499 101.593 471.03 451.665
850 0 38.0284 13.674 520 101.973 472.427 452.21
851 0 40.1417 13.3776 537 102.024 472.825 452.276
852 0 44.1119 15.1887 670 97.9448 474.418 449.743
853 0 44.0488 14.938 658 98.9833 476.19 449.96
854 0 44.1582 16.5994 733 96.1487 475.588 452.644
855 0 46.2058 16.3616 756 96.0225 477.258 452.869
856 0 49.2679 14.8575 732 98.0847 478.417 451.533
857 0 51.1016 17.1228 875 92.8366 479.267 451.609
858 0 51.1272 16.1167 824 95.9102 478.724 451.529
859 0 54.3053 17.3096 940 93.5021 479.022 452.144
860 0 53.1055 15.2338 809 98.1656 478.638 450.485
861 0 58.3254 15.705 916 95.3777 477.843 454.455
862 0 58.282 15.974 931 95.2965 476.342 451.149
863 0 60.2587 17.2091 1037 93.837 475.585 452.09
864 0 62.2922 17.3537 1081 93.7049 474.239 450.402
865 0 64.1295 19.2735 1236 90.2904 471.112 450.071
866 0 65.4415 15.2961 1001 97.0759 469.538 448.6
867 0 69.3176 17.4703 1211 92.3683 467.458 448.196
868 1 31.3219 12.2598 384 107.427 463.786 460.328
869 0 33.1225 15.1257 501 101.695 461.713 459.671
870 0 35.2242 15.0465 530 100.132 459.226 456.811
871 0 36.1456 15.0779 545 99.9523 458.206 454.976
872 0 39.3285 15.4849 609 97.509 457.424 451.624
873 0 41.3094 15.8318 654 95.422 457.055 452.11
874 0 40.2101 16.3392 657 97.0335 456.997 446.671
875 0 42.2451 15.1733 641 98.17 458.582 447.164
876 0 44.3006 16.23 719 97.3046 459.082 445.809
877 0 46.3234 17.4426 808 93.2908 461.312 442.797
878 0 48.4546 16.2007 785 95.7146 462.513 441.847
879 0 49.1633 15.9875 786 96.1196 464.854 438.139
880 0 51.237 16.7847 860 94.3465 467.622 440.252
881 0 52.4257 16.118 845 96.4036 469.193 437.833
882 0 54.4531 16.4913 898 96.049 470.276 439.296
883 0 57.4495 18.1551 1043 92.8993 473.453 439.21
884 0 57.4113 16.4428 944 98.1748 474.214 438.049
885 0 60.231 18.4623 1112 94.1349 475.085 437.123
886 0 59.3273 17.9344 1064 96.1485 476.516 439.075
887 0 61.5011 16.3737 1007 100.231 478.3 440.266
888 0 63.394 17.1152 1085 99.871 478.397 441.787
889 0 66.2748 16.0393 1063 103.673 480.615 440.608
890 0 69.433 16.5915 1152 102.646 479.385 440.451
891 0 71.4125 16.6217 1187 103.144 479.35 439.67
892 0 72.3725 17.2718 1250 101.45 479.627 442.348
893 0 74.308 17.1448 1274 102.95 479.327 443.228
894 0 77.374 16.9954 1315 103.845 479.019 440.168
895 0 78.4567 16.4549 1291 106.21 478.617 441.368
896 0 81.499 16.7487 1365 104.44 476.963 439.666
897 0 85.5289 17.8536 1527 101.591 474.836 439.136
898 0 87.4621 16.7501 1465 104.726 472.65 434.918
899 0 90.4231 16.3786 1481 104.885 470.531 436.077
900 0 94.2588 16.0303 1511 106.541 468.249 431.948
901 0 99.4446 16.4112 1632 104.721 465.312 427.198
902 0 101.32 15.3968 1560 108.443 462.27 423.671
903 0 105.462 16.3566 1725 107.334 459.62 422.613
904 0 113.349 18.0239 2043 102.259 456.99 420.795
905 1 57.2262 13.8223 791 110.755 456.719 443.029
906 0 62.2794 15.3502 956 106.544 456.728 442.042
907 0 63.2759 17.2103 1089 105.165 456.376 437.494
908 0 63.2452 14.7363 932 111.803 456.553 435.13
909 0 63.5292 13.8361 879 117.6 457.828 430.005
910 0 71.2751 16.5977 1183 108.565 459.386 431.412
911 0 73.6168 15.3905 1133 111.104 460.918 429.338
912 0 78.1876 15.9488 1247 110.194 463.688 426.256
913 0 81.4243 16.3588 1332 108.565 464.698 425.104
914 0 85.3238 15.9158 1358 109.745 466.813 422.742
915 0 87.2519 16.3664 1428 110.069 468.863 422.788
916 0 89.3027 16.5169 1475 110.536 469.31 420.054
917 0 92.255 16.3568 1509 111.602 472.527 418.127
918 0 98.44 16.7412 1648 109.815 473.74 417.113
919 0 102.288 17.0108 1740 109.566 474.317 415.718
920 0 102.395 15.3913 1576 115.368 476.829 416.503
921 0 108.546 17.3751 1886 110.522 476.258 414.902
922 0 110.309 16.1364 1780 115.576 477.583 413.963
923 0 117.334 16.1505 1895 113.633 478.81 412.503
924 0 119.377 16.0751 1919 115.37 478.836 413.114
925 0 126.492 16.8311 2129 114.365 479.554 414.727
926 1 68.1588 8.18676 558 109.624 479.192 453.541
927 0 70.1224 10.8382 760 110.059 480.1 447.363
928 0 73.1437 10.9921 804 111.443 477.932 447.725
929 0 74.1194 12.3719 917 108.904 477.502 447.231
930 0 77.1216 12.0589 930 109.875 475.413 445.902
931 0 79.0175 13.4654 1064 107.351 474.533 441.851
932 0 82.1833 11.596 953 105.105 471.749 442.033
933 0 84.2134 11.364 957 107.863 468.829 440.222
934 0 87.2596 11.8153 1031 106.062 466.9 437.117
935 0 91.1799 10.9344 997 106.712 464.382 434.581
936 0 93.1979 11.8458 1104 105.587 461.737 430.88
937 0 98.2936 12.015 1181 104.078 459.797 429.209
938 0 101.194 12.0264 1217 102.674 458.767 425.495
939 0 105.276 10.9141 1149 105.784 457.907 420.431
940 0 108.307 11.3935 1234 105.407 457.072 416.721
941 0 114.198 11.3662 1298 104.733 456.68 411.673
942 1 71.0918 9.41036 669 92.6861 458.043 441.68
943 0 71.109 9.82998 699 93.5722 460.888 436.169
944 0 77.0638 9.42076 726 93.5689 462.416 434.464
945 0 78.122 10.1252 791 93.2453 465.491 432.15
946 0 78.0755 10.5667 825 87.6497 464.978 430.417
947 0 77.1529 7.40089 571 90.2504 468.553 437.079
948 0 81.1644 9.41299 764 88.1662 469.335 435.204
949 0 83.1724 10.2197 850 87.12 471.451 431.314
950 0 87.1435 10.6032 924 87.5487 472.121 429.208
951 0 91.2369 9.07527 828 88.9758 474.316 429.306
952 0 93.3591 8.6976 812 89.6749 476.952 427.121
953 1 51.1246 9.19322 470 85.0426 478.013 450.306
954 0 52.0943 10.4234 543 85.1694 480.096 445.586
955 0 56.1182 10.068 565 87.8425 480.51 450.227
956 0 57.1254 10.7833 616 87.0081 481.755 451.015
957 0 53.3853 7.32411 391 87.4194 478.642 457.202
958 0 55.1445 8.12411 448 86.2924 478.377 458.712
959 0 53.1256 7.75521 412 88.6723 477.995 457.112
960 0 50.201 10.1193 508 86.2362 478.244 456.325
961 0 58.2949 8.59423 501 85.8603 476.872 457.846
962 0 63.3058 8.87755 562 89.3505 475.457 453.694
963 0 62.2683 7.53192 469 90.1812 474.017 456.776
964 0 67.3155 8.43788 568 88.7359 472.593 457.305
965 0 67.3466 10.3791 699 87.1273 469.489 454.833
966 0 71.1921 10.8298 771 87.7354 467.329 451.497
967 1 83.4973 13.7609 1149 85.1288 463.377 437.671
968 0 81.2034 13.8664 1126 85.1741 461.901 440.3
969 0 79.2094 11.1224 881 90.8104 459.18 441.014
970 0 80.2833 9.67823 777 92.5393 456.574 444.088
971 0 84.0998 11.9144 1002 91.6377 454.504 437.148
972 0 88.0403 11.6651 1027 92.6125 452.542 430.579
973 0 87.0921 10.908 950 92.9116 452.353 429.669
974 1 51.0908 8.61212 440 92.65 454.043 451.182
975 0 52.0326 9.4364 491 90.7373 455.12 450.532
976 0 51.1339 10.3063 527 92.074 459.063 449.683
977 0 55.0491 10.2636 565 92.8106 458.182 447.269
978 0 56.1106 11.0674 621 92.4316 459.456 444.581
979 0 58.2863 10.843 632 93.1566 461.728 442.403
980 0 59.8523 10.6262 636 94.2767 465.475 440.38
981 0 60.4639 12.1726 736 92.6794 467.466 436.44
982 0 63.8718 12.6347 807 91.3581 470.244 440.198
983 0 63.2283 12.4311 786 93.4669 472.408 439.168
984 0 64.0268 11.7919 755 95.5748 474.857 443.78
985 0 69.0332 13.8484 956 91.5251 476.188 441.473
986 0 69.0849 13.2446 915 94.5967 477.131 440.721
987 0 71.0472 13.1884 937 95.9605 478.564 442.8
988 0 75.0645 14.1345 1061 93.5269 478.949 446.252
989 0 76.1597 13.8656 1056 95.0208 479.323 443.438
990 0 79.2066 14.0771 1115 95.1247 480.045 443.671
991 0 80.1026 14.2442 1141 95.8081 479.946 445.398
992 0 84.0822 15.0805 1268 93.4953 480.048 446.158
993 1 46.0852 10.6542 491 96.336 479.684 466.898
994 0 46.069 10.0284 462 98.6558 479.42 467.063
995 0 47.0399 11.1395 524 96.666 477.947 463.345
996 0 48.1461 11.9221 574 96.7909 476.017 464.195
997 0 50.1714 12.9954 652 92.7699 473.505 466.778
998 0 50.1812 11.8969 597 96.9062 470.255 465.554
999 0 51.2384 13.1152 672 95.3155 468.112 460.612
1000 0 53.0184 13.4104 711 92.6878 466.287 459.267
1001 0 55.171 13.431 741 94.4103 463.854 456.375
1002 0 57.0902 14.7311 841 90.9132 460.792 455.226
1003 0 57.0724 13.8246 789 94.2332 458.634 451.403
1004 0 59.1349 14.8981 881 89.9523 457.455 450.434
1005 0 59.0424 13.2447 782 95.7622 456.238 448.141
1006 0 63.1352 15.3005 966 90.4099 456.217 446.847
1007 0 62.1774 15.118 940 93.2213 458.551 443.401
1008 0 63.2531 14.0704 890 95.9551 459.891 443.847
1009 0 65.2461 14.2844 932 95.6781 460.832 441.266
1010 0 69.1405 14.4778 1001 93.8422 462.269 438.547
1011 0 69.1079 14.3978 995 94.6382 464.494 438.478
1012 0 74.212 16.3451 1213 90.1921 466.609 435.524
1013 0 74.2186 14.6324 1086 94.5737 468.575 437.193
1014 0 78.2008 15.9333 1246 91.8612 469.434 437.078
1015 1 43.0543 10.7306 462 99.2229 473.05 451.97
1016 0 47.0385 11.565 544 97.1599 474.301 451.91
1017 0 45.0467 12.8089 577 95.5425 475.302 454.111
1018 0 47.0673 11.6854 550 99.7036 476.915 450.676
1019 0 49.0444 12.4989 613 92.4943 477.967 450.422
1020 0 51.3981 12.6658 651 94.1214 474.398 447.82
1021 0 53.3743 13.1711 703 93.5491 475.586 448.428
1022 0 54.1097 14.7478 798 94.2394 476.975 455.228
1023 0 56.0668 14.1439 793 95.4124 475.425 453.613
1024 0 56.0475 13.7205 769 96.7698 476.157 455.672
1025 0 57.0994 13.3627 763 97.844 475.571 454.292
1026 0 59.0567 14.393 850 95.5882 475.22 454.035
1027 0 61.0557 13.5942 830 97.5096 473.988 456.169
1028 0 63.1058 13.8656 875 97.072 473.711 453.406
1029 0 66.1021 15.6425 1034 91.9255 472.511 453.192
1030 0 67.1001 15.2161 1021 93.2184 469.876 451.924
1031 0 68.0429 14.2851 972 96.3189 467.717 449.389
1032 0 72.098 14.5496 1049 94.2517 465.732 450.66
1033 0 74.0428 16.5175 1223 91.363 462.303 448.564
1034 0 78.0955 15.4938 1210 92.6975 459.703 447.078
1035 0 79.087 15.7295 1244 93.4019 458.142 444.965
1036 0 83.0951 15.1152 1256 94.7309 456.327 439.049
1037 0 85.1266 15.0012 1277 94.9248 455.207 439.11
1038 1 43.0285 10.2025 439 97.6333 454.005 459.112
1039 0 47.1051 11.2302 529 92.6503 452.794 457.492
1040 0 48.0439 12.0931 581 95.9793 455.019 450.912
1041 0 52.073 13.6539 711 91.294 456.477 450.072
1042 0 53.0765 13.1697 699 95.5551 457.29 447.173
1043 0 54.3036 14.6583 796 93.7048 459.369 445.049
1044 0 54.062 13.1886 713 93.7391 460.941 445.013
1045 0 56.078 12.4113 696 94.2558 462.779 445.943
1046 0 60.1147 13.9068 836 90.6687 465.348 445.978
1047 0 60.0849 13.5974 817 91.2301 466.648 443.081
1048 0 63.1884 14.5596 920 90.5315 469 443.139
1049 0 65.1034 14.5 944 90.4428 470.449 443.614
1050 0 66.1479 13.2279 875 92.7657 472.089 442.993
1051 0 71.1602 14.4603 1029 90.1574 472.737 442.148
1052 0 73.2244 13.6703 1001 92.011 473.809 441.987
1053 0 74.1251 13.7605 1020 93.4255 474.613 443.898
1054 0 78.1286 15.0265 1174 90.5443 475.987 443.356
1055 0 82.1766 15.0408 1236 90.8576 477.189 444.975
1056 0 85.2339 14.4661 1233 90.4404 477.36 443.96
1057 1 44.2398 11.8219 523 92.7342 478.392 463.763
1058 0 43.3384 10.4295 452 94.8584 478.25 464.878
1059 0 45.2553 12.3742 560 93.9214 477.789 466.434
1060 0 46.4262 12.4714 579 96.3713 478.183 464.535
1061 0 47.3718 13.9323 660 94.4455 477.848 460.542
1062 0 52.0862 15.1096 787 65.4765 477.344 460.964
1063 0 49.0467 13.2323 649 96.7103 475.373 460.96
1064 0 53.0993 13.9362 740 94.6797 473.15 460.984
1065 0 53.0636 13.9079 738 95.229 471.153 458.309
1066 0 53.1479 13.6976 728 94.4327 468.931 457.302
1067 0 57.0364 13.5878 775 93.1626 465.879 457.317
1068 0 59.1141 14.2944 845 91.1479 463.497 456.014
1069 0 60.091 14.2118 854 91.6417 461.152 454.649
1070 0 62.0534 14.4714 898 92.755 460.294 450.969
1071 0 64.0855 13.8409 887 95.0676 459.504 449.071
1072 0 65.1212 13.8665 903 95.6877 460.033 448.693
1073 0 69.183 14.0352 971 94.7209 458.912 447.818
1074 0 71.0772 13.7175 975 96.7046 461.094 442.188
1075 0 74.074 14.229 1054 96.3454 461.237 441.953
1076 0 79.1594 14.6161 1157 94.7364 462.392 438.349
1077 0 79.0616 13.5338 1070 98.1897 464.636 438.678
1078 1 44.1685 11.0712 489 99.4928 466.638 455.55
1079 0 45.0839 11.2679 508 99.1575 468.476 455.772
1080 0 48.1433 12.3589 595 98.4924 470.417 454.008
1081 0 47.095 11.8272 557 101.007 472.077 452.23
1082 0 49.0781 12.4699 612 96.0016 471.379 450.319
1083 0 50.5114 11.9379 603 99.0431 473.698 449.823
1084 0 53.5057 13.7182 734 95.7221 475.022 449.138
1085 0 54.5139 13.0792 713 96.4628 474.234 448.558
1086 0 58.5416 13.6655 800 94.0238 475.432 448.205
1087 0 58.4373 13.3134 778 94.4434 476.454 450.287
1088 0 63.3944 13.976 886 91.6637 477.016 451.218
1089 0 64.2223 13.936 895 95.7732 478.61 452.648
1090 0 68.3784 14.7415 1008 92.9573 479.265 452.088
1091 0 67.3743 13.759 927 95.4196 478.046 453.85
1092 0 70.3216 13.7084 964 95.5135 478.171 450.002
1093 0 73.3654 13.9166 1021 93.95 476.508 450.069
1094 0 77.6024 16.2366 1260 89.2008 475.129 449.328
1095 0 79.4224 14.0514 1116 92.4973 473.134 450.677
1096 1 41.1196 11.1869 460 93.5435 471.722 467.122
1097 0 45.3912 10.6629 484 92.0269 470.153 466.601
1098 0 43.2558 9.7328 421 91.1948 466.138 464.846
1099 0 44.1592 10.9151 482 90.1349 464.687 462.749
1100 0 47.1335 12.3691 583 88.7136 461.679 462.815
1101 0 48.0278 12.7634 613 88.7047 460.37 458.883
1102 0 50.1157 11.9124 597 87.5762 459.451 460.908
1103 0 52.2859 13.9808 731 83.6895 458.468 458.42
1104 0 52.1954 14.0625 734 84.4087 457.296 455.898
1105 0 51.2811 10.9592 562 90.3523 457.272 452.765
1106 0 54.2776 12.0676 655 86.2382 457.676 451.015
1107 0 57.2353 12.2477 701 86.3381 459.314 449.75
1108 0 60.3161 14.1256 852 82.9272 460.155 448.546
1109 0 64.2841 13.487 867 83.496 461.596 447.983
1110 0 66.4049 13.9899 929 82.5027 462.67 444.653
1111 0 66.4748 13.9 924 84.4567 466.071 442.173
1112 0 69.2843 13.726 951 84.5973 468.25 445.285
1113 0 71.3345 13.2194 943 85.8887 469.56 444.239
1114 0 74.3625 13.3804 995 85.1588 471.652 442.165
1115 0 78.3814 14.1105 1106 83.9222 472.822 441.96
1116 1 45.3432 12.1297 550 85.4836 474.427 458.324
1117 0 45.307 11.6538 528 86.983 476.152 458.525
1118 0 46.1777 11.6723 539 87.1095 477.024 460.228
1119 0 47.28 12.0558 570 86.6053 478.758 460.121
1120 0 49.4351 14.5646 720 84.2431 478.59 459.553
1121 0 52.3725 12.793 670 86.6284 478.333 461.758
1122 0 51.1691 11.8822 608 83.8947 479.936 464.607
1123 0 51.2297 12.9808 665 83.4812 478.714 463.758
1124 0 54.225 13.5178 733 81.7531 478.203 463.416
1125 0 58.3602 14.342 837 79.4373 476.646 463.039
1126 0 57.3428 11.1086 637 86.5181 475.097 461.509
1127 0 58.3005 11.7838 687 86.2082 473.285 462.575
1128 0 61.1506 12.9353 791 84.6498 471.528 462.932
1129 0 62.3614 13.4699 840 84.5738 469.013 459.255
1130 0 63.1911 12.5018 790 86.919 466.78 458.751
1131 0 65.3401 13.4527 879 89.4778 465.101 455.183
1132 0 68.1712 12.9234 881 89.7174 462.872 454.358
1133 0 71.2833 14.2109 1013 87.9171 460.675 450.013
1134 0 73.2005 13.8114 1011 89.9713 457.595 449.193
1135 0 75.1942 13.126 987 91.6312 456.872 445.367
1136 0 80.3088 14.5065 1165 88.0069 456.045 443.385
1137 0 83.3529 14.7325 1228 89.2614 454.628 439.56
1138 1 45.3297 9.6846 439 92.533 454.959 455.772
1139 0 42.4376 10.2739 436 94.5711 456.119 452.222
1140 0 45.144 11.9396 539 87.026 457.262 452.525
1141 0 47.1967 10.8906 514 88.0564 459.111 453.037
1142 0 51.1649 13.2708 679 83.4197 460.256 452.163
1143 0 53.1892 13.1042 697 84.4448 461.588 451.29
1144 0 55.1153 13.372 737 83.4559 465.502 450.168
1145 0 53.0276 11.9749 635 87.3906 467.203 451.894
1146 0 57.1167 14.4791 827 82.2297 467.877 449.834
1147 0 57.0574 14.6169 834 82.4688 470.439 449.858
1148 0 59.1171 14.8519 878 82.451 471.556 448.899
1149 0 61.0763 14.3427 876 83.7317 472.54 446.958
1150 0 64.058 13.7688 882 83.5476 474.011 449.624
1151 0 65.067 14.3852 936 83.3771 475.096 447.718
1152 0 65.1306 13.4192 874 85.3021 476.134 447.888
1153 0 70.12 14.6035 1024 83.0273 476.83 449.056
1154 0 70.084 13.8976 974 85.0041 477.554 448.626
1155 0 75.0944 13.8626 1041 84.1854 477.066 448.187
1156 0 77.0786 15.1144 1165 81.4953 477.639 446.883
1157 0 78.0724 13.4619 1051 89.8582 475.357 447.73
1158 0 80.0438 14.667 1174 88.575 475.237 447.415
1159 0 83.144 13.0256 1083 91.4377 473.685 448.054
1160 0 86.0749 14.9405 1286 88.9409 470.739 443.316
1161 0 87.1768 14.0863 1228 91.127 470.359 442.708
1162 0 88.1985 15.0229 1325 86.3932 471.029 440.018
1163 0 93.1989 15.8049 1473 85.8228 468.094 439.402
1164 0 95.3312 15.2206 1451 87.1116 463.796 436.099
1165 0 98.1738 13.8428 1359 89.5607 462.553 435.742
1166 0 102.2 14.9414 1527 87.6804 459.328 432.878
1167 0 103.207 14.3208 1478 90.2754 458.581 427.252
1168 1 57.0981 11.1212 635 90.948 459.14 452.529
1169 0 60.0426 11.5751 695 90.8072 459.424 447.574
1170 0 60.045 11.4914 690 89.8203 459.977 447.81
1171 0 62.1102 12.9608 805 87.5491 459.395 445.855
1172 0 64.2349 12.859 826 87.3354 459.45 442.088
1173 0 65.102 13.1486 856 88.6846 464.291 438.778
1174 0 67.1521 13.1939 886 83.0079 465.893 440.155
1175 0 71.2044 13.5525 965 82.3337 467.802 439.555
1176 0 73.2108 12.4162 909 83.6304 471.078 439.737
1177 0 76.2882 14.1437 1079 83.3216 472.529 433.501
1178 1 43.0732 10.842 467 87.2248 474.916 451.974
1179 0 45.0369 10.6579 480 88.0083 477.479 451.235
1180 0 46.118 11.5139 531 88.6478 477.953 449.175
1181 0 50.1055 13.1722 660 83.1939 478.345 452.473
1182 0 50.0898 12.0184 602 83.5731 480.402 451.304
1183 0 52.1848 13.2031 689 81.6502 478.218 449.711
1184 0 55.0369 13.7181 755 81.3523 480.509 455.551
1185 0 56.0803 15.2103 853 79.6331 481.414 450.571
1186 0 58.2995 15.7291 917 78.627 482.035 450.727
1187 0 59.2882 13.6452 809 82.9728 481.435 453.091
1188 0 60.3858 14.2583 861 82.3043 481.355 453.921
1189 0 63.1255 14.4791 914 82.8085 481.199 452.633
1190 0 65.2542 14.6351 955 82.9613 479.999 452.355
1191 0 66.3364 16.1148 1069 80.5108 478.353 452.697
1192 0 68.3712 14.4798 990 84.0071 475.723 452.678
1193 0 69.2267 14.0264 971 86.3965 473.192 452.542
1194 0 72.3165 14.6301 1058 85.4924 470.843 450.725
1195 0 73.2542 14.0743 1031 88.7973 468.466 450.874
1196 1 40.1151 11.0681 444 94.1847 467.115 463.975
1197 0 41.1484 11.0818 456 91.9715 464.296 463.772
1198 0 45.2123 12.7399 576 92.0017 461.571 461.686
1199 0 47.0817 11.3845 536 92.5354 461.791 459.427
1200 0 49.2753 12.3591 609 91.1018 458.59 457.734
1201 0 48.6662 13.6851 666 92.3003 456.925 449.411
1202 0 53.4302 14.3365 766 90.4047 456.392 447.926
1203 0 51.1167 13.792 705 92.9645 459.712 452.767
1204 0 52.0858 13.2282 689 95.6676 460.536 450.039
1205 0 55.0598 14.2027 782 94.1368 460.918 448.821
1206 0 57.1554 14.8192 847 91.1558 462.138 446.622
1207 0 57.1554 14.8192 847 151.155 465.138 446.622
1208 0 60.2318 14.3446 864 93.5729 466.91 444.653
1209 0 62.136 14.6614 911 93.1482 468.671 446.242
1210 0 64.1768 15.3638 986 92.1592 470.806 443.183
1211 0 70.3688 16.9962 1196 86.444 471.962 437.05
1212 0 68.2629 15.3817 1050 91.0781 473.882 442.56
1213 0 71.2 14.9719 1066 97.9165 473.633 441.232
1214 0 76.1509 15.4562 1177 94.3084 475.364 441.918
1215 0 78.3069 16.4481 1288 92.9759 474.702 441.395
1216 1 37.0569 10.4164 386 102.824 478.803 459.028
1217 0 38.289 9.8984 379 101.475 474.499 457.269
1218 0 38.289 9.87229 378 166.725 472.503 457.222
1219 0 44.0464 13.009 573 94.5707 477.464 462.386
1220 0 44.0414 11.8298 521 95.5086 478.071 461.457
1221 0 46.1229 14.3746 663 90.5912 476.857 462.807
1222 0 48.0251 13.5138 649 90.698 477.735 463.889
1223 0 48.1783 13.9897 674 90.4496 475.214 461.958
1224 0 48.0378 13.8849 667 91.8246 472.891 457.582
1225 0 49.0932 14.5845 716 90.3589 472.064 461.391
1226 0 48.0638 12.2961 591 85.3418 470.445 464.873
1227 0 53.0981 15.1041 802 85.6496 466.51 458.949
1228 0 54.0962 15.0658 815 86.0086 463.157 458.833
1229 0 55.1789 15.5313 857 85.2614 460.567 454.113
1230 0 57.0849 13.6639 780 87.1474 457.997 452.567
1231 0 58.1374 14.4657 841 85.8193 456.426 449.936
1232 0 60.1348 14.8999 896 83.9699 454.507 451.324
1233 0 60.1723 14.6911 884 84.4853 453.851 449.137
1234 0 62.1457 16.0108 995 81.3226 453.088 445.104
1235 0 64.2055 16.2914 1046 78.347 453.454 444.505
1236 0 67.1302 14.0324 942 79.2187 454.497 441.885
1237 0 69.3141 14.5858 1011 79.8318 455.538 440.102
1238 0 70.1243 15.4868 1086 79.5276 456.837 436.278
1239 0 72.0793 14.8725 1072 79.2304 458.112 435.532
1240 0 72.1434 17.091 1233 75.4882 460.362 431.384
1241 0 71.123 14.5382 1034 79.9884 462.37 429.597
1242 0 74.1286 13.4091 994 81.9628 465.268 428.981
1243 0 78.1812 15.4513 1208 78.817 467.072 431.304
1244 0 80.1744 15.0048 1203 79.719 468.717 429.638
1245 0 81.2155 14.4431 1173 79.8338 469.186 428.366
1246 0 82.2962 14.4964 1193 79.5448 470.293 423.664
1247 0 88.3432 14.1041 1246 79.1485 472.229 429.059
1248 0 87.1068 13.0185 1134 81.3968 472.439 428.654
1249 0 91.2568 13.2922 1213 80.263 472.669 430.309
1250 0 93.1922 13.8102 1287 79.7498 474.024 427.853
1251 0 96.2665 15.2701 1470 77.881 474.701 427.252
1252 0 99.3785 17.0359 1693 76.2847 474.092 425.37
1253 0 99.3294 14.7086 1461 78.2957 473.708 428.025
1254 0 99.3158 10.7133 1064 82.9436 473.51 424.904
1255 1 148.571 3.60098 535 114.944 470.495 380.495
1256 0 147.595 2.24263 331 104.381 471.051 413.124
1257 0 148.72 5.46664 813 102.197 468.359 400.262
1258 0 148.712 2.93856 437 121.208 463.719 362.588
1259 0 155.798 7.47123 1164 90.5404 463.929 410.186
1260 0 157.808 4.54984 718 105.649 460.48 378.978
1261 1 27.2325 12.2647 334 105.488 457.557 326.704
1262 0 20.0323 13.2786 266 100.417 453.696 322.628
1263 0 22.0213 8.08309 178 108.124 447.596 324.978
1264 1 173.102 7.81043 1352 95.1494 448.537 354.78
1265 0 175.936 8.96918 1578 90.8485 447.633 367.347
1266 0 180.886 9.61931 1740 91.077 447.661 358.959
1267 0 186.065 11.8776 2210 87.0905 447.264 359.427
1268 0 195.095 8.86747 1730 93.9202 448.043 347.531
1269 0 196.108 6.89926 1353 101.201 448.43 328.545
1270 0 202.454 6.40147 1296 103.617 448.748 313.086
1271 0 202.683 5.62947 1141 107.477 450.258 306.864
1272 0 208.943 5.27417 1102 111.73 451.449 289.339
1273 1 254.251 6.47786 1647 109.224 453.928 292.605
1274 1 74.3193 15.5141 1153 116.63 452.317 240.248
