time division length width area intensity CMx CMy
0 0 40.0505 13.5329 542 133.993 262.129 496.066
1 0 39.0085 12.2538 478 137.776 261.264 496.213
2 0 40.0318 12.1653 487 139.01 261.877 496.565
3 0 42.0169 12.2332 514 138.749 262.214 495.924
4 0 42.0121 11.7585 494 140.231 261.67 495.838
5 0 43.0516 13.147 566 137.145 262.797 494.064
6 0 44.0286 12.9916 572 136.047 262.199 495.346
7 0 45.1408 12.8265 579 137.176 261.964 494.496
8 0 47.026 13.1629 619 134.703 261.695 493.456
9 0 47.0564 12.7506 600 137.213 261.165 493.887
10 0 49.186 13.3371 656 135.169 260.905 492.59
11 0 48.0355 12.7614 613 137.219 261.403 494.171
12 0 51.0914 12.0764 617 138.616 261.282 493.564
13 0 53.0736 14.2067 754 132.499 260.497 492.135
14 0 54.0976 13.716 742 133.416 261.151 492.17
15 0 54.0371 13.0836 707 136.672 260.938 491.915
16 0 57.0569 14.2139 811 131.123 260.46 492.162
17 0 59.0462 13.3963 791 131.676 260.703 492.427
18 0 60.0696 13.7008 823 130.996 260.878 492.1
19 0 61.057 13.905 849 130.289 259.259 490.264
20 0 65.1783 13.8083 900 129.057 259.471 488.097
21 0 65.1031 13.0562 850 132.251 259.406 487.792
22 0 69.0922 13.7497 950 129.072 259.454 487.572
23 0 71.0888 13.8278 983 127.545 259.125 488.279
24 0 74.1193 12.9656 961 133.407 258.783 486.256
25 0 78.0547 12.1838 951 128.393 259.315 485.611
26 1 41.0298 11.6257 477 129.855 260.512 501.702
27 0 42.0175 13.423 564 124.115 260.516 501.082
28 0 43.0124 12.5313 539 125.063 260.058 499.731
29 0 45.0604 13.3599 602 125.244 260.08 499.395
30 0 44.1813 11.8602 524 125.475 258.664 500.389
31 0 44.1043 12.085 533 126.589 258.52 498.19
32 0 47.0922 14.2699 672 118.887 258.777 499.088
33 0 49.0621 12.5759 617 122.044 258.652 498.517
34 0 51.138 13.6689 699 117.959 258.678 498.944
35 0 53.0643 13.5496 719 117.818 258.921 496.23
36 0 55.0955 13.5583 747 116.574 258.592 497.072
37 0 57.1167 13.3411 762 115.23 258.647 496.791
38 0 58.1126 13.3018 773 114.775 258.476 495.039
39 0 62.2342 13.3528 831 113.071 257.903 495.061
40 0 65.1989 14.8929 971 109.065 258.283 492.581
41 0 64.2378 12.5627 807 115.361 258.371 492.095
42 0 67.2014 13.6456 917 111.995 257.971 491.821
43 0 72.1682 14.5216 1048 108.995 258.254 490.138
44 0 72.2713 13.6015 983 114.543 258.502 487.279
45 0 75.1461 13.9329 1047 112.238 258.419 487.525
46 0 78.1963 13.6963 1071 117.797 257.878 485.223
47 0 83.1993 14.6035 1215 115.431 258.475 484.908
48 0 84.2187 14.9373 1258 114.401 258.263 482.832
49 0 90.33 14.5688 1316 112.564 257.843 483.109
50 0 90.1709 15.0048 1353 107.148 257.918 481.002
51 0 93.1223 12.6608 1179 112.549 257.227 479.61
52 0 97.2151 14.8537 1444 107.544 257.096 478.159
53 0 99.1117 12.945 1283 112.27 257.412 476.13
54 1 51.1234 11.5994 593 112.003 257.948 500.526
55 0 53.1557 12.0965 643 112.512 257.756 500.051
56 0 55.2044 13.7489 759 110.199 255.813 498.909
57 0 57.1626 13.7677 787 107.413 255.889 499.105
58 0 59.1168 13.245 783 106.888 256.3 498.665
59 0 61.1562 13.5554 829 106.484 256.667 496.79
60 0 63.3377 13.0254 825 107.83 256.644 495.282
61 0 65.1405 12.6342 823 108.204 256.221 495.768
62 0 67.2093 14.1796 953 106.074 255.966 493.256
63 0 70.2933 13.4437 945 106.2 255.925 492.026
64 0 73.1218 11.8022 863 108.957 256.132 492.568
65 0 74.2885 12.6399 939 108.381 256.264 491.081
66 0 78.2898 14.2547 1116 104.542 256.078 486.651
67 0 80.1875 12.5456 1006 107.076 256.068 486.914
68 0 85.1163 12.853 1094 106.213 255.819 485.72
69 0 88.1667 15.1645 1337 100.631 256.104 483.089
70 0 90.2533 14.2488 1286 103.657 255.559 480.145
71 0 94.2751 12.9727 1223 105.483 256.082 480.506
72 0 98.2233 12.5327 1231 105.189 256.683 479.406
73 1 51.2873 13.3561 685 98.9577 256.966 502.377
74 0 51.2917 12.8871 661 101.039 257.339 499.067
75 0 55.2325 13.6876 756 98.5939 256.471 499.724
76 0 56.0478 13.2209 741 102.178 254.607 498.794
77 0 57.2454 12.6124 722 105.331 255.28 498.331
78 0 58.081 11.5873 673 100.767 256.312 499.468
79 0 61.1127 12.7142 777 99.7645 257.422 496.555
80 0 61.1397 10.9094 667 102.868 257.634 497.837
81 0 64.1021 13.4473 862 98.7077 257.523 495.125
82 0 68.1133 12.7582 869 98.4937 257.522 495.488
83 0 69.1613 12.6371 874 99.032 257.738 495.272
84 0 73.0582 15.2755 1116 94.6604 257.517 492.376
85 0 76.0621 13.7125 1043 96.3308 258.301 491.333
86 0 79.0853 12.5308 991 97.665 257.641 491.46
87 0 82.1014 12.8012 1051 97.9658 257.635 487.929
88 0 84.3132 13.1178 1106 97.1609 257.255 487.72
89 0 88.0708 13.3529 1176 95.5816 256.202 486.22
90 0 91.1721 13.0961 1194 97.1901 256.084 483.322
91 0 92.2409 11.0472 1019 101.717 255.536 484.567
92 1 47.2049 10.5074 496 100.567 255.647 503.544
93 0 52.0775 12.1934 635 96.0756 256.002 504.443
94 0 52.0798 13.4793 702 95.8276 256.66 500.752
95 0 51.1925 11.2321 575 100.598 256.776 503.023
96 0 55.2271 12.2223 675 97.9733 256.404 501.913
97 0 56.3128 13.4428 757 97.6579 256.083 498.63
98 0 60.2374 13.6128 820 96.3439 255.852 498.127
99 0 62.2551 13.1074 816 97.9534 256.17 496.751
100 0 63.2458 14.1511 895 97.3352 255.911 495.49
101 0 65.2857 13.081 854 99.2927 255.669 495.615
102 0 68.2714 13.4317 917 99.1799 256.039 493.656
103 0 70.2291 13.5272 950 99.1295 256.013 493.412
104 0 72.1614 13.2065 953 100.959 255.905 491.851
105 0 73.3071 13.4639 987 101.267 255.746 491.452
106 0 76.2078 12.7808 974 102.997 255.786 489.654
107 0 80.2713 14.1022 1132 99.773 255.281 488.333
108 0 82.2164 13.2577 1090 104.645 255.183 486.537
109 0 85.3255 13.2903 1134 104.81 254.868 484.038
110 0 87.2968 13.54 1182 103.816 254.718 483.102
111 0 91.1919 13.1371 1198 104.854 255.174 481.674
112 0 93.1712 14.307 1333 104.46 254.692 478.578
113 0 96.1821 14.2334 1369 104.559 254.435 477.749
114 0 98.1808 13.6279 1338 106.513 254.238 477.682
115 0 100.252 13.6955 1373 106.894 254.03 475.522
116 0 104.31 13.2394 1381 108.886 252.949 471.306
117 0 107.256 13.5098 1449 108.199 253.146 468.032
118 0 111.362 14.3765 1601 105.783 253.327 466.538
119 0 115.419 13.1521 1518 108.107 253.152 465.675
120 0 118.239 13.0413 1542 110.315 252.998 463.097
121 1 66.087 13.2855 878 104.21 252.715 489.898
122 0 66.3211 12.6657 840 106.702 255.226 491.979
123 0 70.2267 13.5846 954 105.436 254.722 488.768
124 0 73.3288 13.1326 963 107.875 255.693 488.611
125 0 74.3178 12.1371 902 109.635 255.63 488.984
126 0 79.4024 14.3698 1141 104.721 254.832 489.33
127 0 80.3309 12.9713 1042 109.538 255.042 488.299
128 0 82.2564 14.236 1171 107.935 254.54 484.26
129 0 86.4233 14.9265 1290 106.344 254.943 484.48
130 0 89.6 13.7054 1228 110.843 255.004 483.55
131 0 93.3801 12.4866 1166 113.449 254.503 482.646
132 0 94.3935 14.8103 1398 110.529 254.655 478.029
133 0 98.4765 14.7243 1450 110.204 254.631 477.158
134 0 99.2787 14.3132 1421 110.42 254.766 478.878
135 0 103.335 14.2353 1471 110.952 254.851 475.329
136 0 107.323 13.9392 1496 111.823 254.66 473.871
137 0 112.353 15.1219 1699 108.733 255.148 473.563
138 0 113.315 13.3787 1516 114.271 255.152 470.939
139 0 117.252 14.5925 1711 104.927 255.272 469.161
140 0 123.187 14.5956 1798 102.537 255.123 468.815
141 1 67.228 11.7213 788 105.891 253.834 493.385
142 0 70.0958 12.4401 872 105.594 254.4 491.581
143 0 73.2456 13.3933 981 109.718 253.643 491.137
144 0 75.2143 12.8965 970 110.554 254.366 488.634
145 0 77.1282 12.1356 936 112.485 254.784 489.118
146 0 80.137 12.3663 991 111.905 254.917 488.383
147 0 84.0775 12.3458 1038 110.705 255.919 487.979
148 0 86.0975 11.998 1033 111.435 255.892 486.616
149 0 88.2255 12.9441 1142 110.222 255.217 483.682
150 0 93.1775 13.4904 1257 109.183 255.867 482.614
151 0 94.2236 12.6189 1189 112.921 255.802 477.892
152 0 97.4079 13.2638 1292 111.929 255.336 477.405
153 0 99.4755 12.8373 1277 114.217 255.738 475.424
154 0 104.612 12.7614 1335 114.53 255.844 472.363
155 0 106.555 12.8384 1368 116.254 255.408 469.329
156 0 112.669 13.1802 1485 114.903 255.377 468.664
157 1 59.4762 11.5676 688 105.795 255.68 495.455
158 0 57.3456 11.4045 654 110.002 255.084 496.457
159 0 63.3003 12.2906 778 107.582 255.258 493.533
160 0 62.1127 10.5131 653 110.942 255.372 497.061
161 0 65.1031 12.15 791 107.91 254.817 494.152
162 0 67.3168 12.9388 871 106.141 255.01 492.715
163 0 69.3279 13.4722 934 104.663 255.228 493.28
164 0 71.2427 12.3241 878 107.265 255.333 491.843
165 0 75.2877 12.4456 937 108.732 255.35 490.231
166 0 78.106 13.0848 1022 111.47 255.447 489.186
167 0 80.0772 12.5379 1004 113.068 255.461 487.719
168 0 82.2296 13.4015 1102 111.916 255.36 485.137
169 0 84.2176 14.0707 1185 112.76 255.286 482.143
170 0 87.3498 12.3068 1075 115.835 254.365 482.26
171 0 90.4443 13.2347 1197 114.757 254.312 480.969
172 0 93.3792 14.6714 1370 113.034 254.354 479.704
173 0 95.4179 14.7981 1412 113.747 254.465 476.499
174 0 99.4688 13.0493 1298 118.387 254.397 475.698
175 0 101.601 13.4448 1366 118.593 254.097 472.048
176 0 102.404 13.642 1397 119.434 254.366 470.88
177 0 109.499 14.4842 1586 116.295 254.189 467.2
178 0 112.501 14.711 1655 116.053 254.136 466.811
179 0 114.463 14.0482 1608 117.641 254.258 466.086
180 0 120.385 14.0881 1696 117.226 253.311 465.038
181 0 125.579 14.6919 1845 115.846 253.579 458.558
182 0 130.355 14.4682 1886 116.096 253.683 457.099
183 1 69.3734 11.503 798 110.766 254.353 491.226
184 0 73.2173 12.8385 940 109.337 253.904 489.723
185 0 75.1045 12.9287 971 110.223 253.653 488.554
186 0 77.2109 13.0033 1004 110.25 253.516 487.431
187 0 80.1402 13.6511 1094 107.579 254.143 488.308
188 0 81.1639 13.8855 1127 110.216 253.811 484.379
189 0 85.2287 14.0328 1196 108.578 253.956 482.731
190 0 87.3901 12.53 1095 112.236 253.11 483.604
191 0 90.2313 11.9914 1082 113.356 254.035 480.62
192 0 93.2123 14.1076 1315 108.602 253.802 480.4
193 0 96.2307 13.5923 1308 113.536 254.097 474.298
194 0 99.1493 13.6965 1358 114.853 254.546 474.589
195 0 100.366 12.3548 1240 116.998 254.735 474.477
196 0 106.386 13.6391 1451 113.843 255.147 472.192
197 0 109.396 14.1687 1550 113.95 254.42 468.053
198 0 114.414 13.3812 1531 114.762 255.261 467.588
199 1 60.212 11.5425 695 105.813 256.314 495.858
200 0 61.1599 11.6416 712 105.913 255.985 494.713
201 0 65.0456 11.761 765 105.085 254.953 493.284
202 0 65.0841 11.9538 778 111.896 252.591 491.819
203 0 67.1452 12.8081 860 109.293 253.077 492.464
204 0 70.2456 13.1254 922 105.316 253.298 489.588
205 0 70.1816 13.0234 914 111.04 252.49 489.648
206 0 73.3024 12.2097 895 111.825 252.227 489.882
207 0 71.3078 11.4293 815 116.675 251.539 485.912
208 0 75.2515 13.621 1025 109.756 252.419 486.473
209 0 78.4056 11.6446 913 113.202 252.446 484.71
210 0 82.3511 13.0417 1074 109.547 252.005 482.726
211 0 83.355 11.2891 941 113.073 252.376 485.154
212 0 84.4527 12.9777 1096 110.73 252.692 478.199
213 0 89.2746 13.9681 1247 107.626 252.561 480.12
214 0 92.3866 11.7658 1087 111.661 253.054 477.626
215 0 96.793 13.1105 1269 109.037 253.057 473.198
216 0 97.5726 13.1697 1285 105.994 252.844 469.201
217 0 96.4689 11.6307 1122 108.541 252.385 463.97
218 0 99.4828 11.1376 1108 107.454 252.822 467.06
219 0 104.512 11.5106 1203 106.712 252.699 462.925
220 0 111.498 12.2244 1363 105.668 253.379 461.197
221 1 58.0385 9.16634 532 98.7218 254.835 490.209
222 0 63.0663 11.3056 713 99.2468 253.084 495.137
223 0 63.0634 10.8779 686 101.853 252.714 494.098
224 0 66.1299 11.0389 730 102.448 252.259 492.168
225 0 68.1297 10.5534 719 104.121 252.65 491.572
226 0 71.1651 12.998 925 100.154 253.085 488.715
227 0 72.2158 11.521 832 103.197 252.649 490.081
228 0 75.2356 11.577 871 104.392 252.504 489.028
229 0 77.1628 12.4153 958 101.434 253.089 488.405
230 0 80.1562 12.5255 1004 102.082 254.809 485.237
231 0 84.1969 12.8983 1086 101.308 255.197 485.243
232 0 82.1583 10.7475 883 107.413 253.61 484.242
233 0 88.238 12.1603 1073 104.303 254.205 482.346
234 0 90.2849 10.9542 989 106.145 255.423 482.923
235 0 94.2422 12.0753 1138 105.199 255.177 478.903
236 0 97.2744 12.9736 1262 105.403 254.794 475.731
237 0 99.1841 12.381 1228 106.882 255.092 476.722
238 0 103.117 12.0931 1247 108.591 255.419 473.808
239 1 56.0683 11.5573 648 103.364 254.753 497.193
240 0 57.0774 11.8611 677 104.143 255.733 495.812
241 0 58.0486 12.2139 709 103.408 255.436 495.076
242 0 56.2321 11.3992 641 104.842 255.128 495.666
243 0 60.2436 12.1175 730 103.137 254.958 495.021
244 0 62.1834 11.8842 739 102.828 255.176 494.073
245 0 66.1895 11.6182 769 103.717 254.785 494.008
246 0 65.155 11.112 724 105.003 255.113 493.42
247 0 67.2634 10.0946 679 108.835 255.392 490.997
248 0 72.2005 12.0913 873 104.969 254.75 489.412
249 0 75.2494 12.3323 928 104.386 254.693 487.886
250 0 75.1999 11.9016 895 107 255.05 485.487
251 0 79.2677 12.1739 965 106.331 255.527 487.152
252 0 83.2712 12.117 1009 106.216 255.832 485.75
253 0 85.2161 11.7936 1005 109.1 254.975 480.766
254 1 43.1237 10.18 439 111.497 255.2 502.875
255 0 46.0778 11.741 541 105.255 255.911 503.346
256 0 47.0761 10.1113 476 108.277 255.662 501.372
257 0 48.0228 11.0989 533 115.762 255.833 501.567
258 0 52.0386 13.221 688 109.91 256.158 500.312
259 0 52.0252 12.4747 649 112.77 255.521 499.305
260 0 53.1238 12.4803 663 115.042 255.906 497.974
261 0 53.0664 12.6445 671 116.009 255.903 497.076
262 0 55.0417 11.6639 642 117.125 255.433 498.508
263 0 56.098 12.0147 674 116.758 255.285 497.098
264 0 59.1455 11.8859 703 117.144 255.414 495.175
265 0 61.0857 13.7348 839 112.784 255.025 494.932
266 0 60.0926 12.9633 779 115.959 254.798 495.01
267 0 63.0499 13.18 831 115.102 255.337 494.302
268 0 65.0404 14.0528 914 113.467 254.791 492.788
269 0 66.0618 12.7154 840 116.376 255.115 491.192
270 0 69.2434 12.781 885 115.49 255.271 491.328
271 0 71.1318 13.4258 955 113.6 254.958 489.922
272 0 72.023 13.1347 946 114.876 254.436 488.535
273 0 73.1521 13.1233 960 116.04 255.035 487.149
274 0 77.171 13.7228 1059 113.354 255.259 486.654
275 0 81.2919 13.9005 1130 112.288 255.554 485.058
276 0 82.2132 13.2096 1086 109.994 255.293 485.291
277 0 85.4538 13.2469 1132 110.5 255.971 481.97
278 0 87.2357 13.2973 1160 109.197 255.767 483.353
279 1 45.0757 12.113 546 106.817 252.419 502.397
280 0 47.0239 11.0582 520 107.044 255.458 502.487
281 0 46.1061 11.9073 549 108.301 255.872 502.424
282 0 49.0886 12.182 598 101.166 255.993 504.301
283 0 48.0391 11.6988 562 105.052 255.947 502.221
284 0 50.0765 11.2029 561 105.399 256.225 502.276
285 0 51.068 12.7477 651 103.508 255.916 499.217
286 0 51.0222 11.348 579 106.61 256.314 499.805
287 0 54.1596 13.1279 711 101.924 255.627 499.291
288 0 56.081 13.213 741 103.287 255.92 498.837
289 0 56.1028 12.1741 683 106.587 255.95 496.571
290 0 58.1125 11.8735 690 106.539 256.109 497.309
291 0 60.1464 13.0681 786 106.424 255.489 496.672
292 0 61.0604 11.2839 689 111.284 255.717 497.184
293 0 64.0996 13.8847 890 106.88 255.784 495.83
294 0 67.0982 13.8752 931 108.176 255.672 493.406
295 0 69.0521 13.6998 946 109.087 255.724 492.321
296 0 72.0963 13.4404 969 110.433 255.367 491.295
297 0 73.0965 14.173 1036 110.194 255.527 490.969
298 0 77.0912 13.4516 1037 112.315 255.754 488.033
299 0 78.1435 13.0273 1018 114.647 254.783 487.775
300 0 80.148 12.2773 984 115.836 255.232 487.127
301 0 82.096 13.472 1106 113.212 254.776 485.123
302 0 85.2309 12.0731 1029 115.613 255.026 484.852
303 0 89.0896 12.2798 1094 117.08 253.429 483.378
304 1 46.0286 11.6015 534 117.182 254.47 502.717
305 0 47.0299 11.1206 523 114.839 252.836 502.136
306 0 50.0263 13.3929 670 113.504 254.215 501.091
307 0 50.2157 12.745 640 116.811 254.661 501.292
308 0 52.076 13.5571 706 113.435 254.265 501.861
309 0 52.085 12.806 667 111.409 253.046 501.268
310 0 53.0742 13.8297 734 109.488 253.482 499.267
311 0 56.1105 12.5467 704 111.524 253.332 501.084
312 0 56.1134 12.9737 728 112.488 253.563 500.144
313 0 56.1657 12.2851 690 115.748 253.62 498.309
314 0 61.2172 13.7543 842 111.178 252.745 496.988
315 0 62.181 13.2355 823 114.009 252.582 496.69
316 0 63.1832 11.4746 725 119.294 252.957 496.117
317 0 67.1969 12.6643 851 115.492 252.3 494.506
318 0 67.2018 12.4104 834 118.496 251.881 493.439
319 0 70.1015 12.8671 902 116.272 252.353 492.881
320 0 73.3215 14.2387 1044 112.643 252.783 491.323
321 0 76.2202 13.238 1009 114.892 252.669 490.07
322 0 79.2509 14.1702 1123 112.644 252.065 488.422
323 0 81.3095 13.8852 1129 112.278 252.411 488.161
324 0 84.2875 13.62 1148 112.955 252.845 485.321
325 0 86.3745 13.1405 1135 112.584 252.922 484.704
326 0 90.3992 13.7391 1242 109.911 253.353 481.953
327 0 93.5442 13.0099 1217 111.593 253.468 483.598
328 1 52.1359 11.144 581 110.902 253.157 500.484
329 0 55.2467 13.0868 723 103.189 253.503 500.472
330 0 55.1387 12.8041 706 101.414 252.616 499.836
331 0 55.0747 12.3832 682 106.248 252.834 500.72
332 0 58.1394 12.1432 706 107.865 252.347 498.673
333 0 58.1466 11.4366 665 108.711 252.574 498.221
334 0 61.1575 11.6911 715 108.319 253.056 496.85
335 0 63.3532 12.9275 819 106.32 252.585 495.622
336 0 65.1647 12.0311 784 109.432 252.997 493.921
337 0 67.1685 13.682 919 105.085 252.828 494.095
338 0 69.2949 12.4684 864 107.744 253.082 492.532
339 0 71.2809 13.8326 986 105.585 253.601 491.83
340 0 72.2095 11.5913 837 111.928 253.455 491.357
341 0 76.3117 11.3351 865 113.132 253.123 488.92
342 0 78.5459 13.4444 1056 109.81 253.496 486.287
343 0 83.167 13.6833 1138 108.484 252.805 483.692
344 0 87.2214 12.3479 1077 109.643 253.247 484.029
345 0 90.2113 12.249 1105 110.262 253.972 482.515
346 0 92.1251 12.7978 1179 110.048 253.575 482.806
347 0 95.2023 13.0564 1243 110.207 254.511 480.446
348 1 48.1952 8.8598 427 109.745 255.705 503.513
349 0 54.5803 10.5349 575 107.471 256.35 497.163
350 0 56.4463 11.7102 661 107.682 255.982 496.837
351 0 56.1716 12.266 689 106.849 253.425 501.26
352 0 59.1041 11.8097 698 109.312 253.703 499.529
353 0 60.1707 13.0296 784 107.71 253.897 497.358
354 0 59.2735 12.4339 737 108.562 253.284 498.901
355 0 63.4123 11.8431 751 110.134 253.754 497.037
356 0 67.2715 12.2043 821 108.564 253.543 496.899
357 0 68.2142 12.5927 859 108.972 253.806 494.672
358 0 68.1439 12.7964 872 109.157 253.474 494.024
359 0 72.2076 11.9932 866 111.415 253.74 493.65
360 0 74.2905 11.5627 859 111.431 253.068 493.865
361 0 78.1527 12.0917 945 111.203 252.895 489.861
362 0 79.1933 13.8269 1095 108.395 252.987 488.746
363 0 80.1915 11.7344 941 114.248 253.401 486.751
364 0 84.3216 13.1283 1107 111.349 252.959 485.321
365 0 88.2859 14.2718 1260 109.085 252.929 483.402
366 0 87.242 11.5311 1006 117.73 252.757 483.582
367 0 93.4096 12.6004 1177 113.719 253.157 482.201
368 0 96.3004 12.4195 1196 115.918 253.705 479.764
369 1 53.4578 11.5605 618 110.948 254.432 501.112
370 0 53.1208 11.8221 628 102.825 254.772 502.492
371 0 51.4085 10.4263 536 108.317 256.2 499.31
372 0 55.0382 11.2831 621 110.279 252.692 499.248
373 0 57.0664 11.7057 668 107.925 253.213 501.002
374 0 59.1821 12.6052 746 104.983 252.794 500.705
375 0 58.0656 13.3814 777 105.633 253.149 498.362
376 0 62.0644 12.5031 776 104.638 253.334 498.126
377 0 63.2252 13.9027 879 102.896 253.578 496.878
378 0 64.1713 12.2485 786 106.2 254.254 497.033
379 0 65.1823 14.1756 924 103.202 253.816 495.583
380 0 67.2375 13.5044 908 103.623 254.253 495.871
381 0 69.1475 12.5963 871 106.442 253.858 494.697
382 0 70.2338 12.8998 906 106.499 254.09 493.064
383 0 73.2084 13.2635 971 105.499 254.229 491.203
384 0 77.2278 13.1041 1012 104.488 254.065 489.903
385 0 78.223 12.3877 969 107.677 253.999 489.098
386 0 82.2144 11.8227 972 108.413 254.129 485.409
387 0 87.128 14.5992 1272 100.777 253.692 486.234
388 0 89.1179 12.8594 1146 105.712 254.174 484.294
389 0 91.2 12.204 1113 107.552 254.24 482.43
390 1 49.057 12.4141 609 106.558 253.816 503.103
391 0 51.0249 11.5826 591 107.205 253.487 503.635
392 0 52.0733 11.4262 595 107.395 254.617 502.19
393 0 53.0618 12.966 688 103.949 253.99 501.465
394 0 55.0435 13.2441 729 101.771 254.433 500.901
395 0 56.053 12.7915 717 103.838 255.907 501.024
396 0 56.0546 12.4165 696 106.905 256.951 500.062
397 0 57.0645 12.2318 698 107.434 256.258 499.47
398 0 59.1186 13.2107 781 105.151 256.344 496.671
399 0 61.0696 12.9524 791 105.675 256.7 497.638
400 0 64.107 13.3839 858 103.883 257.242 496.169
401 0 64.0919 13.387 858 105.323 256.928 493.47
402 0 66.0388 12.8561 849 106.508 256.822 492.845
403 0 70.0421 13.292 931 103.798 257.322 495.574
404 0 69.0259 12.2708 847 108.001 256.838 492.437
405 0 74.0721 14.0674 1042 103.019 256.546 491.038
406 0 76.126 13.1361 1000 105.646 256.964 490.486
407 0 77.1068 13.5526 1045 104.868 256.844 487.903
408 0 80.0997 12.3471 989 106.628 257.266 487.488
409 0 82.2776 12.9318 1064 105.391 257.023 485.167
410 0 87.0695 12.3235 1073 105.953 256.994 486.409
411 0 88.2648 12.2586 1082 108.907 256.389 483.674
412 0 90.2482 12.9643 1170 108.149 256.086 481.407
413 1 51.0407 9.87448 504 110.083 256.615 502.385
414 0 52.2728 12.0522 630 105.333 255.084 499.276
415 0 53.1503 12.3988 659 97.5933 254.983 500.847
416 0 57.0862 12.3848 707 104.553 256.604 499.481
417 0 58.142 12.8478 747 103.991 256.763 497.324
418 0 61.0752 12.6401 772 103.385 257.113 498.051
419 0 61.1374 13.2816 812 103.28 256.389 496.768
420 0 63.0824 13.9659 881 100.939 256.742 497.579
421 0 65.0597 13.2494 862 101.774 256.784 495.691
422 0 65.0088 12.4445 809 103.891 257.54 495.096
423 0 69.1716 13.1268 908 102.12 257.216 493.624
424 0 71.0362 12.9652 921 102.215 257.034 491.352
425 0 72.0494 11.9918 864 103.958 256.979 490.567
426 0 76.0246 12.4828 949 101.228 257.739 488.144
427 0 78.1084 12.7131 993 100.506 257.14 486.408
428 0 79.1977 12.0711 956 101.612 256.977 486.194
429 0 85.1495 10.828 922 102.489 257.255 487.92
430 1 47.1147 11.7373 553 95.613 257.441 503.933
431 0 47.2967 11.3327 536 92.4048 257.834 501.797
432 0 48.2424 11.0691 534 91.7172 256.64 503.202
433 0 51.1126 11.6605 596 90.9396 257.129 502.47
434 0 52.0585 10.9876 572 96.0664 257.334 502.031
435 0 53.0608 10.912 579 97.1244 257.062 500.456
436 0 53.0188 11.9958 636 92.7893 256.601 498.986
437 0 55.023 11.9768 659 92.5766 256.376 500.733
438 0 56.0679 12.0746 677 92.777 256.551 499.331
439 0 58.053 12.1958 708 93.2613 256.287 496.672
440 0 58.0343 12.8889 748 93.3409 256.977 496.702
441 0 62.1427 12.7931 795 93.0516 256.936 495.601
442 0 63.158 12.73 804 92.7114 257.096 494.565
443 0 63.1583 11.4474 723 96.5048 256.698 491.914
444 0 65.0942 11.7522 765 97.2052 257.007 492.145
445 0 71.1359 13.6218 969 93.001 256.869 492.095
446 0 72.0976 13.135 947 93.8997 256.644 493.072
447 0 73.1043 11.9555 874 99.5858 256.795 490.904
448 0 77.1396 12.9765 1001 98.8412 256.772 489.387
449 0 79.0782 11.7984 933 103.946 256.592 488.866
450 0 83.1823 12.8874 1072 101.493 256.691 487.817
451 0 87.1922 14.6343 1276 99.1262 256.693 485.525
452 0 90.4507 13.6207 1232 102.931 256.063 480.469
453 1 50.1016 11.5166 577 103.809 257.674 500.925
454 0 52.0444 11.7784 613 102.54 258.044 502.742
455 0 54.0609 13.1518 711 105.52 256.376 501.464
456 0 55.032 12.3746 681 108.269 257.233 501.307
457 0 56.0362 11.2606 631 112.891 256.803 499.716
458 0 57.0228 12.8194 731 111.516 256.64 497.205
459 0 60.055 13.5709 815 109.579 256.96 497.745
460 0 62.0578 14.841 921 106.78 256.646 498.926
461 0 65.0327 13.2395 861 111.31 256.461 496.973
462 0 66.0356 12.8113 846 113.383 256.837 497.832
463 0 69.0296 13.7043 946 111.508 257.559 496.538
464 0 71.0215 13.0242 925 114.795 257.116 494.665
465 0 73.0824 14.2989 1045 112.978 257.622 492.447
466 0 75.0811 13.4122 1007 116.316 257.587 491.055
467 0 77.1212 14.3281 1105 114.86 256.955 490.346
468 0 78.0722 13.6156 1063 117.99 257.085 488.818
469 0 81.1769 13.4767 1094 118.194 257.462 486.983
470 0 86.146 15.3344 1321 112.196 257.439 487.36
471 0 86.0979 13.415 1155 118.366 256.943 485.835
472 0 90.0847 13.6649 1231 116.578 256.721 484.541
473 0 94.1003 13.3475 1256 118.135 257.181 480.575
474 0 96.1258 13.6488 1312 118.032 256.578 479.594
475 0 99.3026 14.3199 1422 116.687 256.667 478.525
476 1 45.0491 11.0546 498 109.273 257.486 507.61
477 0 44.1095 11.9249 526 112.485 256.935 505.051
478 0 47.1862 11.9526 564 111.035 255.973 504.057
479 0 48.1065 12.2852 591 100.949 257.027 505.176
480 0 48.177 12.0182 579 102.446 256.71 504.831
481 0 50.1928 13.0098 653 99.5023 256.129 505.406
482 0 49.1358 11.051 543 105.451 256.114 502.987
483 0 53.1391 12.6084 670 100.667 256.704 500.996
484 0 56.0854 14.7275 826 95.7409 257.265 502.027
485 0 55.109 11.0327 608 104.067 256.804 503.169
486 0 59.1615 13.2012 781 99.9091 256.899 500.287
487 0 60.1468 13.6832 823 98.7521 256.735 499.906
488 0 60.3569 11.8628 716 104.165 256.127 499.24
489 0 62.1507 13.9982 870 100.018 256.707 496.548
490 0 66.3991 13.1478 873 100.698 255.828 497.219
491 0 66.2844 13.0649 866 101.442 256.255 495.396
492 0 68.1944 13.4615 918 100.207 256.816 494.908
493 0 69.2062 13.1058 907 101.728 256.233 495.477
494 0 71.1292 13.4966 960 101.015 256.698 494.486
495 0 74.1037 13.3732 991 101.699 256.445 491.868
496 0 76.047 14.2017 1080 101.491 256.652 488.296
497 0 77.1093 12.4758 962 105.611 257.006 489.864
498 0 81.0777 15.0103 1217 100.522 256.873 489.302
499 0 84.1181 13.3146 1120 104.012 256.969 488.704
500 0 87.0777 13.241 1153 105.668 257.054 487.929
501 0 90.1681 12.8649 1160 108.775 256.284 486.339
502 0 92.0709 12.3926 1141 111.38 256.298 483.195
503 0 96.2586 13.6611 1315 110.325 257.081 480.732
504 1 51.1159 11.7967 603 110.376 258.378 504.562
505 0 51.3196 12.1981 626 114.572 257.899 502.002
506 0 53.3011 12.1761 649 114.693 256.929 500.49
507 0 55.3126 13.3423 738 109.714 256.701 501.936
508 0 57.3458 13.4099 769 110.15 256.224 499.189
509 0 57.3174 11.6893 670 115.061 256.1 500.187
510 0 57.2289 12.4413 712 115.23 255.97 498.903
511 0 61.3731 12.9373 794 113.074 256.038 496.353
512 0 62.2802 13.2466 825 112.056 255.932 495.903
513 0 64.2972 13.111 843 113.24 255.765 493.665
514 0 68.296 13.339 911 113.001 256.492 492.006
515 0 69.5253 11.4922 799 117.68 256.343 494.18
516 0 72.2934 12.4493 900 117.269 256.321 490.63
517 0 73.3616 13.4266 985 116.605 256.016 489.33
518 0 75.385 12.7612 962 116.901 256.151 490.331
519 0 77.3441 13.0068 1006 118.095 256.25 487.762
520 0 83.3494 13.4254 1119 115.754 256.307 486.977
521 0 85.3576 13.6602 1166 115.092 255.769 486.162
522 0 85.2909 13.2136 1127 118.501 255.45 482.114
523 0 88.3408 11.9084 1052 120.26 255.587 484.998
524 0 92.2238 13.0877 1207 118.785 256.162 482.176
525 0 95.2683 13.0998 1248 118.507 255.935 480.889
526 0 99.2076 13.6078 1350 116.953 255.76 479.106
527 0 102.083 13.1168 1339 119.142 255.942 478.715
528 1 55.157 12.6548 698 108.943 255.46 501.553
529 0 56.1861 12.067 678 109.914 253.379 496.19
530 0 58.2071 13.4348 782 107.746 257.06 499.579
531 0 59.1978 12.5849 745 110.683 256.687 497.762
532 0 63.3189 14.0243 888 106.412 256.364 495.86
533 0 63.1384 11.9895 757 112.013 256.7 498.277
534 0 66.1769 12.1341 803 111.577 256.384 495.945
535 0 69.2882 12.8016 887 110.215 255.94 494.516
536 0 71.1391 13.9023 989 106.632 255.945 493.414
537 0 74.1263 13.0183 965 109.194 255.399 491.78
538 0 76.2282 12.9086 984 109.875 255.832 489.4
539 0 80.1497 12.4267 996 110.769 255.805 490.017
540 0 81.1953 13.5353 1099 109.326 255.745 487.127
541 0 85.1304 11.8994 1013 112.986 255.558 485.279
542 0 88.1869 12.9384 1141 111.666 256.053 483.039
543 1 43.0132 10.9036 469 116.785 257.93 506.113
544 0 47.0591 12.3037 579 112.535 257.729 505.508
545 0 48.0961 13.2027 635 109.967 254.724 503.707
546 0 47.1218 11.5658 545 110.708 255.635 505.637
547 0 49.0846 13.0591 641 107.719 255.14 504.254
548 0 51.1153 12.462 637 109.879 254.369 503.553
549 0 50.0335 11.2924 565 112.697 255.825 505.177
550 0 52.085 11.4428 596 112.555 254.946 503.879
551 0 54.1087 12.4749 675 110.84 254.216 502.39
552 0 55.1558 11.7485 648 113.255 254.887 502.073
553 0 57.1238 12.3941 708 112.5 254.989 499.239
554 0 59.2124 12.2441 725 113.106 254.463 497.881
555 0 60.1335 11.8403 712 113.517 254.654 498.518
556 0 62.1607 12.1138 753 112.445 255.263 498.211
557 0 66.0965 12.8751 851 111.2 254.774 496.192
558 0 67.1916 12.9332 869 111.444 255.259 493.442
559 0 70.1238 12.8487 901 112.047 255.176 494.183
560 0 73.2689 12.3381 904 112.59 255.439 494.511
561 0 75.1013 13.1556 988 113.637 255.409 490.677
562 0 79.2201 13.0649 1035 113.11 255.187 490.551
563 0 80.1357 13.577 1088 112.508 254.674 489.327
564 0 82.1763 12.5219 1029 115.166 254.814 489.733
565 0 85.1305 13.4734 1147 112.961 254.848 488.306
566 0 88.2004 12.687 1119 114.177 255.034 486.428
567 0 93.2728 12.7047 1185 113.011 254.44 483.999
568 1 50.0278 12.2332 612 112.551 254.802 505.564
569 0 52.0866 12.1528 633 115.409 254.03 503.005
570 0 51.1166 12.8921 659 112.857 258.126 502.744
571 0 54.0767 12.7966 692 113.584 258.066 502.644
572 0 54.0348 11.4556 619 117.963 258.244 502.223
573 0 55.075 11.5479 636 110.107 258.36 503.344
574 0 56.0459 13.2213 741 106.866 257.807 501.663
575 0 60.0502 13.955 838 103.955 258.087 499.969
576 0 62.0952 12.5292 778 105.952 258.279 499.961
577 0 63.046 11.4519 722 109.132 257.259 499.985
578 0 65.1044 12.6873 826 107.666 257.295 496.754
579 0 66.0936 13.4355 888 106.736 257.533 496.736
580 0 69.095 12.9387 894 108.564 257.452 493.476
581 0 71.0682 12.481 887 110.106 257.225 492.688
582 0 74.1707 12.8622 954 109.264 257.453 492.877
583 0 77.102 13.5275 1043 109.064 257.303 491.003
584 0 80.069 14.6124 1170 106.449 257.994 488.608
585 0 82.107 13.7382 1128 110.032 257.655 488.41
586 0 82.0836 13.2791 1090 112.399 257.75 488.25
587 0 85.1512 13.7755 1173 112.158 258.153 485.208
588 0 90.1082 14.8044 1334 108.858 258.164 486.356
589 0 90.1051 13.118 1182 114.618 258.112 484.898
590 0 96.1491 13.3127 1280 113.313 257.379 481.289
591 0 98.0716 13.5207 1326 113.37 257.156 482.397
592 0 103.105 15.3242 1580 109.212 257.029 480.056
593 0 104.113 13.3029 1385 113.729 257.148 478.296
594 0 109.254 14.004 1530 112.001 257.023 474.214
595 0 115.213 13.5575 1562 110.853 256.82 472.657
596 1 64.0735 13.1255 841 108.917 256.639 497.039
597 0 65.1688 13.3806 872 110.628 256.641 497.233
598 0 65.1279 12.7749 832 109.582 257.756 495.171
599 0 70.0946 13.2535 929 107.125 257.184 494.413
600 0 71.107 12.3476 878 110.454 257.515 493.134
601 0 73.1012 13.2009 965 109.549 258.302 490.628
602 0 76.063 13.3705 1017 108.563 257.561 490.069
603 0 79.1156 13.6383 1079 107.557 257.482 490.039
604 0 83.0805 13.3846 1112 108.443 256.926 488.183
605 0 86.1472 13.8832 1196 106.958 257.003 485.942
606 0 86.1419 12.5258 1079 112.051 256.315 484.927
607 0 89.2192 13.1474 1173 109.848 256.734 483.333
608 0 92.2151 12.4925 1152 111.648 256.64 482.181
609 0 95.2252 12.6227 1202 110.027 256.834 480.038
610 0 99.4768 13.1991 1313 108.358 255.468 478.315
611 1 49.016 11.4248 560 103.048 257.696 497.354
612 0 49.0377 10.0535 493 95.5152 255.122 498.761
613 0 48.1713 8.28294 399 98.7494 255.514 494.91
614 0 50.0841 11.8401 593 93.1366 255.981 497.084
615 0 54.1806 10.4281 565 94.8212 255.842 496.977
616 0 56.0982 11.159 626 91.7907 256.147 496.454
617 0 55.068 9.58815 528 95.7822 254.795 494.102
618 0 61.1316 10.78 659 93.3429 255.155 493.275
619 0 58.1734 8.61219 501 97.1996 254.85 491.746
620 0 63.0799 10.2251 645 93.5643 255.608 491.102
621 0 65.1412 11.1297 725 93.3145 255.771 491.237
622 0 67.1014 11.5795 777 92.1506 255.967 489.553
623 0 69.1056 11.1568 771 94.8898 255.724 486.839
624 0 70.183 10.8146 759 96.0922 255.663 483.82
625 0 72.266 8.89769 643 98.3841 255.628 488.148
626 0 76.3683 12.2302 934 94.8287 255.79 485.686
627 0 80.2173 12.1296 973 94.8201 256.368 484.794
628 0 83.2355 11.6657 971 96.1452 257.054 483.374
629 0 87.3102 10.4226 910 99.5055 256.694 483.107
630 0 89.1054 10.8523 967 98.9524 256.601 482.264
631 1 48.0969 11.1857 538 98.4628 255.091 504.617
632 0 49.3943 12.0459 595 99.6689 256.533 499.506
633 0 51.1709 11.8817 608 100.574 257.311 504.737
634 0 53.1889 11.8822 632 101.057 257.272 502.312
635 0 55.0378 13.0092 716 99.3645 257.482 500.687
636 0 56.1245 11.9021 668 100.608 257.352 499.15
637 0 57.1423 12.4601 712 100.351 256.961 499.302
638 0 61.217 13.0683 800 98.46 257.026 499.201
639 0 61.145 12.9528 792 99.7298 257.519 498.097
640 0 63.2497 12.1424 768 101.216 257.634 497.07
641 0 66.3061 13.5885 901 99.6282 257.687 494.185
642 0 67.1588 14.7263 989 97.8109 257.132 496.503
643 0 71.2444 11.8325 843 103.197 257.052 495.764
644 0 71.1922 13.4425 957 102.155 256.685 491.066
645 0 74.3866 13.1475 978 103.155 257.406 491.406
646 0 76.1645 14.3636 1094 101.869 257.388 490.367
647 0 80.1594 14.3714 1152 102.148 257.143 488.831
648 0 81.1282 13.6944 1111 104.82 257.167 488.392
649 0 84.1538 13.6298 1147 105.496 256.508 488.322
650 0 86.1324 12.6201 1087 108.619 256.69 485.891
651 0 91.2846 13.1019 1196 113.132 256.102 483.748
652 0 92.3031 13.044 1204 113.159 256.392 482.507
653 0 96.25 13.8909 1337 111.102 256.285 478.008
654 0 100.317 13.5869 1363 113.518 256.585 478.146
655 1 53.0697 11.287 599 114.579 257.771 501.704
656 0 56.1659 11.1099 624 113.657 257.688 500.014
657 0 58.2198 11.9032 693 110.358 257.111 497.027
658 0 58.2548 12.7543 743 114.231 257.211 496.989
659 0 62.1465 12.5993 783 112.99 257.714 498.972
660 0 62.1083 11.5605 718 116.334 257.855 497.504
661 0 67.2641 13.0976 881 111.731 257.316 495.93
662 0 68.2358 12.7792 872 112.742 257.138 496.549
663 0 68.4357 13.9255 953 112.726 257.242 491.848
664 0 69.3023 12.0198 833 116.484 257.746 491.695
665 0 73.2804 13.2095 968 111.974 258.212 490.675
666 0 76.2754 11.8387 903 113.607 258.362 492.453
667 0 77.2341 11.0961 857 115.727 258.121 489.327
668 0 82.3516 12.6652 1043 111.599 258.108 488.764
669 0 86.1908 12.5884 1085 111.658 257.296 487.297
670 0 88.2584 12.724 1123 112.716 256.741 485.047
671 0 91.317 12.8344 1172 113.096 256.64 483.544
672 0 95.2049 14.1379 1346 111.375 256.663 480.711
673 1 49.0295 10.9934 539 113.317 256.904 503.195
674 0 52.2751 13.6394 713 106 255.372 502.825
675 0 53.396 14.5329 776 101.165 256.95 501.624
676 0 53.0734 12.7182 675 108.923 257.471 501.766
677 0 55.0798 12.8359 707 108.608 257.774 500.202
678 0 56.0317 13.064 732 108.001 257.676 500.404
679 0 60.0312 12.8433 771 106.926 257.559 500.16
680 0 60.0833 13.1151 788 107.86 257.841 497.214
681 0 61.0997 12.2914 751 108.947 256.523 497.397
682 0 64.061 13.4247 860 107.338 256.457 496.755
683 0 67.0812 12.865 863 107.891 256.404 495.01
684 0 67.1185 13.3644 897 107.516 256.691 494.744
685 0 71.144 12.6645 901 108.412 256.964 492.856
686 0 72.1102 12.8415 926 107.766 257.017 491.41
687 0 76.0927 12.7739 972 107.254 256.651 493.274
688 0 78.1099 13.2506 1035 106.57 256.356 489.327
689 0 81.2407 12.8999 1048 108.307 256.584 488.786
690 0 85.2281 13.1412 1120 107.98 256.296 487.405
691 0 86.2463 13.4267 1158 107.662 256.794 486.514
692 0 90.209 14.0452 1267 106.61 256.595 483.104
693 0 94.1658 13.7736 1297 106.63 257.007 481.827
694 0 96.1605 13.3111 1280 107.736 256.747 481.652
695 1 50.0563 11.9066 596 110.576 257.238 504.144
696 0 51.0324 11.8944 607 106.72 255.783 502.199
697 0 55.2157 11.7358 648 103.644 253.691 501.98
698 0 54.0352 11.8441 640 103.467 253.448 500.123
699 0 57.07 12.4409 710 101.393 253.532 499.29
700 0 59.0861 12.0671 713 101.64 253.694 500.278
701 0 61.0652 12.3147 752 100.275 253.834 497.971
702 0 65.1031 13.3173 867 98.2607 253.436 497.611
703 0 65.1459 13.2625 864 98.2268 253.433 495.898
704 0 67.211 12.0962 813 100.724 253.493 493.664
705 0 70.118 12.1652 853 100.941 253.633 492.293
706 0 73.176 12.8594 941 99.9745 253.847 490.863
707 0 76.2484 14.1642 1080 99.4093 254.12 490.906
708 0 79.2417 14.4116 1142 99.0762 253.565 489.29
709 0 80.259 12.8085 1028 102.589 253.526 489.312
710 0 84.4288 14.6514 1237 98.4996 253.829 487.195
711 0 86.3695 12.7128 1098 102.657 254.395 487.332
712 0 89.2835 13.6755 1221 101.382 253.718 484.174
713 0 93.3686 13.1843 1231 101.635 254.326 482.222
714 0 95.5261 13.5984 1299 100.768 255.093 478.676
715 0 96.4556 12.0677 1164 104.504 254.088 473.61
716 1 49.2315 10.2374 504 101.829 254.393 494.698
717 0 52.1669 12.115 632 96.731 254.799 494.421
718 0 51.2141 9.60673 492 102.73 255.108 493.459
719 0 54.1506 8.95651 485 103.878 254.839 491.74
720 0 57.1734 10.6168 607 101.051 254.44 491.16
721 0 61.1339 11.483 702 97.141 254.903 493.581
722 0 63.1728 12.9328 817 95.273 255.195 492.453
723 0 65.1503 10.8211 705 97.6326 254.833 493.142
724 0 67.0789 12.3586 829 96.497 254.449 489.967
725 0 70.2165 11.2509 790 98.1709 254.34 487.9
726 0 71.1734 11.4931 818 97.4254 254.451 488.101
727 0 74.2575 11.6621 866 96.8152 255.741 487.852
728 0 75.2636 11.9447 899 97.2592 255.438 487.457
729 0 81.2911 11.6003 943 97.0583 255.674 486.077
730 0 82.3544 11.7419 967 98.0476 255.513 484.493
731 0 84.272 11.5934 977 98.912 255.618 484.365
732 0 87.306 12.1985 1065 99.246 255.592 482.431
733 0 92.483 12.2509 1133 98.7087 255.806 481.124
734 0 96.253 13.0386 1255 97.5426 255.618 478.949
735 0 99.2338 11.3369 1125 100.501 255.462 478.457
736 1 51.0272 10.4454 533 93.334 255.478 502.381
737 0 52.0657 10.602 552 93.7373 255.828 496.739
738 0 56.1092 13.2777 745 103.596 256.038 501.738
739 0 58.0793 12.6207 733 105.992 254.038 501.587
740 0 59.2107 13.1057 776 105.673 257.338 499.82
741 0 60.2512 13.3773 806 106.417 257.262 499.871
742 0 63.1384 13.2408 836 106.846 257.818 497.106
743 0 64.1599 11.7051 751 110.168 257.332 498.364
744 0 67.3268 12.6992 855 107.215 256.749 495.657
745 0 71.3137 14.3451 1023 102.248 257.159 495.969
746 0 73.2805 13.0048 953 105.149 257.365 494.825
747 0 74.33 13.1172 975 105.303 257.35 493.836
748 0 76.3285 12.1711 929 107.706 256.805 492.232
749 0 77.2437 13.3344 1030 105.638 256.856 491.202
750 0 82.3518 13.2237 1089 105.756 256.827 488.167
751 0 83.2883 13.015 1084 106.479 256.817 488.942
752 0 85.3858 13.1521 1123 106.587 256.771 487.335
753 0 91.2436 13.6996 1250 104.166 256.45 485.75
754 0 91.286 12.8826 1176 106.585 256.843 485.556
755 0 95.4295 12.91 1232 105.621 256.537 483.329
756 0 98.314 12.8466 1263 106.113 256.741 481.049
757 0 101.297 13.9984 1418 103.253 256.681 480.264
758 1 54.0539 11.5995 627 100.624 257.828 504.096
759 0 55.2688 12.8101 708 99.0819 255.528 499.612
760 0 56.4068 13.5268 763 99.6068 254.827 494.678
761 0 58.3587 13.9311 813 99.2989 255.268 496.673
762 0 61.1486 14.2113 869 97.8113 256.8 499.358
763 0 62.0998 14.0419 872 99.5321 256.867 499.54
764 0 62.1326 13.9701 868 100.316 256.797 496.092
765 0 67.198 14.182 953 99.7933 256.771 496.581
766 0 67.1501 13.4028 900 103.266 256.807 494.018
767 0 70.2412 13.1547 924 103.206 257.123 496.418
768 0 72.2167 13.5287 977 103.438 256.95 494.159
769 0 74.1361 13.5562 1005 104.486 257.056 492.383
770 0 79.3255 14.2829 1133 102.549 257.586 491.475
771 0 80.1504 13.9862 1121 104.889 257.532 489.078
772 0 83.1246 15.2181 1265 105.63 257.384 487.357
773 0 87.169 13.7434 1198 106.952 257.351 487.028
774 0 88.2657 14.0825 1243 107.037 257.382 487.235
775 0 92.2079 13.2201 1219 109.08 256.832 484.212
776 0 96.2835 12.8994 1242 109.893 256.564 484.517
777 0 100.19 13.4843 1351 109.944 256.547 483.255
778 1 54.0524 12.1179 655 113.102 257.994 502.409
779 0 55.0464 13.207 727 112.905 257.237 501.38
780 0 58.1614 13.0155 757 112.567 254.106 500.427
781 0 58.044 12.4905 725 114.161 254.052 501.647
782 0 59.0899 12.3541 730 116.27 253.756 501.108
783 0 63.121 14.3375 905 111.442 254.614 499.136
784 0 64.1278 13.0677 838 115.105 254.562 498.502
785 0 66.1266 13.0054 860 116.487 254.287 497.223
786 0 68.1673 13.951 951 114.336 254.977 496.942
787 0 73.1813 16.8622 1234 82.5656 255.009 494.074
788 0 73.2665 14.3176 1049 114.92 254.503 493.183
789 0 75.2036 13.5765 1021 117.515 254.591 492.877
790 0 78.1765 13.3928 1047 117.692 254.578 492.482
791 0 80.2369 14.8435 1191 115.12 254.523 490.212
792 0 84.3442 13.1841 1112 121.862 253.798 488.586
793 0 87.2486 13.6621 1192 119.87 253.971 487.274
794 0 91.1766 15.1903 1385 116.331 254.12 485.51
795 0 93.2044 12.6711 1181 123.981 256.247 482.649
796 0 98.182 12.8741 1264 120.306 255.775 484.071
797 0 99.1109 12.7736 1266 122.057 256.066 480.09
798 0 105.293 14.5404 1531 117.217 255.746 478.216
799 0 109.194 14.0209 1531 119.236 255.946 476.987
800 1 58.0684 11.3831 661 117.523 256.151 501.85
801 0 57.4042 12.2987 706 112.387 255.663 496.211
802 0 57.1434 12.6174 721 113.515 255.386 496.56
803 0 62.0927 13.2383 822 112.367 256.37 498.533
804 0 64.1068 15.0842 967 108.128 256.049 497.655
805 0 67.1161 13.35 896 111.846 255.777 497.656
806 0 68.0966 13.8773 945 110.283 256.285 495.715
807 0 71.0448 13.7378 976 110.615 256.293 494.019
808 0 72.1653 13.4552 971 111.455 256.468 492.342
809 0 75.1304 13.643 1025 110.035 256.696 492.686
810 0 78.1121 13.9415 1089 108.668 256.041 491.614
811 0 77.0672 11.8208 911 114.939 257.081 489.314
812 0 83.128 13.7018 1139 109.121 256.207 488.644
813 0 83.2276 12.7362 1060 110.511 256.403 489.413
814 0 89.3196 13.8715 1239 107.449 255.9 487.884
815 0 90.1826 14.3376 1293 107.329 255.817 482.775
816 0 94.2481 13.804 1301 108.157 255.847 484.064
817 0 96.3213 13.3512 1286 109.333 255.816 480.91
818 0 99.2314 13.403 1330 107.532 255.065 480.026
819 1 53.1906 11.2426 598 112.229 256.1 503.901
820 0 53.1176 12.7453 677 108.953 256.533 500.876
821 0 56.1794 12.4245 698 108.259 256.216 500.414
822 0 58.1532 12.1747 708 109.366 256.87 501.073
823 0 60.2585 12.463 751 108.462 256.095 498.842
824 0 61.1841 12.4869 764 108.8 256.154 498.528
825 0 61.3133 11.7756 722 111.014 256.478 499.234
826 0 63.2703 13.8612 877 106.241 256.041 499.242
827 0 63.3022 12.2429 775 112.599 255.848 496.748
828 0 66.1432 12.2613 811 110.441 256.617 497.98
829 0 70.2368 14.6647 1030 104.91 256.458 494.55
830 0 71.2421 12.6751 903 110.132 255.657 492.907
831 0 74.2908 13.8375 1028 106.795 255.155 493.739
832 0 76.2925 12.5307 956 109.133 255.711 490.113
833 0 78.3329 12.1533 952 109.771 255.674 491.856
834 0 83.2291 13.4688 1121 108.049 255.711 487.91
835 0 84.3714 12.7057 1072 110.368 255.146 485.362
836 0 90.2824 13.5575 1224 106.72 254.432 484.15
837 1 50.198 11.3949 572 108.276 255.643 504.5
838 0 48.172 10.4002 501 105.808 255.613 497.186
839 0 54.0733 12.8714 696 105.22 256.076 502.943
840 0 55.0772 12.9636 714 105.903 256.017 501.529
841 0 56.0801 13.7839 773 104.748 256.387 501.014
842 0 57.1394 13.7383 785 106.104 255.92 499.057
843 0 59.0864 12.304 727 108.883 255.898 499.999
844 0 62.1299 13.7293 853 106.471 256.028 499.834
845 0 63.0899 13.029 822 109.099 255.9 497.888
846 0 65.114 13.4073 873 108.467 256.005 498.448
847 0 66.1525 12.8642 851 111.73 256.07 495.875
848 0 69.1995 13.2226 915 113.08 253.78 495.636
849 0 69.1754 13.2273 915 114.46 253.419 493.555
850 0 71.1679 14.0513 1000 108.217 254.583 493.703
851 0 74.1919 13.1416 975 110.008 253.715 495.387
852 0 75.1962 13.5911 1022 110.466 254.612 493.735
853 0 79.2206 14.4154 1142 109.353 254.869 491.468
854 0 81.2668 14.3847 1169 110.257 254.716 489.503
855 0 83.3202 14.5103 1209 110.423 254.778 488.671
856 0 84.2428 12.9032 1087 114.192 254.671 490.58
857 0 90.3584 14.9737 1353 109.204 254.629 486.922
858 0 91.4014 14.223 1300 112.665 254.652 484.81
859 0 95.5943 14.7603 1411 111.252 254.688 483.635
860 0 96.5527 13.7749 1330 115.509 254.532 479.465
861 0 102.25 14.2886 1461 108.264 254.311 478.784
862 0 103.165 12.0972 1248 115.615 254.74 476.894
863 0 108.136 14.1303 1528 110.978 254.759 475.494
864 0 113.188 16.2561 1840 106.716 256.258 474.536
865 0 114.335 14.7811 1690 112.969 255.344 474.186
866 0 118.288 14.1688 1676 115.43 255.49 470.462
867 0 123.3 13.9659 1722 115.906 255.751 471.948
868 0 127.267 14.9921 1908 117.708 255.407 466.512
869 0 132.288 14.6876 1943 116.66 255.893 465.935
870 0 138.433 14.3246 1983 117.67 255.436 461.696
871 1 72.2468 12.9833 938 111.136 255.588 496.821
872 0 75.0724 14.6126 1097 105.921 257.33 492.665
873 0 75.2915 13.1223 988 108.828 256.685 493.417
874 0 79.0908 15.3621 1215 105.02 256.444 491.36
875 0 82.2944 14.4481 1189 106.418 257.593 490.236
876 0 84.23 13.7956 1162 107.253 256.787 488.707
877 0 87.1505 13.4939 1176 107.627 257.069 487.079
878 0 89.1812 15.0032 1338 105.599 257.059 482.593
879 0 92.2138 14.8026 1365 107.765 256.151 483.248
880 0 92.2715 13.4603 1242 111.328 255.986 482.806
881 0 97.2454 13.4299 1306 110.771 256.667 481.106
882 0 100.22 14.8074 1484 107.271 256.266 480.085
883 0 101.343 12.9757 1315 114.625 255.969 477.578
884 0 105.347 12.9382 1363 113.996 255.943 474.596
885 0 109.233 14.0892 1539 111.448 256.446 474.787
886 0 114.258 13.0319 1489 113.347 255.08 473.138
887 0 117.243 13.0413 1529 114.447 255.171 469.353
888 1 62.4106 13.1228 819 111.954 254.514 498.526
889 0 66.1369 13.2604 877 116.245 253.749 497.006
890 0 67.089 14.056 943 113.452 253.823 495.962
891 0 69.2096 13.5675 939 108.258 255.17 494.732
892 0 73.2504 14.2934 1047 106.503 254.713 494.692
893 0 74.2605 12.9544 962 110.246 254.859 492.96
894 0 77.1017 14.2409 1098 107.696 255.499 490.241
895 0 81.2659 14.7048 1195 106.277 256.15 489.351
896 0 82.1901 13.1038 1077 110.834 255.68 490.058
897 0 82.1827 12.3992 1019 115.541 255.558 488.433
898 0 85.1694 13.4203 1143 114.234 256.389 487.462
899 0 91.1499 15.0631 1373 110.706 255.584 485.563
900 0 91.1609 13.723 1251 116.573 255.874 484.21
901 0 93.1751 12.9112 1203 118.173 256.095 484.252
902 0 95.1851 12.8171 1220 120.711 256.034 481.41
903 0 100.214 14.2594 1429 116.85 255.889 480.384
904 0 101.389 14.3112 1451 118.099 256.057 474.987
905 0 103.458 13.4257 1389 119.574 256.492 471.017
906 0 109.446 13.7511 1505 117.579 255.942 472.358
907 0 112.661 13.8024 1555 118.239 256.114 469.637
908 0 114.421 14.5865 1669 117.55 256.286 466.653
909 0 120.408 14.4176 1736 118.153 256.476 465.635
910 0 123.327 13.8737 1711 118.926 256.939 464.218
911 0 128.338 14.9138 1914 116.921 256.404 463.706
912 0 133.541 14.9168 1992 117.72 255.903 457.662
913 1 70.1925 13.4772 946 109.382 256.475 491.624
914 0 73.376 13.7238 1007 110.124 256.549 489.544
915 0 74.143 14.2428 1056 109.045 255.542 491.539
916 0 78.2063 13.8863 1086 110.161 255.657 491.499
917 0 79.1671 13.6926 1084 111.278 255.415 489.771
918 0 83.2391 13.6474 1136 111.843 255.15 489.149
919 0 84.1525 13.6181 1146 111.899 255.016 489.325
920 0 86.2007 13.341 1150 113.615 255.746 488.089
921 0 89.1503 13.18 1175 115.266 255.313 485.756
922 0 93.1432 14.2469 1327 115.826 255.492 483.768
923 0 96.1377 13.9487 1341 117.31 255.195 482.9
924 0 98.1171 13.2699 1302 118.89 256.213 477.008
925 0 102.366 14.5262 1487 117.27 256.311 475.484
926 0 105.169 14.0441 1477 119.228 255.997 474.689
927 0 108.184 14.8173 1603 119.205 255.305 473.676
928 0 114.294 15.2764 1746 117.023 256.068 469.172
929 0 119.645 15.5711 1863 115.479 256.237 465.534
930 1 61.4335 13.2989 817 113.436 255.789 493.017
931 0 65.4654 14.1143 924 113.084 256.376 491.3
932 0 66.2784 13.745 911 114.956 255.885 492.939
933 0 72.2524 12.5394 906 120.763 256.488 494.544
934 0 74.2424 13.658 1014 118.861 256.56 491.286
935 0 78.2992 14.8405 1162 115.967 256.941 489.633
936 0 78.544 14.476 1137 118.683 257.307 486.249
937 0 83.5423 15.8961 1328 115.219 256.986 484.05
938 0 82.6237 13.1197 1084 124.224 256.15 482.015
939 0 88.4884 14.1374 1251 121.13 256.849 481.747
940 0 89.7686 14.7379 1323 122.108 256.925 478.121
941 0 93.6421 14.3632 1345 124.279 256.447 478.446
942 0 98.4367 14.649 1442 123.13 256.967 477.506
943 0 100.655 14.8129 1491 124.038 256.313 475.003
944 0 101.453 13.7798 1398 127.795 256.783 473.704
945 0 106.51 14.5808 1553 125.308 256.672 470.562
946 0 111.58 15.173 1693 122.771 256.979 468.069
947 1 57.524 12.5513 722 120.133 257.788 495.281
948 0 59.2242 13.2547 785 118.75 258.561 494.215
949 0 60.423 13.4055 810 119.696 258.26 492.668
950 0 65.5731 14.3656 942 115.126 258.182 492.364
951 0 66.3623 14.014 930 117.711 257.749 490.777
952 0 67.4832 13.4997 911 118.85 257.416 490.74
953 0 70.6722 13.6404 964 119.061 256.911 489.03
954 0 73.6244 13.501 994 117.95 257.108 487.552
955 0 74.4857 12.9287 963 119.7 257.154 485.093
956 0 79.736 14.1592 1129 115.035 256.885 485.497
957 0 83.7122 14.072 1178 113.621 257.869 484.437
958 0 85.4949 13.919 1190 114.429 257.392 482.89
959 0 88.0383 12.8353 1130 117.112 257.019 482.038
960 0 92.5671 14.5084 1343 113.652 257.043 479.431
961 0 93.7496 14.6454 1373 115.25 257.09 476.98
962 0 98.4338 14.2736 1405 114.776 257.301 477.705
963 0 103.465 14.604 1511 113.821 257.679 475.698
964 0 106.506 14.0837 1500 114.647 257.043 474.109
965 0 108.509 13.5565 1471 117.657 256.717 471.352
966 1 55.3079 11.8247 654 113.988 257.442 497.743
967 0 58.1926 12.4758 726 112.85 257.612 497.438
968 0 62.1905 13.8285 860 110.15 257.487 496.721
969 0 64.1409 13.4392 862 111.271 257.212 495.974
970 0 63.2806 12.6105 798 115.197 257.427 494.264
971 0 67.1477 12.748 856 114.353 256.835 492.381
972 0 70.0983 13.8377 970 112.212 256.841 492.477
973 0 72.2007 13.6148 983 111.847 257.406 491.168
974 0 75.225 12.6022 948 114.744 256.999 487.428
975 0 77.1074 14.7457 1137 111.073 257.262 487.668
976 0 78.1467 14.1785 1108 113.406 257.532 485.09
977 0 83.2159 14.7448 1227 111.28 257.568 485.8
978 0 85.2472 13.9946 1193 114.146 257.668 483.318
979 0 87.1859 14.2913 1246 113.683 257.702 482.481
980 0 91.1493 13.4176 1223 115.651 257.146 483.147
981 0 94.1442 14.0635 1324 115.372 257.087 478.705
982 0 99.203 14.7576 1464 113.294 257.079 479.385
983 0 100.335 14.9299 1498 114.842 257.056 476.716
984 0 103.233 14.9177 1540 114.848 256.906 474.071
985 0 104.248 14.5231 1514 113.388 256.538 469.581
986 1 46.1582 8.79583 406 110.663 257.059 493.948
987 0 51.0898 11.4309 584 102.743 257.382 496.545
988 0 56.03 12.4576 698 110.766 257.771 500.109
989 0 55.0264 11.4309 629 105.633 256.385 502.677
990 0 58.1296 11.9732 696 105.345 254.461 497.388
991 0 59.1416 12.4447 736 106.243 255.808 499.743
992 0 59.0474 11.9396 705 109.576 255.394 497.769
993 0 61.1643 12.8833 788 109.174 255.765 496.824
994 0 62.0572 11.3605 705 112.55 254.858 498.291
995 0 63.0774 11.5414 728 112.749 254.765 497.518
996 0 67.0461 13.2297 887 110.384 255.573 494.874
997 0 70.0941 13.4961 946 109.264 255.208 494.656
998 0 72.0767 13.0972 944 110.729 255.003 493.234
999 0 73.1145 13.431 982 110.228 255.532 493.581
1000 0 76.0964 14.5342 1106 108.213 255.438 490.503
1001 0 76.0909 11.9725 911 114.37 254.665 487.828
1002 0 79.1583 13.4035 1061 109.755 254.961 490.599
1003 0 82.1387 11.858 974 111.831 254.963 490.812
1004 0 83.2038 12.8359 1068 111.98 255.233 485.427
1005 0 88.1168 12.3813 1091 110.87 255.125 485.285
1006 0 89.2407 13.3011 1187 109.645 254.695 484.546
1007 0 93.2272 13.4188 1251 108.475 254.814 482.604
1008 0 96.1395 14.0837 1354 108.165 254.881 482.147
1009 0 98.1746 14.1483 1389 110.078 255.637 479.071
1010 1 53.295 13.4722 718 106.292 256.241 501.564
1011 0 56.1819 12.6553 711 108.75 255.318 499.401
1012 0 57.1679 12.2796 702 109.201 256.215 499.527
1013 0 58.3076 13.8575 808 106.351 256.246 497.886
1014 0 59.2701 12.5864 746 108.39 255.212 497.761
1015 0 60.2728 12.6923 765 107.825 255.864 496.625
1016 0 63.2111 11.4537 724 100.037 255.722 498.337
1017 0 64.0992 11.217 719 100.291 256.502 497.43
1018 0 68.1514 12.7804 871 97.9242 256.711 493.513
1019 0 69.283 11.6912 810 99.1333 256.293 494.411
1020 0 71.2039 12.9628 923 98.2622 257.057 490.895
1021 0 74.2157 11.9921 890 99.4966 256.355 490.936
1022 0 77.161 13.0118 1004 97.1315 257.276 489.937
1023 0 76.0802 9.51628 724 103.609 257.041 488.827
1024 0 81.1484 12.7544 1035 99.0502 256.739 487.398
1025 0 85.348 13.5914 1160 98.2871 257.25 483.828
1026 1 46.0484 11.4879 529 101.18 257.474 502.183
1027 0 47.091 10.8938 513 99.4055 256.622 502.953
1028 0 51.217 12.3982 635 98.885 256.961 502.192
1029 0 48.1337 11.9875 577 93.7903 256.763 503.204
1030 0 49.3862 13.2831 656 96.029 257.119 502.212
1031 0 50.2322 12.7806 642 95.5078 257.349 501.497
1032 0 51.1626 11.9814 613 96.9853 257.235 501.724
1033 0 54.1374 10.5103 569 100.025 257.947 501.04
1034 0 56.0911 11.6061 651 99.129 257.94 500.143
1035 0 59.1199 12.0602 713 99.4937 257.485 497.955
1036 0 60.1547 15.0778 907 96.0529 257.044 496.087
1037 0 60.1838 10.8169 651 104.76 257.518 495.574
1038 0 62.144 12.117 753 103.162 257.551 493.019
1039 0 67.1489 11.4224 767 104.76 257.209 494.854
1040 0 70.1955 12.8926 905 99.5514 256.786 491.229
1041 0 72.2306 11.4494 827 103.063 256.919 490.745
1042 0 75.2525 11.5611 870 102.038 256.483 491.603
1043 0 78.1403 12.388 968 101.064 256.311 487.995
1044 0 79.1629 12.2911 973 101.665 256.716 487.454
1045 0 84.2456 11.9888 1010 101.412 255.626 484.731
1046 0 87.2964 11.8905 1038 104.687 256.612 484.584
1047 1 45.0746 12.8897 581 98.4096 256.439 504.941
1048 0 47.0953 11.8058 556 99.286 255.594 504.187
1049 0 50.1936 13.1491 660 99.8833 254.635 502.994
1050 0 50.092 13.0959 656 102.473 254.869 501.541
1051 0 51.2803 13.631 699 101.837 254.559 500.764
1052 0 54.1629 13.8656 751 100.091 254.446 500.671
1053 0 55.1654 12.961 715 103.302 254.787 499.775
1054 0 58.2186 14.875 866 98.2494 254.708 497.656
1055 0 59.1758 14.0091 829 99.9204 254.592 497.797
1056 0 60.1942 12.8418 773 102.221 254.673 497.242
1057 0 59.0908 12.6416 747 104.889 254.382 494.948
1058 0 64.2821 13.8452 890 99.291 254.871 496.416
1059 0 68.1831 13.0824 892 100.262 254.976 493.637
1060 0 68.2489 13.8171 943 99.755 255.418 495.011
1061 0 71.4071 14.6064 1043 98.9799 254.744 491.679
1062 0 74.3944 14.2484 1060 100.265 254.796 491.075
1063 0 76.1214 12.0334 916 106.085 255.238 487.374
1064 0 79.3766 13.9336 1106 103.489 255.361 487.36
1065 0 81.2705 13.3874 1088 106.11 255.083 486.046
1066 0 85.422 12.6431 1080 108.759 255.103 485.399
1067 0 88.3113 14.4149 1273 104.591 255.514 483.82
1068 1 47.1827 11.8476 559 107.594 255.261 504.292
1069 0 48.1246 12.6962 611 104.255 255.106 502.208
1070 0 51.0702 12.6688 647 99.745 257.434 501.555
1071 0 51.1234 11.3451 580 102.562 257.779 503.195
1072 0 51.1548 12.7261 651 100.745 257.883 499.739
1073 0 54.1396 11.2672 610 104.113 257.423 499.992
1074 0 55.2165 12.1159 669 102.404 257.587 499.265
1075 0 57.1668 12.1574 695 102.799 257.55 500.246
1076 0 58.2256 12.297 716 103.781 257.693 498.074
1077 0 59.1244 10.6386 629 107.803 257.218 496.439
1078 0 61.1886 12.1264 742 105.109 256.992 494.786
1079 0 64.2753 13.8622 891 99.3232 257.22 494.475
1080 0 66.1226 12.749 843 102.614 256.756 492.333
1081 0 68.1558 12.2367 834 101.559 257.986 493.728
1082 0 70.117 12.579 882 100.876 257.493 492.084
1083 0 73.1937 11.4081 835 103.737 257.357 490.626
1084 0 76.14 13.1206 999 98.7137 257.233 491.611
1085 0 77.1555 11.9629 923 101.306 257.636 486.8
1086 0 80.1748 12.0612 967 100.586 257.432 489.247
1087 0 83.2397 12.9265 1076 99.7138 257.561 485.998
1088 0 87.2446 13.0323 1137 100.072 256.901 482.563
1089 0 90.2584 11.8881 1073 101.418 256.642 484.811
1090 0 92.2697 11.5423 1065 103.034 257.087 480.924
1091 0 95.1667 12.662 1205 100.807 257.105 481.993
1092 0 96.2213 10.8292 1042 104.92 257.115 478.826
1093 0 102.191 12.1145 1238 102.881 256.96 474.204
1094 0 105.356 11.8456 1248 103.066 257.073 476.374
1095 0 109.377 12.9186 1413 100.689 255.759 474.454
1096 1 57.2251 10.7121 613 98.8581 257.003 497.653
1097 0 59.4118 12.5228 744 96.5874 256.452 494.398
1098 0 61.2041 12.4992 765 95.8497 257.259 495.736
1099 0 60.2265 10.9752 661 101.702 257.651 496.835
1100 0 62.3134 13.1753 821 96.3106 257.273 495.49
1101 0 63.2548 11.7778 745 100.922 257.405 494.738
1102 0 67.2162 12.9135 868 98.4551 257.097 494.624
1103 0 70.1161 13.1781 924 97.9037 257.105 491.755
1104 0 72.2537 12.4146 897 100.751 257.087 492.459
1105 0 77.3289 13.7335 1062 97.8672 257.09 488.626
1106 0 79.1901 12.3627 979 100.854 256.635 488.958
1107 0 82.1821 12.7887 1051 101.199 257.055 488.619
1108 0 82.2268 11.9912 986 105.197 256.939 486.796
1109 0 87.257 13.0649 1140 102.748 256.899 485.218
1110 0 90.2605 13.6715 1234 102.133 256.605 481.365
1111 0 92.2718 11.9105 1099 106.736 256.622 481.063
1112 0 95.4636 11.7951 1126 107.299 256.935 480.67
1113 0 98.2211 12.4006 1218 105.783 256.834 478.169
1114 1 53.1069 10.7142 569 108.494 257.578 502.87
1115 0 54.2332 11.3399 615 106.548 256.772 500.675
1116 0 55.4317 12.6462 701 104.954 255.524 494.752
1117 0 55.1536 11.5677 638 104.174 255.929 500.119
1118 0 56.1858 11.4442 643 105.187 255.756 498.89
1119 0 60.1742 12.7962 770 101.279 254.769 498.143
1120 0 62.0991 11.5622 718 106.077 253.422 496.143
1121 0 62.0506 11.4906 713 106.684 254.171 495.818
1122 0 66.1686 11.9241 789 103.923 253.65 493.805
1123 0 68.1209 12.6687 863 102.904 253.616 491.475
1124 0 68.0938 12.5709 856 104.629 253.841 491.074
1125 0 74.0879 13.349 989 102.196 254.621 490.242
1126 0 74.1537 11.0851 822 106.535 254.682 490.31
1127 0 77.1817 12.1272 936 104.712 254.987 487.25
1128 0 81.1586 11.8903 965 105.226 254.714 484.812
1129 0 84.1898 13.0895 1102 103.093 254.753 484.596
1130 0 86.1654 11.9886 1033 106.179 254.628 484.806
1131 0 91.099 12.426 1132 104.334 254.774 484.504
1132 0 94.1603 11.9902 1129 104.26 254.494 483.43
1133 1 52.0452 12.4315 647 102.264 254.487 501.768
1134 0 53.06 10.5729 561 107.365 254.501 502.57
1135 0 55.116 12.3195 679 99.2798 253.925 500.966
1136 0 58.0531 13.9355 809 94.9728 253.303 501.668
1137 0 57.1026 11.7683 672 105.222 254.254 499.433
1138 0 57.0818 12.1755 695 106.357 253.883 498.633
1139 0 61.1141 12.4358 760 105.032 254.272 497.286
1140 0 62.0668 12.6477 785 104.873 254.71 498.732
1141 0 64.1001 14.2278 912 101.859 255.038 496.362
1142 0 67.0717 13.1203 880 104.47 254.447 496.494
1143 0 68.0556 13.4155 913 104.955 254.44 495.332
1144 0 69.1845 12.7052 879 107.637 254.672 494.653
1145 0 71.0345 14.2044 1009 105.504 254.398 492.276
1146 0 74.1257 13.2882 985 107.226 254.255 493.215
1147 0 77.1023 13.748 1060 106.655 254.358 492.363
1148 0 79.1209 16.0893 1273 102.999 254.252 488.577
1149 0 80.129 14.8386 1189 107.746 253.914 488.466
1150 0 84.2946 14.4731 1220 108.85 253.502 488.045
1151 0 86.4165 15.0319 1299 108.667 254.242 486.796
1152 0 87.3696 14.1811 1239 112.06 253.702 485.281
1153 0 89.1921 14.0707 1255 113.331 254.655 483.506
1154 0 94.3751 14.898 1406 110.128 254.304 482.384
1155 0 96.2916 14.778 1423 110.704 254.84 481.306
1156 0 99.2254 14.8954 1478 111.313 255.154 479.205
1157 0 100.242 13.7467 1378 114.657 254.963 479.579
1158 1 53.2038 11.8601 631 116.398 256.364 501.685
1159 0 52.4504 11.916 625 118.773 256.747 498.891
1160 0 55.3173 13.6124 753 112.744 256.944 498.303
1161 0 59.2958 14.2337 844 106.479 257.359 497.047
1162 0 58.0808 13.6017 790 108.781 256.954 497.604
1163 0 59.1097 12.8405 759 111.289 257.408 496.202
1164 0 59.1008 12.5887 744 113.144 257.761 496.391
1165 0 63.1555 14.2347 899 107.947 257.62 495.731
1166 0 63.1332 12.6558 799 112.786 258.388 493.512
1167 0 66.1217 13.0366 862 110.905 257.726 493.125
1168 0 69.0411 12.8474 887 111.484 257.946 493.114
1169 0 70.129 13.8031 968 110.196 257.276 491.212
1170 0 74.1069 13.9933 1037 109.31 257.331 491.272
1171 0 77.173 14.8368 1145 107.584 257.59 489.005
1172 0 79.097 15.6643 1239 106.804 257.234 486.919
1173 0 80.1173 13.4927 1081 113.123 257.177 486.028
1174 0 83.1307 14.5674 1211 112.112 257.219 484.553
1175 0 85.1461 14.0817 1199 113.807 257.184 484.436
1176 0 90.232 14.0748 1270 112.824 256.227 484.354
1177 0 93.1625 14.6733 1367 112.097 256.901 482.015
1178 0 98.0804 15.2936 1500 110.229 256.525 480.819
1179 1 49.0619 12.6575 621 115.862 257.974 503.945
1180 0 49.0532 12.3539 606 115.962 258.069 502.51
1181 0 50.1679 12.5578 630 111.462 258.092 502.213
1182 0 50.1461 13.3211 668 111.177 257.873 500.067
1183 0 52.1621 12.1736 635 113.334 257.937 502.906
1184 0 56.1618 12.7133 714 111.678 257.282 499.637
1185 0 57.1282 13.4259 767 111.176 257.705 498.472
1186 0 57.1031 13.0466 745 112.905 257.689 499.204
1187 0 61.0697 13.8203 844 111.35 258.53 496.199
1188 0 65.0398 13.2227 860 111.656 257.943 496.479
1189 0 66.0949 13.9496 922 110.028 257.92 497.56
1190 0 67.0934 12.967 870 114.353 257.617 493.729
1191 0 70.0757 13.2286 927 113.138 257.776 492.804
1192 0 72.1881 13.1601 950 114.378 257.805 491.192
1193 0 74.1184 13.0062 964 114.387 257.633 492.05
1194 0 76.1519 13.8145 1052 113.221 257.582 488.744
1195 0 79.2983 13.3294 1057 114.886 257.743 488.819
1196 1 41.0652 12.3219 506 120.219 257.7 506.281
1197 0 43.095 11.4398 493 121.604 258.154 505.708
1198 0 43.0706 11.0284 475 122.177 257.691 505.811
1199 0 45.1795 12.2843 555 120.499 255.108 505.328
1200 0 49.0555 13.5357 664 116.488 253.786 502.976
1201 0 47.0395 12.1175 570 122.921 253.998 505.146
1202 0 49.0526 12.8434 630 121.5 254.627 504.094
1203 0 51.0426 13.4985 689 119.975 253.965 503.334
1204 0 51.0614 12.6906 648 124.528 254.276 501.472
1205 0 52.0416 11.683 608 128.311 253.76 502.836
1206 0 56.1457 12.9306 726 123.815 254.218 501.511
1207 0 56.1943 12.5991 708 127.621 254.542 499.847
1208 0 56.172 11.9277 670 130.84 254.525 500.312
1209 0 60.2567 12.9944 783 126.017 254.92 498.645
1210 0 61.2734 12.8441 787 127.488 253.855 498.646
1211 0 63.3588 13.5577 859 127.524 254.05 496.923
1212 0 63.3524 12.975 822 131.128 254.714 495.248
1213 0 67.3343 13.6483 919 129.083 254.757 493.956
1214 0 69.4251 13.0356 905 131.003 254.905 493.224
1215 0 72.3182 13.2747 960 131.446 255.13 491.664
1216 0 74.6358 13.6262 1017 129.024 255.365 490.712
1217 0 78.7023 14.4723 1139 125.826 255.374 487.183
1218 0 78.7188 13.237 1042 129.296 255.574 488.154
1219 0 84.7592 14.1578 1200 126.746 255.55 483.942
1220 0 87.0431 15.0845 1313 125.851 255.322 481.764
1221 0 88.6198 13.2589 1175 131.299 255.909 483.321
1222 1 45.3437 12.6809 575 127.623 255.306 503.72
1223 0 46.1768 11.7159 541 132.072 253.418 505.344
1224 0 49.1039 12.5041 614 127.192 253.433 502.409
1225 0 50.1421 12.4446 624 110.979 256.635 501.566
1226 0 50.4052 11.348 572 112.552 256.301 502.72
1227 0 51.2517 12.1362 622 112.468 256.426 500.529
1228 0 52.1437 11.7368 612 121.761 257.198 502.748
1229 0 53.2531 12.45 663 117.929 256.95 501.364
1230 0 55.2998 13.0561 722 115.658 256.806 502.493
1231 0 56.1465 13.162 739 115.288 256.601 500.045
1232 0 59.3368 13.1959 783 114.064 256.423 500.308
1233 0 60.2156 12.5217 754 115.857 256.285 501.416
1234 0 62.1946 13.2487 824 115.394 256.748 499.08
1235 0 64.2493 12.7628 820 118.307 256.054 496.915
1236 0 64.2006 12.3519 793 119.992 256.692 498.589
1237 0 67.1255 13.1694 884 116.846 256.002 497.438
1238 0 68.3469 12.3341 843 119.587 256.142 496.232
1239 0 73.4021 13.0241 956 117.663 255.846 494.686
1240 0 74.3231 13.6162 1012 119.107 255.337 492.853
1241 0 77.3422 14.1967 1098 117.393 255.272 490.315
1242 0 80.4595 14.4918 1166 116.925 255.275 488.276
1243 0 84.1833 13.6369 1148 116.165 255.334 487.198
1244 0 89.1853 14.397 1284 119.107 254.136 484.519
1245 0 92.2483 13.7563 1269 119.402 254.597 484.141
1246 0 93.4564 14.4559 1351 120.361 254.743 477.605
1247 0 98.4139 14.6727 1444 120.12 254.264 475.09
1248 1 49.3623 12.1348 599 117.995 255.796 497.696
1249 0 52.3549 11.8613 621 117.395 256.614 499.008
1250 0 53.4236 13.5521 724 112.715 256.253 501.162
1251 0 54.1187 14.6899 795 111.709 255.121 498.935
1252 0 57.2048 13.88 794 113.082 255.506 499.543
1253 0 59.141 13.713 811 113.425 255.344 498.349
1254 0 61.171 13.7157 839 113.13 255.563 497.586
1255 0 63.2894 13.5884 860 112.367 255.655 497.359
1256 0 65.3963 13.487 882 113.247 255.542 494.965
1257 0 68.4103 12.6589 866 113.63 255.288 496.342
1258 0 70.3244 14.1203 993 110.188 254.614 492.806
1259 0 73.2277 14.2023 1040 110.686 255.213 491.45
1260 0 71.2109 12.5543 894 116.091 255.164 489.554
1261 0 77.2941 12.4201 960 115.334 255.148 488.426
1262 0 81.3363 12.9708 1055 114.08 255.725 488.175
1263 0 84.2901 13.4061 1130 118.59 255.013 486.064
1264 0 87.2409 13.159 1148 114.886 255.666 485.031
1265 0 88.2452 13.2132 1166 116.569 255.372 484.31
1266 0 92.3545 13.8163 1276 116.796 255.476 479.927
1267 0 95.2428 13.4393 1280 117.267 254.877 479.702
1268 0 99.2003 13.1451 1304 113.927 253.725 480.222
1269 0 102.243 12.2062 1248 117.59 254.083 476.044
1270 0 105.237 12.8662 1354 114.103 253.257 473.043
1271 0 108.359 13.2983 1441 113.976 253.42 471.018
1272 0 116.285 11.6782 1358 115.704 253.79 471.716
1273 0 114.458 12.214 1398 115.964 254.459 467.84
1274 1 58.217 10.8044 629 111.822 253.448 495.841
1275 0 61.27 12.4368 762 108.442 253.743 494.5
1276 0 64.1286 13.4261 861 106.266 253.259 495.478
1277 0 66.0657 12.6692 837 108.235 253.419 494.211
1278 0 69.0719 13.4787 931 108.114 253.532 491.768
1279 0 70.1435 13.5294 949 107.41 253.514 491.409
1280 0 72.1651 13.7878 995 107.714 253.507 489.041
1281 0 74.1379 13.5288 1003 108.687 253.203 486.997
1282 0 75.1536 11.1239 836 114.146 253.342 489.261
1283 0 81.189 12.9697 1053 108.096 253.136 486.403
1284 0 85.3327 13.0782 1116 107.172 253.125 485.935
1285 0 86.2302 14.0438 1211 106.471 253.242 484.344
1286 0 88.1866 13.8797 1224 107.523 253.368 483.686
1287 0 91.1967 13.4544 1227 109.597 253.616 479.94
1288 0 95.2001 13.3298 1269 109.129 254.043 480.068
1289 0 98.1814 12.7519 1252 107.375 254.098 479.663
1290 0 102.22 12.1894 1246 109.397 253.773 476.742
1291 0 106.237 12.7262 1352 108.844 254.169 473.507
1292 0 109.248 11.1764 1221 112.468 253.97 471.545
1293 1 57.1119 10.4532 597 111.357 255.536 497.265
1294 0 62.0743 11.0674 687 108.814 254.524 496.53
1295 0 63.2851 11.5667 732 109 255.299 494.94
1296 0 68.1474 11.9447 814 106.494 254.127 494.666
1297 0 69.0638 13.1762 910 110.025 253.262 492.374
1298 0 71.0724 13.0149 925 112.36 252.817 488.706
1299 0 74.0527 14.0981 1044 108.86 253.032 490.147
1300 0 76.1281 13.0569 994 111.808 252.959 489.462
1301 0 77.0942 13.1398 1013 112.967 253.068 488.571
1302 0 79.1207 14.3073 1132 111.26 252.995 486.391
1303 0 82.078 13.743 1128 112.61 252.987 486.434
1304 0 84.1626 14.0918 1186 112.717 253.376 484.84
1305 0 87.1044 13.7766 1200 114.481 253.611 482.593
1306 0 89.104 13.8602 1235 114.642 252.758 482.279
1307 0 90.1371 12.6918 1144 118.184 252.836 480.043
1308 0 96.1194 12.3388 1186 118.099 252.961 479.469
1309 0 98.2018 12.902 1267 116.764 253.219 479.191
1310 0 102.191 14.2967 1461 113.893 253.92 475.067
1311 1 52.2779 10.8076 565 114.444 255.758 501.228
1312 0 55.5232 13.0036 722 108.963 256.493 495.417
1313 0 57.0911 11.8057 674 111.993 253.996 499.374
1314 0 58.0978 14.1141 820 105.689 253.37 498.678
1315 0 60.1136 11.7278 705 111.716 253.213 497.905
1316 0 60.1012 12.3625 743 112.393 253.836 494.668
1317 0 63.0471 13.7516 867 107.443 253.914 496.534
1318 0 63.0443 13.3081 839 105.771 253.677 493.925
1319 0 65.114 13.2537 863 105.669 253.408 494.745
1320 0 67.0588 13.3912 898 105.913 253.651 494.116
1321 0 70.0966 13.139 921 106.743 253.119 492.307
1322 0 70.1339 13.0607 916 107.323 253.227 492.809
1323 0 74.0438 13.2084 978 107.257 253.525 490.149
1324 0 76.1744 13.7973 1051 105.779 253.305 488.737
1325 0 77.0745 12.4814 962 108.091 253.332 488.909
1326 0 79.1069 12.6411 1000 107.785 253.116 488.888
1327 0 83.0814 13.1678 1094 111.044 252.743 483.965
1328 0 87.0624 14.415 1255 106.324 252.666 484.5
1329 0 88.0772 12.7842 1126 110.408 252.759 480.956
1330 0 91.0594 15.3416 1397 104.092 253.303 480.122
1331 1 46.1007 11.822 545 104.873 253.178 504.534
1332 0 47.0168 11.3576 534 107.144 253.169 502.721
1333 0 47.1777 10.2167 482 102.28 253.293 498.946
1334 0 46.205 9.97729 461 93.7419 255.8 497.312
1335 0 48.0538 13.0479 627 96.6156 255.561 501.364
1336 0 51.246 11.7863 604 97.1738 257.056 500.783
1337 0 53.1398 11.4039 606 97.8053 257.099 500.586
1338 0 55.2008 12.9527 715 95.4336 256.601 497.639
1339 0 54.1999 11.7159 635 98.1024 256.293 498.293
1340 0 58.1667 12.6361 735 94.3238 256.869 497.536
1341 0 61.1698 13.1928 807 93.3482 256.893 495.461
1342 0 61.2444 11.6092 711 96.3488 256.79 496.024
1343 0 65.1887 11.8272 771 95.4799 256.641 493.593
1344 0 66.1636 12.7563 844 94.3614 256.865 493.468
1345 0 66.122 11.6754 772 98.4482 257.089 493.276
1346 0 69.274 12.1113 839 97.8832 256.094 491.305
1347 0 72.2447 11.6687 843 98.841 257.057 490.701
1348 0 76.1867 13.0863 997 95.9017 256.313 490.652
1349 0 79.1461 13.2666 1050 97.2562 256.613 486.844
1350 0 80.22 12.3286 989 99.8069 256.503 486.429
1351 0 82.1207 10.448 858 104.295 256.608 485.615
1352 1 42.0121 11.7109 492 102.343 257.248 505.203
1353 0 44.0115 10.7017 471 106.253 257.503 504.72
1354 0 46.0936 11.5851 534 108.67 257.212 505.356
1355 0 49.0654 12.3712 607 108.325 257.522 502.552
1356 0 51.0783 13.215 675 106.926 257.379 501.939
1357 0 50.0324 11.8523 593 111.255 257.342 501.995
1358 0 53.0386 12.0667 640 111.053 257.272 500.548
1359 0 54.1081 12.5859 681 111.46 257.098 499.01
1360 0 57.0676 12.9671 740 108.589 257.003 500.476
1361 0 59.0492 13.0908 773 109.065 257.052 497.862
1362 0 60.1205 13.3232 801 109.251 256.64 497.527
1363 0 62.1456 12.873 800 111.07 256.445 497.458
1364 0 63.0966 13.4556 849 110.602 256.557 497.266
1365 0 65.0521 12.2671 798 113.738 256.513 497.068
1366 0 67.2192 13.1361 883 111.183 257.153 494.944
1367 0 69.04 13.8036 953 110.85 257.069 494.072
1368 0 71.1823 13.4303 956 112.689 256.978 494.304
1369 0 74.1637 13.0387 967 112.984 256.608 493.529
1370 0 77.2858 13.793 1066 110.72 256.348 492.583
1371 0 79.2139 13.4446 1065 112.98 256.296 491.994
1372 0 80.361 13.8998 1117 113.246 255.87 489.158
1373 0 81.3202 12.8258 1043 112.542 256.656 488.649
1374 1 42.1891 11.2114 473 110.455 256.856 507.397
1375 0 45.0653 12.138 547 107.223 256.525 506.883
1376 0 46.2717 12.3185 570 111.354 256.304 504.725
1377 0 46.2204 11.337 524 113.166 256.603 505.668
1378 0 49.1479 12.8795 633 109.769 256.3 504.585
1379 0 50.1885 12.4331 624 109.971 256.21 503.893
1380 0 49.0969 12.5262 615 111.803 256.662 504.732
1381 0 52.1086 12.1861 635 110.375 256.797 501.627
1382 0 54.0582 13.7259 742 107.326 256.288 500.919
1383 0 56.0754 12.6437 709 108.443 255.663 501.674
1384 0 59.1373 13.4264 794 105.441 255.771 501.481
1385 0 58.0752 13.052 758 108.58 255.765 498.982
1386 0 60.1533 11.6702 702 109.909 256.749 499.6
1387 0 62.0809 12.5804 781 107.922 256.433 497.932
1388 0 64.22 12.0835 776 108.079 256.692 498.407
1389 0 67.1363 13.7184 921 105.038 256.7 496.015
1390 0 67.1075 12.5917 845 107.234 256.195 496.683
1391 0 68.0435 12.1393 826 109.425 256.85 494.513
1392 0 72.1553 13.2076 953 107.091 255.937 492.817
1393 0 73.0389 12.7056 928 108.324 255.992 492.157
1394 0 74.1692 12.8086 950 108.326 255.699 491.246
1395 0 79.0631 12.3699 978 107.347 255.831 490.761
1396 0 80.1837 12.5337 1005 102.605 255.405 487.963
1397 0 84.2589 13.1143 1105 107.214 254.998 486.487
1398 0 86.2265 12.386 1068 107.541 253.267 486.189
1399 0 91.2002 12.7851 1166 103.826 255.358 484.394
1400 1 47.1045 12.0371 567 103.238 255.654 506.169
1401 0 48.0821 11.6675 561 104.77 256.615 504.086
1402 0 48.2259 11.7986 569 104.207 256.049 503.381
1403 0 49.0569 11.5988 569 109.606 256.104 504.42
1404 0 51.168 13.27 679 107.946 255.561 499.692
1405 0 54.0803 13.1101 709 107.477 255.606 500.487
1406 0 56.1112 13.4198 753 107.635 256.004 498.525
1407 0 57.171 12.7162 727 108.886 255.486 497.304
1408 0 58.1399 12.0743 702 110.855 255.833 495.799
1409 0 61.1861 13.1402 804 107.629 255.989 496.853
1410 0 64.1385 13.1123 841 108.671 255.503 495.212
1411 0 65.247 14.7133 960 106.928 255.36 491.976
1412 0 69.0829 13.6068 940 108.891 256.055 491.928
1413 0 69.1193 13.1078 906 112.089 255.716 489.883
1414 0 72.2153 13.6398 985 112.086 255.164 488.58
1415 0 74.165 14.4138 1069 111.295 255.854 487.602
1416 0 76.114 11.9558 910 116.644 255.69 487.164
1417 0 78.1613 13.5489 1059 113.523 255.019 488.333
1418 0 81.0946 13.5151 1096 115.801 255.124 483.64
1419 0 86.2523 13.8315 1193 107.85 254.593 482.832
1420 0 89.2446 13.2221 1180 109.478 254.725 483.866
1421 1 47.0479 11.0101 518 113.568 255.537 502.284
1422 0 47.0761 11.1097 523 116.7 255.405 500.969
1423 0 51.2638 12.9331 663 110.228 253.027 496.433
1424 0 52.1027 12.936 674 108.841 252.792 498.042
1425 0 54.1311 13.5227 732 107.578 252.939 497.522
1426 0 55.1117 12.7559 703 109.667 253.277 497.727
1427 0 57.1206 12.745 728 110.041 253.532 495.538
1428 0 59.0996 13.6549 807 108.014 254.398 495.077
1429 0 61.2329 13.8814 850 107.894 253.582 492.896
1430 0 60.0887 12.7312 765 110.856 253.754 492.996
1431 0 64.1375 13.6893 878 108.027 253.502 491.577
1432 0 65.1026 12.9488 843 110.913 253.834 490.074
1433 0 70.088 13.7256 962 107.781 253.229 487.29
1434 0 72.147 13.5972 981 108.338 252.726 486.607
1435 0 75.1183 14.7634 1109 106.181 253.896 483.093
1436 0 76.2235 12.8963 983 110.266 253.075 485.558
1437 0 80.0885 14.0719 1127 107.198 253.129 482.463
1438 0 83.0703 13.5668 1127 108.723 252.754 481.938
1439 0 86.093 13.044 1123 108.591 252.872 480.754
1440 1 45.0531 14.3386 646 101.816 252.87 500.548
1441 0 44.0389 12.4435 548 105.872 252.661 501.255
1442 0 47.0456 11.9246 561 106.071 253.011 501.503
1443 0 48.0713 12.6895 610 104.764 253.387 499.949
1444 0 50.0688 11.9436 598 107.186 253.304 498.513
1445 0 51.0765 12.2953 628 105.771 253.639 499.573
1446 0 53.081 12.9048 685 104.42 253.809 497.416
1447 0 53.1274 12.4794 663 106.504 253.489 496.64
1448 0 55.0415 13.1537 724 104.602 253.449 495.564
1449 0 57.2144 13.1435 752 104.549 253.622 495.879
1450 0 56.1316 12.7557 716 106.482 253.56 495.015
1451 0 58.139 12.9689 754 106.316 253.951 493.344
1452 0 62.0909 13.1098 814 103.378 253.474 494.816
1453 0 62.2415 12.7246 792 105.135 254.385 493.333
1454 0 66.1687 13.5109 894 103.19 254.204 490.652
1455 0 67.1364 12.5714 844 103.41 253.814 490.597
1456 0 69.1339 14.2477 985 100.207 254.4 490.114
1457 0 69.0713 12.697 877 103.851 253.84 488.048
1458 0 74.1549 13.8224 1025 102.13 254.484 489.173
1459 0 75.1674 12.5852 946 105.41 254.311 488.594
1460 0 78.2008 13.3119 1041 104.631 254.063 486.919
1461 0 82.261 14.7579 1214 101.477 253.958 485.504
1462 0 81.118 12.4387 1009 108.63 254.141 484.206
1463 0 86.2578 14.2828 1232 104.187 254.338 484.771
1464 0 87.2307 13.4815 1176 107.823 254.491 482.284
1465 0 91.2132 12.86 1173 109.525 254.175 480.161
1466 1 49.051 12.0894 593 113.976 253.374 499.594
1467 0 51.0115 11.9189 608 115.91 253.133 501.615
1468 0 54.05 11.3044 611 117.635 253.969 500.034
1469 0 56.139 13.4844 757 113.724 254.277 498.63
1470 0 56.0662 12.7884 717 117.209 253.775 499.515
1471 0 60.0616 13.4029 805 115.398 253.82 497.309
1472 0 60.016 13.1465 789 116.921 253.954 498.417
1473 0 63.0314 15.9762 1007 108.651 253.685 497.641
1474 0 64.1106 13.9914 897 114.358 253.261 497.088
1475 0 66.0431 14.6117 965 112.397 253.287 494.261
1476 0 69.0392 13.4851 931 114.992 253.292 495.145
1477 0 68.1237 14.2241 969 114.885 253.613 490.763
1478 0 71.0923 13.1801 937 117.234 253.462 491.491
1479 0 75.1374 14.4402 1085 111.938 253.493 490.47
1480 0 75.1412 14.6524 1101 112.817 254.083 488.949
1481 0 78.2386 14.9415 1169 111.907 253.983 489.051
1482 0 79.1452 14.5429 1151 114.666 254.525 486.143
1483 0 81.1861 14.7316 1196 115.73 254.739 486.86
1484 0 85.335 14.988 1279 112.935 255.088 486.616
1485 0 89.4045 14.9321 1335 112.661 255.964 483.907
1486 0 92.4316 13.6425 1261 120.997 255.83 481.499
1487 0 94.2941 12.5246 1181 118.222 255.539 481.89
1488 0 98.2697 13.351 1312 114.401 255.082 480.467
1489 1 52.1646 11.042 576 114.668 255.095 502.877
1490 0 54.0329 11.6226 628 114.252 254.543 502.535
1491 0 57.0713 13.5094 771 109.049 254.528 501.591
1492 0 57.1919 13.1662 753 109.578 254.979 500.134
1493 0 58.113 12.9575 753 115.507 255.683 498.687
1494 0 60.0816 13.7646 827 113.97 255.761 498.278
1495 0 61.1085 12.4696 762 116.302 255.783 498.873
1496 0 63.1347 14.0018 884 112.718 255.74 495.018
1497 0 65.0719 12.9088 840 115.985 256.088 494.552
1498 0 69.2409 12.5793 871 115.333 256.321 495.664
1499 0 69.15 12.8416 888 115.875 256.09 492.735
1500 0 73.224 13.684 1002 113.945 256.978 489.573
1501 0 75.2723 13.6969 1031 113.854 256.211 490.795
1502 0 78.1249 13.8112 1079 115.725 256.563 487.243
1503 0 80.0873 13.4603 1078 116.737 255.865 489.307
1504 0 83.142 13.7115 1140 108.004 256.075 486.938
1505 0 84.1894 12.7094 1070 112.482 256.395 484.247
1506 0 85.1925 14.4966 1235 110.481 255.831 482.648
1507 0 86.1678 13.8915 1197 115.095 256.515 482.605
1508 0 87.231 13.298 1160 119.243 256.656 481.372
1509 0 89.1054 13.5906 1211 119.94 256.287 482.653
1510 0 90.0676 14.5113 1307 120.1 256.603 481.165
1511 0 93.1737 13.4909 1257 120.743 256.847 482.006
1512 0 96.1125 13.3385 1282 118.676 256.321 477.758
1513 0 98.1634 12.958 1272 118.666 255.845 478.7
1514 0 101.189 12.7583 1291 117.514 254.957 477.816
1515 0 104.294 13.6441 1423 117.565 255.296 474.609
1516 0 107.243 13.8564 1486 117.22 254.326 471.672
1517 0 111.268 13.4091 1492 118.332 255.356 471.275
1518 0 114.181 12.848 1467 119.907 254.805 471.163
1519 0 118.212 13.3574 1579 119.394 254.578 469.563
1520 0 122.162 13.343 1630 119.817 254.386 466.428
1521 0 128.211 13.3998 1718 121.386 254.784 465.841
1522 1 66.1529 12.0025 794 118.975 255.406 495.931
1523 0 68.1274 13.0491 889 119.642 255.816 495.903
1524 0 70.082 13.37 937 123.602 256.042 491.33
1525 0 73.1306 13.8793 1015 123.193 255.901 493.11
1526 0 74.0912 14.3202 1061 124.352 256.056 490.171
1527 0 76.1162 13.5714 1033 126.119 256.629 491.439
1528 0 78.0583 12.9519 1011 129.304 256.239 490.763
1529 0 82.0706 14.3291 1176 126.323 256.249 488.588
1530 0 82.0412 13.7492 1128 130.282 255.782 486.941
1531 0 85.1379 13.1551 1120 132.224 255.903 487.071
1532 0 87.0912 14.2379 1240 131.135 256.172 485.52
1533 0 88.1379 14.0575 1239 133.576 255.92 485.497
1534 0 91.0827 15.3157 1395 136.548 255.551 484.014
1535 0 95.0998 13.3018 1265 136.549 254.934 484.126
1536 1 51.0366 11.384 581 134.838 255.747 503.907
1537 0 53.1723 13.8982 739 123.437 255.227 502.643
1538 0 53.2185 11.5937 617 132.032 254.84 502.741
1539 0 55.1092 12.6839 699 133.391 255.783 501.136
1540 0 58.0412 13.5249 785 132.102 255.224 499.897
1541 0 60.0938 13.1794 792 140.977 255.585 498.804
1542 0 62.11 13.943 866 138.792 255.025 499.193
1543 0 63.1418 13.2717 838 140.542 254.891 497.786
1544 0 65.0967 13.1957 859 139.274 255.354 495.908
1545 0 66.0923 13.1937 872 142.396 255.203 497.178
1546 0 69.0629 13.7845 952 140.959 254.661 495.113
1547 0 70.1547 13.6413 957 142.007 254.958 493.294
1548 0 73.1522 14.1759 1037 139.876 254.028 492.9
1549 0 76.2436 13.6929 1044 140.67 254.336 491.78
1550 0 77.1082 14.3565 1107 139.469 254.014 490.28
1551 0 80.2505 14.866 1193 136.478 253.678 488.868
1552 0 82.285 13.9394 1147 138.724 253.028 487.711
1553 0 85.3572 14.6326 1249 136.588 254.158 484.934
1554 0 87.2415 14.8209 1293 135.729 253.894 484.572
1555 0 88.387 14.2555 1260 138.71 254.168 481.615
1556 0 89.4064 13.6679 1222 140.898 253.898 481.167
1557 0 95.3258 14.697 1401 136.134 253.435 479.058
1558 0 97.4862 14.6585 1429 136.797 253.535 479.102
1559 0 99.3629 13.7778 1369 138.722 253.568 477.924
1560 0 105.221 14.9874 1577 133.034 253.148 475.408
1561 1 56.2992 13.073 736 129.107 253.284 500.232
1562 0 58.2746 12.2523 714 129.867 253.24 499.94
1563 0 62.2962 13.3716 833 126.413 252.772 496.767
1564 0 61.1185 12.8603 786 129.344 254.005 495.355
1565 0 64.1294 12.9894 833 126.948 253.798 497.661
1566 0 65.2678 13.8966 907 125.815 253.746 495.631
1567 0 67.2337 12.9846 873 127.47 253.023 492.991
1568 0 72.354 14.4291 1044 122.09 252.853 492.099
1569 0 75.3174 14.9368 1125 121.043 253.348 489.882
1570 0 75.2577 13.6066 1024 125.527 253.255 490.877
1571 0 79.2396 13.3519 1058 126.473 252.443 488.88
1572 0 82.2576 13.3605 1099 126.722 252.019 487.149
1573 0 85.4767 14.308 1223 123.361 252.45 485.186
1574 0 88.2725 14.5232 1282 123.153 252.154 482.612
1575 0 90.4006 13.595 1229 126.172 252.083 482.509
1576 0 93.4834 15.1685 1418 122.518 252.633 479.403
1577 0 96.3964 14.43 1391 124.601 252.162 478.792
1578 0 100.173 14.5748 1460 124.637 251.938 478.668
1579 0 101.258 13.4311 1360 128.453 252.388 476.336
1580 0 105.279 14.8178 1560 124.475 251.78 474.669
1581 0 108.198 13.6509 1477 125.102 253.534 474.493
1582 0 113.322 13.5808 1539 124.779 253.337 472.697
1583 1 63.2266 12.6845 802 123.181 254.276 496.84
1584 0 65.2718 12.2718 801 124.089 253.015 495.105
1585 0 67.2477 13.1306 883 124.332 253.589 494.035
1586 0 69.3025 13.6792 948 114.234 253.931 493.771
1587 0 72.2861 12.1739 880 118.466 254.155 493.052
1588 0 76.2596 14.2802 1089 112.858 254.215 490.034
1589 0 78.1694 12.7543 997 116.991 253.826 490.237
1590 0 79.2483 13.4135 1063 115.361 253.506 487.117
1591 0 83.27 15.4677 1288 111.229 253.438 485.784
1592 0 84.2003 14.2042 1196 114.913 253.588 486.44
1593 0 87.208 13.8061 1204 115.734 253.773 483.603
1594 0 91.2059 13.9794 1275 115.014 254.042 483.383
1595 0 93.269 14.0132 1307 115.275 254.008 480.864
1596 0 95.207 14.3372 1365 113.804 254.321 480.183
1597 0 99.0956 14.0369 1391 114.037 253.386 478.344
1598 0 100.233 13.1693 1320 115.831 253.593 477.13
1599 0 104.208 14.1448 1474 113.455 253.927 473.241
1600 0 107.182 13.8176 1481 113.333 254.572 474.94
1601 0 111.164 14.8249 1648 111.981 253.892 472.322
1602 0 114.228 14.6461 1673 112.617 254.4 470.149
1603 0 117.259 12.9883 1523 116.071 254.106 469.664
1604 0 122.234 14.1368 1728 113.27 253.463 465.363
1605 0 127.198 14.1591 1801 114.302 253.253 461.133
1606 1 65.1244 10.027 653 115.757 251.91 491.338
1607 0 70.184 12.6097 885 109.597 252.624 488.163
1608 0 70.1868 12.709 892 108.868 251.816 488.751
1609 0 75.1711 11.9195 896 110.891 251.742 488.348
1610 0 76.0601 12.4507 947 111.627 251.615 484.398
1611 0 79.3681 12.9649 1029 110.249 251.159 483.087
1612 0 83.1566 12.5185 1041 110.682 251.992 482.695
1613 0 85.1251 12.558 1069 110.847 251.461 481.418
1614 0 87.1844 12.6513 1103 109.287 252.184 480.856
1615 0 92.1807 13.6905 1262 102.689 251.929 479.213
1616 0 95.1474 13.4003 1275 104.173 251.246 477.05
1617 0 98.2035 13.3295 1309 105.299 252.231 473.066
1618 0 101.233 12.6342 1279 106.408 252.507 476.327
1619 0 105.19 12.6913 1335 106.786 251.575 472.741
1620 1 58.092 11.9638 695 107.481 250.531 497.039
1621 0 59.0782 12.5596 742 106.496 251.144 495.632
1622 0 60.0734 12.9675 779 106.462 253.854 495.669
1623 0 62.1452 12.7765 794 107.019 254.911 492.94
1624 0 65.0972 13.5336 881 104.76 253.469 495.289
1625 0 65.0894 12.3062 801 107.607 253.97 491.697
1626 0 66.045 12.5823 831 109.78 252.67 492.846
1627 0 68.1327 12.006 818 110.038 253.928 494.523
1628 0 70.0515 12.6478 886 108.239 253.881 493.269
1629 0 71.0591 11.8211 840 110.12 253.713 490.021
1630 0 76.09 12.7875 973 107.35 254.46 487.216
1631 0 76.1704 10.9229 832 111.948 254.188 487.558
1632 0 79.1104 11.8189 935 110.585 254.251 485.995
1633 0 84.1338 12.9199 1087 105.676 253.761 488.998
1634 0 85.1944 13.6981 1167 106.295 253.535 484.046
1635 0 87.1606 12.6433 1102 107.315 253.249 485.091
1636 0 91.2089 13.1018 1195 106.064 253.481 482.593
1637 0 94.1739 13.5813 1279 105.729 253.509 478.425
1638 0 97.1742 13.4295 1305 106.399 253.983 478.474
1639 0 102.226 12.6387 1292 104.396 253.546 478.14
1640 0 104.206 13.6653 1424 106.881 253.935 475.963
1641 0 104.304 11.9362 1245 108.52 254.541 472.554
1642 0 110.206 13.0573 1439 106.744 254.638 473.298
1643 1 57.1007 11.4534 654 104.252 252.807 501.13
1644 0 60.0961 11.1322 669 104.824 252.139 497.628
1645 0 60.1069 11.7624 707 105.803 254.948 495.822
1646 0 65.2544 12.9646 846 106.732 254.543 494.892
1647 0 66.1105 13.6438 902 92.2262 255.111 493.054
1648 0 68.091 13.6876 932 103.973 254.82 492.916
1649 0 69.1592 11.6977 809 110.058 255.18 493.117
1650 0 72.2566 12.677 916 107.762 254.922 489.862
1651 0 74.3857 12.3142 916 111.609 254.301 488.919
1652 0 77.2544 13.1125 1013 109.745 254.03 487.724
1653 0 80.3701 12.1811 979 113.335 253.815 488.45
1654 0 84.2282 12.2762 1034 111.494 254.369 485.132
1655 0 85.2825 13.2032 1126 112.573 253.56 484.596
1656 1 48.0356 11.4082 548 114.277 256.193 502.279
1657 0 49.0568 11.4969 564 115.72 255.346 500.541
1658 0 50.1363 12.9647 650 112.437 255.189 497.865
1659 0 53.4602 13.019 696 109.562 253.961 498.593
1660 0 56.2934 14.2468 802 106.404 253.368 499.759
1661 0 56.567 12.8697 728 111.636 253.887 498.062
1662 0 58.06 13.0727 759 111.921 250.846 497.013
1663 0 61.0312 13.7307 838 110.646 250.804 494.863
1664 0 60.0944 12.1642 731 115.591 250.086 495.663
1665 0 61.0945 12.4397 760 116.33 250.013 495.962
1666 0 64.0601 13.7527 881 113.343 250.69 494.94
1667 0 65.0122 12.3669 804 115.562 251.052 496.35
1668 0 65.0452 13.0678 850 111.499 250.967 496.066
1669 0 66.147 12.7141 841 113.559 251.253 495.434
1670 0 67.0543 11.8411 794 116.102 251.537 494.666
1671 0 71.079 11.9445 849 115.069 250.815 493.93
1672 0 73.1175 12.6372 924 112.645 251.173 491.756
1673 0 75.0974 11.3719 854 115.335 250.867 491.697
1674 0 80.0861 12.6864 1016 112.651 251.548 488.922
1675 0 82.2041 13.0772 1075 109.339 251.847 486.831
1676 0 85.1544 12.3188 1049 106.346 251.225 485.556
1677 1 46.138 11.2055 517 107.573 251.4 503.808
1678 0 49.0331 12.5018 613 108.085 250.894 500.454
1679 0 47.0503 11.5196 542 105.688 251.057 502.389
1680 0 50.1205 11.3526 569 104.682 251.886 501.018
1681 0 51.2255 11.7324 601 103.779 251.73 498.925
1682 0 53.2246 12.8324 683 101.908 251.565 499.985
1683 0 55.1845 13.5364 747 101.514 251.501 498.985
1684 0 54.2096 12.5808 682 105.236 251.51 497.497
1685 0 56.1274 13.9326 782 103.491 251.831 497.835
1686 0 57.1273 12.4109 709 109.944 251.714 497.829
1687 0 60.0307 12.0605 724 112.153 251.736 496.891
1688 0 61.2094 10.9134 668 111.47 252.064 495.615
1689 0 64.1273 13.1457 843 110.457 251.969 495.499
1690 0 65.0605 12.204 794 113.821 251.359 495.131
1691 0 66.2211 12.564 832 114.029 251.844 493.447
1692 0 71.1975 13.4977 961 112.393 251.769 491.806
1693 0 75.2782 13.0317 981 113.967 251.535 491.389
1694 0 75.1728 13.5421 1018 114.456 251.811 490.758
1695 0 79.2759 13.4215 1064 114.394 251.751 487.762
1696 0 80.1287 13.1663 1055 116.523 251.783 485.412
1697 0 83.2208 12.7733 1063 116.555 251.789 487.262
1698 0 88.2345 14.9148 1316 111.553 252.189 482.012
1699 0 90.401 14.2255 1286 113.59 252.318 481.484
1700 0 92.5459 12.4479 1152 117.225 252.918 480.833
1701 1 52.3876 12.3884 649 117.582 252.806 498.549
1702 0 54.3534 13.3386 725 115.324 253.094 496.64
1703 0 56.5138 12.2094 690 116.054 253.946 496.229
1704 0 55.1531 12.7826 705 117.912 250.091 498.997
1705 0 60.1337 13.8525 833 110.49 250.655 498.222
1706 0 60.0806 12.9493 778 113.174 250.749 497.533
1707 0 62.0973 13.7365 853 111.143 251.165 496.342
1708 0 65.1142 13.8372 901 110.448 251.176 495.825
1709 0 66.3349 13.3263 884 112.087 250.473 494.903
1710 0 70.2273 13.8977 976 110.248 250.625 492.757
1711 0 71.3369 12.2097 871 112.951 250.762 493.589
1712 0 74.4748 14.609 1088 108.41 250.983 490.907
1713 0 74.3185 13.1865 980 112.808 251.416 489.768
1714 0 75.3607 12.4203 936 114.676 251.026 490.137
1715 0 79.405 14.2057 1128 111.086 251.447 485.785
1716 0 81.268 14.0646 1143 111.446 251.214 484.864
1717 1 45.3184 12.2025 553 108.716 251.163 504.503
1718 0 47.1366 12.5168 590 108.112 250.717 504.229
1719 0 48.0997 12.3701 595 108.946 249.941 504.886
1720 0 50.2244 12.8623 646 108.856 250.656 503.28
1721 0 51.0746 11.7475 600 102.513 250.09 498.168
1722 0 50.0959 9.72135 487 109.172 250.653 496.505
1723 0 52.2153 11.0887 579 104.71 251.63 495.686
1724 0 53.2464 10.6862 569 106.775 251.489 494.48
1725 0 56.1454 12.9129 725 101.434 251.621 494.457
1726 0 58.1647 11.519 670 105.303 251.218 494.91
1727 0 57.2682 11.0009 630 107.357 251.106 493.286
1728 0 60.3012 10.4641 631 109.583 251.268 491.889
1729 0 61.2197 10.5848 648 110.73 251.63 489.841
1730 0 64.19 12.8836 827 105.615 251.68 490.701
1731 0 67.2988 11.5752 779 107.994 252.211 488.289
1732 0 67.2824 11.8307 796 109.465 251.906 487.407
1733 0 70.3808 11.7362 826 110.008 251.993 485.778
1734 0 71.3989 11.4848 820 110.617 251.778 485.968
1735 0 74.2651 11.1223 826 112.358 251.45 483.587
1736 0 79.1545 12.343 977 108.382 251.304 485.899
1737 0 83.2891 12.5346 1044 104.348 252.097 482.701
1738 0 83.2375 11.305 941 109.164 252.656 481.996
1739 0 86.2119 13.5944 1172 105.41 252.72 482.89
1740 0 90.291 12.8806 1163 106.765 252.77 483.194
1741 0 92.2627 13.0822 1207 109.259 251.899 478.987
1742 0 97.2304 12.9692 1261 109.996 252.572 477.182
1743 0 100.247 12.3396 1237 112.046 252.49 476.601
1744 1 56.1514 10.8813 611 106.43 253.853 499.795
1745 0 54.3063 11.1221 604 107.639 253.535 497.495
1746 0 58.3075 12.2283 713 102.065 252.23 491.717
1747 0 60.3987 12.3678 747 113.671 251.894 493.609
1748 0 60.2594 11.9483 720 106.881 252.711 496.132
1749 0 62.1785 11.6761 726 107.237 252.762 496.687
1750 0 64.1477 12.5336 804 106.909 253.139 495.677
1751 0 66.103 13.2369 875 104.392 252.747 493.77
1752 0 71.1511 12.9724 923 103.677 252.541 492.274
1753 0 73.2725 13.0062 953 104.28 252.163 490.74
1754 0 75.1616 13.3313 1002 104.192 252.815 487.499
1755 0 78.1385 12.6442 988 105.679 253.341 487.952
1756 0 81.3391 11.6795 950 107.319 253.22 488.203
1757 0 80.132 11.6059 930 109.475 253.656 485.823
1758 0 86.1506 12.0835 1041 106.513 254.097 482.965
1759 0 88.1045 11.5658 1019 108.562 253.866 482.282
1760 0 91.245 11.4417 1044 110.67 253.321 481.025
1761 1 51.029 13.0318 665 103.451 253.46 501.164
1762 0 52.138 12.2559 639 102.462 253.567 501.297
1763 0 53.1161 11.0324 586 105.997 253.857 499.669
1764 0 56.0664 12.5387 703 103.939 253.408 500.091
1765 0 56.4508 13.5693 766 95.5222 253.087 493.594
1766 0 58.3784 11.9907 700 98.6286 252.807 493.683
1767 0 59.3414 11.0547 656 100.835 253.229 492.857
1768 0 62.3237 12.5634 783 99.9336 253.471 494.051
1769 0 62.4022 12.5637 784 100.696 253.223 494.268
1770 0 65.2528 13.3941 874 98.4439 253.763 492.618
1771 0 66.2433 11.337 751 102.427 253.213 490.325
1772 0 69.2927 12.3678 857 99.9102 253.516 490.824
1773 0 71.2308 12.5086 891 100.401 253.043 488.275
1774 0 73.1953 10.6838 782 103.065 253.278 488.726
1775 0 76.3353 12.7071 970 101.268 252.593 485.039
1776 0 79.175 12.264 971 102.759 252.762 485.677
1777 0 80.2585 12.2728 985 103.236 252.264 485.094
1778 0 84.3228 12.7842 1078 101.694 251.827 479.359
1779 0 86.4052 12.7423 1101 102.548 252.107 480.12
1780 0 90.2962 12.2264 1104 104.114 252.282 479.767
1781 0 92.4633 12.0588 1115 104.857 252.135 478.5
1782 0 94.4808 10.9229 1032 111.64 252.805 473.444
1783 0 100.483 12.7584 1282 107.858 252.431 473.568
1784 1 51.2856 10.0613 516 103.944 254.18 496.386
1785 0 55.4031 12.1473 673 99.6285 253.822 493.988
1786 0 57.3198 12.6135 723 98.816 253.97 495.405
1787 0 59.4846 11.4483 681 100.805 253.838 494.489
1788 0 58.3404 11.57 675 101.234 253.353 494.776
1789 0 60.4517 11.2156 678 102.186 253.106 495.055
1790 0 62.2962 12.6011 785 99.6178 253.86 492.948
1791 0 63.2632 12.2346 774 101.902 253.851 491.611
1792 0 69.366 12.2394 849 101.102 253.253 490.941
1793 0 71.3539 12.5291 894 100.714 253.375 488.936
1794 0 72.4155 11.8207 856 101.888 253.119 489.662
1795 0 74.4464 12.6534 942 101.704 253.347 487.154
1796 0 78.4704 12.6545 993 100.962 253.664 487.075
1797 0 79.3201 12.0398 955 103.418 254.302 485.974
1798 0 82.2827 13.563 1116 102.177 253.56 482.384
1799 0 86.4591 14.0992 1219 101.533 252.992 480.948
1800 0 88.4012 13.0767 1156 104.008 253.028 480.021
1801 0 89.4233 12.5359 1121 106.602 253.373 479.118
1802 0 93.307 12.2927 1147 106.027 253.09 479.702
1803 0 96.2362 12.5628 1209 107.216 253.128 475.457
1804 0 100.403 12.6889 1274 106.919 253.397 474.407
1805 0 103.385 12.9129 1335 107.672 253.025 473.643
1806 1 56.0638 10.934 613 103.759 254.936 496.445
1807 0 58.1665 12.447 724 100.424 255.076 495.173
1808 0 57.0361 11.7995 673 106.785 254.804 493.688
1809 0 61.1058 10.7027 654 104.838 253.132 495.125
1810 0 64.0246 12.2922 787 101.483 254.626 495.403
1811 0 68.0744 12.7948 871 100.155 255.116 493.437
1812 0 68.1383 12.3572 842 103.061 254.582 492.816
1813 0 68.1306 12.0357 820 105.163 254.665 490.417
1814 0 71.1455 12.4534 886 104.48 254.754 489.282
1815 0 75.1464 12.7485 958 103.971 254.522 488.48
1816 0 77.1342 12.757 984 104.244 254.63 487.524
1817 0 78.1276 11.6732 912 106.453 255.047 488.821
1818 0 82.2225 12.527 1030 106.07 254.725 485.479
1819 0 86.2012 12.7492 1099 105.226 254.323 484.24
1820 0 88.0839 12.4313 1095 105.172 254.867 484.858
1821 0 90.0789 11.2457 1013 108.432 254.641 482.203
1822 0 92.2119 11.4953 1060 107.193 254.704 480.237
1823 0 96.1531 12.0433 1158 106.946 254.671 478.794
1824 0 99.2397 11.6889 1160 107.882 254.531 475.455
1825 0 102.104 10.5481 1077 109.419 254.309 475.519
1826 1 57.1989 13.794 789 101.608 254.063 495.199
1827 0 58.5461 13.135 769 100.244 253.572 495.336
1828 0 59.0797 12.39 732 101.639 255.21 496.66
1829 0 61.0511 12.0719 737 102.305 255.043 495.45
1830 0 62.1306 14.2764 887 98.3021 254.709 493.848
1831 0 63.1074 12.2965 776 102.198 255.054 493.54
1832 0 68.1454 13.119 894 99.1667 254.6 493.291
1833 0 67.039 12.709 852 101.764 254.202 492.181
1834 0 68.2046 12.2426 835 103.883 254.643 491.211
1835 0 71.1094 13.7675 979 101.28 253.46 488.213
1836 0 73.0995 12.3804 905 104.322 254.481 490.28
1837 0 76.0935 13.4834 1026 102.147 253.893 488.404
1838 0 76.1773 12.6678 965 105.577 254.094 486.69
1839 0 79.2886 11.9942 951 107.186 254.088 485.028
1840 0 84.2712 13.6227 1148 102.993 253.949 484.444
1841 0 85.5705 12.551 1074 106.184 253.742 483.377
1842 0 90.4261 12.7286 1151 107.06 253.462 479.039
1843 0 91.4682 12.8351 1174 111.542 253.401 476.984
1844 0 97.3967 13.3372 1299 109.513 253.403 474.942
1845 1 50.1749 11.2207 563 100.817 250.691 497.972
1846 0 50.0781 11.4621 574 97.7038 251 499.605
1847 0 53.1254 11.087 589 98.8149 251.092 496.092
1848 0 55.1336 11.6626 643 97.6174 250.983 497.593
1849 0 56.2428 11.7526 661 94.2451 251.788 495.87
1850 0 56.2454 12.7299 716 94.338 251.441 495.126
1851 0 59.1729 11.8973 704 95.4957 252.585 492.915
1852 0 61.112 11.2417 687 97.246 251.31 494.827
1853 0 62.2207 11.2824 702 98.3162 252.131 491.44
1854 0 63.1912 11.7896 745 98.7557 251.823 490.855
1855 0 67.2492 12.5949 847 96.1618 252.12 490.63
1856 0 67.2295 12.7176 855 99.1918 251.84 488.848
1857 0 68.2022 10.6741 728 102.429 251.692 489.243
1858 0 71.1378 12.6515 900 99.5867 250.987 487.367
1859 0 73.1505 11.9753 876 100.721 251.85 486.201
1860 0 76.1539 12.0283 916 101.236 252.862 487.028
1861 0 80.1232 12.4683 999 99.9009 252.98 487.793
1862 0 79.138 12.6109 998 103.985 253.635 485.994
1863 0 81.0932 12.9481 1050 105.341 252.651 485.141
1864 1 42.0781 11.4311 481 103.254 254.462 505.443
1865 0 43.1539 10.7059 462 104.147 252.141 498.81
1866 0 42.0844 8.67305 365 118.34 255.184 498.34
1867 0 43.1056 10.1379 437 117.103 254.725 496.368
1868 0 46.0295 9.86324 454 118.736 254.013 497.656
1869 0 49.0532 11.09 544 116.066 254.298 496.68
1870 0 48.0373 10.5751 508 118.293 254.093 496.782
1871 0 52.1091 11.4759 598 114.751 253.416 496.816
1872 0 51.0453 10.2066 521 118.555 253.714 495.307
1873 0 55.0468 11.6991 644 111.351 253.842 496.775
1874 0 57.1039 11.2602 643 113.56 252.967 493.415
1875 0 58.0274 11.7358 681 112.376 253.018 493.167
1876 0 59.0633 10.8866 643 116.619 253.243 490.423
1877 0 63.1323 12.6718 800 108.779 252.878 493.174
1878 0 67.042 12.4549 835 109.677 253.547 490.933
1879 0 67.0591 12.6456 848 111.151 254.393 488.782
1880 0 69.0459 12.0065 829 113.847 253.574 486.642
1881 0 73.072 11.7555 859 113.409 253.82 486.737
1882 1 38.0139 10.6277 404 101.577 254.374 504.156
1883 0 40.2018 10.1985 410 102.971 253.876 503.083
1884 0 41.0416 11.6711 479 112.846 254.411 506.486
1885 0 43.0931 12.4614 537 112.235 254.736 504.922
1886 0 44.1029 12.5615 554 113.132 254.081 502.522
1887 0 45.1613 11.5364 521 111.822 253.445 504.837
1888 0 47.0607 13.0045 612 108.685 251.997 503.052
1889 0 49.0693 14.3674 705 105.857 250.559 502.808
1890 0 49.0484 12.8445 630 111.63 250.825 502.084
1891 0 51.1093 13.6766 699 109.7 250.701 501.029
1892 0 51.1318 12.1646 622 115.751 250.698 499.077
1893 0 55.2043 12.9338 714 111.842 251.22 498.752
1894 0 55.2043 12.9881 717 144.501 252.241 498.713
1895 0 57.1187 14.0584 803 110.988 250.737 496.205
1896 0 58.1318 15.138 880 108.449 251.133 496.949
1897 0 59.113 14.5992 863 110.886 250.97 494.546
1898 0 61.1749 13.7802 843 112.567 250.956 495.273
1899 0 63.1085 13.7699 869 112.293 250.688 494.394
1900 0 64.0945 14.541 932 110.163 251.009 493.492
1901 0 66.1314 13.7454 909 112.066 250.993 493.175
1902 0 68.2209 14.1306 964 110.743 251.302 492.456
1903 0 70.1035 13.9793 980 111.524 250.685 491.202
1904 0 71.0947 13.5312 962 113.695 250.899 490.69
1905 0 74.1277 13.6521 1012 112.173 251.306 489.837
1906 0 76.0851 12.3677 941 115.098 251.163 489.309
1907 0 79.1767 13.4509 1065 111.398 251.628 484.716
1908 0 81.1212 14.4229 1170 109.429 252.464 484.332
1909 0 85.1915 14.0976 1201 110.372 251.709 483.101
1910 1 48.1499 11.485 553 118.839 250.976 501.745
1911 0 50.361 11.6161 585 119.06 252.063 500.19
1912 0 49.0985 13.6053 668 112.678 250.515 500.994
1913 0 52.092 12.5355 653 115.234 250.588 500.006
1914 0 54.0275 12.7528 689 114.374 250.704 499.502
1915 0 54.0449 12.9892 702 115.708 251.14 498.993
1916 0 55.0505 12.7338 701 117.843 251.046 497.331
1917 0 56.0409 12.9191 724 117.921 251.093 498.301
1918 0 60.1108 13.3919 805 114.815 251.289 498.785
1919 0 61.0357 13.7788 841 115.458 251.571 496.988
1920 0 63.0489 14.5918 920 112.837 251.246 495.89
1921 0 65.2735 13.6656 892 115.618 251.411 493.498
1922 0 66.1754 13.4642 891 117.932 251.397 492.336
1923 0 69.1151 14.0635 972 115.506 251.698 492.549
1924 0 70.117 13.9339 977 116.867 251.986 492.524
1925 0 73.1129 14.1152 1032 116.586 251.137 491.3
1926 0 74.2945 13.2984 988 120.13 251.411 490.27
1927 0 77.2148 13.5984 1050 119.061 251.202 487.844
1928 0 77.1489 13.9859 1079 119.13 251.184 488.287
1929 0 83.147 13.3017 1106 118.896 251.883 488.23
1930 0 85.1371 13.9774 1190 117.638 251.808 484.97
1931 0 88.2049 13.8654 1223 117.482 251.725 482.376
1932 0 90.1918 13.7817 1243 118.986 251.193 481.958
1933 0 94.2191 12.9167 1217 124.409 251.26 477.781
1934 1 54.3724 11.9546 650 127.215 251.003 497.943
1935 0 56.3586 12.6511 713 123.881 251.767 498.795
1936 0 57.2792 13.4778 772 122.927 252.438 499.074
1937 0 58.5184 12.8165 750 123.64 251.373 497.555
1938 0 59.3355 13.3647 793 124.197 251.707 496.352
1939 0 61.3676 13.7206 842 123.868 251.97 496.568
1940 0 62.4922 14.0337 877 125.397 251.824 494.473
1941 0 62.2654 13.7155 854 127.543 252.269 492.308
1942 0 66.2536 14.037 930 124.757 251.99 492.444
1943 0 66.2767 13.7605 912 127.091 252.166 490.748
1944 0 67.3545 13.4661 907 128.32 251.755 490.884
1945 0 70.3784 14.5073 1021 126.6 252.184 491.356
1946 0 73.1033 13.9392 1019 122.967 251.303 489.821
1947 0 75.0896 13.2908 998 127.373 251.286 487.274
1948 0 76.0893 13.7076 1043 127.202 251.489 484.637
1949 0 81.1802 14.0305 1139 125.568 250.802 484.961
1950 0 81.0891 12.9364 1049 130.368 250.551 483.2
1951 0 86.1725 14.2041 1224 126.273 250.396 481.658
1952 0 87.1373 13.6566 1190 129.35 250.284 480.545
1953 0 90.3714 13.356 1207 129.102 250.493 482.115
1954 0 94.2265 14.1998 1338 127.5 250.633 478.496
1955 0 97.2924 13.5262 1316 129.044 250.524 476.661
1956 0 102.315 14.8757 1522 122.61 250.814 474.832
1957 1 54.2018 12.3981 672 125.269 250.996 499.765
1958 0 55.2046 11.1223 614 127.059 251.399 497.523
1959 0 57.2426 13.1196 751 121.419 252.262 495.579
1960 0 60.3127 13.5129 815 118.8 251.544 495.989
1961 0 62.0863 12.531 778 120.324 251.008 493.537
1962 0 64.0982 13.2141 847 115.968 251.204 494.424
1963 0 67.3363 13.3658 900 112.522 252.734 491.013
1964 0 68.3233 12.5579 858 115.256 253.2 491.135
1965 0 70.2051 13.1329 922 116.31 253.567 489.86
1966 0 72.3237 12.9557 937 115.648 253.531 490.433
1967 0 74.3062 13.2021 981 114.708 253.147 488.016
1968 0 77.168 13.179 1017 114.468 253.321 487.214
1969 0 79.1907 13.6127 1078 114.375 253.825 483.854
1970 0 80.2912 13.7624 1105 113.956 253.411 484.673
1971 0 83.3351 13.6077 1134 114.333 253.25 481.161
1972 0 86.2582 13.6683 1179 113.204 253.279 483.42
1973 0 88.2082 13.6495 1204 114.728 252.6 477.27
1974 0 91.2837 14.2742 1303 113.53 253.375 477.808
1975 0 93.2464 12.9013 1203 117.529 253.325 477.981
1976 0 97.1775 13.7892 1340 116.096 253.292 476.566
1977 0 98.22 14.4675 1421 115.155 253.243 474.371
1978 0 99.2566 12.3921 1230 115.167 252.781 469.011
1979 0 102.173 12.792 1307 115.389 252.802 465.587
1980 0 106.216 13.5197 1436 115.142 252.271 466.457
1981 0 111.322 12.9534 1442 122.429 252.519 467.551
1982 1 59.145 11.8691 702 113.577 250.769 491.88
1983 0 61.2276 11.1061 680 112.982 251.278 486.763
1984 0 66.1213 13.2484 876 110.098 251.21 492.419
1985 0 69.267 12.5601 870 112.226 253.29 491.907
1986 0 69.2086 12.5562 869 114.372 253.903 491.725
1987 0 71.2996 12.7771 911 114.569 253.667 487.175
1988 0 73.2415 13.1756 965 114.596 253.66 488.061
1989 0 77.266 13.6282 1053 113.304 253.6 486.024
1990 0 77.2779 12.2286 945 117.614 254.181 484.823
1991 0 81.2383 13.5035 1097 114.689 253.953 485.041
1992 0 84.309 12.9998 1096 115.746 253.693 483.529
1993 0 87.2124 13.8742 1210 114.26 253.283 480.723
1994 0 90.1406 13.5122 1218 115.16 252.512 480.422
1995 0 93.2706 13.1445 1226 115.994 253.024 479.918
1996 0 96.2543 13.3293 1283 116.288 253.298 476.931
1997 0 96.2305 12.2207 1176 120.111 253.486 476.246
1998 0 101.286 13.3779 1355 117.784 253.447 473.951
1999 1 56.1426 11.0967 623 123.008 254.262 496.186
2000 0 57.1114 12.1342 693 117.208 254.255 493.973
2001 0 61.2482 11.6738 715 119.617 254.601 496.629
2002 0 63.1172 12.4847 788 119.067 254.071 493.194
2003 0 66.2331 12.4862 827 119.594 254.231 491.914
2004 0 65.2771 11.7652 768 121.663 253.586 491.917
2005 0 68.1637 12.8221 874 119.481 253.546 488.918
2006 0 71.125 13.0474 928 118.823 254.162 488.818
2007 0 73.2012 12.2266 895 121.096 253.796 487.94
2008 0 75.2431 12.958 975 119.563 253.689 486.453
2009 0 79.2598 12.9952 1030 119.989 253.294 484.508
2010 0 82.1873 14.3818 1182 115.64 253.444 482.325
2011 0 82.2198 12.2477 1007 122.632 253.775 482.36
2012 0 83.1657 11.8198 983 123.724 253.769 481.333
2013 0 89.2083 13.4405 1199 118.731 253.961 478.973
2014 0 92.0967 14.5608 1341 116.274 253.507 476.22
2015 1 50.1142 11.4538 574 118.075 253.605 497.603
2016 0 52.1048 10.2294 533 122.471 253.58 495.152
2017 0 54.0599 11.9682 647 116.9 253.518 495.093
2018 0 53.0598 12.288 652 112.005 253.66 495.842
2019 0 54.0872 12.1655 658 112.067 254.008 495.299
2020 0 58.0713 12.9668 753 110.736 253.583 493.433
2021 0 60.2177 11.8736 715 107.211 253.242 495.101
2022 0 62.2381 11.9862 746 117.721 252.354 494.143
2023 0 65.2984 11.8686 775 118.067 252.89 492.476
2024 0 67.5091 12.0576 814 118.416 252.361 489.671
2025 0 69.4588 13.3029 924 115.914 252.677 489.164
2026 0 70.4992 12.0285 848 120.233 253.008 488.349
2027 0 70.4328 11.5571 814 119.837 252.998 488.603
2028 0 74.3657 12.9764 965 116.345 253.336 487.261
2029 0 78.3487 12.3933 971 117.807 252.681 486.65
2030 0 79.6249 12.7222 1013 117.192 252.306 485.335
2031 0 80.3845 12.5646 1010 118.167 252.601 484.062
2032 0 82.5238 11.7784 972 120.269 252.561 481.705
2033 0 85.5837 13.3203 1140 116.655 252.257 479.626
2034 0 87.4061 12.9053 1128 118.021 251.956 477.717
2035 0 90.5987 11.8103 1070 120.393 251.121 477.286
2036 0 95.4308 13.4129 1280 115.954 251.388 475.565
2037 0 97.5484 13.7368 1340 114.611 251.813 476.855
2038 0 99.4697 13.4111 1334 115.603 251.486 474.549
2039 0 103.446 13.3693 1383 115.93 251.858 471.558
2040 1 56.1701 11.4296 642 114.964 252.812 494.93
2041 0 56.0982 11.6938 656 117.976 253.32 494.364
2042 0 61.115 13.0901 800 115.345 253.332 495.546
2043 0 61.0407 12.8439 784 117.022 254.116 493.647
2044 0 63.1859 12.756 806 117.83 253.705 491.805
2045 0 66.2787 13.4281 890 115.398 253.757 491.964
2046 0 67.2209 12.3771 832 117.655 254.114 490.852
2047 0 71.1604 13.322 948 115.349 254.032 489.503
2048 0 73.1747 13.0783 957 116.271 254.544 487.917
2049 0 75.1026 12.2233 918 118.614 254.315 486.414
2050 0 78.1829 12.5859 984 118.013 254.278 484.982
2051 0 79.1432 12.4584 986 119.251 254.515 484.256
2052 0 82.2163 13.3064 1094 117.728 254.202 482.744
2053 0 84.1211 13.6827 1151 118.092 254.183 480.036
2054 0 88.1464 12.604 1111 121.481 254.061 478.193
2055 0 88.2042 13.6048 1200 120.951 253.863 479.153
2056 0 92.1012 13.2246 1218 121.865 253.828 477.377
2057 0 96.1985 14.283 1374 119.794 253.818 475.926
2058 0 97.3135 13.9344 1356 122.187 253.726 474.516
2059 0 102.392 13.878 1421 121.988 253.641 473.857
2060 0 105.545 14.0035 1478 121.95 254.235 470.314
2061 1 58.0908 11.9812 696 119.425 253.991 496.889
2062 0 59.1247 11.7717 696 121.343 255.068 496.217
2063 0 58.1359 9.495 552 110.998 254.152 489.884
2064 0 61.1802 11.0657 677 107.885 253.996 489.931
2065 0 61.1174 9.52265 582 106.71 252.162 489.964
2066 0 62.0548 11.0386 685 105.816 252.453 486.832
2067 0 65.1326 11.3307 738 104.94 252.068 486.883
2068 0 69.1007 11.5773 800 105.265 252.252 483.646
2069 0 69.0947 11.1731 772 106.363 251.707 484.532
2070 0 73.1943 11.8452 867 105.077 251.543 482.588
2071 0 75.0685 11.8292 888 113.529 253.77 486.792
2072 0 80.1323 10.6449 853 113.834 255.206 489.883
2073 0 82.0559 11.614 953 116.318 254.503 486.076
2074 0 85.1316 11.9932 1021 116.579 254.51 483.831
2075 0 88.1339 12.9803 1144 115.426 254.049 482.781
2076 0 92.1555 12.7393 1174 115.486 253.897 480.752
2077 0 93.1951 11.9212 1111 116.823 253.96 478.572
2078 0 97.1248 11.7478 1141 118.328 253.896 478.35
2079 0 100.124 11.9052 1192 116.425 253.432 476.732
2080 1 57.2126 12.0603 690 115.552 253.984 495.049
2081 0 58.2521 12.0167 700 115.134 253.599 494.743
2082 0 59.1153 11.4015 674 111.28 249.353 495.45
2083 0 61.0495 12.0722 737 109.547 248.98 496.613
2084 0 62.1222 12.7169 790 107.487 249.666 493.456
2085 0 64.0492 13.1774 844 106.758 249.517 491.834
2086 0 64.1164 11.8222 758 111.182 250.161 492.397
2087 0 68.0904 12.9534 882 106.661 250.142 490.471
2088 0 68.0828 12.6023 858 108.587 250.08 490.636
2089 0 71.0599 12.3135 875 108.513 250.195 489.496
2090 0 74.042 13.0196 964 106.775 250.554 487.935
2091 0 74.0401 12.8309 950 108.569 249.674 486.532
2092 0 77.1066 12.6319 974 108.121 250.175 484.708
2093 0 81.0732 13.4446 1090 106.244 250.502 484.113
2094 0 83.1998 11.9832 997 108.925 250.498 482.816
2095 0 85.1846 14.9323 1272 102.792 251.239 479.715
2096 0 85.1663 12.5402 1068 109.229 251.08 481.021
2097 0 89.2873 13.5518 1210 106.241 250.945 478.231
2098 0 93.1399 14.2366 1326 104.547 251.41 477.121
2099 0 95.154 14.0929 1341 104.898 250.885 476.468
2100 0 97.2283 14.3477 1395 104.806 251.23 474.981
2101 0 100.164 14.2965 1432 105.367 251.314 472.483
2102 0 102.205 12.7489 1303 107.927 251.668 472.672
2103 0 107.179 12.9409 1387 108.71 251.631 471.004
2104 0 107.189 13.0797 1402 110.287 251.252 472.785
2105 0 110.178 12.507 1378 114.725 250.894 473.089
2106 0 115.148 13.678 1575 109.818 250.15 468.4
2107 0 119.179 13.2238 1576 110.788 250.207 466.561
2108 0 123.166 13.2991 1638 112.41 250.334 461.72
2109 0 126.338 13.638 1723 111.593 250.624 460.47
2110 0 131.25 12.3733 1624 113.443 250.608 459.555
2111 1 77.0623 13.5864 1047 107.528 249.883 485.055
2112 0 75.0662 11.7363 881 113.336 249.747 484.89
2113 0 80.12 13.0679 1047 106.5 249.922 484.41
2114 0 81.0938 13.5522 1099 106.129 249.993 483.665
2115 0 84.2388 14.0078 1180 105.529 250.467 482.746
2116 0 85.1902 12.0436 1026 111.649 250.307 481.585
2117 0 88.1588 12.6363 1114 111.322 250.38 479.89
2118 0 90.1429 12.3693 1115 112.259 250.372 480.698
2119 0 93.0541 13.2181 1230 112.238 251.81 479.82
2120 0 96.2041 12.4423 1197 113.845 249.911 478.84
2121 0 99.221 13.1424 1304 113.565 249.663 476.983
2122 0 102.181 13.1335 1342 113.72 249.823 474.722
2123 0 107.07 14.8781 1593 110.036 249.549 473.865
2124 1 59.0486 11.2788 666 115.474 248.706 497.811
2125 0 61.099 11.866 725 109.69 250.349 495.079
2126 0 62.3417 14.0997 879 104.673 250.486 491.524
2127 0 64.1296 12.4591 799 109.986 249.546 492.965
2128 0 64.0332 11.822 757 113.263 249.839 491.412
2129 0 67.0228 13.0702 876 109.398 250.002 491.159
2130 0 68.0568 12.9892 884 109.762 249.773 490.064
2131 0 72.0259 12.3705 891 110.914 249.671 488.814
2132 0 73.0624 13.6322 996 108.751 249.401 489.078
2133 0 76.0579 13.6475 1038 110.835 249.167 486.88
2134 0 78.2792 13.7329 1075 117.389 249.465 486.682
2135 0 80.0882 13.635 1092 118.083 249.528 486.173
2136 0 81.1242 13.0294 1057 120.665 249.496 484.762
2137 0 85.0552 13.1797 1121 120.476 249.439 484.455
2138 0 86.2075 14.0359 1210 120.415 249.833 481.964
2139 0 90.1804 13.8611 1250 120.58 248.973 481.476
2140 0 93.0753 14.2036 1322 120.258 250.121 481.818
2141 0 95.0362 13.8894 1320 123.194 249.584 479.239
2142 0 98.1897 13.8202 1357 125.118 249.388 477.26
2143 0 100.162 13.4183 1344 127.031 249.699 474.762
2144 0 102.101 13.1732 1345 128.483 249.636 472.564
2145 0 107.179 13.8646 1486 125.31 249.558 473.592
2146 0 109.112 13.9856 1526 125.651 249.454 471.513
2147 0 113.13 14.2048 1607 125.393 250.159 470.744
2148 0 112.169 12.9448 1452 127.087 249.547 469.695
2149 0 119.197 14.2034 1693 122.903 249.856 469.119
2150 0 122.245 13.2602 1621 127.011 250.038 466.442
2151 0 126.163 13.9423 1759 126.572 249.972 462.821
2152 1 70.1664 11.3872 799 127.882 249.479 491.437
2153 0 72.1215 13.1999 952 121.076 250.351 487.42
2154 0 75.0828 11.9468 897 117.273 250.172 490.48
2155 0 77.1159 13.0064 1003 120.331 249.978 487.495
2156 0 80.063 15.6252 1251 114.128 250.344 484.102
2157 0 83.0914 13.6717 1136 119.936 249.603 484.908
2158 0 87.2361 15.0626 1314 115.82 250.311 482.967
2159 0 89.1149 14.4869 1291 118.705 250.136 480.776
2160 0 91.1926 14.5407 1326 118.423 250.467 481.989
2161 0 94.0883 14.8371 1396 118.717 249.642 479.163
2162 0 97.1172 15.4658 1502 115.977 250.379 479.77
2163 0 99.1962 14.5873 1447 119.068 250.176 476.449
2164 0 101.339 13.4105 1359 122.29 250.102 478.393
2165 0 104.306 13.2591 1383 123.955 250.207 474.9
2166 0 107.316 12.6262 1355 126.264 249.711 472.1
2167 0 113.256 13.8183 1565 121.269 249.503 471.652
2168 0 113.381 12.8593 1458 125.566 250.491 472.547
2169 1 63.058 11.8621 748 126.809 250.023 495.684
2170 0 65.0936 13.4575 876 121.998 249.598 493.904
2171 0 66.1122 11.7981 780 119.921 254.183 490.506
2172 0 67.0409 13.2904 891 116.851 253.616 489.112
2173 0 72.0798 13.1521 948 116.636 253.605 486.485
2174 0 72.1546 12.3485 891 118.799 253.846 486.659
2175 0 75.1148 12.9934 976 116.41 253.444 486.27
2176 0 78.1487 12.8985 1008 116.846 253.221 481.906
2177 0 80.174 13.6952 1098 114.981 252.994 482.45
2178 0 84.1749 13.5076 1137 113.256 252.896 483.088
2179 0 86.2813 12.8069 1105 115.049 252.854 482.051
2180 0 90.2377 12.7552 1151 112.645 252.871 481.532
2181 0 93.2875 13.8068 1288 110.308 252.484 480.21
2182 0 96.3617 13.0757 1260 111.664 252.971 480.398
2183 0 99.288 14.2615 1416 108.678 252.791 477.358
2184 0 102.363 13.0419 1335 111.584 252.945 477.844
2185 0 105.476 14.2971 1508 108.365 252.731 475.339
2186 0 107.322 13.194 1416 112.059 252.929 475.326
2187 0 106.254 12.6584 1345 115.83 252.654 476.676
2188 0 111.259 12.9698 1443 115.478 253.699 473.076
2189 0 116.456 12.7602 1486 115.219 252.535 471.648
2190 0 119.29 13.2702 1583 113.672 252.304 471.917
2191 0 122.365 11.8089 1445 117.043 252.702 470.945
2192 0 127.268 12.3597 1573 117.878 252.452 462.645
2193 1 66.1065 12.8278 848 121.252 253.196 492.21
2194 0 69.34 13.1093 909 119.91 252.466 490.224
2195 0 73.2538 12.9823 951 118.756 253.571 491.588
2196 0 75.4147 14.2015 1071 115.82 253.416 488.773
2197 0 76.1384 13.6199 1037 118.928 253.084 486.226
2198 0 80.2387 12.899 1035 119.938 253.334 485.968
2199 0 83.1381 13.8204 1149 117.837 252.947 483.927
2200 0 84.1788 14.2554 1200 117.91 253.448 481.842
2201 0 87.3546 13.8287 1208 119.697 252.926 480.035
2202 0 91.401 13.6103 1244 120.079 252.185 480.153
2203 0 93.3038 13.4507 1255 121.369 252.864 478.824
2204 1 51.1694 11.1786 572 121.74 252.83 499.101
2205 0 52.3182 12.1182 634 120.03 252.82 499.584
2206 0 54.2464 12.0561 654 118.317 251.133 495.775
2207 0 57.31 12.1445 696 118.29 251.191 493.612
2208 0 58.1751 14.6282 851 110.038 250.152 498.22
2209 0 60.1594 14.0793 847 112.96 249.658 495.877
2210 0 60.2213 13.9319 839 114.781 250.119 496.801
2211 0 61.1898 14.4305 883 114.922 249.615 494.393
2212 0 64.2785 14.1572 910 114.231 250.232 495.119
2213 0 67.3531 15.0253 1012 113.016 250.686 493.608
2214 0 67.1701 13.4435 903 118.027 250.472 493.421
2215 0 70.1444 15.0547 1056 113.535 250.611 492.634
2216 0 72.2618 13.8662 1002 117.924 250.535 491.529
2217 0 72.5297 13.7599 998 119.232 250.712 490.854
2218 0 77.3652 14.2829 1105 115.964 250.898 490.367
2219 0 79.3599 15.5746 1236 113.165 251.295 487.498
2220 0 80.419 14.5737 1172 116.064 251.306 487.204
2221 0 84.4399 14.1995 1199 116.066 251.091 487.143
2222 0 88.3455 14.3414 1267 115.839 251.331 484.736
2223 0 90.3754 14.816 1339 115.067 251.308 483.148
2224 0 92.4465 13.8891 1284 118.076 251.615 483.455
2225 0 95.4886 15.0384 1436 116.03 251.398 480.208
2226 0 97.7898 14.1937 1388 117.857 252.105 478.733
2227 0 101.797 13.7135 1396 128.38 252.565 471.21
2228 1 54.5507 12.8688 702 122.205 252.654 495.95
2229 0 56.2671 13.8447 779 108.249 252.842 498.484
2230 0 54.1732 11.9616 648 109.437 252.415 493.145
2231 0 54.2463 11.116 603 113.569 251.934 492.227
2232 0 56.1737 12.2655 689 110.846 252.686 492.795
2233 0 59.1899 11.8601 702 111.865 252.415 490.038
2234 0 62.1704 11.195 696 112.589 252.585 491.259
2235 0 65.1976 12.1017 789 110.24 252.961 491.854
2236 0 65.3922 12.4327 813 110.062 252.699 488.411
2237 0 68.2204 12.1078 826 112.444 252.153 489.094
2238 0 70.3619 13.1747 927 111.955 252.176 486.239
2239 0 71.298 12.7633 910 113.301 252.231 484.854
2240 0 75.28 13.5361 1019 111.162 252.284 485.549
2241 0 78.267 13.965 1093 110.208 252.703 484.082
2242 0 80.1722 12.7101 1019 115.152 252.727 481.097
2243 0 83.2066 13.2562 1103 113.5 252.195 479.575
2244 0 85.1587 13.2224 1126 113.701 252.262 477.746
2245 0 89.2554 12.6043 1125 114.928 252.276 476.95
2246 0 92.1828 12.5078 1153 114.641 252.436 475.075
2247 0 96.0553 13.0446 1253 114.913 252.485 473.358
2248 1 52.0264 11.1866 582 113.529 253.282 497.491
2249 0 52.0763 11.8096 615 114.185 252.436 496.691
2250 0 54.2216 12.4305 674 116.924 251.743 495.512
2251 0 57.2046 13.0234 745 116.248 251.991 493.663
2252 0 60.3145 12.8327 774 116.503 251.692 492.729
2253 0 59.2963 13.5928 806 115.844 251.284 492.288
2254 0 63.2701 12.6442 800 115.205 251.919 492.848
2255 0 63.2392 12.6504 800 117.354 251.999 491.748
2256 0 67.3073 13.4161 903 114.532 251.465 489.134
2257 0 69.361 12.3412 856 117.036 252.123 488.784
2258 0 72.3237 12.9418 936 115.428 251.589 488.469
2259 0 74.2916 13.3662 993 114.73 251.719 489.265
2260 0 77.3515 13.9493 1079 113.824 251.917 489.007
2261 0 78.0684 13.1167 1024 116.405 251.581 489.348
2262 0 79.2368 11.8632 940 121.07 251.529 487.015
2263 0 83.135 12.9909 1080 116.934 251.881 489.612
2264 0 86.2062 14.0013 1207 114.575 251.233 489.974
2265 0 88.0474 12.4933 1100 121.785 251.515 487.347
2266 0 92.1394 13.4253 1237 120.122 251.003 486.89
2267 0 93.1216 13.52 1259 120.079 250.625 485.138
2268 0 96.1776 13.3503 1284 120.993 249.891 485.644
2269 0 102.291 12.4645 1275 121.513 248.98 486.878
2270 0 108.505 13.7781 1495 118.411 248.571 485.322
2271 1 57.2303 13.5767 777 114.193 248.434 508.766
2272 0 57.2292 13.0353 746 118.536 248.269 507.121
2273 0 60.0686 13.3015 799 113.74 247.834 508.569
2274 0 63.1573 13.0626 825 115.23 247.688 508.731
2275 0 65.0576 13.4189 873 115.57 247.474 506.239
2276 0 66.157 14.2691 944 114.7 247 503.963
2277 0 70.0894 15.309 1073 111.722 246.465 502.805
2278 0 70.1531 13.9124 976 116.893 246.93 501.691
2279 0 74.2068 15.2142 1129 114.641 246.993 498.337
2280 0 77.1015 15.3823 1186 115.366 246.335 497.304
2281 0 79.2788 14.5688 1155 117.358 246.28 495.987
2282 0 82.2129 15.1314 1244 116.394 245.869 495.876
2283 0 85.1554 15.7477 1341 115.736 246.127 493.625
2284 0 87.2895 15.7064 1371 116.146 246.289 493.469
2285 0 89.3758 14.7355 1317 120.5 245.08 490.513
2286 0 94.2212 15.782 1487 117.32 245.42 490.011
2287 0 96.2717 13.8774 1336 121.698 245.823 488.058
2288 1 53.0995 13.0698 694 123.101 245.182 510.641
2289 0 55.1076 14.7348 812 120.929 244.431 508.055
2290 0 59.0382 14.3636 848 119.98 244.962 511.892
2291 0 61.2438 14.679 899 119.261 244.878 511.17
2292 0 61.127 15.5414 950 121.207 246.545 510.54
2293 0 62.2049 14.3719 894 124.333 245.877 510.944
2294 0 66.2173 16.5063 1093 115.869 246.931 508.995
2295 0 67.2164 15.279 1027 121.172 246.686 508.497
2296 0 70.1142 16.4161 1151 118.353 246.763 507.72
2297 0 72.1537 15.3838 1110 121.366 247.506 506.886
2298 0 73.2188 15.1327 1108 122.722 247.254 505.543
2299 0 76.1256 14.8833 1133 122.253 246.974 504.823
2300 0 79.1642 14.931 1182 121.915 246.685 503.227
2301 0 80.1809 15.49 1242 121.608 246.884 500.49
2302 0 83.1755 16.0985 1339 119.122 246.682 499.25
2303 0 86.29 14.7874 1276 123.136 246.393 498.48
2304 0 89.1412 15.0211 1339 121.236 246.538 498.326
2305 0 92.1387 15.7154 1448 119.778 246.572 495.528
2306 0 92.117 15.1004 1391 123.335 245.913 494.244
2307 0 97.1158 15.0645 1463 122.213 246.198 494.504
2308 0 98.0819 14.6204 1434 124.762 246.166 490.083
2309 0 103.14 14.6016 1506 124.168 246.32 489.022
2310 0 106.124 16.7163 1774 118.759 245.945 489.061
2311 1 56.0527 13.5408 759 123.763 246.22 511.444
2312 0 58.1095 13.1132 762 122.581 246.552 510.134
2313 0 60.1822 14.6555 882 118.61 246.485 506.405
2314 0 64.1832 14.4119 925 116.084 247.095 508.08
2315 0 66.0936 15.5688 1029 113.269 246.791 505.419
2316 0 68.1417 14.4552 985 116.034 246.704 503.619
2317 0 69.1525 13.1593 910 118.312 246.893 503.277
2318 0 72.0896 14.0242 1011 115.969 246.598 501.109
2319 0 75.162 15.0342 1130 113.421 246.216 500.579
2320 0 78.2073 15.4589 1209 112.308 246.637 498.974
2321 0 80.1361 15.873 1272 111.818 247 497.38
2322 0 80.1938 15.874 1273 112.461 246.991 496.148
2323 0 85.2505 14.4867 1235 115.026 247.587 493.577
2324 0 87.2342 15.0285 1311 114.157 247.257 492.667
2325 0 89.1959 14.698 1311 115.21 247.87 489.613
2326 0 92.3463 14.4023 1330 116.614 246.95 492.372
2327 0 92.1804 14.3631 1324 118.932 246.553 488.674
2328 0 96.1977 14.6365 1408 117.568 246.21 489.479
2329 0 102.199 14.9904 1532 115.597 246.518 486.965
2330 0 105.193 14.6017 1536 116.464 246.372 484.005
2331 0 109.317 13.4746 1473 119.177 246.407 481.546
2332 0 113.246 14.0049 1586 117.154 246.9 482.059
2333 1 61.3403 13.1561 807 114.159 246.494 504.779
2334 0 64.3412 12.7135 818 117.278 246.32 500.323
2335 0 63.3078 11.9259 755 109.714 246.981 498.695
2336 0 65.1377 13.2949 866 103.701 246.24 497.353
2337 0 66.136 13.8049 913 105.198 246.9 497.988
2338 0 69.1792 12.9663 897 106.77 246.86 495.406
2339 0 72.2363 14.0234 1013 105.626 246.629 492.966
2340 0 73.177 12.5859 921 109.114 246.993 492.153
2341 0 76.1594 12.5395 955 110.973 247.161 489.641
2342 0 78.1067 12.611 985 111.697 246.74 488.13
2343 0 82.3113 13.862 1141 109.09 247.431 486.389
2344 0 81.1521 12.4211 1008 114.071 247.846 485.854
2345 0 84.1785 13.7565 1158 113.781 248.12 483.492
2346 0 87.1024 13.3291 1161 115.25 247.98 481.909
2347 0 88.1192 13.0165 1147 117.012 247.426 482.108
2348 0 93.1054 13.1142 1221 116.78 247.609 479.963
2349 0 94.1481 12.9264 1217 119.076 248.246 477.992
2350 0 99.1215 13.3977 1328 118.641 247.721 477.071
2351 0 99.2082 12.9929 1289 120.24 248.19 473.318
2352 0 102.078 12.7648 1303 121.837 248.863 473.731
2353 0 107.123 14.4039 1543 118.598 248.805 471.662
2354 0 111.18 14.5889 1622 121.606 248.493 470.001
2355 0 112.212 14.1517 1588 125.996 248.26 467.75
2356 0 116.241 14.3323 1666 127.986 247.833 464.525
2357 0 121.203 13.8693 1681 128.012 248.104 462.222
2358 0 125.54 13.9717 1754 129.967 248.941 455.999
2359 0 131.45 14.2488 1873 128.199 249.027 456.926
2360 0 136.346 14.7932 2017 127.267 249.391 451.097
2361 0 141.271 14.4615 2043 127.981 249.157 448.359
2362 0 146.447 14.5786 2135 123.296 249.075 449.924
2363 1 78.059 12.798 999 120.706 248.855 481.508
2364 0 80.1716 12.9597 1039 121.693 248.257 480.217
2365 0 86.176 12.8574 1108 113.324 249.244 482.072
2366 0 89.1761 12.7949 1141 113.588 249.323 480.315
2367 0 90.1713 13.6407 1230 114.647 248.867 478.364
2368 0 93.1831 12.6096 1175 115.845 248.618 478.201
2369 0 97.3687 14.0702 1370 112.986 248.687 476.509
2370 0 97.1078 13.6549 1326 116.13 249.042 471.454
2371 0 102.149 13.3041 1359 117.975 248.428 477.17
2372 0 105.144 14.2377 1497 115.43 248.671 474.886
2373 0 108.234 12.9442 1401 118.917 249.084 472.8
2374 0 112.165 14.1487 1587 116.078 248.936 470.419
2375 0 116.35 14.7571 1717 113.659 249.442 467.832
2376 0 117.215 12.6519 1483 119.675 249.825 465.576
2377 0 123.192 15.1064 1861 116.351 249.049 462.35
2378 0 125.322 11.7059 1467 125.001 249.646 461.943
2379 0 130.508 13.7233 1791 120.465 251.336 458.131
2380 0 134.252 13.0501 1752 120.495 250.688 460.478
2381 0 138.296 12.3864 1713 124.051 250.858 457.198
2382 0 144.549 13.3035 1923 121.306 250.508 456.264
2383 0 149.595 13.6769 2046 121.996 250.653 450.035
2384 0 154.379 12.981 2004 123.215 250.603 449.093
2385 0 158.394 12.248 1940 125.44 250.422 443.424
2386 0 164.41 13.4907 2218 122.848 250.481 448.364
2387 1 99.1591 13.5136 1340 121.014 248.669 477.693
2388 0 101.224 13.2182 1338 122.999 250.007 477.469
2389 0 104.219 14.6519 1527 119.53 250.261 473.688
2390 0 109.296 14.1451 1546 119.193 250.607 475.196
2391 0 112.274 13.2978 1493 120.627 250.824 472.295
2392 0 116.337 14.8449 1727 117.171 250.426 468.948
2393 0 120.395 13.6551 1644 120.755 250.315 467.65
2394 0 120.279 13.4521 1618 122.536 250.16 466.574
2395 0 127.325 13.0925 1667 122.604 250.07 466.034
2396 0 131.185 13.3857 1756 113.874 251.029 465.692
2397 0 135.3 14.0946 1907 113.307 250.711 463.793
2398 1 77.2622 10.1214 782 119.098 251.16 489.467
2399 0 82.2114 13.2585 1090 114.028 250.723 486.988
2400 0 85.2435 13.0332 1111 116.202 250.491 485.518
2401 0 87.213 13.3122 1161 116.024 250.354 483.664
2402 0 92.2312 13.9432 1286 114.037 250.513 482.907
2403 0 95.3258 13.6584 1302 114.387 251.038 482.64
2404 0 97.2602 13.3971 1303 114.446 250.375 481.206
2405 0 101.229 13.8597 1403 114.651 250.787 477.844
2406 0 103.254 13.0067 1343 116.907 250.776 476.254
2407 0 106.254 13.1948 1402 117.185 250.791 473.596
2408 0 111.422 13.7675 1534 116.561 250.885 469.553
2409 0 114.252 13.3477 1525 117.236 250.986 468.471
2410 0 116.377 12.6313 1470 118.966 251.455 467.269
2411 0 121.489 13.4745 1637 115.74 251.352 466.609
2412 1 67.3632 13.0338 878 111.424 251.835 491.149
2413 0 69.5057 14.1571 984 108.867 249.941 491.217
2414 0 70.2662 13.8331 972 110.843 249.915 489.235
2415 0 72.4008 12.928 936 112.808 249.74 488.957
2416 0 77.2326 14.411 1113 110.253 249.468 486.547
2417 0 78.3855 13.5357 1061 113.509 249.421 484.273
2418 0 83.6552 14.1294 1182 111.106 249.02 482.188
2419 0 85.4306 15.2287 1301 109.094 248.709 477.127
2420 0 87.4409 13.5863 1188 112.453 248.976 478.532
2421 0 92.3729 14.1383 1306 111.258 249.271 474.26
2422 0 95.47 14.4024 1375 110.591 248.549 475.057
2423 0 96.3084 14.0694 1355 113.294 248.889 472.551
2424 0 100.422 14.1403 1420 113.308 248.456 469.661
2425 0 105.286 15.0542 1585 111.174 248.506 467.671
2426 0 108.239 14.5881 1579 112.66 248.761 466.415
2427 0 111.479 14.2358 1587 114.054 248.553 464.466
2428 1 63.2734 12.3907 784 116.886 249.342 488.981
2429 0 64.3068 12.5803 809 116.913 248.549 489.494
2430 0 66.3283 13.3276 884 116.434 249.025 487.402
2431 0 68.2647 13.2865 907 117.743 249.18 485.542
2432 0 69.4675 12.783 888 120.11 249.61 485.977
2433 0 73.3126 13.4629 987 118.12 249.065 484.087
2434 0 77.394 15.0399 1164 113.906 248.729 482.528
2435 0 75.2868 13.2028 994 122.584 248.88 480.291
2436 0 81.3052 14.1565 1151 118.723 248.415 481.742
2437 0 84.2593 13.5415 1141 121.402 249.372 477.824
2438 0 86.297 15.354 1325 117.768 249.045 477.281
2439 0 88.273 14.3872 1270 122.306 248.293 475.257
2440 0 89.1889 14.4413 1288 123.95 248.891 475.362
2441 0 93.2595 14.776 1378 124.281 248.351 472.65
2442 0 95.369 15.7389 1501 123.129 248.163 469.758
2443 0 99.2955 14.2806 1418 127.592 248.407 471.547
2444 0 100.257 14.373 1441 128.185 248.208 469.171
2445 0 105.178 15.2123 1600 126.614 248.515 468.468
2446 0 111.22 15.7796 1755 123.695 248.473 468.089
2447 0 111.339 15.8076 1760 125.643 248.63 463.305
2448 0 115.189 16.2863 1876 123.404 248.739 464.33
2449 0 117.254 15.1466 1776 126.598 248.72 462.765
2450 0 123.202 15.4543 1904 125.091 249.738 459.17
2451 1 68.1361 13.1795 898 132.148 250.185 485.813
2452 0 72.2178 13.9301 1006 130.738 249.921 483.504
2453 0 74.1133 13.9516 1034 131.286 249.996 481.989
2454 0 78.1204 14.4777 1131 128.634 250.707 479.841
2455 0 79.1004 13.742 1087 131.591 250.797 478.167
2456 0 83.084 14.6599 1218 128.154 250.72 478.168
2457 0 86.1285 15.4188 1328 126.377 250.645 477.211
2458 0 87.093 14.5247 1265 129.743 250.402 476.998
2459 0 88.1156 14.5718 1284 131.859 250.307 474.898
2460 0 92.1285 14.4472 1331 132.287 250.691 472.539
2461 0 96.1259 16.0727 1545 127.882 250.476 471.641
2462 0 97.3537 14.2778 1390 133.925 250.35 470.142
2463 0 103.277 15.0178 1551 130.775 250.324 468.747
2464 0 103.193 14.4875 1495 134.52 250.777 465.732
2465 0 107.275 14.9056 1599 133.507 250.591 465.617
2466 0 107.131 14.3656 1539 137.336 250.292 460.278
2467 0 112.268 14.0823 1581 138.114 250.147 459.922
2468 0 113.304 13.424 1521 141.788 250.243 457.502
2469 0 121.405 15.2465 1851 135.117 250.862 456.242
2470 0 123.314 15.1564 1869 137.215 250.365 453.148
2471 0 125.39 15.1925 1905 139.345 250.205 451.138
2472 0 127.682 15.75 2011 136.467 251.043 451.606
2473 0 128.319 14.8847 1910 141.331 250.499 448.676
2474 0 133.449 15.2267 2032 140.247 250.662 447.091
2475 0 136.42 15.401 2101 141.483 250.596 443.017
2476 0 142.441 16.126 2297 138.219 251.071 443.369
2477 0 147.392 16.4052 2418 137.529 251.053 439.549
2478 0 152.603 15.9303 2431 137.822 251.138 440.579
2479 0 156.481 15.791 2471 139.239 250.901 438.662
2480 0 160.63 15.5637 2500 140.605 251.126 432.865
2481 0 166.539 16.4286 2736 136.879 250.743 431.216
2482 0 170.734 15.2108 2597 141.132 250.474 427.158
2483 0 177.491 16.4628 2922 136.573 250.196 424.642
2484 0 183.571 15.4654 2839 138.732 249.962 424.138
2485 0 190.632 15.5168 2958 138.515 250.428 419.351
2486 0 197.535 15.8403 3129 136.644 250.167 417.121
2487 0 205.643 14.9823 3081 138.605 250.33 412.492
2488 0 214.722 15.5643 3342 136.919 250.031 405.268
2489 0 221.519 15.8316 3507 136.11 249.835 403.277
2490 0 228.452 14.7908 3379 139.48 249.02 394.74
2491 1 49.0432 10.2563 503 111.344 249.282 493.885
2492 0 53.1416 10.4814 557 109.057 248.772 496.449
2493 0 54.1384 10.7133 580 110.722 248.629 494.567
2494 0 56.1434 9.86758 554 114.15 248.014 492.96
2495 0 58.1138 9.84275 572 115.516 247.74 491.97
2496 0 60.2348 11.339 683 111.682 248.741 491.335
2497 0 61.1177 10.9788 671 114.408 248.474 489.368
2498 0 61.0953 9.77162 597 118.089 248.613 486.7
2499 0 65.1918 11.7806 768 112.612 248.707 490.24
2500 0 68.2558 12.2627 837 111.943 248.421 488.39
2501 0 69.11 11.6192 803 113.903 248.547 487.28
2502 0 68.1469 10.1545 692 118.282 247.978 485.85
2503 0 72.2737 12.0929 874 113.558 248.254 481.999
2504 0 75.2764 10.8401 816 115.913 248.337 481.013
2505 0 78.2427 10.723 839 115.122 248.663 480.33
2506 0 79.2295 11.3089 896 114.735 248.307 478.84
2507 0 81.4308 10.7576 876 116.205 248.216 479.016
2508 0 82.2808 11.0232 907 115.762 248.739 476.91
2509 0 86.3802 10.8705 939 116.116 248.484 475.914
2510 0 89.3964 11.5888 1036 115.581 249.623 474.229
2511 0 89.3714 10.8536 970 119.116 249.042 473.323
2512 0 92.4772 13.0411 1206 114.626 249.366 472.18
2513 0 92.8611 11.5334 1071 119.885 249.537 467.685
2514 0 95.5195 11.673 1115 119.979 249.931 467.751
2515 0 100.465 12.2331 1229 118.037 250.162 466.583
2516 0 102.556 12.5882 1291 118.342 250.105 468.114
2517 0 102.56 10.589 1086 125.717 250.037 462.149
2518 0 109.851 12.79 1405 119.132 250.24 461.786
2519 0 112.139 12.5915 1412 119.261 250.521 457.824
2520 0 116.03 12.3934 1438 121.143 250.222 456.36
2521 0 117.808 11.6206 1369 118.364 250.397 452.256
2522 1 67.4694 9.47096 639 111.135 250.706 482.329
2523 0 70.3509 10.7035 753 116.162 250.201 483.977
2524 0 72.4312 10.5617 765 119.157 249.767 483.097
2525 0 76.4011 11.2564 860 119.259 249.592 481.326
2526 0 77.3997 11.9251 923 117.757 249.855 479.124
2527 0 79.4965 11.8118 939 116.635 250.161 482.245
2528 1 94.4394 18.4245 1740 93.9851 251.267 465.876
2529 0 95.5261 19.6072 1873 92.6172 250.664 466.051
2530 0 91.4886 13.5755 1242 112.89 250.957 465.329
2531 0 93.4948 13.1986 1234 114.248 251.019 465.528
2532 0 94.4929 13.1756 1245 116.257 250.754 465.583
2533 0 97.6834 13.8611 1354 114.497 250.764 468.76
2534 0 97.6283 13.9201 1359 116.256 251.212 466.449
2535 0 102.737 13.5297 1390 116.36 251.904 469.352
2536 0 104.609 13.1155 1372 118.558 250.827 468.222
2537 0 109.534 14.2787 1564 114.803 251.244 466.373
2538 0 110.503 14.3526 1586 115.76 251.461 465.486
2539 0 112.475 13.8786 1561 118.515 251.193 464.158
2540 0 113.599 12.773 1451 121.217 251.345 457.942
2541 0 120.621 14.7736 1782 115.39 251.401 457.45
2542 0 122.614 15.1532 1858 114.667 251.262 457.681
2543 0 124.75 15.2384 1901 114.957 251.356 453.654
2544 0 127.872 14.6475 1873 116.848 252.042 451.542
2545 0 127.498 15.4042 1964 110.216 251.114 453.506
2546 0 129.389 13.1619 1703 117.023 251.305 446.156
2547 0 134.278 13.9188 1869 115.682 251.326 443.434
2548 0 135.318 13.302 1800 118.517 251.103 440.453
2549 0 145.495 14.3235 2084 113.787 251.813 439.097
2550 0 148.546 12.8109 1903 117.628 250.943 437.475
2551 0 150.473 13.9493 2099 115.837 250.829 428.832
2552 0 159.613 14.9361 2384 111.329 251.577 430.967
2553 1 91.4599 11.0431 1010 116.675 252.162 463.378
2554 0 96.6271 12.7914 1236 113.33 252.196 465.137
2555 0 98.1006 12.3852 1215 113.675 250.19 463.642
2556 0 101.229 12.9508 1311 112.097 251.826 465.796
2557 0 102.271 12.3202 1260 115.015 250.56 464.865
2558 0 104.158 12.9418 1348 113.627 251.126 462.569
2559 0 110.081 13.2447 1458 111.791 250.532 465.14
2560 0 113.082 13.0701 1478 112.541 250.712 463.263
2561 0 114.262 13.7929 1576 110.872 251.763 462.129
2562 0 118.153 12.7124 1502 113.696 252.268 459.726
2563 0 118.282 11.3627 1344 119.026 251.667 458.885
2564 0 120.171 12.7901 1537 116.465 251.335 458.068
2565 0 123.247 12.3898 1527 117.122 251.876 457.604
2566 0 131.173 14.0578 1844 112.907 251.465 455.869
2567 0 132.168 13.1046 1732 119.308 251.495 449.089
2568 0 137.193 12.8213 1759 119.271 251.966 450.204
2569 0 140.147 12.9292 1812 119.247 251.821 448.094
2570 0 146.373 12.7892 1872 116.77 250.904 444.886
2571 0 148.325 13.4906 2001 116.782 251.212 441.47
2572 0 154.405 13.5747 2096 114.95 251.775 439.753
2573 0 158.302 13.6258 2157 115.571 251.043 434.584
2574 0 163.282 14.9189 2436 111.58 250.933 432.927
2575 0 170.31 13.8512 2359 111.458 250.73 432.994
2576 1 108.127 13.0217 1408 107.857 250.143 461.581
2577 0 113.134 12.958 1466 107.364 250.238 461.608
2578 0 113.168 13.1398 1487 110.044 249.936 458.949
2579 0 117.261 13.3208 1562 109.249 250.172 459.554
2580 0 116.264 12.1362 1411 112.202 250.588 456.9
2581 0 121.243 12.809 1553 111.432 250.223 454.529
2582 0 125.159 13.1912 1651 111.67 249.853 450.239
2583 0 131.359 12.8807 1692 112.674 250.128 455.152
2584 0 136.205 15.7337 2143 106.324 249.801 453.887
2585 0 136.151 13.015 1772 114.54 248.771 444.786
2586 0 143.245 13.1802 1888 112.662 250.092 446.475
2587 0 145.51 13.14 1912 113.874 250.9 444.518
2588 1 88.424 10.4723 926 112.163 253.154 472.623
2589 0 91.3784 11.8299 1081 104.921 249.854 469.436
2590 0 95.2447 12.9456 1233 110.394 249.608 469.686
2591 0 97.2129 12.8069 1245 111.691 249.371 468.092
2592 0 101.273 12.9254 1309 110.675 249.323 468.65
2593 0 102.246 11.9613 1223 115.209 249.424 465.872
2594 0 106.17 12.4612 1323 113.939 249.954 466.038
2595 0 108.223 13.0471 1412 113.793 249.745 465.02
2596 0 111.155 12.8469 1428 115.179 249.602 464.011
2597 0 112.153 13.4281 1506 116.339 250.72 459.569
2598 0 115.305 12.931 1491 118.438 250.304 458.294
2599 0 119.32 13.1579 1570 117.687 250.578 457.383
2600 0 121.278 13.4649 1633 117.412 250.308 457.194
2601 0 124.204 13.7033 1702 117.644 250.595 453.69
2602 0 127.391 13.7687 1754 118.302 250.977 451.67
2603 0 129.352 13.5831 1757 118.753 250.736 449.207
2604 0 136.386 13.6158 1857 117.377 251.067 449.278
2605 0 141.281 14.9489 2112 115.047 250.89 443.888
2606 0 144.335 14.3208 2067 116.223 250.808 446.551
2607 0 146.434 13.9722 2046 119.921 250.872 438.159
2608 0 151.688 14.2266 2158 118.282 251.26 438.864
2609 0 157.808 13.9473 2201 118.656 251.076 434.781
2610 0 161.511 14.1786 2290 118.924 250.84 430.108
2611 0 166.464 14.6879 2445 117.226 251.062 428.377
2612 0 170.63 14.1066 2407 117.633 251.468 424.212
2613 0 179.738 14.4154 2591 114.017 251.502 424.107
2614 0 182.728 13.8238 2526 116.237 251.698 419.473
2615 0 188.679 15.1421 2857 114.691 252.115 415.507
2616 0 193.465 14.4677 2799 118.254 252.785 418.376
2617 0 199.368 14.3754 2866 119.187 251.681 413.576
2618 0 205.598 14.2316 2926 121.066 251.834 408.545
2619 0 208.267 14.5054 3021 120.548 251.795 402.706
2620 0 213.277 15.1634 3234 119.769 251.7 398.955
2621 0 214.262 13.4742 2887 124.424 250.893 392.871
2622 0 223.492 14.2511 3185 122.04 251.278 390.112
2623 0 228.47 14.3914 3288 122.73 251.623 384.09
2624 0 236.334 15.0127 3548 120.618 251.383 380.86
2625 0 246.523 14.8749 3667 118.984 251.535 375.396
2626 1 298.079 24.0171 7159 87.1979 250.538 339.484
2627 0 259.963 16.41 4266 114.666 250.677 364.426
2628 1 32.2132 6.92263 223 85.4933 250.471 493.211
2629 0 34.3253 5.24395 180 85.4333 250.05 496.5
2630 0 32.4127 5.0289 163 86.411 251.644 493.209
2631 0 29.1888 4.21395 123 85.7236 252.805 494.772
2632 0 29.2945 7.54407 221 85.7692 251.837 490.869
2633 1 74.1586 7.90198 586 99.7645 251.063 469.039
2634 0 78.201 8.68275 679 99.5479 250.975 465.016
2635 0 82.4812 9.38395 774 98.2571 251.713 467.928
2636 0 87.8475 9.69863 852 97.2723 251.528 468.883
2637 0 87.7319 9.73421 854 98.0164 251.025 467.972
2638 0 91.5707 10.7021 980 97.5143 252.336 462.595
2639 0 92.4483 9.51883 880 100.619 251.977 459.973
2640 0 96.6949 10.2798 994 98.6429 251.16 459.829
2641 0 100.58 10.7179 1078 97.4174 252.019 458.74
2642 0 104.645 11.4387 1197 96.3475 251.928 448.346
2643 1 31.2833 5.01866 157 102.783 253.287 479.987
2644 0 39.1903 6.37913 250 96.848 252.864 482.648
2645 0 49.4312 6.67594 330 95.3061 253.097 481.924
2646 0 53.4428 9.07512 485 90.2887 252.353 481.482
2647 0 60.1698 8.29319 499 88.5451 249.988 487.898
2648 0 58.3465 7.76397 453 91.0883 248.503 484.201
2649 0 64.3024 9.50198 611 88.1326 248.835 483.709
2650 0 66.3204 10.4794 695 85.5986 248.138 486.571
2651 0 64.2461 9.40135 604 90.9603 248.127 483.685
2652 0 63.1775 9.7503 616 92.8068 247.594 480.093
2653 0 65.1965 8.05258 525 97.2286 247.594 478.453
2654 0 68.309 8.49083 580 96.0155 247.76 480.295
2655 0 70.2884 9.14802 643 96.6905 247.034 479.031
2656 0 76.1231 8.35489 636 98.3302 247.951 479.901
2657 0 78.2021 8.93837 699 98.2918 247.775 480.805
2658 0 80.09 11.5245 923 95.3424 247.098 478.651
2659 0 83.2895 12.3905 1032 100.545 247.082 486.872
2660 0 85.2331 13.3047 1134 100.282 247.341 482.146
2661 0 88.2875 12.6405 1116 101.603 247.48 481.13
2662 0 89.2497 12.9524 1156 101.787 247.298 479.498
2663 0 90.2832 13.3358 1204 102.71 247.473 479.886
2664 0 92.1967 13.4278 1238 102.855 247.777 479.712
2665 0 92.2796 12.1045 1117 107.997 246.779 478.68
2666 0 99.2721 11.6951 1161 108.487 246.857 478.691
2667 0 98.4349 11.9775 1179 108.673 247.771 478.382
2668 0 101.271 13.2418 1341 106.388 247.221 477.013
2669 0 104.26 13.1115 1367 106.71 247.736 476.47
2670 0 103.356 13.5841 1404 107.063 247.754 474.866
2671 0 106.23 12.4165 1319 111.94 247.65 471.745
2672 0 110.625 11.4531 1267 113.07 247.411 471.844
2673 0 111.381 13.3954 1492 109.707 247.198 468.691
2674 0 118.277 12.5045 1479 109.376 246.8 468.545
2675 0 114.224 12.5193 1430 109.244 247.785 465.21
2676 0 121.153 12.3481 1496 108.201 247.666 459.116
2677 0 127.417 12.6671 1614 111.033 247.3 464.164
2678 1 75.3841 12.4695 940 105.318 248.09 489.639
2679 0 74.3493 12.7506 948 106.329 249.593 485.277
2680 0 77.6954 11.4679 891 109.4 249.553 484.269
2681 0 78.2482 12.1792 953 109.26 247.769 486.839
2682 0 81.2913 13.9744 1136 104.54 248.561 485.295
2683 0 81.2539 11.6671 948 111.43 248.482 482.944
2684 0 83.2493 12.5527 1045 109.51 248.515 483.625
2685 0 85.2234 12.8838 1098 109.182 248.543 481.393
2686 0 89.2376 13.055 1165 108.294 248.273 479.573
2687 0 90.228 12.4684 1125 109.676 248.52 480.676
2688 0 92.3614 12.7218 1175 109.845 248.183 477.099
2689 0 95.1984 12.101 1152 110.646 247.61 476.711
2690 0 97.2801 12.7364 1239 108.838 248.088 477.5
2691 0 101.408 13.3323 1352 107.646 248.495 475.046
2692 0 104.417 12.7756 1334 109.343 249.027 473.623
2693 0 105.368 13.2584 1397 109.22 248.312 472.258
2694 0 107.471 13.1757 1416 109.556 248.859 471.691
2695 0 111.4 13.7613 1533 109.712 248.553 466.418
2696 0 113.619 13.4221 1525 110.564 248.106 468.797
2697 0 117.569 15.2676 1795 105.922 248.701 467.207
2698 0 119.572 13.9163 1664 110.094 248.915 464.609
2699 0 117.205 12.6701 1485 114.669 249.519 455.589
2700 0 121.237 13.8077 1674 111.915 249.306 459.044
2701 0 123.46 13.8264 1707 110.575 249.32 456.724
2702 0 126.491 13.3132 1684 108.916 249.523 454.725
2703 1 70.2229 12.0046 843 110.038 249.431 483.214
2704 0 72.161 12.7493 920 110.596 248.587 481.202
2705 0 73.0847 12.506 914 112.13 248.34 479.411
2706 0 78.2326 11.7981 923 111.615 248.142 465.055
2707 0 81.1609 11.8776 964 112.369 248.274 464.718
2708 0 82.1691 14.458 1188 107.333 248.37 463.291
2709 0 83.2485 12.7089 1058 112.99 248.64 462.738
2710 0 88.1481 13.4773 1188 109.95 248.098 463.531
2711 0 89.2144 13.9664 1246 109.07 248.718 462.567
2712 0 93.2963 14.9095 1391 107.536 249.41 460.086
2713 0 93.1808 13.4255 1251 112.642 248.962 459.598
2714 0 97.2474 13.3063 1294 112.761 248.757 458.408
2715 0 98.1157 13.4433 1319 112.864 248.262 459.196
2716 0 102.144 13.4614 1375 113.209 248.705 463.548
2717 0 102.172 14.1819 1449 111.527 249.48 472.816
2718 0 105.218 13.8855 1461 113.327 248.949 466.114
2719 0 109.27 13.7641 1504 113.661 249.651 462.813
2720 0 114.308 13.4811 1541 112.149 249.914 462.999
2721 0 117.295 14.4678 1697 109.853 249.959 459.367
2722 0 122.492 14.6295 1792 114.637 250.882 456.162
2723 0 126.602 14.5021 1836 113.96 251.406 457.227
2724 0 130.723 15.4066 2014 112.143 251.073 456.131
2725 0 131.608 13.3807 1761 118.081 251.26 450.989
2726 0 140.639 16.2686 2288 110.533 251.151 449.347
2727 1 83.4689 11.7169 978 110.864 251.572 479.57
2728 0 82.3246 11.734 966 112.846 251.406 478.651
2729 0 86.2149 12.7472 1099 110.294 249.199 479.096
2730 0 87.2162 13.1512 1147 110.186 249.476 478.396
2731 0 91.1837 13.1054 1195 109.874 250.163 478.999
2732 0 92.2355 14.0944 1300 109.399 250.063 475.247
2733 0 94.1472 13.7126 1291 110.39 249.249 473.653
2734 0 97.2085 13.3013 1293 112.46 249.633 471.015
2735 0 99.2747 13.4979 1340 113.462 249.493 468.934
2736 0 103.2 13.7888 1423 111.455 249.179 470.063
2737 0 102.075 13.1472 1342 116.097 249.389 464.458
2738 0 106.16 12.8014 1359 115.96 249.056 468.18
2739 0 109.195 13.6912 1495 114.651 249.277 465.174
2740 0 112.164 12.9275 1450 116.927 249.786 463.546
2741 0 115.148 12.8704 1482 117.603 249.945 460.598
2742 0 118.173 12.524 1480 118.095 249.759 462.284
2743 0 122.235 12.8523 1571 115.775 249.798 458.106
2744 1 70.1271 10.5523 740 114 250.33 484.055
2745 0 73.0463 12.3757 904 109.895 249.274 485.978
2746 0 75.0963 11.9979 901 110.297 249.946 482.464
2747 0 77.2083 12.0324 929 110.72 249.597 482.072
2748 0 79.043 14.296 1130 108.51 249.738 479.744
2749 0 80.0924 13.3471 1069 111.477 249.088 479.456
2750 0 84.0843 13.1416 1105 111.276 249.236 479.014
2751 0 87.0596 11.6357 1013 113.564 249.147 480.049
2752 0 89.186 12.401 1106 113.19 249.88 476.052
2753 0 93.1282 13.7015 1276 109.464 249.75 476.003
2754 0 95.0226 13.0916 1244 111.957 249.697 472.868
2755 0 97.0868 12.7103 1234 112.985 249.96 470.919
2756 0 100.236 14.406 1444 110.553 249.478 468.402
2757 0 103.11 13.4128 1383 112.581 249.249 465.015
2758 0 105.201 12.8421 1351 114.53 249.819 463.264
2759 0 110.291 12.7119 1402 113.445 250.327 464.156
2760 0 112.321 13.7108 1540 111.932 249.928 464.297
2761 0 116.269 13.7784 1602 112.003 250.26 461.348
2762 1 70.153 9.86416 692 110.847 250.52 488.621
2763 0 68.0661 10.578 720 109.979 249.344 485.089
2764 0 74.0744 11.2995 837 107.76 249.498 481.871
2765 0 77.0928 13.7237 1058 107.105 249.655 482.016
2766 0 77.1057 11.3999 879 113.747 249.615 479.4
2767 0 78.076 12.1036 945 111.385 249.739 479.167
2768 0 84.0742 12.9053 1085 110.016 249.707 473.2
2769 0 84.1411 12.4671 1049 112.588 249.89 471.416
2770 0 87.0981 12.0898 1053 113.219 250.013 473.929
2771 0 91.1412 13.0237 1187 110.594 249.724 474.256
2772 0 93.2187 13.0446 1216 110.414 249.392 476.123
2773 0 96.1484 13.76 1323 109.949 250.005 473.074
2774 0 97.1784 12.6571 1230 113.239 249.715 471.736
2775 0 103.077 13.7956 1422 108.043 249.783 474.008
2776 0 105.328 13.8615 1460 110.871 249.197 468.434
2777 0 108.095 13.5252 1462 112.242 249.971 452.255
2778 0 111.15 13.7652 1530 112.424 249.089 448.327
2779 0 114.193 13.5735 1550 112.337 249.333 451.246
2780 0 116.173 13.4712 1565 113.09 249.544 449.236
2781 0 121.179 15.3574 1861 108.113 249.556 456.239
2782 0 125.174 13.7968 1727 112.34 249.693 450.702
2783 0 128.234 15.0506 1930 109.478 249.123 443.006
2784 0 133.217 15.2683 2034 108.527 249.477 442.485
2785 0 138.336 14.2118 1966 110.682 249.556 441.46
2786 0 143.374 15.0725 2161 111.192 250.37 437.541
2787 0 148.339 15.7477 2336 107.406 250.049 436.572
2788 1 85.3565 12.4302 1061 107.254 250.745 467.244
2789 0 86.3227 11.7003 1010 111.007 250.778 465.122
2790 0 90.2421 12.7989 1155 108.109 249.404 469.613
2791 0 93.4217 13.605 1271 107.068 248.753 468.112
2792 0 96.5755 13.5334 1307 107.227 249.322 467.416
2793 0 99.6219 12.7281 1268 109.603 249.465 465.014
2794 0 100.564 12.4199 1249 110.785 249.187 464.705
2795 0 104.627 13.075 1368 109.442 249.244 463.807
2796 0 108.407 14.833 1608 105.483 249.794 463.185
2797 0 110.455 12.4938 1380 111.281 249.209 460.033
2798 0 114.409 12.4378 1423 112.419 248.981 458.583
2799 0 117.224 13.3761 1568 109.793 249.568 458.899
2800 0 122.374 15.0849 1846 105.371 250.443 454.561
2801 0 124.225 12.7913 1589 112.105 250.252 451.408
2802 0 126.197 12.3933 1564 114.439 249.788 457.923
2803 0 130.313 13.0225 1697 112.963 249.614 454.71
2804 0 133.266 13.4167 1788 113.045 250.141 450.588
2805 0 138.406 13.8939 1923 112.024 249.838 450.394
2806 0 141.325 13.0479 1844 115.126 250.139 447.89
2807 0 147.329 14.7629 2175 112.157 250.035 444.456
2808 0 151.365 13.9794 2116 113.873 249.966 444.285
2809 0 156.321 13.2356 2069 115.614 250.348 440.861
2810 0 162.341 14.3032 2322 112.233 249.685 437.667
2811 0 168.552 13.0939 2207 113.452 250.863 437.276
2812 1 99.27 11.7457 1166 103.748 249.519 473.61
2813 0 100.254 11.6803 1171 104.477 249.941 472.552
2814 0 103.486 12.0983 1252 109.385 249.363 471.895
2815 0 107.469 13.0921 1407 106.986 249.294 471.526
2816 0 110.647 13.0596 1445 108.08 249.173 466.608
2817 0 114.663 14.076 1614 104.81 249.489 466.225
2818 0 117.521 14.0231 1648 106.643 249.712 458.9
2819 0 116.22 12.5194 1455 102.712 248.774 462.363
2820 0 119.163 12.4787 1487 103.56 248.125 457.803
2821 0 121.326 12.0255 1459 104.929 249.302 459.714
2822 0 126.259 11.0804 1399 106.818 249.093 457.883
2823 0 132.246 13.1724 1742 102.121 248.939 453.583
2824 0 135.28 11.7386 1588 104.698 249.064 453.551
2825 0 140.407 12.3213 1730 103.359 248.331 447.702
2826 0 146.207 13.05 1908 100.908 248.605 446.527
2827 0 146.256 13.1892 1929 100.935 249.123 440.969
2828 0 151.467 11.4943 1741 104.423 249.273 437.775
2829 1 94.1346 12.1634 1145 99.5188 248.179 469.466
2830 0 98.1191 12.6683 1243 99.3226 248.329 471.697
2831 0 102.264 12.6145 1290 99.0302 247.921 469.584
2832 0 104.085 12.3938 1290 99.9085 247.091 469.735
2833 0 107.285 11.7724 1263 102.282 247.937 467.411
2834 0 107.381 12.4696 1339 102.024 247.953 460.658
2835 0 112.254 13.3715 1501 99.2918 248.157 464.336
2836 0 117.294 13.4022 1572 99.36 248.685 463.212
2837 0 120.44 13.2929 1601 99.9294 248.548 456.68
2838 0 123.32 12.4554 1536 101.409 248.889 459.805
2839 0 126.345 12.8616 1625 101.062 248.578 457.466
2840 0 128.499 13.3231 1712 102.341 248.992 453.828
2841 0 130.334 12.7288 1659 104.128 248.691 441.101
2842 0 128.242 11.4783 1472 107.579 248.565 432.677
2843 0 139.246 12.6108 1756 103.294 248.928 433.759
2844 0 145.275 13.7188 1993 98.8068 248.509 429.441
2845 0 151.352 14.0929 2133 98.323 248.771 430.26
2846 1 84.3608 8.80741 743 99.07 248.596 469.553
2847 0 90.0978 12.0425 1085 95.5088 248.667 464.903
2848 0 94.1888 12.252 1154 95.5191 248.642 469.936
2849 0 98.3003 12.9603 1274 94.0722 248.786 469.024
2850 0 102.335 12.7424 1304 94.0913 248.503 469.723
2851 0 105.224 14.7779 1555 91.5286 249.113 465.448
2852 0 107.199 12.7893 1371 95.8796 248.892 466.019
2853 0 111.3 13.3513 1486 95.2436 248.764 463.272
2854 0 113.355 13.1534 1491 95.943 248.991 463.77
2855 0 117.444 13.6406 1602 94.8833 248.945 465.643
2856 0 123.348 15.3306 1891 91.523 249.021 460.777
2857 0 126.374 13.2543 1675 97.0657 248.838 462.001
2858 0 126.595 12.6861 1606 101.249 248.555 461.41
2859 0 131.474 12.8238 1686 101.668 248.797 459.978
2860 0 132.355 11.9753 1585 101.857 249.138 460.628
2861 0 136.501 12.4102 1694 101.191 248.551 457.116
2862 0 140.473 11.3972 1601 101.791 248.673 460.643
2863 0 144.568 13.0112 1881 100.527 249.154 450.721
2864 0 148.732 12.6939 1888 101.453 249.307 448.42
2865 0 153.75 13.4829 2073 99.877 248.892 446.958
2866 0 157.789 13.404 2115 99.7012 248.743 445.215
2867 0 161.608 13.112 2119 101.082 248.859 439.654
2868 0 168.806 12.547 2118 102.866 249.775 440.339
2869 0 174.778 13.8519 2421 102.295 249.573 434.162
2870 0 178.804 13.8811 2482 103.035 249.889 428.972
2871 0 184.032 13.8889 2556 102.606 249.059 429.557
2872 0 188.957 13.294 2512 104.178 248.644 426.439
2873 0 196.953 13.9678 2751 103.644 248.929 422.663
2874 0 203.084 14.2601 2896 102.887 249.094 420.662
2875 0 210.926 15.2375 3214 100.759 249.528 420.012
2876 0 213.911 14.7257 3150 103.552 249.47 411.93
2877 0 222.278 14.3964 3200 105.325 249.98 411.182
2878 0 231.245 15.2825 3534 103.805 249.347 405.987
2879 0 237.656 14.6346 3478 105.327 249.126 403.047
2880 0 245.566 13.8944 3412 106.554 249.054 403.431
2881 0 252.627 14.0998 3562 108.091 247.985 399.035
2882 0 263.054 20.0757 5281 94.7201 248.499 388.61
2883 1 61.4636 12.4464 765 92.6601 247.787 493.335
2884 0 62.8116 10.9056 685 94.9577 248.95 493.273
2885 0 62.4624 10.1341 633 98.6856 248.232 493.306
2886 0 65.883 12.9017 850 94.1306 248.956 491.124
2887 0 66.6519 11.6576 777 98.1364 249.145 488.566
2888 0 66.8758 11.1849 748 100.761 249.134 485.537
2889 0 69.8298 12.6594 884 98.4118 249.165 485.094
2890 0 73.0866 12.7383 931 97.6788 249.242 484.153
2891 0 74.9635 14.0602 1054 96.6509 249.67 481.842
2892 0 76.123 12.02 915 102.016 249.656 481.719
2893 0 80.2156 14.0122 1124 96.5178 249.905 481.751
2894 0 82.0006 12.3414 1012 101.31 249.501 477.284
2895 0 83.2198 13.4703 1121 100.813 249.864 477.108
2896 0 85.0342 12.1598 1034 104.783 250.124 477.2
2897 0 85.7636 13.1758 1130 103.878 249.708 477.287
2898 0 85.6044 12.0204 1029 109.431 249.65 475.83
2899 0 91.7193 13.5631 1244 104.896 250.189 477.407
2900 0 94.9217 13.7376 1304 105.127 249.917 471.248
2901 0 97.7694 15.2502 1491 101.514 249.985 474.685
2902 0 99.8088 13.5659 1354 106.59 250.435 472.716
2903 0 101.687 13.4334 1366 105.747 249.99 469.806
2904 0 105.7 14.0208 1482 104.125 250.377 469.572
2905 1 61.4208 10.2897 632 105.945 249.394 489.487
2906 0 66.3071 11.7635 780 97.768 249.545 492.204
2907 0 66.2294 10.5693 700 107.384 248.35 489.41
2908 0 66.675 9.97375 665 109.218 250.153 484.934
2909 0 71.6807 12.4441 892 102.712 249.689 485.611
2910 0 72.6126 12.2706 891 103.67 249.868 485.373
2911 0 74.2832 12.587 935 103.174 249.283 478.075
2912 0 74.5675 12.4988 932 105.719 248.811 472.138
2913 0 74.4853 12.1098 902 107.33 248.819 470.436
2914 0 79.469 13.8922 1104 102.523 248.749 471.172
2915 0 79.5726 12.831 1021 106.341 249.287 470.979
2916 0 81.3618 13.1634 1071 104.153 249.387 473.768
2917 0 83.5802 13.0892 1094 105.484 250.133 471.183
2918 0 83.5181 12.2129 1020 105.049 249.519 470.229
2919 0 87.3642 13.003 1136 101.301 249.268 471.006
2920 0 87.319 12.4601 1088 102.539 248.78 472.18
2921 0 86.2 12.3782 1067 103.969 248.977 473.56
2922 0 89.2731 12.4674 1113 102.636 249.359 471.789
2923 0 92.2969 12.5573 1159 102.369 249.122 468.575
2924 0 94.5211 12.7802 1208 101.653 249.906 465.534
2925 0 94.3396 11.8296 1116 104.644 249.984 460.799
2926 0 98.2919 12.0966 1189 103.533 249.702 460.829
2927 0 99.3083 12.5266 1244 102.183 249.231 460.801
2928 0 103.494 11.7108 1212 104.254 249.142 456.955
2929 0 102.208 11.6919 1195 104.916 249.435 455.644
2930 0 109.55 11.1273 1219 104.763 249.145 456.797
2931 0 109.193 11.7864 1287 103.552 249.012 452.235
2932 0 116.374 10.9818 1278 104.384 249.279 453.012
2933 0 118.243 11.7639 1391 102.852 249.129 451.17
2934 1 76.355 11.3679 868 96.0518 249.338 478.832
2935 0 78.3146 11.6581 913 99.954 248.907 468.577
2936 0 83.1819 13.8973 1156 97.6574 248.412 457.124
2937 0 86.1807 14.1795 1222 96.8462 248.01 463.238
2938 0 87.2075 13.5997 1186 98.2403 248.497 465.136
2939 0 88.2283 13.091 1155 100.497 248.285 463.603
2940 0 91.2053 12.3787 1129 102.12 248.127 461.852
2941 0 94.206 12.876 1213 100.949 247.782 463.645
2942 0 97.1546 13.494 1311 100.298 248.497 461.596
2943 0 100.323 14.0346 1408 99.7081 248.354 462.45
2944 0 104.246 14.13 1473 98.7101 248.695 460.024
2945 0 105.307 14.244 1500 99.0053 248.538 458.497
2946 0 110.241 14.9127 1644 97.1259 248.765 460.681
2947 0 112.204 13.7963 1548 100.535 248.541 454.496
2948 0 115.172 13.4494 1549 102.593 248.239 455.295
2949 0 120.277 14.3668 1728 100.847 247.822 458.73
2950 1 69.4313 11.407 792 98.3359 249.356 486.263
2951 0 70.1084 11.8959 834 98.9281 247.219 483.781
2952 0 70.1768 11.7418 824 101.313 247.502 483.271
2953 0 73.3832 11.4468 840 102.233 247.661 483.01
2954 0 75.1338 13.4427 1010 98.6475 247.811 484.627
2955 0 78.24 11.9504 935 102.791 247.66 481.309
2956 0 81.2954 11.4644 932 103.826 247.425 479.808
2957 0 82.2065 12.6632 1041 102.329 247.766 476.551
2958 0 85.1876 12.584 1072 103.176 247.202 473.422
2959 0 90.2719 12.6285 1140 104.338 247.683 471.361
2960 0 90.2722 14.0353 1267 102.037 247.931 473.7
2961 0 93.1838 13.2963 1239 104.387 248.7 473.775
2962 0 96.3285 12.7584 1229 106.337 248.71 473.986
2963 0 98.2193 12.4721 1225 108.96 248.648 471.641
2964 0 100.2 13.3533 1338 108.57 248.395 470.317
2965 0 104.212 13.7125 1429 107.667 248.542 463.1
2966 0 106.312 13.799 1467 108.813 248.553 462.932
2967 0 112.37 15.0396 1690 105.528 248.598 464.394
2968 0 113.231 14.5897 1652 109.266 248.565 460.38
2969 0 116.338 13.6499 1588 112.188 248.284 463.528
2970 0 120.226 13.9071 1672 111.661 248.42 462.84
2971 0 122.272 13.3718 1635 112.983 248.845 461.951
2972 0 126.19 13.2974 1678 114.978 248.893 459.451
2973 0 132.426 13.9247 1844 113.392 249.062 460.18
2974 0 137.351 13.8041 1896 113.938 249.004 458.013
2975 0 128.325 12.3436 1584 121.189 248.317 445.188
2976 1 83.3118 12.4712 1039 113.567 249.146 483.157
2977 0 85.1764 14.4054 1227 110.974 248.091 473.945
2978 0 89.1382 13.7876 1229 112.693 248.719 473.529
2979 0 90.1245 12.6714 1142 116.871 248.518 471.8
2980 0 93.192 13.4239 1251 114.001 248.26 475.08
2981 0 95.1511 12.9478 1232 116.593 248.729 472.206
2982 0 99.215 13.7882 1368 115.325 248.49 469.812
2983 0 101.231 12.8122 1297 118.348 248.186 470.854
2984 0 102.235 12.8136 1310 119.908 248.438 470.65
2985 0 106.266 13.4567 1430 117.073 248.762 468.693
2986 0 108.334 13.2737 1438 118.704 248.035 467.912
2987 0 111.29 13.065 1454 119.051 248.146 466.335
2988 0 117.237 14.6881 1722 113.023 248.057 465.374
2989 0 120.354 14.4823 1743 115.096 248.26 463.161
2990 0 122.418 14.9978 1836 114.956 248.55 461.23
2991 0 127.344 14.1114 1797 115.919 248.486 458.525
2992 1 75.1912 12.1956 917 110.72 247.81 485.06
2993 0 78.1305 13.1831 1030 109.274 247.674 483.589
2994 0 82.1174 13.566 1114 107.398 247.113 483.31
2995 0 81.1065 13.0322 1057 110.975 247.059 480.533
2996 0 84.2679 13.196 1112 111.799 247.284 478.464
2997 0 88.1932 14.2301 1255 109.108 247.429 476.08
2998 0 91.0985 14.6106 1331 108.096 247.026 472.236
2999 0 92.2838 14.2712 1317 110.426 247.078 471.481
3000 0 93.2805 13.1432 1226 114.102 247.043 471.005
3001 0 96.0846 13.2383 1272 114.367 246.936 468.455
3002 0 101.37 14.5211 1472 110.546 247.179 464.596
3003 0 104.335 13.3512 1393 114.06 246.991 468.138
3004 0 105.199 14.3442 1509 112.231 247.031 466.754
3005 0 108.239 14.3109 1549 113.203 247.41 459.284
3006 0 109.295 13.8158 1510 115.145 247.783 459.448
3007 0 113.31 13.441 1523 116.038 247.678 457.525
3008 0 116.355 14.1463 1646 114.669 247.878 456.327
3009 0 120.249 14.3702 1728 114.146 247.064 457.168
3010 0 121.222 13.8176 1675 117.146 247.709 462.038
3011 0 123.322 13.2418 1633 119.887 247.906 454.693
3012 0 128.241 13.7085 1758 118.306 247.782 452.249
3013 0 132.263 13.8134 1827 117.771 248.475 452.622
3014 0 137.282 13.7308 1885 118.391 248.383 449.476
3015 0 142.3 14.1954 2020 118.463 248.402 447.477
3016 0 148.242 13.9771 2072 119.009 248.215 441.519
3017 1 86.0682 12.2693 1056 112.725 247.639 478.792
3018 0 88.2441 13.2587 1170 112.049 248.524 468.709
3019 0 93.3609 13.2175 1234 116.75 249.14 468.677
3020 0 95.3466 12.3025 1173 118.955 249.159 471.874
3021 0 97.3274 13.768 1340 114.852 249.069 471.812
3022 0 100.378 12.961 1301 116.737 249.173 469.304
3023 0 103.356 13.1004 1354 115.495 249.086 468.715
3024 0 105.565 13.5651 1432 115.124 249.622 468.191
3025 0 107.615 14.459 1556 112.885 248.686 466.395
3026 0 111.404 13.3568 1488 113.485 248.862 468.034
3027 0 112.478 13.8071 1553 112.291 248.716 464.286
3028 0 114.395 11.1194 1272 119.442 248.542 458.431
3029 0 118.527 13.1868 1563 113.221 248.28 460.031
3030 0 119.51 13.1035 1566 115.575 248.524 457.749
3031 0 122.606 13.1967 1618 115.151 248.775 455.698
3032 0 128.523 13.4995 1735 112.969 248.573 455.605
3033 0 133.52 13.8107 1844 112.63 248.646 452.876
3034 0 135.517 13.1201 1778 114.965 248.894 448.02
3035 0 141.389 14.11 1995 112.661 249.093 443.715
3036 0 144.489 14.4094 2082 112.442 248.815 443.25
3037 0 148.483 13.4763 2001 114.671 249.072 443.351
3038 0 153.47 13.312 2043 114.39 249.167 437.152
3039 0 157.463 13.1142 2065 114.677 248.777 437.468
3040 0 164.301 14.1144 2319 111.927 249.239 436.16
3041 1 96.323 12.0532 1161 112.962 248.669 472.245
3042 0 100.253 13.067 1310 113.238 248.927 471.453
3043 0 104.133 13.1754 1372 112.162 248.23 471.902
3044 0 107.237 14.5751 1563 108.665 248.349 468.935
3045 0 109.315 13.118 1434 112.791 248.197 467.637
3046 0 114.196 14.3788 1642 104.386 248.592 464.962
3047 0 115.246 14.404 1660 103.316 248.78 461.995
3048 0 117.149 13.0774 1532 111.844 249.24 460.599
3049 0 116.182 13.8059 1604 113.756 248.964 458.342
3050 0 118.393 13.5734 1607 106.171 249.136 457.618
3051 0 116.209 12.3914 1440 117.521 249.903 457.804
3052 0 118.263 13.5884 1607 115.282 248.979 455.852
3053 0 123.414 13.5236 1669 114.586 249.132 453.629
3054 0 126.432 13.5251 1710 112.659 249.575 454.067
3055 1 71.1418 10.5423 750 108.037 248.875 483.037
3056 0 77.1407 11.8485 914 105.668 249.033 484.29
3057 0 79.3283 11.5596 917 110.9 248.577 483.58
3058 0 84.3077 12.2053 1029 107.778 248.611 482.288
3059 0 85.2935 11.7008 998 108.124 248.917 482.261
3060 0 89.3614 12.8131 1145 104.829 248.85 480.466
3061 0 90.2332 13.188 1190 103.436 248.645 475.045
3062 0 94.4147 13.3666 1262 103.613 248.637 467.403
3063 0 97.3318 12.3392 1201 106.234 248.512 465.006
3064 0 98.4708 12.5824 1239 106.195 248.729 467.025
3065 0 100.546 12.8896 1296 107.177 248.403 464.622
3066 0 100.352 11.7088 1175 111.096 248.856 464.496
3067 0 105.363 13.7809 1452 106.554 247.983 464.538
3068 0 107.43 13.1994 1418 109.592 248.256 462.744
3069 0 112.588 13.1808 1484 110.305 248.547 464.976
3070 0 114.786 12.6584 1453 112.99 248.529 462.391
3071 0 118.713 14.2444 1691 110 248.104 463.094
3072 0 117.707 12.6076 1484 117.589 249.307 459.278
3073 0 120.627 11.8796 1433 121.536 248.942 458.475
3074 0 127.734 13.8961 1775 116.312 248.945 460.998
3075 0 130.636 14.636 1912 117.029 249.509 457.057
3076 0 134.439 14.222 1912 119.855 248.629 452.357
3077 0 137.491 14.1682 1948 121.608 248.274 449.784
3078 0 139.516 12.8875 1798 126.338 247.383 452.154
3079 0 144.749 13.2575 1919 126.512 247.832 450.402
3080 1 86.6578 10.9396 948 124.319 248.242 480.299
3081 0 90.5987 13.3666 1211 120.491 248.789 475.362
3082 0 91.7839 13.8368 1270 120.709 248.603 475.439
3083 0 91.7464 13.6354 1251 125.045 248.166 473.335
3084 0 95.5583 13.8554 1324 125.727 248.864 472.927
3085 0 97.5987 13.5453 1322 129.296 248.479 472.607
3086 0 100.651 13.1146 1320 131.261 248.465 472.713
3087 0 102.469 12.9405 1326 131.738 248.566 472.557
3088 0 105.682 14.2693 1508 129.674 248.63 469.639
3089 0 109.686 14.3957 1579 129.211 248.887 467.788
3090 0 112.655 13.67 1540 131.525 249.547 465.26
3091 0 114.84 14.333 1646 130.719 249.66 461.521
3092 0 118.763 14.55 1728 129.662 249.612 462.99
3093 0 122.776 14.7912 1816 131.151 249.155 458.731
3094 0 124.848 13.985 1746 134.63 249.508 457.792
3095 0 128.731 14.0603 1810 135.26 249.012 455.213
3096 0 133.883 13.7358 1839 135.722 249.179 454.747
3097 0 134.947 16.1841 2184 101.871 250.111 451.608
3098 0 141.884 14.4273 2047 133.392 250.016 452.212
3099 0 145.826 13.8247 2016 135.627 249.57 446.108
3100 0 150.745 14.7401 2222 131.268 249.447 443.802
3101 0 155.815 14.7868 2304 131.304 249.499 440.759
3102 0 160.594 14.1351 2270 128.933 249.182 442.472
3103 0 164.794 14.0539 2316 127.347 249.663 443.402
3104 1 91.5091 11.3213 1036 132.76 248.972 478.69
3105 0 95.5117 12.5639 1200 129.43 249.028 475.721
3106 0 99.4411 14.1591 1408 125.977 249.031 474.856
3107 0 100.539 12.791 1286 131.126 250.028 471.2
3108 0 103.656 13.5063 1400 129.12 249.786 469.839
3109 0 106.611 13.8166 1473 124.282 250.016 466.991
3110 0 108.607 13.9402 1514 121.827 249.207 464.637
3111 0 113.575 13.7178 1558 121.49 248.978 465.524
3112 0 115.375 13.9719 1612 121.029 249.039 460.288
3113 0 116.638 13.4091 1564 123.221 248.99 458.123
3114 0 122.71 13.9434 1711 120.737 248.906 457.765
3115 0 122.471 13.1868 1615 123.502 249.256 458.925
3116 0 125.378 12.7773 1602 126.331 249.077 455.244
3117 0 130.456 13.8207 1803 123.444 248.996 451.699
3118 0 136.399 13.1819 1798 124.684 248.741 453.176
3119 1 80.3303 11.4652 921 122.355 249.201 477.955
3120 0 81.198 11.355 922 124.106 249.273 480.324
3121 0 86.1741 13.5656 1169 121.274 248.872 479.297
3122 0 88.0982 13.2125 1164 123.204 247.106 474.735
3123 0 93.0585 14.3351 1334 119.525 246.795 473.38
3124 0 93.1077 13.2427 1233 124.106 247.815 473.158
3125 0 97.1385 13.0226 1265 123.995 247.774 472.708
3126 0 100.132 13.2625 1328 122.142 247.722 473.363
3127 0 105.053 14.0882 1480 118.985 248.336 471.273
3128 0 108.063 14.5193 1569 119.468 248.069 468.11
3129 0 109.06 14.8541 1620 119.173 247.336 468.521
3130 0 112.085 14.9797 1679 118.71 248.239 467.625
3131 0 116.109 14.228 1652 121.085 247.783 466.091
3132 0 119.145 13.7396 1637 122.535 247.571 465.013
3133 0 123.24 13.4209 1654 122.664 248.495 465.012
3134 0 128.169 13.9269 1785 122.422 248.06 461.383
3135 0 130.147 14.376 1871 122.436 248.199 456.113
3136 0 136.198 14.5964 1988 121.265 248.353 454.077
3137 0 138.24 13.7008 1894 125.011 248.595 450.392
3138 1 78.1303 11.4296 893 120.284 248.374 483.862
3139 0 80.1491 13.4624 1079 120.008 248.474 483.847
3140 0 85.1639 14.3136 1219 115.287 248.372 483.201
3141 0 85.2269 13.7281 1170 118.033 248.545 481.541
3142 0 88.3289 13.0648 1154 120.23 248.408 480.237
3143 0 90.2368 12.4672 1125 123.099 248.685 464.765
3144 0 94.297 14.624 1379 117.466 248.917 461.582
3145 0 97.3928 13.9435 1358 118.403 248.707 461.168
3146 0 100.294 13.8293 1387 119.714 248.849 461.931
3147 0 104.298 13.7203 1431 121.265 248.994 458.806
3148 0 107.236 14.3702 1541 119.328 248.96 458.437
3149 0 110.265 14.438 1592 119.852 248.727 456.807
3150 0 112.224 14.5959 1638 118.832 248.966 459.054
3151 0 115.352 14.226 1641 119.041 248.812 460.984
3152 0 118.158 13.9982 1654 119.532 249.417 458.143
3153 0 120.217 14.2908 1718 119.581 249.457 457.517
3154 0 125.329 14.793 1854 117.586 250.043 460.878
3155 0 127.448 15.167 1933 117.524 249.987 457.525
3156 0 133.487 14.5932 1948 117.975 250.555 457.891
3157 0 138.594 15.7438 2182 115.264 250.654 454.379
3158 0 141.533 14.88 2106 118.495 250.533 450.788
3159 0 147.582 13.9652 2061 120.114 249.804 450.589
3160 0 151.415 13.7833 2087 120.448 249.724 447.635
3161 1 82.1372 12.0165 987 119.524 248.409 474.927
3162 0 88.1952 14.0711 1241 113.384 248.992 462.579
3163 0 89.2888 13.5403 1209 119.359 249.639 457.596
3164 0 91.1687 12.4824 1138 121.791 248.867 462.795
3165 0 96.1986 14.283 1374 119.063 249.884 458.753
3166 0 99.3673 15.3672 1527 116.17 249.356 458.64
3167 0 102.268 14.9803 1532 117.159 249.385 458.824
3168 0 105.261 14.7918 1557 118.29 249.76 456.866
3169 0 108.308 14.1541 1533 119.232 249.401 457.277
3170 0 112.376 14.6384 1645 117.431 249.228 459.135
3171 0 111.588 13.8456 1545 121.315 249.239 457.986
3172 0 115.382 13.6069 1570 122.095 249.022 456.985
3173 0 120.3 15.187 1827 117.621 249.019 455.643
3174 0 122.48 14.3044 1752 120.462 249.784 453.37
3175 0 129.412 14.6741 1899 118.42 249.262 454.662
3176 0 130.499 14.2223 1856 121.124 250.13 450.548
3177 1 73.4105 10.9112 801 121.372 250.034 483.773
3178 0 78.2969 11.8012 924 118.643 250.053 481.486
3179 0 80.2264 12.739 1022 118.07 248.778 476.018
3180 0 83.4085 13.6916 1142 118.394 248.64 474.03
3181 0 85.4136 13.5927 1161 120.589 248.64 471.78
3182 0 89.6422 12.8957 1156 123.725 248.846 475.456
3183 0 92.5413 13.648 1263 120.483 249.475 475.03
3184 0 96.6433 14.5794 1409 117.732 249.566 470.464
3185 0 97.5561 13.6229 1329 119.318 249.692 470.261
3186 0 100.563 15.095 1518 114.558 249.574 468.11
3187 0 100.403 13.4957 1355 120.661 249.599 466.235
3188 0 104.505 13.2338 1383 121.044 249.521 465.587
3189 0 111.349 15.0249 1673 116.126 248.926 464.173
3190 0 110.357 12.2693 1354 125.137 248.911 464.319
3191 0 116.479 13.9596 1626 120.705 249.732 462.878
3192 0 116.533 12.7946 1491 125.89 249.698 459.306
3193 0 124.339 14.372 1787 120.772 249.45 456.197
3194 1 69.1346 11.8031 816 121.697 249.846 483.707
3195 0 73.1195 11.912 871 122.875 248.854 480.759
3196 0 74.1073 13.8043 1023 120.684 247.444 476.408
3197 0 77.4455 13.1189 1016 123.507 248.272 470.249
3198 0 80.422 13.1307 1056 123.086 247.612 470.631
3199 0 83.6221 14.0274 1173 121.618 247.786 467.971
3200 0 87.5403 14.4276 1263 120.483 248.544 467.638
3201 0 89.9781 14.3702 1293 120.635 248.648 467.666
3202 0 92.8035 14.9779 1390 118.453 248.936 466.419
3203 0 96.612 14.5738 1408 118.367 248.749 467.59
3204 0 98.7689 14.4479 1427 116.776 249.125 465.575
3205 0 99.6592 14.8205 1477 115.978 248.761 464.98
3206 0 103.762 15.4681 1605 112.688 249.275 466.045
3207 0 105.561 14.6361 1545 114.782 248.828 463.055
3208 0 106.505 13.7082 1460 117.739 248.192 461.336
3209 0 110.581 14.8217 1639 114.719 248.2 459.915
3210 0 115.67 13.7114 1586 116.909 248.802 457.489
3211 0 118.39 14.3171 1695 115.583 248.563 454.415
3212 0 122.654 14.1536 1736 115.8 248.776 453.489
3213 0 128.748 15.7439 2027 110.077 248.492 452.086
3214 0 132.624 14.477 1920 113.505 247.928 451.03
3215 0 136.403 14.9264 2036 113.163 247.994 448.477
3216 0 138.65 13.4511 1865 117.553 247.964 444.603
3217 0 139.416 12.373 1725 120.866 248.26 440.659
3218 0 149.501 15.4915 2316 111.515 247.921 442.472
3219 0 151.471 14.7619 2236 114.433 248.066 438.563
3220 0 156.612 15.3565 2405 113.837 248.036 433.725
3221 0 162.536 14.686 2387 115.752 248.228 431.333
3222 0 164.611 13.9723 2300 118.099 248.197 426.249
3223 0 170.492 14.2705 2433 117.766 248.077 423.498
3224 0 176.573 13.8583 2447 117.69 248.461 425.979
3225 0 182.846 14.9033 2725 115.289 248.33 420.537
3226 0 184.567 13.7024 2529 118.479 249.053 414.546
3227 0 192.563 13.3774 2576 119.023 248.761 414.822
3228 0 202.649 14.2216 2882 117.568 249.073 412.334
3229 0 205.405 13.4564 2764 120.948 249.014 405.926
3230 0 215.635 14.6127 3151 117.569 249.445 404.599
3231 0 225.461 15.1157 3408 118.445 249.427 403.087
3232 0 234.588 15.1031 3543 120.141 249.681 397.586
3233 0 244.13 13.116 3202 124.975 249.963 397.014
3234 0 250.882 13.5841 3408 121.214 250.405 399.496
3235 0 260.833 14.515 3786 119.329 249.984 393.264
3236 1 63.3677 12.3564 783 103.476 251.507 494.197
3237 0 65.4784 11.7138 767 106.591 250.917 490.42
3238 0 67.2684 12.9333 870 104.066 251.034 489.463
3239 0 70.6048 11.359 802 107.338 251.132 488.883
3240 0 70.4616 11.3679 801 109.411 250.861 486.705
3241 0 71.4567 12.0353 860 110.33 250.599 483.369
3242 0 76.9907 12.9496 997 108.527 250.462 482.857
3243 0 77.7634 13.5925 1057 108.776 250.281 477.872
3244 0 82.5321 12.8677 1062 111.961 249.104 479.193
3245 0 79.5367 13.038 1037 108.276 248.906 470.386
3246 0 81.8037 12.31 1007 111.075 249.223 469.696
3247 0 83.5484 11.8015 986 112.809 249.55 469.514
3248 0 84.7024 12.3137 1043 113.618 249.237 464.893
3249 0 87.643 12.0375 1055 114.078 248.596 468.348
3250 0 88.5337 12.5489 1111 116.889 249.173 464.581
3251 0 92.6467 12.0889 1120 115.582 248.351 466.788
3252 0 97.4764 13.7777 1343 111.217 248.555 458.254
3253 0 96.5308 12.6592 1222 116.295 248.664 457.758
3254 0 105.487 15.7365 1660 105.228 248.518 455.511
3255 0 107.56 16.2515 1748 103.773 249.173 452.499
3256 0 104.415 10.5445 1101 123.893 247.566 450.685
3257 0 107.663 11.6939 1259 120.671 248.724 452.71
3258 0 109.592 9.82739 1077 126.402 248.426 451.488
3259 0 111.569 11.9298 1331 121.917 249.15 450.254
3260 0 116.362 11.7736 1370 121.206 248.885 451.242
3261 0 128.549 18.032 2318 102.248 249.689 440.972
3262 0 127.451 14.9469 1905 113.308 249.683 442.083
3263 0 125.529 15.5502 1952 112.422 248.656 440.595
3264 1 177.622 13.129 2332 106.201 248.783 434.106
3265 0 181.196 18.124 3284 92.1593 250.037 419.497
3266 0 174.853 22.1958 3881 87.2984 250.653 415.833
3267 0 170.533 20.4418 3486 93.2249 249.66 418.478
3268 0 163.824 22.4876 3684 92.7701 249.439 419.015
3269 0 164.007 19.865 3258 99.992 249.226 415.626
3270 0 163.416 19.5269 3191 103.745 248.562 419.224
3271 0 159.491 16.0134 2554 116.226 249.332 418.203
3272 0 159.56 15.0476 2401 120.755 248.999 426.013
3273 0 167.467 14.2297 2383 122.104 249.372 424.68
3274 0 167.44 15.743 2636 117.242 249.23 420.343
3275 0 173.563 15.5909 2706 118.617 248.382 417.028
3276 0 178.323 15.8813 2832 119.905 249.125 412.936
3277 0 184.562 15.9242 2939 120.669 249.268 409.308
3278 0 190.394 15.489 2949 122.191 249.375 404.676
3279 0 197.447 16.2676 3212 119.492 248.54 406.612
3280 0 198.404 16.4664 3267 120.89 248.892 402.537
3281 1 38.0786 6.80172 259 86.2626 249.104 492.139
3282 0 39.0607 6.06748 237 86.5401 249.43 491.679
3283 0 32.0445 4.93064 158 85.6329 248.937 496.367
3284 0 31.0117 5.99774 186 84.5108 248.726 496.414
3285 0 34.1291 7.20793 246 83.0244 248.524 494.016
3286 0 30.1202 6.50726 196 85.6786 249.199 491.592
3287 0 34.0059 10.1747 346 80.3121 249.318 492.592
3288 0 33.0192 5.26966 174 84.5747 248.793 494.414
3289 0 34.0295 5.96542 203 84.0049 249.365 491.113
3290 0 36.0034 7.97148 287 82.0732 249.296 490.07
3291 0 34.0067 3.38169 115 90.9652 250.287 489.252
