time division length width area intensity CMx CMy
0 0 54.0435 12.6935 686 136.171 639.125 488.544
1 0 56.0942 12.1046 679 135.406 639.208 488.758
2 1 27.0116 12.0689 326 133.89 639.255 501.647
3 0 27.0035 11.2208 303 138.927 639.393 501.759
4 0 28.042 11.5898 325 135.043 639.591 501.378
5 0 29.0087 11.8585 344 132.971 640.951 501.52
6 0 30.0127 11.5951 348 136.575 640.966 500.882
7 0 31.0517 12.3021 382 131.531 640.427 501.277
8 0 31.0309 11.9236 370 136.362 640.781 500.07
9 0 31.0207 11.315 351 135.687 640.724 502.225
10 0 32.056 12.8213 411 133.82 640.584 499.708
11 0 32.0373 12.5167 401 132.865 640.756 500.988
12 0 33.0849 13.0875 433 129.965 640.552 501.099
13 0 32.0176 12.4307 398 129.083 638.99 501.023
14 0 34.0217 12.1687 414 127.841 639.312 502.162
15 0 35.0325 13.3305 467 125.317 639.522 501.036
16 0 35.1187 11.874 417 128.664 638.981 502.321
17 0 35.1141 13.2141 464 126.433 639.071 501.418
18 0 39.1068 11.9417 467 126.88 639.195 502.081
19 0 37.0262 13.2879 492 125.701 637.26 500.9
20 0 38.0317 11.6482 443 130.086 637.488 500.517
21 0 40.0421 12.387 496 127.502 637.244 498.28
22 0 42.1165 14.4124 607 120.885 637.4 499.964
23 0 42.1223 14.173 597 123.392 637.501 498.496
24 0 45.0611 13.4262 605 126.94 636.949 498.583
25 0 46.1217 13.8546 639 121.568 637 498.922
26 0 46.0329 13.7945 635 123.235 637.157 499.32
27 0 47.0505 13.0923 616 125.131 637.758 498.227
28 0 49.03 13.5631 665 124.062 637.233 497.251
29 0 51.1002 13.3072 680 124.063 637.688 497.099
30 0 53.1215 14.3633 763 121.194 636.473 495.748
31 0 54.1336 13.596 736 125.133 636.219 494.874
32 0 56.0229 14.1371 792 123.015 636.774 495.269
33 0 58.0642 14.7768 858 121.415 636.739 488.325
34 0 59.0808 12.7114 751 124.39 636.81 494.125
35 0 60.1029 13.1608 791 124.236 636.707 493.14
36 0 64.2145 14.3893 924 120.064 636.503 492.177
37 0 62.0562 12.2309 759 126.86 636.026 491.729
38 0 65.2078 13.4186 875 122.938 635.989 489.918
39 0 68.1358 14.0308 956 120.975 635.325 489.006
40 0 71.0784 13.0982 931 123.001 635.78 487.933
41 0 72.1456 12.5857 908 124.395 636.187 484.528
42 0 75.1058 13.1148 985 122.561 635.899 485.277
43 0 80.3486 14.1011 1133 118.955 636.348 482.737
44 0 82.2466 13.1191 1079 120.673 636.742 483.171
45 1 43.1317 12.2416 528 122.714 637.4 500.915
46 0 44.1278 12.1465 536 122.142 637.179 501.403
47 0 45.2889 11.3493 514 125.521 637.685 500.257
48 0 49.119 13.9661 686 118.13 636.385 499.966
49 0 49.1715 13.28 653 120.62 635.896 500.424
50 0 51.0545 13.4366 686 120.574 636.022 498.586
51 0 52.0297 13.5884 707 121.075 635.47 497.693
52 0 55.1898 13.9337 769 117.973 634.299 495.442
53 0 56.0941 14.2974 802 119.428 635.882 495.754
54 0 59.0606 14.6629 866 117.879 635.289 494.449
55 0 60.108 13.9748 840 119.288 634.168 494.183
56 0 63.0931 14.8035 934 116.916 633.608 493.74
57 0 63.1587 13.5215 854 123.301 634.612 492.899
58 0 67.0851 13.7885 925 122.179 635.042 492.345
59 0 69.0626 15.0878 1042 120.63 635.299 490.866
60 0 71.0824 14.2651 1014 123.106 634.735 488.172
61 0 75.0786 14.1851 1065 122.362 634.34 490.027
62 0 74.0451 13.0191 964 127.935 634.183 488.666
63 0 79.0681 13.4062 1060 125.172 634.079 485.787
64 0 83.1662 14.3688 1195 122.587 633.707 484.243
65 0 84.1084 13.7917 1160 125.315 633.669 483.902
66 0 88.0847 14.1795 1249 124.169 633.736 482.127
67 0 88.0849 14.1682 1248 152.785 632.731 482.155
68 0 94.0552 14.332 1348 130.852 634.038 479.573
69 0 97.1185 14.055 1365 121.502 634.284 481.067
70 1 50.027 12.2534 613 123.07 634.768 501.754
71 0 53.0531 13.0624 693 119.62 634.99 500.371
72 0 55.0475 12.4801 687 120.541 635.287 499.089
73 0 55.2162 13.2026 729 116.768 635.545 495.945
74 0 57.0501 13.3567 762 115.241 634.996 498.32
75 0 59.1139 13.8039 816 114.369 634.616 497.771
76 0 61.062 13.6255 832 115.096 634.315 496.588
77 0 63.1183 13.3559 843 115.639 634.77 495.605
78 0 65.1921 12.8697 839 116.336 635.852 494.186
79 0 70.1656 13.5679 952 117.079 635.375 463.353
80 0 72.0615 14.0297 1011 116.562 635.437 459.544
81 0 73.0624 12.1403 887 121.191 635.371 467.304
82 0 77.1588 12.8307 990 118.294 634.992 474.598
83 0 79.1115 13.3862 1059 115.427 635.801 487.49
84 0 80.0589 13.2527 1061 116.898 635.715 485.909
85 0 84.2089 14.3096 1205 112.719 636.379 483.465
86 0 89.1748 13.1988 1177 114.327 635.227 482.585
87 0 92.1333 14.4139 1328 112.613 635.332 480.447
88 0 94.1952 13.1535 1239 116.45 634.869 479.149
89 0 98.2122 12.1879 1197 114.205 634.58 480.114
90 0 103.158 14.725 1519 109.963 634.143 476.886
91 0 108.156 13.5915 1470 115.58 633.843 475.123
92 1 54.0157 11.4226 617 116.541 635.418 498.058
93 0 57.0423 11.3775 649 110.399 633.978 499.572
94 0 56.0259 12.1908 683 111.338 633.592 500.126
95 0 59.1319 12.024 711 111.934 633.353 499.18
96 0 59.0768 12.2214 722 113.278 633.123 498.155
97 0 62.1956 12.4607 775 113.375 632.857 495.534
98 0 64.2715 12.4939 803 113.197 632.05 494.727
99 0 65.1715 12.6129 822 112.92 632.961 495.815
100 0 68.3036 13.0008 888 111.811 632.76 492.81
101 0 70.2546 13.0383 916 111.407 632.368 493.433
102 0 72.3215 12.5412 907 114.374 632.524 493.13
103 0 75.3018 11.8457 892 114.839 632.543 489.799
104 0 79.3128 12.7344 1010 113.034 632.647 488.349
105 0 82.4678 12.0411 993 113.003 632.555 488.089
106 0 85.5214 13.1546 1125 110.176 632.706 483.46
107 0 85.5786 11.6267 995 112.307 632.479 485.165
108 0 91.5873 11.9667 1096 111.76 632.635 482.754
109 0 96.4016 12.4998 1205 111.111 632.686 479.859
110 1 48.1452 10.6345 512 111.424 632.314 503.193
111 0 50.2919 11.6719 587 106.618 634.348 495.802
112 0 51.0559 10.6942 546 106.85 633.218 502.407
113 0 50.0297 11.0534 553 108.734 633.076 502.324
114 0 53.0336 11.4267 606 107.277 632.69 501.483
115 0 53.0421 10.8027 573 108.6 632.803 502.681
116 0 55.2777 10.8543 600 108.665 631.382 500.357
117 0 57.1143 11.4507 654 107.283 630.772 494.986
118 0 60.0695 12.4189 746 105.59 632.806 498.543
119 0 59.0257 11.8254 698 106.635 632.297 498.277
120 0 63.1507 11.433 722 108.765 631.755 494.831
121 0 64.038 12.0553 772 109.057 632.812 493.959
122 0 65.1015 11.3822 741 110.525 632.579 493.594
123 0 68.0663 11.2684 767 112.119 632.756 490.649
124 0 72.2441 12.6516 914 108.839 633.478 490.756
125 0 74.0776 12.4599 923 110.256 633.737 488.308
126 0 76.1232 12.3353 939 111.334 633.085 487.856
127 0 79.171 13.3003 1053 108.407 633.88 486.208
128 0 80.1059 11.4848 920 113.166 634.151 485.863
129 0 84.2073 13.0986 1103 111.382 634.033 481.719
130 0 86.0751 12.1522 1046 112.975 633.969 482.918
131 1 45.0738 10.5161 474 110.456 634.867 502.686
132 0 46.045 10.3811 478 109.059 634.477 503.408
133 0 47.0286 12.7157 598 107.768 635.194 500.472
134 0 49.0551 12.0069 589 111.075 635.177 501.212
135 0 52.0244 11.8022 614 110.982 634.863 501.383
136 0 52.0848 12.9788 676 105.3 634.232 500.834
137 0 53.1039 12.6168 670 111.834 634.161 499.655
138 0 56.3706 11.4421 645 114.135 632.916 493.803
139 0 56.2299 13.1958 742 111.832 633.585 495.526
140 0 57.3579 12.3435 708 113.02 633.179 495.078
141 0 59.3174 12.7618 757 110.613 632.523 494.193
142 0 61.2828 12.1241 743 114.584 632.913 493.67
143 0 63.1711 12.4899 789 114.498 632.093 494.692
144 0 64.1277 13.1612 844 113.674 633.299 492.956
145 0 67.101 12.5035 839 115.548 633.708 491.356
146 0 68.1404 12.1954 831 116.659 633.866 491.779
147 0 69.0792 11.9283 824 118.24 633.689 488.99
148 0 70.0635 12.0605 845 119.233 633.838 488.414
149 0 73.0719 13.1377 960 114.952 634.209 487.438
150 0 77.0527 13.7438 1059 113.589 634.814 486.014
151 0 77.1115 13.0979 1010 115.567 633.744 486.04
152 0 81.1379 11.2401 912 117.609 633.655 486.177
153 0 84.1943 13.3976 1128 111.726 633.805 484.878
154 0 85.2461 11.6604 994 115.346 633.801 483.329
155 0 88.2065 13.287 1172 111.19 633.137 480.85
156 0 91.0466 12.6968 1156 110.378 632.303 481.35
157 0 93.2011 12.9076 1203 105.123 632.735 480.326
158 0 95.0792 12.4843 1187 107.416 631.891 478.482
159 0 99.0963 12.5635 1245 107.633 632.104 476.837
160 0 102.172 12.9879 1327 106.779 632.876 475.737
161 0 107.285 12.8536 1379 106.324 632.836 471.537
162 0 111.415 11.7488 1309 108.489 633.529 469.79
163 0 114.726 12.0112 1378 108.962 633.705 468.393
164 0 117.502 12.587 1479 111.469 633.847 463.119
165 0 122.451 12.846 1573 111.202 633.832 460.591
166 1 60.3116 11.5567 697 102.316 633.901 493.525
167 0 63.1245 11.6437 735 100.659 632.995 495.795
168 0 64.0736 11.0966 711 102.785 633.115 494.384
169 0 67.0825 11.866 796 101.21 632.396 493.867
170 0 70.0768 12.3436 865 98.8231 632.22 493.34
171 0 71.1374 11.541 821 101.644 631.334 486.694
172 0 73.1075 11.5173 842 102.139 632.5 489.335
173 0 76.1041 11.1426 848 102.204 632.548 489.752
174 0 79.0903 11.7334 928 101.822 632.642 484.749
175 0 82.0901 11.9381 980 101.357 632.134 485.201
176 0 85.1896 10.5764 901 104.214 632.372 483.988
177 0 90.2099 12.4266 1121 100.716 632.376 481.723
178 0 92.1111 13.158 1212 100.952 632.488 478.582
179 1 44.0473 9.87574 435 108.798 632.363 501.952
180 0 48.2227 12.3593 596 104.223 632.914 499.173
181 0 49.0423 11.8877 583 106.928 633.484 500.218
182 0 50.032 12.572 629 106.688 633.542 496.752
183 0 51.0878 11.8815 607 108.068 632.649 498.824
184 0 53.0584 12.6653 672 106.548 632.82 497.924
185 0 53.1082 11.3918 605 110.038 632.873 496.868
186 0 56.1441 12.4145 697 108.824 632.948 495.581
187 0 58.0699 11.8822 690 110.713 633.293 496.419
188 0 61.121 12.6307 772 110.256 633.005 494.689
189 0 62.1797 12.9785 807 109.361 632.662 493.129
190 0 66.1568 13.2715 878 107.008 631.607 493.622
191 0 66.0922 12.5733 831 110.304 632.416 490.513
192 0 70.1206 13.0632 916 108.937 632.252 489.867
193 0 69.1896 11.9238 825 112.604 631.544 488.441
194 0 73.1107 13.1718 963 110.371 633.085 486.735
195 0 75.0677 13.3346 1001 109.78 633.061 487.061
196 0 79.2631 12.8812 1021 109.819 631.846 483.413
197 0 80.2112 14.1127 1132 108.281 631.365 484.143
198 0 81.1587 12.7898 1038 111.102 631.934 483.548
199 0 85.2494 12.9385 1103 109.694 631.902 481.566
200 0 86.131 13.1892 1136 111.023 632.248 478.029
201 0 90.2684 12.8616 1161 107.626 631.076 479.54
202 0 93.1829 12.4272 1158 109.092 631.586 477.825
203 0 98.1554 11.8384 1162 109.889 631.684 478.084
204 1 53.0837 10.5871 562 111.457 631.299 497.931
205 0 55.3578 13.6927 758 100.938 630.873 496.007
206 0 57.1243 11.1686 638 107.5 633.328 497.654
207 0 60.1219 11.2771 678 110.198 632.633 496.046
208 0 62.0787 11.8881 738 107.21 633.324 497.48
209 0 61.1924 12.3218 754 108.48 632.993 494.832
210 0 64.1102 12.4629 799 109.395 632.385 492.025
211 0 68.0985 12.6288 860 107.957 632.902 492.207
212 0 69.2168 12.8293 888 109.213 632.885 489.51
213 0 69.1762 12.0417 833 112.705 632.743 488.283
214 0 73.1443 13.4939 987 108.705 633.349 488.137
215 0 73.1293 11.76 860 114.436 632.819 486.997
216 0 74.1602 11.8932 882 114.036 632.752 487.474
217 0 79.1115 12.5772 995 111.871 632.571 486.285
218 0 80.0867 12.8611 1030 111.763 632.873 484.122
219 0 83.117 12.2598 1019 112.777 632.774 483.59
220 0 84.3241 13.2109 1114 112.64 632.382 482.491
221 0 88.206 13.2984 1173 112.153 632.369 481.123
222 0 90.224 11.671 1053 116.159 632.038 478.607
223 0 94.2858 12.3773 1167 115.141 631.948 475.143
224 0 96.1446 12.3044 1183 115.672 632.131 477.471
225 1 50.0234 10.8549 543 113.746 633.667 498.007
226 0 54.0572 11.4508 619 110.675 633.911 499.796
227 0 55.0273 12.5574 691 108.469 632.939 498.109
228 0 56.0715 11.842 664 112.101 632.486 497.042
229 0 59.1078 13.2131 781 113.726 632.915 495.078
230 0 60.0727 12.7845 768 115.868 632.984 495.87
231 0 62.0448 13.1679 817 116.361 633.432 491.716
232 0 63.0965 12.5998 795 118.15 633.235 493.579
233 0 67.1018 13.8297 928 114.017 633.562 491.415
234 0 67.0533 12.7809 857 118.604 633.357 489.704
235 0 71.1406 13.6912 974 116.894 633.456 489.069
236 0 73.082 14.0801 1029 116.237 633.647 490
237 0 75.0917 13.1706 989 120.301 633.377 487.494
238 0 77.1029 13.8646 1069 119.216 633.106 486.688
239 0 78.1527 14.3693 1123 119.848 633.049 484.662
240 0 83.2334 14.177 1180 118.83 633.042 485.395
241 0 86.162 13.9969 1206 119.531 632.393 484.284
242 0 88.245 13.2132 1166 120.228 632.486 483.189
243 0 89.1412 13.5403 1207 121.181 632.652 481.345
244 0 93.2728 14.1842 1323 117.418 632.88 478.351
245 0 97.2208 12.9499 1259 118.88 632.09 478.4
246 0 100.326 13.4262 1347 119.773 632.273 475.45
247 1 54.0559 11.5806 626 114.997 634.058 500.419
248 0 55.1267 13.0608 720 112.71 632.4 498.078
249 0 57.2182 12.3912 709 113.835 630.683 494.776
250 0 59.0953 12.0991 715 119.632 633.903 497.614
251 0 59.1132 10.6237 628 124.83 634.252 496.188
252 0 63.0846 12.5229 790 119.448 634.552 494.62
253 0 64.109 12.3696 793 120.82 633.784 493.406
254 0 69.1067 12.9799 897 118.163 633.69 494.058
255 0 70.055 12.8042 897 119.708 634.162 491.949
256 0 71.1091 12.4457 885 122.059 634 490.476
257 0 72.0177 13.7744 992 119.778 633.858 489.848
258 0 74.0643 13.2317 980 121.121 634.085 488.473
259 0 77.0729 12.858 991 120.668 633.535 487.403
260 0 78.0485 12.5435 979 124.571 633.71 486.29
261 0 83.0809 12.7948 1063 122.46 634.193 485.986
262 0 85.0663 12.7195 1082 123.013 633.722 485.059
263 0 87.0853 12.3787 1078 122.973 633.363 483.349
264 0 91.0819 13.5153 1231 120.962 633.421 480.87
265 0 92.0926 12.3897 1141 123.562 633.133 479.241
266 0 97.1305 13.7032 1331 119.629 632.636 478.006
267 0 98.1119 12.2921 1206 123.602 633.457 477.885
268 0 103.382 13.3485 1380 121.059 631.215 475.111
269 0 105.236 13.7976 1452 119.447 631.417 472.441
270 1 53.0829 12.0566 640 111.55 630.719 500.055
271 0 56.0227 12.4592 698 107.67 632.974 499.656
272 0 57.0232 12.1003 690 108.181 630.683 498.846
273 0 58.1662 11.45 666 109.916 632.703 496.327
274 0 59.1735 10.9001 645 112.426 633.171 495.467
275 0 65.0586 13.019 847 105.991 633.764 494.659
276 0 65.0899 12.813 834 105.501 633.464 493.152
277 0 68.1108 12.5971 858 105.664 634.155 493.036
278 0 69.1208 11.979 828 106.495 633.913 493.447
279 0 71.0985 12.1522 864 107.604 633.294 489.367
280 0 75.0987 12.69 953 105.254 632.492 489.227
281 0 77.1405 12.4319 959 106.184 632.661 486.648
282 0 82.2447 12.9978 1069 103.349 631.749 486.784
283 0 83.1802 12.6352 1051 106.316 632.001 482.825
284 0 85.1868 11.7859 1004 108.312 631.963 482.929
285 0 90.1654 12.8985 1163 106.088 631.973 480.807
286 1 45.0777 10.4043 469 104.388 631.096 505.674
287 0 48.0114 10.6641 512 106.037 632.73 503.924
288 0 47.1015 11.6769 550 105.215 632.355 503.409
289 0 50.0859 10.6417 533 107.495 632.25 501.634
290 0 51.1522 12.238 626 102.776 632.738 502.42
291 0 53.054 11.5354 612 106.275 631.984 499.949
292 0 55.0692 12.5297 690 102.022 632.312 500.268
293 0 55.1394 11.5525 637 104.603 632.523 499.402
294 0 57.1452 13.317 761 102.628 631.919 497.075
295 0 58.1396 11.61 675 105.433 631.721 496.773
296 0 60.1822 13.8745 835 101.58 631.549 496.352
297 0 63.2369 13.821 874 103.097 631.652 494.215
298 0 64.1329 13.2225 848 107.152 632.042 492.571
299 0 66.3038 12.307 816 109.545 631.653 491.887
300 0 68.1338 13.312 907 105.501 631.182 491.378
301 0 69.4579 12.6119 876 107.232 631.073 490.712
302 0 73.1761 12.9004 944 105.732 631.104 489.007
303 0 75.0804 12.4134 932 104.459 631.236 489.624
304 0 76.1422 12.3847 943 106.499 630.788 487.766
305 0 79.0938 11.834 936 109.042 631.181 485.46
306 0 80.1826 11.9727 960 109.456 631.006 484.708
307 0 82.1012 12.1679 999 115.9 630.969 480.289
308 1 42.0562 8.48865 357 97.8824 632.42 500.664
309 0 45.0166 10.3739 467 108.507 630.12 503.61
310 0 46.2173 13.0254 602 100.349 630.14 498.224
311 0 48.0508 11.8208 568 105.542 629.79 500.301
312 0 50.0422 11.5502 578 107.024 629.839 500.123
313 0 51.0632 12.0047 613 106.498 630.069 500.323
314 0 51.0465 13.3604 682 104.045 629.877 500.194
315 0 52.0652 12.5996 656 106.627 629.633 499.57
316 0 55.128 12.8973 711 104.574 630.352 498.046
317 0 54.1448 11.4692 621 108.18 630.132 498.127
318 0 57.1325 12.5673 718 108.515 629.66 497.403
319 0 59.1342 11.6853 691 109.369 630.046 496.059
320 0 60.1544 12.9833 781 105.994 630.608 496.392
321 0 61.1228 12.2213 747 107.214 630.174 494.621
322 0 62.1237 11.799 733 107.254 629.225 495.04
323 0 66.253 12.8145 849 106.02 630.19 491.788
324 0 68.1589 13.1017 893 104.878 631.045 493.602
325 0 69.2409 13.2581 918 104.223 631.172 490.779
326 0 72.3091 12.3359 892 105.733 631.741 489.643
327 0 73.1962 12.0908 885 106.973 631.485 488.058
328 0 76.2408 13.418 1023 103.483 631.932 487.354
329 0 79.213 13.0155 1031 102.814 632.504 487.481
330 0 80.2739 12.5695 1009 104.105 632.197 485.343
331 0 83.2935 13.7226 1143 98.6728 633.038 485.548
332 0 84.3804 12.2896 1037 103.014 632.585 482.603
333 0 89.2616 13.0739 1167 100.419 632.656 482.596
334 0 89.2206 10.6141 947 105.418 633.215 482.477
335 0 92.3135 12.1542 1122 106.336 632.213 476.332
336 0 91.1815 11.1536 1017 103.171 632.45 472.916
337 0 99.2005 11.3508 1126 101.783 632.162 471.266
338 1 52.1002 10.3646 540 92.2833 633.7 495.719
339 0 51.1387 9.50357 486 97.5206 634.078 494.759
340 0 57.0372 11.624 663 99.4072 634.394 498.925
341 0 58.0703 12.0371 699 100.013 633.639 498.165
342 0 57.0927 11.5076 657 102.341 633.769 497.432
343 0 62.0921 12.5298 778 98.8072 633.586 496.982
344 0 63.0701 11.0036 694 102.014 633.869 497.529
345 0 67.0604 12.6901 851 99.04 634.179 495.785
346 0 69.0543 13.1201 906 99.0088 634.047 493.224
347 0 70.1105 13.0223 913 100.867 634.623 492.304
348 0 72.1176 13.5335 976 100.888 634.568 491.347
349 0 73.0921 12.6689 926 103.891 634.403 489.409
350 0 77.1951 12.9153 997 100.42 633.946 486.043
351 0 74.0889 10.9058 808 105.355 633.865 482.625
352 0 79.1079 11.3389 897 101.571 634.003 480.43
353 0 82.1894 12.1305 997 102.393 634.02 479.464
354 0 85.2802 11.7026 998 98.6894 633.037 480.274
355 0 89.3013 11.8139 1055 99.6645 633.839 478.725
356 0 92.1435 12.6325 1164 100.113 633.515 476.662
357 1 47.0469 9.64995 454 92.0661 633.751 504.115
358 0 49.1001 12.7698 627 101.175 633.332 501.636
359 0 52.1359 12.9278 674 100.997 633.872 501.736
360 0 52.1285 11.817 616 102.485 633.268 501.567
361 0 52.1185 11.9535 623 102.878 633.478 501.944
362 0 56.0608 12.2189 685 101.974 632.885 500.698
363 0 54.1947 11.4956 623 105 634.323 498.809
364 0 58.2497 13.0473 760 102.159 633.607 497.804
365 0 59.314 12.4085 736 103.609 633.385 495.739
366 0 63.254 14.2125 899 100.313 633.333 495.603
367 0 65.2833 12.4228 811 103.175 633.507 495.735
368 0 68.2974 12.9288 883 103.472 633.971 493.559
369 0 69.2625 12.9219 895 103.996 634.031 493.21
370 0 75.2604 14.2837 1075 101.032 634.041 490.846
371 0 75.206 13.3101 1001 105.145 633.737 488.45
372 0 79.2278 14.086 1116 102.1 633.322 486.233
373 0 84.2514 13.436 1132 101.529 633.471 487.984
374 1 42.0316 11.1821 470 105.521 633.423 507.877
375 0 44.1196 12.0581 532 102.462 634.833 507.096
376 0 44.0598 12.1653 536 104.183 634.326 505.414
377 0 44.1079 13.1269 579 99.8739 634.553 505.259
378 0 46.0356 11.4911 529 99.7713 633.773 506.365
379 0 47.047 14.0073 659 95.5873 633.607 504.974
380 0 47.0226 12.0368 566 100.502 633.436 505.647
381 0 49.0367 12.8475 630 99.0603 633.102 505.054
382 0 51.0883 13.1341 671 98.3517 632.198 501.279
383 0 52.052 12.1225 631 100.29 632.965 503.377
384 0 55.0463 13.7521 757 96.5627 632.749 502.061
385 0 55.0811 12.7267 701 99.8474 632.733 500.894
386 0 57.0249 13.2048 753 98.4329 633.293 499.944
387 0 59.0766 12.4753 737 99.3202 632.7 499.285
388 0 61.0861 12.2778 750 99.9267 632.555 498.781
389 0 63.0666 14.0645 887 96.4927 632.817 495.352
390 0 65.1201 13.4828 878 97.2255 631.946 497.601
391 0 67.1353 12.6908 852 100.394 632.843 496.493
392 0 69.1625 13.5044 934 98.8726 632.982 495.61
393 0 71.1544 13.281 945 99.9757 632.413 494.151
394 0 74.2518 13.2791 986 100.234 632.609 492.455
395 0 76.1288 12.7284 969 103.446 632.75 491.901
396 0 76.0915 12.4718 949 104.73 633.375 489.9
397 1 41.0299 11.2601 462 104.874 632.506 507.381
398 0 44.0813 12.182 537 103.406 632.058 507.473
399 0 43.1405 12.5404 541 104.235 634.904 503.917
400 0 45.0822 11.3127 510 106.584 635.02 505.529
401 0 47.0631 11.9839 564 105.998 634.848 505.043
402 0 47.0491 12.7951 602 105.008 635.02 504.437
403 0 49.1305 14.0849 692 102.996 635.413 503.084
404 0 51.1188 13.1067 670 105.273 635.06 502.121
405 0 53.0633 13.531 718 105.008 634.684 503.334
406 0 55.0462 13.9338 767 103.999 635.014 502.027
407 0 55.0407 14.2985 787 104.746 634.889 501.188
408 0 56.0772 13.9807 784 107.107 635.156 499.68
409 0 58.0572 13.9862 812 106.733 634.874 497.792
410 0 61.0969 14.3051 874 105.432 634.811 499.124
411 0 63.1112 13.4524 849 108.762 634.711 498.572
412 0 64.1584 13.5446 869 110.951 634.583 496.86
413 0 65.1103 13.4234 874 113.209 634.231 495.479
414 0 69.1155 13.6872 946 112.59 634.001 494.955
415 0 69.1817 13.9343 964 114.35 634.842 495.418
416 0 71.3056 12.762 910 120.74 634.151 492.01
417 0 74.3326 14.906 1108 116.034 634.365 489.169
418 0 76.3381 14.331 1094 117.25 634.743 489.808
419 0 79.2327 13.3152 1055 121.089 633.96 488.773
420 0 81.1591 14.3545 1165 120.35 634.173 487.93
421 0 85.1452 14.5634 1240 120.868 634.37 485.704
422 0 87.2356 13.6412 1190 122.513 634.698 486.771
423 0 90.2479 13.6735 1234 121.788 634.671 483.63
424 1 49.0652 12.7178 624 119.873 635.059 505.034
425 0 51.0529 13.2412 676 118.759 635.395 502.651
426 0 49.0866 13.0382 640 122.177 636.492 502.512
427 0 53.0617 13.946 740 120.551 635.712 501.622
428 0 55.0774 13.018 717 123.697 635.434 500.955
429 0 55.0581 13.5675 747 123.778 635.451 501.05
430 0 56.0704 13.6792 767 125.325 635.008 499.744
431 0 57.0575 13.3199 760 126.464 635.776 498.374
432 0 61.0714 13.9509 852 123.042 634.957 497.209
433 0 63.2314 14.0595 889 122.951 634.873 496.118
434 0 66.1351 13.3968 886 123.554 635.178 496.546
435 0 67.1524 14.1916 953 122.142 634.711 495.02
436 0 69.1295 13.3084 920 124.074 634.488 494.899
437 0 71.1831 14.7788 1052 121.321 633.981 491.703
438 0 74.1097 14.4246 1069 122.24 633.085 490.741
439 0 75.2047 13.2306 995 126.497 633.166 489.781
440 0 78.1945 14.4128 1127 122.505 634.418 489.418
441 0 82.2845 15.6773 1290 119.038 634.016 487.226
442 0 85.0607 14.4838 1232 121.665 633.179 485.587
443 1 44.0364 11.763 518 119.309 635.492 506.253
444 0 46.015 11.7788 542 122.199 635.572 504.867
445 0 48.0367 12.8235 616 121.068 634.7 503.156
446 0 51.0371 12.6379 645 119.361 634.705 503.316
447 0 50.0771 13.3594 669 120.916 634.837 502.013
448 0 52.0536 12.5063 651 123.743 634.767 501.696
449 0 54.0523 12.5064 676 124.354 634.534 500.763
450 0 55.0867 12.9795 715 123.322 634.796 499.141
451 0 57.0211 12.89 735 123.344 634.865 498.282
452 0 59.0831 13.1171 775 122.796 634.547 498.03
453 0 60.08 13.1824 792 122.188 634.948 497.896
454 0 62.1786 13.7829 857 119.658 635.32 497.111
455 0 66.0481 13.8535 915 119.217 634.393 494.07
456 0 65.0569 13.4651 876 121.74 634.884 492.6
457 0 68.125 12.7119 866 121.834 634.356 491.826
458 0 70.0825 13.5126 947 119.189 634.18 491.233
459 0 73.0212 13.8453 1011 117.166 634.624 488.331
460 0 74.0703 12.9472 959 119.733 634.42 486.798
461 0 76.1561 12.9996 990 119.489 634.032 484.378
462 0 80.0756 13.5747 1087 117.287 634.462 482.623
463 0 82.0985 13.9832 1148 116.835 635.017 482.729
464 0 84.1693 13.7342 1156 116.73 634.392 482.255
465 0 86.0881 12.9983 1119 119.284 634.643 479.875
466 0 89.1063 13.5905 1211 123.277 634.978 479.973
467 0 90.1013 14.1951 1279 124.034 634.154 478.753
468 0 94.2194 14.116 1330 125.748 634.277 477.243
469 0 97.0827 15.2447 1480 123.728 634.367 477.847
470 0 100.135 14.5105 1453 124.588 633.29 472.193
471 0 102.106 13.5251 1381 126.445 632.424 472.833
472 0 107.249 14.3591 1540 118.456 633.223 470.549
473 0 111.208 14.6123 1625 125.59 633.376 472.549
474 0 114.201 15.0525 1719 125.688 633.388 468.855
475 0 117.322 14.6946 1724 126.969 633.875 469.31
476 0 121.313 13.9391 1691 128.477 633.614 467.255
477 0 126.19 14.1453 1785 128.241 633.718 464.873
478 0 130.283 14.929 1945 126.063 633.791 462.917
479 0 133.234 14.3958 1918 122.743 633.568 458.898
480 0 136.237 12.8746 1754 125.823 633.794 456.952
481 0 144.344 14.2369 2055 127.422 633.452 456.067
482 0 149.184 13.9358 2079 121.963 633.587 453.122
483 0 154.322 13.8671 2140 124.08 634.562 450.536
484 1 85.0741 12.8476 1093 118.582 635.826 487.457
485 0 86.1089 12.67 1091 119.852 635.422 484.517
486 0 92.1136 14.4604 1332 116.663 635.139 481.923
487 0 94.1337 13.1196 1235 121.053 635.14 480.51
488 0 98.1443 15.0493 1477 116.463 634.6 480.587
489 0 99.1397 13.8088 1369 119.211 632.706 479.651
490 0 103.141 13.4282 1385 121.695 632.839 476.785
491 0 107.204 13.0873 1403 120.705 633.718 475.605
492 0 108.147 13.7406 1486 116.671 634.145 473.01
493 0 113.389 12.7261 1443 117.956 633.489 471.395
494 1 59.153 11.2082 663 116.903 635.38 499.982
495 0 62.194 13.7955 858 112.5 635.087 495.487
496 0 64.1689 11.9996 770 116.518 634.449 497.478
497 0 67.1561 12.3742 831 116.018 634.451 494.702
498 0 70.1375 13.9298 977 110.075 634.402 494.583
499 0 69.2345 11.5549 800 117.775 634.376 493.21
500 0 73.2871 13.1674 965 115.054 634.388 491.794
501 0 75.1625 14.595 1097 114.017 634.249 490.598
502 0 78.2007 13.0306 1019 119.856 633.495 489.779
503 0 78.334 11.9361 935 123.496 633.857 488.181
504 0 83.1957 13.6786 1138 117.007 634.709 487.794
505 0 85.1307 14.4131 1227 115.98 634.406 486.494
506 0 88.259 13.8229 1220 117.941 634.405 483.419
507 0 91.2151 13.8354 1262 118.483 634.525 483.089
508 0 93.189 14.1755 1321 116.712 634.288 481.587
509 0 96.4586 13.5499 1307 118.191 634.053 480.673
510 0 100.354 14.0702 1412 118.191 633.909 479.29
511 1 54.2014 12.675 687 113.098 633.188 503.443
512 0 55.2003 11.6123 641 117.092 632.872 501.482
513 0 56.2978 12.5582 707 116.124 633.983 498.99
514 0 59.1071 13.3148 787 113.525 633.194 499.262
515 0 62.1277 12.4904 776 119.724 632.429 494.8
516 0 65.1715 12.9351 843 119.069 632.765 497.294
517 0 65.131 13.1735 858 120.911 632.569 496.457
518 0 68.2381 13.7606 939 119.651 632.676 495.114
519 0 69.2539 13.2989 921 122.085 632.932 495.388
520 0 71.1665 13.6019 968 122.181 633.064 494.74
521 0 74.1641 14.3735 1066 120.101 632.466 492.731
522 0 76.1865 13.0207 992 124.433 632.23 492.71
523 0 79.1177 13.3093 1053 123.922 632.825 490.175
524 0 81.2343 14.4889 1177 120.41 633.262 490.1
525 0 83.2673 13.5587 1129 120.605 634.359 486.855
526 0 87.4442 13.6087 1190 120.987 634.056 486.144
527 0 90.2512 13.3516 1205 122.225 633.676 484.418
528 0 90.3177 13.2089 1193 124.411 633.43 480.562
529 0 93.2992 13.4085 1251 121.376 633.909 482.796
530 0 95.152 11.3923 1084 126.65 633.975 480.661
531 0 99.2346 12.798 1270 122.92 633.479 479.957
532 1 47.1545 12.1728 574 117.869 633.052 503.805
533 0 51.1868 12.8353 657 115.95 633.495 502.416
534 0 51.0733 12.4918 638 116.925 633.997 504.315
535 0 53.1368 12.1949 648 117.34 634.259 502.571
536 0 55.0454 12.9893 715 113.536 634.004 502.622
537 0 55.0408 11.7913 649 119.493 633.219 500.476
538 0 58.0322 13.01 755 115.43 634.101 499.919
539 0 60.1456 12.4199 747 115.552 634.538 500.149
540 0 62.0881 14.5922 906 110.379 634.328 497.292
541 0 62.0815 11.5815 719 118.451 633.449 498.759
542 0 65.0447 11.961 778 117.465 633.81 497.274
543 0 69.0935 14.0534 971 112.053 633.804 494.633
544 0 70.2218 13.4431 944 113.839 634.192 495.816
545 0 73.1 13.5568 991 113.914 634.605 494.984
546 0 75.1076 13.008 977 116.223 634.953 489.54
547 0 77.0788 13.2592 1022 115.866 634.511 489.949
548 0 81.0454 13.5603 1099 115.522 634.843 486.448
549 1 42.1292 11.8208 498 119.729 636.227 509.05
550 0 43.3463 13.173 571 116.198 634.31 506.417
551 0 42.0355 11.633 489 115.855 634.896 508.526
552 0 44.108 10.633 469 118.03 635.256 508.727
553 0 44.0432 12.1245 534 114.346 635.26 508.56
554 0 45.0372 11.4572 516 116.837 635.634 507.422
555 0 47.0506 12.3271 580 114.769 635.147 505.784
556 0 50.0384 12.6503 633 113.18 635.943 505.336
557 0 50.1011 11.856 594 115.089 634.953 505.838
558 0 51.0932 12.1934 623 115.618 636.013 501.973
559 0 53.0777 13.1317 697 113.524 636.017 503.386
560 0 56.0769 12.6612 710 113.507 635.842 502.607
561 0 56.2075 12.0802 679 116.756 635.249 501.521
562 0 59.0582 12.7163 751 115.142 635.605 499.937
563 0 61.161 13.1293 803 114.006 635.011 500.213
564 0 64.108 12.6973 814 116.511 634.835 497.85
565 0 67.1242 14.1827 952 113.859 634.515 497.23
566 0 68.2201 13.4418 917 116.703 635.321 494.847
567 0 72.1652 14.2174 1026 114.981 634.688 493.091
568 0 73.2374 14.4598 1059 115.765 634.507 492.928
569 0 76.2541 14.032 1070 116.772 634.292 493.057
570 0 79.2303 14.1234 1119 116.634 634.142 492.071
571 0 81.1247 14.4346 1171 115.874 635.176 491.286
572 0 83.1653 13.6235 1133 120.334 635.703 488.223
573 0 88.231 13.8387 1221 121.357 635.289 486.412
574 0 89.0605 13.4403 1197 119.285 633.713 484.586
575 0 91.2318 12.2435 1117 122.799 634.93 486.133
576 1 50.2248 12.7825 642 117.578 633.427 502.952
577 0 50.127 12.2688 615 119.382 632.493 503.096
578 0 52.0179 12.7841 665 114.866 634.31 504.217
579 0 51.0599 12.5931 643 116.914 634.547 504.219
580 0 55.0634 12.8034 705 115.533 634.538 502.572
581 0 56.0427 12.883 722 117.072 634.136 501.806
582 0 56.0875 12.8727 722 119.252 634.465 501.271
583 0 59.3191 12.8795 764 119.398 634.386 500.559
584 0 60.0838 12.5325 753 121.417 635.027 499.389
585 0 61.0661 13.3462 815 121.183 635.309 500.271
586 0 65.0805 13.2144 860 122.406 635.938 496.981
587 0 65.1631 13.4125 874 124.51 635.523 496.691
588 0 69.11 13.6739 945 123.787 635.611 495.962
589 0 71.0597 13.0876 930 125.515 635.49 494.835
590 0 73.1515 12.5493 918 127.343 635.526 492.16
591 0 75.1457 14.1325 1062 122.066 635.364 493.522
592 0 78.0496 14.0552 1097 122.871 635.056 491.395
593 0 79.1315 13.6608 1081 124.165 634.401 488.596
594 0 83.0773 13.7583 1143 122.325 634.224 490.149
595 0 88.2562 13.7327 1212 121.084 633.582 487.394
596 0 89.3249 13.3445 1192 122.232 632.966 487.105
597 1 48.109 11.6402 560 126.134 632.571 506.073
598 0 48.1213 12.3646 595 122.287 633.541 506.049
599 0 48.2721 11.8909 574 118.312 633.105 498.711
600 0 51.074 13.7839 704 114.607 632.661 500.216
601 0 53.0729 12.8879 684 125.788 633.506 502.664
602 0 55.0709 13.2193 728 124.57 633.095 502.173
603 0 59.0899 14.1987 839 119.852 632.667 500.355
604 0 58.0725 12.5533 729 125.528 632.671 501.099
605 0 61.0532 13.5456 827 122.478 632.617 498.565
606 0 63.1076 13.0888 826 124.122 632.048 496.494
607 0 65.0486 14.1279 919 120.695 632.618 496.04
608 0 66.0534 13.4739 890 123.655 632.593 497.037
609 0 68.0743 13.6322 928 124.198 633.053 494.445
610 0 71.0308 14.3037 1016 122.635 632.319 493.67
611 0 73.0352 13.5962 993 124.385 632.69 493.831
612 0 77.1193 14.3414 1106 121.326 632.448 492.979
613 0 80.0749 14.7237 1179 120.338 632.84 489.432
614 0 81.061 13.1136 1063 125.258 633.278 489.087
615 0 85.0942 14.7131 1252 121.274 633.277 488.767
616 0 86.0682 15.4064 1326 119.618 633.374 487.153
617 0 91.0912 15.0509 1371 119.931 633.102 484.6
618 0 93.0719 13.9784 1301 121.454 632.719 483.04
619 1 49.0471 12.4166 609 119.276 632.759 506.425
620 0 52.3199 13.0352 682 118.26 634.701 502.956
621 0 55.1463 13.7634 759 116.09 634.962 501.659
622 0 57.0417 13.8495 790 115.284 633.208 502.289
623 0 57.101 14.343 819 116.282 632.713 500.201
624 0 60.0722 14.3494 862 115.234 632.906 500.551
625 0 62.0589 14.4862 899 114.556 632.913 500.722
626 0 64.1215 13.4588 863 118.016 632.947 498.783
627 0 66.0678 13.8494 915 116.81 633.04 497.537
628 0 68.0955 13.9069 947 116.807 633.449 496.129
629 0 71.0832 14.3775 1022 116.544 632.991 494.084
630 0 72.0947 14.1619 1021 118.221 633.077 491.4
631 0 77.0674 14.4549 1114 116.558 633.004 492.443
632 0 79.1665 13.7937 1092 118.739 632.499 489.047
633 0 82.0698 13.6347 1119 119.007 632.778 488.849
634 0 86.1381 13.9543 1202 117.969 632.943 489.165
635 0 88.0198 13.781 1213 120.462 633.226 486.36
636 0 90.1039 13.4622 1213 122.394 633.096 483.611
637 1 47.0913 11.9343 562 119.27 635.473 506.155
638 0 49.1744 12.2218 601 119.396 635.433 504.624
639 0 52.2824 13.8287 723 117.087 635.456 500.747
640 0 53.046 13.6674 725 117.188 635.851 503.659
641 0 54.042 12.9529 700 118.599 636.113 503.913
642 0 56.1239 13.3098 747 116.775 635.402 499.598
643 0 56.0238 13.4229 752 120.876 635.112 501.923
644 0 60.0826 14.3303 861 117.804 634.812 500.496
645 0 60.0371 13.9081 835 120.944 635.357 498.714
646 0 63.0639 13.6845 863 120.368 635.056 500.229
647 0 65.0598 12.6499 823 117.598 634.557 497.162
648 0 68.0732 14.3081 974 114.95 634.499 496.119
649 0 70.0605 14.7159 1031 115.318 634.04 496.045
650 0 71.1408 13.5084 961 119.951 634.234 494.184
651 0 76.0754 15.0377 1144 116.184 634.074 492.914
652 0 76.1355 14.8157 1128 119.161 634.389 490.026
653 0 81.0996 14.3651 1165 118.173 634.355 491.315
654 0 84.1778 15.5504 1309 118.759 634.757 488.678
655 0 88.0894 14.8258 1306 121.768 634.708 488.189
656 0 89.1205 13.9362 1242 125.304 634.681 488.584
657 1 46.0807 12.9338 596 124.156 635.243 509.25
658 0 48.2503 13.2849 641 124.833 634.635 506.902
659 0 50.0464 13.7872 690 122.426 634.746 507.201
660 0 51.2292 13.098 671 125.937 634.708 506.066
661 0 52.0726 13.1355 684 126.387 634.368 505.044
662 0 56.1283 14.6806 824 120.865 634.433 504.284
663 0 57.1634 13.3827 765 126.157 634.763 502.991
664 0 61.1605 15.4185 943 120.231 634.893 500.437
665 0 61.2959 14.8786 912 124.282 635.257 497.405
666 0 65.2725 16.3315 1066 121.89 635.068 495.836
667 0 65.2225 14.6575 956 127.286 634.723 496.253
668 0 70.2052 14.3152 1005 127.212 634.432 495.426
669 0 73.3377 15.3809 1128 124.042 633.662 492.99
670 0 76.482 15.3762 1176 124.187 633.035 491.713
671 0 78.2035 15.8049 1236 124.481 632.903 490.821
672 0 79.1941 15.1274 1198 127.97 633.086 490.007
673 0 83.3036 15.7136 1309 127.338 632.588 488.892
674 0 86.4774 15.2178 1316 130.432 633.018 486.619
675 1 42.1961 13.3898 565 131.251 632.593 507.904
676 0 41.1181 13.4247 552 135.839 632.582 506.719
677 0 45.0828 15.1055 681 128.345 632.665 506.238
678 0 47.119 14.7287 694 129.274 632.939 505.122
679 0 48.1929 14.3797 693 131.975 632.733 503.645
680 0 47.0629 13.6838 644 135.182 633.12 503.904
681 0 50.2064 15.9342 800 126.922 632.116 500.564
682 0 52.2293 15.2214 795 130.592 631.955 500.551
683 0 53.277 15.0722 803 130.183 631.922 501.527
684 0 55.3695 13.5454 750 135.272 632.381 499.825
685 0 56.4355 14.6539 827 133.249 632.178 499.457
686 0 59.2515 15.8308 938 129.627 632.438 499.554
687 0 58.3839 14.4389 843 134.503 631.96 498.056
688 0 63.2991 15.5294 983 129.972 632.01 496.643
689 0 64.2905 15.1033 971 132.831 632.265 495.924
690 0 67.5168 14.9889 1012 131.764 632.022 495.719
691 0 69.2207 15.689 1086 130.938 632.725 493.919
692 0 70.3492 15.551 1094 131.63 632.612 493.966
693 0 73.5313 13.9125 1023 135.605 632.961 492.787
694 0 75.4513 16.9513 1279 127.884 632.791 491.432
695 0 78.1908 15.5133 1213 132.223 632.588 489.648
696 0 80.2778 14.8235 1190 134.269 632.418 489.77
697 0 82.3718 15.4665 1274 133.754 632.522 486.12
698 0 85.3383 16.1123 1375 131.826 632.705 484.984
699 0 86.2716 15.2889 1319 135.058 632.699 484.517
700 0 91.3559 15.9705 1459 132.292 632.831 483.197
701 0 94.2302 14.8572 1400 134.435 632.866 481.244
702 0 97.2969 16.4753 1603 131.321 632.423 478.137
703 0 99.3347 16.4293 1632 131.686 632.152 477.721
704 0 105.169 16.3261 1717 130.991 632.528 473.272
705 0 107.227 14.9123 1599 134.283 632.59 470.699
706 0 113.292 16.2148 1837 127.041 632.552 470.781
707 1 57.0486 12.2352 698 133.702 632.626 494.414
708 0 61.2028 12.9406 792 130.088 632.088 493.918
709 0 61.0379 13.2213 807 128.52 632.856 491.683
710 0 63.0532 12.9256 815 129.816 632.863 490.631
711 0 66.2231 14.2246 942 127.044 633.531 488.099
712 0 69.0508 13.8014 953 127.938 632.869 485.916
713 0 71.1536 12.8314 913 130.3 633.139 484.809
714 0 76.0984 12.497 951 130.394 633.466 482.409
715 0 77.0567 13.5614 1045 128.113 633.28 481.186
716 0 80.1805 14.2304 1141 126.836 633.367 479.107
717 0 84.1128 12.7686 1074 129.699 633.449 479.045
718 0 86.099 14.3556 1236 126.044 633.607 476.175
719 0 89.1104 14.0163 1249 128.136 633.669 472.882
720 0 93.2267 13.5798 1266 128.614 633.185 473.554
721 0 98.1822 13.6175 1337 128.394 633.653 470.914
722 1 55.0323 11.4478 630 117.825 633.951 497.292
723 0 56.0412 10.0819 565 121.074 634.103 497.03
724 0 58.0524 11.3863 661 116.048 633.976 497.372
725 0 61.0329 11.6167 709 114.429 633.721 496.323
726 0 64.0341 12.4309 796 112.905 633.864 496.117
727 0 66.0571 12.6254 834 113.535 634.309 493.499
728 0 68.0693 12.1053 824 115.155 634.024 491.671
729 0 69.0428 12.3257 851 115.224 634.638 492.441
730 0 73.0759 12.1654 889 115.225 634.516 489.996
731 0 76.1565 11.7521 895 116.06 634.991 489.115
732 0 78.1563 11.9632 935 115.953 635.24 489.313
733 0 79.1134 11.4519 906 117.362 635.236 488.406
734 0 84.171 11.7974 993 115.362 635.3 485.815
735 0 86.1014 11.6723 1005 117.238 635.419 482.514
736 0 90.2089 11.6286 1049 117.672 634.673 482.949
737 1 47.0955 10.9565 516 112.901 634.477 503.684
738 0 47.0807 9.72798 458 116.192 634.697 503.655
739 0 50.0506 11.5283 577 113.418 635.494 502.444
740 0 51.0776 9.9065 506 116.923 635.385 501.032
741 0 52.1064 9.78766 510 118.443 635.339 500.945
742 0 54.0846 9.15233 495 119.325 636.014 500.798
743 0 55.0813 10.3665 571 118.233 635.322 500.165
744 0 57.0873 11.8941 679 115.473 635.623 497.691
745 0 57.0415 9.39667 536 121.586 635.847 498.216
746 0 63.0362 11.9614 754 114.533 636.073 497.927
747 0 63.0294 11.0107 694 119.137 636.124 495.001
748 0 64.1407 11.6775 749 118.104 635.518 493.368
749 0 65.1711 11.5849 755 118.985 635.587 494.215
750 0 68.073 10.5475 718 123.73 635.787 490.092
751 0 69.0785 11.0309 762 121.928 635.751 491.356
752 0 71.0542 11.3857 809 122.511 635.743 490.566
753 0 76.0455 11.7298 892 120.576 635.554 489.48
754 0 77.1453 11.5237 889 122.337 635.602 487.691
755 0 81.1367 12.2879 997 118.106 635.323 485.695
756 0 81.1389 10.7593 873 123.306 635.701 484.257
757 1 45.0334 9.59288 432 117.722 635.442 504.449
758 0 46.0122 10.9319 503 111.525 634.324 503.956
759 0 47.0715 9.47495 446 110.57 634.711 503.52
760 0 47.0182 10.464 492 109.398 635.264 504.738
761 0 47.0666 10.347 487 111.209 635.626 503.033
762 0 50.0509 10.829 542 109.828 635.242 502.295
763 0 51.2423 9.83563 504 111.575 632.647 499.464
764 0 53.0489 11.348 602 108.816 635.824 502.008
765 0 55.0111 11.5431 635 110.38 636.241 499.506
766 0 59.0228 11.809 697 108.667 636.31 500.169
767 0 61.0858 12.5234 765 108.344 636.329 498.136
768 0 63.068 12.0346 759 111.061 636.14 495.933
769 0 63.0417 11.2465 709 114.917 636.406 496.315
770 0 68.078 12.3535 841 111.434 637.07 495.073
771 0 68.0793 11.9567 814 111.07 636.577 494.405
772 0 71.0502 13.6382 969 106.647 635.925 493.586
773 0 74.0911 12.7141 942 110.031 635.965 489.898
774 0 74.1485 11.1668 828 113.267 635.233 492.399
775 0 78.0956 11.9853 936 111.104 634.748 489.988
776 0 81.0912 12.9237 1048 110.483 634.948 489.289
777 1 40.024 10.8185 433 115.714 634.746 509.259
778 0 42.1002 11.9477 503 113.813 634.477 506.897
779 0 44.2631 11.7253 519 115.41 632.927 503.006
780 0 44.1107 11.6752 515 111.975 631.509 506.507
781 0 46.0179 11.7346 540 111.633 631.291 504.989
782 0 47.0105 13.2098 621 109.407 631.135 504.952
783 0 46.0529 11.5085 530 115.898 631.685 504.074
784 0 47.0218 11.3352 533 115.91 631.987 503.764
785 0 50.0833 11.4609 574 114.756 632.544 505.39
786 0 51.055 13.4169 685 109.762 633.749 504.495
787 0 53.0247 11.8247 627 82.4864 633.514 506.71
788 0 55.0406 12.6089 694 111.664 633.249 502.517
789 0 54.0666 12.2257 661 114.073 633.331 502.23
790 0 58.1249 13.1441 764 111.092 632.838 499.818
791 0 58.0537 13.0396 757 112.517 633.046 498.815
792 0 60.1209 12.5081 752 112.753 632.727 499.449
793 0 62.1247 12.0725 750 113.663 633.252 496.96
794 0 65.1048 12.5797 819 112.592 633.409 496.807
795 0 65.1587 12.5386 817 114.055 634.357 496.089
796 0 69.2194 13.3778 926 109.041 633.664 493.496
797 0 72.1615 14.426 1041 106.505 633.958 491.901
798 0 73.0893 12.9841 949 110.221 633.949 492.262
799 0 77.0942 14.3461 1106 107.389 634.293 490.448
800 0 79.133 13.3446 1056 108.789 634.36 487.83
801 0 81.0634 13.1009 1062 110.017 633.329 488.685
802 0 87.2291 14.7886 1290 105.495 634.348 485.256
803 0 89.2506 13.8486 1236 109.494 634.125 483.676
804 1 45.1358 10.4573 472 116.439 634.773 503.653
805 0 45.4148 11.6702 530 115.936 631.838 505.315
806 0 47.0179 11.5063 541 116.037 630.811 504.237
807 0 50.0223 12.4744 624 114.255 631.03 502.647
808 0 51.0705 12.8842 658 112.766 631.219 503.612
809 0 54.0993 13.1795 713 112.116 631.412 501.236
810 0 56.0608 13.6102 763 110.299 630.993 500.995
811 0 56.0843 12.2851 689 114.483 631.978 500.604
812 0 57.0453 12.5339 715 114.294 631.164 499.66
813 0 60.0847 12.549 754 113.025 631.438 499.355
814 0 61.146 11.9877 733 114.98 631.233 498.211
815 0 62.0304 13.4289 833 111.257 631.261 496.432
816 0 66.0676 13.6527 902 111.192 631.363 495.288
817 0 68.0271 13.4211 913 111.836 631.457 496.165
818 0 71.1434 14.2248 1012 109.534 631.029 495.921
819 0 72.1295 13.4896 973 113.392 631.398 494.483
820 0 74.2692 13.5992 1010 113.168 632.472 493.35
821 0 74.349 11.8899 884 117.603 631.96 492.507
822 0 78.342 12.739 998 115.598 632.53 490.678
823 0 80.5613 13.1701 1061 115.709 632.662 486.473
824 0 84.4762 14.1223 1193 112.36 632.984 486.99
825 0 85.3142 13.2334 1129 114.984 633.193 485.588
826 1 44.1699 10.9803 485 113.866 632.676 506.297
827 0 45.2524 12.1762 551 110.265 632.733 507.265
828 0 46.3286 12.8646 596 110.911 633.547 504.961
829 0 47.275 12.1629 575 108.922 632.757 505.748
830 0 47.1128 13.3085 627 107.959 632.281 503.949
831 0 49.1335 12.2727 603 110.94 631.794 504.575
832 0 50.253 13.0738 657 109.807 632.416 502.988
833 0 50.0413 12.8494 643 111.854 632.456 503.77
834 0 52.1567 12.5967 657 113.42 632.688 502.928
835 0 54.0972 12.6994 687 112.838 632.501 500.499
836 0 58.1157 11.7008 680 112.006 631.972 500.569
837 0 59.1577 12.6611 749 109.826 632.725 499.131
838 0 62.1943 12.1555 756 111.615 632.444 496.493
839 0 62.2251 12.7923 796 111.501 632.729 496.616
840 0 64.1302 12.6929 814 112.791 632.717 495.014
841 0 68.2324 14.6998 1003 107.688 633.01 494.367
842 0 70.1218 13.8473 971 110.516 632.54 493.361
843 0 71.175 13.4598 958 112.14 632.544 492.717
844 0 76.2128 13.8428 1055 110.18 632.696 492.185
845 0 77.2032 14.0668 1086 110.705 632.481 490.718
846 0 80.1768 13.4328 1077 112.557 632.743 488.442
847 0 84.194 14.0865 1186 111.578 632.823 488.245
848 0 85.1762 13.2666 1130 115.3 632.435 487.83
849 1 48.1241 11.6989 563 114.194 634.33 500.091
850 0 47.1435 10.4362 492 116.317 635.494 505.317
851 0 49.0209 12.5457 615 111.885 632.229 505.685
852 0 52.0461 12.2392 637 112.63 632.645 504.504
853 0 52.0673 13.3097 693 110.926 635.136 501.602
854 0 55.0596 14.4752 797 107.471 633.975 502.662
855 0 56.0812 13.6766 767 110.08 633.634 501.879
856 0 57.1387 13.091 748 113.894 633.909 501.278
857 0 57.0621 12.9508 739 114.835 633.65 501.869
858 0 60.0581 13.054 784 115.099 633.642 500.435
859 0 61.1395 14.2625 872 113.217 633.323 497.283
860 0 62.0386 12.7985 794 117.389 633.081 497.043
861 0 66.0504 14.2164 939 112.554 633.054 497.231
862 0 68.0868 12.7631 869 115.662 633.446 496.766
863 0 70.0527 13.5184 947 113.842 633.794 495.752
864 0 70.1695 12.5838 883 117.258 634.245 493.166
865 0 76.1064 13.6914 1042 114.169 634.138 492.383
866 0 78.1875 13.5316 1058 115.559 633.918 489.7
867 0 81.1825 13.6729 1110 112.664 634.602 490.342
868 0 83.0869 13.4076 1114 114.758 634.547 487.679
869 0 87.1235 13.4407 1171 116.129 634.695 486.044
870 0 89.2196 12.6766 1131 120.073 634.002 484.56
871 1 49.0475 12.4165 609 117.099 633.992 504.007
872 0 48.1653 10.1941 491 109.016 633.481 500.134
873 0 51.0299 13.1491 671 109.332 633.705 504.465
874 0 53.1412 11.253 598 115.309 632.5 502.781
875 0 52.1273 11.9515 623 115.225 633.917 500.294
876 0 55.0842 12.7078 700 111.649 633.176 501.551
877 0 58.0771 13.3271 774 109.222 633.181 500.127
878 0 62.2363 12.9988 809 108.808 633.155 498.246
879 0 62.1348 12.9718 806 109.696 632.777 496.757
880 0 65.1704 13.5798 885 107.928 632.681 496.965
881 0 63.2167 10.9307 691 116.69 632.699 493.496
882 0 69.212 12.3244 853 111.539 632.428 495.308
883 0 72.2893 13.529 978 109.762 632.481 493.158
884 0 74.3696 13.2447 985 110.354 632.67 491.748
885 0 77.4146 12.5041 968 112.301 633.252 491.026
886 0 80.2978 13.8858 1115 108.851 633.51 489.552
887 1 44.4485 11.5189 512 114.242 634.107 505.027
888 0 45.4185 12.5499 570 104.763 635.242 504.695
889 0 47.2949 13.1938 624 105.617 634.293 502.311
890 0 47.1185 12.6277 595 104.139 634.82 504.276
891 0 46.1404 12.2886 567 108.028 635.728 505.219
892 0 48.025 12.8475 617 108.159 634.323 503
893 0 51.0362 12.8928 658 107.687 634.616 502.482
894 0 53.0573 15.0026 796 102.464 635.029 500.775
895 0 53.1009 12.9565 688 107.657 635.789 501.09
896 0 54.0353 13.4357 726 106.658 635.375 500.051
897 0 55.0872 14.468 797 106.734 635.551 497.976
898 0 58.0999 13.1498 764 108.852 636.386 495.766
899 0 60.0742 14.1825 852 106.146 635.459 494.935
900 0 62.1507 13.0007 808 108.496 635.683 495.798
901 0 63.0523 13.1637 830 108.994 635.714 496.234
902 0 65.0761 11.7708 766 113.047 635.189 496.148
903 0 69.177 13.6028 941 108.157 635.179 494.19
904 0 70.086 14.097 988 106.972 634.968 492.514
905 0 71.0928 13.4472 956 109.026 635.313 491.554
906 0 73.1952 14.1676 1037 108.457 634.763 489.538
907 0 75.1111 12.0355 904 114.199 634.871 488.177
908 0 77.15 12.3914 956 113.147 635.149 488.964
909 0 83.1167 14.7985 1230 109.014 634.963 477.039
910 0 83.1809 12.8154 1066 112.316 635.573 485.297
911 0 87.2383 14.2483 1243 108.721 634.633 483.264
912 0 89.1458 13.8201 1232 110.379 634.169 482.431
913 0 91.1597 14.1071 1286 108.724 634.933 480.212
914 0 95.2104 13.7695 1311 110.184 635.034 476.825
915 0 99.2518 14.166 1406 108.538 634.719 477.282
916 0 100.16 13.2588 1328 116.132 634.556 472.523
917 0 105.117 14.1271 1485 112.585 634.188 474.911
918 1 57.0313 12.9578 739 107.153 634.947 499.733
919 0 59.241 12.7108 753 104.507 632.526 495.45
920 0 62.2431 12.9492 806 104.763 633.571 492.391
921 0 63.2374 12.6982 803 105.763 632.974 494.526
922 0 65.1123 12.7472 830 106.852 635.086 495.817
923 0 69.0919 14.5459 1005 102.995 634.751 494.359
924 0 69.094 12.1429 839 109.316 635.211 492.856
925 0 73.1326 14.1524 1035 104.576 635.524 490.476
926 0 75.1014 13.6083 1022 106.018 635.079 488.792
927 0 78.1472 13.9608 1091 106.069 634.613 487.599
928 0 80.2343 13.5478 1087 106.82 635.136 487.336
929 0 85.1533 13.6695 1164 105.155 635.285 485.433
930 0 87.1442 14.6424 1276 104.577 634.654 482.632
931 0 90.2932 13.6334 1231 107.638 634.992 481.817
932 0 94.3413 13.9705 1318 106.697 634.293 479.056
933 0 93.095 13.2875 1237 108.115 633.382 457.101
934 0 96.1603 12.4688 1199 107.786 633.475 472.89
935 1 49.0739 10.0257 492 103.724 635.352 493.571
936 0 53.1654 10.157 540 104.05 635.589 492.672
937 0 58.0591 13.2968 772 103.281 635.973 499.35
938 0 59.0484 14.6829 867 101.136 635.173 497.557
939 0 61.0892 11.9006 727 109.834 636.309 496.343
940 0 63.054 12.7985 807 107.523 636.325 497.012
941 0 63.0178 12.3457 778 108.59 635.501 495.413
942 0 68.0825 15.3197 1043 101.687 635.894 494.405
943 0 69.0327 14.0223 968 105.842 635.071 495.007
944 0 71.097 13.2354 941 108.49 635.516 493.143
945 0 75.1248 13.7505 1033 107.525 635.519 489.485
946 0 75.1045 13.4479 1010 109.124 635.645 487.779
947 0 78.1443 12.912 1009 109.729 635.46 487.678
948 0 81.1835 13.5372 1099 108.334 635.983 487.509
949 0 83.2972 13.4698 1122 108.756 634.742 482.348
950 0 86.2761 13.5843 1172 108.777 635.71 481.966
951 0 87.1873 12.5936 1098 112.388 634.595 480.292
952 0 94.2035 14.7447 1389 105.881 634.153 478.933
953 0 96.1421 13.116 1261 110.749 633.774 479.845
954 1 49.1705 11.9381 587 106.714 633.949 503.83
955 0 50.2434 11.1059 558 106.186 635.887 502.394
956 0 53.1036 12.6922 674 99.7849 634.783 499.818
957 0 53.053 12.0257 638 102.461 635.853 499.929
958 0 54.0389 12.639 683 101.855 636.35 500.066
959 0 57.1094 13.4829 770 99.8701 636.155 498.858
960 0 59.0976 13.2154 781 100.485 636.172 497.711
961 0 62.0368 13.7499 853 99.721 636.137 496.544
962 0 63.1621 12.7766 807 102.689 636.361 495.325
963 0 66.1238 13.5655 897 101.691 636.841 495.089
964 0 68.1616 13.2186 901 102.809 636.241 493.38
965 0 71.103 13.4172 954 102.627 635.881 492.711
966 0 73.0571 13.1267 959 104.578 635.594 490.847
967 0 74.1215 13.0731 969 105.836 635.616 488.972
968 0 77.1862 13.3184 1028 106.129 635.505 489.289
969 0 82.2277 13.9612 1148 110.82 633.307 481.114
970 0 82.1854 13.2505 1089 111.846 633.32 486.167
971 1 42.0974 12.281 517 110.897 631.884 504.329
972 0 45.258 12.8596 582 108.562 631.851 504.074
973 0 47.0916 12.4226 585 111.215 632.497 502.841
974 0 47.061 12.5582 591 112.589 632.382 503.242
975 0 48.0612 13.2123 635 111.161 632.631 503.831
976 0 50.2582 13.3113 669 110.522 633.827 502.982
977 0 50.0936 13.0356 653 112.787 632.798 502.107
978 0 52.0413 13.3548 695 110.977 633.013 503.122
979 0 53.0773 13.2071 701 112.538 633.208 501.21
980 0 53.1388 12.665 673 115.256 632.614 500.841
981 0 58.1215 14.831 862 108.305 632.734 500.952
982 0 58.0877 13.9961 813 112.701 632.886 499.528
983 0 56.0748 13.7317 770 149.271 632.91 500.453
984 0 59.073 12.7131 751 118.453 632.929 497.466
985 0 63.1186 14.8609 938 112.076 632.834 496.67
986 0 65.0394 12.8076 833 118.972 633.014 496.143
987 0 65.118 14.2664 929 116.72 633.249 494.767
988 0 67.139 13.3901 899 120.527 633.464 495.283
989 0 71.2068 13.7908 982 119.408 633.624 492.177
990 0 73.0815 14.4907 1059 118.294 633.571 491.441
991 0 74.1281 13.679 1014 122.241 633.886 490.894
992 0 77.1332 13.9369 1075 121.994 633.832 489.039
993 0 79.0711 14.1012 1115 120.732 634.207 488.699
994 0 83.1287 14.5317 1208 118.82 632.909 486.256
995 0 86.0734 14.2553 1227 119.768 632.898 485.094
996 0 87.1387 12.7383 1110 118.688 635.068 483.928
997 0 90.1442 13.4784 1215 117.333 635.234 481.171
998 0 94.1769 14.9081 1404 116.723 634.93 481.904
999 1 52.1788 12.898 673 115.556 634.349 501.562
1000 0 52.1922 11.7642 614 121.329 633.904 501.476
1001 0 53.1729 12.2807 653 117.312 633.515 500.931
1002 0 55.0763 13.2907 732 115.939 634.693 501.343
1003 0 58.081 12.0521 700 119.813 634.523 501.629
1004 0 58.1183 12.4401 723 118.748 634.799 499.84
1005 0 62.0355 14.4272 895 113.039 634.285 496.834
1006 0 65.2567 13.0715 853 115.625 633.345 496.483
1007 0 65.2979 13.8136 902 114.135 633.456 496.37
1008 0 70.1161 14.1194 990 113.032 633.893 494.832
1009 0 72.1374 13.7793 994 115.197 633.976 492.471
1010 0 74.1391 13.3128 987 116.659 633.504 492.116
1011 0 78.1267 14.5661 1138 113.636 633.748 491.267
1012 0 79.1813 13.728 1087 117.218 634.339 490.334
1013 1 41.0486 11.5473 474 123.046 633.049 508.053
1014 0 42.0093 12.6401 531 121.964 632.573 507.548
1015 0 44.0664 13.5023 595 119.897 633.538 506.753
1016 0 46.039 13.3365 614 116.899 633.186 506.866
1017 0 47.1101 13.479 635 115.819 633.636 506.88
1018 0 48.0817 13.685 658 114.693 633.606 506.5
1019 0 50.0915 13.675 685 115.601 633.366 504.21
1020 0 51.0537 12.6925 648 117.81 634.034 503.809
1021 0 54.136 14.833 803 111.186 634.839 501.186
1022 0 53.1537 14.0348 746 114.047 635.334 502.403
1023 0 57.205 14.5092 830 112.435 635.084 495.613
1024 0 57.2485 13.6597 782 114.191 634.664 501.143
1025 0 60.266 13.7225 827 113.798 635.293 499.744
1026 0 61.2138 13.216 809 116.355 634.686 496.833
1027 0 64.1898 13.2264 849 115.589 634.044 498.854
1028 0 66.2271 14.7221 975 113.243 634.178 497.254
1029 0 66.223 14.421 955 116.016 634.831 494.209
1030 0 69.2493 14.2962 990 116.714 634.704 494.463
1031 0 74.3481 14.3514 1067 114.557 634.954 493.55
1032 0 74.2066 13.678 1015 118.443 634.647 491.73
1033 0 78.1784 13.9936 1094 118.931 635.667 489.25
1034 0 80.2218 14.0984 1131 119.465 635.184 488.144
1035 0 83.0851 14.3708 1194 118.913 634.795 487.836
1036 0 86.2128 14.6962 1267 119.713 634.425 486.881
1037 0 89.352 14.6723 1311 120.204 634.339 484.122
1038 0 92.272 14.5331 1341 121.542 634.772 477.68
1039 1 50.1116 12.8314 643 119.543 633.848 499.498
1040 0 49.1624 14.0961 693 117.014 633.786 496.872
1041 0 52.1583 13.9383 727 117.235 633.919 498.354
1042 0 55.2605 13.8254 764 116.674 633.692 492.742
1043 0 53.0649 14.3032 759 117.548 632.995 499.273
1044 0 58.0473 15.3151 889 114.654 634.746 500.114
1045 0 60.0641 15.3336 921 112.413 634.575 499.958
1046 0 62.0693 14.0005 869 115.573 633.543 497.957
1047 0 64.0763 14.4827 928 114.248 633.457 496.76
1048 0 64.1391 14.0164 899 116.784 633.489 496.187
1049 0 70.118 15.1744 1064 111.761 632.853 495.865
1050 0 71.0807 14.6453 1041 113.857 633.329 493.646
1051 0 74.139 14.9044 1105 112.905 633.243 492.12
1052 0 77.1315 15.0911 1164 112.099 633.389 490.849
1053 0 78.1678 14.1746 1108 114.699 634.496 490.231
1054 0 82.1135 14.5896 1198 113.342 635.081 487.539
1055 0 84.089 12.9506 1089 115.78 634.982 488.194
1056 0 88.1682 13.7691 1214 112.598 635.245 486.088
1057 1 47.1592 12.9349 610 113.093 634.523 506.185
1058 0 46.141 13.0903 604 113.719 634.033 503.488
1059 0 49.1555 12.6944 624 118.218 636.008 503.178
1060 0 50.0195 14.0345 702 115.724 636.321 501.617
1061 0 53.1171 12.896 685 117.699 635.636 500.818
1062 0 53.0522 13.8354 734 116.653 635.473 499.339
1063 0 56.0462 14.488 812 114.564 635.814 498.309
1064 0 58.066 14.5352 844 114.73 636.097 498.656
1065 0 59.1257 14.5453 860 115.967 635.902 496.352
1066 0 62.1621 14.4139 896 115.438 635.844 496.991
1067 0 64.0558 14.3625 920 115.103 636.001 495.407
1068 0 65.0801 14.075 916 117.246 635.928 493.891
1069 0 68.1931 15.1335 1032 114.409 635.581 490.921
1070 0 70.1013 14.8214 1039 114.699 635.443 491.641
1071 0 72.2083 14.9152 1077 114.611 635.893 492.063
1072 0 76.1024 14.5593 1108 115.299 636.116 489.615
1073 0 79.1273 15.0011 1187 112.871 635.564 490.232
1074 0 78.1063 13.4688 1052 117.638 635.662 488.594
1075 0 83.1693 13.8152 1149 113.334 633.497 487.495
1076 0 85.1204 13.9919 1191 111.023 633.975 483.393
1077 0 88.144 14.6919 1295 110.999 633.795 480.974
1078 1 48.0618 11.7557 565 117.522 633.446 501.919
1079 0 50.19 12.373 621 116.193 634.425 499.931
1080 0 51.2684 13.2245 678 116.413 634.021 498.584
1081 0 53.0427 13.0461 692 108.473 635.561 497.702
1082 0 55.1818 15.3855 849 104.898 635.016 496.331
1083 0 55.199 14.4568 798 110.05 634.949 498.104
1084 0 59.2768 14.9299 885 106.307 634.656 493.227
1085 0 59.1042 14.2122 840 110.326 635.219 493.71
1086 0 62.0785 14.0951 875 112.137 634.762 493.418
1087 0 64.0579 14.9864 960 110.787 635.074 490.608
1088 0 65.2546 14.9874 978 111.466 634.31 489.479
1089 0 68.0983 15.2427 1038 112.649 633.81 488.829
1090 0 70.0828 13.9977 981 116.169 634.351 486.375
1091 0 74.1196 14.9488 1108 113.978 634.595 484.558
1092 0 77.1716 15.4072 1189 113.523 634.335 481.653
1093 0 78.3362 14.9867 1174 116.563 634.376 481.213
1094 0 83.3519 15.5965 1300 116.183 634.293 480.115
1095 0 85.3971 15.1527 1294 118.627 633.279 478.967
1096 0 87.3244 15.0359 1313 120.52 633.896 476.714
1097 1 47.1449 14.1055 665 123.436 633.75 495.997
1098 0 47.2154 14.1691 669 125.001 634.558 493.617
1099 0 50.24 13.5749 682 125.547 634.496 493.899
1100 0 52.2022 15.2292 795 121.279 634.035 493.405
1101 0 53.2418 14.2369 758 124.391 634.28 492.306
1102 0 54.221 14.8835 807 121.986 634.133 492.82
1103 0 58.2947 14.6325 853 121.651 634.179 490.311
1104 0 58.3259 14.0246 818 124.727 634.374 491.56
1105 0 61.2056 14.5902 893 122.558 634.297 488.446
1106 0 62.2901 13.7421 856 124.396 633.86 489.145
1107 0 64.3811 15.1597 976 122.465 634.114 486.529
1108 0 68.2668 14.5459 993 122.415 634.034 487.041
1109 0 69.2369 14.8909 1031 122.128 634.011 486.271
1110 0 71.2211 13.6476 972 125.961 634.031 483.9
1111 0 75.1478 13.693 1029 123.966 633.968 483.634
1112 0 76.3475 13.8446 1057 124.795 634.297 482.6
1113 0 77.1055 13.8901 1071 123.691 634.289 482.591
1114 0 83.2525 13.8014 1149 122.178 634.354 480.341
1115 0 83.1784 13.1765 1096 126.584 634.921 475.986
1116 0 87.3174 13.6513 1192 124.919 634.467 475.405
1117 1 44.1314 10.3101 455 130.297 634.444 497.202
1118 0 47.1516 12.2795 579 125.876 634.344 494.143
1119 0 50.0761 12.8405 643 123.807 634.257 494.89
1120 0 50.2601 12.0971 608 128.179 633.454 493.273
1121 0 48.4389 13.3777 648 126.054 633.878 490.506
1122 0 57.0842 14.0845 804 119.119 633.754 492.219
1123 0 53.0632 12.8338 681 126.338 633.489 487.937
1124 0 62.1528 13.1129 815 121.869 633.837 489.706
1125 0 64.2684 15.3419 986 116.786 634.325 489.355
1126 0 66.1347 13.8808 918 120.379 634.394 489.346
1127 0 68.2204 14.2333 971 120.86 634.688 485.729
1128 0 72.1467 14.4982 1046 119.852 634.336 485.927
1129 0 74.1307 14.0428 1041 121.325 634.307 484.604
1130 0 73.2874 13.2356 970 124.963 634.266 483.302
1131 0 79.118 15.104 1195 120.208 634.274 483.768
1132 0 82.3403 14.6465 1206 121.099 633.87 482.566
1133 0 84.1641 14.8995 1254 122.561 634.564 479.163
1134 0 87.0753 15.4808 1348 121.286 634.412 481.328
1135 0 91.0863 14.7662 1345 124.613 633.838 478.15
1136 0 92.1485 14.5417 1340 126.57 633.177 477.245
1137 0 95.2823 14.2104 1354 128.115 634.475 474.24
1138 0 97.0953 14.5733 1415 129.532 633.852 471.86
1139 0 102.135 14.1088 1441 128.867 634.163 474.502
1140 0 107.137 14.7475 1580 128.928 634.677 470.694
1141 0 110.168 14.4234 1589 129.675 634.93 469.134
1142 0 113.114 15.3827 1740 129.388 634.447 465.657
1143 0 115.144 13.5656 1562 135.411 634.255 462.413
1144 0 124.159 15.7781 1959 128.469 634.574 462.285
1145 0 130.237 16.2319 2114 127.771 634.323 459.947
1146 0 134.257 15.7459 2114 129.691 634.008 457.862
1147 0 140.285 15.0337 2109 131.846 634.01 456.498
1148 0 144.235 15.2876 2205 133.619 633.758 451.224
1149 0 152.487 15.8506 2417 133.065 633.541 448.094
1150 1 83.0859 13.5402 1125 131.234 632.961 485.772
1151 0 85.0604 14.2605 1213 130.542 633.768 482.276
1152 0 87.094 14.5934 1271 129.362 633.603 482.101
1153 0 91.213 14.5045 1323 130.283 634.765 478.878
1154 0 91.1845 13.1382 1198 134.104 634.37 478.371
1155 0 97.1971 14.6815 1427 129.02 634.718 477.28
1156 0 99.2092 13.9705 1386 131.493 635.162 473.722
1157 0 103.23 13.407 1384 132.9 634.518 470.824
1158 0 108.202 13.8722 1501 131.031 634.19 469.791
1159 0 113.245 14.2611 1615 128.989 634.361 469.298
1160 0 120.253 15.326 1843 127.141 634.293 463.085
1161 1 67.1636 10.4223 700 125.689 634.969 491.214
1162 0 72.0389 11.9658 862 124.1 634.07 490.232
1163 0 73.082 12.4791 912 124.264 634.383 488.37
1164 0 75.2301 12.4551 937 129.444 633.921 487.34
1165 0 80.187 13.0071 1043 127.8 634.018 485.261
1166 0 82.1373 12.9417 1063 128.084 634.888 483.078
1167 0 83.1022 12.7674 1061 127.861 634.091 483.294
1168 0 86.0854 11.9533 1029 130.102 634.406 481.865
1169 0 89.155 11.5978 1034 129.385 633.965 481.146
1170 0 93.1319 12.2514 1141 129.366 633.918 477.788
1171 0 94.1088 11.8799 1118 131.596 633.947 475.903
1172 0 99.1096 12.2289 1212 129.728 633.369 474.455
1173 0 100.187 11.9875 1201 131.402 633.658 470.167
1174 0 104.128 11.9373 1243 131.414 633.811 471.611
1175 0 106.19 11.2064 1190 134.322 634.118 469.388
1176 0 110.236 12.691 1399 128.864 633.396 470.791
1177 0 114.236 10.8897 1244 133.859 633.9 464.027
1178 1 63.17 12.9808 820 111.72 633.805 493.616
1179 0 66.1246 10.7676 712 116.646 634.492 492.322
1180 0 70.0882 12.1561 852 124.765 635.394 491.269
1181 0 69.0811 10.9871 759 130.963 635.584 489.698
1182 0 72.0552 11.63 838 129.944 635.84 485.906
1183 0 77.1478 11.5622 892 129.352 635.744 486.639
1184 0 77.0578 11.965 922 129.158 635.219 485.299
1185 0 81.0714 11.3234 918 131.703 635.772 483.757
1186 0 81.2001 10.7635 874 135.391 635.659 482.677
1187 0 83.1077 11.3828 946 136.496 636.109 480.382
1188 0 89.2042 12.6452 1128 131.807 635.333 479.874
1189 0 91.1701 11.6376 1061 134.907 635.264 480.348
1190 0 91.1566 12.0123 1095 134.939 635.495 476.681
1191 0 96.2406 10.6088 1021 137.378 634.816 473.73
1192 0 101.28 11.4534 1160 132.897 634.712 474.331
1193 0 102.121 10.8401 1107 130.444 634.657 472.749
1194 0 101.25 11.1506 1129 134.092 634.077 473.08
1195 0 107.284 11.4463 1228 133.296 634.133 468.081
1196 1 59.1636 9.76952 578 129.849 633.863 494.145
1197 0 62.1429 8.97931 558 126.695 633.803 494.052
1198 0 64.0988 11.2171 719 118.021 634.242 495.05
1199 0 68.0806 12.7349 867 109.602 635.407 492.629
1200 0 67.2769 10.5831 712 116.142 635.346 491.431
1201 0 69.1989 11.5898 802 115.005 635.469 490.804
1202 0 71.1837 11.8286 842 114.899 635.943 490.609
1203 0 72.172 11.8606 856 117.256 635.329 489.145
1204 0 76.1714 12.1174 923 116.216 635.456 489.636
1205 0 75.1529 11.776 885 119.007 635.194 488.386
1206 0 79.1656 13.7939 1092 113.027 635.132 486.27
1207 0 84.235 12.477 1051 116.733 635.49 484.6
1208 0 84.3196 12.2036 1029 114.754 635.022 480.047
1209 0 86.181 12.7522 1099 120.374 633.673 481.327
1210 0 89.0968 12.6604 1128 119.31 632.051 478.988
1211 0 92.3014 13.4234 1239 117.014 632.712 481.355
1212 0 94.348 12.0935 1141 122.042 633.379 476.857
1213 0 97.4141 12.5341 1221 119.486 633.844 477.376
1214 0 102.247 12.6262 1291 117.012 634.989 473.38
1215 0 104.525 11.8249 1236 120.297 634.32 471.374
1216 0 107.573 13.377 1439 121.887 634.234 466.327
1217 1 55.4971 11.5141 639 126.133 634.031 492.754
1218 0 56.1327 9.99417 561 119 635.711 495.775
1219 0 59.1823 12.5882 745 112.862 635.47 495.954
1220 0 61.1659 12.6868 776 112.611 634.889 495.039
1221 0 63.1966 12.0734 763 113.984 635.477 494.548
1222 0 65.1586 12.6307 823 112.843 634.951 492.836
1223 0 68.1958 11.7309 800 115.047 634.242 491.939
1224 0 70.1717 12.3697 868 114.4 634.495 488.787
1225 0 72.2077 12.8241 926 113.7 634.886 487.964
1226 0 74.1336 12.9631 961 113.792 634.922 486.65
1227 0 78.2221 12.8097 1002 113.926 635.092 485.998
1228 0 79.1539 12.9116 1022 114.479 635.504 485.29
1229 0 83.2138 12.582 1047 113.097 635.235 482.926
1230 0 84.1374 13.6206 1146 111.642 635.003 482.289
1231 0 87.315 13.2967 1161 111.646 634.757 480.602
1232 0 89.1782 12.8507 1146 112.182 634.536 481.675
1233 0 90.2677 12.2635 1107 114.257 634.357 479.435
1234 0 96.2278 13.1667 1267 112.657 634.744 477.693
1235 0 98.2719 12.6893 1247 115.8 634.107 475.093
1236 0 101.213 14.4152 1459 111.718 634.631 473.498
1237 1 55.1585 11.4942 634 114.718 635.003 499.506
1238 0 56.1729 12.2479 688 111.75 635.387 479.41
1239 0 58.1571 11.211 652 113.512 635.543 492.353
1240 0 61.1993 12.4184 760 110.345 635.103 493.613
1241 0 63.2829 12.136 768 110.246 635.266 491.658
1242 0 63.3046 12.7479 807 110.371 635.119 490.943
1243 0 64.1449 10.7725 691 115.245 635.417 491.342
1244 0 64.0937 12.0761 774 112.597 634.339 488.336
1245 0 69.2611 12.7922 886 108.323 634.607 490.147
1246 0 70.2081 12.3917 870 109.947 634.774 489.375
1247 0 73.1639 12.9845 950 107.721 634.258 488.999
1248 0 73.1371 12.4697 912 108.442 634.513 488.178
1249 0 79.1489 13.6957 1084 105.531 634.982 484.802
1250 0 82.1589 13.6443 1121 105.313 634.575 485.807
1251 0 84.1242 12.85 1081 107.942 633.628 483.416
1252 0 86.2227 13.8015 1190 105.639 633.875 482.602
1253 0 87.1666 12.3098 1073 110.268 633.935 481.849
1254 0 91.1498 13.8673 1264 106.96 634.091 478.997
1255 0 92.1489 12.5883 1160 109.561 634.173 477.41
1256 0 96.2008 12.5051 1203 108.765 634.078 477.298
1257 1 53.0371 11.1997 594 114.13 634.684 497.165
1258 0 53.0365 11.0113 584 113.005 633.978 493.17
1259 0 55.3281 11.3505 628 108.124 633.22 491.236
1260 0 59.0256 12.7911 755 100.468 631.743 499.086
1261 0 58.1483 12.6401 735 102.852 631.893 496.176
1262 0 63.0938 12.7429 804 101.562 632.362 496.845
1263 0 61.0961 11.5719 707 106.385 631.893 494.518
1264 0 66.0432 12.507 826 103.879 632.501 494.63
1265 0 66.053 12.6716 837 105.569 632.271 491.72
1266 0 67.1896 12.4424 836 106.39 631.89 488.752
1267 0 70.3918 12.8566 905 106.286 631.378 487.231
1268 0 73.1882 12.4747 913 106.361 631.844 487.182
1269 0 75.1631 13.3709 1005 105.359 634.782 489.507
1270 0 77.0827 14.6336 1128 103.747 633.869 488.272
1271 0 81.0701 14.0372 1138 104.7 634.279 484.405
1272 0 85.058 14.3784 1223 105.142 634.466 474.523
1273 0 87.1302 14.1053 1229 106.369 635.229 473.914
1274 0 90.1446 13.6115 1227 106.792 634.734 480.013
1275 0 94.1479 14.3498 1351 104.675 634.962 478.105
1276 0 97.1972 14.0951 1370 106.798 634.453 475.557
1277 0 100.174 13.5963 1362 108.117 634.598 476.811
1278 0 104.412 13.2839 1387 108.403 633.032 471.734
1279 0 113.252 11.4612 1298 112.044 632.915 455.744
1280 1 55.1691 13.8121 762 104.852 634.749 484.501
1281 0 56.1334 12.31 691 108.197 634.242 487.57
1282 0 58.2255 12.6749 738 106.106 634.863 496.458
1283 0 61.2067 12.9724 794 105.27 634.288 495.984
1284 0 62.2059 13.3428 830 105.99 634.17 495.141
1285 0 63.1726 12.7112 803 108.521 634.137 494.912
1286 0 64.2028 12.2113 784 110.568 634.152 492.281
1287 0 68.0955 14.0978 960 106.427 634.266 491.598
1288 0 69.2147 12.8441 889 111.551 634.937 490.268
1289 0 71.1772 13.2346 942 111.338 634.377 489.579
1290 0 73.1107 13.5001 987 111.617 634.068 487.345
1291 0 75.2352 13.3847 1007 112.637 634.505 486.715
1292 0 77.1553 13.3108 1027 112.752 634.041 485.735
1293 0 80.161 13.9095 1115 111.98 634.3 483.99
1294 0 83.1054 13.3325 1108 113.641 634.409 482.183
1295 0 86.1122 14.5392 1252 111.451 634.204 483.788
1296 0 88.1286 14.1611 1248 112.161 633.946 481.58
1297 0 90.2663 14.2024 1282 112.969 634.341 480.821
1298 0 94.341 15.3274 1446 111.292 633.91 479.34
1299 0 97.1848 14.1277 1373 115.999 634.031 477.45
1300 0 99.1244 14.6583 1453 117.558 634.251 474.466
1301 0 103.225 14.4635 1493 116.076 634.399 475.817
1302 0 105.185 14.5457 1530 121.192 634.263 474.115
1303 0 109.311 14.0334 1534 123.133 634.452 470.905
1304 1 57.1763 10.9311 625 120.891 634.544 496.598
1305 0 60.218 12.4049 747 113.27 633.697 493.497
1306 0 61.198 12.0102 735 114.238 633.165 494.343
1307 0 63.17 12.5218 791 112.554 631.992 494.219
1308 0 66.0599 12.2919 812 112.309 632.446 493.653
1309 0 65.0696 10.3581 674 116.239 632.375 494.789
1310 0 69.1463 11.5986 802 114.736 635.035 485.113
1311 0 71.2488 12.2669 874 113.613 634.656 480.279
1312 0 75.2303 12.7076 956 111.406 634.893 484.653
1313 0 77.1638 12.0912 933 113.305 634.641 485.311
1314 0 78.1784 11.5249 901 113.238 635.043 487.009
1315 0 80.0908 11.7492 941 113.389 633.607 487.181
1316 0 84.0786 12.0245 1011 113.047 633.722 483.553
1317 0 86.1269 12.6906 1093 110.354 634.379 485.64
1318 0 90.2113 13.1137 1183 110.834 635.109 478.958
1319 0 94.0987 13.167 1239 111.011 634.684 477.497
1320 0 98.2213 13.2558 1302 110.674 634.609 478.243
1321 0 100.121 12.9044 1292 113.156 634.355 475.87
1322 0 101.108 11.8685 1200 117.096 634.194 471.965
1323 1 55.0694 11.6943 644 112.579 635.075 497.766
1324 0 56.2107 12.6844 713 109.837 634.951 497.502
1325 0 60.1249 11.8088 710 106.773 634.797 496.865
1326 0 60.1428 12.2874 739 108.594 634.445 495.483
1327 0 62.1694 12.4016 771 107.435 634.054 493.572
1328 0 65.171 12.659 825 104.407 633.902 492.253
1329 0 67.1013 12.7717 857 100.641 633.812 491.756
1330 0 68.172 11.3096 771 104.348 633.896 487.772
1331 0 71.2181 12.3283 878 102.083 634.028 488.205
1332 0 72.0528 11.5055 829 104.669 634.179 486.671
1333 0 76.0924 11.1969 852 106.911 633.955 484.484
1334 0 76.1004 11.4717 873 107.8 634.025 482.446
1335 0 80.1314 12.6542 1014 105.274 633.793 483.438
1336 0 85.0569 11.8039 1004 107.473 634.136 482.233
1337 0 86.1169 12.5875 1084 107.109 634.044 479.242
1338 0 88.1704 12.249 1080 109.131 633.697 477.944
1339 0 90.0962 12.4645 1123 109.413 633.142 477.22
1340 0 95.1778 12.4924 1189 107.581 633.652 479.464
1341 0 97.1821 11.9775 1164 109.361 633.515 476.595
1342 0 100.146 14.7185 1474 104.009 633.102 474.229
1343 0 102.261 12.6441 1293 108.708 633.268 473.152
1344 0 106.196 13.6823 1453 107.407 633.207 469.218
1345 0 108.232 12.7597 1381 111.464 633.274 468.248
1346 0 113.316 14.4198 1634 107.672 632.54 465.176
1347 0 118.451 14.0987 1670 109.493 632.932 462.184
1348 0 121.45 13.1083 1592 115.957 632.275 461.232
1349 1 65.3622 10.5872 692 108.454 632.445 490.488
1350 0 68.161 10.5632 720 107.483 634.594 490.889
1351 0 71.1586 11.9592 851 104.504 635.093 489.407
1352 0 71.2083 11.4734 817 106.632 634.903 488.633
1353 0 75.2224 13.3604 1005 102.902 634.861 488.442
1354 0 77.086 12.2461 944 107.31 634.283 487.046
1355 0 80.0537 12.8789 1031 107.568 634.624 486.354
1356 0 82.2333 11.9295 981 110.258 633.865 483.833
1357 0 85.3667 11.6322 993 110.502 633.623 477.403
1358 0 89.4404 13.2938 1189 106.902 632.909 478.414
1359 0 90.4889 11.8799 1075 110.351 632.742 479.727
1360 0 93.6565 11.6276 1089 112.724 632.444 474.074
1361 0 96.7012 12.1612 1176 110.766 632.628 471.319
1362 0 99.892 12.8239 1281 109.596 632.149 469.833
1363 0 100.656 11.9914 1207 110.665 631.882 470.717
1364 0 104.697 11.9775 1254 110.75 632.064 468.915
1365 0 108.609 12.8259 1393 109.193 632.126 466.447
1366 0 111.599 12.6704 1414 108.537 632.742 464.402
1367 0 116.499 12.9529 1509 108.507 632.665 463.001
1368 0 118.799 11.8688 1410 112.797 632.738 462.128
1369 0 122.722 12.3287 1513 110.629 632.555 462.52
1370 0 124.589 12.4409 1550 113.426 632.308 456.265
1371 0 130.589 12.704 1659 112.853 632.174 456.514
1372 0 135.531 13.1778 1786 111.998 632.188 455.058
1373 0 139.612 12.9717 1811 114.001 632.676 449.178
1374 0 144.514 13.9779 2020 112.577 632.656 447.756
1375 0 149.741 14.1377 2117 113.972 632.201 442.967
1376 1 82.5686 13.8551 1144 107.453 632.47 479.811
1377 0 83.4179 12.8989 1076 109.06 632.902 480.415
1378 0 87.3911 13.6627 1194 107.532 632.972 482.618
1379 0 89.5452 12.396 1110 110.241 632.944 483.157
1380 0 93.3193 12.8269 1197 111.825 633.552 481.007
1381 0 97.4712 13.0705 1274 111.302 633.283 478.933
1382 0 95.2772 10.8735 1036 119.313 632.931 477.43
1383 0 99.4893 12.8054 1274 115.184 631.887 474.198
1384 0 103.589 12.6461 1310 116.095 631.899 471.767
1385 0 106.422 13.6063 1448 115.347 631.769 469.154
1386 0 107.652 11.788 1269 120.342 632.864 466.826
1387 0 109.698 13.5827 1490 117.632 632.375 465.154
1388 0 112.719 12.3582 1393 120.08 632.778 465.663
1389 0 118.916 13.5222 1608 117.024 632.799 462.034
1390 0 120.657 12.0673 1456 119.942 632.411 461.345
1391 0 124.555 12.91 1608 119.136 633.08 459.766
1392 0 129.634 11.7022 1517 121.646 632.347 458.496
1393 0 136.616 14.032 1917 116.644 632.319 452.332
1394 0 141.708 13.7748 1952 116.102 632.044 452.777
1395 1 76.331 11.044 843 115.53 632.069 482.198
1396 0 80.2573 12.6219 1013 110.643 633.07 484.36
1397 0 83.4385 12.5002 1043 111.174 633.616 484.576
1398 0 84.3451 12.354 1042 111.877 632.743 481.79
1399 0 88.3047 13.1024 1157 109.443 633.271 481.406
1400 0 89.3204 12.0241 1074 113.143 633.291 479.359
1401 0 95.3844 12.392 1182 109.1 633.639 478.434
1402 0 98.1861 12.5883 1236 104.56 633.025 478.054
1403 0 100.092 11.2796 1129 107.87 633.003 474.748
1404 0 103.174 11.466 1183 108.765 632.759 472.145
1405 0 105.229 10.1873 1072 111.317 632.671 469.975
1406 0 108.349 11.6476 1262 109.407 632.672 470.742
1407 0 111.216 12.7139 1414 107.431 632.161 467.805
1408 0 114.31 13.2622 1516 106.875 632.306 466.307
1409 0 115.206 11.8744 1368 113.554 632.254 459.225
1410 0 121.17 10.8608 1316 115.691 631.746 460.59
1411 0 127.234 13.1333 1671 111.12 631.879 458.754
1412 0 131.292 11.5544 1517 115.329 632.208 455.134
1413 1 74.1285 11.0484 819 106.625 633.477 486.799
1414 0 76.0524 11.9654 910 106.67 633.278 482.74
1415 0 77.1531 12.054 930 105.654 633.719 484.326
1416 0 79.0394 12.4621 985 106.029 633.531 482.955
1417 0 80.0473 11.768 942 108.648 633.1 482.24
1418 0 84.0831 12.0357 1012 108.738 633.351 478.486
1419 0 85.1559 11.3439 966 111.055 632.591 476.289
1420 0 92.1554 13.9113 1282 104.301 633.988 474.693
1421 0 93.21 12.7991 1193 108.408 633.764 472.447
1422 0 96.2035 13.4299 1292 107.915 634.344 472.408
1423 0 96.1625 12.5309 1205 112.326 634.367 470.621
1424 0 101.161 12.8507 1300 109.663 632.176 470.835
1425 0 102.256 12.41 1269 111.796 631.845 469.957
1426 0 105.207 11.6533 1226 115.127 632.469 467.182
1427 0 108.24 11.4468 1239 116.151 632.851 466.367
1428 0 114.331 12.8661 1471 113.124 633.218 464.946
1429 0 114.254 12.5947 1439 116.063 632.281 461.171
1430 0 116.181 12.2309 1421 117.173 632.383 459.735
1431 1 64.0511 12.2715 786 112.139 631.018 488.763
1432 0 65.2008 11.2422 733 112.209 631.783 488.606
1433 0 68.2867 11.9203 814 108.953 631.587 487.289
1434 0 66.0832 11.0467 730 112 630.497 486.527
1435 0 71.1499 11.9045 847 109.498 631.567 484.793
1436 0 71.1331 12.1181 862 110.313 631.007 484.887
1437 0 74.115 12.629 936 110.878 630.916 482.645
1438 0 77.0914 12.3619 953 110.983 630.896 480.304
1439 0 79.2209 12.3579 979 110.575 630.963 481.524
1440 0 79.0973 12.0611 954 111.973 631.435 478.427
1441 0 82.1178 12.0315 988 111.391 631.102 480.617
1442 0 84.1147 11.8529 997 112.985 631.493 478.132
1443 0 86.1396 12.7816 1101 111.602 631.86 476.404
1444 0 89.2043 13.5195 1206 110.054 631.973 475.931
1445 0 93.2213 13.1515 1226 111.693 632.383 475.56
1446 0 94.3048 12.1733 1148 115.814 632.632 475.821
1447 0 96.0802 12.1669 1169 116.145 633.671 473.032
1448 0 100.269 11.0104 1104 117.17 632.668 473.512
1449 0 102.115 11.6829 1193 115.6 632.825 473.12
1450 0 105.168 11.011 1158 117.978 634.386 467.657
1451 0 107.134 10.9116 1169 119.283 634.827 467.327
1452 0 115.299 13.4519 1551 111.158 633.753 461.642
1453 1 59.1579 10.6326 629 117.199 634.765 491.83
1454 0 57.1578 9.5525 546 106.095 634.725 482.015
1455 0 58.2284 9.34252 544 101.033 634.134 485.704
1456 0 62.129 10.5587 656 98.3491 634.64 485.762
1457 0 62.283 10.2436 638 101.508 634.136 483.288
1458 0 67.2925 10.9671 738 98.668 634.714 483.957
1459 0 67.2199 11.0235 741 99.9825 634.374 480.553
1460 0 72.0797 11.9035 858 107.041 635.35 484.918
1461 0 75.0777 12.2273 918 106.621 635.426 485.903
1462 0 77.1478 11.8603 915 107.703 635.483 484.178
1463 0 81.1235 12.4995 1014 105.55 635.51 482.921
1464 0 84.258 11.5241 971 108.018 635.035 482.288
1465 0 83.2097 9.61426 800 113.46 634.663 483.14
1466 0 88.2539 12.2487 1081 108.226 635.004 477.992
1467 0 91.2065 12.532 1143 106.906 634.915 478.927
1468 0 94.3978 11.8117 1115 110.267 634.687 476.683
1469 0 96.1749 11.6766 1123 115.371 632.776 476.83
1470 0 97.2592 12.5027 1216 115.16 634.566 469.919
1471 0 101.267 12.3041 1246 116.181 634.64 467.485
1472 1 57.1367 10.7987 617 103.558 635.861 493.003
1473 0 55.4317 9.74172 540 104.861 634.824 489.872
1474 0 59.2371 11.3105 670 113.433 635.219 493.581
1475 0 60.2185 10.4951 632 115.97 635.359 493.209
1476 0 60.2448 10.5735 637 116.909 635.287 492.364
1477 0 64.2057 10.9025 700 115.897 635.389 490.826
1478 0 67.2217 13.21 888 109.652 635.19 491.079
1479 0 69.1983 12.3124 852 110 635.134 492.016
1480 0 70.2489 13.0251 915 111.055 635.351 487.625
1481 0 71.2048 11.2773 803 115.153 635.227 487.035
1482 0 74.2186 11.3179 840 114.233 635.744 488.542
1483 0 78.3382 14.1183 1106 108.133 635.528 485.816
1484 0 81.2262 12.4221 1009 111.802 635.651 485.454
1485 0 84.1232 12.8145 1078 111.785 635.851 483.625
1486 0 84.2128 12.8009 1078 112.852 635.506 481.576
1487 0 87.2521 12.6759 1106 113.341 635.312 478.914
1488 0 90.2879 11.5741 1045 116.575 634.583 480.267
1489 0 93.2848 12.2421 1142 114.578 634.637 478.368
1490 0 97.2806 13.384 1302 112.31 634.351 476.154
1491 1 51.0087 10.6844 545 108.947 636.028 501.051
1492 0 52.0781 11.5596 602 109.944 635.435 497.914
1493 0 55.1212 12.8263 707 108.313 634.825 496.912
1494 0 53.2588 11.0968 591 112.245 634.646 494.838
1495 0 59.1786 12.8256 759 109.436 630.905 498.034
1496 0 59.3087 12.3422 732 112.469 630.969 496.12
1497 0 58.0559 10.955 636 117.285 631.324 493.127
1498 0 62.1958 12.9269 804 111.611 631.748 495.164
1499 0 62.0849 12.3541 767 114.816 631.478 495.248
1500 0 66.2019 11.6613 772 116.942 631.671 490.01
1501 0 68.1062 13.1266 894 113.01 630.865 491.213
1502 0 70.3394 13.705 964 111.294 631.394 491.046
1503 0 72.1039 13.0229 939 113.643 630.652 490.101
1504 0 72.0672 13.1266 946 106.402 631.759 488.325
1505 0 73.0881 13.5453 990 108.33 632.022 488.358
1506 0 76.2191 14.5502 1109 106.792 631.855 488.616
1507 0 76.1228 13.0184 991 114.615 632.232 486.269
1508 0 76.2313 13.7083 1045 115.925 632.408 485.657
1509 0 76.1039 12.68 965 119.91 631.724 487.092
1510 0 81.1514 13.7274 1114 117.221 631.964 485.243
1511 0 81.1627 13.7132 1113 117.338 632.28 483.19
1512 0 85.1487 13.2239 1126 118.472 631.996 472.999
1513 0 88.32 14.4248 1274 113.636 631.531 482.811
1514 0 90.351 13.7243 1240 113.825 632.281 481.796
1515 0 92.2831 14.228 1313 113.186 632.74 479.01
1516 0 93.2313 13.0321 1215 116.238 631.716 479.525
1517 0 98.3236 14.8184 1457 110.668 632.247 477.918
1518 1 51.0907 10.863 555 117.389 631.686 500.762
1519 0 53.4721 11.5761 619 116.01 632.275 499.913
1520 0 55.2964 12.5867 696 107.33 633.468 494.968
1521 0 56.1678 12.3736 695 105.879 634.708 500.468
1522 0 59.1934 12.1804 721 107.348 633.621 498.277
1523 0 60.2572 11.6667 703 109.394 633.986 498.428
1524 0 61.2079 12.4657 763 110.05 634.063 497.163
1525 0 64.2468 12.094 777 111.396 634.26 497.7
1526 0 66.2869 12.461 826 113.485 634.356 494.226
1527 0 67.37 12.6317 851 115.503 634.147 492.533
1528 0 70.2597 14.2898 1004 118.031 632.372 490.627
1529 0 72.3292 15.07 1090 117.14 632.608 489.576
1530 0 74.3776 13.7676 1024 122.125 632.049 490.296
1531 0 77.2635 15.0265 1161 119.322 632.309 489.859
1532 0 78.2612 14.6944 1150 122.235 632.337 488.334
1533 0 80.206 14.3007 1147 125.599 632.165 485.827
1534 0 82.1819 12.8982 1060 130.119 632.853 484.208
1535 0 85.2833 12.8161 1093 125.605 632.081 482.31
1536 0 86.1573 11.8388 1020 128.75 632.56 481.611
1537 0 89.1845 13.1413 1172 125.268 632.793 479.818
1538 1 46.097 10.8684 501 115.261 633.653 503.902
1539 0 46.2474 11.006 509 117.265 634.104 502.627
1540 0 50.1486 13.0213 653 123.201 634.075 503.695
1541 0 50.0435 11.47 574 124.491 630.512 499.064
1542 0 51.1452 12.5525 642 122.713 630.305 499.055
1543 0 50.03 11.9528 598 126.191 630.055 498.381
1544 0 52.0656 10.7749 561 129.87 630.651 496.119
1545 0 52.0393 11.4337 595 129.766 630.455 495.615
1546 0 55.0732 12.5288 690 126.659 630.096 495.662
1547 0 56.026 12.9047 723 126.279 630.297 494.939
1548 0 58.0371 11.7856 684 128.275 629.405 494.633
1549 0 59.0243 11.8595 700 128.693 629.794 493.467
1550 0 61.0619 11.3491 693 129.703 629.541 492.442
1551 0 64.0557 12.052 772 126.929 629.447 492.653
1552 0 66.0231 12.7834 844 126.077 628.993 489.226
1553 0 68.1972 12.3172 840 127.34 630.3 488.169
1554 0 69.105 11.9673 827 128.207 629.963 488.365
1555 0 73.042 13.2526 968 124.146 630.381 485.7
1556 0 74.1811 12.1864 904 120.335 631.338 485.045
1557 0 79.1293 12.3974 981 116.991 631.935 485.205
1558 0 81.1082 11.8484 961 118.549 632.057 483.356
1559 0 82.0872 12.974 1065 117.982 632.19 483.875
1560 0 88.2491 14.4591 1276 121.174 632.164 482.967
1561 0 91.1047 14.0937 1284 121.789 633.23 483.241
1562 0 94.1264 13.1525 1238 123.444 632.334 481.878
1563 1 48.0783 10.4205 501 130.798 633.204 503.006
1564 0 50.1509 12.6618 635 125.743 633.373 499.928
1565 0 51.115 12.6382 646 125.372 633.311 499.816
1566 0 53.0652 14.0959 748 120.707 633.686 499.206
1567 0 54.0405 12.0465 651 127.298 633.273 499.304
1568 0 57.0439 12.9725 740 122.488 633.455 499.318
1569 0 59.0275 12.401 732 124.567 633.762 496.579
1570 0 60.0831 13.7809 828 121.589 633.512 495.099
1571 0 63.0562 13.1153 827 124.345 632.866 496.006
1572 0 66.0651 12.5028 826 126.192 632.285 495.282
1573 0 68.0595 12.7682 869 125.842 633 493.594
1574 0 69.1301 13.2214 914 124.868 632.591 493.167
1575 0 73.0337 14.062 1027 122.594 632.376 491.124
1576 0 75.1559 13.5851 1021 124.797 632.927 490.684
1577 0 76.1663 13.5756 1034 125.44 632.315 489.772
1578 0 77.0937 13.2955 1025 128.441 631.896 489.017
1579 0 80.0796 14.6479 1173 124.975 632.334 486.696
1580 0 81.3022 13.1239 1067 129.555 631.45 485.127
1581 0 86.2592 13.784 1189 124.918 631.828 482.998
1582 0 87.3104 14.5229 1268 125.338 631.696 479.859
1583 0 89.436 14.5355 1300 124.973 632.14 480.246
1584 0 94.242 14.1444 1333 123.556 630.87 477.528
1585 0 95.2736 13.414 1278 125.8 631.59 474.957
1586 0 99.2257 14.1999 1409 121.937 631.749 474.407
1587 1 51.0256 10.5437 538 126.448 632.729 496.994
1588 0 51.1735 11.4903 588 119.25 632.347 494.214
1589 0 53.1295 12.9683 689 118.485 631.835 491.991
1590 0 57.022 12.0831 689 128.958 632.694 497.372
1591 0 58.0229 13.2017 766 126.672 632.61 494.638
1592 0 63.0421 13.2451 835 124.88 632.775 494.704
1593 0 64.0538 14.1288 905 122.706 632.639 493.249
1594 0 67.0526 14.7496 989 120.797 633.01 491.189
1595 0 68.0696 14.6027 994 121.207 632.948 492.473
1596 0 73.1242 15.0703 1102 114.82 633.226 491.426
1597 0 72.1421 13.4873 973 121.893 632.416 489.112
1598 0 74.0697 12.7718 946 126.06 632.627 488.538
1599 0 78.0551 13.0805 1021 125.894 632.844 483.088
1600 0 80.1357 13.4272 1076 124.49 633.073 484.009
1601 0 81.112 14.2766 1158 122.831 632.341 484.437
1602 0 86.4204 14.4989 1253 122.031 631.86 480.817
1603 0 85.2596 14.1568 1207 118.294 631.943 478.413
1604 0 90.2021 14.6005 1317 115.809 631.636 475.348
1605 0 93.2603 13.3176 1242 123.966 631.214 455.406
1606 0 96.2502 13.7766 1326 119.569 631.783 466.905
1607 0 99.2926 13.4451 1335 118.987 633.052 471.916
1608 1 50.5283 11.0631 559 105.921 632.558 499.417
1609 0 53.1895 11.3556 604 107.381 632.356 499
1610 0 53.0518 12.1202 643 106.855 632.407 497.054
1611 0 56.1251 11.0468 620 106.29 631.247 499.602
1612 0 59.1756 11.6433 689 105.881 632.283 495.374
1613 0 60.1384 12.9535 779 102.944 632.068 493.248
1614 0 64.0849 13.2324 848 102.368 631.621 493.613
1615 0 66.0804 12.9388 855 103.146 632.427 495.184
1616 0 68.0967 13.1431 895 102.638 632.201 494.315
1617 0 68.114 11.7597 801 105.745 633.17 492.519
1618 0 71.1349 13.5236 962 101.692 633.486 490.875
1619 0 74.2027 12.7758 948 102.801 632.423 489.463
1620 0 76.212 11.5074 877 105.454 632.502 489.286
1621 0 78.4132 13.3906 1050 103.17 632.89 485.636
1622 0 79.2565 11.7341 930 107.111 632.458 482.946
1623 0 84.5842 13.9506 1180 102.664 632.478 482.469
1624 0 85.396 13.8531 1183 104.045 631.925 482.799
1625 0 88.5263 13.1712 1166 105.454 631.315 481.189
1626 0 89.2845 13.037 1164 105.887 631.248 478.438
1627 1 46.145 11.0955 512 102.686 632.754 501.564
1628 0 48.1238 9.87037 475 104.823 632.432 500.547
1629 0 51.2529 13.5992 697 97.6356 632.659 500.838
1630 0 50.1819 11.8967 597 102.533 632.987 501.25
1631 0 53.1462 12.3433 656 101.851 632.502 498.7
1632 0 55.1397 11.353 626 104.661 632.778 496.642
1633 0 57.1458 12.8268 733 101.944 632.319 497.172
1634 0 59.0756 12.6279 746 102.465 632.192 496.831
1635 0 59.2823 11.7573 697 100.593 631.793 488.528
1636 0 59.4126 11.8325 703 101.196 632.124 489.259
1637 0 63.3232 11.3702 720 102.05 631.783 487.619
1638 0 64.4299 11.3146 729 102.82 632.184 488.775
1639 0 68.2771 12.8008 874 99.8021 631.793 488.989
1640 0 72.2229 12.8214 926 99.7149 631.928 487.828
1641 0 72.5562 13.1209 952 101.772 631.891 486.151
1642 0 74.4665 12.3814 922 104.963 632.292 483.728
1643 0 78.4649 11.1515 875 106.555 632.123 484.187
1644 1 40.1325 10.4653 420 101.771 632.786 501.295
1645 0 44.1156 9.79245 432 107.174 632.931 504.405
1646 0 44.158 12.3421 545 111.075 632.661 504.941
1647 0 47.1248 12.138 572 92.8916 633.322 504.045
1648 0 48.0991 11.3931 548 107.173 633.312 502.471
1649 0 49.0962 11.8543 582 100.232 632.916 498.881
1650 0 50.066 12.144 608 106.454 633.257 499.263
1651 0 49.0915 11.5295 566 108.36 633.332 501.184
1652 0 54.0803 12.3705 669 105.247 633.003 499.398
1653 0 56.0545 12.2381 686 104.494 632.672 500.985
1654 0 54.045 12.6191 682 106.441 633.048 498.016
1655 0 56.0821 12.1964 684 106.361 632.462 498.367
1656 0 57.1755 11.4385 654 108.209 633.369 496.124
1657 0 60.3256 12.7309 768 105.23 632.542 495.931
1658 0 62.1779 13.1397 817 104.901 632.774 493.957
1659 0 64.0694 12.0338 771 107.754 632.559 494.327
1660 0 66.2295 12.6228 836 106.15 632.261 491.829
1661 0 70.1266 13.0764 917 105.064 632.51 490.884
1662 0 71.1097 12.0659 858 106.834 632.307 492.05
1663 0 75.1151 12.8469 965 105.385 632.374 489.278
1664 0 77.184 13.5002 1042 104.249 631.696 488.054
1665 0 79.2173 12.1691 964 108.184 631.577 487.023
1666 0 82.1725 13.2404 1088 106.749 631.974 483.394
1667 0 85.1782 13.0432 1111 106.736 632.383 484.474
1668 0 85.1249 11.9002 1013 110.604 631.731 481.628
1669 0 90.2301 11.6258 1049 109.766 632.144 481.152
1670 0 94.1253 13.4395 1265 107.006 632.319 477.535
1671 1 49.1095 10.9144 536 112.653 632.688 495.377
1672 0 49.0976 10.4282 512 109.533 632.506 494.52
1673 0 51.0746 11.5321 589 97.4244 631.414 491.482
1674 0 51.0469 10.5785 540 100.076 631.956 491.361
1675 0 54.1416 11.8208 640 97.8422 631.911 491.445
1676 0 55.0764 12.1649 670 96.509 630.894 489.157
1677 0 58.4338 9.8402 575 99.6313 631.515 489.169
1678 0 60.2724 10.0875 608 99.875 631.326 489.079
1679 0 63.3009 11.2479 712 100.171 630.992 487.083
1680 0 66.2802 12.8243 850 96.9012 631.74 483.435
1681 0 68.2487 12.5424 856 98.0771 631.651 484.728
1682 0 70.4957 13.3909 944 96.9682 631.351 483.132
1683 0 71.3984 12.2272 873 100.96 631.2 481.483
1684 0 74.3491 12.6565 941 99.9511 631.156 479.58
1685 0 77.272 11.4919 888 102.261 631.458 480.394
1686 0 80.2606 14.1165 1133 98.6505 631.383 478.629
1687 0 82.2861 12.7482 1049 101.48 631.933 478.594
1688 0 86.3329 14.0966 1217 99.4035 631.988 475.68
1689 0 91.3042 13.0443 1191 101.981 632.151 474.13
1690 1 44.1494 9.98882 441 100.837 631.512 498.837
1691 0 48.0815 11.9173 573 111.473 633.23 503.147
1692 0 50.0383 13.3897 670 108.842 633.464 500.331
1693 0 50.0213 12.3547 618 113.037 633.07 499.529
1694 0 54.0391 13.0091 703 111.553 633.195 495.384
1695 0 54.0558 13.93 753 110.065 632.795 498.983
1696 0 56.101 11.9784 672 114.293 633.19 498.253
1697 0 60.0404 13.5409 813 108.876 632.594 497.255
1698 0 59.1696 13.4866 798 111.36 633.066 495.306
1699 0 63.0843 14.8214 935 107.045 632.646 495.687
1700 0 64.0718 14.9052 955 107.88 633.139 494.224
1701 0 67.1333 14.0467 943 109.22 633.01 492.903
1702 0 68.073 13.4414 915 111.316 632.822 492.588
1703 0 70.1755 13.5232 949 110.855 632.648 488.954
1704 0 73.429 13.5914 998 109.45 630.279 483.18
1705 0 75.282 13.4561 1013 107.187 630.721 479.076
1706 0 78.4799 13.5066 1060 107.459 631.321 485.031
1707 0 83.6557 14.5716 1219 103.454 631.136 484.024
1708 0 86.4258 14.5905 1261 103.978 630.859 482.785
1709 0 87.5175 14.4086 1261 105.136 630.22 480.943
1710 1 46.2793 12.619 584 110.199 630.423 501.045
1711 0 46.4032 12.219 567 111.914 629.787 497.229
1712 0 48.0451 12.4466 598 110.1 631.955 501.622
1713 0 48.0171 12.558 603 111.36 632.638 501.154
1714 0 48.062 11.9637 575 114.264 632.351 499.565
1715 0 51.0421 11.6962 597 113.452 632.603 500.162
1716 0 52.1357 12.1222 632 112.793 632.139 500.68
1717 0 54.1706 13.6421 739 108.832 632.078 499.405
1718 0 56.1621 13.1049 736 111.099 632.16 497.799
1719 0 60.0848 12.8818 774 111.655 631.837 496.05
1720 0 59.0412 13.7192 810 111.426 632.058 495.402
1721 0 60.0565 12.8712 773 115.322 631.561 493.453
1722 0 64.0771 13.3277 854 114.171 632.55 492.489
1723 0 65.0361 12.6545 823 116.169 632.447 485.333
1724 0 69.0864 13.0561 902 114.047 632.5 491.058
1725 0 70.0488 12.9196 905 114.867 632.441 490.779
1726 0 71.1505 13.7174 976 114.636 631.988 489.67
1727 0 73.0894 13.1346 960 116.923 632.041 487.656
1728 0 74.0755 13.0543 967 119.405 632.118 485.306
1729 0 78.1386 14.4615 1130 115.86 632.561 484.195
1730 0 82.129 14.1607 1163 116.355 632.239 484.583
1731 0 81.2043 13.1889 1071 111.38 630.833 467.472
1732 0 78.0853 10.9752 857 111.776 631.303 471.508
1733 0 85.143 12.9664 1104 105.519 630.924 476.24
1734 0 88.225 12.0714 1065 109.94 631.016 478.734
1735 0 90.1033 12.7853 1152 108.929 631.095 472.291
1736 0 93.1707 12.0531 1123 111.345 630.9 469.354
1737 0 97.2451 13.9956 1361 107.667 630.636 470.927
1738 1 51.1327 12.3013 629 112.148 632.191 497.668
1739 0 52.1297 12.4114 647 112.474 632.023 498.199
1740 0 55.1776 13.8462 764 104.662 632.122 498.817
1741 0 56.1805 12.7802 718 109.4 631.418 492.907
1742 0 57.2267 13.1757 754 109.318 632.125 493.595
1743 0 58.2809 13.229 771 108.617 632.058 496.006
1744 0 59.1659 12.203 722 112.566 631.832 496.446
1745 0 62.2059 12.9248 804 111.114 631.276 495.128
1746 0 63.1773 12.4412 786 113.331 631.043 493.447
1747 0 64.2841 12.1959 784 115.776 631.06 492.556
1748 0 69.1129 13.7022 947 111.305 631.136 491.933
1749 0 70.1173 15.0747 1057 108.804 631.155 490.431
1750 0 71.1959 12.5288 892 116.318 632.022 489.888
1751 0 74.1148 14.6529 1086 110.502 631.509 489.31
1752 0 76.1382 13.62 1037 114.755 631.34 485.99
1753 0 80.2475 13.9568 1120 112.767 631.259 486.925
1754 0 81.0715 13.3216 1080 115.316 632.014 485.213
1755 0 86.1466 15.2531 1314 109.618 632.13 482.75
1756 0 88.1095 14.255 1256 110.998 631.976 481.273
1757 1 47.0643 11.1549 525 116.943 632.836 502.956
1758 0 49.1466 12.9816 638 109.94 633.099 500.395
1759 0 49.1702 12.3652 608 112.525 632.26 498.398
1760 0 52.0563 13.3894 697 106.452 632.003 497.808
1761 0 53.1097 12.992 690 107.522 632.21 498.614
1762 0 54.0681 12.2808 664 110.727 632.172 496.69
1763 0 57.0431 13.1479 750 107.275 632.424 495.252
1764 0 59.0249 11.9272 704 110.624 632.146 496.374
1765 0 60.0819 12.716 764 108.704 632.503 496.347
1766 0 63.0569 15.034 948 104.053 632.169 493.336
1767 0 64.114 13.1173 841 107.636 632.669 492.993
1768 0 66.0945 13.0873 865 108.561 632.664 492.608
1769 0 69.149 13.5938 940 107.462 632.583 491.333
1770 0 71.2052 13.6788 974 106.321 633.076 489.576
1771 0 71.0709 12.8463 913 108.485 632.553 487.429
1772 0 76.1008 12.9434 985 106.757 632.784 487.645
1773 0 78.1343 13.2464 1035 105.641 632.39 485.529
1774 0 81.153 12.7783 1037 106.146 632.446 483.611
1775 1 43.0456 10.9884 473 107.121 632.533 505.002
1776 0 43.1143 10.6229 458 108.544 633.247 504.203
1777 0 47.0272 11.5465 543 109.471 632.845 502.114
1778 0 46.0265 11.5586 532 112.282 632.524 500.359
1779 0 47.0748 11.5986 546 111.806 632.707 500.956
1780 0 49.04 12.9282 634 107.503 632.672 498.454
1781 0 53.0835 14.3359 761 104.686 632.664 498.723
1782 0 53.0718 12.6998 674 108.898 633.776 498.013
1783 0 55.0367 12.4099 683 108.593 632.448 498.688
1784 0 57.0704 12.9489 739 107.544 632.991 497.281
1785 0 57.0479 12.919 737 108.533 633.24 495.744
1786 0 59.1075 13.467 796 107.747 633.149 493.035
1787 0 59.1077 12.9425 765 107.822 632.854 494.272
1788 0 64.287 14.6375 941 102.069 632.397 491.426
1789 0 67.0561 12.154 815 108.714 632.004 493.104
1790 0 69.0954 13.6188 941 107.041 632.593 487.8
1791 0 69.0849 12.9696 896 110.297 632.349 488.666
1792 0 73.0824 13.6695 999 107.911 631.735 487.204
1793 0 76.2528 13.9667 1065 107.66 631.973 485.975
1794 0 78.1104 13.7114 1071 109.5 631.578 483.317
1795 1 38.0933 10.3955 396 108.626 631.732 498.553
1796 0 39.2338 10.807 424 104.644 630.816 497.443
1797 0 41.0869 12.2423 503 103.199 631.441 496.487
1798 0 43.0309 11.3872 490 106.71 629.724 496.843
1799 0 47.0509 12.2846 578 109.396 629.067 500.42
1800 0 48.0283 12.2428 588 110.599 629.051 499.9
1801 0 50.0486 13.1872 660 108.814 629.474 499.003
1802 0 50.0108 13.3371 667 109.607 629.12 498.472
1803 0 54.085 14.2553 771 106.799 629.374 498.772
1804 0 54.0732 12.0762 653 113.766 629.354 494.545
1805 0 57.0894 13.33 761 109.33 629.035 497.419
1806 0 57.1072 13.3433 762 110.761 629.454 495.9
1807 0 61.1506 14.1127 863 108.098 629.67 495.036
1808 0 62.0539 12.1991 757 112.919 629.88 495.085
1809 0 65.0387 13.9609 908 107.831 629.71 494.145
1810 0 67.0858 14.0864 945 108.892 629.91 480.94
1811 0 67.0621 12.6301 847 111.576 629.903 492.085
1812 0 71.3479 13.4692 961 109.028 629.482 491.131
1813 0 72.0578 12.7259 917 111.409 629.402 489.353
1814 0 75.0824 13.4386 1009 109.361 629.687 487.52
1815 0 77.1056 13.9938 1079 107.892 629.631 487.258
1816 0 79.0692 12.9001 1020 111.031 629.485 483.986
1817 0 82.2361 13.2059 1086 109.603 629.98 484.897
1818 0 85.1408 13.5658 1155 108.133 629.806 485.179
1819 0 89.0725 14.505 1292 106.668 629.495 482.6
1820 1 47.1284 11.458 540 107.28 630.028 502.044
1821 0 48.0476 12.3003 591 106.347 629.739 501.161
1822 0 49.0841 10.8997 535 108.617 630.279 500.748
1823 0 51.3721 13.0616 671 107.103 630.653 497.627
1824 0 53.2408 11.6076 618 110.854 630.35 498.141
1825 0 56.3859 13.4076 756 105.556 630.115 497.397
1826 0 55.3064 12.4036 686 109.512 630.071 495.81
1827 0 57.2005 11.5209 659 112.263 630.106 495.02
1828 0 61.3304 13.0604 801 107.978 630.749 495.22
1829 0 61.408 11.3503 697 113.415 630.162 491.145
1830 0 64.2292 13.047 838 108.683 630.117 495.483
1831 0 68.2205 13.1339 896 108.262 630.449 492.104
1832 0 70.3336 12.2559 862 109.441 630.121 491.312
1833 0 72.2502 12.6782 916 107.739 629.469 490.436
1834 0 74.2207 11.9239 885 109.037 629.901 488.243
1835 0 77.3402 12.9299 1000 110.623 629.757 475.633
1836 0 79.2787 12.0587 956 108.601 630.653 483.38
1837 0 82.4268 12.4717 1028 111.584 629.978 481.894
1838 0 85.4961 11.5093 984 113.864 630.218 482.249
1839 0 87.4177 12.7892 1118 109.62 630.359 482.264
1840 1 47.2204 12.4311 587 110.942 631.136 497.436
1841 0 49.2836 11.6469 574 111.382 630.916 496.636
1842 0 50.2131 12.2876 617 112.554 629.254 500.517
1843 0 52.1147 11.5515 602 116.229 628.824 498.949
1844 0 54.1449 11.9679 648 113.606 628.961 499.329
1845 0 54.1344 12.1919 660 115.111 628.371 497.936
1846 0 57.0974 13.0479 745 112.409 629.098 497.502
1847 0 59.2326 11.8009 699 114.647 629.046 496.345
1848 0 61.2586 13.8756 850 109.915 628.948 495.125
1849 0 64.1531 13.8886 891 109.392 629.07 493.705
1850 0 67.068 12.7035 852 111.823 628.629 492.785
1851 0 67.273 12.3675 832 113.18 629.562 492.202
1852 0 70.1763 13.3806 939 111.687 628.881 489.285
1853 0 72.2688 13.09 946 112.457 629.699 488.717
1854 0 72.3325 11.9034 861 116.214 629.753 488.098
1855 0 78.4979 12.6118 990 113.738 630.479 485.065
1856 0 78.6756 12.774 1005 114.953 630.495 482.453
1857 0 81.37 10.7656 876 115.454 629.092 477.846
1858 0 83.3577 11.3727 948 113.701 628.667 479.617
1859 0 87.6202 11.9721 1049 112.427 629.756 475.063
1860 0 90.4586 10.8226 979 115.09 628.936 472.792
1861 1 47.1845 9.15555 432 103.271 629.567 498.764
1862 0 50.0426 10.3512 518 107.49 628.9 496.405
1863 0 52.1766 10.5986 553 105.409 632.002 500.89
1864 0 53.2265 12.4938 665 101.982 632.967 498.15
1865 0 55.1433 12.0414 664 104.157 632.236 496.247
1866 0 57.2513 12.6809 726 101.781 632.921 495.446
1867 0 58.2924 12.6603 738 103.043 632.206 495.321
1868 0 61.1353 12.0389 736 106.853 631.948 496.952
1869 0 63.2443 13.0288 824 105.782 631.869 494.858
1870 0 66.2405 13.1641 872 105.094 631.86 494.212
1871 0 67.1362 12.2884 825 107.492 631.419 493.604
1872 0 68.1589 11.9574 815 108.93 631.713 492.768
1873 0 71.1108 11.8407 842 108.512 632.276 493.004
1874 0 72.176 12.4141 896 109.132 631.449 491.508
1875 0 74.114 12.3458 915 109.677 631.685 489.87
1876 0 78.1447 11.8754 928 111.844 631.649 488.823
1877 0 80.2355 12.8497 1031 110.457 631.268 485.834
1878 0 83.2284 12.6639 1054 111.654 632.11 484.847
1879 0 85.1474 11.3568 967 114.645 632.967 483.469
1880 1 44.0417 13.0104 573 115.501 632.56 503.389
1881 0 48.0381 12.9272 621 118.01 633.058 501.593
1882 0 46.0448 10.9024 502 123.386 633.283 501.629
1883 0 50.0514 11.3883 570 125.981 632.991 501.637
1884 0 50.1029 12.2149 612 125.147 632.665 499.768
1885 0 53.0362 13.2928 705 121.818 632.879 498.912
1886 0 56.0618 13.0035 729 121.361 632.166 498.529
1887 0 53.0526 11.3661 603 127.897 632.391 497.149
1888 0 56.1372 13.8055 775 120.615 632.499 495.755
1889 0 59.0187 13.1484 776 121.595 632.362 495.702
1890 0 60.015 13.0301 782 123.221 632.748 494.527
1891 0 61.0811 11.9841 732 126.357 632.485 495.187
1892 0 63.1044 13.6758 863 123.032 632.453 492.424
1893 0 62.1139 11.8975 739 128.834 633.188 491.535
1894 0 67.0929 13.3844 898 124.055 633.335 490.698
1895 0 71.1907 13.3023 947 123.526 632.434 488.622
1896 0 73.1331 14.1933 1038 121.497 632.82 486.381
1897 0 75.0733 13.0672 981 122.98 632.587 484.602
1898 0 77.0793 12.792 986 120.324 632.524 482.669
1899 0 77.0974 12.361 953 122.075 631.872 482.9
1900 1 41.1314 10.3084 424 119.465 631.976 501.972
1901 0 43.207 12.5674 543 110.103 631.733 503.418
1902 0 45.3432 13.2104 599 108.227 631.431 502.748
1903 0 47.2855 12.4774 590 110.397 630.768 501.832
1904 0 49.3559 13.1494 649 109.353 631.014 500.427
1905 0 50.6115 13.08 662 111.912 631.095 498.763
1906 0 51.3212 12.8212 658 116.125 630.626 496.102
1907 0 53.1986 12.7447 678 117.711 630.55 488.718
1908 0 55.1988 13.1343 725 115.716 631.313 496.263
1909 0 54.1757 12.681 687 118.713 630.555 495.68
1910 0 56.3828 13.3019 750 116.891 630.409 494.471
1911 0 59.2021 13.6482 808 115.981 630.431 493.579
1912 0 61.2066 13.2665 812 115.767 630.389 494.951
1913 0 62.1508 13.4833 838 116.479 630.449 493.458
1914 0 63.2741 12.7382 806 118.533 630.649 493.505
1915 0 65.1976 13.298 867 116.744 630.907 493.277
1916 0 68.1968 14.5901 995 113.938 630.813 490.201
1917 0 71.183 14.0764 1002 115.014 630.781 489.823
1918 0 72.1354 14.5005 1046 114.46 631.072 487.661
1919 0 77.1942 13.8482 1069 113.939 631.218 488.039
1920 0 77.4527 12.9111 1000 118.531 631.041 484.175
1921 0 82.1383 14.8408 1219 112.299 631.348 485.92
1922 0 84.2292 13.7245 1156 116.081 631.631 484.886
1923 0 87.3908 14.2349 1244 114.9 631.962 481.555
1924 0 91.408 13.8172 1263 115.587 632.053 481.576
1925 1 45.0858 11.5336 520 111.775 631.96 505.283
1926 0 46.2723 13.3557 618 114.748 631.634 497.568
1927 0 47.3576 13.9576 661 115.402 631.029 494.859
1928 0 49.0839 11.7554 577 117.948 629.307 494.73
1929 0 51.1384 12.4759 638 115.409 629.948 494.408
1930 0 52.0402 12.6633 659 115.61 629.657 493.451
1931 0 55.0332 13.2466 729 114.359 629.745 492.556
1932 0 57.0548 14.5649 831 111.277 629.264 491.851
1933 0 59.0563 13.394 791 116.15 629.279 491.011
1934 0 59.0708 13.0013 768 119.733 629.156 488.625
1935 0 62.0794 13.7405 853 116.509 629.025 486.552
1936 0 66.0521 13.8376 914 114.988 629.228 488.907
1937 0 68.0708 11.5762 788 119.091 628.916 487.472
1938 0 68.0822 12.8668 876 118.437 629.259 485.723
1939 0 73.0279 13.5975 993 115.825 629.565 483.738
1940 0 75.1272 13.1776 990 116.241 629.148 483.988
1941 0 80.0482 13.4794 1079 114.293 629.479 482.445
1942 0 82.098 13.5448 1112 114.541 629.389 481.54
1943 1 39.0566 11.0097 430 112.705 630.502 497.633
1944 0 42.0903 11.2853 475 115.223 630.992 497.202
1945 0 45.0485 12.6086 568 112.004 629.581 498.231
1946 0 44.0411 12.6927 559 113.079 629.583 497.64
1947 0 46.0709 11.5691 533 115.717 629.698 497.189
1948 0 49.1057 11.7094 575 104.511 632.014 498.238
1949 0 51.0717 12.4922 638 103.466 631.255 498.295
1950 0 50.0285 12.4329 622 105.944 630.981 496.415
1951 0 52.0273 12.3205 641 106.31 630.505 497.626
1952 0 53.127 12.1972 648 107.406 630.247 495.298
1953 0 56.0683 14.6429 821 103.156 630.571 494.535
1954 0 56.0234 12.7625 715 108.13 630.585 494.869
1955 0 59.1087 12.9761 767 107.666 630.321 492.211
1956 0 60.097 14.3934 865 106.504 630.591 490.917
1957 0 61.0986 12.5535 767 111.528 630.902 489.439
1958 0 65.1289 13.5117 880 108.638 630.977 490.245
1959 0 66.0795 13.4232 887 109.853 631.542 489.062
1960 0 68.2144 14.3225 977 108.233 630.521 487.87
1961 0 71.0695 12.129 862 112.912 630.104 483.619
1962 0 73.1609 13.2311 968 110.863 630.657 485.313
1963 0 76.1953 14.6072 1113 108.21 630.391 483.376
1964 0 79.1243 14.1929 1123 110.053 630.688 482.355
1965 0 81.2348 14.2673 1159 111.038 631.267 480.965
1966 0 83.0979 12.6477 1051 114.284 631.134 483.557
1967 0 86.2998 14.496 1251 116.336 631.039 484.482
1968 0 89.2079 13.519 1206 119.221 631.614 481.023
1969 0 92.138 14.7822 1362 116.483 631.548 479.788
1970 0 95.322 14.4248 1375 116.303 631.164 477.799
1971 0 98.1494 14.4372 1417 115.937 631.11 476.369
1972 0 101.201 13.7251 1389 117.016 630.952 477.086
1973 1 58.3136 12.8443 749 121.454 630.503 496.646
1974 0 57.3701 13.4042 769 119.238 630.198 491.806
1975 0 61.317 13.1611 807 116.206 629.905 492.146
1976 0 62.1964 14.5024 902 115.642 630.065 494.164
1977 0 64.0897 13.3563 856 119.078 630.228 493.254
1978 0 66.0824 13.2713 877 119.78 630.485 491.247
1979 0 69.1022 13.9069 961 118.26 630.653 488.929
1980 0 71.1742 14.2889 1017 116.841 629.998 489.9
1981 0 75.1675 14.0885 1059 117.083 630.195 487.443
1982 0 79.1321 14.6211 1157 114.045 629.921 488.527
1983 0 79.1677 14.7788 1170 115.532 629.699 484.465
1984 0 83.2843 14.1563 1179 114.118 629.645 484.896
1985 0 86.3269 14.1323 1220 114.615 629.657 482.119
1986 0 87.3627 14.3997 1258 115.284 630.18 481.235
1987 0 91.4996 14.4481 1322 114.88 630.1 479.814
1988 0 92.1795 13.9185 1283 117.739 629.949 479.44
1989 0 96.3996 14.6266 1410 116.543 630.262 477.003
1990 0 98.2848 14.0815 1384 119.55 630.791 475.243
1991 0 102.447 14.6124 1497 116.137 630.729 474.439
1992 0 106.367 15.0987 1606 114.598 630.497 473.053
1993 0 110.435 14.144 1562 116.48 630.228 469.497
1994 0 114.462 14.4153 1650 116.204 630.238 465.674
1995 1 61.2803 13.6259 835 114.188 631.401 489.665
1996 0 61.2918 12.1713 746 118.35 631.639 489.623
1997 0 65.1614 13.6123 887 110.586 631.896 490.592
1998 0 64.1535 11.6907 750 112.357 631.948 489.869
1999 0 70.0961 13.2675 930 108.31 631.647 488.167
2000 0 72.2324 13.2904 960 108.428 631.949 488.601
2001 0 72.2615 13.0913 946 111.465 631.946 485.199
2002 0 76.2365 12.0808 921 114.434 631.546 484.302
2003 0 78.2944 12.5296 981 114.294 632.038 483.687
2004 0 81.3055 12.4469 1012 114.747 631.433 481.206
2005 0 85.1815 13.2071 1125 112.204 631.484 480.612
2006 0 87.2625 13.0411 1138 114.178 632.044 479.58
2007 0 88.2898 12.4929 1103 116.471 631.667 478.88
2008 0 94.2609 13.7597 1297 112.842 631.463 477.468
2009 0 94.3059 13.3396 1258 117.027 631.226 474.119
2010 0 98.306 13.458 1323 115.76 631.202 472.011
2011 0 102.207 13.7662 1407 117.031 631.402 471.517
2012 0 106.45 13.8751 1477 112.923 631.102 469.724
2013 0 107.367 12.6575 1359 118.528 631.37 469.196
2014 0 114.409 13.1108 1500 116.673 630.747 466.961
2015 0 119.565 15.364 1837 112.303 630.654 463.721
2016 1 64.2355 11.2243 721 110.287 631.369 493.34
2017 0 66.2913 11.8869 788 111.034 631.246 492.306
2018 0 69.3133 11.21 777 111.583 631.452 490.692
2019 0 71.256 11.592 826 110.472 631.869 490.31
2020 0 71.2033 11.1371 793 113.883 630.667 487.643
2021 0 73.1721 11.9308 873 112.622 630.69 487.274
2022 0 77.0826 12.8823 993 110.216 630.679 485.324
2023 0 80.1874 12.6578 1015 110.73 631.312 484.196
2024 0 82.138 12.6373 1038 111.993 630.539 482.11
2025 0 85.1201 12.2533 1043 116.079 630.384 480.847
2026 0 87.0599 12.21 1063 114.478 631.056 479.821
2027 0 91.2459 12.0773 1102 114.715 630.443 478.681
2028 0 92.1993 11.0738 1021 118.256 630.466 476.103
2029 0 97.1252 11.3771 1105 116.866 629.998 473.435
2030 0 100.127 11.845 1186 116.862 630.013 473.836
2031 0 102.153 12.7163 1299 115.346 630.548 473.353
2032 0 106.159 12.1986 1295 117.251 630.902 468.861
2033 0 107.472 12.7103 1366 116.626 631.239 464.105
2034 0 111.406 10.8253 1206 120.347 630.93 463.48
2035 0 114.521 11.2032 1283 119.864 630.13 461.873
2036 0 121.613 12.8605 1564 116.61 630.434 458.443
2037 1 67.3456 10.2605 691 108.988 631.784 491.353
2038 0 69.3013 10.7646 746 109.422 631.525 488.155
2039 0 72.0932 12.2064 880 107.261 629.487 488.985
2040 0 75.036 13.4735 1011 105.125 629.536 486.973
2041 0 77.1412 12.6003 972 108.544 629.818 486.119
2042 0 80.0721 13.1007 1049 109.275 629.045 486.003
2043 0 81.1495 12.5324 1017 111.923 629.513 483.697
2044 0 86.0855 12.4643 1073 111.214 628.678 482.024
2045 0 88.0694 12.388 1091 112.426 628.797 481.382
2046 0 89.1039 12.4125 1106 113.538 629.105 476.7
2047 0 92.0589 12.2639 1129 116.619 628.676 476.711
2048 0 95.0397 12.3527 1174 115.265 629.105 477.525
2049 0 98.1417 12.6348 1240 115.589 628.904 472.139
2050 0 102.093 11.9695 1222 117.494 628.886 472.727
2051 1 54.1109 10.9959 595 114.326 629.264 496.605
2052 0 56.2833 11.3888 641 114.37 629.273 495.551
2053 0 57.2039 12.2719 702 113.952 630.886 493.412
2054 0 60.0787 11.8511 712 121.563 632.708 494.619
2055 0 62.0288 12.9134 801 118.87 633.434 493.457
2056 0 64.1037 11.9806 768 122.43 632.885 492.569
2057 0 65.0708 11.6489 758 121.414 633.574 493.978
2058 0 67.0905 13.3849 898 118.383 633.345 489.823
2059 0 69.022 12.7785 882 119.871 633.437 489.241
2060 0 71.0291 12.7976 909 119.957 633.831 489.013
2061 0 71.0291 12.7694 907 137.84 634.848 489.033
2062 0 75.0512 12.3649 928 123.17 633.784 487.209
2063 0 77.0933 13.1918 1017 121.135 633.58 486.382
2064 0 79.0367 12.6144 997 123.935 633.234 485.368
2065 0 83.059 13.677 1136 119.113 633.42 482.044
2066 0 85.1009 13.5721 1155 120.772 633.397 483.435
2067 0 87.0558 13.0032 1132 123.374 633.27 481.132
2068 0 89.0894 14.1431 1260 120.581 633.115 478.687
2069 0 90.102 12.9187 1164 125.679 632.846 478.393
2070 1 49.0401 11.1133 545 123.888 632.402 501.95
2071 0 47.106 10.8479 511 127.626 632.939 501.258
2072 0 51.1345 12.0858 618 120.107 633.079 490.39
2073 0 52.3778 12.3144 645 111.995 632.116 499.27
2074 0 53.1422 12.3631 657 105.478 631.636 495.324
2075 0 53.1 11.1864 594 110.79 631.258 495.717
2076 0 55.3537 12.1762 674 109.616 631.184 494.682
2077 0 57.344 12.5035 717 107.688 631.222 492.89
2078 0 58.2289 13.2409 771 108.46 631.102 493.355
2079 0 60.1911 12.5434 755 109.849 630.452 491.415
2080 0 62.2275 12.0204 748 113.443 631.075 492.274
2081 0 65.1864 13.331 869 119.582 631.124 492.891
2082 0 66.1064 13.7052 906 120.938 631.058 490.962
2083 0 69.1387 13.8562 958 119.966 630.716 491.922
2084 0 72.1255 14.1143 1018 118.575 631.257 490.782
2085 0 72.154 14.6769 1059 119.28 631.15 489.125
2086 0 75.1129 14.9242 1121 119.352 631.946 487.479
2087 0 76.1019 14.1784 1079 122.655 631.782 487.223
2088 0 79.1361 13.938 1103 121.969 631.711 486.638
2089 0 82.1416 16.155 1327 114.973 631.472 484.562
2090 0 82.2709 13.6257 1121 124.833 631.236 483.954
2091 0 84.1945 14.0389 1182 125.132 630.999 482.313
2092 0 87.2468 13.9031 1213 124.105 631.322 481.518
2093 0 91.2663 14.9453 1364 124.21 631.231 456.85
2094 0 93.1012 13.2651 1235 128.04 631.972 475.199
2095 0 97.1404 13.9798 1358 126.529 631.951 474.861
2096 1 49.0605 11.5368 566 127.583 632.509 497.458
2097 0 50.1956 11.9532 600 118.565 630.113 496.728
2098 0 48.2533 12.766 616 120.953 630.666 494.99
2099 0 50.2376 12.1821 612 122.703 630.09 493.245
2100 0 53.2781 12.2189 651 121.198 630.335 494.788
2101 0 55.1972 12.3376 681 120.762 630.407 493.918
2102 0 54.1559 12.187 660 120.477 631.094 492.429
2103 0 56.2061 11.8493 666 119.434 631.375 493.111
2104 0 58.0736 12.5703 730 118.611 631.223 490.268
2105 0 61.1412 12.0377 736 118.736 631.345 490.952
2106 0 61.1679 12.1796 745 117.134 630.603 488.834
2107 0 63.1175 13.1818 832 115.849 630.678 488.404
2108 0 64.1014 13.541 868 116.183 630.382 485.66
2109 0 68.0953 13.4517 916 113.111 630.121 486.437
2110 0 70.0819 13.2702 930 114.234 630.413 482.998
2111 0 72.0809 11.82 852 118.147 630.624 481.739
2112 0 76.2047 12.9782 989 114.989 630.266 483.174
2113 0 77.1266 12.1359 936 118.142 629.958 479.614
2114 0 81.3306 13.107 1066 117.305 629.867 477.16
2115 1 40.2138 11.1405 448 124.734 629.96 479.592
2116 0 41.0746 11.9782 492 121.445 630.193 481.931
2117 0 40.0088 11.2725 451 119.078 628.978 495.885
2118 0 41.0776 11.1253 457 121.252 629.039 491.024
2119 0 45.0218 12.9937 585 114.232 628.814 496.838
2120 0 46.0502 12.6384 582 115.737 628.634 496.467
2121 0 46.0379 11.295 520 116.985 628.675 495.556
2122 0 50.0416 11.2107 561 117.501 628.813 494.401
2123 0 52.0525 12.1224 631 115.88 628.615 494.417
2124 0 51.0579 12.3977 633 117.978 628.156 493.175
2125 0 53.0176 12.3167 653 118.816 629.329 492.358
2126 0 55.0896 12.3435 680 118.432 629.074 492.494
2127 0 58.0605 13.951 810 115.48 628.79 490.051
2128 0 60.0375 13.9413 837 116.129 629.213 488.838
2129 0 60.0695 12.6187 758 120.62 629.251 487.253
2130 0 63.0765 12.9684 818 118.867 629.16 487.449
2131 0 66.2107 13.2456 877 119.425 629.046 485.338
2132 0 66.2196 13.6817 906 120.462 629.397 483.532
2133 0 71.2419 13.4892 961 119.74 628.549 484.337
2134 0 72.1024 13.4808 972 120.084 629.036 483.259
2135 0 75.2606 14.2173 1070 118.675 629.453 483.149
2136 0 77.0886 13.1926 1017 121.69 629.517 482.185
2137 0 81.2996 13.4564 1094 119.832 630.082 479.224
2138 0 84.1611 13.2484 1115 123.178 630.065 463.967
2139 1 45.1842 12.0396 544 111.193 628.971 494.961
2140 0 45.1603 11.581 523 117.776 630.738 493.235
2141 0 48.1 12.7443 613 116.896 630.538 493.117
2142 0 49.0969 12.3633 607 117.297 630.367 494.626
2143 0 50.1058 12.6931 636 117.618 630.64 492.072
2144 0 51.1178 12.0897 618 120.233 630.498 491.225
2145 0 52.1805 12.2459 639 119.947 630.368 491.25
2146 0 54.1009 11.9776 648 121.435 630.148 489.287
2147 0 57.1343 13.2845 759 117.203 630.636 488.892
2148 0 59.1657 12.2875 727 120.49 629.842 489.001
2149 0 62.1333 12.618 784 119.986 630.033 486.538
2150 0 63.2069 13.2106 835 119.794 630.092 484.247
2151 0 65.2547 12.842 838 120.284 629.746 485.419
2152 0 68.2384 12.9985 887 119.977 629.922 485.042
2153 0 70.1112 12.9366 907 120.592 630.222 483.637
2154 0 74.3115 12.6495 940 121.38 630.036 482.641
2155 0 75.3382 13.3531 1006 121.467 630.503 479.463
2156 0 77.1197 13.8097 1065 120.378 630.603 477.262
2157 0 79.3156 12.5953 999 123.644 629.908 478.237
2158 0 83.282 13.5443 1128 122.047 630.457 477.231
2159 0 84.2185 13.3225 1122 123.601 629.975 474.248
2160 0 87.246 13.1926 1151 122.371 630.176 471.694
2161 1 47.1261 11.0979 523 115.663 629.751 497.099
2162 0 50.1062 13.3516 669 114.399 631.661 500.64
2163 0 52.1118 12.0894 630 116.384 631.919 498.833
2164 0 52.2188 12.1412 634 121.629 629.826 498.94
2165 0 56.2826 12.5794 708 118.455 631.049 495.008
2166 0 54.4472 10.9464 596 121.886 630.921 496.953
2167 0 58.282 12.7998 746 116.17 630.279 493.639
2168 0 60.2856 13.2536 799 113.023 631.224 494.086
2169 0 62.1447 13.4042 833 112.004 631.1 492.455
2170 0 63.3055 12.8899 816 111.898 631.442 492.479
2171 0 66.1968 12.4477 824 112.394 632.04 491.718
2172 0 70.2188 13.5291 950 111.741 631.592 488.551
2173 0 70.3056 12.0616 848 116.434 630.844 487.042
2174 0 73.2213 11.9501 875 115.931 631.306 490.331
2175 0 74.2203 11.4254 848 117.571 631.199 487.501
2176 0 78.2428 11.8861 930 116.739 630.719 484.98
2177 0 81.2025 11.8839 965 116.437 630.286 483.472
2178 0 84.0766 12.215 1027 114.252 630.22 481.63
2179 1 44.035 9.8558 434 114.094 630.435 498.198
2180 0 43.0426 11.1053 478 107.987 631.883 493.073
2181 0 46.0241 11.3419 522 106.575 627.285 495.079
2182 0 43.0614 10.8217 466 106.74 628.159 493.693
2183 0 47.1261 10.3764 489 109.521 628.078 493.644
2184 0 52.1447 10.9695 572 114.615 628.584 499.626
2185 0 51.1169 11.2292 574 115.277 627.956 497.181
2186 0 53.0314 10.8049 573 116.22 628.164 494.913
2187 0 56.0604 11.2914 633 115.844 627.641 496.025
2188 0 57.0445 12.3938 707 114.625 628.785 494.918
2189 0 58.0733 12.2776 713 114.663 627.776 493.759
2190 0 60.1706 12.0158 723 115.488 627.827 494.668
2191 0 61.0444 11.8766 725 117.081 628.062 491.411
2192 0 64.0732 11.7366 752 117.979 627.88 492.153
2193 0 65.0734 12.0633 785 117.785 627.512 491.028
2194 0 68.0916 12.0426 820 116.841 627.096 490.734
2195 0 71.0928 13.2362 941 113.707 628.393 489.474
2196 0 74.2111 13.273 985 112.394 628.265 488.216
2197 0 74.0798 11.6361 862 114.812 628.154 484.582
2198 0 76.0798 10.4233 793 116.1 628.357 486.981
2199 0 81.1489 12.5202 1016 111.335 628.143 485.043
2200 0 84.2183 11.957 1007 113.148 629.189 483.535
2201 0 87.1256 10.8005 941 113.48 628.659 485.6
2202 1 47.0626 11.7503 553 108.758 626.995 499.394
2203 0 48.3538 11.147 539 117.494 629.325 497.536
2204 0 49.0922 11.4886 564 118.594 632.152 499.824
2205 0 52.1444 12.1586 634 116.312 632.155 499.101
2206 0 52.0627 12.0816 629 116.62 632.277 499.48
2207 0 54.0281 12.1048 654 118.139 632.621 497.2
2208 0 55.1104 11.613 640 119.736 632.261 495.7
2209 0 56.0772 11.5377 647 119.583 631.49 496.651
2210 0 58.1722 12.4458 724 118.218 631.602 494.827
2211 0 60.2174 12.2556 738 118.889 630.911 493.312
2212 0 63.1008 11.6322 734 119.772 631.466 493.347
2213 0 64.1292 12.2097 783 118.416 631.688 493.481
2214 0 68.1302 11.7716 802 118.587 631.612 490.549
2215 0 69.1669 11.6819 808 120.017 631.54 488.493
2216 0 73.2067 12.3349 903 117.532 631.11 488.238
2217 0 75.1773 12.0781 908 115.276 631.514 489.748
2218 0 80.3279 12.3618 993 118.847 630.324 453.386
2219 0 81.2693 12.0095 976 118.926 630.554 462.353
2220 1 41.3515 10.3745 429 116.958 629.086 493.734
2221 0 43.0148 10.4383 449 106.592 631.454 504.592
2222 0 43.0652 9.9152 427 100.726 631.553 501.595
2223 0 45.1134 10.8837 491 98.0916 631.196 500.328
2224 0 46.1685 11.3714 525 106.722 628.669 500.082
2225 0 47.1496 12.0468 568 105.394 628.467 499.62
2226 0 49.1904 11.2217 552 106.051 628.873 499.991
2227 0 49.173 11.49 565 106.596 629.016 499.729
2228 0 52.2707 11.5361 603 105.698 629.303 496.214
2229 0 51.2652 11.8599 608 106.054 628.961 496.755
2230 0 55.1691 12.2895 678 104.167 628.916 495.771
2231 0 54.1706 12.2391 663 106.579 628.573 493.27
2232 0 58.1643 11.5535 672 107.28 629.088 494.045
2233 0 58.1893 11.6344 677 107.919 629.004 493.589
2234 0 63.3585 11.7427 744 107.032 629.082 493.688
2235 0 63.0597 12.3058 776 107.436 628.914 490.403
2236 0 67.0774 12.2992 825 107.783 628.912 491.942
2237 0 67.0356 12.4113 832 110.365 627.746 492.127
2238 0 71.0731 12.3535 878 110.568 627.954 489.595
2239 0 72.185 11.0411 797 112.659 628.422 489.928
2240 0 74.0294 10.82 801 114.531 628.873 488.152
2241 0 78.1116 11.7268 916 112.132 628.533 480.867
2242 0 81.2112 12.8061 1040 113.443 629.683 479.706
2243 0 84.1594 12.001 1010 107.832 628.837 484.683
2244 1 44.0861 9.54948 421 114.463 628.202 501.653
2245 0 49.0808 12.7545 626 107.31 628.268 499.875
2246 0 50.066 12.3837 620 109.261 628.424 499.261
2247 0 50.0362 12.7508 638 111.382 627.981 499.74
2248 0 54.0289 13.0856 707 110.112 628.1 487.392
2249 0 53.0188 12.4861 662 112.343 628.18 497.556
2250 0 55.0336 12.8285 706 111.16 628.54 497.353
2251 0 57.0167 14.0836 803 107.524 628.36 497.301
2252 0 59.0483 13.5652 801 109.574 627.984 495.323
2253 0 61.0558 13.7251 838 108.617 627.735 494.544
2254 0 62.0282 13.8808 861 108.748 628.44 493.159
2255 0 64.059 14.9394 957 107.586 628.515 491.88
2256 0 65.0986 13.9327 907 111.325 627.745 490.754
2257 0 66.1208 13.2636 877 110.369 628.498 489.887
2258 0 72.1215 14.434 1041 107.012 628.119 490.692
2259 0 72.0721 15.0127 1082 108.467 628.123 490.706
2260 0 74.0636 12.8943 955 115.524 628.377 489.872
2261 0 77.1006 14.0336 1082 113.163 628.193 490.467
2262 0 79.1661 13.5032 1069 115.569 628.026 490.699
2263 0 84.0951 14.3528 1207 115.703 627.437 467.535
2264 0 86.2127 13.5943 1172 117.695 626.773 475.717
2265 0 89.1554 13.6952 1221 119.147 627.149 481.93
2266 0 91.363 14.3822 1314 117.726 626.759 482.687
2267 0 93.1145 14.6164 1361 117.705 626.847 483.261
2268 1 47.2755 11.232 531 120.115 626.823 510.974
2269 0 48.5071 11.3798 552 119.491 627.661 510.147
2270 0 49.1735 11.856 583 112.53 629.017 511.554
2271 0 50.177 11.7982 592 108.561 628.632 510.49
2272 0 52.1551 11.7917 615 108.442 628.161 510.211
2273 0 53.1472 12.1925 648 108.71 627.772 510.448
2274 0 57.1391 13.4059 766 105.486 627.953 509.128
2275 0 60.1869 13.4581 810 105.406 627.7 507.417
2276 0 61.137 14.3121 875 105.038 627.087 505.563
2277 0 63.1376 13.6686 863 106.453 626.692 507.496
2278 0 65.2183 14.1831 925 106.937 627.011 504.252
2279 0 68.25 13.2161 902 109.292 626.854 503.747
2280 0 69.2699 13.2092 915 111.538 626.127 502.103
2281 0 71.2006 13.7077 976 109.935 626.072 501.283
2282 0 74.2096 13.9739 1037 110.218 625.617 497.749
2283 0 76.2247 13.1453 1002 113.063 625.908 498.445
2284 0 78.2614 13.9149 1089 113.12 626.014 497.881
2285 0 80.2187 13.3884 1074 115.542 624.991 493.273
2286 0 85.2311 13.3637 1139 114.864 625.285 492.072
2287 1 43.0324 11.6656 502 118.693 626.5 512.753
2288 0 44.0887 11.6583 514 119.323 625.875 513.027
2289 0 45.2962 12.4955 566 116.396 622.595 509.836
2290 0 46.0508 10.2061 470 103.702 624.902 507.791
2291 0 47.1535 10.8582 512 101.777 625.582 510.561
2292 0 46.1179 10.5816 488 104.844 625.471 507.223
2293 0 49.1532 12.2881 604 100.24 624.859 509.74
2294 0 50.0455 12.3488 618 99.6845 625.785 509.348
2295 0 53.1152 11.3527 603 101.179 624.498 510.139
2296 0 56.2141 11.723 659 100.429 624.821 508.388
2297 0 56.1306 10.5825 594 104.077 625.588 505.715
2298 0 60.0814 10.7687 647 103.686 625.325 505.631
2299 0 62.0864 13.0141 808 100.592 624.892 504.123
2300 0 64.1278 12.5998 808 101.545 624.6 502.376
2301 0 67.118 12.3961 832 101.981 624.451 501.571
2302 0 67.1127 13.2911 892 101.839 624.461 496.302
2303 0 71.1586 14.0672 1001 99.5405 624.054 499.937
2304 0 75.0602 13.3626 1003 101.045 624.102 496.499
2305 0 78.1206 13.0055 1016 101.681 623.927 496.557
2306 0 82.1875 12.1795 1001 103.002 623.704 496.745
2307 0 85.0707 13.624 1159 101.268 623.921 494.67
2308 0 85.1902 13.3466 1137 104.236 623.398 491.616
2309 1 45.0391 11.7231 528 103.055 623.104 516.074
2310 0 44.19 11.9484 528 110.068 623.364 518.042
2311 0 44.1994 11.878 525 118.573 623.141 515.642
2312 0 48.2072 12.4878 602 115.46 623.018 514.847
2313 0 49.0997 13.7679 676 112.391 623.133 514.096
2314 0 51.1985 12.4418 637 114.758 623.865 515.049
2315 0 52.1512 13.4033 699 113.528 623.32 513.155
2316 0 53.2105 13.2681 706 114.528 623.326 511.118
2317 0 54.3545 12.86 699 114.182 623.564 511.854
2318 0 57.2103 13.9136 796 111.416 623.347 510.528
2319 0 58.227 13.8424 806 112.164 622.816 508.764
2320 0 61.1688 14.2393 871 110.39 623.303 508.037
2321 0 60.1904 12.6931 764 114.349 623.851 507.137
2322 0 64.1894 13.725 881 112.228 623.755 505.569
2323 0 64.1034 13.8994 891 111.961 624.475 505.69
2324 0 67.2093 14.0903 947 111.171 623.959 504.181
2325 0 69.0866 13.114 906 112.308 624.794 503.268
2326 0 71.1381 13.5933 967 111.426 623.706 502.327
2327 0 72.3262 13.5774 982 111.009 623.353 500.763
2328 0 73.0372 12.8291 937 112.314 622.995 499.773
2329 0 75.0778 12.4404 934 110.393 623.556 497.198
2330 0 77.091 13.0755 1008 105.7 623.66 493.561
2331 0 80.1383 13.5266 1084 104.493 623.55 494.28
2332 0 82.1266 13.1261 1078 105.588 624.421 494.933
2333 0 86.4337 14.2884 1235 104.445 623.488 490.457
2334 0 86.1412 13.1064 1129 108.584 624.944 491.425
2335 0 90.1097 12.7844 1152 108.349 625.605 490.079
2336 0 92.2118 13.4798 1243 108.636 625.417 485.868
2337 0 96.1537 13.5616 1304 110.262 625.732 484.58
2338 0 100.112 12.8256 1284 111.95 625.784 483.509
2339 0 104.24 13.6224 1420 111.001 625.11 481.482
2340 1 59.0954 12.8944 762 108.357 626.835 503.02
2341 0 60.1744 12.7629 768 109.872 626.302 501.292
2342 0 65.0682 11.926 776 118.12 626.67 501.098
2343 0 63.0711 12.6841 800 118.434 627.293 500.353
2344 0 67.1028 12.6969 852 117.013 627.451 499.5
2345 0 68.1116 12.9787 884 118.636 627.585 497.328
2346 0 71.0668 13.03 926 118.467 627.756 495.843
2347 0 72.1033 13.4529 970 118.698 627.173 493.503
2348 0 74.113 12.9802 962 119.599 627.735 493.816
2349 0 77.0211 13.5807 1046 118.93 628.339 491.459
2350 0 80.0668 12.3022 985 121.291 627.86 493.497
2351 0 80.0865 12.5864 1008 123.234 628.214 489.816
2352 0 85.1228 13.7449 1170 120.053 628.897 487.937
2353 0 86.0705 12.9429 1114 123.383 628.838 486.087
2354 0 90.1424 13.0904 1180 122.039 628.949 485.058
2355 0 92.1432 14.4015 1327 120.669 628.793 482.213
2356 0 93.1275 13.4117 1249 124.419 628.289 480.106
2357 0 98.1986 14.5114 1425 122.225 627.992 459.067
2358 0 100.2 14.3513 1438 122.899 628.14 466.241
2359 0 101.222 12.5467 1270 116.402 627.837 470.892
2360 0 105.271 12.919 1360 116.562 628.39 466.638
2361 1 56.1049 11.8706 666 120.108 628.65 494.904
2362 0 56.1221 12.0808 678 114.912 627.538 488.521
2363 0 62.1232 13.9561 867 109.453 625.554 493.175
2364 0 66.1189 12.9917 859 111.638 626.871 488.169
2365 0 68.0592 13.3119 906 111.171 626.727 488.784
2366 0 68.0992 12.7167 866 113.309 627.895 491.602
2367 0 72.1471 13.1398 948 112.886 628.814 480.907
2368 0 74.2418 12.7826 949 112.942 628.737 481.115
2369 0 75.0978 12.9964 976 112.623 628.709 486.333
2370 0 78.0919 12.6646 989 113.072 628.972 484.671
2371 0 83.1678 13.2984 1106 110.561 628.657 483.541
2372 0 84.1197 13.0766 1100 110.916 628.979 482.876
2373 0 88.1392 12.7979 1128 111.468 629.453 481.945
2374 0 91.2293 14.0525 1282 109.354 629.046 479.872
2375 0 93.2409 13.6206 1270 110.311 629.32 478.491
2376 0 97.1661 13.6673 1328 110.174 629.735 478.16
2377 0 98.2455 12.825 1260 113.19 629.094 476.621
2378 0 101.122 12.3316 1247 114.273 629.283 473.336
2379 1 53.1544 12.887 685 108.188 630.428 497.826
2380 0 56.375 11.6896 659 109.099 629.85 495.176
2381 0 55.3292 11.8021 653 103.083 629.441 491.011
2382 0 58.1322 13.4865 784 104.931 629.458 494.204
2383 0 57.0939 10.3163 589 113.092 630.127 495.304
2384 0 62.2593 11.436 712 108.51 630.19 493.697
2385 0 66.2722 13.2182 876 104.025 630.296 492.22
2386 0 66.1656 12.9524 857 105.644 630.393 492.758
2387 0 67.2414 11.5851 779 108.565 629.91 487.471
2388 0 73.2374 11.9201 873 106.672 629.89 486.545
2389 0 75.1964 12.4341 935 106.425 630.23 486.123
2390 0 77.2152 11.9795 925 107.65 630.191 485.026
2391 0 81.1574 12.1616 987 105.714 630.415 484.693
2392 0 84.1852 13.2921 1119 103.521 630.046 483.469
2393 0 87.2601 13.5342 1181 103.483 629.958 481.311
2394 0 88.2245 11.7654 1038 108.013 629.877 479.81
2395 0 92.2312 13.1517 1213 104.157 629.818 479.671
2396 0 95.2695 14.5377 1385 102.139 629.957 474.642
2397 0 97.2964 11.5626 1125 107.451 629.747 474.54
2398 0 100.262 12.8663 1290 105.596 629.772 471.386
2399 0 102.177 11.4899 1174 107.006 629.786 469.415
2400 1 53.2819 11.3547 605 107.496 628.977 496.188
2401 0 57.1691 11.1599 638 102 630.467 494.274
2402 0 58.1275 12.6274 734 98.3774 630.345 494.012
2403 0 58.1425 11.919 693 100.398 630.857 493.603
2404 0 60.0818 11.0183 662 101.414 630.252 493.279
2405 0 62.1333 12.2157 759 99.5217 630.672 490.617
2406 0 65.1392 12.6652 825 98.4461 630.687 491.034
2407 0 66.1055 11.9052 787 100.676 630.576 489.859
2408 0 71.0987 13.2633 943 97.2619 630.632 486.542
2409 0 72.2012 12.9776 937 98.5486 630.572 486.219
2410 0 74.2021 12.5333 930 99.6978 630.784 483.648
2411 0 76.1387 12.7136 968 99.593 630.918 482.84
2412 0 79.4253 12.175 967 100.76 630.91 479.547
2413 0 80.2191 13.0891 1050 99.3771 630.744 480.237
2414 0 84.2425 12.832 1081 99.4033 630.749 480.185
2415 0 87.1459 13.311 1160 99.4328 628.107 482.003
2416 0 88.2145 11.5854 1022 104.899 627.877 477.416
2417 0 94.2319 13.4137 1264 101.145 628.082 476.767
2418 1 48.1998 10.6225 512 104.697 627.094 498.943
2419 0 48.2295 11.9014 574 97.2509 627.571 491.864
2420 0 49.2927 11.7664 580 99.2379 628.479 491.295
2421 0 53.0486 11.4235 606 102.624 631.731 494.616
2422 0 54.1005 11.2753 610 103.826 631.049 491.913
2423 0 55.0371 10.7746 593 105.044 631.551 493.083
2424 0 57.1662 12.1925 697 101.347 630.832 492.319
2425 0 57.0437 11.3772 649 104.299 630.861 490.861
2426 0 61.2365 11.9863 734 101.41 631.266 487.04
2427 0 63.0488 12.07 761 100.627 630.511 489.861
2428 0 63.0501 11.7684 742 103.292 631.135 485.945
2429 0 68.0595 11.1961 762 102.269 630.339 487.831
2430 0 72.0701 12.918 931 98.7723 631.03 486.538
2431 0 73.1489 11.9482 874 101.592 631.132 485.295
2432 0 75.1496 11.8697 892 101.919 631.734 482.101
2433 0 76.0889 12.1174 922 101.741 630.55 483.572
2434 0 81.1872 12.465 1012 100.001 629.868 483.818
2435 0 82.198 12.4577 1024 101.53 629.452 481.165
2436 0 85.3311 13.1957 1126 99.9485 628.661 477.583
2437 0 86.2646 12.0443 1039 102.641 629.403 479.668
2438 0 89.2189 13.1026 1169 100.765 629.277 474.178
2439 0 94.3513 12.5065 1180 101.405 628.313 476.89
2440 0 96.3764 12.804 1234 103.455 628.741 475.05
2441 0 100.228 13.7686 1380 102.562 628.289 472.939
2442 0 106.429 13.1543 1400 104.392 627.911 474.81
2443 1 56.5857 11.434 647 102.28 629.465 496.464
2444 0 54.342 10.1395 551 99.2269 628.16 492.468
2445 0 55.1052 10.0353 553 95.0018 628.022 490.964
2446 0 56.0438 10.3134 578 96.0709 629.654 491.853
2447 0 56.1376 8.83543 496 97.131 628.881 490.754
2448 0 58.0959 10.4999 610 94.7148 629.164 488.874
2449 0 62.1505 10.2976 640 93.8203 628.959 488.025
2450 0 62.1805 11.1128 691 93.4052 630.026 486.304
2451 0 65.0492 11.2684 733 92.9823 630.613 487.135
2452 0 64.1365 8.45072 542 98.5793 630.679 481.279
2453 0 70.0822 11.5579 810 92.9864 630.584 483.217
2454 0 72.067 10.5596 761 94.4691 631.196 481.551
2455 0 78.0872 10.2834 803 94.0772 631.022 482.345
2456 0 78.1782 10.2842 804 93.7537 630.884 482.851
2457 0 82.1272 10.9221 897 93.4136 630.951 479.274
2458 0 86.1825 10.6286 916 94.0568 630.603 478.07
2459 1 45.167 11.1586 504 92.629 628.766 498.649
2460 0 48.1272 10.7631 518 96.4189 628.678 498.653
2461 0 51.0909 12.8594 657 92.5967 631.591 499.122
2462 0 53.0596 12.7404 676 93.1479 631.518 498.62
2463 0 54.0691 12.9649 701 93.6719 631.478 497.207
2464 0 55.0389 11.6463 641 96.7098 631.975 498.3
2465 0 56.1061 14.027 787 92.8501 631.727 496.607
2466 0 59.1535 12.7465 754 95.0133 631.312 495.825
2467 0 60.105 13.8757 834 93.8561 631.14 495.434
2468 0 61.1333 13.168 805 96.9329 631.119 493.34
2469 0 63.0809 13.982 882 95.7007 631.739 492.049
2470 0 67.0346 12.9635 869 97.5696 631.341 491.758
2471 0 66.0759 11.7592 777 101.353 631 490.656
2472 0 69.0357 11.8924 821 99.2838 631.771 490.708
2473 0 72.0667 13.0018 937 97.4269 631.052 488.59
2474 0 74.1484 12.6773 940 97.8904 630.973 488.348
2475 0 76.1589 12.8547 979 99.1083 630.765 486.88
2476 0 82.1828 13.2023 1085 98.1742 630.899 483.417
2477 0 83.1402 13.8441 1151 98.2989 631.167 479.501
2478 0 84.1432 13.4651 1133 106.197 631.24 480.535
2479 0 88.1095 14.3571 1265 105.188 631.348 478.624
2480 0 90.111 13.783 1242 107.444 631.853 474.929
2481 0 94.1189 13.5892 1279 107.546 631.352 476.56
2482 0 98.0871 14.273 1400 105.553 631.115 474.686
2483 0 99.1244 13.3368 1322 108.645 631.07 472.461
2484 0 101.414 13.223 1341 110.159 630.761 469.694
2485 1 54.16 12.223 662 104.733 631.873 496.816
2486 0 52.0794 11.4633 597 102.829 630.735 492.348
2487 0 53.2968 12.6086 672 101.216 629.951 493.862
2488 0 57.2142 11.7978 675 93.5274 630.723 492.597
2489 0 59.3329 11.7978 700 94.4529 630.619 491.459
2490 0 61.1749 12.2272 748 93.6778 629.706 490.758
2491 0 64.4348 11.5466 744 95.1075 630.46 488.301
2492 0 67.1293 12.1854 818 94.9425 630.697 486.93
2493 0 68.1505 12.2523 835 95.3281 630.612 488.401
2494 0 68.1876 11.5124 785 97.8904 630.036 486.485
2495 0 70.1832 11.185 785 99.3949 629.748 484.358
2496 0 74.1899 12.2389 908 97.4471 630.335 485.686
2497 0 77.1663 11.9223 920 103.973 630.048 477.504
2498 0 81.4511 14.9047 1214 96.9629 630.352 481.96
2499 0 83.202 13.5934 1131 100.576 630.268 481.393
2500 0 86.2681 13.516 1166 101.133 629.946 478.482
2501 0 88.3409 13.6064 1202 102.093 630.172 479.11
2502 0 92.364 13.5334 1250 104.706 628.831 452.797
2503 0 96.448 13.3958 1292 103.607 629.289 468.066
2504 0 97.2406 12.865 1251 113.444 629.559 470.547
2505 0 100.258 14.2034 1424 110.555 629.828 468.465
2506 0 102.208 14.1966 1451 111.717 629.358 464.629
2507 0 105.176 13.9005 1462 112.077 629.006 464.264
2508 0 107.174 13.1002 1404 114.603 629.749 460.573
2509 0 115.298 13.4434 1550 112.595 629.653 459.684
2510 1 62.2976 10.7067 667 113.633 629.418 483.252
2511 0 63.2159 11.8957 752 111.339 629.218 480.077
2512 0 66.3152 13.0438 865 109.59 629.243 478.738
2513 0 67.2233 12.6296 849 110.24 629.638 481.638
2514 0 72.3497 11.4997 832 109.888 629.411 482.27
2515 0 75.1682 11.4676 862 108.644 629.157 486.466
2516 0 79.177 12.1374 961 108.292 630.664 482.827
2517 0 81.2254 13.6903 1112 105.664 631.01 479.849
2518 0 83.2503 13.1291 1093 101.353 629.891 474.802
2519 0 85.1369 13.1083 1116 101.534 630.435 471.187
2520 0 89.3468 13.6659 1221 101.226 630.085 470.766
2521 0 88.1959 11.6445 1027 106.902 630.047 468.516
2522 0 93.1376 12.1863 1135 105.195 629.859 469.087
2523 0 102.442 13.7541 1409 101.643 631.325 468.26
2524 0 104.206 12.2354 1275 105.907 630.95 466.566
2525 1 56.3322 11.1304 627 105.254 630.919 487.603
2526 0 58.2735 12.2526 714 103.707 630.597 485.759
2527 0 61.1565 12.6234 772 106.076 630.584 492.244
2528 0 62.3196 11.1682 696 109.614 630.953 489.545
2529 0 65.291 12.2375 799 106.954 630.458 489.213
2530 0 67.3891 12.4056 836 108.218 630.932 486.744
2531 0 68.2556 12.6436 863 108.685 630.979 487.549
2532 0 72.3533 12.5495 908 108.802 630.617 486.232
2533 0 74.2766 13.3824 994 108.533 630.626 484.979
2534 0 78.1606 14.5598 1138 105.916 630.947 483.958
2535 0 80.1986 12.8556 1031 111.495 631.332 481.46
2536 0 84.211 13.953 1175 109.715 630.531 480.377
2537 0 86.1903 14.1547 1220 111.693 631.019 478.203
2538 0 90.3502 14.0785 1272 117.186 631.079 478.277
2539 0 92.2103 13.8162 1274 118.864 630.813 476.684
2540 1 52.1026 11.9188 621 115.564 632.481 497.261
2541 0 52.1158 11.8774 619 118.349 631.987 496.325
2542 0 55.2458 13.1594 727 115.75 631.681 494.422
2543 0 58.1646 13.4618 783 109.428 632.188 493.235
2544 0 58.1728 11.8784 691 115.35 632.753 493.314
2545 0 59.0736 14.0164 828 112.016 632.64 492.107
2546 0 62.0909 13.6574 848 113.341 632.68 491.368
2547 0 63.0635 12.5746 793 117.093 632.839 490.455
2548 0 63.0973 12.7422 804 116.632 632.49 489.007
2549 0 67.1166 13.7224 921 113.788 632.787 487.438
2550 0 69.1487 13.7819 953 113.62 632.051 487.502
2551 0 71.2125 13.2421 943 114.966 631.831 484.544
2552 0 75.1671 13.3037 1000 113.019 632.343 485.054
2553 0 78.135 13.7198 1072 111.938 632.587 483.557
2554 0 79.1757 13.0722 1035 113.988 632.5 481.041
2555 0 83.1395 13.8201 1149 112.393 632.086 478.603
2556 0 86.0693 12.6642 1090 114.242 633.402 479.829
2557 0 89.1637 13.1331 1171 113.899 632.342 478.35
2558 0 92.0924 14.1054 1299 111.975 632.651 475.373
2559 1 48.0323 12.0128 577 115.334 632.47 498.128
2560 0 47.0529 11.1577 525 112.257 631.886 498.282
2561 0 51.2706 12.7558 654 106.865 630.188 495.852
2562 0 50.0778 11.5021 576 113.08 630.033 495.066
2563 0 52.1209 12.4326 648 110.903 629.13 494.488
2564 0 54.155 13.0367 706 109.572 628.948 493.426
2565 0 56.1318 11.7046 657 113.422 629.703 492.979
2566 0 57.2823 12.0282 689 113.437 629.505 494.106
2567 0 59.1194 13.0921 774 111.313 628.893 490.557
2568 0 61.0977 12.4391 760 112.914 629.228 489.913
2569 0 63.1377 12.4331 785 113.436 629.187 489.619
2570 0 65.1984 12.5923 821 112.79 628.715 489.123
2571 0 65.0948 12.9196 841 112.769 629.159 488.394
2572 0 69.1592 12.8978 892 113.857 630.447 487.765
2573 0 72.2308 13.8999 1004 110.651 629.359 486.973
2574 0 73.3301 13.9915 1026 111.368 629.466 487.889
2575 0 75.2279 13.386 1007 112.348 629.542 484.968
2576 0 78.3698 13.0152 1020 111.931 629.978 483.087
2577 0 80.3365 13.543 1088 111.575 630.296 483.511
2578 0 85.2826 13.8129 1178 112.528 629.804 481.008
2579 0 86.6435 13.469 1167 113.826 630.093 480.641
2580 0 91.3956 14.7491 1348 110.323 630.769 477.341
2581 0 94.3873 13.7307 1296 112.643 629.952 478.543
2582 0 97.4981 13.0054 1268 113.315 629.06 471.905
2583 0 100.548 14.0828 1416 106.466 630.058 472.749
2584 0 103.514 14.3073 1481 102.402 630.686 472.223
2585 0 106.756 13.3857 1429 105.756 629.686 470.129
2586 1 58.5213 12.0298 704 111.436 630.065 494.043
2587 0 60.2906 13.3354 804 104.611 629.255 491.92
2588 0 61.5283 12.6771 780 108.3 630.182 489.549
2589 0 64.3777 13.3742 861 108.005 630.206 487.715
2590 0 65.4173 12.4432 814 113.022 630.518 483.495
2591 0 67.4565 13.2826 896 111.097 630.376 484.67
2592 0 72.5687 14.0694 1021 109.536 630.335 479.548
2593 0 73.453 13.1513 966 113.135 630.277 484.887
2594 0 76.6357 14.197 1088 113.006 630.929 480.666
2595 0 78.7351 13.5518 1067 115.715 630.917 482.902
2596 0 78.7562 12.799 1008 117.597 630.755 481.499
2597 0 82.7316 12.74 1054 117.022 631.778 481.959
2598 0 85.5413 13.2451 1133 117.315 631.185 479.505
2599 0 89.6365 13.7109 1229 116.169 631.577 479.199
2600 0 87.5185 12.2031 1068 122.389 630.949 477.831
2601 0 94.436 13.6283 1287 118.114 631.283 476.264
2602 0 95.6516 14.0824 1347 119.209 631.318 472.036
2603 0 96.515 13.0653 1261 122.035 630.885 472.917
2604 0 99.4366 13.5865 1351 120.942 631.061 472.047
2605 0 104.425 13.5409 1414 121.459 630.946 469.233
2606 0 107.483 14.2442 1531 119.619 630.815 469.145
2607 1 57.1815 11.4023 652 115.428 631.615 495.127
2608 0 59.1833 12.7063 752 116.826 631.453 491.757
2609 0 60.3942 12.882 778 113.51 629.833 486.756
2610 0 62.3342 12.5132 780 114.563 630.588 488.932
2611 0 64.3933 11.7093 754 115.927 630.675 489.206
2612 0 68.3603 13.4727 921 113.048 631.143 489.633
2613 0 71.4673 13.5866 971 113.211 630.893 488.816
2614 0 72.2804 12.6867 917 115.817 631.276 488.352
2615 0 74.4302 13.3548 994 114.605 631.569 486.446
2616 0 76.3892 12.3316 942 117.793 632.304 486.712
2617 0 81.3627 13.7655 1120 115.682 631.295 485.108
2618 0 85.3603 14.4329 1232 113.731 631.283 483.008
2619 0 86.3478 14.2216 1228 116.066 630.865 478.693
2620 0 88.8102 13.9061 1235 116.95 630.291 474.118
2621 0 89.6023 13.0354 1168 120.159 629.634 472.632
2622 1 50.2808 10.9187 549 117.92 629.255 495.446
2623 0 51.1457 11.3011 578 117.832 629.18 492.993
2624 0 53.0441 12.5933 668 113.704 628.073 494.93
2625 0 53.1566 13.432 714 108.653 628.714 498.389
2626 0 56.0461 13.3997 751 109.402 628.36 497.031
2627 0 59.2253 11.7855 698 113.778 627.377 477.83
2628 0 60.0929 14.2945 859 107.021 627.846 496.1
2629 0 60.1694 13.8276 832 109.358 628.463 492.755
2630 0 62.0564 12.5853 781 112.3 628.99 492.633
2631 0 65.2552 13.0564 852 110.116 628.548 491.462
2632 0 66.2096 12.9437 857 110.378 628.797 491.891
2633 0 68.3596 12.639 864 110.572 629.289 490.411
2634 0 72.4637 12.9858 941 109.326 629.185 481.135
2635 0 72.5023 14.303 1037 105.606 629.146 482.944
2636 0 74.4368 12.1311 903 109.435 628.561 483.719
2637 0 77.179 13.5011 1042 106.504 627.869 483.287
2638 0 80.161 11.8636 951 109.718 629.059 482.413
2639 0 83.2878 11.9105 992 109.86 628.685 482.936
2640 0 87.1035 14.4426 1258 105.941 628.331 482.134
2641 0 93.2264 13.2902 1239 106.035 629.175 482.503
2642 0 92.2725 12.4522 1149 109.214 629.005 477.326
2643 0 96.3839 11.9626 1153 109.122 629.912 476.716
2644 1 50.2134 11.7299 589 104.531 631.146 499.319
2645 0 50.0639 11.6251 582 103.873 631.503 496.814
2646 0 54.082 12.7769 691 103.774 631.385 496.844
2647 0 55.0345 12.1197 667 104.711 631.255 496.468
2648 0 52.1208 10.821 564 103.186 628.363 498.436
2649 0 56.0852 10.3057 578 102.979 627.349 497.758
2650 0 59.1061 10.8957 644 101.554 626.539 496.727
2651 0 61.1649 12.8178 784 98.7691 627.236 494.036
2652 0 64.0764 11.5643 741 100.854 626.75 492.853
2653 0 64.067 11.3007 724 102.872 626.822 491.811
2654 0 67.0495 11.0664 742 103.071 627.369 492.415
2655 0 70.1322 12.177 854 99.507 626.83 491.078
2656 0 72.0988 12.3719 892 100.219 628.526 489.725
2657 0 74.0894 11.9585 886 99.6738 628.049 491.278
2658 0 74.1483 10.9106 809 102.739 627.294 486.653
2659 0 81.1746 13.8467 1124 96.669 627.585 486.42
2660 0 83.1255 11.7293 975 99.9969 627.679 488.688
2661 0 86.1199 12.1807 1049 99.6806 627.86 482.766
2662 0 89.1592 12.3263 1099 97.8817 628.03 481.652
2663 0 91.14 11.2245 1023 99.9296 627.846 480.283
2664 0 94.1708 10.8208 1019 100.101 628.071 477.238
2665 0 98.2855 10.3983 1022 99.3562 626.964 478.423
2666 1 52.08 11.0791 577 100.773 626.066 498.775
2667 0 53.1326 12.1771 647 101.184 625.924 495.798
2668 0 56.243 13.175 741 98.9622 626.664 498.051
2669 0 57.2161 12.3042 704 100.803 627.26 497.234
2670 0 56.1995 12.3133 692 102.048 627.357 494.925
2671 0 61.271 12.5018 766 100.42 627.432 494.945
2672 0 61.1955 11.7492 719 102.654 626.937 493.629
2673 0 62.347 12.4304 775 100.849 626.955 493.957
2674 0 66.4229 12.029 799 100.851 626.745 492.811
2675 0 69.2716 13.3099 922 98.5738 627.536 489.628
2676 0 71.369 12.6105 900 99.0556 627.651 490.14
2677 0 72.2191 11.299 816 102.429 626.315 490.414
2678 0 78.3154 11.5941 908 98.7941 626.928 488.634
2679 0 80.431 13.5023 1086 95.7449 627.446 485.45
2680 0 83.2888 12.1985 1016 98.5433 627.104 485.078
2681 0 85.5337 11.9719 1024 98.4414 627.775 483.982
2682 0 88.5115 12.9927 1150 96.2017 628.386 482.336
2683 0 92.2078 13.2527 1222 96.5655 628.212 478.298
2684 1 49.3211 10.4823 517 96.9439 628.358 501.586
2685 0 50.4343 11.5794 584 94.589 629.354 497.894
2686 0 54.2908 12.9119 701 92.1555 628.542 497.241
2687 0 54.4236 11.3186 616 96.1948 628.828 497.781
2688 0 56.3405 12.1937 687 93.6725 628.691 498.643
2689 0 56.4426 10.9492 618 98.2783 627.743 494.345
2690 0 57.4072 11.253 646 97.0526 628.402 496.113
2691 0 60.4005 11.8376 715 95.8685 628.601 493.796
2692 0 59.5041 11.6463 693 97.6522 629.322 494.271
2693 0 62.5692 11.5872 725 97.0524 628.448 494.172
2694 0 65.3871 13.4124 877 94.0844 628.771 489.878
2695 0 67.394 12.3898 835 96.709 628.619 489.472
2696 0 67.4606 12.9409 873 96.6712 628.003 489.62
2697 0 71.4048 13.1084 936 96.0491 628.412 489.939
2698 0 73.4969 12.8849 947 97.2598 628.629 488.641
2699 0 74.3514 12.9924 966 98.3551 629.047 487.73
2700 0 76.2603 14.2276 1085 96.3548 628.481 487.545
2701 0 79.4225 12.402 985 100.378 628.249 485.708
2702 0 81.254 13.2055 1073 99.9571 628.544 484.218
2703 0 80.3225 12.0141 965 104.036 628.848 482.202
2704 0 86.2107 13.0262 1123 101.13 628.404 480.447
2705 0 86.2245 12.6414 1090 103.519 628.449 479.301
2706 0 90.1612 12.3667 1115 101.829 628.192 478.761
2707 0 93.3154 14.1992 1325 99.8709 628.039 476.25
2708 0 96.352 13.3573 1287 94.5478 628.495 477.649
2709 0 98.3336 11.3084 1112 100.279 628.292 474.405
2710 0 102.311 11.641 1191 100.605 627.896 473.576
2711 0 105.234 12.1348 1277 94.639 628.555 468.63
2712 0 111.435 12.1864 1358 93.972 629.004 468.553
2713 0 114.212 12.9583 1480 93.8615 628.428 466.643
2714 1 64.0568 11.521 738 92.9986 629.904 494.378
2715 0 63.0928 12.5371 791 95.1024 629.612 493.831
2716 0 65.0516 12.1288 789 95.5247 629.837 492.672
2717 0 67.2548 12.1924 820 94.1951 630.294 490.928
2718 0 72.1082 13.036 940 91.6064 629.829 489.787
2719 0 74.1259 13.7874 1022 90.6546 630.528 488.109
2720 0 75.0736 12.2946 923 91.896 630.569 485.918
2721 0 79.3474 14.4932 1150 87.773 630.297 484.412
2722 0 78.1809 10.2711 803 97.3786 630.585 485.093
2723 0 83.1803 12.3106 1024 93.7705 630.868 482.829
2724 0 87.1563 11.6457 1015 94.3192 630.452 482.858
2725 0 90.1285 12.9926 1171 92.3134 630.662 477.987
2726 0 92.1645 13.9642 1287 90.8936 629.513 479.468
2727 0 98.2001 14.0835 1383 89.8409 630.575 476.623
2728 0 99.142 12.8704 1276 92.8887 631.357 474.774
2729 0 101.141 13.6839 1384 92.177 630.339 473.415
2730 0 106.207 14.8013 1572 88.708 630.296 472.344
2731 0 108.248 13.931 1508 91.1008 631 470.796
2732 0 112.317 14.3967 1617 89.8955 630.563 468.959
2733 1 58.2177 11.2852 657 95.4216 630.642 494.848
2734 0 61.2023 12.3852 758 93.9776 631.067 495.441
2735 0 62.245 12.74 793 93.8701 630.624 494.411
2736 0 65.2321 13.475 879 93.0296 630.325 490.697
2737 0 68.2051 13.0489 890 93.3551 630.575 489.867
2738 0 69.2842 14.6642 1016 91.878 630.054 488.528
2739 0 71.1988 14.3682 1023 93.8993 630.163 487.483
2740 0 73.2341 13.5183 990 96.8323 630.511 486.699
2741 0 74.1792 13.9257 1033 96.1065 631.073 487.245
2742 0 77.1863 12.7225 982 98.8798 630.766 487.435
2743 0 80.1343 13.3276 1068 96.5328 631.379 482.603
2744 0 82.2098 13.8548 1139 93.2897 629.449 482.263
2745 0 84.1644 13.7944 1161 94.3626 628.99 481.042
2746 0 87.1917 13.671 1192 96.7836 629.435 479.795
2747 0 91.2365 15.1584 1383 93.504 629.082 479.158
2748 0 94.4774 14.0245 1325 97.2023 629.508 475.97
2749 0 97.1681 13.2657 1289 98.8386 629.112 475.042
2750 0 102.208 13.9129 1422 96.8924 629.46 474.321
2751 0 103.321 14.363 1484 96.7871 629.408 473.949
2752 0 108.16 14.7929 1600 96.57 630.244 471.059
2753 0 108.209 13.4092 1451 101.057 630.123 468.865
2754 0 115.241 14.9687 1725 98.0087 629.988 467.681
2755 1 61.1735 13.9112 851 98.0364 629.98 495.626
2756 0 62.1777 12.609 784 102.598 629.855 492.735
2757 0 64.1733 12.7311 817 102.991 629.3 491.547
2758 0 66.2777 14.5298 963 98.3686 629.124 490.015
2759 0 68.3055 14.3619 981 97.9348 629.489 491.81
2760 0 70.5586 14.3285 1011 99.2196 629.193 490.566
2761 0 72.2002 13.8365 999 101.493 629.227 488.447
2762 0 72.48 13.8383 1003 102.581 629.876 488.298
2763 0 76.4584 14.4261 1103 102.424 629.417 486.412
2764 0 80.4982 15.342 1235 99.8964 629.785 486.197
2765 0 82.5242 15.6318 1290 100.685 630.112 483.239
2766 0 84.4355 14.745 1245 103.448 630.227 481.462
2767 0 89.5449 15.8356 1418 99.7807 630.398 480.991
2768 0 90.6928 14.4885 1314 106.055 630.435 477.318
2769 0 91.2771 14.4396 1318 105.454 631.437 478.763
2770 0 94.4245 14.3183 1352 106.899 631.155 476.393
2771 0 99.5577 14.3334 1427 105.996 630.968 467.38
2772 0 99.4771 13.6212 1355 108.305 630.601 468.7
2773 0 104.603 14.3207 1498 106.827 631.12 468.006
2774 0 107.401 14.916 1602 104.85 630.895 471.511
2775 0 109.487 13.1613 1441 108.421 630.795 470.691
2776 0 114.351 13.8434 1583 107.274 630.105 469.664
2777 1 57.1612 11.6687 667 103.105 631.549 495.937
2778 0 57.0772 10.3369 590 108.102 630.527 493.178
2779 0 64.1702 13.62 874 102.204 629.098 491.315
2780 0 65.0835 12.4916 813 106.629 628.311 489.683
2781 0 67.113 13.3357 895 105.437 628.439 488.429
2782 0 71.1586 12.5775 895 106.846 628.589 486.813
2783 0 72.1074 13.7157 989 104.662 627.851 487.152
2784 0 74.3113 13.0397 969 105.249 628.426 485.434
2785 0 76.3487 13.4907 1030 104.209 628.752 482.506
2786 0 79.2518 13.6653 1083 105.105 628.908 480.685
2787 0 80.2821 14.0878 1131 103.109 629.849 483.967
2788 0 83.4292 13.904 1160 103.945 630.013 483.827
2789 0 84.2133 14.012 1180 105.072 630.349 483.049
2790 0 88.3054 13.8836 1226 107.115 629.223 477.923
2791 0 91.4708 13.0861 1197 109.346 628.315 471.662
2792 0 91.3087 11.4666 1047 113.577 628.77 471.353
2793 0 96.315 13.6635 1316 109.538 628.834 470.082
2794 0 99.4796 14.8171 1474 107.53 628.473 467.818
2795 0 103.354 13.4683 1392 110.228 628.626 467.085
2796 1 53.2185 12.0823 643 109.375 629.709 492.445
2797 0 58.1235 12.7659 742 107.384 629.439 493.701
2798 0 57.1709 11.8242 676 111.814 630.108 489.993
2799 0 60.158 12.7664 768 107.94 630.259 491.59
2800 0 62.0999 14.1063 876 105.705 630.666 490.885
2801 0 65.1439 13.048 850 108.724 630.501 491.036
2802 0 67.2141 15.4134 1036 105.365 630.189 489.21
2803 0 69.1921 13.7732 953 109.914 629.924 485.844
2804 0 72.176 13.4671 972 110.54 630.44 488.118
2805 0 76.2854 12.7678 974 111.503 630.315 486.199
2806 0 80.2505 14.1432 1135 109.1 630.559 484.026
2807 0 80.2426 13.8455 1111 112.027 630.041 481.172
2808 0 84.2713 13.8837 1170 112.418 629.952 480.207
2809 0 85.1501 12.8479 1094 115.939 630.467 478.03
2810 0 90.3289 13.8383 1250 112.295 629.543 478.182
2811 0 93.2197 13.5272 1261 117.092 630.284 476.983
2812 0 97.3537 13.528 1317 119.084 629.508 473.449
2813 1 48.211 9.76954 471 119.31 629.429 497.69
2814 0 51.3201 12.8799 661 115.177 628.687 492.047
2815 0 50.2248 9.93533 499 106.479 628.609 490.122
2816 0 53.0828 11.774 625 102.984 628.189 492.579
2817 0 53.1633 10.7405 571 104.932 628.795 492.306
2818 0 56.1619 10.2739 577 107.494 629.196 490.612
2819 0 58.1231 12.4563 724 103.872 629.978 490.791
2820 0 60.1215 12.192 733 104.497 629.381 489.266
2821 0 61.0873 13.3088 813 103.711 630.144 486.341
2822 0 65.1084 12.6558 824 104.721 629.86 487.394
2823 0 68.1445 11.2702 768 107.741 629.066 488.809
2824 0 67.1476 12.0332 808 108.609 629.502 483.902
2825 0 70.2047 12.2784 862 107.704 628.878 486.912
2826 0 72.0799 12.5971 908 109.194 629.109 484.627
2827 0 74.2604 11.6213 863 111.316 628.934 482.725
2828 0 80.2405 14.2322 1142 104.675 628.734 483.973
2829 0 81.1678 13.7986 1120 107.362 628.7 481.613
2830 0 82.3083 13.5588 1116 110.63 628.724 481.293
2831 0 85.1241 13.3452 1136 112.989 628.079 479.864
2832 0 91.3321 14.5184 1326 117.979 628.02 481.02
2833 0 93.3202 13.4912 1259 119.643 628.44 480.405
2834 0 96.2106 14.2292 1369 117.673 628.182 477.334
2835 0 101.156 14.6902 1486 118.813 628.535 476.04
2836 1 55.0866 11.3458 625 122.872 629.939 497.973
2837 0 57.1216 13.4625 769 107.309 628.559 497.16
2838 0 59.2029 12.0264 712 109.176 627.774 496.987
2839 0 62.0787 13.6279 846 109.494 627.201 496.949
2840 0 64.2086 13.0979 841 111.994 627.556 494.641
2841 0 64.1269 13.3641 857 111.454 627.281 494.666
2842 0 67.269 13.2305 890 112.327 627.302 490.722
2843 0 70.2588 13.8346 972 110.922 627.546 491.237
2844 0 71.0918 14.1507 1006 110.886 627.181 490.009
2845 0 75.2556 13.6601 1028 111.255 627.407 490.474
2846 0 73.3726 12.1707 893 116.349 627.747 487.766
2847 0 76.3755 13.0539 997 114.015 627.82 487.731
2848 0 81.3757 14.2672 1161 110.331 627.986 485.438
2849 0 82.3446 13.3706 1101 112.736 628.169 485.129
2850 0 85.2631 13.5228 1153 117.329 628.007 482.087
2851 0 88.4013 12.9749 1147 117.568 628.175 481.11
2852 0 90.4484 12.836 1161 116.093 627.959 480.014
2853 0 96.3673 14.0193 1351 110.637 628.161 478.071
2854 0 99.3279 14.5578 1446 108.645 628.2 480.055
2855 0 101.193 13.4594 1362 112.609 627.952 475.419
2856 1 47.5116 11.3236 538 110.775 628.294 501.493
2857 0 49.3944 10.9931 543 107.884 628.762 499.372
2858 0 53.1608 12.1142 644 110.748 626.775 499.587
2859 0 54.2789 12.749 692 111.195 626.977 498.517
2860 0 56.1454 12.7882 718 111.515 627.428 499.114
2861 0 57.1013 13.5198 772 111 626.563 497.972
2862 0 58.1015 12.22 710 115.156 626.692 496.632
2863 0 59.0585 12.2929 726 116.394 627.052 495.778
2864 0 63.2291 14.06 889 111.012 627.371 495.661
2865 0 64.1253 14.9863 961 110.815 626.724 493.872
2866 0 65.1448 13.1553 857 116.313 626.644 494.572
2867 0 67.2492 14.424 970 114.966 626.897 491.456
2868 0 69.3395 13.744 953 117.11 627.307 492.645
2869 0 71.3449 14.1426 1009 117.531 627.114 489.958
2870 0 74.3955 14.2347 1059 117.893 627.663 488.744
2871 0 76.2806 14.4467 1102 118.784 626.887 488.007
2872 0 78.3324 13.5193 1059 122.166 626.389 487.836
2873 0 79.3525 14.2024 1127 121.332 626.486 486.816
2874 0 83.1804 14.6549 1219 120.073 626.759 484.106
2875 0 87.2437 14.3391 1251 121.197 627.417 484.142
2876 0 89.1445 13.8988 1239 121.555 627.304 481.276
2877 1 46.2162 11.576 535 121.925 627.183 499.785
2878 0 48.2116 11.8229 570 123.053 627.137 497.981
2879 0 50.2136 11.2121 563 124.524 627.213 498.19
2880 0 51.2648 12.6988 651 124.068 627.565 499.194
2881 0 51.3012 12.5923 646 125.341 627.254 498.18
2882 0 54.0476 12.5075 676 122.817 629.172 498.765
2883 0 54.1131 12.6587 685 123.314 629.255 498.164
2884 0 58.0542 12.7639 741 121.139 630.321 493.919
2885 0 58.0498 12.0414 699 123.263 630.235 495.79
2886 0 61.1742 13.0937 801 121.849 630.487 493.729
2887 0 62.1623 12.6282 785 123.306 630.69 494.233
2888 0 63.3363 12.0468 763 126.495 630.671 493.014
2889 0 66.0852 14.7688 976 119.983 630.105 489.419
2890 0 70.1651 13.7818 967 120.019 629.992 490.926
2891 0 70.2329 13.9678 981 121.672 630.414 489.401
2892 0 72.2254 13.0148 940 124.018 627.915 487.891
2893 0 73.2319 11.8801 870 127.311 627.63 487.168
2894 0 77.0789 13.8949 1071 122.151 627.3 485.767
2895 0 77.1838 13.1763 1017 124.194 627.517 485.151
2896 0 79.3439 13.0445 1035 125.808 628.098 482.645
2897 0 84.2638 13.7544 1159 123.87 627.558 481.091
2898 0 85.2171 13.7883 1175 125.757 627.885 479.68
2899 0 89.5862 14.4665 1296 123.229 628.258 480.025
2900 0 91.2693 14.2217 1298 124.819 627.508 476.89
2901 0 94.5003 14.3174 1353 123.772 627.9 476.466
2902 0 97.5055 14.7274 1436 122.88 628.931 474.971
2903 0 100.56 14.1408 1422 122.982 628.435 473.484
2904 0 104.585 13.6349 1426 123.482 628.311 474.549
2905 0 108.517 14.477 1571 121.85 628.416 467.829
2906 0 110.174 13.524 1490 124.9 627.084 462.697
2907 1 62.2888 11.7678 733 122.299 627.472 493.288
2908 0 65.4231 13.1299 859 119.611 629.494 491.666
2909 0 64.4964 12.4503 803 123.908 628.555 490.045
2910 0 66.4047 12.4539 827 123.653 628.972 489.219
2911 0 69.4534 12.5264 870 122.374 629.259 488.633
2912 0 73.354 13.7143 1006 119.61 628.685 486.006
2913 0 74.4511 12.9615 965 121.374 628.606 484.37
2914 0 77.2974 13.2087 1021 122.289 628.215 483.278
2915 0 79.4647 13.1379 1044 123.057 628.716 482.352
2916 0 83.3789 14.3801 1199 118.966 628.596 481.444
2917 0 85.3817 14.3122 1222 118.7 629.16 480.995
2918 0 88.299 13.7827 1217 119.988 629.135 476.19
2919 0 91.2488 14.0714 1284 117.752 628.824 477.836
2920 0 95.3026 13.5883 1295 119.549 628.445 473.784
2921 0 99.2519 12.9569 1286 120.712 628.455 474.014
2922 0 100.207 13.4521 1348 120.723 628.668 471.161
2923 1 55.1787 10.6925 590 119.258 630.178 496.183
2924 0 56.1635 13.0868 735 115.687 630.307 492.529
2925 0 56.1663 11.9467 671 116.626 631.124 490.365
2926 0 59.033 11.1802 660 117.438 630.802 488.674
2927 0 61.0616 12.5775 768 113.848 630.16 490.116
2928 0 63.1056 11.8848 750 116.136 630.071 488.247
2929 0 65.0956 12.2589 798 115.113 630.406 487.009
2930 0 67.0952 12.2662 823 117.349 629.701 468.262
2931 0 70.0797 12.9995 911 115.053 629.884 467.576
2932 0 72.0552 12.3378 889 115.223 630.025 484.439
2933 0 75.0913 13.9297 1046 111.078 629.707 483.132
2934 0 76.1903 13.86 1056 111.906 629.529 483.015
2935 0 79.1436 12.6605 1002 115.276 629.213 479.939
2936 0 84.3524 13.491 1138 111.977 628.885 477.524
2937 0 87.3902 13.6056 1189 111.38 628.274 476.255
2938 0 90.2489 13.2744 1198 111.901 628.927 475.087
2939 0 93.4658 14.5829 1363 107.853 628.52 473.473
2940 1 47.5501 10.8727 517 112.074 628.306 491.313
2941 0 48.313 11.0736 535 111.286 628.114 491.346
2942 0 51.3676 11.1938 575 106.91 627.414 490.558
2943 0 52.5064 12.5508 659 104.762 627.581 489.49
2944 0 53.314 11.7417 626 106.835 627.834 488.757
2945 0 57.358 12.3958 711 104.127 627.821 489.82
2946 0 60.5288 10.8048 654 107.258 627.826 488.497
2947 0 60.4477 12.06 729 105.845 627.787 485.856
2948 0 61.3113 11.2051 687 108.221 627.448 485.824
2949 0 64.32 12.4533 801 104.559 626.93 488.177
2950 0 67.4194 12.4445 839 103.16 627.756 487.719
2951 0 69.2597 12.8069 887 103.299 627.728 484.696
2952 0 71.3417 11.4379 816 107.263 627.842 482.411
2953 0 73.3052 12.1274 889 105.634 627.873 484.267
2954 0 76.3331 13.2577 1012 104.638 628.038 481.094
2955 0 78.3108 12.2461 959 106.611 627.968 482.381
2956 0 81.4488 12.4986 1018 106.411 627.851 480.861
2957 0 85.315 12.7762 1090 105.952 628.053 481.642
2958 0 87.3313 12.7446 1113 107.208 627.456 479.968
2959 0 87.2439 12.5281 1093 110.292 627.836 477.884
2960 0 89.1914 12.5573 1120 111.271 627.872 474.765
2961 0 96.573 13.5856 1312 108.073 628.18 471.351
2962 0 97.2833 12.7668 1242 110.302 628.524 473.196
2963 0 101.356 13.3688 1355 109.737 628.578 469.075
2964 1 55.2903 11.0508 611 105.45 629.275 494.208
2965 0 56.5653 10.9785 621 108.754 628.583 490.549
2966 0 58.1688 11.3979 663 106.827 629.386 490.228
2967 0 58.2377 10.2168 595 116.491 627.422 493.099
2968 0 63.1948 10.7604 680 112.606 627.444 492.488
2969 0 67.2273 11.6471 783 110.436 627.42 490.347
2970 0 68.3014 11.4932 785 111.8 627.546 489.526
2971 0 68.2461 11.1801 763 112.761 627.992 488.291
2972 0 75.3045 12.0577 908 109.649 628.202 487.229
2973 0 75.2556 11.7998 888 110.354 628.667 483.494
2974 0 79.1694 12.429 984 107.471 629.276 484.099
2975 0 80.0923 11.2121 898 111.514 628.758 481.36
2976 0 82.1663 10.783 886 115.534 628.913 482.967
2977 0 85.2164 11.8991 1014 114.137 627.969 482.346
2978 0 89.1641 14.2434 1270 106.739 629.887 482.216
2979 0 90.1156 11.5962 1045 114.513 629.719 479.577
2980 0 91.2259 11.8168 1078 115.731 628.906 478.58
2981 0 96.2095 12.4728 1200 114.514 629.077 477.238
2982 0 101.289 13.0518 1322 113.132 629.113 474.306
2983 1 53.0966 11.2248 596 109.336 629.267 500.512
2984 0 54.1105 10.1274 548 112.827 629.409 498.595
2985 0 57.0744 12.913 737 105.172 627.772 496.864
2986 0 59.1868 12.4521 737 107.653 626.642 496.421
2987 0 58.2563 12.9085 752 107.371 626.952 495.807
2988 0 62.0535 13.2305 821 105.839 626.602 494.378
2989 0 63.1555 12.9046 815 106.394 626.855 493.21
2990 0 65.141 12.8797 839 106.094 627.193 494.934
2991 0 68.0986 13.0105 886 106.375 627.106 492.024
2992 0 70.1199 12.1791 854 108.288 627.55 490.141
2993 0 71.1277 13.2719 944 106.624 627.439 488.468
2994 0 75.1131 12.581 945 107.483 626.858 490.317
2995 0 78.2237 13.3463 1044 106.559 627.01 486.71
2996 0 80.1393 12.8027 1026 105.463 628.253 484.309
2997 0 84.2642 13.3034 1121 104.648 628.521 482.716
2998 0 87.3236 12.906 1127 106.083 627.978 484.938
2999 0 90.1776 13.4734 1215 106.026 628.209 481.686
3000 0 92.1962 15.2067 1402 104.384 628.021 478.534
3001 0 93.2211 12.3899 1155 112.334 627.984 478.11
3002 1 50.2032 11.3738 571 114.699 627.897 500.368
3003 0 52.3088 13.1335 687 115.528 627.93 497.448
3004 0 52.1732 12.0752 630 118.559 627.767 496.684
3005 0 57.3838 13.3313 765 112.122 628.089 498.125
3006 0 57.2736 14.3522 822 111.776 628.296 495.782
3007 0 59.3333 14.7472 875 110.945 627.8 495.091
3008 0 59.366 14.4022 855 112.681 627.952 494.075
3009 0 62.3983 12.9811 810 114.562 627.104 493.227
3010 0 65.4741 15.1205 990 109.653 627.117 492.366
3011 0 66.4881 13.5212 899 115.055 627.576 491.57
3012 0 67.5337 14.5705 984 113.863 627.258 487.643
3013 0 69.3619 13.5809 942 117.277 627.758 486.165
3014 0 71.7933 12.926 928 119.311 627.721 486.446
3015 0 73.7674 13.285 980 119.278 627.51 482.778
3016 0 75.6596 12.9528 980 121.319 627.402 481.724
3017 0 79.4974 14.6168 1162 117.274 627.405 481.033
3018 0 81.5258 14.523 1184 121.565 627.586 478.628
3019 0 85.6189 14.1674 1213 121.69 627.703 477.477
3020 0 87.608 15.5808 1365 118.941 627.862 476.28
3021 0 87.426 13.7945 1206 125.109 627.904 473.315
3022 0 90.7575 14.2247 1291 124.145 627.919 473.662
3023 0 95.5159 13.715 1310 124.376 627.74 472.259
3024 0 97.5169 13.8438 1350 125.561 628.327 469.379
3025 0 100.763 14.4398 1455 123.589 627.509 470.149
3026 0 103.474 15.3855 1592 121.927 627.773 468.607
3027 0 106.575 14.4406 1539 124.513 627.955 467.79
3028 0 109.698 15.2692 1675 122.215 628.151 466.771
3029 0 113.579 13.779 1565 125.665 627.522 465.481
3030 0 115.667 13.8501 1602 127.065 627.716 461.042
3031 0 120.495 14.9799 1805 123.8 627.764 458.653
3032 0 121.581 13.0776 1590 129.216 627.543 455.7
3033 0 127.582 15.01 1915 123.381 627.378 456.214
3034 0 131.511 13.7099 1803 126.296 627.667 456.462
3035 0 137.68 14.5991 2010 124.159 627.94 450.985
3036 0 141.621 13.8398 1960 127.046 627.561 447.704
3037 0 147.669 14.2954 2111 125.157 627.776 444.732
3038 0 151.619 14.3979 2183 124.883 627.893 441.174
3039 1 88.46 11.2819 998 120.888 626.879 474.359
3040 0 90.4373 12.4617 1127 119.052 627.327 473.357
3041 0 92.54 12.6972 1175 119.409 626.988 469.759
3042 0 97.6271 13.0701 1276 117.555 627.3 470.978
3043 0 98.4285 11.6531 1147 122.398 627.319 466.02
3044 0 103.279 12.7519 1317 118.915 627.077 467.437
3045 0 106.462 12.8685 1370 118.076 626.988 464.216
3046 0 111.302 11.8596 1320 115.161 626.933 465.13
3047 0 109.321 11.727 1282 114.399 627.027 462.88
3048 1 63.113 9.63352 608 111.789 626.903 489.878
3049 0 62.2626 9.7169 605 115.255 628.291 481.66
3050 0 64.2254 9.51337 611 97.3863 628.606 481.159
3051 0 66.4058 10.5111 698 100.223 629.481 481.557
3052 0 63.3016 8.73596 553 104.282 628.231 480.633
3053 0 65.2492 8.64378 564 103.658 628.069 480.66
3054 0 64.1583 9.52332 611 103.101 628.571 480.062
3055 0 69.2256 8.16173 565 102.949 628.343 482.287
3056 0 67.1675 9.43909 634 100.438 628.418 481.207
3057 0 72.135 9.52381 687 98.5459 628.495 477.392
3058 0 74.1665 9.34384 693 98.0722 628.391 472.124
3059 0 84.3471 10.6939 902 99.6763 629.509 479.819
3060 0 85.3388 11.4602 978 94.8241 629.842 480.981
3061 0 87.2734 11.4582 1000 94.078 629.546 476.64
3062 0 88.2876 8.01925 708 98.7472 629.768 478.09
3063 0 92.1492 9.79932 903 96.4241 629.507 477.359
3064 0 93.4382 9.67484 904 98.8119 628.288 476.971
3065 1 50.1185 9.29796 466 93.3155 628.414 499.702
3066 0 49.1184 8.85615 435 95.0851 628.724 499.72
3067 0 52.202 10.6318 555 92.9243 627.737 499.503
3068 0 52.1846 9.94547 519 95.9711 627.782 497.607
3069 0 53.0268 10.655 565 96.4779 628.749 497.163
3070 0 53.061 8.61272 457 101.212 628.512 496.193
3071 0 52.0915 9.96324 519 101.116 627.967 494.168
3072 0 57.1112 9.12256 521 101.883 628.923 495.846
3073 0 57.1175 8.77139 501 101.786 628.699 494.946
3074 0 60.0753 9.55467 574 102.047 628.497 491.822
3075 0 61.0691 10.7583 657 100.938 628.953 491.791
3076 0 63.1328 8.64843 546 106.44 628.615 490.201
3077 0 66.1077 9.06097 599 106.604 627.793 491.012
3078 0 65.0976 8.35668 544 109.438 627.026 488.485
3079 0 67.066 8.42454 565 109.032 627.239 486.724
3080 0 69.1269 8.02871 555 109.584 627.086 487.739
3081 0 72.2706 9.27071 670 108.928 627.052 484.684
3082 0 71.374 8.96685 640 110.734 627.086 482.68
3083 0 75.3355 9.07939 684 112.129 626.599 480.825
3084 0 79.4772 9.14728 727 113.05 627.066 481.374
3085 0 80.4775 10.1643 818 113.576 626.971 479.09
3086 0 84.3317 9.48635 800 114.349 626.928 476.435
3087 0 87.4099 9.11796 797 113.294 626.743 477.641
3088 0 89.4192 9.37159 838 116.856 626.05 477.407
3089 1 53.1317 9.86228 524 119.288 625.508 493.985
3090 0 55.2523 10.624 587 116.44 626.705 494.262
3091 0 51.1006 6.8101 348 116.796 629.325 496.44
3092 0 53.0785 8.44034 448 111.717 629.109 498.835
3093 0 55.0814 9.15009 504 112.329 629.167 495.881
3094 0 58.1507 10.232 595 111.064 629.422 493.447
3095 0 60.1377 10.3429 622 110.953 628.892 492.876
3096 0 61.2003 8.54571 523 113.329 629.149 492.765
3097 0 61.1931 8.62842 528 86.5341 629.962 492.244
3098 0 66.0406 11.4172 754 107.508 629.614 489.479
3099 0 65.208 10.7962 704 109.588 629.298 487.165
3100 0 68.1931 10.3969 709 108.549 628.551 489.997
3101 0 74.2587 11.7966 876 105.443 628.531 485.871
3102 0 75.3881 10.3332 779 108.902 627.026 483.172
3103 0 74.3354 8.97285 667 112.799 627.96 480.808
3104 0 79.3256 10.6649 846 108.225 627.323 481.349
3105 0 79.3048 10.6677 846 107.768 627.245 479.067
3106 0 86.3167 10.8901 940 108.211 627.048 474.431
3107 0 90.3526 10.9681 991 106.767 628.037 475.894
3108 0 92.3708 10.0681 930 107.344 627.568 479.289
3109 1 47.1191 10.6751 503 104.654 626.292 498.471
3110 0 49.0195 10.8324 531 103.77 626.083 496.316
3111 0 52.0472 11.9315 621 105.279 625.736 493.771
3112 0 52.0129 12.0162 625 105.666 626.166 493.576
3113 0 53.0806 12.7919 679 104.698 626.437 495.105
3114 0 55.0409 11.7004 644 106.758 625.329 492.516
3115 0 56.054 11.3105 634 107.797 625.776 493.142
3116 0 59.0972 12.691 750 104.944 626.017 490.944
3117 0 60.0606 11.7215 704 107.643 625.759 490.172
3118 0 62.0586 13.1005 813 104.601 625.645 490.919
3119 0 61.1533 11.7737 720 109.015 626.178 490.274
3120 0 65.1213 12.899 840 106.469 626.261 489.05
3121 0 67.1669 13.1612 884 105.385 626.609 488.468
3122 0 68.1032 12.2021 831 107.162 625.912 488.407
3123 0 71.0731 13.3243 947 105.146 625.646 487.402
3124 0 72.1363 12.8923 930 106.806 626.805 486.894
3125 0 76.1884 13.2566 1010 106.022 626.766 485.258
3126 0 77.2143 13.6633 1055 105.283 627.043 485.447
3127 0 79.206 12.3349 977 108.929 627.613 482.58
3128 0 82.4279 13.6726 1127 105.206 629.032 478.839
3129 0 84.1292 12.7542 1073 99.3075 629.471 480.477
3130 0 86.1301 11.5639 996 100.728 630.133 478.271
3131 0 89.3675 11.8499 1059 100.057 629.318 476.22
3132 0 92.2201 11.4292 1054 99.8985 629.098 476.935
3133 0 94.2841 12.3563 1165 97.8026 629.993 474.084
3134 0 98.1491 11.6761 1146 99.397 629.146 469.53
3135 1 53.1262 10.4092 553 100.647 630.637 494.884
3136 0 58.0526 12.4887 725 95.0441 629.935 495.764
3137 0 58.103 11.8066 686 98.4082 628.529 491.51
3138 0 59.0725 11.8329 699 96.897 630.647 492.948
3139 0 63.1104 12.5177 790 96.2291 630.889 490.967
3140 0 65.0513 12.8053 833 101.101 630.702 489.633
3141 0 66.131 12.0821 799 103.522 630.671 487.453
3142 0 68.0694 12.5607 855 102.843 630.573 487.62
3143 0 70.0866 10.9436 767 106.055 630.892 484.107
3144 0 72.1691 12.4014 895 103.362 631.14 483.835
3145 0 75.0592 12.0971 908 104.97 631.023 483.036
3146 0 75.1035 11.8769 892 108.222 631.067 483.075
3147 0 80.1223 12.9552 1038 105.559 631.151 479.808
3148 0 82.1374 12.5887 1034 106.84 631.068 480.778
3149 0 85.1926 13.4754 1148 103.94 630.776 481.516
3150 0 89.1515 13.6958 1221 103.184 630.804 480.966
3151 0 91.1262 13.2234 1205 104.995 630.561 479.74
3152 0 93.1787 13.3078 1240 106.39 630.837 474.619
3153 0 99.3043 14.6922 1459 103.506 630.309 475.816
3154 0 103.141 14.4171 1487 103.681 627.563 468.808
3155 0 105.229 12.7151 1338 107.516 630.297 471.693
3156 1 58.138 11.3179 658 104.53 627.6 494.28
3157 0 61.4273 13.0073 799 103.503 630.09 493.213
3158 0 59.2842 12.3304 731 99.7291 629.421 490.829
3159 0 59.0594 10.5656 624 102.444 626.699 489.03
3160 0 63.0845 12.2693 774 98.4406 626.628 486.822
3161 0 63.0932 11.3641 717 101.614 627.075 484.713
3162 0 64.1226 11.7431 753 101.185 627.078 483.396
3163 0 67.1515 12.3303 828 100.287 627.359 482.604
3164 0 70.0889 12.3415 865 101.096 626.934 484.366
3165 0 70.1036 10.998 771 106.441 627.636 481.935
3166 0 75.0697 11.8956 893 103.69 626.997 483.252
3167 0 75.0526 13.4306 1008 101.717 627.232 482.481
3168 0 77.0744 13.0134 1003 104.302 627.422 477.887
3169 0 79.0553 13.3071 1052 102.523 627.093 478.921
3170 0 81.1832 12.4287 1009 105.414 628.086 477.111
3171 0 84.3042 13.0361 1099 104.274 628.123 475.114
3172 0 86.3216 12.9516 1118 104.248 627.956 472.75
3173 0 91.1106 13.1928 1202 104.381 627.785 470.318
3174 0 93.1777 13.3079 1240 103.619 628.626 472.947
3175 0 96.1859 12.7358 1225 100.273 628.461 472.263
3176 0 99.1369 13.0426 1293 100.769 629.339 470.701
3177 0 102.226 13.0984 1339 100.336 629.396 471.553
3178 0 105.184 13.2244 1391 100.472 629.076 471.189
3179 0 106.285 13.6708 1453 104.376 628.442 462.918
3180 0 106.29 13.4255 1427 102.722 628.082 459.35
3181 0 110.387 12.2025 1347 105.527 627.61 459.085
3182 0 114.544 12.7898 1465 106.788 627.378 457.444
3183 0 118.359 14.287 1691 107.807 627.674 454.516
3184 1 65.4057 11.7268 767 108.544 628.447 481.098
3185 0 68.0786 11.898 810 108.595 629.811 480.509
3186 0 72.1668 13.8291 998 103.841 627.585 470.514
3187 0 73.3347 12.8725 944 106.817 627.557 475.464
3188 0 72.2549 12.6497 914 108.465 627.344 473.268
3189 0 76.2382 12.0937 922 108.526 626.779 475.17
3190 0 79.221 13.1152 1039 106.496 627.22 476.85
3191 0 77.1794 12.4774 963 110.602 627.648 471.821
3192 0 80.2271 12.8635 1032 109.425 627.964 471.555
3193 0 84.2176 14.2251 1198 106.309 627.812 468.556
3194 0 84.1863 11.9972 1010 112.103 627.871 464.258
3195 0 90.2692 12.363 1116 110.116 627.728 467.565
3196 0 91.2838 13.9346 1272 107.726 626.899 465.937
3197 0 92.1494 11.5465 1064 113.815 627.395 461.801
3198 0 96.2848 12.2761 1182 110.771 626.742 464.03
3199 0 99.3279 12.353 1227 112.808 626.715 459.785
3200 0 102.292 12.2492 1253 112.256 627.334 458.5
3201 0 106.333 12.2634 1304 112.273 627.228 457.045
3202 0 109.235 12.8622 1405 110.5 627.243 453.982
3203 0 111.366 12.7777 1423 111.324 627.216 453.596
3204 0 115.462 12.0473 1391 112.436 627.491 450.625
3205 0 121.409 12.1654 1477 111.339 627.122 447.07
3206 0 126.322 12.2465 1547 110.849 627.47 444.791
3207 0 133.262 13.162 1754 107.83 627.169 443.982
3208 1 70.1885 11.6258 816 103.186 626.978 475.838
3209 0 76.209 12.282 936 99.8857 626.993 475.405
3210 0 77.203 8.93748 690 104.133 628.003 476.149
3211 0 77.2293 10.4753 809 103.002 627.624 471.891
3212 0 79.1216 10.882 861 102.314 628.552 468.85
3213 0 86.0896 10.6633 918 102.217 628.442 473.063
3214 0 87.0728 10.3821 904 102.602 627.86 470.317
3215 0 94.2771 11.8056 1113 99.6882 627.765 470.952
3216 0 95.3211 10.4279 994 103.037 627.602 467.856
3217 0 97.2227 10.9234 1062 103.463 627.986 465.54
3218 0 100.266 11.5493 1158 102.565 627.549 462.285
3219 0 103.162 11.6418 1201 102.868 628.047 460.447
3220 0 106.066 11.3608 1205 104.142 627.91 458.208
3221 0 109.178 11.3027 1234 104.152 628.188 459.984
3222 0 113.248 10.9494 1240 106.325 628.027 455.24
3223 1 123.145 12.936 1593 113.993 628.775 456.217
3224 0 128.2 13.1747 1689 113.483 629.187 456.651
3225 0 130.132 12.4566 1621 112.399 628.365 423.177
3226 0 136.24 13.1679 1794 109.847 629.285 420.452
3227 0 138.436 13.0241 1803 112.576 628.851 417.886
3228 0 144.171 14.351 2069 108.75 629.061 422.542
3229 0 148.189 14.2791 2116 110.73 628.946 419.628
3230 0 155.312 15.6781 2435 106.961 629.494 422.613
3231 0 157.295 14.3615 2259 111.33 628.925 425.026
3232 0 164.234 14.3028 2349 111.22 629.225 428.123
3233 0 169.41 13.8126 2340 113.945 629.065 425.529
3234 0 173.381 14.621 2535 110.77 629.348 432.531
3235 0 179.371 14.863 2666 112.175 628.898 427.494
3236 0 186.381 15.1088 2816 112.36 629.515 426.282
3237 0 188.632 13.8152 2606 118.446 629.236 420.575
3238 0 194.462 14.1982 2761 117.782 629.506 419.585
3239 0 199.497 14.3811 2869 120.839 629.465 409.604
3240 0 207.502 15.6287 3243 120.921 629.122 407.376
3241 0 212.532 13.7109 2914 126.912 628.775 405.411
3242 0 218.487 14.431 3153 121.756 628.64 405.041
3243 0 223.495 14.9131 3333 118.303 628.17 395.461
3244 1 50.0785 8.30696 416 101.971 627.567 491.007
3245 0 56.2345 10.9897 618 103.584 627.159 494.235
3246 0 56.1047 11.0508 620 105.008 630.706 496.139
3247 0 57.0556 12.2337 698 103.649 630.734 492.749
3248 0 59.0482 10.4491 617 106.752 630.674 493.363
3249 0 61.0533 11.8913 726 103.179 629.836 492.938
3250 0 63.0646 12.733 803 103.295 630.318 492.819
3251 0 65.1154 12.378 806 103.16 629.557 491.739
3252 0 68.0775 12.4123 845 103.201 629.749 489.783
3253 0 68.1443 12.6056 859 104.645 629.764 486.725
3254 0 69.2119 11.5876 802 107.329 629.555 488.491
3255 0 73.1649 13.6814 1001 101.295 629.993 485.46
3256 0 74.1115 12.7645 946 104.003 628.554 484.329
3257 0 77.2548 11.3391 876 108.156 629.62 481.894
3258 0 80.2476 12.8353 1030 103.892 629.097 484.158
3259 0 81.1618 13.4793 1094 103.409 629.33 483.544
3260 0 83.5297 13.3366 1114 104.502 629.001 480.681
3261 0 86.4222 12.6935 1097 105.843 629.479 481.7
3262 0 85.1655 11.4953 979 107.229 627.754 474.302
3263 0 88.1585 12.0919 1066 112.265 626.458 475.89
3264 0 95.1473 13.3477 1270 108.341 626.404 475.641
3265 0 93.4535 11.0108 1029 103.797 627.45 465.346
3266 0 96.5654 11.4741 1108 103.667 628.068 462.985
3267 0 99.4063 12.4942 1242 102.043 627.852 466.251
3268 0 100.551 11.0889 1115 107.398 627.937 464.759
3269 0 107.415 12.1305 1303 107.445 628.188 463.157
3270 1 56.1713 10.29 578 111.019 627.801 486.739
3271 0 61.115 12.6646 774 103.805 628.283 487.669
3272 0 63.0346 12.39 781 98.8079 626.525 489.31
3273 0 64.3594 12.8186 825 95.4255 628.199 485.07
3274 0 65.0861 11.4156 743 98.2019 629.433 489.226
3275 0 68.1885 11.2922 770 100.208 628.188 486.501
3276 0 68.1637 11.9125 812 101.222 628.78 485.741
3277 0 70.1552 11.4888 806 102.39 629.148 484.978
3278 0 72.0941 11.9705 863 103.298 629.312 485.417
3279 0 76.1091 12.4952 951 102.143 628.467 483.677
3280 0 77.1474 12.3919 956 103.385 628.823 483.316
3281 0 78.107 11.6635 911 106.218 629.013 481.454
3282 0 80.1378 11.7173 939 107.037 628.708 481.983
3283 0 84.0537 13.0988 1101 104.591 628.299 478.313
3284 0 86.1544 12.2571 1056 106.233 628.566 476.991
3285 0 89.1574 12.2592 1093 107.24 628.851 475.885
3286 0 92.2232 12.9902 1198 105.189 628.649 475.864
3287 0 94.1917 12.8992 1215 105.83 628.569 472.781
3288 0 98.1078 12.048 1182 107.36 628.091 470.923
3289 0 100.164 11.1617 1118 109.102 628.838 471.35
3290 0 103.245 12.417 1282 108.63 627.788 466.221
3291 1 57.242 9.97519 571 106.585 627.59 490.674
3292 0 59.2709 12.0295 713 104.028 628.076 488.38
3293 0 54.0614 9.19324 497 109.296 628.378 486.634
3294 0 61.0696 12.3793 756 101.619 628.611 487.316
3295 0 62.0637 10.8759 675 106.898 628.347 484.721
3296 0 63.0861 10.8265 683 107.029 628.208 481.947
3297 0 66.1702 10.4428 691 107.233 628.55 484.168
3298 0 70.1641 10.8318 760 104.939 628.116 486.184
3299 0 71.2214 11.1343 793 107.936 628.427 481.769
3300 0 75.1265 13.1112 985 104.922 628.674 482.127
3301 0 78.2767 12.1237 949 110.092 629.151 481.9
3302 0 79.1721 12.3528 978 115.008 629.256 479.823
3303 0 81.1608 10.8057 877 117.791 628.59 480.489
3304 0 85.2833 13.1444 1121 112.347 628.928 479.231
3305 0 87.2446 12.4478 1086 114.237 629.454 478.481
3306 0 91.2217 11.9928 1094 114.846 629.151 476.283
3307 0 93.2432 12.8374 1197 114.175 628.179 475.601
3308 0 97.2582 12.3897 1205 116.208 628.302 475.997
3309 0 99.3119 12.063 1198 114.858 628.992 469.407
3310 0 103.383 12.739 1317 113.506 629.122 472.011
3311 0 108.284 12.7904 1385 112.76 629.116 468.596
3312 0 109.367 12.0238 1315 114.782 628.719 466.481
3313 0 116.243 12.9557 1506 112.487 629.195 465.528
3314 1 67.158 11.8378 795 112.131 628.369 490.992
3315 0 67.1213 12.3806 831 118.709 627.971 486.826
3316 0 67.1213 12.3359 828 134.511 626.981 486.818
3317 0 73.1778 12.9684 949 116.984 629.047 485.66
3318 0 75.0685 13.5476 1017 116.016 628.33 483.282
3319 0 78.0922 13.1255 1025 116.454 628.26 483.196
3320 0 81.0481 12.9676 1051 116.658 627.647 482.066
3321 0 82.0875 13.1323 1078 116.826 627.428 480.282
3322 0 87.1237 13.3144 1160 115.326 626.649 480.425
3323 0 90.0569 14.0023 1261 112.545 626.826 479.32
3324 0 92.1719 12.4116 1144 115.964 626.726 478.483
3325 0 94.072 12.533 1179 115.215 626.698 474.727
3326 0 99.0446 13.8927 1376 112.585 626.828 472.721
3327 1 57.0289 11.2224 640 111.295 626.178 494.211
3328 0 57.3414 11.5798 664 107.648 627.7 491.255
3329 0 59.3981 12.7108 755 105.853 628.54 486.432
3330 0 59.2251 11.3972 675 101.372 628.784 486.855
3331 0 59.1625 10.9022 645 103.719 628.208 484.324
3332 0 60.1753 10.5525 635 104.839 628.877 484.498
3333 0 63.1521 10.5143 664 103.244 628.5 488.998
3334 0 66.1931 11.6628 772 102.095 628.943 482
3335 0 67.1506 10.8115 726 104.382 628.457 480.339
3336 0 69.096 11.9544 826 102.862 628.542 477.293
3337 0 72.1457 12.1698 878 101.366 629.462 477.349
3338 0 72.0268 11.815 851 103.875 629.579 476.908
3339 0 72.2122 11.1892 808 105.981 628.939 474.652
3340 0 78.231 11.2743 882 104.609 628.34 474.349
3341 0 79.1496 11.3582 899 105.682 628.789 473.634
3342 0 77.173 11.1568 861 109.649 629.19 469.583
3343 0 82.0965 11.4012 936 110.166 629.874 470.55
3344 0 87.0931 11.0916 966 109.762 629.457 468.068
3345 0 85.1338 11.5465 983 111.243 629.745 464.439
3346 0 91.2225 11.8721 1083 111.824 629.491 465.251
3347 0 92.1173 12.3864 1141 112.963 629.542 462.69
3348 0 96.0906 12.8212 1232 113.069 629.204 460.428
3349 0 100.277 13.3131 1335 110.018 628.449 460.886
3350 0 101.163 12.0894 1223 117.573 628.955 459.543
3351 0 111.165 14.0062 1557 116.386 629.98 458.955
3352 0 111.141 13.9822 1554 117.564 630.03 459.47
3353 0 116.229 14.1875 1649 117.943 629.166 454.176
3354 0 117.257 13.4149 1573 120.867 628.524 453.987
3355 1 63.0748 10.5748 667 115.345 629.772 479.877
3356 0 69.06 10.6284 734 108.095 629.684 482.259
3357 0 70.2255 10.6656 749 104.852 628.955 478.794
3358 0 75.1499 10.8716 817 105.61 629.687 483.727
3359 0 79.2643 11.3418 899 104.931 628.724 482.839
3360 0 81.1659 12.456 1011 103.99 628.978 480.995
3361 0 84.2044 12.3034 1036 104.096 629.138 480.736
3362 0 87.1913 11.664 1017 105.864 629.413 481.29
3363 0 89.128 12.0725 1076 105.841 628.184 476.355
3364 0 92.3306 11.3722 1050 106.757 629.264 477.693
3365 0 94.0539 11.2063 1054 106.963 629.87 473.804
3366 0 98.0658 12.3489 1211 104.41 628.998 474.456
3367 0 101.071 12.2092 1234 104.823 629.539 475.324
3368 0 105.084 13.5321 1422 102.864 628.905 471.146
3369 0 107.145 11.5171 1234 107.615 628.981 466.934
3370 0 110.25 12.3447 1361 105.979 628.281 466.86
3371 0 117.135 13.3265 1561 103.565 629.22 462.523
3372 0 117.1 12.3655 1448 109.631 629.782 460.737
3373 1 63.0814 10.7163 676 108.67 628.902 486.345
3374 0 64.3527 11.4525 737 108.041 628.25 487.43
3375 0 69.2221 12.2793 850 114.929 629.851 489.219
3376 0 73.115 12.6923 928 113.825 629.341 488.471
3377 0 72.0595 12.7533 919 115.047 630.339 487.716
3378 0 76.0817 13.3015 1012 113.099 629.637 484.977
3379 0 78.1084 12.982 1014 114.144 629.721 484.432
3380 0 80.2429 12.3625 992 116.069 629.989 481.644
3381 0 84.2 12.2922 1035 115.618 630.092 482.493
3382 0 87.3419 14.1398 1235 110.802 628.975 481.576
3383 0 90.2974 13.5331 1222 112.153 629.557 477.58
3384 0 94.4139 12.8159 1210 112.597 629.423 476.372
3385 0 96.488 13.0793 1262 112.216 628.874 473.548
3386 0 99.3713 12.3879 1231 112.816 629.562 473.989
3387 0 103.316 14.0055 1447 109.722 629.566 472.312
3388 0 106.317 12.3216 1310 114.993 629.472 469.674
3389 0 108.355 12.0715 1308 116.196 628.655 465.596
3390 1 61.2508 11.8529 726 102.654 627.832 476.369
3391 0 63.2267 12.2575 775 101.75 627.621 475.279
3392 0 63.1028 12.9788 819 98.6007 627.363 491.249
3393 0 66.1776 11.9829 793 99.6368 628.264 490.026
3394 0 67.1148 11.8603 796 100.018 628.759 489.751
3395 0 67.0745 11.2561 755 102.159 629.852 488.638
3396 0 72.1026 12.4129 895 99.8268 629.524 486.801
3397 0 75.1007 13.9013 1044 96.3898 629.841 486.343
3398 0 76.1824 12.6407 963 99.4258 629.465 487.609
3399 0 76.0678 11.5423 878 102.962 630.097 485.872
3400 0 81.0952 12.4298 1008 101.616 630.062 483.858
3401 0 84.0627 12.9784 1091 100.148 630.383 483.719
3402 0 86.1026 12.7755 1100 101.725 629.82 480.772
3403 0 90.1236 13.7478 1239 101.049 630.087 478.513
3404 0 91.1349 11.9603 1090 105.121 629.563 476.717
3405 0 95.2213 13.957 1329 101.132 629.892 475.733
3406 0 97.2675 12.4913 1215 103.815 629.621 476.271
3407 0 101.512 12.9245 1312 104.51 629.737 469.141
3408 0 104.755 11.9326 1250 105.98 629.096 470.303
3409 0 108.532 12.2176 1326 105.296 629.742 469.188
3410 1 60.5331 11.5144 697 99.7059 629.902 492.364
3411 0 63.4035 11.7817 747 99.3133 630.257 491.76
3412 0 65.0605 13.0494 849 103.054 631.497 492.358
3413 0 65.1435 12.7718 832 107.617 630.802 490.112
3414 0 70.2421 13.0833 919 105.946 630.291 487.851
3415 0 72.1339 13.0313 940 106.039 630.66 488.619
3416 0 75.0915 13.7832 1035 103.757 630.46 488.4
3417 0 75.1246 11.7272 881 109.386 630.048 486.638
3418 0 79.1673 13.162 1042 105.339 630.02 485.528
3419 0 81.0475 12.5235 1015 108.567 630.062 482.189
3420 0 82.0432 12.4325 1020 110.079 630.567 479.187
3421 0 87.066 13.5874 1183 106.653 630.32 480.803
3422 0 90.2859 13.4019 1210 109.193 629.856 478.093
3423 0 91.3619 13.2988 1215 111.112 629.504 480.04
3424 0 94.3475 14.9341 1409 109.375 629.436 475.52
3425 0 96.3509 15.6407 1507 108.726 628.91 474.764
3426 0 100.574 15.3717 1546 109.953 628.277 474.044
3427 0 102.611 14.2967 1467 113.374 628.82 473.583
3428 0 103.579 13.7866 1428 113.567 629.028 470.688
3429 0 108.37 14.7735 1601 114.984 628.944 470.449
3430 0 109.473 14.2683 1562 115.426 629.887 469.295
3431 0 111.642 13.8389 1545 115.342 629.95 464.99
3432 0 114.214 14.5779 1665 112.18 629.564 462.835
3433 0 120.41 15.8376 1907 110.173 629.449 459.926
3434 1 65.1474 13.0934 853 105.339 628.621 487.076
3435 0 67.3912 12.4349 838 110.265 628.907 484.6
3436 0 71.2526 13.1644 938 109.087 628.193 486.092
3437 0 75.2129 13.2025 993 102.194 629.808 480.731
3438 0 79.3367 12.97 1029 102.867 629.303 482.901
3439 0 79.2507 12.8706 1020 105.018 629.416 481.98
3440 0 84.3492 14.2029 1198 102.064 629.311 481.061
3441 0 86.2821 14.0354 1211 102.499 629.653 478.243
3442 0 90.2624 13.9039 1255 107.573 629.287 479.684
3443 0 92.1297 13.2096 1217 109.108 629.59 480.039
3444 0 97.2555 15.3308 1491 104.733 628.899 480.005
3445 0 99.2379 14.8734 1476 108.408 629.642 475.526
3446 0 101.202 14.2388 1441 111.334 629.9 472.373
3447 0 106.205 14.1519 1503 110.863 630.023 472.595
3448 0 106.148 13.5848 1442 118.893 629.786 463.355
3449 0 111.336 13.2571 1476 120.892 628.619 441.604
3450 0 113.367 13.399 1519 121.841 628.753 444.591
3451 0 116.292 14.1368 1644 119.975 628.038 445.32
3452 0 123.383 15.0993 1863 117.627 628.271 441.445
3453 1 68.3171 11.6808 798 114.698 629.554 470.687
3454 0 69.1991 12.6158 873 116.708 628.892 466.629
3455 0 72.1745 13.1348 948 114.844 629.392 465.427
3456 0 73.2606 12.2849 900 119.672 629.136 467.861
3457 0 77.2239 13.3767 1033 113.875 629.356 477.147
3458 0 78.2862 13.3101 1042 115.317 629.332 476.694
3459 0 81.2079 14.075 1143 113.19 629.049 479.757
3460 0 82.177 13.909 1143 114.743 628.742 483.208
3461 0 83.2521 13.285 1106 118.77 627.872 480.161
3462 0 87.2191 14.1712 1236 117.943 628.366 478.137
3463 0 90.3579 13.7675 1244 119.355 628.087 477.213
3464 0 92.1788 14.819 1366 117.909 628.164 475.43
3465 0 95.172 15.4457 1470 116.858 628.25 475.53
3466 0 99.2084 14.152 1404 121.091 627.766 473.693
3467 0 102.22 14.3612 1468 121.661 627.826 473.109
3468 0 104.23 14.209 1481 123.102 627.213 470.336
3469 0 107.203 14.8504 1592 120.745 627.081 470.56
3470 0 111.323 14.3995 1603 122.297 627.516 468.542
3471 0 111.176 14.2477 1584 125.717 626.82 464.341
3472 0 115.21 14.096 1624 125.514 626.004 462.181
3473 0 121.223 13.4958 1636 126.051 626.618 463.035
3474 0 124.237 13.7882 1713 125.228 626.147 461.35
3475 0 127.511 13.1988 1683 126.418 626.816 458.585
3476 0 135.448 14.1383 1915 122.377 626.68 456.601
3477 1 72.2308 12.6539 914 120.256 626.677 486.867
3478 0 74.2939 12.6525 940 121.326 626.691 486.813
3479 0 77.296 13.2607 1025 120.25 626.926 484.085
3480 0 78.3818 13.2046 1035 120.855 626.942 479.374
3481 0 83.2604 13.9682 1163 117.554 627.174 482.788
3482 0 84.5197 14.257 1205 117.524 627.452 480.753
3483 0 87.4473 13.3223 1165 119.403 627.112 480.591
3484 0 91.7092 14.1643 1299 116.764 627.514 479.758
3485 0 92.5162 13.5868 1257 119.617 627.811 476.635
3486 0 95.6613 13.9869 1338 118.814 628.04 474.809
3487 0 97.4104 14.6904 1431 117.273 627.682 474.025
3488 0 98.8063 13.9566 1379 120.15 627.17 472.103
3489 0 103.791 13.9703 1450 122.794 627.474 465.368
3490 0 107.301 13.1313 1409 118.256 629.224 465.481
3491 0 111.401 12.9712 1445 119.198 628.662 464.445
3492 0 113.427 12.043 1366 123.431 628.473 462.168
3493 0 117.393 12.4625 1463 123.464 628.235 461.92
3494 0 120.459 13.8304 1666 119.884 628.214 461.923
3495 0 123.502 12.1051 1495 125.577 628.564 457.131
3496 0 128.617 13.9562 1795 122.663 628.026 451.68
3497 0 132.537 13.4981 1789 124.361 628.899 451.971
3498 0 136.575 13.7946 1884 125.705 628.127 448.513
3499 0 142.462 15.0426 2143 121.72 628.031 447.109
3500 0 145.599 13.9218 2027 125.953 628.23 444.805
3501 0 149.482 12.7909 1912 128.789 628.296 444.07
3502 0 155.406 13.8991 2160 127.663 628.535 440.53
3503 1 86.3492 12.3336 1065 120.347 628.109 475.516
3504 0 90.3989 12.1683 1100 121.948 627.734 473.917
3505 0 91.4166 12.3282 1127 123.569 628.232 470.206
3506 0 95.4925 13.3204 1272 120.533 628.575 471.013
3507 0 96.4251 12.8493 1239 123.595 629.22 466.764
3508 0 100.512 12.4563 1252 124.101 628.494 468.827
3509 0 103.338 12.6769 1310 123.889 628.192 466.836
3510 0 107.512 14.0449 1510 119.985 628.744 466.703
3511 0 109.438 12.5734 1376 123.865 628.452 466.153
3512 0 112.247 13.2386 1486 123.349 628.602 464.505
3513 0 116.32 13.3941 1558 123.394 629.149 461.37
3514 0 119.384 13.0671 1560 124.486 628.722 458.728
3515 0 123.346 13.9202 1717 122.652 628.954 456.151
3516 0 127.553 13.3748 1706 123.083 629.246 455.194
3517 0 130.374 12.9243 1685 127.491 629.126 455.261
3518 0 135.451 13.1929 1787 128.116 629.449 451.187
3519 0 139.442 13.6257 1900 129.439 628.413 446.609
3520 0 144.482 14.6454 2116 127.114 628.499 445.258
3521 0 148.576 13.8111 2052 130.477 628.819 441.67
3522 0 154.589 12.7628 1973 132.893 629.079 442.954
3523 0 160.461 13.5734 2178 130.977 628.474 436.753
3524 0 165.485 14.0919 2332 130.175 629.099 434.47
3525 0 172.607 13.7712 2377 130.53 628.889 434.225
3526 0 177.514 14.8101 2629 130.161 628.83 431.745
3527 1 100.206 11.626 1165 122.443 628.918 471.731
3528 0 105.277 12.7283 1340 120.245 629.004 472.307
3529 0 106.159 11.4828 1219 121.865 629.6 468.048
3530 0 111.23 12.7574 1419 120.636 629.38 466.026
3531 0 114.33 12.6126 1442 120.888 629.372 465.574
3532 0 117.227 11.8232 1386 122.935 629.102 463.972
3533 0 120.324 11.76 1415 124.753 628.975 461.753
3534 0 126.304 12.4382 1571 127.024 628.558 459.36
3535 0 129.228 12.2806 1587 127.204 628.382 455.987
3536 0 131.36 11.3124 1486 132.362 628.713 452.611
3537 1 78.3894 10.333 810 125.499 628.785 480.479
3538 0 77.3296 11.3152 875 127.187 628.757 476.287
3539 0 82.3913 12.2222 1007 124.796 629.697 476.786
3540 0 83.3348 11.8678 989 126.949 629.107 474.704
3541 0 87.3058 13.1263 1146 123.592 627.868 474.533
3542 0 89.2662 12.4347 1110 126.236 627.386 473.854
3543 0 94.2583 13.4842 1271 123.025 626.913 475.268
3544 0 97.31 13.2155 1286 124.799 627.32 472.702
3545 0 101.427 14.089 1429 123.165 627.061 470.726
3546 0 102.526 14.2501 1461 124.24 627.695 469.807
3547 0 106.492 14.2358 1516 125.594 627.914 465.865
3548 0 108.401 13.2379 1435 129.311 627.804 463.769
3549 0 111.586 12.7436 1422 131.974 627.278 445.774
3550 0 116.421 14.1641 1649 128.651 627.211 450.976
3551 0 117.417 13.286 1560 131.238 627.706 459.785
3552 0 119.34 11.639 1389 137.13 627.154 460.056
3553 0 126.589 14.4405 1828 128.67 626.984 458.571
3554 0 129.459 14.7846 1914 131.888 628.236 452.245
3555 1 72.4904 11.7395 851 132.341 627.28 478.84
3556 0 76.4247 12.3651 945 129.005 628.005 478.964
3557 0 75.2471 10.6981 805 127.127 626.857 478.616
3558 0 79.2218 11.3353 898 118.535 629.268 479.713
3559 0 82.0752 11.0874 910 119.154 630.834 481.21
3560 0 85.071 12.0723 1027 117.638 629.611 480.467
3561 0 87.2039 12.7632 1113 116.331 629.821 477.908
3562 0 91.1392 11.7403 1070 118.553 629.924 477.685
3563 0 91.2544 12.0871 1103 119.402 629.723 475.298
3564 0 96.3634 11.4151 1100 120.564 629.262 472.967
3565 0 98.4368 12.2312 1204 119.629 629.351 473.44
3566 0 99.3349 12.1005 1202 120.938 628.76 471.175
3567 0 103.427 12.0278 1244 122.217 629.598 467.988
3568 0 105.418 12.6164 1330 122.343 629.277 463.959
3569 0 108.616 11.7386 1275 128.687 628.939 462.042
3570 0 111.608 12.2841 1371 129.912 629.466 462.204
3571 0 115.467 12.7916 1477 128.994 628.993 461.391
3572 0 119.393 12.5552 1499 129.459 629.742 462.012
3573 0 120.467 12.576 1515 129.972 629.821 457.379
3574 0 125.429 13.0512 1637 127.254 630.024 459.022
3575 0 127.365 12.3268 1570 129.987 630.796 454.842
3576 0 133.341 12.8018 1707 127.691 630.001 453.739
3577 1 74.2782 11.5377 857 116.428 630.505 484.824
3578 0 74.0548 9.29042 688 118.722 629.744 482.783
3579 0 73.1355 10.8429 793 115.257 630.038 477.782
3580 0 75.0437 10.4606 785 118.146 630.089 474.981
3581 0 80.2111 10.8464 870 116.207 629.253 474.89
3582 0 83.1613 10.8584 903 116.54 629.937 472.62
3583 0 84.3374 10.9679 925 118.83 630.279 467.726
3584 0 91.2506 11.1342 1016 118.04 629.257 467.746
3585 0 93.2084 11.7264 1093 116.521 629.839 469.104
3586 0 101.224 13.0898 1325 115.029 628.187 455.568
3587 0 103.218 13.5441 1398 114.307 628.406 465.82
3588 0 105.327 13.0072 1370 115.566 627.975 466.434
3589 0 108.318 12.5371 1358 117.792 628.098 463.775
3590 0 112.284 13.2433 1487 116.407 628.41 462.101
3591 0 114.324 13.0944 1497 118.868 629.319 462.528
3592 0 117.358 12.3213 1446 120.665 628.524 458.88
3593 0 120.236 12.725 1530 120.333 628.167 460.116
3594 0 124.193 12.4564 1547 120.8 628.582 458.42
3595 0 127.364 12.1305 1545 123.028 628.149 453.097
3596 0 133.212 13.182 1756 121.014 628.668 454.224
3597 0 138.443 14.4753 2004 119.307 627.815 449.276
3598 0 140.255 12.6341 1772 127.893 628.312 444.714
3599 0 145.52 13.2421 1927 127.713 628.597 443.509
3600 0 150.37 13.4535 2023 127.732 628.164 437.783
3601 0 155.413 14.0272 2180 126.341 628.228 435.832
3602 0 162.377 14.4232 2342 125.119 628.398 436.406
3603 0 167.482 14.4135 2414 125.885 628.843 434.786
3604 0 172.591 14.6184 2523 125.864 628.243 431.031
3605 0 177.386 13.6087 2414 128.746 628.847 425.797
3606 0 182.567 14.8 2702 126.513 628.735 422.982
3607 0 186.549 13.0904 2442 132.369 628.913 419.284
3608 0 191.659 13.8005 2645 130.707 629.213 422.259
3609 0 199.696 14.6973 2935 129.66 629.196 417.113
3610 0 203.654 13.6702 2784 135.279 629.393 413.915
3611 0 209.679 13.3204 2793 136.509 629.187 408.474
3612 0 215.717 13.4528 2902 135.208 629.617 410.481
3613 0 225.747 14.5074 3275 133.456 629.603 407.912
3614 1 171.55 11.705 2008 128.289 629.74 433.109
3615 0 178.948 12.294 2200 125.696 629.871 431.331
3616 0 183.78 13.1951 2425 124.616 629.24 425.218
3617 0 189.747 12.9541 2458 125.113 629.612 426.661
3618 0 196.385 12.6639 2487 127.561 629.416 422.333
3619 0 201.785 13.8514 2795 125.673 630.027 412.581
3620 0 209.655 13.9563 2926 125.544 629.401 410.886
3621 0 216.665 12.6278 2736 129.028 629.616 407.761
3622 0 223.819 12.9837 2906 127.892 629.663 403.196
3623 1 58.2585 10.4534 609 109.036 630.842 489.25
3624 0 58.4134 11.624 679 106.08 629.906 489.247
3625 0 61.4671 9.01296 554 109.987 630.309 486.153
3626 0 64.3769 10.5007 676 106.57 630.393 488.858
3627 0 66.2153 12.0214 796 102.255 631.818 490.649
3628 0 66.1755 11.1219 736 104.519 631.686 490.677
3629 0 69.1189 10.6773 738 105.091 631.138 489.522
3630 0 71.1826 11.5899 825 101.135 631.076 489.59
3631 0 73.1371 9.68045 708 104.284 630.213 485.304
3632 0 75.1052 12.0631 906 99.6369 630.415 485.699
3633 0 78.2401 10.7873 844 101.6 630.193 486.367
3634 0 81.3127 11.4496 931 100.527 630.748 484.698
3635 0 85.1988 11.3734 969 101.143 630.418 479.501
3636 0 87.2885 10.8491 947 102.867 630.128 478.044
3637 0 91.2822 11.5576 1055 102.438 630.437 479.473
3638 0 94.132 11.8982 1120 103.875 630.154 477.295
3639 0 97.2138 12.3954 1205 103.95 629.421 476.561
3640 0 99.4638 10.3857 1033 110.083 630.088 476.697
3641 0 104.269 11.6333 1213 106.936 630.331 449.873
3642 1 115.448 8.17683 944 109.721 630.476 468.588
3643 1 61.1684 10.6264 650 107.283 631.414 483.589
3644 0 66.1612 11.472 759 103.989 630.162 488.802
3645 0 69.1733 12.6349 874 102.482 630.822 486.601
3646 0 66.1046 10.9675 725 109.908 630.466 484.87
3647 0 72.2112 12.6019 910 104.621 630.299 484.752
3648 0 73.1924 11.2034 820 109.073 630.638 484.19
3649 0 72.2311 11.2694 814 111.921 630.538 482.036
3650 0 77.3298 12.1687 941 106.657 630.227 484.954
3651 0 81.3041 13.6033 1106 104.914 630.25 480.618
3652 0 83.1867 13.2112 1099 106.596 630.184 479.689
3653 0 84.2812 13.6448 1150 107.178 630.455 481.337
3654 0 88.1915 13.4253 1184 107.5 630.416 479.138
3655 0 89.1226 12.7577 1137 111.255 630.578 478.724
3656 0 94.165 13.8162 1301 111.882 630.686 476.785
3657 0 94.2571 12.4659 1175 114.976 630.906 476.261
3658 0 98.381 12.787 1258 109.36 630.685 475.118
3659 0 99.4002 12.8571 1278 115.441 630.07 468.722
3660 0 104.239 12.5576 1309 110.761 630.359 470.56
3661 1 59.0621 12.1736 719 108.519 627.9 498.88
3662 0 60.0893 10.7673 647 110.349 628.053 499.156
3663 0 61.0924 11.0161 673 110.829 627.651 498.64
3664 0 63.0906 10.5087 663 112.202 627.795 496.223
3665 0 66.0658 12.0183 794 109.785 627.558 496.039
3666 0 67.2415 11.6297 782 112.097 627.285 495.385
3667 0 69.1057 11.9672 827 110.021 627.736 495.008
3668 0 71.029 12.7272 904 108.399 627.944 492.175
3669 0 74.125 11.0894 822 111.054 627.395 492.653
3670 0 75.318 12.4804 940 109.409 628.251 491.602
3671 0 78.0718 11.6559 910 109.912 628.268 487.781
3672 0 81.1595 12.3214 1000 108.32 628.087 487.535
3673 0 81.3065 11.5612 940 108.374 629.538 483.645
3674 0 85.2322 11.2868 962 108.282 629.234 484.489
3675 0 87.1108 12.2602 1068 107.652 628.794 482.064
3676 0 91.0807 13.1312 1196 106.262 629.452 480.133
3677 0 93.2921 12.2626 1144 108.762 628.481 479.108
3678 0 94.2398 11.8952 1121 111.109 628.21 477.815
3679 0 100.156 12.9199 1294 108.978 628.123 476.798
3680 0 101.275 13.2609 1343 109.139 627.625 474.449
3681 0 105.249 13.9954 1473 108.559 628.073 473.23
3682 1 62.1127 14.1356 878 107.338 626.515 495.45
3683 0 63.0353 13.1989 832 119.831 625.013 492.371
3684 0 64.109 13.8046 885 119.872 626.104 494.095
3685 0 66.2226 13.8925 920 122.597 626.1 492.885
3686 0 68.2783 13.7818 941 122.382 626.003 492.163
3687 0 70.3598 13.9284 980 122.711 626.462 490.914
3688 0 74.5638 13.8673 1034 124.153 626 487.764
3689 0 74.1328 13.206 979 113.241 628.298 490.02
3690 0 76.1962 12.9271 985 114.827 627.534 489.674
3691 0 80.1935 12.9686 1040 115.19 627.913 488.305
3692 0 84.2413 12.5948 1061 117.257 627.166 485.328
3693 0 85.1919 12.243 1043 118.012 627.334 486.389
3694 0 89.2432 12.8861 1150 117.783 627.259 483.761
3695 0 91.2576 13.0838 1194 118.612 627.16 481.918
3696 0 97.1695 14.3564 1395 115.237 627.409 480.462
3697 1 54.1054 13.6216 737 114.046 628.323 499.97
3698 0 57.4312 13.6163 782 114.908 627.263 495.12
3699 0 58.3342 13.3884 781 117.216 627.588 493.151
3700 0 60.3724 13.4333 811 116.349 628.189 495.755
3701 0 60.1422 11.9883 721 117.888 628.592 498.62
3702 0 64.1644 14.2447 914 112.778 628.805 495.867
3703 0 65.1296 13.6958 892 114.05 628.724 495.956
3704 0 69.1406 13.4075 927 114.235 628.575 495.054
3705 0 68.1566 12.7207 867 117.074 628.323 492.4
3706 0 72.1155 13.104 945 115.494 628.594 491.87
3707 0 73.1963 13.7165 1004 116.517 628.38 488.968
3708 0 77.0962 14.8127 1142 112.068 628.338 489.06
3709 0 81.235 14.8581 1207 114.814 629.208 484.999
3710 0 82.4725 14.5382 1199 116.394 628.709 482.255
3711 0 84.3209 15.0259 1267 115.313 627.91 483.701
3712 0 86.4327 14.2307 1230 117.094 628.687 483.346
3713 0 88.2569 14.2765 1260 118.91 628.586 481.508
3714 0 92.1562 14.1933 1308 119.029 627.971 478.408
3715 0 96.2117 15.996 1539 114.723 628.273 476.261
3716 0 100.397 15.8272 1589 113.286 628.032 474.41
3717 1 54.2173 12.5421 680 120.946 628.622 497.488
3718 0 56.1839 12.8684 723 119.343 628.503 496.766
3719 0 56.1361 13.2179 742 119.259 629.206 494.819
3720 0 58.2139 12.3166 717 121.996 628.555 492.073
3721 0 60.1006 14.0265 843 116.568 628.591 492.958
3722 0 61.0634 13.1666 804 119.791 628.679 491.714
3723 0 62.1992 13.0548 812 119.119 628.618 490.259
3724 0 66.432 13.7735 915 116.857 627.431 491.984
3725 0 68.2851 12.9457 884 118.897 628.947 490.326
3726 0 71.2058 14.2966 1018 116.501 628.18 490.639
3727 0 75.1925 14.7887 1112 114.944 628.396 489.571
3728 0 75.2932 13.5869 1023 115.709 627.141 486.297
3729 0 78.1829 12.8161 1002 115.661 627.771 485.254
3730 0 81.2645 13.7329 1116 114.474 627.37 483.953
3731 0 83.2553 14.2333 1185 114.378 627.422 482.263
3732 0 84.1104 13.8033 1161 115.215 626.735 479.952
3733 0 87.1036 13.1223 1143 117.258 626.686 479.065
3734 0 90.223 13.8213 1247 115.122 627.489 477.331
3735 0 93.193 14.0139 1306 114.724 628.375 475.5
3736 0 95.1556 12.8421 1222 118.126 628.401 475.63
3737 0 97.1923 13.283 1291 116.414 628.813 474.962
3738 0 101.074 13.8018 1395 115.809 628.057 470.121
3739 0 105.17 13.7302 1444 115.619 628.359 470.581
3740 0 107.364 14.4183 1548 115.389 627.815 463.309
3741 0 111.387 13.7269 1529 117.475 627.923 462.886
3742 0 114.346 13.3629 1528 118.658 627.919 459.481
3743 0 120.427 14.6396 1763 115.483 627.733 456.638
3744 1 69.347 11.8102 819 112.328 627.819 481.597
3745 0 70.3655 11.625 818 113.257 628.022 478.759
3746 0 71.1878 11.0412 786 118.375 629.131 475.43
3747 0 76.2339 13.6291 1039 107.348 628.174 480.003
3748 0 79.2014 11.9064 943 112.233 629.192 479.804
3749 0 79.1797 12.2506 970 112.3 629.033 478.514
3750 0 84.269 12.1278 1022 111.965 629.04 478.882
3751 0 86.233 11.7125 1010 114.692 628.182 475.619
3752 0 90.2111 13.8564 1250 108.498 629.975 473.444
3753 0 94.2322 11.7794 1110 112.345 629.805 471.976
3754 0 95.241 11.7596 1120 114.347 629.944 471.579
3755 0 98.2271 13.2754 1304 112.214 629.494 469.014
3756 0 101.365 12.7164 1289 112.725 629.642 465.399
3757 0 103.68 11.9502 1239 114.488 630.07 461.519
3758 0 108.466 13.23 1435 111.082 629.84 459.81
3759 0 110.418 11.6195 1283 114.518 629.966 460.01
3760 0 114.647 11.2084 1285 113.911 629.869 461.189
3761 0 119.622 12.8488 1537 111.409 630.422 456.915
3762 0 122.59 11.9015 1459 113.65 630.707 452.135
3763 0 128.873 11.9265 1537 112.465 630.461 453.935
3764 1 68.5783 10.0323 688 106.052 629.935 483.083
3765 0 73.4187 11.0599 812 102.98 629.922 479.36
3766 0 74.3976 10.7934 803 103.648 630.148 480.545
3767 0 77.1752 11.1176 858 103.4 630.096 480.684
3768 0 78.4342 11.5766 908 103.759 630.176 477.502
3769 0 84.4873 12.9013 1090 100.951 630.562 477.642
3770 0 85.4103 11.4272 976 105.652 630.332 474.264
3771 0 89.3094 11.309 1010 106.734 630.438 469.767
3772 0 93.3624 12.5104 1168 104.005 630.502 472.878
3773 0 96.3538 13.3259 1284 103.637 630.48 472.056
3774 0 96.3098 10.4247 1004 110.553 630.845 470.583
3775 0 101.197 13.0637 1322 105.741 631.062 468.698
3776 0 102.217 11.2114 1146 109.552 630.961 465.809
3777 0 104.184 11.5372 1202 109.801 630.673 463.642
3778 0 109.172 12.2742 1340 108.03 630.428 463.203
3779 0 114.233 12.0719 1379 108.5 630.239 465.534
3780 0 116.314 11.6925 1360 111.013 630.055 459.741
3781 0 120.35 11.0262 1327 112.607 629.916 460.879
3782 0 123.33 12.1787 1502 112.061 629.453 456.261
3783 0 129.258 11.5505 1493 114.183 630.367 454.421
3784 0 131.17 11.588 1520 115.718 630.333 453.768
3785 0 136.221 12.2228 1665 115.282 630.224 453.085
3786 0 142.284 12.0463 1714 116.872 630.753 448.736
3787 0 149.321 13.3136 1988 115.339 630.381 446.677
3788 0 150.407 12.8252 1929 117.994 630.088 440.411
3789 0 155.264 11.6833 1814 120.964 631.208 440.967
3790 0 162.574 12.0622 1961 120.85 630.345 437.613
3791 0 170.397 14.6247 2492 115.177 630.396 437.227
3792 0 175.478 13.3635 2345 117.906 630.065 436.541
3793 0 181.314 13.6448 2474 119.092 630.28 429.906
3794 0 186.496 12.5687 2344 122.16 630.031 430.59
3795 0 192.323 13.519 2600 122.098 630.116 420.743
3796 0 199.433 14.2905 2850 119.887 630.668 420.483
3797 0 205.519 13.9598 2869 120.778 630.283 417.387
3798 1 117.247 11.9577 1402 121.852 629.148 452.902
3799 0 120.372 12.6608 1524 120.199 628.11 457.024
3800 0 125.266 13.196 1653 115.899 629.425 455.851
3801 0 131.218 13.5576 1779 114.152 629.02 458.033
3802 0 134.189 12.6836 1702 113.703 629.223 450.605
3803 0 138.235 12.4498 1721 113.958 629.55 447.288
3804 0 143.161 13.8724 1986 111.216 629.504 445.654
3805 0 146.259 12.553 1836 116.973 628.622 439.866
3806 0 149.248 11.7791 1758 119.247 628.191 441.052
3807 0 156.285 13.0851 2045 116.725 629.234 440.791
3808 1 66.3851 8.9026 591 102.222 629.978 482.78
3809 0 70.3973 11.5487 813 102.961 629.506 481.627
3810 0 71.3384 9.70024 692 101.062 629.592 481.744
3811 0 75.3399 9.01249 679 103.57 629.239 480.116
3812 0 77.2274 11.5374 891 99.6173 629.496 480.314
3813 0 76.1455 10.2304 779 104.365 629.462 479.531
3814 0 82.1816 13.4337 1104 101.691 630.223 480.41
3815 0 85.1596 11.6017 988 101.444 630.104 480.656
3816 0 85.2403 11.7785 1004 102.36 629.68 474.685
3817 0 89.1439 12.0928 1078 106.673 627.724 477.408
3818 0 93.08 12.4517 1159 104.875 627.668 475.395
3819 0 94.1377 11.6425 1096 106.892 627.248 472.501
3820 0 95.1495 11.813 1124 110.91 629.318 473.049
3821 0 100.183 13.5153 1354 106.756 630.278 475.768
3822 0 104.236 12.961 1351 110.625 630.175 473.356
3823 0 105.359 12.8702 1356 117.178 630.441 467.813
3824 0 108.269 13.3833 1449 113.197 630.277 466.483
3825 0 114.407 13.2334 1514 110.91 630.128 467.18
3826 0 115.259 12.8059 1476 113.497 630.885 463.436
3827 1 64.0647 11.3479 727 110.234 631.664 492.429
3828 0 66.0378 11.6751 771 102.905 630.931 488.123
3829 0 68.2527 12.5416 856 106.009 627.315 486.861
3830 0 71.2424 12.7172 906 105.967 628.336 487.585
3831 0 72.2357 12.1408 877 108.122 628.843 486.235
3832 0 75.2909 13.4146 1010 104.895 628.215 487.371
3833 0 74.1583 11.5294 855 109.889 628.474 484.191
3834 0 77.1982 12.293 949 107.044 628.501 481.658
3835 0 82.0824 12.3778 1016 109.972 627.237 466.445
3836 0 82.1033 12.7644 1048 109.531 626.292 457.069
3837 0 86.4739 12.7322 1101 111.786 630.144 478.737
3838 0 87.3997 13.2838 1161 111.904 630.108 477.457
3839 0 88.3789 13.1253 1160 112.997 629.65 475.534
3840 0 91.4079 13.4015 1225 112.314 630.337 475.341
3841 0 94.3441 13.4402 1268 112.534 630.286 473.86
3842 0 98.4752 13.8106 1360 112.824 629.663 472.054
3843 0 100.407 13.7341 1379 112.737 629.974 469.236
3844 0 102.621 13.1455 1349 115.867 629.683 466.7
3845 0 104.165 12.7202 1325 119.616 627.951 427.689
3846 0 108.354 11.8501 1284 111.016 629.713 453.428
3847 0 112.525 11.6152 1307 112.722 629.005 450.704
3848 0 114.69 10.9512 1256 117.049 629.046 450.407
3849 0 117.536 11.8772 1396 115.444 629.38 445.515
3850 1 69.4406 9.76374 678 106.027 628.562 480.86
3851 0 72.4545 11.7315 850 106.808 627.712 476.398
3852 0 73.1785 12.941 947 109.767 626.642 476.116
3853 0 75.2544 11.893 895 112.053 627.392 475.447
3854 0 74.1536 10.7749 799 115.584 626.822 472.817
3855 0 78.238 11.2094 877 114.489 626.826 471.098
3856 0 82.2191 11.2991 929 113.59 626.235 469.721
3857 0 83.158 11.6645 970 110.934 626.658 473.756
3858 0 87.2002 13.5665 1183 105.829 626.476 475.107
3859 0 89.1873 12.5578 1120 108.146 626.887 473.029
3860 0 89.4109 11.5758 1035 111.606 626.969 468.726
3861 0 93.3286 13.0935 1222 107.718 627.268 466.712
3862 0 94.3224 12.4467 1174 109.403 627.179 465.721
3863 0 97.3456 12.5224 1219 108.938 627.45 462.679
3864 0 99.4921 12.7347 1267 108.69 627.11 459.451
3865 0 97.5436 11.9639 1167 111.38 627.148 459.863
3866 0 105.322 12.9413 1363 107.83 627.198 460.844
3867 0 107.329 11.3576 1219 111.304 626.98 454.854
3868 0 113.329 11.2946 1280 110.283 626.807 459.302
3869 1 65.1475 9.28661 605 107.283 626.066 481.549
3870 0 70.2091 11.6367 817 104.635 626.667 484.826
3871 0 71.3306 10.6826 762 106.289 627.421 483.105
3872 0 74.1018 11.9565 886 104.141 629.795 484.473
3873 0 75.1323 11.167 839 105.61 630.515 484.445
3874 0 79.1239 11.463 907 105.125 630.587 483.905
3875 0 83.2013 12.3315 1026 103.211 630.172 482.507
3876 0 82.2103 11.8841 977 105.598 630.083 481.208
3877 0 84.1403 12.3484 1039 106.383 630.607 479.068
3878 0 87.2074 13.1182 1144 104.643 630.543 479.35
3879 0 87.1658 12.3902 1080 108.063 630.194 477.019
3880 0 92.1337 12.9486 1193 107.44 630.333 475.7
3881 0 95.1444 13.0854 1245 107.512 629.922 475.177
3882 0 96.1028 13.0589 1255 107.863 630.331 477.088
3883 0 98.0857 12.1526 1192 110.511 629.413 474.346
3884 0 99.1236 12.0355 1193 104.031 628.004 473.732
3885 0 102.23 12.4131 1269 103.039 629.35 473.01
3886 0 104.176 10.3766 1081 106.18 628.823 473.302
3887 0 107.198 14.4126 1545 100.972 629.335 469.817
3888 0 111.165 12.8548 1429 104.871 628.544 468.904
3889 0 114.134 12.3802 1413 106.946 628.926 467.54
3890 0 119.192 13.1469 1567 107.574 627.964 463.944
3891 0 120.258 11.8745 1428 111.765 627.421 461.633
3892 0 123.197 11.6318 1433 113.203 627.345 457.111
3893 0 130.21 12.5873 1639 112.234 627.265 456.256
3894 0 135.3 12.6534 1712 113.515 626.758 454.574
3895 1 78.1934 11.6634 912 106.939 627.883 482.018
3896 0 83.1615 12.7824 1063 102.297 627.64 483.986
3897 0 83.1334 13.1596 1094 100.365 627.823 482.842
3898 0 84.2315 11.8602 999 105.002 628.319 484.391
3899 0 86.1547 12.7445 1098 104.181 627.966 481.968
3900 0 89.1045 12.2328 1090 105.163 628.544 478.906
3901 0 91.2106 11.6105 1059 105.972 627.611 475.428
3902 0 95.1336 12.8871 1226 102.859 628.046 476.856
3903 0 95.1369 12.5714 1196 104.709 628.245 473.936
3904 0 101.108 12.4719 1261 101.646 628.137 472.386
3905 0 106.139 12.7663 1355 100.511 627.568 467.137
3906 0 108.23 13.4159 1452 100.2 627.632 468.09
3907 0 109.178 12.7773 1395 103.628 626.659 464.53
3908 0 112.097 11.9004 1334 106.015 626.985 466.361
3909 0 117.203 12.8836 1510 103.554 627.009 464.853
3910 0 121.2 12.7062 1540 105.22 626.948 461.299
3911 0 122.241 11.1992 1369 108.666 627.316 456.977
3912 0 127.35 12.2733 1563 106.914 627.154 455.814
3913 0 132.226 12.3047 1627 103.403 627.452 455.51
3914 0 136.26 11.4561 1561 105.013 627.993 456.135
3915 0 139.235 12.2527 1706 105.712 626.379 445.656
3916 0 147.313 13.7395 2024 103.5 625.789 445.662
3917 0 151.412 12.324 1866 106.508 626.18 441.282
3918 0 157.369 13.7893 2170 103.835 625.706 441.061
3919 1 89.2059 11.5239 1028 100.65 625.824 478.711
3920 0 93.1544 12.5276 1167 99.7875 625.87 478.184
3921 0 96.1176 11.3299 1089 102.511 628.91 477.063
3922 0 99.1041 12.3809 1227 101.358 628.112 472.84
3923 0 101.171 10.8826 1101 103.662 628.396 471.292
3924 0 101.163 11.091 1122 104.218 628.19 469.269
3925 0 107.191 12.7436 1366 100.668 627.87 469.731
3926 0 110.094 11.1541 1228 102.833 627.336 466.467
3927 0 112.157 12.4736 1399 101.916 627.508 463.476
3928 0 117.234 11.4557 1343 103.829 626.794 460.99
3929 0 120.194 10.092 1213 107.306 626.811 452.925
3930 0 122.254 11.149 1363 104.757 627.511 461.979
3931 0 131.376 12.1712 1599 104.418 625.993 455.136
3932 0 132.356 11.8091 1563 106.317 626.239 456.228
3933 1 64.1044 11.5905 743 105.295 626.312 475.283
3934 0 69.2035 11.3867 788 104.836 626.65 475.566
3935 0 72.2133 12.3246 890 102.522 626.2 475.624
3936 0 76.1216 10.7591 819 105.894 626.039 476.64
3937 0 76.2624 11.3424 865 105.83 626.765 472.939
3938 1 88.1272 12.2096 1076 105.057 627.488 477.77
3939 0 79.1232 10.3889 822 108.78 627.315 467.804
3940 0 91.2479 11.4962 1049 104.936 627.352 470.825
3941 0 91.1147 11.5239 1050 106.612 627.02 466.495
3942 0 95.0925 12.5983 1198 104.999 626.66 467.317
3943 0 102.097 10.6859 1091 108.764 627.349 465.713
3944 0 100.124 10.7068 1072 110.093 626.667 459.399
3945 0 104.116 12.342 1285 106.687 626.855 460.107
