time division length width area intensity CMx CMy
0 0 37.107 12.2888 456 158.075 867.434 499.215
1 0 36.0457 11.9293 430 158.979 867.393 498.642
2 0 38.1226 12.9057 492 156.295 867.362 497.909
3 0 38.0296 11.2807 429 160.755 867.732 499.103
4 0 39.0457 13.4202 524 155.964 867.685 497.496
5 0 39.069 13.3866 523 155.868 868.658 497.296
6 0 41.1578 12.6829 522 158.454 868.285 497.259
7 0 41.0861 12.9241 531 160.006 868.107 496.846
8 0 41.0469 12.4979 513 162.442 868.409 496.298
9 0 42.0554 12.5073 526 161.394 867.939 496.357
10 0 44.0509 12.5764 554 160.199 867.496 495.18
11 0 46.0946 12.7347 587 157.284 867.717 495.821
12 0 46.112 13.2503 611 156.388 867.262 495.267
13 0 49.2301 13.5283 666 154.114 866.363 494.526
14 0 50.256 13.6302 685 151.861 866.639 494.634
15 0 52.231 14.5508 760 147.364 866.146 494.463
16 0 50.1108 12.8116 642 154.162 865.773 494.35
17 0 53.2903 14.5993 778 145.418 865.865 494.81
18 0 56.2536 14.1324 795 146.218 865.872 492.411
19 0 56.2646 13.3832 753 147.205 865.246 492.911
20 0 59.2077 14.1873 840 144.549 865.699 489.307
21 0 60.0648 13.5021 811 146.37 865.697 488.326
22 0 63.1448 12.8435 811 145.52 865.718 490.038
23 0 64.1041 13.6185 873 143.459 865.148 487.244
24 0 67.1381 14.2095 954 143.905 864.871 487.029
25 1 35.0508 13.4091 470 139.247 865.213 501.187
26 0 37.0232 12.9108 478 143.818 865.651 499.381
27 0 40.0208 13.418 537 141.22 865.773 499.905
28 0 40.1064 13.6637 548 139.363 864.763 501.239
29 0 42.0574 13.2438 557 138.106 865.257 501.592
30 0 43.1393 14.3721 620 135.024 864.603 501.165
31 0 42.1435 13.1218 553 141.881 864.213 500.881
32 0 44.1587 13.1797 582 140.411 864.565 501.474
33 0 46.0778 14.0849 649 135.632 864.376 501.176
34 0 49.1256 13.0278 640 137.134 864.283 500.294
35 0 50.1163 14.5462 729 134.055 864.582 499.137
36 0 50.1012 13.2731 665 137.729 864.295 500.153
37 0 52.0625 13.9064 724 135.512 864.099 498.302
38 0 54.095 14.0678 761 134.252 863.686 497.456
39 0 56.0708 14.6957 824 134.268 863.291 496.646
40 0 56.1609 13.4969 758 137.466 863.896 495.508
41 0 59.0443 14.379 849 134.305 863.648 494.809
42 0 59.1641 14.1133 835 135.659 863.438 494.364
43 0 62.1332 13.632 847 134.898 863.59 492.936
44 0 65.0556 14.111 918 132.984 863.64 491.985
45 0 66.0886 13.724 907 133.549 863.657 493.094
46 0 69.1275 13.6125 941 132.983 863.209 491.269
47 0 72.0864 13.4422 969 133.358 863.737 488.235
48 0 75.1841 14.9899 1127 128.23 863.624 488.548
49 0 77.1537 14.3869 1110 130.637 863.105 487.599
50 0 79.0657 14.5575 1151 131.004 863.213 485.565
51 0 83.1023 14.3077 1189 131.283 862.54 484.599
52 0 85.4332 14.4557 1235 136.175 862.425 483.002
53 0 88.1613 15.3582 1354 133.016 862.674 478.79
54 0 92.274 14.3161 1321 134.983 862.474 481.042
55 0 95.1738 15.2563 1452 134.298 862.653 477.496
56 1 51.0509 12.987 663 131.311 862.748 500.83
57 0 51.0969 12.6231 645 131.012 862.845 500.002
58 0 55.0505 14.0053 771 127.217 862.935 498.309
59 0 56.0645 13.2704 744 130.383 863.235 496.333
60 0 58.0885 13.3761 777 128.776 863.196 497.232
61 0 62.1942 14.503 902 124.854 862.53 494.339
62 0 63.2263 13.9341 881 127.344 862.343 494.605
63 0 67.1895 14.1391 950 130.614 862.166 493.013
64 0 71.1244 14.4817 1030 128.017 862.314 493.393
65 0 72.1936 13.3807 966 128.007 862.439 492.478
66 0 76.1482 15.9163 1212 119.804 862.24 488.436
67 0 76.1482 15.9557 1215 141.281 861.237 488.249
68 0 82.1812 14.1517 1163 123.653 861.984 487.974
69 0 83.1957 14.52 1208 123.696 862.095 484.661
70 0 88.0643 15.2048 1339 119.761 860.956 481.584
71 0 91.116 14.1249 1287 123.511 861.45 481.862
72 0 95.0782 14.7037 1398 123.728 861.998 480.334
73 0 96.0809 14.1027 1355 126.632 862.043 478.322
74 0 100.057 14.2818 1429 125.367 862.412 478.328
75 0 103.19 14.2261 1468 126.34 861.791 475.958
76 1 55.1395 13.1303 724 119.829 861.764 500.34
77 0 55.2783 12.9707 717 121.513 861.876 497.141
78 0 60.1996 13.937 839 123.739 862.104 495.682
79 0 61.0617 14.8538 907 121.882 863.131 496.471
80 0 63.117 13.4037 846 125.574 863.294 495.749
81 0 65.1735 14.1315 921 122.699 863.23 495.59
82 0 67.1132 13.6039 913 124.53 863.02 493.085
83 0 70.1076 13.0799 917 123.126 863.373 494.059
84 0 72.0589 13.0865 943 124.664 863.224 491.832
85 0 74.1938 13.5321 1004 116.281 862.782 491.55
86 0 77.1268 13.6399 1052 116.567 861.921 489.557
87 0 79.1 13.2491 1048 118.303 862.201 487.364
88 0 81.1228 13.0173 1056 119.132 861.913 486.405
89 0 84.0632 12.8594 1081 119.28 861.201 485.672
90 0 89.2075 13.6872 1221 117.524 861.451 482.936
91 0 91.2066 13.5297 1234 118.525 861.595 481.627
92 0 96.3011 14.0393 1352 116.865 861.068 479.735
93 0 99.2503 14.6398 1453 115.853 861.226 477.511
94 0 101.33 13.1056 1328 119.685 861.062 474.848
95 0 105.462 13.3318 1406 119.573 861.02 469.66
96 0 109.454 12.9096 1413 120.653 860.768 468.964
97 0 114.449 13.849 1585 118.631 860.677 466.222
98 1 60.2718 11.8795 716 113.194 860.721 495.774
99 0 63.1936 14.2103 898 107.873 861.146 495.457
100 0 66.2548 13.267 879 114.611 861.195 495.366
101 0 67.2545 11.4788 772 118.51 860.877 495.128
102 0 69.1611 12.854 889 113.63 861.301 494.503
103 0 71.2625 12.1663 867 115.871 860.911 491.166
104 0 75.2829 13.3098 1002 111.99 860.878 491.126
105 0 76.3265 12.2762 937 114.965 860.343 488.483
106 0 79.2055 12.133 961 115.316 860.282 486.341
107 0 83.4482 12.7264 1062 113.832 859.68 484.846
108 0 86.6086 13.0588 1131 113.506 859.47 480.193
109 0 88.594 12.7435 1129 114.281 859.389 480.405
110 0 90.5004 11.8563 1073 117.214 859.248 476.026
111 0 94.5413 12.4919 1181 116.708 859.46 473.548
112 0 99.7077 13.9307 1389 113.356 859.099 472.438
113 0 101.482 13.4211 1362 115.162 859.378 470.395
114 0 107.688 13.0006 1400 115.01 859.231 469.792
115 1 55.3793 12.3151 682 110.928 859.503 495.176
116 0 58.31 11.3874 664 114.223 858.8 494.149
117 0 60.316 12.0532 727 112.166 858.999 493.704
118 0 64.0696 14.0941 903 105.994 861.504 495.505
119 0 62.178 11.9013 740 107.722 861.223 497.235
120 0 64.156 12.6722 813 106.394 860.98 495.986
121 0 65.1993 12.6535 825 106.427 861.072 494.338
122 0 67.2206 11.5738 778 108.896 860.785 491.499
123 0 69.2175 12.2657 849 107.769 861.052 492.409
124 0 73.167 12.1093 886 107.553 861.596 491.651
125 0 74.1901 12.2253 907 106.422 861.753 491.891
126 0 77.2052 11.9292 921 106.671 860.539 489.027
127 0 81.1279 11.5497 937 106.931 860.776 487.252
128 0 82.2774 10.732 883 108.512 860.528 486.113
129 0 86.2235 12.1661 1049 106.144 860.744 482.19
130 0 90.2085 12.3824 1117 105.577 860.94 481.35
131 1 47.0602 11.5172 542 100.675 861.6 505.862
132 0 48.1344 11.0108 530 99.3264 861.489 503.513
133 0 50.0178 11.336 567 101.058 861.762 503.34
134 0 52.1084 11.5528 602 102.181 859.794 502.952
135 0 52.1092 13.0111 678 108.308 860.072 498.215
136 0 55.2383 13.9758 772 105.187 859.749 500.433
137 0 57.283 13.1976 756 110.561 860.317 498.589
138 0 58.2126 13.1758 767 110.578 860.482 498.973
139 0 61.1759 12.7665 781 110.293 862.137 497.539
140 0 62.1126 12.6866 788 109.869 862.41 496.693
141 0 62.0979 12.3031 764 112.232 861.666 495.39
142 0 65.0627 13.1565 856 111.244 861.883 493.99
143 0 68.0538 13.1661 896 110.249 861.118 493.737
144 0 68.0525 12.4904 850 112.116 861.812 492.909
145 0 72.0817 12.4165 895 112.041 862.179 491.753
146 0 72.0353 12.5216 902 113.621 862.204 489.647
147 0 76.0973 12.4709 949 112.739 861.691 489.015
148 0 78.1117 12.687 991 111.625 861.841 487.182
149 0 82.1277 13.2111 1085 110.011 862.094 485.175
150 0 84.1197 12.8151 1078 110.685 861.93 486.408
151 0 88.0843 13.6914 1206 108.22 862.061 483.047
152 0 89.1207 12.3204 1098 110.907 861.566 483.213
153 0 92.1964 12.6469 1166 111.076 861.238 479.061
154 1 47.1251 12.0106 566 104.495 861.587 502.261
155 0 48.3987 10.9714 531 105.593 861.996 501.539
156 0 51.3806 13.2151 679 101.807 861.641 498.052
157 0 52.1056 11.7838 614 105.353 860.63 499.692
158 0 54.1094 12.1051 655 105.884 859.748 497.843
159 0 55.0982 13.2672 731 105.029 860.456 499.618
160 0 57.1969 13.3224 762 104.604 861.492 498.122
161 0 58.1727 11.9128 693 108.641 861.244 496.43
162 0 59.1176 11.4856 679 109.504 861.725 497.389
163 0 63.1286 12.5141 790 108.404 861.751 495.971
164 0 66.3536 12.3128 817 108.364 861.513 492.852
165 0 68.1043 13.1122 893 106.244 861.648 494.974
166 0 72.2101 14.2224 1027 105.064 861.374 491.57
167 0 73.2154 12.5383 918 108.878 861.247 489.562
168 0 76.1404 12.5032 952 109.257 861.42 489.167
169 0 81.1296 13.2258 1073 107.257 861.062 487.952
170 0 82.3033 13.268 1092 107.103 860.727 485.7
171 0 87.2371 13.7671 1201 105.765 860.703 482.112
172 0 89.2352 12.4166 1108 106.774 860.45 483.764
173 1 51.0865 12.6256 645 102.662 860.761 503.121
174 0 50.159 11.623 583 108.233 861.027 499.916
175 0 51.1023 12.3478 631 100.897 859.322 498.788
176 0 52.0797 12.8649 670 103.555 858.288 499.057
177 0 55.0271 12.5029 688 100.913 858.545 499.186
178 0 56.0248 13.0656 732 102.749 858.156 497.616
179 0 58.1155 13.9378 810 100.151 859.002 495.373
180 0 59.1977 14.4094 853 102.355 858.427 495.121
181 0 62.2114 14.4507 899 105.077 859.715 494.597
182 0 64.2083 13.9079 893 106.012 860.062 494.952
183 0 65.2031 14.1711 924 107.2 859.658 493.853
184 0 68.2289 14.0703 960 107.2 859.94 492.438
185 0 69.1649 14.5016 1003 107.114 860.015 490.946
186 0 72.2024 14.4455 1043 107.639 860.097 489.781
187 0 73.2545 13.8558 1015 109.777 860.568 489.542
188 0 76.1894 13.8864 1058 111.464 860.29 488.017
189 0 78.1968 13.952 1091 111.738 860.426 487.493
190 0 82.1739 14.0556 1155 111.58 859.414 485.683
191 0 83.2097 14.3733 1196 111.696 860 485.275
192 0 87.3178 15.0485 1314 111.12 859.674 480.95
193 0 89.2524 14.5318 1297 112.377 859.969 480.462
194 0 92.1684 14.94 1377 110.985 860.093 478.181
195 0 95.2874 14.3776 1370 112.046 860.063 478.317
196 0 99.2427 13.7038 1360 112.54 860.357 478.566
197 1 50.091 11.519 577 112.336 861.126 500.525
198 0 53.0339 12.2563 650 109.097 861.915 499.946
199 0 54.0657 11.856 641 99.298 860.588 497.451
200 0 54.1843 11.9961 650 103.092 859.185 493.926
201 0 53.2499 11.324 603 105.396 858.814 493.595
202 0 58.197 11.5985 675 104.633 858.926 493.738
203 0 58.2213 11.9372 695 104.754 859.348 492.676
204 0 62.3249 12.836 800 102.478 859.366 491.9
205 0 64.171 11.7187 752 105.459 859.084 489.101
206 0 65.2055 11.9468 779 105.575 858.942 488.97
207 0 68.1909 12.465 850 104.856 858.368 489.88
208 0 69.2435 12.3911 858 104.967 859.134 488.488
209 0 70.167 11.1876 785 103.318 859.382 487.571
210 0 76.295 15.0862 1151 95.9522 858.839 487.232
211 0 76.1334 13.6471 1039 100.335 859.243 484.367
212 0 80.2724 12.8438 1031 101.129 859.685 485.591
213 0 82.1534 12.9757 1066 101.866 859.122 482.875
214 0 85.2122 13.66 1164 100.292 859.662 482.496
215 0 87.1459 13.2192 1152 102.71 859.26 480.966
216 0 91.2609 14.3544 1310 109.598 859.617 482.707
217 0 94.2873 15.1876 1432 107.79 859.274 481.138
218 0 98.3223 14.2287 1399 109.11 859.375 479.046
219 0 99.2646 14.4261 1432 109.734 859.206 477.222
220 0 103.277 15.1244 1562 108.964 859.365 475.598
221 0 106.177 14.3439 1523 110.714 859.157 473.567
222 1 56.1593 12.7495 716 105.553 858.123 499.56
223 0 55.0619 12.8219 706 105.994 858.524 499.354
224 0 58.1651 13.4273 781 100.338 858.661 497.859
225 0 59.0597 12.4958 738 109.428 858.47 496.374
226 0 63.1184 13.1499 830 108.333 858.86 495.51
227 0 64.2316 13.1088 842 107.972 858.462 495.204
228 0 67.1109 14.2451 956 106.449 858.235 491.971
229 0 70.2624 14.1612 995 105.832 858.267 491.675
230 0 71.1361 13.8186 983 106.72 858.498 490.854
231 0 74.1624 13.6727 1014 107.023 858.929 489.521
232 0 78.3133 13.6758 1071 105.887 858.88 490.28
233 0 78.1327 13.3363 1042 108.659 859.036 486.586
234 0 80.1931 14.5025 1163 105.733 859.4 485.649
235 0 83.1224 13.9674 1161 108.162 859.105 483.719
236 0 87.0649 14.3571 1250 106.266 858.453 483.532
237 0 89.1274 13.1834 1175 109.668 858.517 480.871
238 0 93.3051 15.1117 1410 104.318 858.654 479.229
239 1 51.0385 11.9909 612 106.408 858.415 500.846
240 0 52.0568 11.9293 621 107.644 860.351 499.032
241 0 54.049 12.5257 677 106.176 858.48 498.975
242 0 56.124 13.4167 753 103.174 858.862 499.263
243 0 56.1441 13.2516 744 104.829 858.696 498.421
244 0 59.15 13.1361 777 104.259 858.936 496.194
245 0 60.1976 12.3261 742 106.71 858.28 494.995
246 0 64.1269 13.7072 879 103.611 858.315 494.568
247 0 65.1115 12.2405 797 107.55 858.811 492.481
248 0 69.0559 13.004 898 105.511 857.666 491.596
249 0 68.1088 12.759 869 108.189 857.774 489.555
250 0 73.0826 14.5452 1063 103.152 858.274 488.774
251 0 76.1675 13.7066 1044 105.563 858.876 487.33
252 0 77.1762 13.7607 1062 103.701 859.377 485.258
253 0 78.3149 12.8456 1006 106.695 858.907 483.929
254 0 80.2467 12.2746 985 108.773 858.9 485.034
255 0 83.231 13.1682 1096 107.455 859.625 483.693
256 0 87.3236 13.0091 1136 107.626 859.561 481.496
257 1 49.2694 11.7923 581 106.998 859.37 501.138
258 0 48.136 10.0548 484 105.269 859.174 496.238
259 0 48.0475 11.2389 540 100.943 858.18 495.622
260 0 48.0659 10.2776 494 105.296 858.298 491.211
261 0 53.0323 10.4276 553 104.277 858.271 492.04
262 0 55.0445 9.57407 527 105.273 858.275 493.362
263 0 57.0977 11.0863 633 102.461 857.945 493.172
264 0 59.0523 12.9715 766 100.726 858.219 490.153
265 0 59.0271 10.0632 594 105.966 857.997 489.207
266 0 63.064 11.972 755 103.379 857.668 487.743
267 0 63.0491 11.0866 699 105.717 858.358 487.363
268 0 67.1107 10.4603 702 107.037 857.977 486.943
269 0 69.2261 10.444 723 105.563 859.284 487.154
270 0 74.2048 12.1421 901 102.139 859.45 485.493
271 0 76.2132 12.2813 936 102.77 859.395 483.157
272 0 77.1653 11.5207 889 104.445 858.997 482.701
273 1 40.083 11.2267 450 93.6667 860.309 503.264
274 0 40.0764 10.0308 402 96.0647 860.368 503.022
275 0 43.0395 12.4537 536 97.7034 861.254 505.787
276 0 42.0348 10.5627 444 104.651 861.23 504.032
277 0 46.1787 13.2095 610 98.1836 862.298 504.311
278 0 47.0741 12.1086 570 101.058 862.249 502.889
279 0 48.051 13.1735 633 99.248 861.637 503.48
280 0 49.0718 13.2459 650 100.012 860.994 502.506
281 0 50.0293 12.2528 613 103.682 861.157 501.194
282 0 54.0948 13.3469 722 99.1634 860.776 500.87
283 0 54.042 12.7123 687 102.594 861.306 500.64
284 0 54.0583 12.8565 695 102.728 861.342 498.941
285 0 57.064 12.8628 734 102.718 860.944 497.58
286 0 59.1199 13.8194 817 101.023 861.258 496.951
287 0 61.2083 12.727 779 103.951 861.149 495.734
288 0 64.1014 13.4942 865 102.591 861.571 496.203
289 0 67.0536 13.8099 926 101.88 861.4 493.011
290 0 68.0722 13.2066 899 104.004 861.186 492.706
291 0 71.1424 13.3957 953 103.635 861.337 491.124
292 0 75.1424 14.04 1055 101.377 861.135 490.073
293 0 77.1327 14.2222 1097 101.983 860.983 488.602
294 0 80.2514 14.33 1150 102.479 860.689 486.522
295 0 83.2942 14.5148 1209 102.281 859.98 484.827
296 0 86.3639 14.3 1235 103.535 859.793 483.547
297 1 46.083 11.8916 548 106.144 861.63 504.378
298 0 47.071 12.4918 588 105.99 861.74 502.68
299 0 49.0802 11.6544 572 108.705 860.128 503.187
300 0 50.0245 12.9737 649 98.3082 859.985 503.79
301 0 51.0386 12.0693 616 99.5925 860.36 504.552
302 0 53.0725 12.059 640 100.455 860.297 500.236
303 0 53.1719 11.2465 598 103.027 859.88 500.309
304 0 55.0844 13.4884 743 98.681 859.299 498.252
305 0 57.0814 12.3333 704 101.27 859.83 498.274
306 0 58.0828 12.7404 740 100.147 859.827 497.268
307 0 59.121 12.2461 724 101.33 860.416 497.12
308 0 63.1752 13.518 854 98.8021 859.923 494.838
309 0 65.2678 13.1612 859 99.4435 859.802 495.524
310 0 67.1162 13.2755 891 99.2346 859.871 492.571
311 0 68.149 11.8417 807 102.291 859.813 494.001
312 0 73.2328 12.9723 950 99.9463 859.754 490.489
313 0 77.2071 13.4962 1042 98.7486 859.637 488.986
314 0 79.1472 14.214 1125 98.0862 859.706 488.381
315 0 80.2 12.394 994 103.757 859.523 487.351
316 0 83.1842 12.6226 1050 102.458 860.099 487.037
317 1 40.023 10.7688 431 101.137 860.633 506.427
318 0 42.3198 11.2004 474 101.175 856.884 503.342
319 0 44.2923 12.1014 536 98.5392 857.42 503.375
320 0 43.0289 13.5025 581 100.852 857.584 503.923
321 0 42.0538 12.484 525 103.08 857.684 504.267
322 0 45.09 13.9499 629 100.456 857.291 504.253
323 0 46.0622 12.1792 561 105.021 857.537 504.332
324 0 45.0432 11.4779 517 106.625 858.265 505.095
325 0 49.0566 13.6985 672 101.115 857.857 503.4
326 0 51.0393 12.2063 623 103.884 857.952 503.173
327 0 51.1722 11.8424 606 105.639 858.048 501.729
328 0 53.142 12.6454 672 102.85 858.345 502.043
329 0 54.0501 11.6188 628 104.511 857.986 501.685
330 0 56.083 13.0164 730 103.451 857.686 498.978
331 0 57.035 13.2725 757 104.157 858.11 498.276
332 0 57.0576 11.392 650 108.789 857.728 498.328
333 0 63.0833 14.251 899 101.72 858.062 495.764
334 0 66.1512 14.0134 927 101.462 858.812 494.86
335 0 67.1157 12.1879 818 105.578 858.199 496.229
336 0 69.4278 13.2512 920 104.967 859.041 493.116
337 0 71.3588 13.2289 944 104.05 858.84 493.28
338 0 74.2796 13.8396 1028 105.081 858.941 489.376
339 0 76.3538 12.023 918 107.69 859.361 491.259
340 0 79.5142 12.8531 1022 107.27 859.771 488.118
341 0 82.6636 13.5852 1123 105.643 859.203 488.422
342 0 84.6133 12.5039 1058 109.064 859.397 485.134
343 0 89.7874 12.9194 1160 107.219 859.051 484.785
344 0 90.2622 11.8211 1067 107.695 858.447 480.603
345 1 44.3235 10.3331 458 106.611 859.932 499.692
346 0 47.1084 10.8686 512 104.971 858.742 499.514
347 0 49.1788 12.3427 607 100.852 860.051 499.12
348 0 51.2496 12.644 648 100.664 860.127 497.748
349 0 52.2688 11.3643 594 103.542 860.446 497.261
350 0 54.1695 10.7625 583 105.012 860.369 497.16
351 0 55.1616 10.6052 585 106.737 860.079 494.202
352 0 58.2055 11.8202 688 105.003 860.715 493.984
353 0 60.2137 13.3857 806 102.548 860.708 493.14
354 0 63.4752 12.8712 817 102.738 859.99 491.438
355 0 64.1934 12.0573 774 105.531 860.355 490.947
356 0 65.2974 12.0985 790 107.358 859.981 488.143
357 0 70.3644 11.412 803 107.421 860.279 487.885
358 0 74.3256 11.786 876 106.606 860.024 487.503
359 0 74.1805 11.7821 874 108.302 861.374 488.952
360 0 76.1291 11.6644 888 111.813 859.247 488.788
361 0 82.1306 13.1863 1083 106.459 859.164 489.134
362 0 85.1615 12.2238 1041 107.731 860.403 488.11
363 1 47.1305 11.9031 561 106.426 860.781 505.287
364 0 47.0477 11.8815 559 107.624 860.301 506.007
365 0 48.1061 11.9735 576 109.79 861.516 503.304
366 0 50.0195 12.6351 632 109.035 861.41 502.242
367 0 53.0207 12.1839 646 107.721 861.324 503.81
368 0 53.1324 12.9488 688 108.398 862.051 500.493
369 0 57.064 12.8452 733 107.123 862.067 500.385
370 0 58.0657 12.8992 749 106.36 862.248 500.152
371 0 61.0699 12.7886 781 106.113 861.978 499.558
372 0 62.0948 12.6903 788 106.662 861.598 496.687
373 0 62.1117 12.88 800 105.965 861.639 497.319
374 0 65.1111 14.1451 921 102.868 861.29 497.189
375 0 68.1046 13.5233 921 104.291 861.695 493.034
376 0 68.0885 12.7187 866 105.87 861.721 494.402
377 0 71.1387 14.4647 1029 102.466 861.811 492.048
378 0 75.092 14.4623 1086 101.507 862.071 490.739
379 0 78.2136 14.4348 1129 101.624 862.02 488.888
380 0 81.2543 13.8947 1129 103.502 862.05 487.864
381 0 83.2072 13.893 1156 102.964 862.001 486.75
382 0 85.1851 12.9952 1107 104.924 862.188 486.344
383 0 90.1183 13.0828 1179 104.187 862.249 484.216
384 0 92.2299 12.4797 1151 104.891 862.004 481.867
385 1 47.0257 10.6537 501 102.561 862.393 505.335
386 0 50.0611 11.426 572 98.007 862.46 503.844
387 0 53.1162 12.9527 688 98.3954 861.999 502.549
388 0 55.3106 12.475 690 99.7536 862.296 502.123
389 0 56.2108 12.4531 700 100.704 862.413 500.703
390 0 57.1621 13.0506 746 98.9625 861.336 500.043
391 0 58.3285 12.9782 757 99.9379 862.108 499.095
392 0 61.1605 13.2602 811 99.7386 862.076 497.932
393 0 63.3419 13.4034 849 100.37 861.756 498.102
394 0 67.1579 13.4757 905 99.8387 861.761 495.703
395 0 69.2686 14.3211 992 97.9647 861.903 494.237
396 0 70.3012 13.371 940 100.985 861.99 493.976
397 0 74.1649 13.7127 1017 100.657 861.19 490.032
398 0 78.3005 13.512 1058 100.02 860.972 491.033
399 0 78.3043 11.8512 928 104.827 861.894 490.352
400 0 82.2989 13.8033 1136 100.759 861.646 487.18
401 0 85.1944 13.0642 1113 101.65 862.045 484.656
402 0 88.268 14.286 1261 99.272 861.801 481.778
403 0 91.2406 12.6369 1153 102.648 862.29 481.962
404 0 95.2039 13.1717 1254 100.678 861.828 480.179
405 1 47.0429 11.9465 562 102.055 862.427 499.281
406 0 50.1371 12.2863 616 101.06 862.136 496.164
407 0 49.0603 11.4757 563 100.306 862.71 500.023
408 0 53.1102 11.3349 602 99.2076 862.857 499.45
409 0 57.1885 13.1145 750 103.316 862.159 501.02
410 0 57.142 13.8427 791 103.338 861.981 498.451
411 0 59.1646 12.5075 740 106.376 861.457 498.8
412 0 62.2742 13.7296 855 104.487 860.467 498.415
413 0 64.1985 13.5206 868 106.152 860.333 497.051
414 0 67.2663 14.0486 945 105.172 860.31 495.468
415 0 67.2105 12.5278 842 109.723 861.089 494.943
416 0 72.3745 13.3196 964 105.919 860.169 496.164
417 0 73.1803 12.5853 921 109.483 860.617 493.537
418 0 75.3579 13.3762 1008 108.293 860.915 492.803
419 0 78.227 14.0233 1097 107.558 860.348 491.231
420 0 80.3488 13.4165 1078 110.008 860.622 489.32
421 0 83.4023 13.7046 1143 109.381 860.605 486.41
422 0 85.3917 12.5773 1074 112.431 861.059 486.193
423 0 88.2607 13.5734 1198 110.551 860.85 484.225
424 1 44.2395 12.1611 538 108.21 860.19 507.136
425 0 46.2079 13.8288 639 105.383 860.246 505.232
426 0 47.3083 11.6259 550 110.191 861.244 504.455
427 0 46.0721 11.9161 549 107.282 860.204 505.488
428 0 50.1206 12.3901 621 103.205 860.472 508.111
429 0 50.0868 13.1971 661 105.038 860.489 504.832
430 0 51.0694 12.2774 627 108.081 860.142 503.309
431 0 54.123 12.9335 700 105.776 860.554 504.013
432 0 54.1299 13.209 715 107.078 860 502.127
433 0 57.1367 13.949 797 105.281 860.002 501.931
434 0 56.0792 13.3204 747 107.612 860.428 499.727
435 0 57.1517 13.0005 743 108.782 860.114 501.441
436 0 61.3832 14.3688 882 105.93 859.961 499.498
437 0 63.2684 13.5297 856 109.096 859.775 498.39
438 0 65.2078 13.0659 852 109.966 860.146 497.979
439 0 67.2673 14.8809 1001 108.248 860.01 494.429
440 0 69.2153 13.0463 903 111.699 860.57 494.924
441 0 74.3101 13.511 1004 110.529 860.376 492.643
442 0 75.1331 13.5759 1020 110.558 860.228 491.47
443 0 81.2509 13.9814 1136 108.202 860.202 490.597
444 0 82.1887 14.0895 1158 108.789 860.238 489.495
445 0 83.2023 11.9468 994 113.896 860.172 488.833
446 0 87.2353 13.0566 1139 111.095 860.023 486.205
447 1 48.1629 13.0391 628 108.57 860.758 504.266
448 0 48.2864 13.5856 656 103.655 861.973 499.965
449 0 51.1761 13.7564 704 100.683 861.955 503.898
450 0 50.0472 12.3883 620 105.102 862.105 503.108
451 0 53.1224 13.5912 722 101.882 861.918 502.187
452 0 53.1673 12.6958 675 103.524 861.597 502.141
453 0 56.1344 13.8418 777 100.604 861.898 501.852
454 0 59.2464 12.4396 737 102.221 862.255 500.442
455 0 60.0934 12.3807 744 103.594 861.304 498.828
456 0 63.1975 14.2886 903 98.9723 861.723 497.21
457 0 64.2292 12.6734 814 102.228 861.056 495.645
458 0 66.1325 12.475 825 102.154 860.981 495.879
459 0 69.2736 13.1508 911 101.235 861.294 493.348
460 0 73.1678 13.5989 995 100.188 861.044 493.244
461 0 75.1666 12.4922 939 102.093 860.802 492.389
462 0 76.0669 12.8965 981 102.234 861.186 489.49
463 0 79.1362 11.4865 909 104.326 861.978 489.77
464 0 83.1788 12.5513 1044 103.44 861.593 487.613
465 0 86.1771 13.4839 1162 102.783 861.994 485.122
466 1 45.2111 11.1919 506 104.34 862.632 504.915
467 0 47.1539 12.4062 585 98.4632 862.114 505.02
468 0 46.0889 13.1919 608 99.0477 862.271 504.579
469 0 46.2589 11.9545 553 101.917 862.494 504.002
470 0 50.0556 12.5261 627 99.4641 862.368 502.927
471 0 50.1238 11.9704 600 100.482 862.075 503.145
472 0 52.0798 12.0008 625 100.176 861.483 501.411
473 0 55.1312 11.8626 654 100.934 862.089 500.439
474 0 57.103 11.7857 673 101.328 861.6 499.247
475 0 60.2169 13.385 806 97.9802 861.908 498.592
476 0 61.3358 12.6354 775 100.046 861.448 498.206
477 0 64.1759 14.0707 903 98.4729 861.516 495.322
478 0 63.1378 11.8313 747 104.242 861.548 494.858
479 0 69.1705 14.4137 997 98.4915 861.558 493.869
480 0 71.3786 13.9678 997 100.341 861.752 492.738
481 0 73.226 12.6731 928 103.697 861.062 490.702
482 0 76.1848 13.5985 1036 102.516 861.059 489.892
483 0 77.1577 13.2197 1020 105.533 861.56 488.655
484 0 80.1603 13.8223 1108 105.569 861.785 488.165
485 0 83.1243 13.9791 1162 105.68 861.455 485.821
486 0 85.2332 13.2929 1133 105.196 861.617 483.97
487 0 88.2732 13.5262 1194 105.075 861.725 484.491
488 0 92.1342 13.0136 1199 106.316 861.439 483.184
489 0 95.2178 13.6529 1300 105.332 861.764 481.862
490 0 100.143 13.2311 1325 105.119 860.725 480.333
491 1 49.05 12.946 635 100.274 861.959 505.164
492 0 52.1487 11.7357 612 102.428 862.456 503.408
493 0 52.0734 11.7142 610 104.152 861.503 503.743
494 0 57.1223 13.1822 753 99.3811 862.012 504.339
495 0 56.3449 13.2044 744 101.528 861.755 501.462
496 0 59.1366 13.4773 797 101.816 861.588 498.956
497 0 62.1986 13.8428 861 100.418 861.952 500.598
498 0 63.1353 12.6237 797 104.178 861.798 497.701
499 0 67.1943 12.6648 851 103.365 861.82 497.615
500 0 67.1218 13.5425 909 105.283 861.908 497.282
501 0 70.1384 13.231 928 107.772 861.718 494.676
502 0 73.1974 13.607 996 108.678 861.716 493.356
503 0 73.1857 13.3359 976 111.81 862.124 490.962
504 0 76.1901 13.1776 1004 110.681 862.672 493.245
505 0 81.2207 13.7527 1117 110.05 862.332 490.696
506 0 82.1021 13.5807 1115 111.765 862.294 489.065
507 0 85.1816 13.4184 1143 113.401 862.414 487.578
508 0 86.2819 12.5403 1082 116.285 862.061 486.069
509 0 90.179 13.2958 1199 115.645 861.508 483.986
510 1 46.0726 12.0462 555 113.04 862.182 506.941
511 0 48.2823 11.9091 575 115.123 860.996 503.619
512 0 50.1646 12.4391 624 112.269 861.974 504.117
513 0 51.3025 12.3386 633 112.532 862.047 503.799
514 0 51.1434 11.6535 596 114.393 862.663 504.2
515 0 55.1663 13.0696 721 112.538 862.169 502.208
516 0 54.1196 12.2507 663 116.293 862.487 502.523
517 0 57.1386 12.6884 725 115.35 862.069 500.11
518 0 57.1134 12.0462 688 117.403 862.167 499.702
519 0 61.1261 12.8587 786 114.726 862.018 498.729
520 0 62.2752 13.1031 816 115.009 862.112 496.961
521 0 67.2311 12.8066 861 115.06 861.47 496.697
522 0 68.223 12.8696 878 114.974 861.07 495.195
523 0 71.2661 13.7092 977 112.798 861.199 494.796
524 0 74.2092 13.1924 979 115.523 861.653 491.808
525 0 77.1878 13.3182 1028 114.366 861.444 491.968
526 0 77.168 12.2071 942 118.84 861.246 489.71
527 0 81.2004 13.4482 1092 117.457 860.738 486.396
528 0 86.1558 12.6631 1091 117.492 860.497 487.256
529 0 86.2624 12.6822 1094 118.633 860.07 480.058
530 1 48.1861 10.7915 520 117.185 860.262 499.663
531 0 49.1535 12.2474 602 114.243 860.106 498.171
532 0 50.228 13.598 683 112.426 859.96 497.477
533 0 48.2252 11.1767 539 101.764 861.824 501.8
534 0 51.1411 11.5563 591 106.256 861.814 504.641
535 0 53.2188 10.936 582 107.514 861.761 503.081
536 0 55.1244 10.3221 569 106.789 861.96 501.232
537 0 57.2661 11.5077 659 102.968 861.273 499.716
538 0 59.1926 11.7244 694 102.22 861.585 497.826
539 0 61.1696 12.31 753 100.578 861.677 497.264
540 0 65.2119 13.3105 868 97.6118 861.562 496.448
541 0 67.1696 13.4585 904 98.2777 861.29 493.696
542 0 67.1715 10.8677 730 102.84 861.834 494.752
543 0 72.2376 11.8775 858 99.5501 862.569 493.49
544 0 73.2952 11.6379 853 101.727 862.558 490.685
545 0 78.2158 12.0564 943 101.17 862.502 489.586
546 0 81.257 14.3249 1164 97.3041 862.77 487.445
547 0 82.3023 12.3083 1013 101.791 862.275 486.756
548 0 86.2691 12.6581 1092 101.359 862.117 486.41
549 0 88.2696 12.9376 1142 102.138 863.153 482.701
550 1 45.0701 11.7595 530 99.5679 863.732 506.806
551 0 46.0606 11.3329 522 101.69 863.144 505.251
552 0 49.0927 12.3033 604 102.023 863.684 504.349
553 0 50.3629 13.5219 681 97.6769 862.681 504.241
554 0 51.1524 12.9026 660 98.3227 863.082 502.905
555 0 52.0639 12.4847 650 98.2785 863.2 503.054
556 0 54.0867 12.8682 696 97.7586 863.853 501.555
557 0 58.0814 13.154 764 96.8626 863.257 500.656
558 0 58.0961 13.6842 795 95.634 863.533 500.818
559 0 61.2034 13.3162 815 96.4748 863.755 498.822
560 0 62.0673 12.9054 801 97.8552 864.029 496.763
561 0 64.2362 12.7498 819 98.4847 863.825 497.383
562 0 66.074 12.5465 829 99.0338 863.842 495.844
563 0 69.0705 13.0302 900 98.2789 863.127 494.733
564 0 70.1925 11.8816 834 102.252 863.146 491.544
565 0 75.0898 12.8646 966 99.0228 863.099 492.466
566 0 78.1467 13.1419 1027 99.1256 863.24 490.504
567 0 79.1342 12.3714 979 101.202 862.614 488.192
568 0 82.2747 11.6682 960 102.172 862.582 488.414
569 1 43.1137 11.8524 511 99.4227 863.045 508.734
570 0 43.0153 10.3219 444 101.561 863.387 507.221
571 0 45.0904 12.4417 561 97.5098 862.11 507.23
572 0 45.0627 11.5395 520 100.833 863.158 506.962
573 0 49.0906 11.5501 567 100.464 863.365 505.079
574 0 49.1165 13.865 681 97.7474 862.628 504.722
575 0 51.2286 13.9571 715 97.7301 862.771 504.308
576 0 52.1832 13.8167 721 98.3814 862.667 504.559
577 0 52.2268 11.699 611 103.753 861.864 503.29
578 0 56.1481 13.9809 785 98.8255 861.569 501.898
579 0 58.0989 12.3582 718 101.653 862.113 502.879
580 0 59.2036 13.7829 816 99.6556 861.842 500.032
581 0 61.3773 14.2887 877 99.2338 861.406 497.763
582 0 63.3031 14.1225 894 98.406 861.892 497.662
583 0 66.1444 13.0019 860 100.841 862.001 499.173
584 0 66.2148 12.1574 805 104.401 862.624 495.906
585 0 70.4016 13.5934 957 102.188 862.215 493.822
586 0 72.1537 12.9723 936 104.02 862.338 493.949
587 0 75.2337 14.1426 1064 102.398 862.74 491.345
588 0 78.1951 13.2617 1037 104.511 862.608 491.775
589 0 79.1892 13.2846 1052 106.089 862.411 489.582
590 0 83.2046 14.6386 1218 103.594 861.524 487.452
591 0 84.2084 13.3953 1128 107.03 861.366 488.093
592 0 87.2997 13.4938 1178 108.333 861.029 484.368
593 0 89.2692 12.6135 1126 115.216 861.395 483.502
594 0 93.5677 13.6799 1280 113.571 861.056 479.735
595 0 96.3337 12.6539 1219 117.002 862.394 478.167
596 0 99.2511 11.8084 1172 118.013 861.766 479.714
597 0 103.482 13.7802 1426 114.846 861.679 474.842
598 0 106.588 13.1722 1404 116.628 862.41 475.001
599 0 110.6 13.7523 1521 116.206 861.83 469.577
600 1 54.4958 13.4139 731 107.93 862.316 499.689
601 0 54.401 11.6174 632 112.706 863.139 499.672
602 0 56.1762 12.1582 683 111.498 862.876 502.182
603 0 59.2532 14.1427 838 107.727 862.603 498.48
604 0 61.1823 11.6047 710 112.838 862.145 499.07
605 0 64.2522 13.556 871 108.3 862.177 496.35
606 0 66.2197 13.7723 912 108.743 861.75 494.917
607 0 67.3684 12.2313 824 111.839 862.324 494.801
608 0 70.2913 13.0173 915 110.209 862.466 493.788
609 0 73.2156 15.2427 1116 105.056 862.793 492.728
610 0 77.2806 14.9844 1158 106.42 862.064 489.744
611 0 79.2733 13.6742 1084 110.184 862.338 488.483
612 0 80.2807 12.693 1019 114.073 862.073 487.478
613 0 86.307 13.6721 1180 110.97 862.42 485.227
614 0 89.3183 12.7298 1137 113.608 862.804 484.327
615 0 90.1579 12.6334 1139 115.436 863.04 481.216
616 0 95.2017 13.5712 1292 111.557 863.096 482.925
617 1 51.0109 11.0172 562 112.786 863.375 503.904
618 0 51.0454 11.8718 606 110.657 863.117 503.863
619 0 54.0471 13.2292 715 108.848 862.814 502.102
620 0 56.0206 13.8878 778 102.474 863.482 501.339
621 0 55.0644 12.8213 706 106.361 863.589 500.099
622 0 58.0721 12.8461 746 105.996 863.342 499.922
623 0 59.0636 13.7648 813 104.472 863.069 499.406
624 0 62.1054 13.4449 835 104.162 863.266 499.104
625 0 64.103 13.3379 855 105.85 863.098 497.6
626 0 66.0316 12.7818 844 106.966 863.159 495.937
627 0 67.1123 12.6802 851 107.865 863.284 493.392
628 0 67.0671 12.9721 870 108.454 863.756 491.821
629 0 72.161 12.4721 900 109 863.206 491.272
630 0 75.0481 13.7645 1033 104.273 863.29 492.293
631 0 77.1004 13.0609 1007 106.973 862.906 489.957
632 0 78.187 12.6364 988 109.025 862.298 488.271
633 0 82.0825 13.1697 1081 107.823 862.6 487.104
634 0 84.1543 12.5008 1052 109.427 862.318 484.76
635 0 86.1928 12.472 1075 109.912 862.302 484.499
636 0 90.1301 13.0589 1177 109.56 862.549 482.513
637 0 90.113 11.53 1039 113.314 862.405 486.378
638 0 94.1223 13.4506 1266 110.283 862.31 482.141
639 0 96.126 12.4524 1197 113.061 862.537 477.373
640 0 99.2275 12.809 1271 112.534 862.706 478.69
641 0 101.046 11.7174 1184 116.042 863.351 476.008
642 1 57.0486 11.0607 631 113.96 863.178 500.428
643 0 60.1243 12.7403 766 108.141 862.937 498.983
644 0 60.0907 12.348 742 113.689 862.888 498.243
645 0 62.0904 12.8683 799 112.377 863.492 496.437
646 0 64.2768 12.2906 790 113.316 860.434 495.673
647 0 68.1563 12.486 851 110.841 860.253 495.323
648 0 67.1319 11.5146 773 114.639 860.066 495.437
649 0 70.1339 13.8877 974 110.004 859.624 491.879
650 0 72.1435 12.087 872 112.454 859.942 493.173
651 0 75.1352 12.9633 974 112.307 859.897 490.264
652 0 76.2194 11.7687 897 113.855 860.185 489.736
653 0 81.1386 13.9145 1129 108.597 860.14 485.794
654 0 82.0782 13.9867 1148 110.206 860.648 485.014
655 0 85.2386 13.1631 1122 112.439 860.526 484.473
656 0 88.2789 12.4265 1097 113.957 860.334 483.782
657 0 93.2392 13.5029 1259 110.936 860.825 481.474
658 0 94.2165 12.0467 1135 114.748 860.549 478.846
659 1 50.0634 10.8063 541 110.033 860.471 502.933
660 0 53.2221 11.3862 606 109.104 862.068 500.188
661 0 52.0996 12.5913 656 103.354 862.927 501.099
662 0 57.1337 12.6545 723 106.119 863.542 499.712
663 0 59.0947 13.2499 783 105.028 863.77 498.045
664 0 60.0501 13.1224 788 104.811 864.192 497.89
665 0 63.0583 14.1456 892 100.274 863.606 498.03
666 0 63.0571 13.0675 824 103.217 863.22 498.818
667 0 66.0557 13.8671 916 100.888 863.287 495.015
668 0 65.0886 12.2448 797 104.902 862.886 495.785
669 0 69.1703 13.6475 944 102.162 861.105 491.528
670 0 72.15 13.9016 1003 101.31 860.471 491.244
671 0 75.2189 13.9327 1048 100.778 860.528 489.391
672 0 78.1568 14.2278 1112 101.622 860.628 489.765
673 0 77.355 12.4491 963 105.375 859.872 492.342
674 0 81.1764 12.3558 1003 104.771 860.516 487.66
675 0 84.2032 13.7049 1154 102.831 860.66 486.554
676 0 86.2115 13.1653 1135 104.574 860.573 486.568
677 0 92.1677 13.6707 1260 102.59 860.867 483.734
678 0 94.2636 13.5683 1279 102.8 861.111 482.684
679 1 46.0668 10.3328 476 106.908 860.099 506.742
680 0 48.1174 11.7421 565 106.12 860.637 505.734
681 0 51.1214 12.617 645 102.512 859.843 504.89
682 0 52.1162 12.971 676 104.849 859.547 502.034
683 0 53.1757 13.1639 700 104.731 859.794 502.474
684 0 55.2266 14.4677 799 102.278 860.761 501.78
685 0 55.2933 12.5332 693 107.802 860.714 501.499
686 0 59.2608 14.124 837 103.461 861.477 500.956
687 0 58.3518 12.7674 745 107.956 860.899 499.876
688 0 60.1646 12.7982 770 102.721 861.821 498.865
689 0 61.1569 12.3126 753 105.873 861.894 497.07
690 0 63.2863 13.5416 857 103.77 861.538 496.747
691 0 66.1944 14.0495 930 103.209 862.276 496.969
692 0 68.1288 13.4304 915 104.616 862.181 496.895
693 0 72.0804 13.3601 963 106.526 862.356 493.47
694 0 73.1539 12.7949 936 109.431 861.97 492.363
695 0 75.078 13.6525 1025 107.032 862.101 494.097
696 0 80.1234 14.7522 1182 105.726 861.772 490.636
697 0 79.124 13.0049 1029 110.483 861.674 491.055
698 0 85.1971 14.1319 1204 107.464 861.608 487.109
699 0 88.2411 13.4178 1184 108.182 861.682 486.785
700 0 90.2154 12.9911 1172 110.231 861.866 485.97
701 1 49.0327 11.992 588 107.825 862.701 505.078
702 0 50.0335 12.9513 648 107.389 862.091 503.599
703 0 52.0414 12.9704 675 108.397 861.966 503.613
704 0 53.062 13.324 707 110.389 859.166 501.011
705 0 55.0936 13.5224 745 110.463 859.397 499.717
706 0 58.0184 13.5302 785 109.381 859.15 500.49
707 0 59.0375 13.3136 786 110.921 859.751 499.27
708 0 61.0589 12.3979 757 113.235 859.062 498.376
709 0 64.0237 13.4794 863 110.384 859.175 498.582
710 0 64.1204 13.0692 838 113.964 859.032 495.074
711 0 67.0864 15.0552 1010 108.534 859.843 494.697
712 0 66.0813 12.9537 856 114.072 859.093 493.863
713 0 70.0895 13.3258 934 112.987 859.53 492.898
714 0 72.0789 13.9847 1008 112.162 859.723 492.534
715 0 73.0302 14.2954 1044 112.359 859.623 491.763
716 0 76.07 13.4876 1026 114.945 859.929 491.407
717 0 77.0566 13.0034 1002 116.816 860.083 491.233
718 0 81.1139 13.6845 1110 115.951 860.446 488.55
719 0 83.0827 13.4324 1116 118.187 860.206 487.381
720 0 87.0793 14.0217 1221 117.126 859.654 485.821
721 1 47.0822 12.0428 567 115.857 859.859 505.208
722 0 50.1398 12.525 628 110.818 861.521 503.61
723 0 51.0481 13.1053 669 113.558 860.233 504.108
724 0 52.0647 12.3692 644 118.96 859.865 503.969
725 0 55.123 13.9688 770 115.482 859.664 501.76
726 0 57.0451 13.6909 781 115.417 859.612 502.205
727 0 56.1314 14.2344 799 116.844 860.019 500.338
728 0 59.1512 13.3894 792 118.298 859.669 499.659
729 0 60.078 13.3993 805 117.537 860.016 499.696
730 0 62.1116 13.6689 849 116.575 859.895 498.806
731 0 65.1281 13.389 872 117.523 860.022 497.03
732 0 67.1351 13.0185 874 118.507 860.122 496.4
733 0 67.1059 13.5905 912 118.5 860.154 494.407
734 0 71.0984 13.5446 963 117.094 860.093 493.721
735 0 72.2442 13.7174 991 117.654 860.186 490.623
736 0 74.1264 13.2341 981 118.598 859.669 491.336
737 0 79.1772 13.1225 1039 118.434 859.854 488.424
738 0 80.2306 14.8821 1194 114.585 859.972 489.013
739 0 85.2718 14.5887 1244 114.117 860.581 487.671
740 0 88.4776 13.1898 1167 118.065 860.394 485.034
741 0 90.288 14.2876 1290 116.642 860.446 481.701
742 0 93.4267 14.1287 1320 116.764 861.274 480.568
743 0 96.3123 13.6846 1318 118.069 860.652 478.33
744 0 98.3727 14.7907 1455 114.412 860.887 479.122
745 0 102.281 14.1278 1445 115.439 860.949 476.878
746 1 53.2237 11.6489 620 117.44 860.387 499.76
747 0 57.041 12.6576 722 112.436 860.398 500.593
748 0 55.0517 11.3711 626 113.829 860.121 494.69
749 0 57.0277 11.0823 632 110.905 860.005 494.066
750 0 60.0267 11.0617 664 111.604 860.131 496.125
751 0 61.0692 12.2484 748 110.576 860.179 492.667
752 0 65.086 11.8612 772 109.9 860.404 495.201
753 0 67.1828 11.7143 787 111.159 860.131 493.079
754 0 69.1638 12.0728 835 111.96 860.479 491.704
755 0 69.093 11.376 786 114.108 860.188 491.64
756 0 73.0558 12.4699 911 112.001 860.568 488.341
757 0 77.1045 11.9189 919 113.328 860.58 486.9
758 0 78.1104 12.1111 946 113.833 860.489 486.114
759 0 81.0673 11.5706 938 114.872 860.381 484.661
760 0 86.146 12.5485 1081 113.084 859.66 481.932
761 0 89.1199 12.5449 1118 113.064 859.964 481.242
762 0 94.1132 12.8994 1214 112.288 859.708 480.701
763 0 97.151 12.2284 1188 113.848 859.864 480.221
764 1 51.0772 10.4743 535 107.421 859.845 502.634
765 0 53.4257 11.8482 633 106.983 860.768 498.975
766 0 56.1349 12.5234 703 104.063 862.717 502.05
767 0 56.0724 12.359 693 105.781 862.893 500.258
768 0 58.2265 12.417 723 105.367 862.773 499.976
769 0 59.0666 11.6479 688 106.85 862.785 499.177
770 0 61.095 12.4069 758 105.646 863.314 498.491
771 0 64.0585 12.2232 783 104.866 863.156 497.181
772 0 66.1105 13.1144 867 105.97 863.123 494.614
773 0 71.0706 12.8605 914 104.284 862.772 494.616
774 0 72.0637 13.377 964 104.357 862.954 492.405
775 0 75.0836 13.5582 1018 103.693 862.47 493.856
776 0 75.2328 13.3718 1006 105.73 862.101 492.281
777 0 79.1375 12.5857 996 110.007 862.113 487.615
778 0 83.1515 13.3732 1112 109.552 862.568 488.004
779 0 85.1575 12.4123 1057 116.948 862.664 486.84
780 0 89.1221 12.8475 1145 116.906 862.218 484.783
781 0 92.1505 12.9788 1196 116.178 861.56 484.175
782 0 94.1864 12.1461 1144 119.021 861.14 481.393
783 0 97.3662 12.7662 1243 117.874 860.603 477.267
784 0 102.708 12.4917 1283 118.185 860.529 474.624
785 0 106.482 12.3307 1313 118.765 859.935 473.312
786 0 107.34 11.9993 1288 117.824 862.505 478.661
787 0 111.247 12.0902 1345 88.5755 861.764 476.815
788 1 59.2158 13.1553 779 108.538 861.533 500.861
789 0 61.3519 12.2246 750 111.293 861.748 500.215
790 0 64.1248 12.9123 828 110.233 861.25 497.726
791 0 65.2506 11.1876 730 113.6 861.133 495.963
792 0 68.3822 11.9329 816 113.136 860.574 493.206
793 0 69.2612 11.6804 809 113.295 860.918 494.378
794 0 73.2513 12.737 933 111.974 861.026 493.978
795 0 75.1916 12.5546 944 113.324 860.72 491.452
796 0 78.2465 11.6044 908 113.238 860.066 491.02
797 0 80.2725 12.6569 1016 111.887 860.342 487.96
798 0 84.4098 13.3515 1127 109.643 859.631 484.586
799 0 88.4664 12.5019 1106 112.212 859.57 479.248
800 0 89.6444 11.2221 1006 113.384 859.788 480.029
801 0 89.5525 10.2733 920 114.708 859.19 479.961
802 1 49.1973 11.7283 577 105.799 858.896 499.206
803 0 48.2627 11.3131 546 108.236 858.681 499.41
804 0 51.1272 10.6206 543 108.499 861.482 504.146
805 0 53.1517 12.4173 660 113.509 858.255 501.862
806 0 53.1014 12.9752 689 112.305 858.813 500.99
807 0 55.1056 12.1403 669 113.966 859.027 500.735
808 0 57.2511 12.7159 728 111.375 859.216 499.424
809 0 61.0785 13.4908 824 107.987 859.346 498.638
810 0 61.0992 12.0132 734 111.715 858.744 498.089
811 0 62.1125 12.574 781 110.082 859.729 496.958
812 0 66.1315 13.2312 875 108.378 858.999 494.835
813 0 67.1022 14.7387 989 104.592 859.075 493.612
814 0 69.1262 12.5423 867 109.466 858.654 494.379
815 0 71.288 13.1859 940 106.891 858.724 494.227
816 0 74.1322 14.0695 1043 107.025 858.946 491.466
817 0 76.1341 12.3598 941 110.386 859.105 492.448
818 0 77.1722 13.593 1049 108.679 858.416 490.339
819 0 80.0921 13.8341 1108 109.125 858.662 487.561
820 0 83.2678 12.5499 1045 112.452 859.143 487.37
821 0 87.1526 12.851 1120 111.783 858.742 485.348
822 0 89.2414 14.4216 1287 108.65 859.234 483.42
823 0 91.1404 13.5725 1237 111.663 859.302 480.769
824 0 94.2159 13.2249 1246 112.346 860.061 482.348
825 0 97.2246 12.5277 1218 114.266 860.4 478.626
826 1 51.3964 11.5183 592 109.4 860.645 502.196
827 0 51.4236 10.8316 557 104.779 860.557 495.171
828 0 52.1 10.9405 570 105.518 860.161 496.475
829 0 58.0761 12.3114 715 108.432 859.82 500.961
830 0 60.1396 13.5518 815 105.49 859.166 500.885
831 0 60.0417 12.7578 766 109.295 858.433 498.138
832 0 64.0937 13.6987 878 105.681 858.94 497.06
833 0 64.0686 13.0329 835 109.214 859.012 495.004
834 0 65.087 12.8904 839 110.462 858.815 495.013
835 0 69.0535 13.8443 956 106.961 858.556 492.779
836 0 70.0578 11.5333 808 110.452 857.95 494.66
837 0 72.0671 12.2386 882 109.833 858.57 492.236
838 0 75.1012 12.5298 941 108.819 858.394 492.605
839 0 78.1851 13.7494 1075 107.545 858.806 488.667
840 0 81.1087 12.7483 1034 109.254 858.662 490.283
841 1 41.0284 11.1386 457 107.807 858.705 507.982
842 0 44.0264 11.107 489 106.593 859.409 509.558
843 0 45.0323 11.947 538 105.037 861.898 507.396
844 0 44.0508 11.8273 521 101.19 861.438 506.822
845 0 44.0147 11.7006 515 102.72 861.254 505.783
846 0 46.159 12.262 566 101.157 861.355 505.952
847 0 48.0491 11.5299 554 102.437 861.328 506.451
848 0 49.0219 11.0767 543 104.923 861.976 506.011
849 0 50.0355 10.0928 505 105.127 861.927 508.038
850 0 54.0528 13.2648 717 98.6053 862.937 502.969
851 0 56.0509 12.4351 697 100.093 862.004 503.407
852 0 57.0912 12.5413 716 101.401 862.754 500.851
853 0 59.1623 12.508 740 100.411 862.978 501.803
854 0 60.1161 11.378 684 103.313 862.803 498.83
855 0 64.1333 12.4896 801 100.055 862.758 498.428
856 0 66.1071 11.6931 773 102.254 862.759 496.938
857 0 65.1516 11.1279 725 104.223 862.567 497.996
858 0 69.1611 11.7407 812 103.66 862.581 495.741
859 0 71.0939 11.0136 783 105.554 862.363 495.935
860 0 74.1495 11.0318 818 106.161 862.241 494.204
861 0 76.1325 10.5474 803 106.973 862.212 493.107
862 0 78.105 11.3565 887 107.407 862.586 489.986
863 0 82.1353 10.6775 877 108.268 862.471 489.122
864 1 43.1033 12.1336 523 105.444 862.621 506.822
865 0 44.3345 12.0222 533 101.488 862.274 507.045
866 0 47.1589 12.829 605 100.15 862.75 506.24
867 0 49.0409 13.5397 664 98.6325 863.611 505.011
868 0 50.1201 11.9712 600 102.87 863.602 504.205
869 0 49.0346 12.4198 609 103.484 863.772 505.264
870 0 51.0639 11.75 600 104.61 863.462 504.158
871 0 53.0562 12.5716 667 103.129 863.364 503.28
872 0 56.0616 13.6635 766 100.688 863.191 501.43
873 0 56.0839 13.1588 738 103.854 863.202 501.364
874 0 58.1063 13.7334 798 103.878 862.794 501.861
875 0 58.1912 12.1152 705 107.984 863.769 500.065
876 0 61.1377 13.9685 854 103.417 862.908 499.467
877 0 62.1116 11.9462 742 107.848 862.982 498.167
878 0 66.0862 13.5429 895 104.998 863.137 495.632
879 0 69.1299 14.4366 998 102.682 862.764 493.948
880 0 71.1635 14.1786 1009 103.541 862.661 494.067
881 0 74.241 13.7929 1024 104.851 862.741 494.523
882 0 74.267 12.4147 922 109.928 862.482 494.06
883 0 79.253 14.7755 1171 105.966 862.166 492.629
884 0 80.1792 14.742 1182 107.427 861.857 489.734
885 0 82.1514 14.6315 1202 110.21 862.354 487.374
886 0 84.3069 13.5695 1144 114.698 862.489 487.573
887 0 87.1546 13.5047 1177 114.743 862.753 487.24
888 0 90.2628 12.6076 1138 115.264 862.364 483.73
889 0 94.2134 14.2867 1346 111.255 861.218 476.265
890 1 46.1587 12.652 584 109.541 860.899 499.993
891 0 46.0321 12.274 565 111.439 861.646 500.683
892 0 48.0561 13.0889 629 109.722 861.838 504.781
893 0 49.0927 12.894 633 110.692 862.058 504.284
894 0 49.0783 12.7959 628 112.771 862.516 502.209
895 0 52.0416 12.1633 633 112.698 863.182 501.73
896 0 55.0944 14.6113 805 106.935 862.58 500.755
897 0 58.1154 14.953 869 105.926 862.614 499.504
898 0 59.0598 13.9012 821 108.628 863.246 498.876
899 0 60.076 14.5649 875 108.706 862.254 497.137
900 0 64.0687 14.9527 958 106.5 862.572 496.838
901 0 66.1022 15.2037 1005 107.134 862.521 495.995
902 0 67.1154 14.3335 962 110.245 862.411 494.51
903 0 70.0577 14.4167 1010 109.925 862.318 494.947
904 0 72.0932 14.1483 1020 109.716 862.129 491.34
905 0 75.1564 15.0087 1128 107.817 862.632 490.035
906 0 78.039 15.1719 1184 107.508 861.976 487.812
907 0 81.1557 14.7125 1194 107.836 862.038 487.876
908 0 82.1203 14.0404 1153 111.341 861.99 485.14
909 0 87.1025 14.4313 1257 110.901 862.121 482.018
910 1 41.1107 13.5001 555 114.708 862.267 502.701
911 0 41.077 13.4382 552 114.529 861.703 502.496
912 0 45.0464 13.586 612 113.44 861.154 500.547
913 0 45.0814 14.4627 652 112.043 860.985 499.932
914 0 48.1668 15.1141 728 110.979 861.082 499.28
915 0 48.0297 14.9699 719 112.045 860.885 497.594
916 0 48.0344 13.6777 657 115.134 860.91 497.451
917 0 53.0839 15.7675 837 108.34 860.649 496.613
918 0 54.0917 14.9191 807 111.845 860.34 495.271
919 0 56.1489 15.5658 874 108.142 860.371 496.611
920 0 58.0874 15.6144 907 108.88 861.071 493.605
921 0 59.1788 13.9577 826 112.949 860.345 494.281
922 0 60.1922 13.324 802 114.395 860.512 493.209
923 0 65.2333 15.8048 1031 107.75 860.183 490.489
924 0 68.4771 16.2682 1114 105.449 860.735 489.56
925 0 69.2546 15.0893 1045 107.929 860.928 490.265
926 0 73.1678 15.608 1142 107.114 860.791 487.055
927 0 73.2574 14.374 1053 109.521 860.358 488.192
928 0 73.6016 13.6546 1005 110.972 861.012 486.953
929 0 77.5727 15.2244 1181 106.245 861.229 485.824
930 0 78.4312 12.1125 950 112.856 860.805 485.303
931 0 84.6011 14.8107 1253 107.164 861.475 482.39
932 0 84.5721 13.5506 1146 110.84 860.894 480.747
933 0 89.5575 13.8235 1238 109.629 861.441 479.401
934 0 93.5728 13.5937 1272 109.868 861.352 477.619
935 1 46.2727 13.226 612 112.425 861.479 497.129
936 0 45.3388 12.0427 546 115.723 861.923 497.562
937 0 49.654 14.5205 721 109.914 861.656 494.499
938 0 52.568 14.4575 760 108.717 861 494.595
939 0 56.6601 15.0017 850 106.725 861.416 494.626
940 0 57.3363 16.3247 936 104.884 861.753 492.158
941 0 58.2769 15.169 884 108.394 861.215 492.042
942 0 59.491 13.4306 799 113.053 861.606 491.812
943 0 63.2568 14.9233 944 109.879 861.178 488.912
944 0 63.4611 14.9383 948 111.245 861.668 487.475
945 0 67.24 14.2028 955 112.272 861.621 488.272
946 0 68.3908 15.236 1042 110.936 861.913 487.189
947 0 69.3535 15.2984 1061 112.771 862.055 485.434
948 0 73.4192 14.1516 1039 115.493 862.676 483.478
949 0 76.4197 14.2895 1092 114.535 862.418 483.548
950 0 79.3067 15.3581 1218 112.618 862.424 481.667
951 0 80.7383 15.1972 1227 114.276 862.091 480.052
952 0 82.4388 14.8595 1225 116.382 861.598 479.968
953 0 87.8885 15.6903 1379 114.024 861.279 478.841
954 0 88.5853 15.4879 1372 115.37 861.536 475.816
955 0 91.4838 14.7786 1352 116.982 861.677 475.674
956 0 95.2769 16.069 1531 114.643 861.511 474.4
957 0 97.379 15.7015 1529 115.369 862.449 473.264
958 0 101.227 14.4131 1459 119.059 862.088 470.281
959 0 101.514 14.5792 1480 119.629 861.747 467.37
960 0 111.503 15.7754 1759 115.201 861.778 466.8
961 0 114.567 16.4532 1885 114.337 861.865 464.559
962 0 119.433 14.686 1754 118.751 861.938 462.82
963 0 124.697 15.8064 1971 115.484 862.31 462.226
964 0 126.487 13.8038 1746 123.388 861.64 456.192
965 1 61.3465 11.867 728 121.559 861.104 486.098
966 0 64.3325 12.8706 828 120.415 860.983 484.075
967 0 70.568 14.3408 1012 114.168 861.044 485.945
968 0 72.2142 14 1011 114.33 860.759 486.351
969 0 75.376 15.1905 1145 112.079 860.53 483.78
970 0 77.2975 14.1272 1092 114.13 860.731 483.125
971 0 81.3965 15.8852 1293 109.89 860.273 480.118
972 0 84.2162 14.154 1192 115.154 860.17 477.675
973 0 86.4224 14.6143 1263 113.356 860.725 477.297
974 0 88.2872 14.0677 1242 114.771 860.25 474.879
975 0 93.194 15.6448 1458 111.869 860.626 474.16
976 0 95.431 13.4024 1279 116.765 860.957 473.352
977 0 101.432 15.4291 1565 112.278 861.208 473.315
978 0 105.349 14.5897 1537 114.586 861.278 471.787
979 0 108.393 14.4382 1565 114.906 861.349 470.093
980 0 113.294 14.7051 1666 115.348 860.843 465.64
981 1 60.0836 9.66987 581 105.31 860.936 497.757
982 0 64.2676 11.172 718 104.593 861.565 494.07
983 0 64.2676 11.0476 710 131.372 862.57 494.154
984 0 68.0527 10.2714 699 107.093 860.073 491.362
985 0 69.193 10.7236 742 105.813 859.982 490.163
986 0 73.0673 11.9068 870 103.794 860.221 489.092
987 0 76.1383 10.7173 816 104.135 860.349 489.46
988 0 77.1614 11.5991 895 104.342 860.628 485.559
989 0 77.1304 9.59414 740 107.504 860.669 484.831
990 0 81.1296 12.3876 1005 103.326 860.747 482.909
991 0 84.249 9.48379 799 108.563 861.229 482.093
992 0 86.328 11.1783 965 112.052 860.75 480.448
993 0 88.2496 10.4023 918 111.651 861.282 481.334
994 0 92.196 10.9983 1014 111.716 860.691 475.369
995 0 94.3084 9.9779 941 113.288 860.637 474.014
996 0 97.116 9.26727 900 112.8 861.423 474.141
997 0 101.173 8.12468 822 113.414 861.646 473.783
998 0 102.108 9.64661 985 112.661 861.269 468.111
999 0 106.122 11.1381 1182 109.42 862.041 468.956
1000 0 111.199 7.59902 845 113.467 862.078 468.066
1001 1 60.059 5.57784 335 102.519 861.761 490.424
1002 0 65.0794 9.72658 633 96.5829 861.536 490.276
1003 0 65.1431 9.4868 618 97.0728 861.016 487.72
1004 0 69.2528 9.16931 635 96.8882 861.224 488.183
1005 0 72.2491 9.52262 688 96.3546 861.189 486.382
1006 0 74.1517 12.2721 910 92.4967 860.735 485.297
1007 0 74.3166 10.7782 801 94.7104 860.732 486.142
1008 0 76.3672 6.63898 507 100.787 860.988 477.195
1009 0 79.1816 8.76467 694 98.2291 861.105 478.295
1010 0 73.1272 13.3193 974 125.767 860.755 403.64
1011 1 85.2554 8.22235 701 101.556 861.274 472.091
1012 0 86.3378 6.74096 582 105.792 861.632 471.933
1013 0 94.2732 7.44644 702 105.37 860.318 470.125
1014 1 76.3128 5.05813 386 111.205 859.282 455.583
1015 1 98.7071 5.8861 581 106.583 860.876 464.701
1016 1 61.3736 6.64782 408 111.49 859.662 449.561
1017 0 52.052 2.47829 129 100.194 863.457 492.357
1018 0 57.0232 2.64804 151 94.2715 863.967 508.192
1019 0 58.0274 1.43036 83 99.9398 863.361 501.494
1020 0 56.1044 1.35462 76 100.053 863.895 498.487
1021 0 57.1787 3.34041 191 97.5026 862.565 487.314
1022 1 123.281 4.12066 508 108.331 861.882 452.299
1023 0 127.003 8.40139 1067 106.252 860.842 460.598
1024 0 130.969 7.66595 1004 107.549 860.495 459.033
1025 0 137.997 9.54369 1317 105.229 861.278 453.285
1026 0 141.131 8.91368 1258 106.808 860.504 447.192
1027 0 143.918 9.964 1434 105.632 860.161 450.978
1028 0 145.03 8.3845 1216 109.235 860.224 446.477
1029 1 156.955 7.91947 1243 110.101 860.862 442.135
1030 1 82.4949 8.32778 687 105.073 861.45 477.932
1031 0 88.5195 8.70995 771 102.649 862.634 478.043
1032 0 93.4548 9.91923 927 101.258 862.504 476.994
1033 0 95.5199 10.5842 1011 101.52 863.375 475.514
1034 1 50.0381 10.0323 502 95.5259 865.5 501.056
1035 0 52.047 9.79883 510 95.3843 864.149 499.804
1036 0 52.0838 10.2719 535 93.385 864.161 502.65
1037 0 54.1115 11.2176 607 91.5914 864.583 499.674
1038 0 52.0947 9.55952 498 96.9137 864.337 501.096
1039 0 54.0949 9.90851 536 97.0522 864.269 500.231
1040 0 57.0693 11.0567 631 93.6941 863.74 500.769
1041 0 56.139 9.42304 529 99.7524 863.856 498.707
1042 0 59.1432 10.6521 630 97.4397 863.605 498.606
1043 0 60.205 10.7798 649 99.1495 863.555 495.918
1044 0 60.244 9.95949 600 101.172 864.07 498.565
1045 0 63.142 10.4526 660 100.62 863.894 496.606
1046 0 62.1527 10.973 682 101.521 863.5 495.641
1047 0 66.2813 10.9081 723 101.284 863.721 493.355
1048 0 67.2703 10.8815 732 102.079 863.794 493.503
1049 0 66.2806 9.5654 634 105.333 863.355 493.653
1050 0 71.1457 11.5116 819 100.481 863.654 492.861
1051 0 71.1192 11.2487 800 102.485 863.232 489.638
1052 0 73.1091 9.30117 680 106.762 863.274 489.981
1053 0 79.19 9.53403 755 104.359 863.46 490.209
1054 0 80.1689 11.85 950 99.719 863.261 488.872
1055 1 43.0543 10.8235 466 105.043 863.44 502.506
1056 0 44.0582 9.35127 412 106.745 863.769 503.515
1057 0 46.3149 11.4866 532 103.872 860.758 500.571
1058 0 48.1361 11.7168 564 101.672 863.665 502.537
1059 0 51.1091 11.4852 587 105 863.516 501.67
1060 0 50.2018 10.3582 520 108.517 864.115 500.283
1061 0 53.1121 11.7111 622 105.428 863.096 498.78
1062 0 54.3516 11.812 642 104.268 862.98 500.836
1063 0 55.2282 12.041 665 104.979 863.379 497.565
1064 0 54.338 11.042 600 108.533 863.668 497.025
1065 0 55.1604 10.7505 593 109.754 863.47 498.293
1066 0 58.1683 11.398 663 108.359 863.407 497.029
1067 0 60.0756 11.1027 667 107.292 863.612 494.042
1068 0 61.1047 11.3576 694 107.842 863.44 496.72
1069 0 62.1507 11.5043 715 107.632 863.109 495.737
1070 0 64.1013 12.0122 770 106.913 863.066 493.839
1071 0 65.1858 11.8431 772 107.855 863.054 493.506
1072 0 68.2034 13.4157 915 105.313 862.466 491.822
1073 0 70.263 12.7663 897 106.621 861.437 491.22
1074 0 71.2828 12.1909 869 107.696 861.83 491.914
1075 0 74.2782 12.1435 902 107.899 861.664 492.13
1076 0 76.2174 13.0679 996 107.32 861.995 488.765
1077 1 118.572 13.4939 1600 103.598 861.239 471.621
1078 1 81.3435 13.1787 1072 107.05 861.22 488.323
1079 0 86.3666 13.929 1203 103.985 861.656 486.121
1080 0 88.5079 12.7898 1132 107.784 861.124 483.814
1081 1 45.1284 11.567 522 106.103 860.91 504.586
1082 0 47.0644 12.451 586 101.048 860.819 504.403
1083 0 49.1331 12.8834 633 101.793 860.79 501.637
1084 0 49.1692 11.6943 575 99.0087 859.993 503.106
1085 0 51.0858 12.019 614 98.855 860.586 501.679
1086 0 50.1274 12.2289 613 101.279 860.308 501.615
1087 0 51.1309 12.1844 623 101.464 860.804 500.213
1088 0 53.1677 12.8838 685 100.188 860.144 499.663
1089 0 55.3004 11.4104 631 103.544 859.805 498.678
1090 0 59.1491 13.5082 799 97.9787 860.556 496.119
1091 0 61.1652 13.6189 833 98.2377 860.813 496.265
1092 0 60.2068 12.1249 730 102.508 860.566 494.647
1093 0 65.1506 13.7527 896 98.8761 860.732 493.065
1094 0 67.2496 13.1897 887 101.187 860.617 492.471
1095 0 70.1945 13.1492 923 100.757 859.587 491.878
1096 0 72.1814 14.2973 1032 98.3023 860.216 490.274
1097 0 75.1944 14.5357 1093 97.8335 859.992 489.424
1098 0 79.1763 14.8024 1172 97.3558 860.907 486.129
1099 0 81.2536 12.541 1019 101.838 860.782 485.994
1100 0 84.2669 13.659 1151 100.698 860.752 484.587
1101 0 87.1434 13.1393 1145 101.401 860.842 483.737
1102 1 44.2204 11.6236 514 101.004 861.146 504.516
1103 0 44.3657 12.3744 549 98.1312 862.619 500.168
1104 0 46.1153 12.4037 572 94.9668 863.339 503.474
1105 0 47.1498 13.1284 619 94.3005 863.438 501.808
1106 0 48.1071 10.9339 526 97.2586 862.892 502.466
1107 0 49.0618 12.3925 608 96.3553 863.255 501.211
1108 0 50.109 11.5149 577 97.8943 863.239 501.092
1109 0 52.1262 12.6232 658 95.9696 863.15 499.468
1110 0 55.0807 12.8176 706 95.8697 863.088 497.653
1111 0 54.0514 11.6001 627 98.4498 863.003 499.15
1112 0 58.1142 12.1485 706 97.6303 863.237 496.724
1113 0 61.1164 13.0243 796 94.9271 863.236 498.234
1114 0 61.1047 11.3903 696 99.4928 863.351 497.098
1115 0 64.1596 12.2039 783 99.3052 863.648 496.253
1116 0 66.0845 10.7892 713 102.971 863.436 496.302
1117 0 67.1153 12.8883 865 99.867 863.363 494.982
1118 0 70.1139 12.9218 906 101.118 863.372 490.955
1119 0 72.0568 12.0599 869 103.146 863.084 491.499
1120 0 73.1058 12.4067 907 104.108 862.368 491.278
1121 0 76.0791 10.9886 836 106.583 862.719 489.525
1122 0 82.0657 12.9165 1060 102.381 862.723 488.215
1123 0 84.1251 12.6003 1060 104.015 862.326 487.383
1124 0 87.1186 12.8675 1121 104.568 862.547 484.829
1125 0 89.0935 13.2557 1181 105.603 863.154 483.914
1126 0 94.0923 12.8916 1213 104.561 863.331 479.869
1127 0 97.2772 12.6648 1232 105.603 863.459 479.319
1128 0 99.1625 12.1619 1206 106.441 863.126 478.897
1129 0 104.143 13.3951 1395 104.836 862.739 474.763
1130 1 53.2581 11.8104 629 106.633 863.987 499.583
1131 0 56.0589 13.1291 736 104.518 860.954 499.23
1132 0 57.0736 12.9132 737 104.935 860.486 499.02
1133 0 59.1371 12.8177 758 104.992 860.862 499.26
1134 0 61.0875 13.1287 802 104.953 860.773 498.491
1135 0 63.3045 14.1538 896 101.854 860.653 495.279
1136 0 66.1559 13.8461 916 100.004 860.021 496.13
1137 0 69.1704 13.9655 966 99.1128 861.292 493.686
1138 0 71.1338 12.5538 893 102.439 860.815 493.37
1139 0 73.2403 13.9814 1024 99.8496 861.361 492.278
1140 0 75.2614 12.5828 947 103.611 861.835 491.353
1141 0 77.1887 12.165 939 104.35 861.849 490.117
1142 1 41.0395 12.0859 496 101.913 860.331 508.159
1143 0 41.0378 10.7218 440 104.082 859.723 507.936
1144 0 42.0335 10.0396 422 105.18 860.116 507.031
1145 0 44.2251 12.4138 549 100.488 863.137 503.552
1146 0 46.0156 12.8217 590 102.364 863.763 504.312
1147 0 46.0254 12.1889 561 106.376 863.337 503.988
1148 0 48.0362 12.095 581 108.552 863.069 501.542
1149 0 49.0566 12.7404 625 108.304 863.088 498.125
1150 0 51.1095 12.2091 624 107.522 862.25 502.8
1151 0 52.0812 12.4037 646 108.777 862.407 499.55
1152 0 54.1003 13.0868 708 106.246 861.758 501.585
1153 0 56.034 10.6007 594 110.207 863.286 499.456
1154 0 58.0776 12.6555 735 106.312 862.676 498.577
1155 0 62.0988 12.6734 787 104.028 863.098 499.268
1156 0 62.0602 13.6642 848 104.027 863.317 496.587
1157 0 62.0402 12.6208 783 106.696 863.068 497.381
1158 0 64.0801 12.063 773 109.27 862.596 495.132
1159 0 66.1751 12.8598 851 108.834 862.784 493.597
1160 0 70.0966 13.2389 928 109.082 862.776 493.014
1161 0 73.2781 12.5686 921 110.6 862.734 493.773
1162 0 74.4918 14.1089 1051 111.265 861.635 490.54
1163 0 76.186 14.6615 1117 111.408 861.868 487.316
1164 0 81.2706 14.6671 1192 110.775 862.278 489.379
1165 0 81.3079 12.7048 1033 117.237 862.265 488.414
1166 0 86.2623 14.2009 1225 113.278 863.084 486.382
1167 1 42.1078 11.3993 480 119.646 863.765 504.583
1168 0 45.0376 10.9464 493 119.882 863.862 505.379
1169 0 48.0819 12.6867 610 115.015 863.469 503.618
1170 0 48.0549 12.5065 601 118.206 863.702 503.268
1171 0 50.0453 12.2489 613 119.126 863.858 501.938
1172 0 50.054 12.4066 621 119.641 863.224 501.746
1173 0 53.1088 12.2202 649 117.866 862.995 503.747
1174 0 54.0709 13.3898 724 117.526 863.097 500.975
1175 0 57.1136 13.727 784 116.306 863.189 500.763
1176 0 58.1542 13.6706 795 116.589 862.428 499.902
1177 0 61.1891 13.2703 812 118.139 863.023 498.11
1178 0 60.1855 12.4116 747 121.649 862.679 497.475
1179 0 63.2031 13.3221 842 119.309 863.166 496.31
1180 0 65.1744 12.6737 826 122.11 863.422 496.208
1181 0 68.1454 13.1043 893 121.807 863.496 493.284
1182 0 71.1798 13.0515 929 121.095 863.461 492.39
1183 0 71.2675 13.1336 936 122.231 863.111 490.894
1184 0 73.1908 13.6902 1002 120.585 862.704 490.873
1185 0 76.2355 13.0517 995 123.168 862.917 488.477
1186 0 81.2238 14.38 1168 118.465 862.857 487.878
1187 1 39.0613 9.70271 379 125.404 864.633 505.844
1188 0 44.0353 12.6262 556 117.076 864.025 504.658
1189 0 42.0175 10.9478 460 121.993 863.952 505.378
1190 0 44.0468 12.3278 543 120.081 863.545 504.149
1191 0 44.026 11.3342 499 115.962 864.018 504.369
1192 0 46.0672 12.5469 578 113.196 863.952 504.484
1193 0 47.02 12.9732 610 111.998 863.808 503.623
1194 0 48.0122 11.8512 569 113.872 864.06 505.128
1195 0 50.0472 12.8479 643 112.456 863.947 503.012
1196 0 50.0828 12.0401 603 115.665 863.24 503.264
1197 0 52.0223 12.2832 639 115.172 863.704 501.499
1198 0 53.1225 12.3676 657 115.084 863.163 502.475
1199 0 55.0347 13.6641 752 112.382 862.761 501.259
1200 0 56.0356 12.153 681 117.684 862.527 500.449
1201 0 58.0912 13.1862 766 115.236 862.704 499.916
1202 0 59.0684 13.442 794 114.974 863.141 498.826
1203 0 60.1256 12.6236 759 118.283 862.618 497.514
1204 0 62.05 12.0387 747 120.361 862.792 496.696
1205 0 63.1394 12.8446 811 119.48 862.223 495.441
1206 0 66.1296 13.655 903 117.996 862.446 496.493
1207 0 68.1655 13.7606 938 119.493 862.756 493.004
1208 0 70.1668 12.5985 884 123.67 862.804 492.354
1209 0 73.2242 13.6703 1001 120.195 862.901 491.657
1210 0 75.2457 13.5955 1023 121.035 861.602 491.206
1211 0 78.1273 13.1964 1031 122.552 861.726 490.497
1212 0 80.0626 13.9641 1118 122.376 862.094 487.963
1213 0 82.1998 13.747 1130 122.845 861.949 488.15
1214 0 84.2612 13.7905 1162 123.939 861.822 484.293
1215 0 89.136 13.9001 1239 123.435 861.75 482.738
1216 1 45.0975 12.5949 568 124.475 862.717 503.194
1217 0 46.1488 13.1748 608 120.602 861.503 503.952
1218 0 47.1082 12.1847 574 111.031 861.704 500.214
1219 0 45.1032 10.7088 483 119.244 861.259 498.729
1220 0 49.1829 11.5487 568 116.183 860.792 498.512
1221 0 50.2658 12.7124 639 114.302 861.562 497.513
1222 0 50.2444 10.847 545 118.761 861.18 496.578
1223 0 53.2914 13.6607 728 112.113 860.412 497.067
1224 0 55.1403 11.643 642 116.592 860.597 496.318
1225 0 55.1189 11.956 659 117.564 860.879 493.382
1226 0 60.3373 14.0378 847 110.786 860.841 494.215
1227 0 60.2223 14.0646 847 114.119 861.05 489.864
1228 0 64.3085 12.8754 828 116.107 861.371 490.634
1229 0 64.3658 11.7298 755 117.524 861.178 486.974
1230 0 68.234 12.633 862 113.823 860.897 488.371
1231 0 70.1908 13.3208 935 112.099 860.587 488.941
1232 0 72.3325 12.8711 931 113.704 860.331 483.764
1233 0 75.1905 13.5788 1021 112.539 860.115 485.176
1234 0 76.2024 13.4773 1027 115.655 860.632 479.546
1235 0 78.2327 13.92 1089 116.25 859.954 479.58
1236 0 84.3299 14.3958 1214 113.964 860.572 480.486
1237 0 85.1927 14.3087 1219 116.631 861.009 485.127
1238 0 88.177 13.609 1200 119.742 860.852 483.015
1239 0 91.2323 14.3041 1305 118.52 860.501 481.064
1240 0 94.4355 14.2108 1342 120.482 859.774 477.676
1241 0 97.3731 14.9631 1457 118.585 859.7 473.973
1242 0 101.521 16.0065 1625 116.491 859.876 470.596
1243 0 104.43 13.6647 1427 122.151 860.025 471.263
1244 0 106.447 13.246 1410 124.73 858.984 470.213
1245 0 108.488 13.5038 1465 125.243 859.267 466.524
1246 0 114.523 13.9884 1602 124.248 859.611 464.537
1247 0 118.444 13.3987 1587 125.522 859.134 464.737
1248 0 122.479 14.0841 1725 124.332 859.56 461.956
1249 0 127.507 15.1757 1935 122.199 860.124 459.623
1250 0 131.503 13.7411 1807 125.895 859.823 459.682
1251 0 136.636 14.7106 2010 124.466 859.069 456.843
1252 0 141.435 14.5225 2054 126.604 859.474 453.218
1253 0 147.422 14.4687 2133 127.592 859.528 449.276
1254 1 76.2414 14.4279 1100 123.135 860.076 485.093
1255 0 78.3266 13.2139 1035 126.105 860.671 486.232
1256 0 80.1951 14.6767 1177 124.253 860.602 482.666
1257 0 84.2628 14.2174 1198 124.317 860.314 483.579
1258 0 86.3903 13.0917 1131 126.218 859.885 481.921
1259 0 88.2375 14.427 1273 124.675 861.022 480.025
1260 0 92.3117 13.8661 1280 124.924 860.12 477.619
1261 0 94.1587 14.2844 1345 121.625 860.376 477.402
1262 0 97.3425 13.6015 1324 122.995 860.835 474.957
1263 0 99.3291 13.5811 1349 124.681 860.24 473.402
1264 1 54.2884 11.2363 610 125.679 860.17 496.259
1265 0 53.2042 10.8638 578 119.953 860.621 493.593
1266 0 57.1456 11.4095 652 115.054 860.982 494.423
1267 0 60.1616 13.4471 809 105.888 859.216 491.073
1268 0 62.0659 11.6006 720 107.528 860.282 490.319
1269 0 62.0731 11.5992 720 109.354 860.539 488.586
1270 0 65.1871 11.7508 766 107.872 859.616 488.644
1271 0 67.2273 11.1116 747 108.861 859.934 487.325
1272 0 69.0857 12.5207 865 107.052 860.185 486.936
1273 0 73.1229 12.6363 924 106.929 860.943 485.33
1274 0 75.2087 11.3152 851 109.824 860.435 482.212
1275 0 79.2214 13.8725 1099 104.575 860.652 482.722
1276 0 82.2703 12.6048 1037 108.315 860.178 480.94
1277 0 84.2086 13.4903 1136 107.386 860.402 478.462
1278 0 87.1348 14.2997 1246 106.335 860.592 476.902
1279 0 91.0944 12.5474 1143 109.791 860.455 477.148
1280 0 94.2203 12.9378 1219 110.899 860.326 473.122
1281 0 96.245 12.4162 1195 111.905 860.124 473.814
1282 0 99.2478 11.2345 1115 115.442 860.468 471.396
1283 1 50.1674 11.4616 575 110.416 859.501 496.005
1284 0 55.1934 13.5342 747 113.478 859.245 498.746
1285 0 56.2824 12.6683 713 120.923 859.843 497.906
1286 0 59.2114 12.9367 766 119.371 860.03 496.768
1287 0 61.3059 12.1685 746 122.05 860.056 496.777
1288 0 62.2198 13.1148 816 119.205 860.442 497.309
1289 0 64.4122 14.1899 914 118.043 860.148 494.699
1290 0 66.3126 13.738 911 119.256 859.876 494.619
1291 0 68.4869 13.8275 947 119.749 860.27 492.226
1292 0 71.4655 14.1887 1014 118.448 859.895 491.576
1293 0 72.3961 13.5366 980 120.378 860.13 490.424
1294 0 76.4118 14.592 1115 117.778 860.303 488.725
1295 0 78.5432 14.3997 1131 119.15 860.421 485.595
1296 0 80.6374 14.6954 1185 118.686 860.252 484.605
1297 0 83.5792 13.7474 1149 121.066 860.602 483.379
1298 0 85.2167 12.4154 1058 116.453 860.63 483.897
1299 0 90.1702 13.0864 1180 114.057 861.091 481.878
1300 1 47.147 11.1778 527 108.873 861.459 504.833
1301 0 47.0508 12.3908 583 108.991 862.149 504.864
1302 0 49.1091 11.1792 549 114.53 861.796 503.131
1303 0 50.0926 12.3372 618 112.128 861.786 502.623
1304 0 52.2141 12.1615 635 113.587 861.995 502.483
1305 0 51.186 11.8782 608 116.074 862.291 501.242
1306 0 54.2144 11.6021 629 112.463 861.456 501.986
1307 0 55.0957 10.0008 551 116.379 861.372 500.281
1308 0 60.0438 12.724 764 110.706 861.449 499.602
1309 0 60.2028 13.5874 818 109.773 861.413 497.927
1310 0 62.1166 12.4604 774 113.698 861.99 495.854
1311 0 64.127 11.8515 760 116.217 861.799 494.726
1312 0 67.2164 13.9252 936 111.747 861.814 493.042
1313 0 69.2563 12.8797 892 114.881 861.52 493.055
1314 0 72.2008 13.1578 950 113.771 861.647 492.669
1315 0 75.1254 13.2445 995 115.271 861.799 491.655
1316 0 76.2038 13.5295 1031 117.332 862.084 489.519
1317 0 79.1071 12.7296 1007 119.848 862.324 488.291
1318 0 82.1846 13.7982 1134 118.326 862.07 486.481
1319 0 84.1252 13.7058 1153 120.567 861.665 484.644
1320 0 87.1822 13.3628 1165 121.404 861.922 483.446
1321 0 91.1175 14.0917 1284 119.738 861.206 483.216
1322 1 44.0889 12.4748 550 123.258 861.785 505.358
1323 0 46.0695 12.0253 554 122.756 862.016 505.486
1324 0 47.1632 13.6123 642 122.899 859.656 498.945
1325 0 48.0707 12.44 598 125.037 859.361 498.935
1326 0 51.0852 14.4465 738 121.562 859.108 499.321
1327 0 53.0773 13.8477 735 122.823 858.805 498.072
1328 0 54.0673 13.1503 711 124.321 858.958 498.844
1329 0 55.0464 14.3334 789 118.987 861.668 499.688
1330 0 56.092 13.7453 771 121.656 861.988 498.24
1331 0 59.1066 14.7192 870 117.886 861.945 498.597
1332 0 60.1586 14.4784 871 119.145 862.039 496.498
1333 0 63.1495 13.7768 870 120.995 861.697 496.659
1334 0 62.1481 13.4678 837 123.968 861.791 495.399
1335 0 66.1252 13.7013 906 121.837 861.348 494.499
1336 0 70.2286 14.3389 1007 119.501 861.646 494.321
1337 0 70.1852 13.4929 947 122.064 861.585 492.024
1338 0 75.1937 14.3895 1082 119.14 861.274 492.31
1339 0 75.1645 14.302 1075 121.559 860.745 489.467
1340 0 79.1884 14.5728 1154 119.287 861.387 488.306
1341 0 79.2324 14.1735 1123 121.222 861.469 486.949
1342 0 82.2204 13.9746 1149 121.648 861.053 486.108
1343 0 85.1446 14.0232 1194 121.446 861.15 484.908
1344 0 86.3271 12.8349 1108 125.852 861.19 483.961
1345 0 91.2231 14.4042 1314 122.384 861.29 482.6
1346 0 93.3136 13.6207 1271 124.725 860.483 480.537
1347 0 95.531 13.2313 1264 127.306 860.832 475.454
1348 0 103.401 15.1062 1562 122.786 860.146 473.357
1349 0 106.42 13.9354 1483 126.237 860.417 472.357
1350 1 54.1359 12.4871 676 125.944 861.028 498.166
1351 0 58.0707 12.6914 737 123.567 862.068 497.955
1352 0 60.1252 13.8045 830 113.737 861.8 497.883
1353 0 63.192 13.2612 838 115.086 861.832 497.313
1354 0 63.1079 14.0077 884 115.472 861.726 494.758
1355 0 65.2217 13.2471 864 117.26 862.081 493.478
1356 0 68.1328 14.0168 955 116.312 861.772 492.459
1357 0 70.1608 15.1794 1065 112.811 861.794 490.77
1358 0 73.1164 13.8683 1014 115.669 861.725 491.216
1359 0 76.2155 14.7214 1122 114.093 861.607 489.055
1360 0 79.1957 14.4705 1146 114.754 861.385 488.62
1361 0 81.2886 15.365 1249 112.697 861.62 487.87
1362 0 83.2912 13.9871 1165 116.327 861.131 485.405
1363 0 86.2471 13.8323 1193 115.895 860.808 486.485
1364 0 86.1202 12.9818 1118 111.766 860.325 480.677
1365 0 90.1933 13.4267 1211 111.105 860.202 477.334
1366 0 93.1995 13.2619 1236 109.655 861.062 477.328
1367 0 95.2318 12.0968 1152 114.227 861.014 475.226
1368 0 100.246 12.4195 1245 115.827 860.981 472.945
1369 0 105.162 12.6662 1332 113.03 860.792 475.372
1370 0 109.363 12.1613 1330 114.45 860.58 473.187
1371 0 112.226 13.1787 1479 114.016 860.582 469.5
1372 1 59.28 11.7915 699 108.551 861.19 498.14
1373 0 61.1908 11.0474 676 111.88 861.697 497.13
1374 0 62.162 11.9366 742 109.728 862.074 496.721
1375 0 65.1439 11.5897 755 111.2 861.653 493.401
1376 0 67.0922 11.6109 779 110.19 861.557 494.021
1377 0 70.1572 11.2034 786 111.302 862.023 490.188
1378 0 73.1966 13.4296 983 109.096 861.521 491.012
1379 0 74.0857 12.1481 900 109.678 861.471 489.319
1380 0 79.253 13.5642 1075 105.466 861.167 486.327
1381 0 79.1471 12.521 991 108.483 861.106 485.681
1382 0 83.1069 13.7173 1140 117.798 861.631 487.97
1383 0 85.1274 13.4034 1141 119.744 860.965 485.94
1384 0 90.1794 13.5397 1221 118.811 861.102 486.998
1385 0 92.213 12.8941 1189 121.244 861.004 485.111
1386 0 96.2643 14.3251 1379 117.539 861.964 483.852
1387 0 100.213 14.0301 1406 117.754 861.592 483.582
1388 0 102.293 13.823 1414 118.112 862.03 481.64
1389 1 53.1208 12.0668 641 122.304 862.286 502.204
1390 0 56.0581 12.5049 701 122.94 861.84 499.693
1391 0 58.2158 12.8488 748 116.259 862.404 499.897
1392 0 63.0998 15.1031 953 111.209 861.672 497.75
1393 0 63.2126 13.3834 846 116.942 861.909 498.454
1394 0 66.1265 14.0337 928 114.972 861.613 496.742
1395 0 69.0836 13.8528 957 116.525 861.844 494.278
1396 0 71.0791 13.2106 939 118.374 861.594 491.77
1397 0 74.2403 14.6012 1084 114.483 861.507 491.143
1398 0 78.162 14.0478 1098 115.331 860.846 490.161
1399 0 80.1026 13.8947 1113 115.898 861.561 489.35
1400 0 82.285 14.2675 1174 115.739 861.549 486.042
1401 0 84.1514 12.8934 1085 120.328 862.145 486.054
1402 0 85.1276 11.3829 969 125.999 861.56 484.927
1403 0 89.0944 12.5148 1115 123.381 861.497 483.77
1404 0 93.2127 13.0454 1216 122.775 861.364 482.127
1405 0 95.1878 12.6907 1208 125.044 861.296 480.467
1406 0 98.2772 13.4518 1322 123.511 861.15 478.927
1407 1 49.0483 11.927 585 123.491 860.783 498.699
1408 0 54.1894 12.8992 699 118.654 861.01 496.78
1409 0 52.1024 12.533 653 123.761 861.914 498.825
1410 0 55.1044 12.2676 676 124.417 861.364 498.052
1411 0 57.1813 13.4485 769 121.059 861.363 496.692
1412 0 58.1596 12.7064 739 123.696 861.923 495.893
1413 0 60.2569 13.2101 796 122.731 861.678 495.053
1414 0 62.1027 14.1862 881 121.082 861.064 493.368
1415 0 64.1764 12.0138 771 126.589 861.734 493.375
1416 0 67.1957 13.2895 893 122.701 861.49 491.46
1417 0 68.16 14.2165 969 121.418 861.167 489.743
1418 0 71.1944 13.1611 937 123.952 861.374 487.693
1419 0 74.2151 13.8247 1026 122.438 861.331 486.318
1420 0 77.2047 12.6676 978 125.811 861.39 486.132
1421 0 78.2039 13.273 1038 124.683 861.104 484.409
1422 0 80.1135 12.6321 1012 127.243 861.676 482.832
1423 0 83.0934 12.504 1039 127.342 861.858 480.491
1424 0 83.0867 11.2292 933 123.047 862.154 483.103
1425 0 88.2444 11.8761 1048 120.879 861.801 481.53
1426 1 45.0859 11.844 534 121.14 862.914 502.68
1427 0 46.0248 12.6236 581 120.389 862.978 501.215
1428 0 49.0677 13.1247 644 117.064 863.792 501.871
1429 0 50.0215 12.6546 633 119.861 862.921 498.984
1430 0 52.1451 13.7693 718 114.003 863.054 497.052
1431 0 52.0409 12.4517 648 121.98 862.954 497.066
1432 0 55.0441 14.4611 796 112.722 862.888 496.957
1433 0 55.0994 15.1363 834 112.896 862.288 495.547
1434 0 57.0794 14.6988 839 113.728 861.777 495.176
1435 0 57.0959 13.7138 783 117.602 862.862 493.245
1436 0 60.0826 13.3816 804 117.893 862.332 492.478
1437 0 62.0301 14.0093 869 117.046 862.165 491.01
1438 0 65.0403 14.4833 942 114.79 861.889 490.303
1439 0 68.1638 13.3649 911 116.66 861.8 490.832
1440 0 69.0411 13.6875 945 117.298 861.982 487.099
1441 0 70.13 14.2307 998 116.477 861.807 486.339
1442 0 73.1695 14.4596 1058 116.132 862.02 485.301
1443 0 76.2158 14.2228 1084 116.239 862.114 483.413
1444 0 77.2316 13.0646 1009 120.291 861.93 480.662
1445 0 82.5293 14.3707 1186 116.586 861.916 478.417
1446 0 86.3651 14.5777 1259 115.589 861.956 478.257
1447 0 87.3607 14.091 1231 117.839 861.712 475.207
1448 0 89.3423 12.7151 1136 121.983 860.772 475.828
1449 1 47.2562 12.5063 591 123.486 861.161 499.435
1450 0 45.0936 13.0174 587 123.639 862.261 499.167
1451 0 46.1574 13.2157 610 123.316 862.621 498.934
1452 0 48.0313 13.5537 651 122.367 861.833 497.594
1453 0 49.1873 12.8488 632 123.416 862.672 498.538
1454 0 50.3944 12.8189 646 123.485 862.279 496.195
1455 0 52.3828 13.2677 695 121.058 861.528 494.186
1456 0 55.3357 14.0597 778 118.123 861.967 493.343
1457 0 56.4547 12.665 715 122.709 861.478 492.22
1458 0 58.3402 12.5814 734 122.38 861.836 490.715
1459 0 61.273 13.8887 851 118.09 861.638 490.298
1460 0 62.3622 13.4056 836 119.251 861.342 489.627
1461 0 65.298 13.5839 887 118.742 861.118 488.614
1462 0 67.2544 14.5121 976 116.126 861.164 487.1
1463 0 69.5463 14.9972 1043 114.802 861.437 483.514
1464 0 72.5561 13.9754 1014 116.846 861.14 483.991
1465 0 74.5737 14.7371 1099 114.95 861.048 482.909
1466 0 78.4558 14.7981 1161 114.987 861.083 479.361
1467 0 77.4317 13.5216 1047 119.894 860.989 478.934
1468 0 81.4577 12.8779 1049 121.577 861.807 479.061
1469 0 84.5594 13.3989 1133 119.883 861.26 477.506
1470 0 87.4158 13.7161 1199 118.123 861.634 479.5
1471 0 90.389 13.9619 1262 119.533 861.59 474.372
1472 0 92.5843 13.674 1266 120.653 861.622 474.483
1473 0 95.3964 12.9145 1232 123.091 861.376 472.562
1474 0 99.3828 14.0869 1400 118.694 860.786 473.446
1475 0 104.354 14.1729 1479 117.041 860.573 469.099
1476 1 55.412 12.9755 719 121.395 860.837 491.915
1477 0 56.183 13.8476 778 120.463 860.916 490.577
1478 0 57.6933 14.1957 819 118.996 860.933 490.27
1479 0 62.2283 15.2664 950 115.031 860.704 488.875
1480 0 61.5733 14.0808 867 120.303 861.227 488.274
1481 0 65.2411 15.5117 1012 117.369 861.028 486.571
1482 0 67.2627 13.2912 894 124.189 861.584 486.176
1483 0 72.3083 14.618 1057 119.78 861.552 485.236
1484 0 72.3883 15.1129 1094 118.969 861.546 484.785
1485 0 76.3369 16.0735 1227 117.189 861.683 480.516
1486 0 78.2476 16.55 1295 116.022 861.477 479.653
1487 0 80.53 14.8392 1195 120.282 861.423 479.46
1488 0 83.3385 15.2751 1273 120.247 860.709 478.383
1489 0 83.4359 15.2932 1276 120.859 860.817 476.46
1490 0 89.381 14.4885 1295 121.116 860.66 475.425
1491 0 89.3614 16.3605 1462 117.758 860.679 475.762
1492 0 91.3629 14.1414 1292 124.392 860.57 472.574
1493 0 95.3669 14.8165 1413 125.707 860.137 471.081
1494 0 97.3009 13.299 1294 128.934 860.401 470.83
1495 0 100.295 13.59 1363 129.247 860.337 469.322
1496 0 104.381 13.0388 1361 130.23 860.308 467.103
1497 0 111.386 14.3465 1598 126.567 860.502 464.243
1498 0 116.526 14.3402 1671 127.783 860.662 461.524
1499 0 120.507 14.5883 1758 129.169 860.264 461.762
1500 0 127.472 15.2348 1942 128.979 860.188 457.404
1501 1 64.3282 12.9181 831 135.028 859.679 486.641
1502 0 66.3397 13.3254 884 133.962 860.274 486.286
1503 0 71.2159 14.449 1029 130.935 859.399 483.752
1504 0 67.2345 14.6502 985 107.13 860.104 479.977
1505 0 69.1374 13.9288 963 122.107 860.417 482.005
1506 0 68.2058 14.1484 965 130.564 860.121 482.582
1507 0 68.2382 14.1563 966 137.001 860.647 479.192
1508 0 69.1094 14.7737 1021 137.827 860.835 478.687
1509 0 70.0874 13.7542 964 142.104 860.018 479.915
1510 0 73.1366 14.7942 1082 140.687 860.377 478.43
1511 0 74.2317 13.377 993 142.971 860.697 480.48
1512 0 79.2219 14.3521 1137 137.492 860.246 477.154
1513 0 81.3416 13.892 1130 138.848 859.72 475.201
1514 0 85.1956 14.0266 1195 135.049 859.68 475.552
1515 0 86.2873 13.71 1183 136.986 860.003 472.527
1516 0 90.3305 14.0927 1273 133.307 859.338 472.344
1517 0 94.3983 14.2693 1347 133.214 860.203 466.83
1518 0 97.681 14.7623 1442 130.453 859.711 468.144
1519 0 100.322 14.2541 1430 132.506 859.509 463.386
1520 0 106.507 14.0554 1497 132.554 859.711 461.207
1521 0 111.5 16.2959 1817 126.871 860.092 459.606
1522 0 115.483 14.0281 1620 135.318 859.166 457.865
1523 1 57.0591 11.8999 679 130.972 859.661 484.558
1524 0 61.1107 13.0746 799 126.388 859.877 484.6
1525 0 61.0615 12.2663 749 127.75 859.585 483.485
1526 0 63.0991 12.7419 804 128.466 859.71 482.388
1527 0 63.0827 12.222 771 133.175 859.86 479.642
1528 0 64.1578 12.6251 810 133.378 859.92 479.006
1529 0 68.2097 13.18 899 130.869 860.319 479.267
1530 0 67.1434 12.4361 835 136.783 859.575 476.672
1531 0 71.1967 13.0343 928 134.154 859.972 477.755
1532 0 73.157 13.7649 1007 133.998 860.107 474.93
1533 0 75.156 13.2923 999 136.306 859.98 474.343
1534 0 79.2161 13.1539 1042 142.095 859.951 474.639
1535 0 81.1641 12.9244 1049 139.124 859.067 471.378
1536 0 80.073 14.4868 1160 136.047 859.561 469.693
1537 0 82.1334 13.125 1078 139.861 859.528 468.801
1538 0 88.0988 13.2124 1164 138.071 859.083 466.902
1539 0 91.0561 13.9804 1273 135.482 859.619 465.628
1540 0 93.1046 13.5224 1259 137.54 859.222 464.88
1541 0 94.112 13.2077 1243 139.154 859.303 461.416
1542 0 99.0968 12.5937 1248 139.78 858.84 459.864
1543 1 49.0923 7.17017 352 122.301 858.716 485.358
1544 1 61.0808 11.0509 675 125.246 859.258 491.124
1545 0 64.1087 10.451 670 120.991 860.964 492.836
1546 0 66.1751 10.2456 678 122.693 857.332 493.24
1547 0 68.0743 11.4434 779 119.715 857.703 490.656
1548 0 72.1426 11.5743 835 118.119 857.029 489.893
1549 0 72.16 12.403 895 116.459 857.569 487.964
1550 0 74.2411 11.8398 879 116.428 857.255 487.363
1551 0 76.1267 12.269 934 114.529 857.216 486.934
1552 0 77.1789 10.3007 795 118.608 856.595 484.064
1553 0 81.164 10.8546 881 116.15 858.016 483.646
1554 0 82.0967 10.6703 876 116.572 857.653 481.42
1555 0 86.1489 12.5364 1080 114.446 857.803 479.993
1556 0 86.112 11.5663 996 115.582 857.736 479.431
1557 0 89.236 11.0157 983 120.748 858.122 476.03
1558 0 92.2558 11.7391 1083 119.084 858.65 475.736
1559 0 93.1668 11.9785 1116 117.613 858.878 477.309
1560 0 97.345 12.43 1210 118.327 858.612 472.369
1561 0 98.1567 11.5733 1136 121.883 859.21 471.486
1562 0 103.211 11.4426 1181 121.428 858.784 471.335
1563 0 108.224 12.0861 1308 118.157 859.161 470.564
1564 0 111.249 11.2361 1250 120.622 859.528 465.926
1565 0 113.14 11.0483 1250 121.218 859.196 461.696
1566 1 58.0203 8.61767 500 114.77 860.948 490.778
1567 0 62.0304 10.0918 626 108.569 860.067 491.818
1568 0 63.1377 8.56857 541 103.976 860.449 492.41
1569 0 66.2462 10.5214 697 101.966 860.64 488.532
1570 0 66.2082 10.4066 689 100.817 860.424 488.676
1571 0 66.0593 8.91623 589 104.89 857.959 490.441
1572 0 68.0725 9.10794 620 104.727 857.573 488.119
1573 0 70.0864 8.46098 593 106.926 859.196 484.277
1574 0 74.0931 10.2304 758 102.751 858.798 484.673
1575 0 78.1986 9.70605 759 103.52 859.046 485.559
1576 0 78.2034 11.5852 906 101.82 859.728 483.417
1577 0 79.2455 10.3097 817 104.455 859.151 482.002
1578 0 80.156 8.93258 716 107.332 858.682 478.817
1579 0 86.1785 8.91174 768 107.049 858.947 475.943
1580 0 90.2466 9.67349 873 105.459 858.391 477.502
1581 0 94.2627 9.26135 873 106.632 858.766 472.092
1582 0 93.3216 9.34403 872 106.703 858.796 475.126
1583 0 99.3288 9.79575 973 105.695 858.87 473.521
1584 0 102.155 9.13321 933 108.163 857.219 469.774
1585 0 105.184 9.4501 994 108.916 857.748 469.788
1586 1 56.1167 9.69409 544 103.368 859.129 494.774
1587 0 61.2331 10.8928 667 101.402 857.633 491.708
1588 0 62.3321 10.8933 679 102.766 857.804 489.186
1589 0 65.0686 10.8501 706 102.823 858.448 491.331
1590 0 67.033 10.3829 696 103.414 859.037 488.145
1591 0 70.173 10.7734 756 103.771 856.401 487.534
1592 0 72.2583 12.0817 873 101.512 856.446 488.197
1593 0 74.1756 12.403 920 101.905 856.633 484.498
1594 0 75.2822 12.0347 906 104.129 857.074 483.819
1595 0 78.176 11.8962 930 105.272 857.157 483.276
1596 0 81.269 12.0095 976 105.327 857.411 485.381
1597 0 84.2357 13.391 1128 102.626 856.653 483.578
1598 0 85.1097 13.2065 1124 104.315 856.833 485.486
1599 0 85.1124 12.7479 1085 107.963 857.396 482.441
1600 0 89.1849 12.6815 1131 107.97 858.141 478.948
1601 0 91.1796 12.2067 1113 109.102 857.539 479.994
1602 0 92.1918 12.3547 1139 112.416 858.536 481.375
1603 0 96.1405 13.3867 1287 109.07 858.116 479.26
1604 0 97.1287 11.737 1140 111.89 857.493 479.622
1605 0 100.176 13.1269 1315 109.446 857.356 479.144
1606 0 103.275 11.8228 1221 113.939 857.891 476.769
1607 1 56.0885 10.6974 600 111.045 857.84 499.878
1608 0 57.0656 12.179 695 107.872 857.177 499.424
1609 0 59.3848 11.8044 701 109.402 860.827 496.857
1610 0 60.0746 12.8174 770 105.578 861.083 496.47
1611 0 61.2086 12.5473 768 106.833 860.655 495.632
1612 0 61.098 12.4718 762 109.975 861.362 492.395
1613 0 64.1913 13.008 835 107.416 860.659 491.243
1614 0 63.1235 11.3904 719 111.305 860.325 493.302
1615 0 66.142 12.1859 806 110.109 860.604 492.304
1616 0 70.1818 13.1801 925 107.516 859.905 491.262
1617 0 69.105 11.5621 799 112.922 860.827 488.19
1618 0 72.1845 12.3018 888 109.288 860.921 488.949
1619 0 75.117 14.2045 1067 105.739 859.88 488.199
1620 0 75.1291 12.6715 952 110.217 860.096 487.816
1621 0 79.2047 11.9564 947 110.348 860.51 485.22
1622 0 81.1886 13.0437 1059 109.134 860.054 481.839
1623 0 84.2691 12.555 1058 110.404 860.334 482.826
1624 0 85.233 12.8002 1091 110.336 859.73 483.376
1625 0 88.2056 13.9107 1227 108.324 858.927 481.596
1626 0 89.2678 12.3897 1106 113.373 858.896 477.599
1627 0 92.3452 12.594 1163 112.14 859.816 478.366
1628 0 94.2001 13.2378 1247 111.231 859.692 478.562
1629 0 98.2571 13.4341 1320 110.974 859.574 475.158
1630 0 101.196 13.3404 1350 111.196 859.587 474.539
1631 0 101.369 12.2918 1246 115.266 859.108 470.968
1632 0 107.192 14.1615 1518 111.393 859.414 469.124
1633 0 111.137 13.5418 1505 112.373 859.171 470.019
1634 0 112.166 13.3463 1497 114.287 858.83 464.834
1635 0 116.158 13.0771 1519 115.868 859.815 465.781
1636 0 119.201 13.9008 1657 114.507 860.1 464.503
1637 0 125.35 14.3917 1804 114.109 859.546 462.137
1638 0 128.323 14.3699 1844 118.197 859.85 458.937
1639 0 131.231 13.8916 1823 118.548 859.092 455.791
1640 0 132.281 14.0308 1856 116.185 858.785 449.584
1641 1 65.1542 10.007 652 115.502 859.278 481.673
1642 0 68.1236 10.3195 703 116.048 859.892 479.353
1643 0 73.2458 10.8129 792 107.518 858.681 479.322
1644 0 73.1971 11.7764 862 106.986 858.769 480.153
1645 0 75.2963 10.7708 811 110.871 858.607 478.528
1646 0 79.2013 11.5023 911 113.656 858.154 480.64
1647 0 77.1333 11.0717 854 99.1089 858.992 473.878
1648 0 83.1307 11.8488 985 108.46 857.871 477.298
1649 0 87.2213 13.2078 1152 105.463 857.856 475.358
1650 0 89.0966 12.8624 1146 106.378 857.771 473.216
1651 0 93.0728 12.4849 1162 108.344 857.839 471.889
1652 0 93.1521 12.3561 1151 109.921 857.447 472.949
1653 0 93.1004 12.1911 1135 112.05 857.31 469.616
1654 0 96.0684 11.523 1107 112.818 858.051 470.627
1655 0 98.208 11.8015 1159 113.47 857.635 467.827
1656 0 100.094 12.6781 1269 111.986 858.359 470.532
1657 0 100.227 11.4639 1149 115.842 857.634 464.248
1658 0 107.113 12.7529 1366 112.003 857.886 465.253
1659 0 110.217 13.165 1451 111.387 857.688 464.509
1660 0 113.176 12.6705 1434 113.49 857.766 461.464
1661 0 117.092 12.4261 1455 115.332 857.836 457.087
1662 0 121.202 13.787 1671 112.414 857.674 457.348
1663 0 127.175 13.6977 1742 112.87 857.512 456.131
1664 0 127.097 11.2827 1434 119.929 856.641 451.167
1665 0 133.38 11.8683 1583 119.301 857.225 450.452
1666 1 62.3326 9.25679 577 112.912 858.471 486.886
1667 0 62.3848 11.2046 699 107.366 858.785 486.116
1668 0 63.2817 10.6982 677 108.275 858.109 482.86
1669 0 68.3785 12.0506 824 105.67 858.536 483.558
1670 0 68.2807 10.5301 719 109.78 858.798 483.783
1671 0 71.1452 12.1582 865 106.957 858.146 482.357
1672 0 74.2441 12.405 921 105.733 858.615 481.625
1673 0 83.1763 13.8862 1155 98.3896 858.304 477.154
1674 0 76.0745 12.2249 930 109.832 859.406 479.847
1675 0 80.0993 11.5607 926 112.117 859.755 477.673
1676 0 80.0852 12.3119 986 110.704 858.746 477.759
1677 0 82.2184 12.187 1002 112.134 859.283 475.962
1678 0 84.2105 12.8963 1086 111.692 859.047 475.017
1679 0 86.161 11.7803 1015 115.196 858.716 473.054
1680 0 96.1209 13.3894 1287 119.323 859.932 477.294
1681 0 100.313 14.3651 1441 116.075 858.931 474.852
1682 0 104.428 12.5445 1310 120.686 858.181 469.492
1683 0 110.843 13.695 1518 122.876 857.574 465.986
1684 1 44.267 11.0014 487 106.669 856.409 499.109
1685 0 48.05 11.5088 553 109.535 856.052 501.647
1686 0 47.0403 10.5654 497 112.539 856.38 501.35
1687 0 48.0625 11.8387 569 109.938 856.464 498.169
1688 0 51.0367 13.1866 673 105.941 856.77 497.933
1689 0 53.0887 11.6597 619 108.934 856.997 498.832
1690 0 55.046 11.445 630 109.405 856.1 498.408
1691 0 55.026 12.5032 688 107.855 856.533 495.695
1692 0 54.0478 9.80614 530 114.379 856.538 496.049
1693 0 57.0775 12.3166 703 108.606 856.248 496.575
1694 0 61.0668 12.822 783 107.803 856.332 494.094
1695 0 60.0655 12.4198 746 109.685 856.101 493.922
1696 0 70.0346 16.8916 1183 93.6019 856.342 489.687
1697 0 67.0832 13.446 902 105.011 856.057 491.499
1698 0 68.0514 12.4465 847 107.926 856.169 491.511
1699 0 71.111 12.825 912 108.046 856.087 487.452
1700 0 70.1172 11.0529 775 113.054 856.406 488.308
1701 0 74.0345 11.7783 872 110.502 856.42 488.14
1702 0 77.0489 13.7835 1062 107.163 856.532 484.73
1703 0 81.1277 14.2368 1155 104.403 856.57 486.328
1704 0 82.0549 12.8816 1057 108.321 855.24 484.747
1705 0 82.0593 12.9541 1063 106.793 855.622 480.349
1706 0 85.0993 12.456 1060 106.466 855.814 479.906
1707 0 90.131 12.9256 1165 103.239 855.983 478.732
1708 0 93.0416 13.4026 1247 102.49 855.905 474.567
1709 0 96.0957 10.6248 1021 106.494 855.266 479.068
1710 0 100.116 13.5443 1356 100.718 855.466 473.877
1711 0 102.117 13.3768 1366 101.493 855.5 469.986
1712 1 53.0572 11.3651 603 101.753 854.841 496.609
1713 0 54.0917 10.2419 554 101.303 855.948 499.437
1714 0 56.1161 11.6901 656 98.4604 856.514 498.582
1715 0 57.0914 10.5095 600 102.847 860.658 495.105
1716 0 59.1546 12.1884 721 99.8558 860.368 493.189
1717 0 61.1088 11.8314 723 100.797 860.733 493.213
1718 0 64.1605 11.3465 728 102.011 860.354 490.945
1719 0 64.1162 12.1342 778 101.161 859.855 491.364
1720 0 67.1121 12.1588 816 100.941 860.175 488.414
1721 0 66.043 11.7802 778 102.919 859.857 487.402
1722 0 70.082 11.8005 827 103.07 860.422 485.422
1723 0 73.046 12.5127 914 100.322 860.445 486.253
1724 0 74.0999 11.9568 886 102.928 860.269 484.649
1725 0 78.1439 12.221 955 100.916 860.363 483.741
1726 0 79.1431 10.8159 856 104.201 859.878 481.882
1727 0 80.2265 10.3831 833 106.083 859.818 480.222
1728 0 83.1155 10.9847 913 105.537 859.954 479.403
1729 0 86.1512 11.5263 993 104.931 860.345 476.228
1730 0 89.0983 13.6142 1213 101.255 859.965 475.111
1731 0 92.1532 11.4049 1051 105.474 860.27 473.631
1732 0 96.2608 12.4246 1196 103.783 859.946 472.332
1733 0 95.2431 11.2344 1070 107.723 859.369 471.13
1734 0 101.307 10.8975 1104 107.578 859.36 472.688
1735 0 104.364 12.9739 1354 103.895 859.248 469.229
1736 0 108.337 13.0888 1418 104.314 858.843 467.54
1737 0 112.554 11.8433 1333 107.109 858.26 464.084
1738 1 62.196 11.1904 696 101.73 859.512 493.03
1739 0 63.0824 10.9064 688 97.3416 860.046 491.525
1740 0 64.1727 12.1859 782 95.2161 859.581 490.063
1741 0 67.1879 11.386 765 95.902 859.293 490.45
1742 0 68.1668 11.9706 816 95.3934 859.973 490.249
1743 0 72.0949 12.5113 902 93.8847 860.098 488.649
1744 0 74.2276 12.6503 939 93.6762 859.652 484.372
1745 0 76.1032 12.01 914 95.5711 859.237 483.35
1746 0 79.1683 10.5345 834 98.2662 858.818 484.028
1747 0 82.1858 13.1896 1084 93.5544 858.823 482.816
1748 0 83.1189 12.5844 1046 95.4952 858.922 482.393
1749 0 87.3098 12.8508 1122 94.9465 858.484 481.417
1750 0 90.2462 13.031 1176 95.6964 859.211 478.851
1751 0 92.2703 13.157 1214 96.1474 858.487 475.529
1752 0 95.5376 12.1104 1157 97.7252 858.157 474.192
1753 0 98.4648 11.3949 1122 99.7282 857.741 472.045
1754 0 101.475 12.7027 1289 98.0473 858.185 469.124
1755 1 55.3548 12.6457 700 98.75 859.499 495.243
1756 0 55.209 11.8097 652 103.745 856.713 497.169
1757 0 55.1367 12.1516 670 103.782 856.454 497.524
1758 0 58.1446 12.3657 719 103.712 856.905 496.474
1759 0 58.2002 13.2302 770 104.114 856.79 493.951
1760 0 61.1786 13.1255 803 104.37 856.268 494.65
1761 0 61.2182 12.7086 778 106.625 856.175 492.145
1762 0 65.1708 13.0273 849 104.673 856.347 492.813
1763 0 67.1735 13.3684 898 105.071 856.706 489.206
1764 0 71.1968 13.5821 967 104.453 856.36 488.927
1765 0 72.0745 14.4711 1043 102.952 856.694 487.36
1766 0 74.1723 13.6844 1015 104.869 856.564 486.846
1767 0 77.191 13.4342 1037 105.785 856.281 485.919
1768 0 79.1909 12.5772 996 107.277 856.35 487.698
1769 0 81.1178 13.0921 1062 109.026 856.303 482.342
1770 0 85.2175 13.2954 1133 107.825 856.991 482.898
1771 0 89.1898 12.8714 1148 108.826 856.559 482.208
1772 0 90.1927 13.4601 1214 108.465 856.855 481.103
1773 1 49.0696 11.6773 573 106.923 856.607 499.904
1774 0 52.1999 12.2989 642 105.067 856.768 500.614
1775 0 47.0523 11.3491 534 104.225 856.238 493.815
1776 0 51.0432 11.6372 594 95.1128 859.316 494.332
1777 0 53.131 11.2176 596 95.3389 858.931 495.107
1778 0 54.1336 11.3608 615 95.5821 858.006 494.436
1779 0 57.1505 9.93866 568 98.7535 858.702 491.984
1780 0 58.0614 10.5233 611 100.144 859.219 494.722
1781 0 62.105 14.1051 876 104.938 859.64 495.556
1782 0 64.1162 13.5379 868 106.531 860.545 494.335
1783 0 66.1189 14.2319 941 104.913 859.781 493.756
1784 0 68.0386 13.9186 947 106.735 860.239 491.099
1785 0 70.0588 13.3745 937 108.276 860.088 492.724
1786 0 71.1215 13.9761 994 108.815 859.984 490.054
1787 0 74.0546 14.4623 1071 108.405 859.886 488.226
1788 0 77.0756 13.4932 1040 110.196 859.331 487.767
1789 0 78.1893 15.7694 1233 106.536 858.981 487.753
1790 0 80.2329 13.7475 1103 111.024 859.841 485.506
1791 0 82.1984 13.1876 1084 114.035 859.586 484.347
1792 0 86.2307 14.4844 1249 111.707 858.895 483.638
1793 0 88.1216 14.9226 1315 111.619 859.151 481.441
1794 0 90.1837 14.9362 1347 112.989 858.785 478.976
1795 0 93.1847 14.6376 1364 114.183 859.119 477.64
1796 0 95.4716 13.2605 1266 117.555 859.528 477.1
1797 0 99.2621 15.1216 1501 113.724 860.048 475.342
1798 0 100.194 14.9609 1499 115.825 859.644 472.123
1799 0 106.252 16.5549 1759 110.774 858.852 470.712
1800 0 108.372 15.0316 1629 114.141 858.734 470.425
1801 1 56.4835 10.1446 573 115.866 859.178 497.188
1802 0 55.2663 12.3041 680 115.701 859.146 492.235
1803 0 57.2144 10.5044 601 105.326 858.864 495.664
1804 0 61.3439 12.2914 754 102.63 858.821 494.58
1805 0 62.2707 13.0398 812 101.527 858.434 495.616
1806 0 65.3028 12.8478 839 102.443 858.608 492.235
1807 0 67.2617 12.0871 813 103.598 858.883 492.096
1808 0 69.2724 13.2232 916 102.431 858.893 490.08
1809 0 70.4004 12.0738 850 105.513 858.587 490.014
1810 0 73.2542 12.3815 907 104.767 858.75 487.803
1811 0 76.2758 12.9399 987 105.153 858.772 486.544
1812 0 78.3663 12.7606 1000 105.977 858.204 485.034
1813 0 82.3398 13.1407 1082 105.525 858.22 482.635
1814 0 84.4618 13.3315 1126 105.908 858.475 478.654
1815 0 87.6048 12.271 1075 108.548 858.396 477.344
1816 0 89.3829 13.7834 1232 105.552 858.569 474.166
1817 0 92.624 12.3186 1141 107.782 859.066 475.698
1818 0 94.605 12.7372 1205 107.899 858.914 472.1
1819 0 95.6727 12.3651 1183 109.733 858.55 469.678
1820 0 99.7616 12.9609 1293 108.756 858.976 470.572
1821 0 103.53 12.9141 1337 110.019 858.669 466.996
1822 0 107.596 13.0488 1404 109.918 858.887 465.279
1823 1 59.3692 11.858 704 100.969 859.32 492.973
1824 0 61.4552 9.89339 608 108.933 858.845 490.257
1825 0 61.5087 10.2262 629 104.134 858.426 489.895
1826 0 65.3602 12.1481 794 99.4786 858.781 490.602
1827 0 67.2978 10.9365 736 101.641 858.754 490.702
1828 0 70.3202 11.8316 832 101.251 859.174 488.453
1829 0 71.4193 11.2575 804 102.648 858.674 486.961
1830 0 72.3787 10.8181 783 105.387 858.544 486.705
1831 0 76.3387 12.4969 954 101.444 858.746 485.733
1832 0 76.2505 10.1639 775 107.039 858.452 483.728
1833 0 79.3091 11.7767 934 104.29 858.139 484.57
1834 0 79.3417 11.2173 890 106.562 858.56 483.282
1835 0 84.3106 11.8846 1002 105.482 857.427 481.637
1836 0 87.317 13.6972 1196 103.1 858.332 479.523
1837 0 89.3162 12.5397 1120 105.941 857.895 479.397
1838 0 91.3897 11.9051 1088 108.256 858.126 476.472
1839 0 92.4869 11.926 1103 108.775 857.666 473.906
1840 0 94.3783 11.2314 1060 111.459 857.588 469.185
1841 0 97.5016 11.8767 1158 110.34 857.369 469.718
1842 0 100.387 12.3223 1237 111.137 857.276 465.482
1843 0 105.572 13.0337 1376 110.212 857.281 464.419
1844 0 109.72 12.2129 1340 110.727 857.354 464.607
1845 0 112.613 13.2045 1487 109.824 856.681 461.002
1846 1 62.3418 11.1803 697 107.426 857.079 486.287
1847 0 64.3245 11.1311 716 107.913 857.608 483.619
1848 0 66.1881 11.0292 730 98.8658 859.352 490.316
1849 0 71.5072 11.5932 829 99.6743 858.474 482.84
1850 0 73.169 12.478 913 95.5345 859.342 486.54
1851 0 74.2476 10.7748 800 99.315 860.16 484.846
1852 0 77.147 11.0698 854 99.5749 859.144 483.787
1853 0 79.1154 12.1721 963 98.5545 859.669 481.174
1854 0 80.1416 9.89499 793 102.76 859.248 477.822
1855 0 84.1975 11.2592 948 99.4947 859.487 478.063
1856 0 86.4012 11.4234 987 99.5056 858.724 475.817
1857 0 90.3584 11.0781 1001 100.332 858.621 474.191
1858 0 93.3679 11.3101 1056 100.857 857.993 473.949
1859 0 96.3364 10.8786 1048 102.087 858.406 472.025
1860 0 97.4083 10.7691 1049 103.936 857.649 465.775
1861 0 101.468 9.68776 983 104.531 857.464 471.609
1862 0 106.519 12.9836 1383 101.39 857.966 465.384
1863 0 110.39 12.6914 1401 102.438 857.552 462.735
1864 0 114.266 11.2631 1287 104.056 857.514 465.13
1865 1 57.2641 10.0063 573 96.3944 857.197 494.679
1866 0 61.0444 10.1565 620 96.4629 857.271 492.403
1867 0 61.0863 8.77447 536 96.8078 856.916 489.386
1868 0 63.2692 8.25046 522 100.18 858.862 493.701
1869 0 67.437 10.1725 686 98.1181 858.656 490.192
1870 0 67.5105 10.5317 711 98.8186 858.24 486.399
1871 0 73.4783 11.2414 826 96.5109 857.663 488.076
1872 0 73.2351 10.7189 785 98.2268 857.767 487.237
1873 0 74.3126 11.0479 821 98.2266 858.018 485.899
1874 0 78.3968 11.5183 903 98.7121 857.167 483.922
1875 0 79.4115 11.1697 887 100.007 857.742 486.033
1876 0 81.5434 11.0984 905 101.133 857.346 483.119
1877 0 85.386 11.8872 1015 101.825 857.216 481.841
1878 0 87.4253 11.1181 972 103.53 857.871 480.907
1879 0 91.2692 10.9566 1000 104.182 858.683 480.523
1880 0 89.4156 9.8305 879 109.006 857.737 475.981
1881 0 95.4007 11.0901 1058 106.129 857.93 475.846
1882 0 96.2831 10.7288 1033 108.377 858.27 474.495
1883 0 99.3821 12.8595 1278 105.756 857.642 470.794
1884 0 101.625 10.4502 1062 109.731 857.446 472.983
1885 0 106.431 11.1621 1188 108.359 857.58 471.779
1886 0 107.402 10.7913 1159 111.814 857.052 466.047
1887 0 113.592 11.9903 1362 107.281 857.103 465.538
1888 0 116.81 11.6599 1362 108.412 857.153 460.029
1889 0 121.012 11.2716 1364 109.69 857.168 457.66
1890 0 124.606 10.8502 1352 112.254 857.474 450.999
1891 1 68.59 10.9928 754 99.9735 857.687 488.223
1892 0 68.59 10.9928 754 118.382 857.698 488.313
1893 0 74.4968 11.9871 893 100.323 858.763 486.993
1894 0 76.4694 11.1548 853 104.36 859.175 480.041
1895 0 78.4666 9.91505 778 107.207 858.38 475.961
1896 0 81.2731 11.7505 955 105.166 860.162 475.251
1897 0 83.1438 11.5342 959 105.681 859.879 475.486
1898 0 84.2246 10.9825 925 107.39 859.591 475.249
1899 0 86.3686 11.9372 1031 106.091 858.959 474.851
1900 0 89.3087 12.4064 1108 105.873 859.022 475.108
1901 0 91.467 11.7201 1072 107.877 858.691 470.615
1902 0 94.483 11.8857 1123 107.404 858.651 470.217
1903 0 98.5515 12.3083 1213 107.09 858.059 466.362
1904 0 102.672 12.8954 1324 105.486 858.453 467.454
1905 0 103.449 11.9093 1232 107.956 858.532 464.283
1906 0 107.608 11.0215 1186 108.621 858.33 462.467
1907 1 61.5776 12.1473 748 97.2607 858.551 487.066
1908 0 62.0768 11.4052 708 97.8814 858.013 491.12
1909 0 63.1723 10.7484 679 98.0589 858.994 489.462
1910 0 67.2408 11.6745 785 94.8675 858.862 489.539
1911 0 67.3613 11.4309 770 96.6506 858.895 487.831
1912 0 69.2614 10.4387 723 98.4855 858.732 483.772
1913 0 73.1873 12.4339 910 95.1176 858.462 483.84
1914 0 75.1813 10.335 777 97.1969 858.18 485.681
1915 0 79.2596 11.7588 932 93.9764 858.439 488.033
1916 0 80.245 11.8014 947 95.9419 858.05 482.003
1917 0 83.3985 11.9786 999 96.7107 856.754 477.969
1918 0 86.4136 12.3823 1070 95.8 857.108 478.861
1919 0 88.6089 11.3081 1002 96.979 857.404 477.364
1920 0 92.5972 12.2358 1133 96.7105 857.188 471.957
1921 0 94.3139 12.7871 1206 97.6517 856.991 472.697
1922 0 96.4806 10.7275 1035 103.891 857.515 473.658
1923 0 102.278 12.5833 1287 99.7669 857.763 474.207
1924 0 104.453 11.2874 1179 102.98 857.992 471.455
1925 0 105.507 10.9092 1151 105.957 856.958 462.169
1926 1 58.6085 9.96443 584 95.0548 857.318 493.462
1927 0 60.1784 10.4024 626 94.2907 858.137 493.149
1928 0 62.3495 10.6817 666 95.1201 857.243 492.664
1929 0 63.198 10.9655 693 95.0635 857.902 485.136
1930 0 64.2357 10.5393 677 94.6898 859.62 494.597
1931 0 64.2151 10.5738 679 95.9823 859.588 493.183
1932 0 68.1775 10.7074 730 94.8082 859.141 493.423
1933 0 69.1534 9.99228 691 98.5789 859.109 490.155
1934 0 74.4135 11.2748 839 95.994 858.951 491.148
1935 0 75.2032 12.2335 920 95.5456 858.589 487.454
1936 0 77.2044 11.7869 910 96.8879 858.752 486.018
1937 0 80.1276 11.1697 895 96.6022 858.627 486.748
1938 0 81.1991 11.4041 926 97.0842 859.008 485.503
1939 0 85.3511 11.5757 988 96.4322 859.122 484.46
1940 0 88.1475 10.3803 915 99.2503 858.699 481.62
1941 0 89.3682 10.1155 904 100.371 858.89 479.834
1942 0 93.1674 9.62783 897 101.517 858.592 479.477
1943 0 95.4247 8.95995 855 104.046 858.393 476.371
1944 1 50.3964 9.78245 493 101.655 857.529 498.193
1945 0 51.3905 9.88509 508 102.967 857.53 495.411
1946 0 53.2969 10.4696 558 101.231 857.814 492.728
1947 0 51.2566 9.54024 489 104.777 857.305 498.738
1948 0 56.1897 12.1552 683 99.8814 857.76 495.968
1949 0 56.2052 10.0703 566 104.691 857.007 493.313
1950 0 56.2149 8.39634 472 108.233 856.824 495.684
1951 0 61.2741 10.4285 639 104.252 856.435 494.889
1952 0 61.175 10.8378 663 104.403 856.668 492.161
1953 0 63.2126 9.55505 604 106.815 856.839 493.974
1954 0 65.1089 10.6437 693 105.267 857.062 492.82
1955 0 70.1774 12.6679 889 100.944 857.079 491.282
1956 0 72.2735 11.8162 854 103.194 857.061 488.795
1957 0 75.2014 13.2577 997 101.096 859.21 486.782
1958 0 77.2037 13.0693 1009 101.705 859.39 485.546
1959 0 79.1315 11.8916 941 106.441 860.185 483.581
1960 0 83.1189 12.2114 1015 106.251 859.427 482.819
1961 0 85.0212 13.8554 1178 104.587 858.943 480.343
1962 0 88.187 12.9271 1140 106.982 859.242 479.543
1963 0 90.1856 13.2172 1192 107.406 858.893 477.789
1964 0 91.3153 12.5609 1147 109.962 859.184 476.211
1965 0 95.3762 13.8609 1322 108.241 859.056 472.731
1966 0 96.6112 12.8764 1244 112.366 858.791 470.663
1967 0 99.6914 13.5919 1355 110.416 858.598 470.388
1968 0 103.436 14.1247 1461 109.659 858.858 468.748
1969 0 106.629 12.7733 1362 113.363 859.103 467.573
1970 0 109.599 13.8414 1517 110.777 858.558 466.753
1971 0 112.562 14.1878 1597 110.817 858.522 462.978
1972 0 115.41 11.6021 1339 115.779 858.39 463.783
1973 0 119.324 12.7132 1517 113.828 858.078 463.282
1974 0 121.343 13.0375 1582 114.7 858.71 456.405
1975 0 127.445 13.653 1740 112.509 858.753 453.962
1976 0 132.528 12.4729 1653 114.756 858.62 451.998
1977 0 139.359 14.2295 1983 110.491 858.727 450.493
1978 0 144.467 13.9755 2019 110.284 859.214 451.167
1979 1 79.33 10.2987 817 105.586 859.792 484.766
1980 0 80.252 12.1492 975 103.033 859.047 482.307
1981 0 82.1693 12.6568 1040 102.22 859.52 484.077
1982 0 84.2084 12.2316 1030 98.6408 857.384 473.8
1983 0 84.379 11.4483 966 100.758 857.171 472.846
1984 0 88.3346 12.747 1126 97.6732 857.085 468.263
1985 0 88.3768 12.4467 1100 100.474 856.895 465.242
1986 0 91.1749 11.0118 1004 103.739 857.353 465.158
1987 0 96.1217 14.1903 1364 97.0572 857.272 467.446
1988 0 101.124 11.8468 1198 102.91 858.128 470.008
1989 0 102.094 11.3425 1158 104.693 858.3 467.857
1990 0 108.172 11.5557 1250 104.554 858.642 467.086
1991 0 109.17 11.3676 1241 106.288 858.367 465.295
1992 0 114.196 11.8305 1351 106.244 857.195 460.739
1993 0 122.244 12.7287 1556 102.782 857.172 461.932
1994 1 67.2722 10.3906 699 101.814 855.833 483.957
1995 0 70.1441 12.6026 884 102.255 855.68 487.243
1996 0 71.1349 10.4309 742 101.802 856.486 481.836
1997 0 76.2373 12.2512 934 99.5139 856.6 481.125
1998 0 76.0956 10.4868 798 102.852 856.583 481.06
1999 0 79.1279 11.6267 920 101.007 856.846 473.786
2000 0 82.1478 11.9054 978 100.851 856.808 476.784
2001 0 84.1564 10.7775 907 103.219 856.872 472.286
2002 0 83.273 11.7205 976 103.085 858.323 473.866
2003 0 86.0902 11.0698 953 105.604 858.936 468.712
2004 0 92.0573 12.3727 1139 102.481 858.365 470.803
2005 0 95.1032 11.6926 1112 105.128 858.327 468.11
2006 0 97.1165 10.7191 1041 107.72 858.948 465.397
2007 0 99.2605 11.8275 1174 106.639 858.757 464.022
2008 0 106.283 12.081 1284 104.781 858.547 462.048
2009 1 60.1183 10.5958 637 99.2684 858.09 485.402
2010 0 64.1244 12.1483 779 97.5841 858.644 491.148
2011 0 65.1673 12.9666 845 103.511 859.349 493.86
2012 0 67.2339 12.7168 855 102.863 858.4 492.694
2013 0 68.2124 12.4171 847 104.006 859.151 491.185
2014 0 71.1727 12.28 874 105.04 858.839 488.747
2015 0 73.274 12.6375 926 105.948 858.55 487.193
2016 0 75.122 12.7925 961 104.498 858.284 487.803
2017 0 76.1923 11.3529 865 106.887 858.467 486.724
2018 0 80.1366 13.7266 1100 101.753 858.381 483.407
2019 0 82.3091 11.5419 950 101.806 858.77 477.041
2020 0 83.3676 11.2994 942 104.328 858.511 477.035
2021 0 87.3248 13.1807 1151 100.859 858.238 471.508
2022 0 90.5264 13.3 1204 100.86 858.258 472.582
2023 0 91.5326 11.3621 1040 105.79 858.691 468.307
2024 0 97.3598 12.3049 1198 104.235 858.24 471.259
2025 1 53.2368 10.0494 535 102.639 858.869 493.295
2026 0 54.1769 10.7241 581 101.861 859.582 494.43
2027 0 55.1043 12.0317 663 102.977 859.569 494.223
2028 0 57.0612 11.3738 649 103.439 860.239 494.841
2029 0 61.2369 12.966 794 99.9572 859.461 493.282
2030 0 62.0901 12.8845 800 100.624 859.385 493.944
2031 0 64.0286 12.6506 810 101.811 859.593 492.806
2032 0 65.1076 12.0877 787 102.986 859.768 490.817
2033 0 66.0541 11.8388 782 103.671 859.735 491.155
2034 0 69.0626 13.1765 910 99.9582 859.518 489.52
2035 0 71.0965 12.7714 908 101.409 858.63 487.705
2036 0 73.1978 12.9922 951 100.785 858.837 486.434
2037 0 75.0927 11.599 871 103.721 859.015 483.654
2038 0 79.2415 12.5944 998 101.267 859.005 484.082
2039 0 79.3601 13.4576 1068 101.224 859.311 481.508
2040 0 83.1294 14.315 1190 99.9412 858.92 480.182
2041 0 85.1628 13.0808 1114 103.556 859.131 481.063
2042 0 86.2816 13.7805 1189 102.445 858.577 480.976
2043 0 89.1613 12.9877 1158 105.193 859.198 479.475
2044 0 91.4459 12.3133 1126 107.154 858.732 476.64
2045 0 96.3721 12.7942 1233 106.032 859.058 474.449
2046 0 98.3247 13.2927 1307 105.821 859.442 472.331
2047 0 100.303 12.1332 1217 108.527 859.11 472.576
2048 0 105.335 12.2277 1288 108.097 859.7 471.01
2049 0 109.417 12.9139 1413 107.745 859.316 469.781
2050 0 113.398 13.413 1521 107.949 859.128 466.196
2051 1 63.2364 11.5124 728 110.912 859.688 489.581
2052 0 66.202 13.0057 861 108.944 859.3 492.017
2053 0 67.3552 11.7289 790 105.663 859.792 489.746
2054 0 69.2796 13.0774 906 104.038 859.355 487.355
2055 0 70.3649 11.9378 840 107.815 859.183 486.002
2056 0 71.4205 11.4253 816 109.303 859.198 485.011
2057 0 76.2726 12.3898 945 107.18 859.239 483.925
2058 0 77.3402 12.1412 939 108.661 859.18 481.475
2059 0 81.3782 13.1731 1072 106.554 859.096 479.034
2060 0 84.501 12.3194 1041 108.834 859.884 478.865
2061 0 84.501 12.5206 1058 144.301 859.892 479.156
2062 0 91.4014 13.8838 1269 105.687 859.53 477.37
2063 0 92.457 12.979 1200 109.111 859.474 473.299
2064 0 92.469 12.9665 1199 150.032 859.47 473.319
2065 0 99.2998 12.6586 1257 109.601 859.343 471.056
2066 0 101.3 13.1787 1335 110.554 859.345 471.06
2067 0 105.219 13.0489 1373 110.558 859.169 470.257
2068 0 112.387 12.6171 1418 111.554 859.338 467.277
2069 1 61.1138 10.8486 663 109.789 860.274 491.367
2070 0 62.1775 11.3224 704 108.886 859.428 490.879
2071 0 64.2029 11.8998 764 110.335 860.079 489.942
2072 0 68.1274 13.328 908 114.129 860.367 491.291
2073 0 68.1034 11.1155 757 118.316 859.608 492.03
2074 0 73.117 12.1312 887 115.02 859.741 489.004
2075 0 74.2905 12.5992 936 117.269 859.216 488.07
2076 0 76.5963 13.5646 1039 116.347 858.275 481.459
2077 0 79.597 12.2492 975 120.071 858.439 479.529
2078 0 81.7509 12.6115 1031 121.512 858.566 477.645
2079 0 82.4587 13.0247 1074 120.35 857.996 478.692
2080 0 86.5699 12.4177 1075 121.47 858.258 477.843
2081 0 87.6162 13.9814 1225 118.309 857.99 475.71
2082 0 91.8691 13.7478 1263 119.078 857.493 475.256
2083 0 94.6897 13.465 1275 120.263 856.784 476.969
2084 0 96.5684 12.7992 1236 121.926 857.282 474.411
2085 0 99.645 12.5947 1255 122.488 857.207 474.5
2086 0 101.857 12.8415 1308 124.329 857.684 468.917
2087 1 58.5672 10.5861 620 121.032 857.945 491.126
2088 0 59.6188 11.5903 691 120.612 858.051 487.362
2089 0 63.4568 12.7488 809 116.145 857.938 487.328
2090 0 63.4466 13.0346 827 117.688 857.931 489.01
2091 0 64.2664 11.639 748 121.226 858.584 492.64
2092 0 66.3769 12.3386 819 118.465 858.767 490.836
2093 0 68.1729 12.659 863 117.056 858.939 491.769
2094 0 71.4278 11.7881 842 119.422 858.746 489.634
2095 0 72.29 12.768 923 118.363 859.169 487.679
2096 0 75.3822 13.4647 1015 117.727 858.725 485.084
2097 0 75.4475 12.4325 938 121.18 858.676 486.432
2098 0 78.5052 13.6169 1069 118.845 858.818 483.718
2099 0 79.5721 12.0897 962 122.823 858.425 484.006
2100 0 83.2834 13.0999 1091 119.937 858.549 484.227
2101 0 82.5447 12.6962 1048 123.302 858.499 480.681
2102 0 89.6234 13.5121 1211 118.199 858.679 480.649
2103 0 91.5264 13.6791 1252 119.819 858.525 477.609
2104 0 94.5354 14.2063 1343 118.566 858.081 476.025
2105 0 95.5118 12.7523 1218 123.76 858.188 473.224
2106 0 99.4854 12.9265 1286 121.568 857.523 474.771
2107 0 102.531 13.9958 1435 119.755 857.754 472.476
2108 0 106.494 14.6863 1564 118.389 857.655 470.221
2109 0 108.451 13.0751 1418 123.587 857.69 468.769
2110 0 111.434 14.2327 1586 120.924 857.646 468.562
2111 0 113.7 12.9288 1470 125.875 857.51 461.813
2112 1 63.1212 9.61642 607 114.127 855.923 493.6
2113 0 66.1476 11.6557 771 112.049 856.298 490.109
2114 0 67.3445 11.9386 804 112.109 856.558 486.939
2115 0 70.1664 14.2661 1001 106.106 856.948 487.099
2116 0 71.1436 13.8031 982 112.565 856.272 489.307
2117 0 74.0547 13.0174 964 115.341 856.101 488.034
2118 0 77.0285 13.0082 1002 115.25 855.932 487.201
2119 0 78.077 14.0118 1094 113.777 855.762 486.368
2120 0 80.1149 13.905 1114 115.362 855.68 482.311
2121 0 83.1616 14.55 1210 114.14 855.432 482.683
2122 0 86.0799 13.3829 1152 117.325 855.815 481.934
2123 0 88.1208 14.0375 1237 115.96 855.677 479.99
2124 0 90.1566 13.5764 1224 118.342 855.324 479.025
2125 0 94.1239 15.299 1440 112.788 856.73 480.085
2126 0 99.1292 14.3046 1418 115.054 856.392 476.769
2127 0 100.189 14.2032 1423 115.994 855.969 476.736
2128 0 105.355 15.7562 1660 110.72 856.682 474.419
2129 0 107.26 14.7679 1584 114.039 856.857 471.647
2130 0 111.201 14.7751 1643 112.591 856.287 470.168
2131 0 113.24 13.4935 1528 116.345 856.432 468.893
2132 1 62.4832 12.2753 767 121.226 857.422 488.385
2133 0 65.3396 13.3303 871 118.886 857.129 487.62
2134 0 66.1511 14.1948 939 114.634 858.939 488.505
2135 0 68.0828 13.8801 945 115.861 859.053 488.051
2136 0 69.0968 13.5752 938 117.391 858.985 487.015
2137 0 72.1865 13.4097 968 115.49 858.648 488.22
2138 0 73.1713 13.0106 952 118.561 858.619 484.722
2139 0 77.1409 14.4411 1114 114.171 857.726 485.768
2140 0 78.2604 13.3017 1041 116.988 858.814 486.334
2141 0 79.2725 12.3498 979 119.716 858.294 483.581
2142 0 83.366 13.4347 1120 117.125 858.052 482.297
2143 0 85.2201 12.7669 1088 119.239 858.161 479.734
2144 0 90.2513 13.3405 1204 116.972 857.638 477.475
2145 0 92.5052 13.6209 1260 116.713 856.484 473.545
2146 0 96.5393 13.4246 1296 117.744 856.442 470.275
2147 0 100.426 14.3489 1441 116.393 856.994 469.197
2148 1 53.2414 10.8186 576 121.045 856.609 494.714
2149 0 54.3409 11.6855 635 120.373 856.285 490.096
2150 0 57.062 13.1962 753 106.441 858.204 495.596
2151 0 58.1431 11.8329 688 100.087 857.808 489.606
2152 0 58.2603 11.1225 648 103.31 857.914 487.688
2153 0 59.178 12.1329 718 101.116 858.422 489.405
2154 0 62.1735 12.0308 748 101.353 857.932 487.683
2155 0 63.0495 10.9438 690 103.791 858.678 485.868
2156 0 66.1507 12.139 803 100.981 858.233 484.508
2157 0 66.334 11.7738 781 102.521 857.319 483.259
2158 0 68.3207 11.9876 819 102.19 857.818 484.651
2159 0 68.175 11.2064 764 104.652 857.195 479.919
2160 0 71.1818 13.3601 951 99.7035 857.739 479.667
2161 0 73.284 11.7215 859 103.01 856.916 478.775
2162 0 78.3491 11.6019 909 102.036 857.539 479.508
2163 0 79.3582 11.4166 906 102.982 857.025 474.481
2164 0 80.344 11.6872 939 102.777 857.225 475.601
2165 0 85.3433 12.7368 1087 100.732 857.218 475.802
2166 0 86.4469 11.5909 1002 102.887 856.907 474.566
2167 0 90.3491 12.496 1129 100.112 856.591 471.98
2168 0 91.4062 11.159 1020 102.818 857.57 474.032
2169 0 94.3916 10.573 998 103.796 857.413 472.97
2170 0 98.4849 12.4181 1223 101.359 856.798 465.118
2171 0 103.32 11.537 1192 101.733 857.75 467.539
2172 1 59.0785 9.30965 550 99.5 858.698 486.927
2173 0 57.0448 10.4304 595 98.0084 855.997 485.822
2174 0 60.1182 10.9285 657 96.5753 856.068 486.656
2175 0 62.058 9.86174 612 99.4085 855.681 483.345
2176 0 65.0507 10.0383 653 98.1057 855.591 485.715
2177 0 69.1094 12.6321 873 93.3837 855.921 484.643
2178 0 72.2044 10.2625 741 98.0445 856.088 481.54
2179 0 75.2084 12.3656 930 94.4269 856.271 480.401
2180 0 77.1342 11.2272 866 96.5404 856.292 481.918
2181 0 78.1683 10.4134 814 99.6339 856.052 477.711
2182 0 82.3392 12.6064 1038 95.3035 856.624 477.396
2183 0 83.1462 12.5321 1042 95.6814 856.329 478.086
2184 0 87.1694 13.5713 1183 93.1606 856.923 474.976
2185 0 91.1259 11.8078 1076 96.0576 856.859 473.494
2186 0 95.1092 11.6077 1104 97.3025 857.088 474.483
2187 0 95.3588 11.808 1126 97.3428 857.816 472.38
2188 0 98.3017 12.3294 1212 97.9934 859.094 465.98
2189 0 99.2401 11.4369 1135 99.9577 857.712 464.993
2190 0 104.214 11.7738 1227 99.0986 857.383 465.14
2191 1 55.0668 10.3511 570 106.463 855.36 486.618
2192 0 58.3965 11.0109 643 106.378 856.482 485.439
2193 0 57.1811 9.58359 548 100.898 856.956 486.029
2194 0 61.2483 9.33904 572 100.545 856.154 484.885
2195 0 62.3086 11.2023 698 97.9971 857.451 484.046
2196 0 64.272 9.45979 608 101.462 857.431 481.512
2197 0 65.2848 10.4159 680 100.649 857.019 478.853
2198 0 69.2784 11.4177 791 99.0379 857.392 479.134
2199 0 70.3254 12.883 906 97.6799 856.801 475.126
2200 0 76.2662 11.4467 873 100.32 857.485 475.378
2201 0 77.296 11.1649 863 101.98 857.112 473.701
2202 0 78.2669 11.678 914 101.43 856.4 472.836
2203 0 82.3292 12.3286 1015 100.481 857.188 473.253
2204 0 82.2919 11.2405 925 103.241 857.775 469.319
2205 0 83.1787 12.6835 1055 101.735 857.573 470.059
2206 0 88.1042 12.4171 1094 101.709 857.799 467.047
2207 0 91.2852 11.4915 1049 104.13 857.935 465.244
2208 0 93.2636 13.0812 1220 101.655 857.592 465.834
2209 0 92.3289 13.1162 1211 103.468 856.819 463.22
2210 0 100.366 11.2687 1131 106.247 857.088 458.545
2211 0 104.391 12.3286 1287 104.004 856.445 459.621
2212 0 104.428 12.6786 1324 104.867 856.867 455.248
2213 0 108.324 14.2904 1548 101.638 857.432 458.058
2214 0 110.483 13.0337 1440 105.305 857.372 456.544
2215 0 110.482 13.8574 1531 105.542 857.426 455.899
2216 0 118.314 13.6755 1618 105.118 857.296 453.052
2217 0 120.484 13.4872 1625 107.354 857.091 451.361
2218 0 123.648 13.32 1647 108.886 856.894 445.704
2219 0 129.561 12.0715 1564 111.162 857.185 444.716
2220 0 136.372 13.9911 1908 107.396 857.291 441.88
2221 0 138.527 13.7086 1899 109.713 857.042 441.07
2222 0 149.663 14.1986 2125 107.602 857.241 440.884
2223 0 155.421 13.3251 2071 113.114 856.896 436.422
2224 0 156.419 13.8154 2161 112.353 857.349 431.706
2225 1 84.2779 10.1687 857 112.872 857.418 467.235
2226 0 90.2657 12.3857 1118 106.208 858.051 466.149
2227 0 89.1835 10.6073 946 105.606 858.185 463.433
2228 0 95.3009 12.4448 1186 102.18 858.044 460.713
2229 0 100.35 10.9815 1102 103.433 857.703 464.084
2230 0 103.433 12.6556 1309 104.279 858.126 459.545
2231 0 108.307 13.0186 1410 103.326 857.814 458.422
2232 0 110.442 12.0968 1336 107.634 857.99 455.255
2233 0 115.33 13.1709 1519 103.756 857.833 453.743
2234 0 119.284 12.8433 1532 105.352 857.802 449.627
2235 1 67.1913 10.6413 715 106.199 859.628 483.835
2236 0 66.1722 11.0167 729 106.615 859.454 478.043
2237 0 66.121 9.76996 646 99.3731 857.938 477.229
2238 0 72.1147 11.3985 822 95.8187 857.954 479.251
2239 0 71.1674 10.0748 717 99.0418 857.982 477.08
2240 0 74.1438 8.88813 659 100.668 858.237 478.627
2241 0 76.2373 9.89017 754 99.8448 858.411 477.3
2242 0 79.2426 9.16174 726 102.446 858.541 475.741
2243 0 81.1339 9.92187 805 101.908 857.795 472.313
2244 0 82.2879 10.9858 904 101.112 857.726 471.123
2245 0 85.2792 10.8936 929 101.505 857.794 470.37
2246 0 87.2569 10.7728 940 103.632 857.992 465.514
2247 0 89.1551 10.6892 953 106.194 858.25 468.771
2248 0 94.362 10.0358 947 108.17 858.419 464.639
2249 0 98.1042 11.2024 1099 111.237 858.886 462.56
2250 1 56.1071 9.67791 543 105.985 859.886 487.039
2251 0 58.0314 10.1497 589 105.136 859.445 485.496
2252 0 61.0415 10.5502 644 107.29 859.189 483.292
2253 0 64.1476 11.037 708 105.298 858.726 483.459
2254 0 62.0167 9.83606 610 110.53 859.382 480.079
2255 0 63.1425 11.6087 733 107.108 859.126 481.117
2256 0 69.1251 9.83723 680 109.754 858.782 480.247
2257 0 68.1137 11.9359 813 107.892 859.449 477.508
2258 0 70.0561 10.9055 764 109.444 859.102 479.778
2259 0 76.0975 12.2737 934 106.908 858.961 478.153
2260 0 76.0837 10.6593 811 111.117 859.26 477.355
2261 0 78.0527 11.0438 862 110.548 859.094 475.682
2262 0 82.0421 12.262 1006 107.331 858.9 479.695
2263 0 84.037 11.2331 944 111.005 858.19 476.033
2264 0 84.1135 10.9495 921 113.215 857.395 473.164
2265 0 91.1292 12.3451 1125 109.235 857.682 474.433
2266 0 93.1157 12.1891 1135 110.134 857.141 475.744
2267 0 93.1558 11.3036 1053 112.657 856.942 472.556
2268 0 100.105 11.398 1141 111.608 856.541 469.698
2269 0 103.208 12.2181 1261 104.095 855.542 474.317
2270 0 111.188 11.4581 1274 112.836 855.736 481.124
2271 1 60.2028 9.81683 591 110.854 852.562 503.755
2272 0 56.1561 7.85311 441 104.669 854.71 496.469
2273 0 56.1073 9.96306 559 105.402 855.626 499.123
2274 0 61.1538 9.77862 598 105.095 855.781 495.92
2275 0 64.0835 11.8595 760 100.946 855.379 496.462
2276 0 61.0619 10.2519 626 105.947 854.995 494.68
2277 0 66.0665 10.7619 711 103.994 854.513 494.281
2278 0 66.0197 10.3908 686 105.552 854.932 491.844
2279 0 70.0663 11.2893 791 103.972 854.689 489.308
2280 0 72.0459 11.5343 831 103.227 853.792 490.106
2281 0 70.0402 11.2792 790 105.741 853.804 482.977
2282 0 78.0759 11.6041 906 103.517 853.395 483.834
2283 0 84.0881 10.9766 923 104.164 853.612 483.528
2284 0 81.1044 11.9229 967 104.056 853.719 481.011
2285 0 88.1149 10.1912 898 106.682 852.39 478.669
2286 0 90.0603 10.926 984 105.486 852.807 478.984
2287 0 97.2082 10.7295 1043 105.583 853.144 477.263
2288 0 98.2033 11.8122 1160 104.351 852.485 477.622
2289 0 100.178 11.1901 1121 104.604 851.778 476.323
2290 0 102.08 10.6485 1087 106.374 852.108 474.596
2291 0 109.336 9.99672 1093 100.682 851.259 475.118
2292 0 111.319 10.2588 1142 100.204 851.697 477.235
2293 0 116.335 11.1833 1301 105.459 851.686 479.572
2294 1 65.0825 11.6928 761 100.647 854.369 505.509
2295 0 65.1473 11.7887 768 101.585 854.065 502.413
2296 0 69.0994 12.1419 839 98.5757 854.205 504.342
2297 0 70.154 10.9758 770 101.794 854.792 502.187
2298 0 72.0483 12.6165 909 99.5974 854.395 499.515
2299 0 74.1855 12.6035 935 99.8214 854.057 498.585
2300 0 75.2042 11.1696 840 102.575 853.916 500.669
2301 0 79.1024 13.1601 1041 97.903 853.88 497.027
2302 0 82.1458 12.2952 1010 99.1911 853.953 496.346
2303 0 85.2881 12.0181 1025 100.165 853.328 490.962
2304 0 85.108 13.0187 1108 98.7626 853.32 491.873
2305 0 87.145 12.4849 1088 100.025 853.333 490.744
2306 0 87.2773 9.60158 838 105.721 852.656 494.981
2307 0 89.2513 10.1175 903 105.864 853.148 493.096
2308 0 96.3901 13.3727 1289 100.375 852.469 487.3
2309 0 99.3196 12.7367 1265 101.154 852.78 489.262
2310 0 103.334 12.2902 1270 103.367 852.232 485.283
2311 0 105.391 11.5001 1212 105.059 852.209 484.192
2312 0 109.404 12.1842 1333 103.311 852.026 483.337
2313 0 110.517 10.7404 1187 107.428 852.211 481.609
2314 0 115.359 11.7546 1356 105.187 852.744 481.403
2315 1 66.2652 12.3443 818 101.186 853.287 503.923
2316 0 69.3969 12.1763 845 104.045 852.491 500.034
2317 0 71.3966 12.8297 916 102.201 852.674 499.615
2318 0 72.4011 12.2374 886 103.834 852.451 499.307
2319 0 74.3577 12.2516 911 103.942 852.023 497.755
2320 0 76.4039 12.3292 942 103.656 852.748 498.244
2321 0 80.4641 12.5398 1009 102.976 852.825 495.464
2322 0 81.5854 13.1519 1073 102.46 852.87 493.057
2323 0 83.5376 13.8022 1153 101.465 853.403 492.305
2324 0 86.4734 12.1078 1047 105.212 852.802 490.935
2325 0 87.5108 12.3299 1079 105.683 853.535 489.797
2326 0 91.6423 12.5488 1150 105.035 852.296 487.934
2327 0 93.6084 13.6313 1276 103.532 852.628 485.305
2328 0 96.8095 12.1372 1175 106.945 852.197 479.412
2329 0 98.8915 14.8344 1467 102.438 852.252 476.851
2330 0 103.1 12.9001 1330 106.605 852.111 478.388
2331 0 102.645 11.9246 1224 110.189 852.149 474.825
2332 0 106.843 13.3654 1428 107.22 852.436 474.255
2333 0 112.06 10.8246 1213 106.639 851.523 476.116
2334 0 113.676 10.5124 1195 102.339 850.495 475.152
2335 0 117.611 11.8356 1392 100.723 850.954 467.983
2336 1 63.4777 9.37338 595 97.1109 850.837 495.121
2337 0 66.4601 10.0963 671 97.921 851.124 494.949
2338 0 69.2374 11.8 817 93.7846 851.187 495.064
2339 0 70.3449 11.1735 786 96.3321 850.962 494.429
2340 0 72.1616 11.6267 839 96.2014 851.336 493.288
2341 0 75.2552 12.3579 930 95.8849 851.355 491.057
2342 0 77.1776 12.1927 941 96.7131 851.309 491.083
2343 0 80.2243 11.9664 960 98.2292 851.859 487.79
2344 0 80.1108 11.4466 917 100.236 852.18 485.972
2345 0 84.254 11.9876 1010 100.647 852.317 486.278
2346 0 85.16 11.7661 1002 101.548 852.425 484.846
2347 0 90.2497 13.7507 1241 96.9936 851.676 481.645
2348 0 91.2622 12.4915 1140 100.125 852.196 481.613
2349 0 96.3727 13.8525 1335 98.3873 853.231 478.869
2350 0 98.2744 12.6076 1239 102.208 852.477 478.847
2351 0 100.268 11.928 1196 106.882 853.023 476.288
2352 0 106.599 13.8275 1474 102.744 853.391 473.065
2353 1 55.537 11.0737 615 102.985 854.354 494.429
2354 0 59.9311 11.58 694 101.951 854.582 494.674
2355 0 59.7177 12.2242 730 105.362 854.762 493.244
2356 0 60.5302 12.2749 743 110.829 855.042 491.044
2357 0 62.5234 11.4837 718 112.032 854.875 492.163
2358 0 61.4954 11.8383 728 113.523 855.324 494.071
2359 0 63.3618 14.0621 891 108.218 855.203 493.547
2360 0 65.5235 12.2246 801 111.31 855.527 490.979
2361 0 70.4958 13.5611 956 107.373 855.378 490.919
2362 0 72.4614 13.0966 949 109.059 855.101 490.14
2363 0 72.4023 12.7897 926 110.829 854.531 489.307
2364 0 75.4721 13.8064 1042 108.861 855.09 487.25
2365 0 77.7027 13.024 1012 110.813 855.497 485.624
2366 0 79.6217 12.6096 1004 112.199 855.546 483.781
2367 0 81.6391 13.1922 1077 112.054 854.81 482.388
2368 0 84.5997 13.4398 1137 111.421 854.525 479.081
2369 0 87.6802 12.5456 1100 113.386 854.588 479.434
2370 0 88.8852 13.1293 1167 113.256 854.736 478.501
2371 0 92.8316 14.564 1352 109.102 854.606 475.652
2372 0 93.7615 13.1397 1232 112.131 854.838 473.989
2373 0 97.6103 12.304 1201 114.424 855.38 473.159
2374 1 55.1322 11.4271 630 103.416 856.727 497.368
2375 0 55.2286 11.1536 616 103.648 857.422 497.575
2376 0 58.2975 12.2647 715 102.495 856.379 496.12
2377 0 61.4578 12.5289 770 103.938 854.639 492.652
2378 0 63.5294 12.6083 801 104.277 855.287 492.783
2379 0 64.3406 14.0036 901 105.028 855.861 492.866
2380 0 64.3642 14.4646 931 104.873 855.429 490.995
2381 0 66.221 12.262 812 110.531 855.674 490.552
2382 0 69.3253 12.737 883 109.01 855.428 489.023
2383 0 72.2463 13.1079 947 108.522 855.73 488.004
2384 0 74.3825 13.8742 1032 107.343 855.824 484.98
2385 0 75.2523 10.8701 818 114.128 855.76 486.869
2386 0 76.2558 13.1531 1003 110.29 856.105 483.132
2387 0 81.3059 14.4024 1171 107.147 855.508 483.424
2388 0 82.1876 13.3597 1098 109.791 855.513 482.434
2389 0 86.2147 13.7448 1185 108.924 855.759 480.918
2390 0 87.2469 12.1494 1060 114.767 856.126 480.471
2391 0 91.2993 13.8227 1262 108.912 856.236 479.832
2392 0 92.1655 14.8103 1365 105.333 856.037 475.716
2393 0 93.1576 12.2266 1139 110.603 855.637 476.925
2394 0 99.2765 13.0041 1291 108.073 855.748 475.9
2395 0 103.279 13.7492 1420 107.615 855.268 473.634
2396 0 103.248 12.7944 1321 111.677 855.396 473.93
2397 1 59.1471 12.0209 711 114.172 854.831 493.959
2398 0 58.3818 11.3049 660 106.802 855.627 488.495
2399 0 59.0683 12.0708 713 111.02 854.474 485.965
2400 0 63.0585 12.0364 759 110.223 853.992 486.547
2401 0 65.0347 12.7778 831 109.342 853.98 484.306
2402 0 67.0321 12.2628 822 111.004 853.996 483.33
2403 0 67.1192 11.1146 746 115.587 854.453 482.606
2404 0 70.0949 11.085 777 114.571 853.876 481.346
2405 0 73.0939 11.7931 862 113.382 854.454 481.868
2406 0 76.0908 12.9845 988 111.205 854.431 481.116
2407 0 81.0417 12.9686 1051 110.779 854.3 479.678
2408 0 81.1196 11.933 968 114.07 854.482 478.787
2409 0 84.0583 12.5389 1054 113.542 854.518 474.614
2410 0 87.039 12.8908 1122 112.024 854.896 474.809
2411 0 90.1765 12.9191 1165 111.886 854.995 474.391
2412 0 92.2024 13.5463 1249 111.717 855.089 471.9
2413 0 97.0414 12.3452 1198 114.266 854.85 470.059
2414 0 96.1092 13.2974 1278 114.218 854.808 466.441
2415 0 101.112 12.6692 1281 115.117 854.669 465.731
2416 0 104.161 13.2967 1385 114.796 854.477 461.518
2417 0 108.19 12.2378 1324 115.283 854.851 461.973
2418 0 113.136 13.9125 1574 110.703 854.644 462.946
2419 1 61.1478 10.2702 628 106.123 854.452 488.909
2420 0 67.1407 12.6451 849 109.905 854.502 491.846
2421 0 70.1303 12.6764 889 111.174 854.612 488.349
2422 0 73.0893 13.2851 971 108.146 854.282 490.97
2423 0 75.1628 13.7169 1031 107.908 854.85 488.645
2424 0 77.2643 11.959 924 112.311 854.421 487.484
2425 0 80.304 12.0542 968 112.224 854.705 486.162
2426 0 83.3796 13.1807 1099 109.827 855.022 483.48
2427 0 87.3532 12.936 1130 109.737 854.874 482.099
2428 0 88.2637 12.7799 1128 111.371 855.316 480.383
2429 0 93.3302 14.1219 1318 108.086 854.513 481.35
2430 0 94.2279 14.2421 1342 109.25 855.007 478.23
2431 0 96.1112 13.0786 1257 113.509 854.943 477.737
2432 0 99.2165 12.9716 1287 114.355 855.345 477.519
2433 0 103.277 13.6332 1408 113.625 854.854 474.788
2434 0 105.196 13.0328 1371 115.854 854.557 472.357
2435 0 110.243 14.9942 1653 111.277 854.857 471.991
2436 0 112.365 13.6608 1535 115.199 854.599 470.818
2437 0 114.27 12.6718 1448 117.367 855.714 471.686
2438 0 119.381 13.5951 1623 117.723 855.696 465.314
2439 1 67.4355 12.1301 818 114.218 856.194 490.055
2440 0 70.2889 13.1457 924 111.442 855.863 491.537
2441 0 72.4079 14.1559 1025 109.779 856.039 485.547
2442 0 76.5534 13.1934 1010 113.668 856.024 486.826
2443 0 78.3747 13.8182 1083 113.271 856.238 486.98
2444 0 79.3593 13.6846 1086 115.263 855.863 484.283
2445 0 80.4521 13.797 1110 117.473 856.318 483.994
2446 0 85.3986 12.8339 1096 119.747 855.942 481.238
2447 0 88.3254 14.1296 1248 116.805 855.951 480.559
2448 0 90.2575 13.6277 1230 118.649 856.167 480.715
2449 0 92.1786 13.68 1261 118.759 854.614 480.289
2450 0 96.2886 13.1895 1270 120.782 855.404 478.474
2451 0 101.171 14.085 1425 117.851 856.345 478.101
2452 0 101.217 13.6934 1386 120.509 856.175 476.245
2453 0 103.174 12.474 1287 123.612 855.988 473.234
2454 0 108.243 14.5691 1577 119.368 856.64 468.973
2455 0 111.224 12.848 1429 122.562 856.698 470.08
2456 0 115.176 13.4142 1545 122.247 856.43 466.418
2457 0 118.175 13.1162 1550 123.132 856.437 466.237
2458 0 123.14 12.9283 1592 121.854 856.05 465.793
2459 1 65.1066 10.6287 692 121.105 855.725 492.029
2460 0 69.1304 12.5271 866 113.334 856.116 488.56
2461 0 71.0454 13.3295 947 112.315 855.728 487.251
2462 0 74.131 13.4222 995 105.096 855.943 486.014
2463 0 76.2174 12.2019 930 108.222 855.764 485.852
2464 0 78.261 13.8 1080 104.869 856.406 484.096
2465 0 80.1285 12.8544 1030 106.34 856.002 484.764
2466 0 83.1212 13.3299 1108 105.776 855.751 480.522
2467 0 85.1423 14.3055 1218 104.273 855.378 480.429
2468 0 88.1049 13.9947 1233 105.274 855.346 478.931
2469 0 91.1172 12.9174 1177 108.072 855.849 477.257
2470 0 94.091 12.9343 1217 106.73 855.458 473.947
2471 0 97.1959 12.6034 1225 108.049 855.207 471.181
2472 0 101.233 14.1061 1428 103.616 855.824 471.623
2473 0 102.186 12.4283 1270 108.772 855.063 470.827
2474 0 107.137 13.0301 1396 106.389 855.152 468.256
2475 0 111.213 12.9841 1444 105.012 855.222 467.078
2476 0 115.201 14.0711 1621 101.706 855.798 466.173
2477 1 67.0574 11.945 801 103.156 855.03 490.644
2478 0 66.0391 10.8875 719 104.743 855.574 487.777
2479 0 70.0349 11.6371 815 103.09 859.399 488.15
2480 0 72.0618 12.7529 919 100.49 859.769 488.226
2481 0 72.093 10.431 752 105.572 859.238 485.75
2482 0 77.1395 12.8468 991 99.2724 858.92 486.65
2483 0 80.1013 12.6215 1011 99.7112 858.659 482.998
2484 0 82.0677 13.2817 1090 98.4651 858.358 482.443
2485 0 85.1154 13.1469 1119 98.3378 858.888 480.613
2486 0 89.0671 13.226 1178 97.5501 858.733 479.906
2487 0 90.3513 12.4071 1121 99.4942 858.88 477.715
2488 0 91.0902 12.1747 1109 100.232 858.604 476.477
2489 0 95.1028 12.7651 1214 99.6244 858.397 473.396
2490 0 96.2175 10.6945 1029 98.4052 856.67 478.054
2491 0 98.2286 10.4756 1029 101.388 857.053 472.445
2492 0 102.275 12.2415 1252 102.621 857.236 470.231
2493 0 106.227 12.5862 1337 102.512 857.282 468.925
2494 0 108.349 12.8658 1394 102.274 856.652 467.864
2495 0 111.209 11.6357 1294 105.226 856.597 467.206
2496 0 117.295 12.8905 1512 101.804 857.498 467.714
2497 0 120.363 12.6783 1526 103.366 857.024 463.25
2498 1 68.2744 11.5417 788 100.699 856.508 486.378
2499 0 69.3389 11.1914 776 93.7513 855.995 485.387
2500 0 73.2765 13.2375 970 90.2825 855.728 485.125
2501 0 74.0878 11.0949 822 90.5207 855.305 484.266
2502 0 79.1116 12.3623 978 88.4918 854.895 482.075
2503 0 80.0969 13.1091 1050 87.601 855.089 480.08
2504 0 81.2467 12.0128 976 89.9631 855.156 477.614
2505 0 84.3384 10.8491 915 91.4459 856.382 478.79
2506 0 87.2198 11.6258 1014 90.856 855.493 476.599
2507 0 91.1109 13.1708 1200 88.3192 855.383 473.277
2508 0 93.2371 11.4118 1064 91.5179 855.737 473.837
2509 0 96.3254 11.4923 1107 91.7778 855.406 473.015
2510 0 98.2952 12.2997 1209 90.8106 855.943 468.13
2511 0 102.21 12.2493 1252 91.4449 856.014 468.613
2512 0 102.349 11.8419 1212 93.6221 856.318 463.704
2513 0 106.245 12.0005 1275 93.9435 856.471 463.14
2514 0 110.331 12.544 1384 93.6647 855.844 465.959
2515 0 115.294 13.6261 1571 92.0153 856.059 462.577
2516 0 118.257 12.7603 1509 97.5388 855.455 460.48
2517 0 122.407 12.1644 1489 99.3989 855.572 458.929
2518 0 126.27 11.6734 1474 99.9376 855.662 460.143
2519 0 129.264 10.8847 1407 101.367 855.741 459.868
2520 0 133.693 10.8158 1446 103.32 855.479 456.721
2521 1 72.1942 10.915 788 98.4454 855.741 488.536
2522 0 77.209 12.5892 972 95.5628 857.068 481.78
2523 0 81.3215 13.711 1115 93.7238 856.109 481.098
2524 0 81.2315 12.1505 987 98.1033 855.882 479.228
2525 0 84.3051 12.7988 1079 96.8619 856.046 477.645
2526 0 85.3279 11.6375 993 99.4965 856.053 477.489
2527 0 90.3234 13.197 1192 96.7433 856.516 475.407
2528 0 92.3558 11.1309 1028 100.598 856.893 474.541
2529 0 93.3542 12.3937 1157 99.1556 856.411 472.989
2530 0 99.5961 13.3941 1334 97.2054 857.229 473.66
2531 0 102.434 12.2811 1258 100.387 857.234 471.734
2532 0 104.592 12.9934 1359 100.684 857.019 462.89
2533 0 108.293 13.1126 1420 97.9246 857.672 466.466
2534 0 113.462 13.0793 1484 99.8113 858.011 463.274
2535 0 115.685 12.802 1481 101.997 858.453 458.157
2536 0 120.547 13.1069 1580 101.913 857.518 453.875
2537 1 65.6786 11.1452 732 95.1107 858.074 484.24
2538 0 67.3844 11.7683 793 93.7163 858.695 484.865
2539 0 69.1819 12.0552 834 90.4448 857.251 484.433
2540 0 72.2143 12.7676 922 98.1833 855.927 485.861
2541 0 75.2845 13.5752 1022 96.9462 856.303 483.544
2542 0 77.0762 13.1688 1015 98.1665 856.049 482.351
2543 0 81.1951 13.7939 1120 96.7473 856.227 480.419
2544 0 80.3091 12.5889 1011 100.718 856.653 480.193
2545 0 85.3846 14.5342 1241 96.772 856.679 478.416
2546 0 86.4283 13.2595 1146 99.4459 856.941 479.532
2547 0 90.4485 13.7979 1248 99.4447 857.07 475.228
2548 0 93.422 14.1401 1321 98.9122 857.004 473.55
2549 0 94.5033 12.9942 1228 102.888 857.424 466.339
2550 0 99.6295 14.1524 1410 100.537 856.96 466.992
2551 0 99.1033 12.7746 1266 101.671 855.795 465.161
2552 0 102.126 13.777 1407 99.8621 856.707 459.94
2553 0 104.289 13.079 1364 101.949 857.188 457.437
2554 0 106.374 12.6347 1344 103.638 856.979 454.696
2555 0 110.454 13.8248 1527 100.887 856.629 454.856
2556 0 111.223 12.3805 1377 105.464 857.904 449.897
2557 0 115.26 13.2136 1523 103.916 856.827 449.812
2558 0 118.14 11.8165 1396 106.877 857.151 447.47
2559 0 125.283 13.0904 1640 104.345 856.701 446.508
2560 1 65.178 9.29762 606 105.005 856.102 471.853
2561 0 72.1174 11.1624 805 102.309 856.888 474.774
2562 0 76.0902 11.5521 879 101.545 857.163 478.586
2563 0 77.1964 12.4488 961 98.051 856.663 482.221
2564 0 80.0652 11.5031 921 100.315 856.27 476.648
2565 0 80.0654 11.3033 905 101.86 856.736 476.169
2566 0 84.1102 11.4612 964 101.516 856.186 472.475
2567 0 88.0537 12.3675 1089 100.076 856.22 473.186
2568 0 90.2053 14.6222 1319 97.5936 856.582 470.916
2569 0 91.153 11.0035 1003 104.305 856.443 469.849
2570 0 93.2564 12.4388 1160 102.522 855.835 466.016
2571 0 95.1058 11.9551 1137 103.625 856.222 464.713
2572 0 99.2004 12.6713 1257 101.622 856.838 463.721
2573 0 101.207 13.4477 1361 101.976 856.024 458.728
2574 0 103.16 13.1835 1360 102.038 856.157 457.269
2575 0 104.196 11.2288 1170 105.62 856.426 457.21
2576 0 108.325 13.2102 1431 100.392 856.673 454.275
2577 0 113.173 13.0862 1481 100.74 856.731 450.795
2578 0 118.203 13.6037 1608 100.141 856.139 450.261
2579 0 121.299 13.1493 1595 100.544 856.485 449.098
2580 0 129.665 13.1647 1707 99.6954 857.262 447.156
2581 1 72.322 11.2829 816 98.1029 856.205 475.385
2582 0 76.1618 13.3006 1013 95.3781 856.464 476.907
2583 0 74.226 12.3542 917 99.5169 856.812 469.725
2584 0 79.3004 12.8373 1018 97.2603 857.257 472.676
2585 0 82.3244 13.7869 1135 96.3057 856.166 472.611
2586 0 86.478 12.6853 1097 97.0219 855.743 475.624
2587 0 88.3159 13.7688 1216 96.2911 855.287 473.541
2588 0 91.3226 14.3557 1311 96.1198 856.247 471.153
2589 0 92.2636 14.0792 1299 98.5943 856.562 469.176
2590 0 95.2319 14.2914 1361 99.8406 856.763 465.649
2591 0 99.5418 13.4617 1340 101.88 856.568 465.351
2592 0 100.736 14.3344 1444 101.608 856.37 459.97
2593 0 107.369 14.8181 1591 100.216 856.536 461.987
2594 0 108.438 14.5153 1574 101.972 857.044 460.792
2595 0 111.47 14.9906 1671 103.148 856.788 457.988
2596 0 113.409 14.3287 1625 105.977 856.463 455.919
2597 1 63.3533 12.4066 786 104.735 857.038 483.084
2598 0 64.2991 13.4061 862 104.548 856.593 481.196
2599 0 65.2053 13.8332 902 104.328 857.095 480.487
2600 0 68.0415 13.5065 919 104.052 855.947 479.039
2601 0 70.1374 13.0316 914 104.915 856.815 481.528
2602 0 73.1065 13.5556 991 105.25 857.132 480.661
2603 0 75.2631 14.1504 1065 104.687 856.892 477.353
2604 0 77.165 14.0737 1086 105.322 857.107 475.337
2605 0 81.3248 14.4605 1176 105.306 856.968 471.878
2606 0 82.4695 13.896 1146 107.873 857.048 473.209
2607 0 85.3752 14.4773 1236 107.786 857.242 469.582
2608 0 88.3838 13.4753 1191 110.479 857.29 470.518
2609 0 90.4236 15.4384 1396 107.297 857.22 467.568
2610 0 92.3982 14.3076 1322 111.159 856.948 464.356
2611 0 96.6247 14.1579 1368 111.807 857.106 464.159
2612 0 96.3218 13.5691 1307 114.3 857.177 462.051
2613 0 101.265 13.2129 1338 114.679 856.907 462.17
2614 0 104.305 13.5563 1414 113.972 857.248 461.85
2615 0 106.539 14.68 1564 113.129 857.689 460.022
2616 0 112.376 15.2523 1714 112.354 858.358 456.773
2617 0 113.425 14.3002 1622 116.326 857.411 457.311
2618 0 118.342 13.5708 1606 116.415 857.748 460.192
2619 0 119.231 14.1994 1693 117.928 857.457 453.795
2620 0 124.455 14.1015 1755 119.141 857.211 448.027
2621 0 126.29 14.0549 1775 120.543 856.448 448.775
2622 0 132.377 14.421 1909 119.515 856.663 447.107
2623 0 137.335 14.9999 2060 118.494 856.899 445.246
2624 0 140.318 14.5598 2043 120.997 856.319 440.718
2625 0 147.345 14.1776 2089 120.967 856.556 438.525
2626 0 153.422 12.8991 1979 122.505 856.439 440.945
2627 0 155.257 13.7385 2133 122.016 855.856 434.419
2628 1 88.1228 12.4145 1094 115.939 857.45 471.783
2629 0 89.2386 12.5618 1121 117.134 857.825 468.589
2630 0 93.18 11.0539 1030 120.066 858.292 466.864
2631 0 97.2118 11.4801 1116 119.457 857.609 464.546
2632 0 98.3494 12.3132 1211 118.792 857.312 461.441
2633 0 101.424 11.1314 1129 121.57 857.756 462.067
2634 0 102.299 13.1673 1347 118.164 857.037 461.442
2635 0 106.312 12.1717 1294 119.127 857.214 460.321
2636 0 110.246 12.0186 1325 120.383 856.695 456.815
2637 0 114.277 12.4435 1422 119.784 856.153 458.526
2638 0 121.382 12.3412 1498 119.416 857.35 455.353
2639 0 123.225 13.1792 1624 118.175 856.904 454.188
2640 0 130.188 13.1195 1708 118.841 856.652 449.613
2641 0 136.355 12.4528 1698 120.287 857.422 447.224
2642 0 136.266 11.8225 1611 122.229 857.217 443.948
2643 0 146.292 12.3794 1811 120.047 857.141 441.338
2644 0 152.31 12.468 1899 120.242 856.474 440.047
2645 0 158.381 11.7881 1867 121.979 856.417 436.528
2646 0 165.44 13.866 2294 115.867 855.943 439.097
2647 0 171.339 14.7485 2527 114.965 855.717 433.597
2648 0 176.396 12.5456 2213 119.365 855.384 430.503
2649 0 181.352 12.4068 2250 120.292 855.547 427.349
2650 0 186.46 12.984 2421 120.311 854.822 423.446
2651 0 188.344 12.5303 2360 123.203 855.255 420.359
2652 0 194.397 13.1998 2566 123.228 855.026 411.409
2653 0 202.367 11.9486 2418 120.318 855.052 409.672
2654 0 213.573 13.1337 2805 112.922 856.203 412.517
2655 1 94.124 10.1781 958 99.2296 856.553 476.088
2656 0 100.225 12.9009 1293 98.4432 857.862 474.705
2657 0 103.212 12.7213 1313 98.2041 857.269 476.695
2658 0 104.129 10.7751 1122 102.493 856.373 473.586
2659 0 108.221 10.802 1169 102.539 856.929 471.467
2660 0 119.264 16.2916 1943 90.0108 856.792 465.336
2661 0 124.248 14.0364 1744 93.5034 856.749 459.847
2662 0 123.321 13.7041 1690 95.4964 856.512 461.489
2663 1 142.568 20.3972 2908 77.238 856.34 445.974
2664 1 60.0828 11.0847 666 92.5285 857.844 495.258
2665 0 61.3389 9.92844 609 98.092 854.532 485.887
2666 0 64.2239 12.7055 816 92.6103 853.414 487.485
2667 0 65.0896 11.3843 741 95.9312 853.381 490.101
2668 0 67.1062 11.6532 782 96.4923 853.008 490.51
2669 0 70.1954 12.2088 857 95.2544 853.565 488.746
2670 0 71.0902 12.9132 918 94.2037 853.838 487.988
2671 0 72.3732 12.173 881 96.8411 853.846 487.717
2672 0 76.1883 13.2566 1010 99.8347 853.425 486.167
2673 0 78.5246 12.0981 950 102.379 853.124 484.891
2674 0 79.3419 12.7045 1008 103.385 852.887 483.805
2675 0 81.2522 13.7596 1118 101.134 853.833 482.508
2676 0 84.29 12.3384 1040 104.223 853.963 483.732
2677 0 84.3612 11.7116 988 106.645 853.194 482.411
2678 0 89.2356 13.4027 1196 103.138 853.871 480.055
2679 0 91.2669 14.7589 1347 101.019 854.383 479.425
2680 0 90.3209 12.7324 1150 108.647 854.317 477.197
2681 0 94.4604 13.3072 1257 107.787 854.153 476.445
2682 0 98.4291 11.8562 1167 110.055 854.929 476.147
2683 0 103.573 14.5211 1504 104.396 855.297 475.241
2684 0 102.479 12.7246 1304 110.896 854.885 470.776
2685 0 106.615 12.2966 1311 112.413 855.198 468.445
2686 0 111.513 13.7563 1534 108.785 854.746 466.813
2687 1 62.2871 12.0089 748 105.346 854.774 493.706
2688 0 64.2332 12.5947 809 102.546 854.21 491.18
2689 0 66.1584 11.1853 740 98.0216 853.891 491.111
2690 0 66.0307 10.4951 693 100.483 854.366 494.395
2691 0 68.2816 10.8814 743 100.24 856.981 490.945
2692 0 69.2185 10.8353 750 100.924 857.499 490.235
2693 0 72.313 11.0354 798 100.49 856.548 490.536
2694 0 72.1616 12.4859 901 99.7636 857.104 488.923
2695 0 74.2011 11.5497 857 101.841 856.954 487.529
2696 0 76.1743 11.0536 842 102.245 856.198 487.651
2697 0 80.3052 12.8634 1033 99.6021 856.583 486.919
2698 0 83.2643 12.2501 1020 100.912 856.666 484.057
2699 0 85.2897 11.7716 1004 102.889 857.031 482.903
2700 0 88.327 11.7744 1040 102.572 856.436 484.72
2701 0 90.2543 12.5423 1132 103.605 856.232 478.741
2702 0 94.2736 13.3123 1255 102.389 856.517 478.959
2703 0 96.2187 12.43 1196 104.539 856.749 478.347
2704 0 98.2609 13.1385 1291 103.231 856.395 478.386
2705 0 102.416 13.3768 1370 103.509 856.385 475.084
2706 0 105.327 12.9121 1360 104.262 855.846 472.757
2707 0 108.33 13.9389 1510 103.065 855.853 472.148
2708 0 111.25 12.6382 1406 106.749 855.525 467.883
2709 0 114.321 13.567 1551 105.62 855.711 467.716
2710 0 116.164 13.2055 1534 106.216 855.294 465.335
2711 0 119.272 12.7272 1518 106.792 855.794 463.111
2712 0 120.32 11.3946 1371 111.035 856.33 461.131
2713 1 72.2192 11.0912 801 99.5006 857.302 488.446
2714 0 74.0697 10.6926 792 99.5139 857.333 485.308
2715 0 76.0933 10.6317 809 101.439 856.093 483.262
2716 0 78.1459 12.1951 953 100.978 856.611 484.788
2717 0 80.1175 12.2695 983 100.528 857.715 482.843
2718 0 83.2289 11.21 933 100.896 857.433 484.483
2719 0 86.1626 11.8613 1022 100.086 857.934 480.547
2720 0 88.2431 12.4429 1098 96.7887 857.838 478.413
2721 0 90.2545 11.3568 1025 98.7502 857.586 476.451
2722 0 95.1839 11.6196 1106 99.8644 857.674 473.76
2723 0 99.1175 13.3982 1328 97.3261 857.896 471.166
2724 0 100.42 11.2727 1132 100.779 857.334 472.529
2725 0 101.368 11.1475 1130 103.477 857.64 465.34
2726 0 107.275 12.4819 1339 101.641 857.557 467.863
2727 0 108.28 12.8279 1389 102.091 857.628 463.897
2728 0 113.339 12.1582 1378 102.512 858.129 463.89
2729 0 115.503 12.043 1391 103.65 857.139 461.232
2730 0 119.458 13.0004 1553 102.176 857.218 460.884
2731 0 121.633 12.957 1576 103.718 857.494 456.92
2732 0 126.518 14.3616 1817 101.107 857.401 455.016
2733 0 129.53 12.4759 1616 105.527 856.79 452.033
2734 0 133.398 14.1606 1889 102.507 857.095 450.445
2735 0 138.618 13.346 1850 104.224 856.836 448.971
2736 0 141.485 12.7434 1803 105.927 856.885 447.735
2737 0 145.615 13.2404 1928 105.238 857.2 447.528
2738 0 150.446 13.7059 2062 105.404 857.006 443.759
2739 0 156.502 14.249 2230 104.919 857.217 440.685
2740 0 162.486 14.5059 2357 104.777 857.865 436.963
2741 0 166.495 14.4449 2405 106.086 857.871 436.49
2742 1 91.4575 12.3445 1129 100.042 857.648 471.662
2743 0 95.4342 10.6775 1019 102.088 858.144 472.866
2744 0 101.197 12.6189 1277 100.698 858.951 471.926
2745 0 104.279 12.1501 1267 102.328 858.596 469.411
2746 0 107.285 12.9095 1385 102.919 858.985 468.658
2747 0 110.427 12.9316 1428 103.101 858.115 467.197
2748 0 115.388 14.2303 1642 100.952 858.303 466.278
2749 0 116.426 12.4628 1451 105.139 857.309 462.476
2750 0 119.474 11.9189 1424 106.784 857.474 458.562
2751 0 124.45 12.6717 1577 104.165 857.66 460.257
2752 0 131.453 14.857 1953 99.3349 858.638 457.855
2753 0 134.488 12.4472 1674 104.744 858.418 455.597
2754 0 138.55 13.7712 1908 103.245 858.197 449.23
2755 0 144.449 14.9049 2153 101.505 858.478 450.487
2756 1 79.1576 12.4688 987 102.022 858.228 481.82
2757 0 82.3062 12.8666 1059 102.351 857.561 479.457
2758 0 84.1632 14.1867 1194 98.995 855.513 481.1
2759 0 85.1134 12.6185 1074 102.068 856.161 479.325
2760 0 90.1216 13.5817 1224 99.8783 855.548 480.204
2761 0 94.1811 13.6439 1285 100.198 855.736 477.577
2762 0 95.1744 14.2265 1354 100.597 856.342 475.725
2763 0 97.3126 14.1605 1378 101.361 855.893 475.795
2764 0 100.159 14.6466 1467 100.956 856.001 474.721
2765 0 101.182 11.761 1190 108.344 856.169 470.82
2766 0 106.372 13.8288 1471 103.706 856.256 471.67
2767 0 108.353 13.3084 1442 104.958 856.378 467.657
2768 0 111.274 13.4803 1500 105.458 856.389 468.711
2769 0 113.264 13.9851 1584 104.693 856.569 464.765
2770 0 115.226 14.1462 1630 105.803 856.605 463.048
2771 0 118.2 13.1642 1556 107.938 856.398 458.863
2772 0 124.228 13.6764 1699 107.21 856.296 458.19
2773 0 128.323 14.2843 1833 105.838 856.647 456.213
2774 0 135.426 13.7566 1863 105.169 856.416 455.556
2775 0 136.377 13.9026 1896 104.654 856.524 455.627
2776 0 144.329 14.6956 2121 105.028 856.864 448.884
2777 0 149.489 13.098 1958 106.645 857.632 449.297
2778 1 85.4466 9.79559 837 99.4815 856.453 474.849
2779 0 84.2859 11.4017 961 97.206 856.434 474.018
2780 0 91.5802 11.8694 1087 95.0672 856.6 472.126
2781 0 93.4454 13.7192 1282 92.4399 856.693 471.681
2782 0 94.3626 11.9433 1127 96.4437 856.245 468.503
2783 0 96.4242 9.94564 959 100.209 855.533 467.926
2784 0 99.5108 11.245 1119 98.3137 855.664 464.018
2785 0 103.437 13.2737 1373 95.0226 856.042 461.913
2786 0 108.548 11.6262 1262 98.393 855.85 461.281
2787 0 112.641 13.8671 1562 93.4136 856.007 463.181
2788 0 115.445 12.3002 1420 96.6021 855.974 459.966
2789 0 118.452 12.4017 1469 98.0449 856.285 458.692
2790 0 120.331 13.0972 1576 97.2157 856.606 455.875
2791 0 127.388 14.0045 1784 95.0706 856.089 458.302
2792 0 130.498 14.2607 1861 94.7829 856.126 455.819
2793 0 134.354 12.4373 1671 98.921 856.118 449.47
2794 0 138.32 12.0156 1662 100.448 856.27 446.11
2795 0 146.431 13.8495 2028 96.5538 856.474 447.227
2796 1 76.3801 10.1335 774 95.8333 857.262 477.008
2797 0 85.211 13.8597 1181 95.8882 855.528 479.83
2798 0 90.1522 13.0557 1177 92.8207 854.944 478.84
2799 0 91.1125 11.3596 1035 96.6319 855.719 476.919
2800 0 94.1591 13.063 1230 93.3829 856.18 477.301
2801 0 97.1659 13.4821 1310 94.2389 856.121 474.221
2802 0 100.196 12.9546 1298 95.9284 855.869 473.586
2803 0 104.2 15.1919 1583 92.5016 855.706 471.296
2804 0 106.251 12.4987 1328 98.1792 856.152 469.797
2805 0 109.11 13.6652 1491 96.8746 856.109 466.864
2806 0 112.413 13.8596 1558 96.9968 856.136 465.556
2807 0 115.243 14.7168 1696 97.3213 855.808 464.396
2808 0 119.186 13.6845 1631 103.557 855.667 462.319
2809 0 121.367 11.6342 1412 106.496 856.167 463.194
2810 0 127.328 12.244 1559 104.151 855.553 463.235
2811 0 132.481 12.9452 1715 103.582 856.435 458.25
2812 1 78.1952 12.2386 957 97.0063 856.304 485.958
2813 0 81.1748 11.2966 917 99.8637 858.183 480.865
2814 0 83.2938 11.9817 998 98.8497 856.954 477.732
2815 0 84.3968 13.1522 1110 96.0432 855.055 483.249
2816 0 85.2171 11.2184 956 99.6339 854.877 480.236
2817 0 89.3318 12.3024 1099 98.1347 854.933 478.186
2818 0 93.4372 11.9332 1115 98.8556 854.966 477.636
2819 0 95.29 11.9215 1136 99.9666 855.338 474.404
2820 0 100.241 13.3479 1338 97.6286 854.633 472.541
2821 0 102.327 12.7533 1305 98.1678 855.553 474.602
2822 0 107.189 13.1917 1414 98.2702 855.137 472.498
2823 0 110.271 12.6416 1394 99.4376 854.782 471.199
2824 0 113.316 13.8904 1574 98.3475 855.016 470.619
2825 0 117.322 13.578 1593 98.5505 854.552 466.298
2826 0 119.416 12.9045 1541 100.519 854.98 465.894
2827 0 123.492 12.5434 1549 102.429 855.615 459.828
2828 0 125.462 11.4218 1433 104.365 855.409 459.339
2829 0 132.421 12.7019 1682 103.228 855.386 456.381
2830 1 75.2275 10.8737 818 95.4413 855.253 487.57
2831 0 78.3702 12.0837 947 93.6737 855 484.617
2832 0 80.3826 11.6194 934 95.1842 854.215 483.489
2833 0 82.1928 11.7528 966 96.5135 854.613 482.235
2834 0 86.1843 12.6125 1087 95.1573 854.37 481.686
2835 0 87.2858 12.0294 1050 96.6952 854.754 479.417
2836 0 89.1799 11.8076 1053 98.2944 855.184 477.859
2837 0 92.2546 12.8557 1186 96.5244 854.899 476.676
2838 0 95.3237 12.2635 1169 97.1052 855.242 477.962
2839 0 97.1866 12.2136 1187 98.5021 854.971 475.459
2840 0 101.18 11.5636 1170 100.719 855.456 472.438
2841 0 105.312 12.8855 1357 97.9425 855.393 471.518
2842 0 107.257 12.6146 1353 99.3112 855.515 471.392
2843 0 109.391 13.0541 1428 99.4748 856.293 464.922
2844 0 111.296 11.9771 1333 102.016 855.661 458.871
2845 0 118.41 13.2083 1564 98.6208 856.065 460.816
2846 0 122.392 14.1431 1731 97.0433 856.254 452.518
2847 0 123.304 12.4165 1531 100.31 856.351 454.542
2848 0 129.336 11.8374 1531 99.7035 856.477 453.892
2849 0 133.729 11.4411 1530 99.3673 856.563 454.546
2850 0 140.43 13.4729 1892 96.5032 856.215 449.738
2851 0 144.555 12.4174 1795 98.3493 856.567 447.004
2852 0 149.522 10.9415 1636 100.934 856.18 442.25
2853 0 154.535 11.0719 1711 100.396 855.914 444.083
2854 1 89.4444 11.359 1016 92.249 856.504 475.95
2855 0 91.2598 11.67 1065 94.539 856.846 475.742
2856 0 96.2793 13.5232 1302 91.1674 854.436 476.733
2857 0 99.2785 14.2629 1416 89.2246 854.475 477.14
2858 0 100.204 12.4846 1251 94.2646 854.299 472.091
2859 0 103.327 12.1942 1260 95.1317 854.632 475.369
2860 0 105.253 11.8476 1247 96.8027 854.973 472.53
2861 0 108.34 12.71 1377 95.9463 854.556 470.498
2862 0 111.685 12.7053 1419 97.5102 854.552 466.921
2863 0 117.376 13.6144 1598 95.6884 855.071 467.009
2864 0 119.309 13.6034 1623 96.2101 854.846 464.594
2865 0 123.255 11.7723 1451 101.231 853.744 461.886
2866 0 123.351 11.6984 1443 102.265 853.863 459.974
2867 0 129.179 12.3317 1593 101.643 853.816 455.524
2868 0 135.411 12.7833 1731 100.473 853.97 456.22
2869 0 139.326 11.7566 1638 102.49 855.363 451.662
2870 1 64.106 8.09597 519 102.859 856.464 471.408
2871 0 81.188 10.1 820 95.3207 856.484 474.06
2872 0 83.1579 10.3177 858 97.1142 856.235 474.707
2873 0 85.1439 10.4646 891 97.7879 856.25 469.905
2874 0 91.1298 10.3588 944 96.8729 856.559 472.736
2875 0 91.1119 10.9755 1000 96.321 856.833 471.839
2876 0 92.2697 9.27715 856 101.433 856.28 462.168
2877 0 96.2617 10.1806 980 100.727 856.828 466.966
2878 0 102.232 11.1316 1138 92.6098 855.761 469.14
2879 0 103.344 9.98608 1032 96.5242 855.728 464.648
2880 0 108.422 11.7135 1270 94.3772 855.464 465.116
2881 0 108.321 10.5981 1148 97.2221 855.018 463.638
2882 0 109.408 9.15836 1002 101.366 854.57 457.434
2883 0 108.352 9.95832 1079 101.815 854.558 454.028
2884 0 118.524 11.6011 1375 98.9658 855.68 454.502
2885 0 122.139 11.8963 1453 99.2333 856.312 465.279
2886 0 129.369 11.8035 1527 99.0046 856.866 460.752
2887 0 133.513 11.4071 1523 101.085 856.646 452.928
2888 0 137.252 12.2548 1682 100.587 856.878 454.188
2889 0 139.333 11.4115 1590 104.845 856.6 449.303
2890 1 80.2904 10.0012 803 97.863 854.474 477.943
2891 0 78.1896 12.0221 940 94.6521 856.4 478.042
2892 0 74.132 10.9264 810 97.1198 856.87 474.004
2893 0 78.2673 11.3074 885 97.1006 856.461 472.954
2894 0 85.3183 10.5253 898 97.4432 856.059 473.19
2895 0 87.4452 12.5793 1100 94.4945 855.953 474.403
2896 0 87.3147 10.6053 926 101.236 856.194 465.594
2897 0 93.3484 12.5123 1168 97.7783 855.561 467.254
2898 0 96.398 10.7264 1034 102.952 855.767 466.692
2899 0 96.247 11.8965 1145 103.243 855.564 461.932
2900 0 102.455 11.8393 1213 105.392 855.462 463.599
2901 0 106.34 12.1967 1297 104.673 855.349 461.662
2902 0 108.266 12.1645 1317 106.59 855.865 457.455
2903 0 112.417 12.8718 1447 104.192 855.335 458.482
2904 0 113.242 10.9324 1238 109.935 855.8 452.193
2905 0 117.438 11.5039 1351 108.081 855.375 451.143
2906 0 116.206 11.2129 1303 110.298 855.134 447.041
2907 0 127.398 11.9939 1528 109.018 855.732 456.505
2908 0 130.324 12.3539 1610 109.527 856.166 448.499
2909 0 136.415 13.4369 1833 109.414 855.436 453.747
2910 0 140.501 13.7579 1933 106.349 856.016 448.033
2911 0 141.372 11.7492 1661 110.595 856.324 447.281
2912 0 150.349 13.0497 1962 107.346 855.839 444.876
2913 0 151.312 10.931 1654 113.785 855.208 430.69
2914 1 89.2947 9.78782 874 99.7197 855.834 474.817
2915 0 91.3436 11.3746 1039 97.4909 856.326 473.951
2916 0 93.281 9.86267 920 98.3239 856.186 468.897
2917 0 94.3353 8.42739 795 101.599 856.504 464.497
2918 0 98.396 10.8744 1070 97.0252 856.908 466.824
2919 0 100.362 8.83801 887 101.568 856.138 458.053
2920 0 106.46 10.7458 1144 97.382 855.921 465.487
2921 0 110.477 11.3146 1250 98.0712 855.592 461.442
2922 0 110.495 10.1814 1125 102.057 855.646 458.337
2923 0 112.339 10.3526 1163 103.39 855.274 450.623
2924 0 117.385 10.7169 1258 101.728 856.059 457.807
2925 1 8.00135 6.87384 55 77.2545 859.691 509.073
2926 0 9.00074 3.88857 35 77.6 859.629 512.057
2927 0 9.00082 5.99945 54 76.7407 858.648 510.611
2928 0 12.0113 4.99532 60 78.95 858.783 509.9
2929 0 12.0031 5.08201 61 77.6066 859.41 511.672
2930 1 77.1006 10.9727 846 91.1371 856.648 477.773
2931 0 80.1799 10.3268 828 90.9891 856.658 476.121
2932 0 81.2917 9.01691 733 92.6753 855.959 475.844
2933 0 84.4776 10.0974 853 90.2263 856.079 476.88
2934 0 86.2952 9.21257 795 92.9987 855.79 471.494
2935 0 86.2374 7.75765 669 95.8266 855.474 467.567
2936 0 92.1834 8.94955 825 93.2545 856.188 470.217
2937 0 95.2021 10.483 998 91.8597 855.544 468.812
2938 0 97.3353 11.6094 1130 90.7947 856.029 466.758
2939 0 98.2897 9.06504 891 94.0438 855.653 466.519
2940 0 102.33 9.69413 992 92.8417 855.621 467.983
2941 0 104.253 9.80312 1022 94.089 855.022 459.668
2942 0 109.457 11.7671 1288 90.125 855.825 460.331
2943 0 114.273 11.6126 1327 89.8425 855.834 461.935
2944 0 117.36 12.6278 1482 87.948 856.132 460.773
2945 0 118.315 12.602 1491 89.3011 856.457 454.642
2946 0 123.428 8.23152 1016 95.1594 856.549 454.98
2947 0 127.581 11.1615 1424 91.2416 856.421 452.673
2948 0 135.461 12.1806 1650 89.0788 855.953 449.719
2949 0 137.388 12.3155 1692 89.5065 855.561 448.735
2950 1 57.16 11.2841 645 81.276 856.749 493.127
2951 0 58.4897 8.39464 491 82.1079 855.037 487.472
2952 0 58.5506 11.1015 650 78.7662 855.463 490.277
2953 0 63.5144 11.336 720 79.1542 855.104 487.908
2954 0 61.4317 8.00889 492 86.0569 854.835 483.569
2955 0 63.3048 10.8681 688 81.4201 855.046 487.206
2956 0 65.3454 9.97776 652 83.3374 854.403 480.951
2957 0 69.263 11.4491 793 81.2938 854.941 484.042
2958 0 72.384 11.3699 823 82.113 854.441 482.77
2959 0 73.4385 9.96753 732 85.9399 854.73 478.691
2960 0 76.3032 11.166 852 84.3063 855.119 480.638
2961 0 78.2784 12.1873 954 83.5189 855.959 480.694
2962 0 81.246 11.5329 937 84.4205 855.847 482.047
2963 0 82.259 11.6948 962 82.685 856.403 479.622
2964 0 83.3579 9.58517 799 86.4393 855.921 476.588
2965 0 85.2764 10.9761 936 84.782 855.95 476.877
2966 0 88.4003 9.60404 849 87.1449 855.819 472.026
2967 0 90.2989 10.3434 934 87.0246 855.404 469.247
2968 0 95.349 12.0505 1149 83.2916 855.064 472.037
2969 0 99.1893 11.1806 1109 86.6312 856.283 474.752
2970 1 58.199 10.1892 593 85.7605 856.978 494.071
2971 0 58.3184 9.53387 556 87.7266 856.836 493.772
2972 0 61.0951 9.73891 595 88.0487 858.044 491.703
2973 0 63.1027 9.99958 631 86.7147 858.355 493.834
2974 0 64.0554 11.0061 705 86.7291 858.055 489.461
2975 0 67.1377 11.037 741 86.4669 857.395 490.511
2976 0 69.0487 11.0357 762 86.8018 857.605 490.19
2977 0 72.0965 11.3598 819 87.1685 857.348 487.242
2978 0 70.0905 9.3736 657 91.4597 857.855 486.97
2979 0 74.1183 10.7936 800 89.7012 857.771 487.226
2980 0 75.0743 9.60382 721 92.0846 857.319 486.637
2981 0 77.0907 12.2453 944 88.9968 857.482 482.602
2982 0 81.1665 11.9384 969 89.5862 857.217 482.685
2983 0 84.071 12.8582 1081 88.5948 856.602 480.897
2984 0 87.1532 11.7724 1026 90.3918 857.064 483.552
2985 0 90.1129 13.4387 1211 87.8117 857.202 482.443
2986 0 91.1137 11.9302 1087 91.6679 856.322 478.073
2987 0 94.3044 11.3781 1073 93.0447 856.271 477.699
2988 0 96.1935 12.9219 1243 91.5792 855.401 472.13
2989 0 101.173 12.8888 1304 92.1112 855.864 474.023
2990 0 102.153 13.0588 1334 92.9895 856.227 472.795
2991 0 106.222 12.5775 1336 94.4349 855.787 469.357
2992 0 107.241 12.3274 1322 95.0628 856.036 468.315
2993 0 112.263 12.9696 1456 95.6271 855.605 466.399
2994 0 114.289 13.8071 1578 96.7972 854.83 463.726
2995 0 119.384 14.5078 1732 97.4446 854.686 464.303
2996 0 122.63 13.2676 1627 100.675 854.077 457.449
2997 0 126.477 13.5123 1709 100.126 854.344 459.64
2998 0 131.594 13.5796 1787 100.699 853.792 456.506
2999 1 74.2558 12.0799 897 96.621 854.424 484.184
3000 0 76.2503 12.918 985 98.9563 854.304 486.016
3001 0 81.1632 13.1217 1065 99.0685 853.629 485.228
3002 0 81.1542 13.8872 1127 97.0452 853.101 485.842
3003 0 83.1842 13.2718 1104 98.4203 853.016 487.775
3004 0 85.1298 13.7672 1172 98.3515 852.91 485.537
3005 0 87.2394 12.4829 1089 101.714 853.445 484.209
3006 0 91.2187 15.3039 1396 96.2178 854.102 481.153
3007 0 92.248 13.0626 1205 101.336 853.744 480.051
3008 0 98.2343 14.3433 1409 98.6373 854.045 478.476
3009 0 100.267 14.2918 1433 99.6106 853.285 477.502
3010 0 102.305 14.017 1434 100.586 853.53 477.549
3011 0 104.493 13.7043 1432 102.078 854.326 476.758
3012 0 108.588 13.9979 1520 102.377 854.21 470.193
3013 0 111.494 14.0097 1562 102.74 854.807 469.189
3014 0 115.374 14.57 1681 101.171 854.993 469.021
3015 0 117.573 13.3534 1570 105.336 855.085 466.955
3016 0 123.583 13.7883 1704 102.934 855.013 466.17
3017 0 123.457 14.0372 1733 100.513 854.609 455.022
3018 0 130.758 13.9265 1821 101.079 854.854 456.44
3019 0 132.693 12.7889 1697 103.946 854.763 452.783
3020 0 138.679 13.5564 1880 103.03 855.022 449.979
3021 1 74.346 10.6798 794 107.602 854.418 480.286
3022 0 82.5356 13.9334 1150 102.53 855.354 483.537
3023 0 82.4985 13.4184 1107 104.034 854.813 480.301
3024 0 85.435 13.1679 1125 104.572 855.164 481.424
3025 0 88.3727 13.6807 1209 103.562 854.173 481.735
3026 0 91.5068 13.999 1281 103.396 854.411 478.077
3027 0 92.5438 14.015 1297 104.731 854.383 475.439
3028 0 96.6082 14.2638 1378 103.917 854.666 476.419
3029 0 98.4872 14.1643 1395 104.892 854.018 472.761
3030 0 101.673 14.1728 1441 105.517 854.451 471.643
3031 0 103.505 13.6321 1411 107.475 854.359 471.011
3032 0 108.445 15.2427 1653 103.16 854.433 470.727
3033 0 109.405 13.2078 1445 108.664 854.396 470.641
3034 0 113.464 15.4674 1755 104.317 854.743 465.845
3035 0 115.503 14.3806 1661 107.264 854.97 466.189
3036 0 119.412 15.3418 1832 106.416 855.166 465.031
3037 0 125.441 15.027 1885 107.529 854.891 465.628
3038 0 129.277 14.991 1938 107.173 855.099 463.311
3039 0 132.434 13.7729 1824 110.743 854.889 459.141
3040 0 136.507 13.5378 1848 112.094 855.444 458.903
3041 0 140.478 16.0808 2259 106.594 855.115 458.049
3042 0 145.448 15.1807 2208 109.7 855.595 455.768
3043 0 149.643 15.0558 2253 111.794 855.52 451.521
3044 0 154.445 13.8172 2134 115.732 855.38 449.452
3045 0 158.594 14.4899 2298 115.329 855.037 445.268
3046 0 164.604 14.7627 2430 111.282 854.877 436.109
3047 0 169.509 15.3207 2597 108.641 855.07 434.498
3048 0 171.447 14.6168 2506 109.678 855.711 442.08
3049 0 174.464 14.8168 2585 112.99 855.384 439.071
3050 0 175.472 14.7032 2580 105.748 855.743 440.002
3051 0 176.402 13.3729 2359 117.153 856.829 438.673
3052 0 179.516 15.1017 2711 113.79 855.694 438.054
3053 1 135.594 12.1245 1644 118.608 855.482 457.105
3054 0 139.542 13.573 1894 117.417 856.444 453.013
3055 0 141.346 12.8762 1820 118.934 856.38 453.642
3056 0 146.354 14.6699 2147 113.658 856.505 451.58
3057 0 151.546 12.6562 1918 116.296 856.477 450.983
3058 0 156.458 13.7226 2147 112.786 856.1 447.839
3059 0 160.703 12.1653 1955 116.824 856.374 440.684
3060 0 168.676 14.7205 2483 110.493 856.319 439.431
3061 0 173.86 14.178 2465 111.503 856.095 436.976
3062 0 178.742 14.0873 2518 112.639 856.23 431.975
3063 0 181.834 12.7644 2321 115.967 855.94 431.397
3064 0 187.583 13.8712 2602 114.6 856.232 429.9
3065 0 193.505 13.4984 2612 115.91 855.883 427.938
3066 0 198.69 14.1728 2816 115.891 856.401 424.863
3067 0 203.648 12.9488 2637 120.252 855.361 419.933
3068 0 208.457 13.2833 2769 121.241 855.724 418.451
3069 0 216.515 14.8812 3222 119.729 855.665 414.368
3070 0 223.537 15.3442 3430 119.198 855.548 415.723
3071 0 229.579 14.6398 3361 123.861 854.963 409.591
3072 1 58.1469 11.9869 697 115.644 856.96 493.389
3073 0 59.1687 11.2898 668 119.064 856.332 492.518
3074 0 61.2536 12.6686 776 118.388 855.865 493.938
3075 0 64.2509 13.3228 856 118.48 856.033 492.009
3076 0 65.253 13.1948 861 120.949 855.484 490.75
3077 0 66.2033 13.4737 892 120.999 855.35 491.044
3078 0 69.2628 12.763 884 124.293 854.459 490.595
3079 0 69.2073 13.3078 921 125.134 854.641 489.854
3080 0 72.2928 13.473 974 123.585 854.684 490.398
3081 0 74.2728 14.5814 1083 122.634 854.866 488.341
3082 0 77.2776 13.2898 1027 126.347 854.802 487.455
3083 0 79.3075 14.2231 1128 125.083 854.179 484.379
3084 0 79.4136 13.2093 1049 130.764 854.582 483.051
3085 0 83.2973 13.0016 1083 131.536 854.396 485.042
3086 0 87.2296 14.5937 1273 127.334 853.972 478.747
3087 0 87.1755 12.8018 1116 132.818 854.237 480.974
3088 0 92.3017 14.0626 1298 128.45 855.024 479.14
3089 0 95.2034 14.4533 1376 127.307 855.139 477.531
3090 0 97.3018 13.9257 1355 132.322 855.38 449.446
3091 0 99.3395 13.5294 1344 129.829 855.22 454.693
3092 0 105.278 14.7609 1554 125.138 855.682 462.21
3093 1 51.1575 12.0803 618 119.005 855.872 495.72
3094 0 51.2191 11.5777 593 120.013 856.342 495.199
3095 0 51.1332 13.5528 693 113.756 855.495 499.678
3096 0 55.2483 12.9959 718 116.17 855.41 481.074
3097 0 56.506 12.8482 726 91.3471 855.397 476.313
3098 0 57.3153 13.5217 775 114.849 855.427 475.666
3099 0 58.4665 12.9305 756 117.795 855.282 472.701
3100 0 59.3462 12.5366 744 118.113 855.016 473.233
3101 0 61.4506 13.7509 845 114.877 855.027 473.989
3102 0 64.4439 14.2294 917 112.642 854.943 475.505
3103 0 65.4367 13.0355 853 114.885 855.785 478.181
3104 0 67.3753 13.3729 901 113.382 855.306 477.949
3105 0 70.2903 13.0174 915 112.655 854.985 481.919
3106 0 72.4444 14.2178 1030 110.884 854.694 484.828
3107 0 73.2315 13.3822 980 113.294 855.629 484.122
3108 0 76.2016 13.7136 1045 112.366 855.185 483.02
3109 0 75.3194 13.0511 983 115.609 855.233 481.778
3110 0 78.4256 13.1335 1030 114.254 854.678 482.323
3111 0 79.2502 13.0851 1037 115.963 854.503 479.763
3112 0 81.243 12.4442 1011 116.552 854.91 481.687
3113 0 83.3054 14.0327 1169 114.558 854.645 476.542
3114 0 87.33 14.2105 1241 112.797 854.328 475.592
3115 0 89.5412 14.7083 1317 111.14 855.785 479.065
3116 0 90.3125 12.3017 1111 115.014 855.81 479.062
3117 0 93.0643 12.7224 1184 112.894 855.579 477.868
3118 0 97.1682 13.5744 1319 111.98 855.319 473.794
3119 0 100.406 13.2462 1330 113.2 856.014 473.417
3120 0 105.275 13.8305 1456 110.73 855.895 473.125
3121 0 106.418 14.3679 1529 110.09 855.954 471.947
3122 0 109.251 13.9953 1529 111.538 855.223 469.644
3123 0 115.287 13.41 1546 113.653 854.896 466.36
3124 1 65.0746 12.3243 802 112.097 856.262 490.01
3125 0 67.1847 13.2768 892 110.163 855.973 487.128
3126 0 70.2506 13.3237 936 106.403 856.232 488.848
3127 0 72.1098 13.2298 954 105.09 857.091 485.895
3128 0 73.1639 12.3968 907 107.095 856.944 484.025
3129 0 76.2093 13.2923 1013 105.356 854.96 484.645
3130 0 79.207 13.4836 1068 103.478 855.79 483.145
3131 0 79.1283 12.8778 1019 106.058 855.268 480.846
3132 0 82.1253 12.2374 1005 106.289 855.349 482.85
3133 0 83.2895 11.6942 974 106.914 857.077 480.677
3134 0 88.1693 12.51 1103 105.316 856.49 478.284
3135 0 88.3593 11.9738 1058 106.548 856.469 472.46
3136 0 92.2754 12.5927 1162 104.86 856.558 471.51
3137 0 95.3097 12.2128 1164 105.451 856.635 472.494
3138 0 97.2102 12.5913 1224 106.052 856.743 468.746
3139 0 100.466 13.4971 1356 105.184 856.661 468.192
3140 0 103.288 13.1187 1355 106.138 856.448 466.1
3141 0 105.24 11.6686 1228 110.146 856.467 466.055
3142 0 110.254 13.7047 1511 107.57 856.52 465.472
3143 0 112.22 12.8765 1445 110.026 856.635 460.582
3144 0 115.208 12.638 1456 110.195 856.796 463.136
3145 0 120.316 12.0765 1453 111.3 856.666 458.048
3146 0 126.565 14.7118 1862 109.236 856.802 456.661
3147 0 129.404 14.4895 1875 111.247 856.939 450.769
3148 0 135.255 13.53 1830 110.879 856.668 454.534
3149 1 20.0096 7.74628 155 88.0903 858.116 512.987
3150 0 18.007 6.66406 120 90.1333 858.75 513.808
3151 1 147.517 14.9745 2209 110.212 856.426 449.911
3152 0 153.558 15.3297 2354 109.883 856.831 444.598
3153 0 158.615 16.7261 2653 106.789 856.553 440.342
3154 0 161.756 15.6532 2532 109.948 856.665 437.005
3155 0 166.608 15.2274 2537 111.045 856.224 431.385
3156 0 167.507 14.3218 2399 112.27 856.123 434.098
3157 0 173.561 15.9252 2764 109.57 856.064 429.459
3158 0 177.857 14.3205 2547 114.508 855.839 427.249
3159 0 184.761 15.696 2900 111.673 855.269 424.511
3160 0 189.522 14.3993 2729 115.046 855.314 422.969
3161 0 194.533 14.6453 2849 114.863 855.564 419.263
3162 0 201.546 13.972 2816 117.064 855.434 412.606
3163 0 210.522 13.6328 2870 118.107 855.81 416.239
3164 0 216.609 15.401 3336 115.567 855.348 406.092
3165 0 224.548 15.0614 3382 117.292 855.856 406.608
3166 1 175.655 12.8832 2263 123.954 855.506 429.469
3167 0 182.649 14.4485 2639 121.158 855.805 424.39
3168 0 184.496 13.4529 2482 125.527 855.878 414.81
3169 0 192.431 14.4727 2785 119.617 855.33 421.551
3170 0 197.332 13.3076 2626 123.723 854.945 414.454
3171 0 205.568 13.7959 2836 123.073 855.029 413.621
3172 0 213.426 14.0236 2993 123.35 854.735 410.436
3173 0 218.328 13.7087 2993 125.438 854.485 408.872
3174 0 226.3 14.9094 3374 123.782 855.219 403.265
3175 0 234.272 14.274 3344 126.343 854.37 400.022
3176 0 241.656 14.2061 3433 127.068 855.138 392.92
3177 0 249.396 14.491 3614 125.261 855.583 393.895
3178 0 257.525 15.4276 3973 122.561 855.742 383.438
3179 0 260.837 14.0739 3671 131.051 855.273 375.734
3180 1 194.409 12.1034 2353 130.377 854.859 416.217
3181 0 201.594 13.5867 2739 127.319 854.7 410.236
3182 0 209.515 14.2281 2981 125.283 854.771 405.879
3183 0 217.33 15.3315 3332 121.276 855.212 410.951
3184 0 225.385 14.5795 3286 123.057 855.289 406.52
3185 0 234.499 16.2602 3813 118.852 855.466 394.761
3186 0 241.562 15.2673 3688 121.96 855.422 389.186
3187 0 243.714 13.8933 3386 126.008 855.501 396.939
3188 1 264.584 16.5505 4379 119.169 855.531 385.139
3189 0 269.595 16.2726 4387 121.491 854.865 384.228
3190 0 278.781 18.1289 5054 115.808 855.019 377.691
3191 0 286.548 17.5538 5030 119.033 855.656 371.934
3192 0 297.657 17.3959 5178 120.1 855.767 367.899
3193 1 232.36 12.8981 2997 127.971 855.822 409.946
3194 0 241.404 13.5168 3263 129.038 855.872 399.99
3195 0 251.405 14.7213 3701 126.554 855.637 395.881
3196 0 256.434 14.5847 3740 128.483 854.826 392.929
3197 0 264.383 13.4464 3555 132.769 855.341 385.621
3198 0 275.52 15.1532 4175 129.046 853.516 379.818
3199 0 283.375 14.7613 4183 130.775 853.611 375.565
3200 1 13.0004 0.999972 13 91.8462 852.769 513
3201 0 14.0264 3.42212 48 89.3542 853.146 512.208
3202 0 15.0154 3.5297 53 84.4528 853.811 514.019
3203 0 16.0276 5.24096 84 82.869 853.202 511.833
3204 0 16.0275 5.17859 83 86.012 854.735 512.265
3205 0 14.0076 3.78365 53 87.4717 855.245 513.453
3206 0 17.0039 5.8222 99 85.4444 856 512.384
3207 0 12.0139 4.99422 60 85.2833 855.567 514.9
3208 0 15.0356 6.71741 101 84.3366 855.911 514.465
3209 0 13.0034 5.3063 69 86.1884 855.319 515.406
3210 0 14.0013 4.42816 62 90.6613 856.694 514.532
3211 0 13.0007 5.07666 66 92.1667 857.439 513.167
3212 0 13.0008 4.38434 57 92.193 858.228 512.439
3213 0 21.0208 6.27951 132 87.7879 858.735 511.144
3214 0 15.0175 3.66239 55 87.4 858.418 509.109
3215 0 18.0145 3.33064 60 91.7167 858.717 511.2
3216 0 19.0071 3.68283 70 91.8143 858.629 510.114
3217 0 11.0113 4.35916 48 92.875 858.625 505.5
3218 0 217.442 15.9904 3477 116.74 853.36 387.682
3219 0 217.42 14.7411 3205 121.687 853.496 377.018
3220 0 218.398 7.55042 1649 138.418 853.217 388.731
3221 0 214.465 4.74203 1017 133.508 853.758 414.953
3222 1 226.342 3.7863 857 123.174 854.098 443.372
3223 1 209.536 12.8284 2688 123.649 853.983 413.57
3224 0 216.269 12.073 2611 124.178 853.903 409.342
3225 0 222.491 12.0994 2692 125.302 854.252 404.223
3226 1 168.264 9.98429 1680 122.854 855.077 433.569
3227 0 173.325 11.8217 2049 118.563 854.447 430.897
3228 0 177.243 11.882 2106 115.358 855.865 426.684
3229 0 183.279 12.7074 2329 114.039 856.339 427.659
3230 0 190.277 11.7933 2244 115.56 856.871 425.303
3231 0 194.348 12.8121 2490 112.03 855.668 425.935
3232 0 200.527 11.8887 2384 116.035 856.193 419.06
3233 0 206.68 10.5961 2190 120.13 856.064 414.572
3234 0 211.515 10.3586 2191 121.257 856.161 408.072
3235 0 220.515 12.6612 2792 116.452 855.706 406.44
3236 0 227.365 13.0275 2962 119.884 855.865 401.274
3237 0 233.389 12.9312 3018 119.674 855.59 402.724
3238 0 242.323 12.7309 3085 118.877 855.76 401.109
3239 0 250.489 13.2261 3313 118.602 855.589 392.555
3240 1 15.0026 3.79935 57 89.2632 855.79 513.053
3241 0 14.0159 7.27743 102 86.7647 857.206 515.088
3242 0 12.0016 6.49916 78 84.4487 856.013 515.885
3243 0 17.0138 5.52494 94 84.2021 857.053 511.957
3244 0 15.0036 7.26493 109 84.1835 857.037 516.266
3245 0 19.0075 4.15625 79 87.0633 858.203 512.81
3246 0 14.0087 3.06952 43 82.0698 858.046 508.535
3247 0 19.015 6.36341 121 89.6942 858.529 511.529
3248 0 18.048 4.48804 81 88.5679 858.852 514.025
3249 1 270.434 15.024 4063 119.671 855.371 385.606
3250 0 279.432 13.7887 3853 123.925 855.587 375.587
3251 0 286.377 13.6603 3912 122.729 855.208 375.88
3252 0 293.435 13.2943 3901 123.648 855.623 374.012
3253 0 301.311 13.5408 4080 125.284 855.63 365.744
3254 1 14.0033 6.7127 94 86.4362 851.872 513.734
3255 0 16.0435 4.79946 77 89.5195 852.026 511.883
3256 0 17.0217 3.99489 68 82.7353 851.088 510.426
3257 0 20.0049 4.39891 88 82.9545 851.705 511.114
3258 0 16.0054 4.87336 78 82.859 851.333 504.128
3259 1 0 0 0 -nan -nan -nan
3260 1 15.0091 3.39794 51 82.0784 854.667 437.745
3261 0 16.0132 3.80936 61 80.8852 857.115 440
3262 0 323.587 19.3735 6269 113.534 855.444 246.612
3263 0 313.691 13.134 4120 129.119 854.118 250.938
3264 0 320.752 15.1176 4849 125.507 854.98 248.277
3265 0 330.32 16.4931 5448 122.704 855.265 244.064
3266 0 339.292 17.734 6017 117.543 855.377 247.199
3267 0 341.18 17.7531 6057 116.331 855.225 249.632
3268 1 199.301 10.005 1994 121.8 853.176 357.097
3269 0 206.292 10.5239 2171 124.669 852.681 347.53
3270 1 24.0124 4.03957 97 84.6701 851.588 451.876
3271 0 26.0156 7.72614 201 79.6816 856.891 456.517
3272 0 17.0196 5.87557 100 75.81 855.13 465.59
3273 0 22.0046 2.49948 55 79.5636 856.745 481.764
3274 0 24.0127 4.41434 106 77.4528 858.189 495.321
3275 1 36.0766 5.04482 182 88.0879 858.049 499.456
3276 1 258.66 12.8122 3314 110.86 856.034 385.436
3277 0 265.563 15.5293 4124 104.687 855.952 380.997
3278 0 275.614 15.968 4401 103.494 855.958 374.927
3279 0 283.719 16.2802 4619 103.769 854.827 370.281
3280 0 290.813 15.5839 4532 106.957 854.866 362.988
3281 1 237.449 12.1416 2883 109.37 855.207 398.264
3282 0 245.42 12.6518 3105 109.093 855.328 398.268
3283 0 255.647 13.6556 3491 110.126 855.357 387.92
3284 0 259.68 13.3588 3469 111.278 855.379 383.123
3285 0 269.76 13.9531 3764 110.314 855.686 377.258
3286 0 278.713 12.9416 3607 112.693 855.441 375.33
3287 1 25.0309 2.55684 64 85.0938 859.219 505.109
3288 0 15.0011 2.59981 39 79.8718 858.333 501.487
3289 0 16.0342 4.92697 79 74.8101 858.658 497.848
3290 0 19.0357 3.57224 68 74.6471 858.382 496.662
3291 1 0 0 1.04732e-303 -nan 405 -0.0441568
3292 0 7.00072 4.28527 30 75.8667 858.2 494.6
3293 0 0 0 0 -nan -nan -nan
3294 0 14.0036 4.8559 68 74.3382 859.338 500.456
3295 0 22.0703 5.02938 111 76.964 858.847 497.126
3296 0 23.031 2.12757 49 80.2857 859.122 498
3297 0 23.0184 3.25826 75 81.12 859.133 496.707
3298 0 26.0884 5.55803 145 74.1586 857.897 494.407
3299 0 27.0172 3.77537 102 75.6569 858.226 494.382
3300 0 30.0284 2.66414 80 77.425 858.575 498.662
3301 0 29.032 3.06559 89 76.3034 859.753 501.663
3302 0 20.0357 8.5847 172 72.3895 860.302 500.645
3303 0 23.0187 3.38855 78 77.5641 859.859 502.462
3304 0 23.0916 2.2519 52 82.4423 859.827 496.692
3305 1 272.482 13.2559 3612 113.886 856.937 381.202
3306 0 281.61 14.3425 4039 111.428 856.819 373.776
3307 0 337.344 23.7651 8017 84.6721 856.313 333.782
3308 0 337.008 26.0617 8783 83.1782 856.508 325.045
3309 0 326.753 19.3357 6318 93.6902 855.845 317.226
3310 0 330.652 24.234 8013 85.7649 855.979 326.549
3311 0 323.364 21.9567 7100 93.6039 856.357 315.373
3312 1 234.606 11.2188 2632 114.264 856.024 378.598
3313 1 28.0442 3.06659 86 76.6628 859.488 496.081
3314 0 25.0502 3.67263 92 75.8696 859.196 494.25
3315 0 22.0043 5.81704 128 72.1406 858.883 498.719
3316 0 22.0043 5.77159 127 86.126 858.976 498.402
3317 0 24.0923 5.39591 130 73.8077 860.085 497.354
3318 0 24.0017 4.20804 101 73.4554 858.554 494.743
3319 0 27.0645 6.02264 163 72.3926 859.466 497.202
3320 0 22.015 4.40608 97 75.1753 858.938 494.66
3321 0 25.0206 1.87845 47 80.0638 859.426 492.66
3322 0 28.0213 4.03265 113 75.8053 858.611 494.416
3323 0 30.018 2.16537 65 81.4154 858.8 490.215
3324 0 31.0174 5.60974 174 74.3103 858.632 491.954
3325 1 272.543 12.9411 3527 118.57 855.601 354.773
3326 1 30.0228 4.03027 121 77.5289 858.587 488.388
3327 0 34.097 2.52221 86 79.3488 857.802 494.86
3328 0 32.0122 3.52991 113 81.4867 856.699 490.319
3329 0 36.0762 4.49049 162 80.8025 857.235 493.309
3330 0 35.0254 5.59594 196 80.6378 854.622 494.347
3331 0 36.024 6.21807 224 81.6786 853.455 489.219
3332 0 38.0571 5.07132 193 82.9896 855.316 491.207
3333 0 38.1958 6.44051 246 81.3984 853.939 488.667
3334 0 35.1622 6.34203 223 85.3094 854.013 489.767
3335 0 39.2477 7.87307 309 82.0744 853.265 486.981
3336 0 39.2253 7.24023 284 83.7923 853.898 490.229
3337 0 38.1778 7.3341 280 84.1821 854.393 487.95
3338 0 38.3475 6.02387 231 85.1169 854.589 490.329
3339 0 38.1886 5.52521 211 85.5735 853.877 489.185
3340 0 39.3603 7.18999 283 81.2509 853.396 490.806
3341 0 44.4727 8.58954 382 79.4791 853.919 488.039
3342 0 40.2448 6.75864 272 81.5037 853.581 484.971
3343 0 46.4877 7.46434 347 77.8444 854.559 488.504
3344 0 44.1462 5.34587 236 80.1653 853.17 487.051
3345 0 41.0986 5.25566 216 80.1389 853.232 493.741
3346 0 33.0262 9.32592 308 76.8539 853.234 494.818
3347 1 47.0336 3.01912 142 84.7394 853.014 490.225
