time division length width area intensity CMx CMy
0 0 78.0861 13.3058 1039 105.349 280.805 459.337
1 0 82.1567 14.2654 1172 102.252 280.021 458.759
2 0 84.078 13.1664 1107 105.783 280.1 456.455
3 0 88.1918 13.3346 1176 104.048 280.077 456.088
4 0 89.1525 12.7983 1141 106.479 280.488 450.079
5 0 93.1198 13.9283 1297 103.069 279.39 453.211
6 0 93.1918 12.984 1210 98.1182 280.214 448.064
7 0 103.314 15.69 1621 92.2665 279.598 442.352
8 0 105.288 15.1299 1593 93.9404 279.795 440.685
9 0 102.136 12.6009 1287 101.327 279.543 441.646
10 0 107.261 12.0454 1292 102.81 280.044 439.232
11 1 57.0868 11.5263 658 99.9529 279.664 469.017
12 0 59.0259 13.0282 769 98.7646 281.355 467.377
13 0 61.0971 12.1446 742 94.6509 281.473 466.569
14 0 61.1093 11.2912 690 94.7754 281.149 472.867
15 0 65.2129 11.8995 776 94.1649 280.639 470.983
16 0 64.2495 9.60319 617 98.6759 281.131 467.46
17 0 69.3266 10.8616 753 95.5803 280.906 468.709
18 0 72.1758 11.7075 845 94.7858 281.414 468.405
19 0 74.1265 11.7907 874 95.4325 280.728 467.23
20 0 70.2699 9.12197 641 102.212 281.515 461.891
21 0 77.3915 12.9472 1002 94.8353 281.241 463.418
22 0 79.1961 11.4021 903 98.9214 281.293 460.872
23 0 82.4762 11.7973 973 99.5026 280.436 457.018
24 0 83.2171 10.8631 904 103.023 280.915 456.532
25 0 89.3417 12.4578 1113 100.092 281.336 458.287
26 0 91.3263 12.3185 1125 100.515 281.114 457.848
27 0 93.213 13.2492 1235 100.65 281.372 453.221
28 0 99.2359 14.0977 1399 98.3874 281.352 446.505
29 0 99.324 12.4743 1239 105.629 281.275 445.318
30 0 101.332 12.5133 1268 106.2 281.746 449.33
31 0 107.243 13.1757 1413 106.883 282.246 453.087
32 0 110.245 12.9349 1426 111.257 281.732 451.121
33 0 116.45 13.86 1614 107.576 281.945 447.265
34 0 120.387 12.7672 1537 107.265 281.52 448.681
35 0 120.387 12.6758 1526 154.721 280.526 448.71
36 1 66.2292 11.0978 735 97.5592 281.4 472.048
37 0 71.3288 13.585 969 93.5728 281.627 469.101
38 0 73.1668 14.4191 1055 92.6834 281.968 467.331
39 0 75.253 12.8101 964 95.3942 281.429 466.881
40 0 78.2447 12.5632 983 95.0865 281.33 464.121
41 0 78.178 12.4204 971 96.5881 281.942 463.001
42 0 80.163 11.9382 957 97.1661 281.776 463.116
43 0 84.3218 14.6819 1238 94.3223 280.822 459.14
44 0 88.2657 14.0145 1237 95.709 281.338 460.032
45 0 91.1973 13.1035 1195 96.41 282.186 460.735
46 0 92.3114 13.8444 1278 96.4311 281.135 460.257
47 0 94.1894 13.1437 1238 98.7197 281.844 459.011
48 0 96.3591 12.4015 1195 101.499 281.32 458.047
49 0 99.2528 13.5412 1344 99.7954 282.01 457.796
50 0 101.249 14.2717 1445 103.533 280.808 453.181
51 0 105.395 13.0651 1377 110.185 281.702 449.762
52 0 108.365 13.1777 1428 110.495 280.871 445.456
53 0 111.234 13.9166 1548 110.475 281.484 446.977
54 0 115.341 13.5338 1561 111.768 280.949 446.267
55 0 121.588 14.1379 1719 105.137 280.576 438.978
56 1 63.118 12.9123 815 101.799 281.836 469.539
57 0 67.1631 12.9833 872 100.472 281.233 471.475
58 0 68.0718 12.6631 862 102.444 280.891 452.491
59 0 71.2013 12.1487 865 102.397 281.045 455.099
60 0 74.145 12.9341 959 101.707 280.387 451.585
61 0 77.1853 13.3704 1032 103.902 280.657 450.273
62 0 79.1347 13.0537 1033 106.902 280.408 450.515
63 0 82.1875 14.7711 1214 105.187 281.265 448.484
64 0 83.2091 13.2678 1104 111.262 280.918 448.281
65 0 86.1342 12.6198 1087 113.461 280.957 446.876
66 0 89.1515 15.569 1388 108.074 280.818 445.266
67 0 90.2893 14.2763 1289 111.344 280.838 445.077
68 0 94.1113 14.5572 1370 110.674 281.743 445.415
69 0 95.3335 14.7063 1402 111.947 280.971 444.71
70 0 98.3325 13.6577 1343 115.903 281.585 442.63
71 0 100.249 13.4664 1350 116.308 280.532 439.83
72 0 106.305 14.5808 1550 114.497 280.025 440.21
73 0 109.356 14.7683 1615 115.588 280.215 438.385
74 0 112.217 15.4077 1729 114.551 281.592 436.308
75 0 116.459 14.211 1655 116.211 280.714 435.255
76 1 63.1314 13.2739 838 112.819 281.394 463.594
77 0 66.2441 13.3446 884 112.16 280.537 462.664
78 0 65.054 14.0806 916 112.191 281.157 460.485
79 0 68.1129 14.2264 969 112.974 280.923 459.388
80 0 72.2426 14.7697 1067 111.566 281.117 458.117
81 0 74.1305 13.5167 1002 114.91 281.035 459.591
82 0 77.1682 16.1465 1246 105.798 281.521 466.584
83 0 77.1147 13.9792 1078 113.243 281.798 466.835
84 0 78.1097 14.5181 1134 112.466 281.818 467.345
85 0 82.1858 15.1973 1249 110.839 282.115 464.954
86 0 82.2469 13.1555 1082 117.517 280.928 463.956
87 0 86.1806 13.7734 1187 115.82 280.42 463.871
88 0 88.2088 13.7741 1215 117.449 281.171 461.719
89 0 93.3038 13.4936 1259 117.98 281.37 460.568
90 0 95.194 14.5597 1386 116.981 281.972 460.126
91 0 98.3638 14.8225 1458 116.578 281.951 457.196
92 0 100.294 14.1484 1419 117.5 281.591 458.802
93 0 105.157 15.6717 1648 113.751 280.013 452.718
94 0 106.263 15.2452 1620 114.417 280.576 454.854
95 0 113.291 17.6184 1996 106.734 281.115 449.446
96 0 114.316 15.3696 1757 113.772 280.166 450.97
97 0 117.38 14.534 1706 117.871 280.231 450.546
98 1 60.2035 14.1022 849 119.602 280.556 478.166
99 0 60.2391 14.7578 889 119.586 279.91 476.79
100 0 65.2584 14.0825 919 107.757 280.622 476.311
101 0 67.3691 14.8585 1001 107.195 279.261 475.8
102 0 71.2803 16.2177 1156 104.439 279.101 473.074
103 0 72.3228 15.1128 1093 107.527 278.948 473.404
104 0 75.3175 16.1848 1219 105.334 279.627 472.371
105 0 80.4226 19.211 1545 95.5294 278.961 466.798
106 0 80.4131 16.3406 1314 104.696 279.236 469.093
107 0 83.4281 19.1662 1599 98.783 278.984 467.408
108 0 83.2814 17.5429 1461 104.856 279.564 468
109 0 86.4198 15.2511 1318 110.509 279.511 468.989
110 0 89.2914 15.567 1390 110.949 279.845 467.701
111 0 91.4832 17.3146 1584 107.173 279.768 467.068
112 0 96.2455 17.4554 1680 106.542 279.49 464.11
113 0 98.5159 17.4794 1722 107.22 278.481 463.934
114 0 98.3774 15.3897 1514 115.106 279.555 460.359
115 0 104.474 16.1285 1685 112.893 279.48 460.135
116 0 104.185 15.3765 1602 114.971 280.206 461.538
117 1 54.3459 14.1869 771 123.266 279.568 483.128
118 0 58.1084 16.4004 953 117.364 280.346 481.821
119 0 62.3741 15.6155 974 117.308 279.28 480.785
120 0 64.2608 16.6976 1073 115.857 279.669 478.404
121 0 67.1451 17.1569 1152 114.31 279.234 477.887
122 0 68.183 15.9717 1089 117.733 279.59 477.051
123 0 71.1745 15.3566 1093 118.921 280.166 475.357
124 0 74.1691 16.7051 1239 115.362 279.139 473.174
125 0 75.2167 15.6481 1177 119.014 279.249 472.449
126 0 78.3595 15.1609 1188 118.881 280.58 473.168
127 0 81.1989 16.7244 1358 115.146 279.495 471.306
128 0 81.3353 14.2865 1162 122.257 279.799 470.292
129 0 85.2706 15.7733 1345 119.193 278.957 469.063
130 0 88.1917 16.3621 1443 117.211 279.532 467.139
131 0 90.1836 16.3555 1475 117.856 279.478 466.955
132 0 92.0632 16.1628 1488 119.458 279.793 463.524
133 0 97.3199 15.7933 1537 118.185 279.569 464.351
134 0 100.21 16.3057 1634 117.827 279.69 459.172
135 0 104.229 15.9169 1659 117.313 279.615 461.794
136 1 56.1957 15.2503 857 118.805 279.644 481.651
137 0 54.3273 14.8728 808 123.272 279.817 479.947
138 0 58.2249 16.0241 933 119.379 279.113 478.675
139 0 60.2218 15.2935 921 121.692 279.457 477.295
140 0 62.1334 15.3863 956 121.116 279.163 478.075
141 0 64.1633 15.367 986 121.431 279.796 476.709
142 0 65.1249 16.1382 1051 119.755 279.373 476.67
143 0 67.1055 15.349 1030 122.162 279.766 475.936
144 0 70.2472 15.8298 1112 121.146 279.82 473.566
145 0 73.0868 16.6104 1214 118.711 279.433 472.418
146 0 74.2283 16.5705 1230 120.307 279.57 470.791
147 0 75.2475 15.1766 1142 125.04 278.809 469.723
148 0 79.1539 16.2847 1289 121.435 279.139 467.998
149 0 81.1489 15.4777 1256 123.346 279.646 468.554
150 0 85.2624 15.9742 1362 122.705 279.699 464.442
151 0 87.3558 15.8662 1386 123.23 279.669 464.333
152 1 45.3004 15.033 681 122.081 278.684 483.997
153 0 45.0908 13.1069 591 128.433 279.149 483.213
154 0 49.0659 13.9404 684 125.721 279.633 481.406
155 0 50.3072 14.0139 705 125.623 278.82 481.112
156 0 52.2562 15.9216 832 121.468 279.589 480.385
157 0 52.1899 16.1142 841 122.073 279.281 479.247
158 0 53.0809 14.638 777 129.03 279.615 478.409
159 0 55.1542 15.3751 848 126.679 278.882 476.669
160 0 56.1455 14.8008 831 128.479 278.45 476.185
161 0 58.1373 15.1194 879 127.595 278.039 475.243
162 0 58.1981 14.1242 822 131 278.372 475.325
163 0 60.068 14.5169 872 129.992 279.255 473.466
164 0 60.2306 13.963 841 132.994 277.843 473.344
165 0 63.1321 14.3667 907 131.837 278.697 473.643
166 0 64.2041 14.9212 958 132.099 278.518 471.273
167 0 66.1836 13.8252 915 136.513 279.008 470.884
168 0 69.2607 14.8425 1028 133.145 278.836 469.047
169 0 69.2773 14.6657 1016 134.736 277.989 466.505
170 0 71.2424 14.2892 1018 136.146 277.637 464.545
171 0 74.3174 15.1647 1127 133.103 278.164 463.655
172 0 76.1779 14.9125 1136 134.791 278.485 463.04
173 0 78.1355 14.9228 1166 134.621 278.932 461.378
174 0 81.2227 15.1312 1229 132.409 278.513 460.197
175 0 84.1999 15.2494 1284 131.123 278.588 458.427
176 0 86.2031 15.0343 1296 132.753 278.052 458.426
177 0 88.107 15.0499 1326 133.91 278.612 457.724
178 0 91.2727 14.9661 1366 136.021 278.219 454.003
179 0 95.2043 15.5245 1478 134.202 279.273 452.934
180 0 97.3674 14.7585 1437 136.688 278.844 450.126
181 0 98.3183 14.7378 1449 138.5 278.542 449.29
182 0 105.191 15.7713 1659 134.38 279.084 444.909
183 0 111.264 15.9261 1772 132.66 278.375 444.775
184 0 113.491 14.0804 1598 138.048 279.246 445.442
185 0 117.149 15.0407 1762 135.938 278.039 438.413
186 0 119.432 14.1922 1695 138.501 277.863 438.65
187 0 125.392 14.8335 1860 136.441 278.625 435.334
188 0 129.3 15.0116 1941 134.885 278.702 435.083
189 0 132.356 14.9068 1973 136.153 278.992 430.465
190 0 136.513 14.3723 1962 137.34 278.558 429.914
191 0 141.199 15.1984 2146 135.737 278.611 427.222
192 0 142.301 14.8488 2113 137.981 278.161 426.607
193 0 148.595 15.761 2342 135.775 278.531 423.228
194 0 153.476 16.3153 2504 134.878 278.538 420.908
195 0 158.266 16.7819 2656 133.836 278.809 419.207
196 0 163.285 15.9598 2606 136.838 277.903 417.19
197 0 169.435 15.9235 2698 137.888 278.162 416.278
198 0 174.591 16.2379 2835 137.379 278.546 414.889
199 0 180.324 16.06 2896 139.148 277.893 408.417
200 0 184.265 15.3638 2831 142.212 278.053 408.189
201 0 192.557 16.7691 3229 137.124 278.001 405.612
202 0 195.356 15.6637 3060 140.983 277.992 401.815
203 0 204.495 16.0737 3287 140.01 278.295 401.554
204 0 211.522 16.4711 3484 139.572 279.193 396.435
205 0 218.429 16.4767 3599 139.701 279.105 390.886
206 1 161.366 13.4167 2165 151.997 278.202 418.137
207 0 168.198 14.8575 2499 149.447 277.849 412.024
208 0 175.306 14.5346 2548 150.17 277.456 410.307
209 0 182.344 14.2752 2603 150.849 278.079 405.057
210 0 187.318 13.8 2585 150.209 277.688 398.75
211 0 195.274 14.2928 2791 148.41 278.578 397.533
212 0 202.303 14.6315 2960 146.47 278.444 394.882
213 0 208.271 13.6409 2841 150.59 278.868 391.832
214 0 216.228 14.8778 3217 146.069 278.816 385.897
215 0 221.193 13.92 3079 150.201 279.016 379.654
216 0 229.423 13.8478 3177 150.47 279.205 375.642
217 0 236.309 14.8534 3510 146.14 278.881 374.194
218 1 90.1116 7.34645 662 108.98 277.808 455.752
219 0 90.1957 3.69197 333 115.312 278.826 456.333
220 0 91.2532 4.16424 380 115.258 278.808 454.305
221 0 102.251 8.5476 874 118.197 278.87 450.635
222 1 51.0612 3.40767 174 104 279.983 485.282
223 0 54.1539 4.7088 255 104.827 278.62 470.4
224 0 58.2048 5.54937 323 104.613 278.368 476.053
225 0 58.2236 8.53605 497 100.139 280.131 474.602
226 0 52.1641 6.67126 348 99.6782 280.649 483.345
227 1 34.0117 7.40921 252 101.155 280.702 485.591
228 0 33.0361 4.81292 159 104.509 279.547 487.208
229 0 37.0336 4.02337 149 105.725 279.919 489.255
230 0 39.0384 4.61084 180 104.15 280.45 488.722
231 0 38.1485 5.0854 194 103.103 280.51 484.495
232 0 40.1685 7.71749 310 98.4839 279.929 486.403
233 0 39.0525 6.29921 246 102.175 279.276 487.049
234 0 38.1201 5.64007 215 103.763 279.535 488.256
235 0 41.0723 5.52684 227 104.229 279.211 484.454
236 0 44.1071 6.59758 291 101.952 279.842 486.711
237 0 44.2222 7.66583 339 101.681 279.171 481.879
238 0 49.2041 8.10908 399 100.87 279.456 480.496
239 0 49.256 7.49147 369 101.477 280.407 484.054
240 0 51.1189 8.17701 418 102.065 279.256 478.316
241 0 54.1269 7.87039 426 103.256 279.467 481.366
242 0 55.1508 9.10232 502 101.255 278.092 477.723
243 0 57.1736 9.51489 544 99.8952 278.908 477.048
244 0 64.1741 9.06908 582 113.94 279.885 471.526
245 0 64.1335 8.13927 522 115.318 279.693 472.816
246 0 63.1327 8.07823 510 114.457 280.461 471.82
247 0 65.2544 9.31738 608 112.439 279.862 470.916
248 0 68.2294 8.77921 599 112.915 279.741 472.424
249 0 72.0823 8.30995 599 112.576 280.227 471.881
250 0 73.3064 10.8858 798 109.481 280.926 466.709
251 0 72.1644 8.95178 646 112.946 280.319 469.981
252 0 76.0859 8.84526 673 111.985 279.823 467.138
253 0 77.1967 10.4279 805 110.221 278.434 465.21
254 0 78.0413 8.36736 653 113.074 280.02 466.41
255 1 42.1032 8.52667 359 106.267 280.025 486.908
256 0 42.0572 9.24931 389 104.429 280.72 486
257 0 47.1406 11.0308 520 100.369 280.69 484.446
258 0 45.0196 10.1511 457 103.475 280.869 483.385
259 0 50.2032 10.7762 541 100.323 280.933 486.721
260 0 49.2133 11.3384 558 103.392 279.005 483.258
261 0 50.2293 10.3525 520 106.835 278.988 480.708
262 0 53.4057 12.2646 655 101.867 279.342 478.475
263 0 53.2559 12.5808 670 102.382 279.182 478.996
264 0 55.2957 10.3986 575 106.654 278.061 479.327
265 0 57.3272 13.1875 756 101.594 279.864 475.362
266 0 58.3017 12.5382 731 103.963 279.402 476.289
267 0 60.3112 11.6728 704 106.824 278.832 475.372
268 0 61.2283 11.9879 734 106.56 278.916 476.124
269 0 64.2196 11.7098 752 106.544 277.847 473.888
270 0 66.1521 13.3631 884 102.606 278.294 472.261
271 0 65.1009 12.3347 803 106.57 277.963 470.625
272 0 67.2557 12.0436 810 106.72 278.4 469.088
273 0 71.1087 12.4598 886 104.453 277.695 470.974
274 0 71.1373 11.6254 827 107.469 279.071 468.692
275 0 75.1952 12.1816 916 104.586 278.579 466.192
276 0 74.1979 11.7793 874 106.842 278.622 465.854
277 0 78.2181 11.1867 875 108.178 279.333 465.506
278 0 80.2605 11.7368 942 107.665 278.622 462.692
279 0 83.1954 11.8757 988 106.629 279.401 462.236
280 1 41.1707 10.1771 419 113.938 278.575 480.792
281 0 45.119 11.6802 527 108.62 279.231 481.205
282 0 44.1045 9.88561 436 113.704 278.142 479.271
283 0 46.1011 11.2579 519 109.794 278.181 479.466
284 0 48.1742 12.7246 613 103.191 279.251 479.967
285 0 47.2723 11.254 532 107.133 278.175 480.188
286 0 50.1249 11.591 581 104.499 278.435 481.583
287 0 52.1748 11.7106 611 104.049 277.959 479.895
288 0 51.0918 11.724 599 104.972 277.907 479.888
289 0 53.0575 13.4571 714 100.298 278.766 477.826
290 0 52.0702 12.8096 667 103.147 277.849 478.46
291 0 57.1489 12.3537 706 101.734 278.741 475.582
292 0 59.2449 12.98 769 100.493 278.625 476.964
293 0 60.253 11.4849 692 103.759 277.345 477.23
294 0 62.2857 12.6032 785 100.735 278.013 474.381
295 0 65.3667 12.5905 823 100.057 278.425 474.746
296 0 64.1713 11.9991 770 102.945 277.677 472.205
297 0 67.1186 12.3662 830 101.011 277.941 470.36
298 0 67.2684 11.8035 794 102.703 278.259 470.562
299 0 70.3571 13.9005 978 97.4151 279.15 469.941
300 0 73.2442 13.3116 975 97.7446 278.621 468.123
301 0 72.357 11.3327 820 103.384 277.835 467.779
302 0 78.1615 13.5745 1061 96.8294 279.048 466.47
303 0 79.2693 15.0247 1191 94.3762 278.203 467.112
304 0 81.3956 12.6542 1030 99.4796 278.969 465.008
305 0 86.6038 13.4867 1168 96.5009 278.803 464.062
306 0 87.3374 13.4765 1177 97.26 279.182 462.563
307 0 88.284 12.9695 1145 98.5886 278.937 459.399
308 0 94.4935 16.1916 1530 90.9333 278.769 457.476
309 0 98.3536 13.7057 1348 96.0386 278.461 458.729
310 0 100.258 14.9415 1498 94.1682 279.597 454.027
311 0 105.35 14.2288 1499 95.1674 279.757 454.712
312 0 107.289 14.2419 1528 94.7585 279.531 454.022
313 0 112.498 14.5159 1633 93.6283 279.584 452.039
314 0 114.411 13.1106 1500 95.9547 280.019 451.495
315 0 119.523 12.3408 1475 101.58 279.853 443.123
316 0 125.773 12.3715 1556 99.6819 279.47 442.576
317 0 128.595 12.7921 1645 98.4997 280.204 443.209
318 0 132.633 12.938 1716 99.0653 280.608 441.522
319 0 135.387 13.3912 1813 98.8207 281.194 437.777
320 0 141.635 13.2524 1877 98.3847 280.792 436.706
321 1 74.4021 13.5211 1006 97.341 280.688 468.638
322 0 77.409 14.1456 1095 96.3982 279.495 463.075
323 0 79.5541 12.2684 976 98.085 280.765 463.032
324 0 81.2692 11.9233 969 97.1404 281.238 462.982
325 0 84.2015 11.2943 951 93.3481 281.657 462.557
326 0 87.1215 12.8786 1122 91.5784 282.273 465.062
327 0 91.2432 11.8036 1077 93.0826 281.662 459.033
328 0 94.2312 13.4244 1265 90.8862 282.253 445.496
329 0 96.264 12.3307 1187 92.8787 281.211 446.969
330 0 99.1698 11.0316 1094 95.2605 281.75 447.364
331 0 102.192 12.5548 1283 93.0023 281.515 446.14
332 0 107.198 13.0507 1399 90.9157 280.589 445.237
333 1 61.2354 12.5744 770 83.5234 280.66 468.361
334 0 62.2347 12.5011 778 84.3509 281.911 473.716
335 0 65.1188 12.8688 838 83.969 281.26 476.841
336 0 64.1284 9.94879 638 89.0564 281.393 476.503
337 0 69.1556 10.9463 757 87.8719 281.72 474.445
338 0 70.0832 11.4578 803 88.4795 280.252 446.894
339 0 73.1189 11.3651 831 89.1179 280.633 440.947
340 0 76.1156 13.2693 1010 85.4861 279.569 444.305
341 0 77.2101 12.9905 1003 85.8285 279.732 449.258
342 0 81.3098 12.3355 1003 86.99 278.926 448.546
343 0 83.4752 12.0036 1002 87.7106 279.41 446.149
344 0 86.1706 12.5565 1082 87.4168 279.614 444.866
345 0 86.208 11.5651 997 90.7753 280.049 440.612
346 0 92.1599 11.8381 1091 89.3575 279.101 445.071
347 0 93.2718 14.2701 1331 86.6266 280.065 443.442
348 0 95.2454 11.1291 1060 90.7962 279.98 447.115
349 0 100.299 13.0012 1304 88.7906 278.946 447.262
350 0 103.364 13.1477 1359 88.9139 278.807 452.703
351 0 106.255 12.1312 1289 90.3763 278.763 452.683
352 1 58.188 11.4972 669 87.3244 279.776 475.931
353 0 60.1768 11.9481 719 87.1739 279.274 473.762
354 0 61.1085 12.6987 776 83.549 279.193 474.128
355 0 62.1334 13.4227 834 82.8058 279.005 472.809
356 0 65.2121 11.8996 776 84.7796 279.331 474.196
357 0 65.0354 14.0539 914 81.4902 279.944 477.33
358 0 67.1405 14.209 954 81.6363 281.6 473.267
359 0 70.3727 11.8086 831 84.8508 280.948 469.374
360 0 73.1929 12.5285 917 83.2486 280.626 470.309
361 0 73.1841 11.8195 865 85.5642 280.587 467.312
362 0 76.162 12.8542 979 83.6282 281.241 466.364
363 0 80.1096 12.5828 1008 83.8006 281.235 467.081
364 0 80.1429 12.3529 990 85.3273 281.407 464.634
365 0 83.1777 12.852 1069 84.0281 280.687 464.959
366 0 86.189 12.0549 1039 85.4783 281.049 464.174
367 0 89.1628 11.1706 996 86.7671 280.276 461.348
368 0 91.3241 11.9246 1089 85.8402 279.68 460.283
369 0 93.3102 10.5991 989 88.2791 280.749 458.076
370 0 99.3932 11.7614 1169 86.9889 280.686 458.384
371 0 104.337 13.0826 1365 85.3575 281.002 456.916
372 0 104.18 10.2131 1064 88.9934 280.613 457.233
373 1 55.0195 11.8503 652 83.7071 281.515 478.874
374 0 58.1735 12.0158 699 84.9499 279.472 477.824
375 0 60.1886 12.5771 757 83.2708 279.28 478.742
376 0 60.1473 12.5691 756 83.6905 279.827 478.604
377 0 60.0545 12.1223 728 85.4478 279.68 475.554
378 0 61.1217 11.5834 708 87.0381 279.414 476.871
379 0 67.0948 12.2066 819 85.6459 278.917 475.031
380 0 68.1167 11.8033 804 87.2201 279.076 475.714
381 0 75.1441 14.1062 1060 81.4217 278.172 469.336
382 0 76.0629 13.7518 1046 83.4685 279.441 470.543
383 0 75.2692 13.4185 1010 86.6723 279.233 470.338
384 0 78.3292 12.5751 985 88.1929 279.231 469.699
385 0 80.1011 13.1209 1051 87.2617 279.423 468.551
386 0 83.102 12.8757 1070 87.7626 279.505 466.897
387 0 88.1455 12.6722 1117 87.3626 277.992 465.235
388 0 90.2613 13.5606 1224 86.3799 278.44 462.214
389 0 93.2463 12.6654 1181 88.7671 278.35 460.455
390 0 96.2064 12.0574 1160 89.8121 278.191 460.809
391 0 98.1821 13.1694 1293 88.2428 278.667 456.785
392 0 102.286 12.5531 1284 89.4416 279.587 457.413
393 1 53.1372 13.2299 703 89.0868 279.43 480.684
394 0 54.0344 12.0479 651 85.5883 281.209 480.115
395 0 55.2251 13.6532 754 83.0066 280.882 478.564
396 0 56.077 12.6612 710 85.4944 279.72 482.201
397 0 58.0554 11.8852 690 87.1333 280.032 479.462
398 0 58.0877 11.8786 690 87.9145 279.023 481.561
399 0 61.1335 12.6117 771 86.6446 278.663 475.763
400 0 62.1146 12.8472 798 87.8521 278.687 476.995
401 0 66.0774 13.6809 904 85.6217 279.082 476.387
402 0 66.064 12.836 848 88.1415 280.008 477.375
403 0 68.1199 13.2267 901 87.2164 279.685 477.705
404 0 73.1301 13.141 961 87.539 279.629 474.64
405 0 74.0773 13.7964 1022 87.3356 280.223 472.748
406 0 76.1346 13.4367 1023 88.7517 279.474 472.183
407 0 80.0878 14.2469 1141 86.7555 278.628 469.829
408 0 81.2066 12.5852 1022 90.0176 278.94 470.739
409 0 84.1086 15.7059 1321 85.5647 278.759 468.034
410 0 85.1003 12.7967 1089 92.2966 279.43 466.725
411 0 88.1237 12.0966 1066 93.7176 279.217 467.294
412 0 92.1436 12.6976 1170 91.7581 278.884 466.547
413 0 96.2117 12.9506 1246 92.0714 278.818 461.478
414 0 100.21 13.312 1334 90.6072 280.111 460.943
415 0 103.203 14.2147 1467 90.2706 279.014 459.47
416 1 54.027 11.92 644 93.3168 279.551 484.224
417 0 56.1514 12.0211 675 91.1541 279.141 481.514
418 0 60.1293 13.7371 826 92.069 278.918 482.061
419 0 59.0496 12.9383 764 95.9738 279.305 480.72
420 0 63.0838 13.8704 875 93.1634 279.285 479.241
421 0 65.1692 13.3345 869 94.4051 280.481 475.665
422 0 68.08 13.9689 951 92.6719 280.823 475.51
423 0 70.1468 14.7833 1037 91.1215 281.235 473.39
424 0 71.152 12.2695 873 95.8855 280.711 471.237
425 0 76.251 13.6785 1043 92.4132 280.572 468.126
426 0 77.1589 12.8825 994 93.662 279.226 470.748
427 0 79.1833 13.4498 1065 92.7765 280.159 471.403
428 0 80.1378 13.09 1049 95.266 279.767 469.294
429 0 84.0621 14.0134 1178 92.4448 280.464 467.537
430 0 88.1231 13.1067 1155 94.1143 280.259 467.759
431 0 91.1122 15.7937 1439 88.7415 280.293 465.692
432 0 94.1144 13.473 1268 93.1814 280.622 465.561
433 0 96.293 14.3313 1380 92.171 281.381 461.562
434 0 98.1186 13.1983 1295 94.9035 279.749 462.355
435 0 102.151 13.529 1382 94.0166 279.134 460.55
436 0 103.181 13.1322 1355 96.1033 279.652 459.38
437 0 107.097 12.6054 1350 97.9556 280.403 457.355
438 0 109.314 12.2217 1336 100.145 280.006 456.495
439 0 116.15 14.1283 1641 95.2931 279.609 454.592
440 0 118.199 13.3589 1579 98.031 280.491 451.449
441 1 61.0806 11.7877 720 101.207 280.96 479.974
442 0 63.2312 11.4817 726 104.253 281.074 477.511
443 0 64.0757 13.1095 840 101.789 280.81 474.294
444 0 68.1115 13.5366 922 97.7267 280.552 474.875
445 0 70.0904 13.5539 950 96.2442 280.86 475.687
446 0 70.0904 13.4968 946 139.679 281.878 475.837
447 0 73.0974 11.984 876 101.816 280.461 473.33
448 0 77.0986 13.0871 1009 99.6204 280.886 471.816
449 0 79.1455 13.7595 1089 99.4848 281.233 468.785
450 0 81.0759 13.2098 1071 101.595 279.732 467.508
451 0 85.0975 14.5715 1240 97.4847 280.958 467.927
452 0 86.1549 14.8802 1282 98.2293 279.345 467.429
453 0 89.2421 14.6568 1308 99.0038 280.433 464.671
454 0 92.1981 13.7313 1266 101.905 279.389 464.502
455 0 95.2654 15.7245 1498 97.4286 280.132 463.481
456 0 98.2192 15.384 1511 98.6559 279.301 461.205
457 0 100.241 15.2034 1524 99.8031 280.441 459.571
458 0 104.245 15.406 1606 99.396 278.795 457.693
459 0 105.223 14.0939 1483 103.197 279.273 458.546
460 0 110.233 15.694 1730 99.6601 278.624 455.56
461 0 111.194 14.8749 1654 103.035 278.097 453.989
462 0 116.132 15.603 1812 101.162 279.401 451.038
463 0 120.227 15.3211 1842 101.018 279.326 448.046
464 0 125.283 15.485 1940 100.432 278.944 449.456
465 0 129.221 15.1214 1954 101.367 279.069 442.302
466 0 135.208 15.4872 2094 100.603 278.556 444.499
467 1 73.2421 13.5441 992 101.886 278.761 473.754
468 0 76.0932 14.6005 1111 99.1287 277.534 471.589
469 0 78.1748 14.0966 1102 101.75 277.55 469.503
470 0 81.0852 14.1086 1144 101.766 277.524 466.987
471 0 85.136 14.0481 1196 101.492 278.31 465.567
472 0 87.096 15.1672 1321 98.3013 278.936 465.224
473 0 89.0735 13.5843 1210 102.883 278.179 465.623
474 0 91.117 14.8929 1357 100.779 278.778 459.548
475 0 94.1989 14.7242 1387 100.05 277.55 462.202
476 0 96.1057 14.3592 1380 101.862 277.451 459.197
477 0 101.044 15.5674 1573 98.862 277.826 456.652
478 0 104.074 14.384 1497 101.514 278.488 457.37
479 0 105.234 13.4272 1413 105.224 277.514 453.616
480 0 109.148 15.2911 1669 100.922 278.041 454.167
481 0 111.17 14.7702 1642 102.593 278.709 451.353
482 0 115.329 14.4543 1667 102.467 279.188 448.668
483 0 119.185 14.2971 1704 102.415 278.054 445.501
484 0 122.128 13.7561 1680 103.932 278.199 445.367
485 0 125.16 13.3988 1677 103.465 277.453 446.118
486 0 130.179 13.7964 1796 102.962 277.188 440.22
487 0 133.162 13.8403 1843 102.527 278.1 441.18
488 0 140.391 14.0679 1975 102.086 279.723 436.984
489 0 143.3 14.0126 2008 103.28 278.286 433.251
490 0 150.239 15.2823 2296 100.356 278.339 432.02
491 0 155.274 15.0637 2339 101.036 278.884 430.756
492 0 160.312 14.241 2283 104.604 278.521 426.758
493 0 165.191 14.6497 2420 103.993 278.078 425.426
494 0 171.336 16.2663 2787 100.894 278.063 421.842
495 0 177.252 16.1691 2866 100.703 278.487 420.041
496 0 179.399 15.1673 2721 105.146 279.303 416.149
497 0 185.331 15.1135 2801 104.337 278.908 413.994
498 0 191.485 13.8862 2659 106.408 277.829 415.876
499 0 198.383 15.5507 3085 104.043 278.48 406.662
500 0 206.62 15.2357 3148 104.212 277.934 408.467
501 0 211.479 14.4695 3060 106.914 278.007 404.26
502 0 221.417 14.7098 3257 106.638 277.417 395.905
503 0 232.384 15.4056 3580 105.095 277.898 395.804
504 0 236.266 13.3705 3159 107.887 278.386 392.971
505 1 188.597 13.7807 2599 109.473 277.413 409.337
506 0 195.208 12.9144 2521 110.476 277.068 408.507
507 1 54.1513 11.6341 630 96.6413 277.854 478.33
508 0 57.1064 13.1684 752 93.6649 277.785 482.894
509 0 57.1734 11.1765 639 95.7261 278.515 482.457
510 0 60.0592 12.854 772 92.4365 279.512 482.67
511 0 59.1079 11.6736 690 96.3739 278.786 479.577
512 0 62.1863 11.7068 728 95.7431 278.857 478.076
513 0 66.106 11.6177 768 94.9805 279.417 477.466
514 0 68.241 12.4412 849 94.0071 279.423 476.547
515 0 72.1525 13.4437 970 91.7608 279.796 475.291
516 0 71.2057 12.9344 921 94.013 279.135 473.493
517 0 76.1101 12.5082 952 94.2689 277.933 472.625
518 0 79.2999 12.9508 1027 93.555 277.394 470.146
519 0 82.1926 14.2835 1174 91.3083 277.667 467.637
520 0 87.146 12.9323 1127 93.7507 278.481 465.445
521 1 47.1092 12.1632 573 97.1832 278.818 486.913
522 0 47.032 12.1619 572 98.3794 278.923 486.381
523 0 50.2245 12.5437 630 99.1429 278.875 485.93
524 0 50.0621 12.105 606 100.599 279.177 486.236
525 0 52.1238 12.2017 636 101.708 278.711 485.112
526 0 53.1129 11.9745 636 101.695 279.299 485.167
527 0 56.0945 12.4968 701 100.866 279.389 483.434
528 0 56.0846 12.3029 690 101.804 277.854 481.028
529 0 62.1512 13.5798 844 94.3839 278.257 477.956
530 0 64.1113 15.3951 987 90.6677 278.208 476.288
531 0 67.2969 13.6856 921 94.0402 278.702 476.585
532 0 65.4134 14.8288 970 94.1649 277.836 478.412
533 0 63.1155 12.8653 812 102.756 278.716 476.038
534 0 66.1893 12.4794 826 101.868 278.03 476.502
535 0 66.36 12.3418 819 103.302 278.347 476.179
536 0 68.5089 11.9109 816 104.192 278.123 474.98
537 0 79.4933 15.3849 1223 90.3696 278.356 467.638
538 0 81.5663 16.9923 1386 86.9892 277.098 464.834
539 0 77.3594 14.1806 1097 92.6007 277.937 466.481
540 0 81.2482 15.2988 1243 86.1054 277.044 462.24
541 0 81.282 12.2782 998 94.1122 277.856 462.906
542 0 82.1827 11.7543 966 96.852 277.734 466.265
543 1 45.1859 11.0654 500 93.878 276.788 485.706
544 0 47.1472 12.3443 582 92.2749 277.515 484.222
545 0 48.0853 11.7915 567 93.0459 276.589 484.113
546 0 49.0599 12.8211 629 93.2591 276.811 483.048
547 0 51.0994 12.8769 658 92.8891 278.53 481.792
548 0 54.1118 12.1046 655 97.3985 277.427 485.821
549 0 55.0688 12.8203 706 99.9533 277.681 484.088
550 0 58.1294 13.7624 800 97.2275 277.491 483.765
551 0 60.0729 12.901 775 99.5368 278.174 481.521
552 0 59.0833 13.7433 812 99.2746 277.921 480.34
553 0 62.0857 14.335 890 96.591 278.113 482.454
554 0 64.1055 14.1486 907 97.7784 277.875 478.104
555 0 64.0672 13.6575 875 99.12 278.723 477.693
556 0 67.0979 13.5921 912 95.7215 277.496 476.604
557 0 67.105 13.6503 916 100.581 277.385 475.397
558 0 69.0462 12.2092 843 103.883 278.096 478.903
559 0 70.1332 12.6046 884 98.7364 278.826 477.11
560 0 72.0308 13.9801 1007 97.2522 279.471 477.388
561 0 73.1732 13.6389 998 100.359 278.559 475.778
562 0 72.1116 12.9106 931 104.087 278.277 475.873
563 0 73.0984 13.3792 978 104.151 277.153 473.255
564 0 74.0636 13.4344 995 104.743 277.176 474.271
565 0 75.1606 13.1452 988 106.111 276.842 473.744
566 0 77.0871 13.6469 1052 102.879 277.496 472.105
567 0 80.1131 13.2812 1064 102.815 276.627 471.334
568 1 44.0548 11.1452 491 100.849 276.807 491.585
569 0 45.0627 12.5825 567 93.9171 278.157 489.661
570 0 46.0377 11.6861 538 94.1301 278.24 488.639
571 0 48.0729 11.2537 541 90.403 279.205 488.536
572 0 48.0707 12.44 598 88.2291 278.732 488.729
573 0 49.0236 13.7281 673 86.5082 279.682 484.889
574 0 51.0536 10.7534 549 91.0091 278.505 487.49
575 0 52.0353 11.3577 591 90.1303 278.8 486.733
576 0 54.079 13.055 706 87.1161 277.708 485.215
577 0 55.0647 12.1675 670 89.0328 278.366 482.094
578 0 58.1538 13.0172 757 87.6433 278.587 481.832
579 0 57.0462 11.7273 669 91.1764 279.115 483.982
580 0 62.1155 13.1207 815 87.7558 278.28 483.222
581 0 62.0807 12.1938 757 91.7675 278.511 481.489
582 0 60.1119 11.645 700 94.5643 278.69 479.7
583 0 63.1758 13.1696 832 92.2079 279.972 477.201
584 0 68.1118 13.0227 887 91.2649 277.98 479.098
585 0 67.0584 12.4667 836 93.2632 278.171 477.927
586 0 71.1508 12.6773 902 93.4834 277.72 475.665
587 0 72.1858 12.7726 922 94.1855 278.255 474.347
588 0 73.1121 10.8464 793 98.9596 278.112 473.419
589 0 79.1278 13.0169 1030 94.7845 277.86 474.119
590 0 75.0867 10.8142 812 103.17 277.824 469.624
591 0 82.141 12.4785 1025 101.96 278.704 469.941
592 0 83.2581 11.2782 939 104.586 277.837 465.643
593 0 88.3593 10.7855 953 104.919 278.224 463.288
594 0 91.1758 11.1433 1016 104.912 277.396 458.854
595 1 46.1921 10.9759 507 100.03 278.114 481.937
596 0 45.1337 10.4357 471 102.34 276.096 484.924
597 0 48.1659 12.2701 591 98.6514 277.79 487.12
598 0 49.1612 11.1267 547 100.737 278.634 487.303
599 0 49.0892 11.9578 587 100.049 277.816 486.02
600 0 53.1048 12.4659 662 97.9698 278.45 485.405
601 0 53.1429 11.9489 635 99.6961 278.238 484.643
602 0 56.1639 11.0213 619 100.522 278.83 484.288
603 0 56.0752 11.8412 664 100.52 279.163 482.297
604 0 59.1781 11.2711 667 101.568 278.691 482.124
605 0 58.1266 11.6298 676 102.499 277.987 481.271
606 0 63.1397 10.9123 689 101.898 278.43 481.676
607 0 66.0679 11.6244 768 100.934 278.647 479.188
608 0 66.1586 11.7747 779 101.332 278.478 476.689
609 0 70.0957 13.3246 934 97.6349 279.451 475.56
610 0 73.1408 13.3441 976 98.0666 278.243 475.317
611 0 75.1088 12.2888 923 100.471 278.52 475.414
612 0 79.197 12.9803 1028 99.179 278.039 471.398
613 0 81.0903 12.0976 981 100.815 278.563 472.43
614 0 85.1225 12.6054 1073 100.603 277.448 471.586
615 1 44.063 11.0524 487 102.515 278.875 491.115
616 0 46.0129 13.0833 602 102.01 278.591 488.337
617 0 48.0495 11.9668 575 107.52 278.623 488.355
618 0 50.1329 13.0653 655 108.319 277.009 487.812
619 0 51.1989 12.2463 627 111.383 277.941 486.742
620 0 52.127 12.9683 676 109.964 277.509 486.99
621 0 54.2684 13.1384 713 109.156 277.61 487.003
622 0 56.1679 12.8899 724 110.242 277.715 483.785
623 0 58.1766 12.8574 748 109.201 277.713 484.365
624 0 59.2001 13.1419 778 109.756 276.609 482.746
625 0 60.2235 13.5993 819 109.274 277.027 480.625
626 0 61.1565 13.5227 827 110.768 275.874 481.193
627 0 65.1037 13.8855 904 108.405 276.015 480.364
628 0 68.1424 13.9854 953 107.874 275.859 478.445
629 0 71.3097 14.5562 1038 106.744 276.21 477.423
630 0 73.1362 13.5227 989 110.213 276.995 477.075
631 0 75.3169 15.0697 1135 107.344 276.555 474.811
632 0 79.2908 15.5882 1236 105.994 276.321 474.701
633 0 82.5592 14.5471 1201 109.361 275.704 472.236
634 0 85.3423 14.1196 1205 111.316 276.461 471.579
635 0 90.5027 14.309 1295 111.585 276.828 468.741
636 0 94.3836 14.7907 1396 110.089 277.286 467.923
637 0 97.3013 14.0903 1371 110.85 276.794 465.371
638 1 47.1619 11.5135 543 100.267 277.919 488.718
639 0 49.2531 12.1211 597 100.095 277.223 482.913
640 0 49.1014 12.3622 607 100.254 276.509 475.995
641 0 49.2194 12.4544 613 100.551 276.618 479.644
642 0 52.091 11.9598 623 101.136 275.616 479.18
643 0 55.0275 12.5028 688 99.766 276.307 478.429
644 0 56.0474 12.5251 702 100.799 276.427 474.447
645 0 58.0902 11.6026 674 101.036 276.228 476.515
646 0 59.1071 12.2997 727 99.8308 276.806 475.249
647 0 63.1893 12.5654 794 99.2632 277.401 473.055
648 0 65.2177 12.9566 845 99.1254 277.051 470.099
649 0 67.1142 12.5458 842 101.298 277.577 471.685
650 0 69.1452 13.5512 937 100.161 276.965 470
651 0 71.1062 13.4166 954 101.762 277.853 477.915
652 0 73.0896 12.4642 911 104.443 277.518 475.414
653 0 78.1718 13.5599 1060 101.522 277.415 474.581
654 0 80.0716 12.4888 1000 104.637 277.143 473.007
655 0 82.2131 11.2877 928 106.956 277.67 472.39
656 0 88.1257 13.424 1183 105.337 277.267 469.977
657 0 89.2871 11.9278 1065 108.792 277.657 467.683
658 0 94.3681 14.0937 1330 104.879 277.173 464.795
659 1 48.1749 11.1884 539 105.484 276.62 486.443
660 0 50.3055 12.762 642 100.461 276.55 482.617
661 0 51.2261 13.0402 668 100.609 277.253 481.686
662 0 51.1325 11.4213 584 105.589 276.221 482.467
663 0 52.1059 12.3786 645 104.273 276.074 484.434
664 0 53.0946 11.5831 615 105.92 275.898 484.868
665 0 55.0945 12.0339 663 105.437 277.297 481.825
666 0 59.1062 12.7567 754 102.296 277.097 480.139
667 0 60.1874 12.1288 730 103.105 277.222 477.933
668 0 62.0788 12.613 783 100.71 278.715 479.47
669 0 62.1074 11.9148 740 102.839 278.019 479.776
670 0 66.0723 13.016 860 99.614 277.723 477.481
671 0 69.06 12.3805 855 100.477 278.468 475.67
672 0 70.2101 11.7362 824 101.068 278.392 473.765
673 0 75.1013 12.6629 951 98.0641 278.723 473.073
674 0 76.1057 10.6956 814 102.064 278.848 473.403
675 0 79.1762 12.2764 972 98.5638 278.481 472.004
676 0 83.127 13.1004 1089 96.4435 277.624 469.977
677 0 86.2007 11.8561 1022 97.6673 278.999 466.993
678 0 89.0828 12.3144 1097 95.7147 277.733 469.481
679 0 92.1554 11.9147 1098 96.3279 277.634 464.014
680 0 93.1677 11.109 1035 98.3208 278.402 461.904
681 0 99.1452 11.8916 1179 95.6768 278.1 461.014
682 1 54.0523 12.6914 686 94.7493 278.711 483.71
683 0 54.1487 12.0779 654 99.8456 279.278 480.642
684 0 57.0783 13.0172 743 100.273 277.933 480.762
685 0 58.1516 11.9343 694 102.79 279.209 478.696
686 0 58.0163 12.2724 712 102.826 278.188 477.851
687 0 62.1767 12.6736 788 100.621 278.086 477.461
688 0 66.1592 11.7746 779 102.422 278.086 475.619
689 0 68.1288 12.8433 875 99.9566 278.365 475.723
690 0 70.0526 14.1037 988 98.6022 278.967 474.536
691 0 72.1972 13.0891 945 101.065 279.401 473.944
692 0 75.1294 12.738 957 103.549 279.633 470.921
693 0 75.1494 12.535 942 105.865 279.482 469.535
694 0 78.1932 12.6865 992 106.663 279.352 468.883
695 0 80.3014 12.5652 1009 106.78 278.845 469.047
696 0 85.1774 14.0178 1194 105.611 277.709 467.987
697 0 86.1402 12.8511 1107 110.129 277.944 465.39
698 0 88.27 12.847 1134 109.982 277.39 465.303
699 0 95.2678 13.4673 1283 106.905 278.341 464.035
700 0 96.1911 14.1801 1364 107.001 278.529 462.11
701 0 97.242 13.1939 1283 110.397 278.71 461.478
702 0 100.199 13.6927 1372 109.919 278.716 457.214
703 0 101.327 14.9516 1515 106.667 277.496 456.512
704 0 102.158 12.7058 1298 111.3 278.2 454.851
705 0 105.126 12.7466 1340 109.278 277.503 455.09
706 0 109.092 13.3832 1460 108.202 277.86 451.423
707 0 112.115 13.4148 1504 106.356 277.408 449.067
708 0 115.302 13.2435 1527 106.277 278.716 447.902
709 0 119.29 12.5157 1493 107.325 278.021 446.906
710 0 125.272 12.2933 1540 107.429 278.51 445.01
711 1 70.1792 12.9953 912 100.754 278.624 469.659
712 0 70.2122 12.8753 904 104.256 278.344 467.265
713 0 73.1039 12.3249 901 106.014 278.954 466.055
714 0 73.1427 12.1543 889 110.522 279.672 463.108
715 0 78.1144 12.8786 1006 107.517 279.622 464.73
716 0 82.1179 13.9555 1146 105.118 279.241 462.66
717 0 83.1111 13.8128 1148 106.054 278.487 461.942
718 0 87.1808 13.2254 1153 106.942 279.67 462.259
719 0 90.0793 13.477 1214 105.636 279.89 461.652
720 0 93.1193 13.6062 1267 106.017 279.684 458.68
721 0 97.0532 14.0335 1362 104.643 279.28 456.985
722 0 96.2488 12.1975 1174 109.717 279.449 454.258
723 0 101.198 13.3796 1354 105.823 278.096 451.634
724 0 104.238 12.7593 1330 107.667 277.644 449.807
725 0 107.218 12.7591 1368 107.851 278.303 454.955
726 1 56.1155 11.1912 628 106.341 278.725 476.033
727 0 56.1155 11.1377 625 157.646 277.731 476.046
728 0 61.0928 13.0294 796 106.955 277.656 478.607
729 0 64.3638 14.2471 917 102.684 278.224 479.191
730 0 66.215 13.7431 910 104.44 279.112 477.636
731 0 68.2467 13.8322 944 103.267 279.15 477.421
732 0 69.1721 12.8809 891 106.85 278.978 474.928
733 0 72.2062 14.3755 1038 102.71 278.526 474.306
734 0 75.175 13.6748 1028 104.482 278.575 474.426
735 0 79.2808 14.4297 1144 101.477 277.805 472.765
736 0 81.265 14.3235 1164 103.454 277.491 466.61
737 0 83.1874 12.9346 1076 106.436 278.045 465.388
738 0 88.1363 13.3884 1180 100.807 277.058 463.44
739 1 43.0523 11.5441 497 97.6439 276.7 486.817
740 0 46.0698 12.5245 577 99.4853 275.984 485.456
741 0 47.0796 12.4683 587 100.511 275.741 487.511
742 0 48.0349 12.0121 577 103.222 275.993 486.957
743 0 49.0828 12.9984 638 102.37 275.497 487.016
744 0 51.0984 11.7029 598 105.095 275.599 485.722
745 0 53.1754 12.5246 666 103.893 276.263 484.098
746 0 53.0617 12.721 675 104.818 276.529 484.507
747 0 54.0688 13.3349 721 104.19 276.99 481.822
748 0 55.2051 12.2815 678 106.258 277.074 482.637
749 0 59.1128 12.9752 767 104.777 276.784 479.803
750 0 61.1356 13.6255 833 103.507 276.609 480.023
751 0 62.1039 13.0105 808 104.757 276.792 479.361
752 0 63.2517 13.7388 869 104.301 276.295 479.262
753 0 66.078 12.9695 857 104.68 277.334 478.814
754 0 67.1549 13.1487 883 103.265 276.323 473.988
755 0 69.1434 14.5929 1009 100.09 277.079 474.269
756 0 72.1622 13.4004 967 102.24 277.491 474.363
757 0 73.0962 12.6819 927 104.652 278.524 472.946
758 0 78.0674 13.309 1039 103.552 278.245 472.314
759 0 79.2011 13.8761 1099 143.28 277.61 457.086
760 0 84.203 14.4175 1214 143.778 277.04 451.212
761 0 85.0965 12.8442 1093 148.712 278.253 453.363
762 0 87.1701 12.4928 1089 150.861 277.503 456.029
763 0 90.1383 13.1797 1188 150.847 278.347 455.413
764 0 93.115 12.8229 1194 153.302 277.73 456.713
765 0 96.1036 14.7133 1414 150.974 278.603 460.893
766 0 100.254 13.4857 1352 154.585 277.47 460.766
767 0 104.143 14.5281 1513 154.28 277.79 458.542
768 0 105.204 13.5356 1424 157.558 278.137 458.314
769 0 109.226 14.6302 1598 158.625 277.84 454.8
770 1 122.304 10.7683 1317 164.83 277.38 460.202
771 1 61.0576 14.2161 868 159.751 278.737 478.205
772 0 64.0561 17.0788 1094 155.478 277.74 478.565
773 0 66.1253 15.3043 1012 161.012 278.857 478.5
774 0 68.1145 14.0205 955 167.293 278.099 477.082
775 0 71.0953 13.2076 939 171.244 278.226 477.032
776 0 73.0714 13.5073 987 174.299 277.907 475.393
777 0 75.1257 13.7104 1030 177.43 278.235 473.704
778 0 75.0577 14.8819 1117 178.812 277.569 472.397
779 0 82.1448 12.8675 1057 183.411 278.688 472.202
780 0 83.1398 15.2153 1265 182.508 277.697 471.036
781 0 85.1603 13.9384 1187 189.677 278.061 468.672
782 0 94.2857 19.0379 1795 187.487 277.007 469.228
783 0 88.1108 17.478 1540 100.384 277.899 462.73
784 0 86.096 13.8915 1196 111.236 278.633 464.283
785 0 85.2905 12.0646 1029 113.38 279.25 464.886
786 1 47.0538 11.0087 518 115.266 279.023 485.301
787 0 49.0627 11.9031 584 113.872 279.057 483.873
788 0 50.0452 12.129 607 114.685 278.944 481.926
789 0 52.1476 13.6727 713 110.209 279.683 481.857
790 0 54.1247 12.8222 694 111.579 279.228 480.086
791 0 57.0275 14.1686 808 107.938 279.632 477.691
792 0 58.1051 13.923 809 105.867 279.433 477.7
793 0 58.0309 13.8547 804 109.698 279.419 473.908
794 1 73.126 16.41 1200 93.4125 278.206 466.555
795 0 70.128 16.0706 1127 98.8988 277.831 467.119
796 0 69.099 16.7441 1157 100.149 278.002 466.164
797 0 65.1247 12.7601 831 111.75 276.999 467.319
798 0 72.1125 13.1877 951 108.805 277.862 468.85
799 0 73.1326 12.1697 890 110.404 277.862 469.861
800 0 76.4437 13.8403 1058 108.507 276.864 467.99
801 0 80.0617 13.7769 1103 104.672 276.003 471.932
802 0 84.0856 13.9501 1173 104.58 276.231 469.292
803 0 88.0714 13.1144 1155 106.461 276.549 468.305
804 0 90.1082 13.5504 1221 105.568 277.013 468.706
805 0 94.1145 12.9204 1216 105.398 277.024 466.643
806 1 50.0342 12.1517 608 106.637 277.671 487.301
807 0 54.1519 13.8869 752 103.661 276.803 485.348
808 0 57.0614 13.7746 786 99.8537 277.777 485.91
809 0 57.0408 13.0433 744 102.05 277.124 485.897
810 0 57.069 12.2834 701 104.489 276.583 483.479
811 0 60.0593 13.5366 813 100.795 277.282 479.561
812 0 61.0696 12.3302 753 103.874 276.637 480.575
813 0 64.0997 12.621 809 102.661 275.523 479.158
814 0 67.0367 13.9028 932 99.5676 277.028 477.54
815 0 68.1818 12.012 819 105.325 276.274 476.728
816 0 70.1126 12.1661 853 104.596 276.137 476.292
817 0 75.1062 13.2346 994 101.541 276.254 472.718
818 0 76.0973 12.7337 969 103.186 277.006 473.444
819 0 80.1244 13.0422 1045 102.473 275.949 471.143
820 0 84.1104 13.3396 1122 100.889 277.018 469.398
821 0 86.1365 12.8285 1105 102.561 276.939 467.36
822 0 86.2411 11.7461 1013 106.168 277.061 464.895
823 0 91.088 13.5364 1233 102.62 277.221 463.316
824 0 95.2109 12.9502 1233 104.663 276.856 462.331
825 0 100.051 11.644 1165 108.844 276.732 460.563
826 1 51.049 12.0277 614 103.702 276.117 482.681
827 0 54.0835 12.0739 653 104.844 277.655 481.842
828 0 57.1905 11.7502 672 104.211 275.137 482.046
829 0 60.0565 12.5882 756 101.573 276.29 479.663
830 0 62.1097 12.5584 780 102.203 275.713 477.547
831 0 63.1335 11.4994 726 104.128 276.101 479.337
832 0 67.13 12.2449 822 102.021 275.712 476.437
833 0 69.0535 11.9907 828 102.402 276.762 474.104
834 0 71.1209 12.3874 881 102.123 275.513 473.624
835 0 74.0565 11.7613 871 103.078 274.853 472.587
836 0 77.1584 11.9235 920 102.528 275.704 471.69
837 0 82.0837 13.3279 1094 99.8821 276.195 468.006
838 0 83.0881 11.205 931 104.371 276.147 464.765
839 0 87.1029 11.5725 1008 103.99 276.253 462.794
840 0 91.1205 12.3243 1123 102.497 276.282 462.113
841 0 95.1577 12.4425 1184 101.667 277.184 461.316
842 1 51.0536 11.6348 594 97.5219 277.998 483.375
843 0 53.0289 12.3517 655 96.0779 277.285 482.795
844 0 54.0523 12.2659 663 82.721 278.329 482.03
845 0 55.0524 12.0976 666 96.1321 278.471 482.215
846 0 58.0912 12.4115 721 95.6505 278.598 480.2
847 0 62.0636 13.0834 812 91.5961 278.015 479.1
848 0 58.0908 11.1894 650 99.4692 278.58 477.891
849 0 63.0675 11.3212 714 97.895 277.611 478.709
850 0 66.0631 13.5174 893 93.7525 278.928 475.892
851 0 68.1412 12.7236 867 95.0704 279.573 475.409
852 0 71.0867 12.4074 882 95.4943 279.037 475.82
853 0 71.1859 11.9687 852 96.9225 278.919 474.684
854 0 75.2396 12.4668 938 95.8955 278.114 474.61
855 0 80.0401 12.5312 1003 95.5653 277.796 471.766
856 0 81.1187 13.2152 1072 95.5914 278.429 470.951
857 0 84.1139 13.2677 1116 96.4955 277.426 468.554
858 0 88.2772 14.7263 1300 93.5754 277.869 466.296
859 0 88.1857 12.7685 1126 99.5249 277.526 466.232
860 0 93.1456 14.3861 1340 96.5843 277.534 463.765
861 0 95.2391 13.9649 1330 98.5128 277.8 460.914
862 1 50.1262 11.2716 565 104.103 278.343 485.253
863 0 52.1093 12.4162 647 102.218 277.669 483.77
864 0 53.316 11.4787 612 105.118 276.938 482.198
865 0 54.2247 10.77 584 106.308 277.188 482.692
866 0 58.2242 12.4347 724 101.967 277.394 482.808
867 0 57.2603 11.5787 663 106.288 277.014 480.938
868 0 62.0968 13.173 818 100.166 277.704 480.656
869 0 64.2655 14.5646 936 97.9765 276.929 478.641
870 0 65.2809 12.5917 822 102.563 277.596 478.41
871 0 69.2528 13.3713 926 100.452 277.027 476.054
872 0 69.1417 12.1345 839 104.28 277.26 475.992
873 0 72.3779 12.5453 908 103.836 276.925 474.46
874 0 74.1508 14.2278 1055 101.028 277.728 472.743
875 0 78.3455 13.3001 1042 102.244 277.05 472.213
876 0 79.5019 13.9494 1109 101.189 277.648 471.663
877 0 82.3081 13.328 1097 104.27 277.502 469.792
878 0 85.4181 12.4564 1064 107.091 276.323 466.557
879 0 88.3372 13.7654 1216 104.545 276.6 464.819
880 0 92.3307 13.6033 1256 104.689 276.884 464.967
881 0 95.348 13.6448 1301 104.871 277.094 462.924
882 0 98.3721 13.7437 1352 106.017 276.722 458.648
883 1 54.3147 11.2861 613 104.685 277.235 480.897
884 0 52.2587 11.4813 600 104.628 277.19 478.785
885 0 57.3303 13.6054 780 91.4423 276.94 478.612
886 0 57.0574 13.057 745 90.5262 277.87 483.2
887 0 59.0553 12.2428 723 92.6791 277.484 482.216
888 0 61.0404 12.9259 789 91.3181 278.119 481.641
889 0 61.0717 12.8865 787 92.1499 277.367 477.936
890 0 65.1544 12.2171 796 92.0389 277.516 478.046
891 0 67.2925 13.3744 900 90.0011 277.084 475.508
892 0 68.1001 11.9677 815 92.5276 277.312 475.73
893 0 73.1162 12.9246 945 89.5344 276.885 474.505
894 0 74.1446 12.4891 926 90.8596 277.381 471.23
895 0 77.2144 12.7826 987 89.6403 277.751 470.76
896 0 79.1555 12.7344 1008 90.1845 278.622 468.758
897 0 85.155 13.4813 1148 87.8519 277.348 467.011
898 0 88.2141 12.5944 1111 87.1206 277.873 464.977
899 1 44.0397 11.149 491 87.4358 278.462 487.033
900 0 47.2103 12.4973 590 84 278.293 483.869
901 0 49.1419 11.3142 556 89.0629 277.004 484.39
902 0 49.1022 10.916 536 88.6754 276.597 481.767
903 0 52.1865 11.2865 589 87.8795 277.261 481.521
904 0 52.1907 10.7874 563 89.3357 276.618 480.515
905 0 56.1159 11.6723 655 86.9618 277.113 480.052
906 0 56.128 11.8301 664 87.6988 277.056 478.968
907 0 60.224 13.8815 836 82.2404 277.611 475.249
908 0 59.1079 10.8107 639 87.8294 277.667 475.534
909 0 61.1025 12.1272 741 86.4534 278.721 476.424
910 0 63.1968 12.105 765 86.9294 278.442 475.332
911 0 65.1044 12.1651 792 86.7664 278.035 473.879
912 0 69.1559 12.1031 837 86.2832 278.179 472.559
913 0 72.1787 12.1643 878 85.4021 278.038 471.486
914 0 74.0462 12.9919 962 84.0426 277.031 470.775
915 0 77.1762 11.7264 905 85.6762 277.895 469.007
916 0 80.2919 12.604 1012 83.6265 278.313 467.669
917 0 83.1193 11.2609 936 85.6613 277.597 463.003
918 0 82.1644 10.9902 903 87.1683 277.96 463.475
919 0 89.1657 11.8656 1058 85.8658 278.247 462.312
920 1 47.0589 10.88 512 85.373 277.982 481.039
921 0 49.1123 11.9115 585 85.853 277.578 481.94
922 0 51.1627 12.1573 622 85.0949 276.441 481.757
923 0 53.0858 11.7734 625 85.592 277.371 482.069
924 0 54.2341 11.7085 635 87.3071 276.09 478.175
925 0 56.1171 12.0106 674 87.3516 276.298 476.585
926 0 59.1257 11.5686 684 87.7456 276.31 477.083
927 0 61.2393 12.345 756 86.3624 276.944 475.284
928 0 63.1347 13.7009 865 84.274 276.909 474.787
929 0 66.269 14.1846 940 83.0511 277.583 473.353
930 0 66.197 11.5111 762 88.1549 277.037 471.067
931 0 70.1764 11.8986 835 86.1856 276.698 472.737
932 0 74.1198 12.3179 913 85.1512 276.521 469.192
933 0 74.2805 10.6488 791 87.9393 276.765 470.124
934 0 77.3915 12.5207 969 86.5934 276.379 463.932
935 0 80.3175 11.2055 900 88.9133 276.66 465.7
936 0 82.143 11.3582 933 90.0654 276.593 464.235
937 0 87.2095 13.7829 1202 85.8602 277.005 460.448
938 0 90.3102 11.5159 1040 90.1615 276.959 459.069
939 0 95.1506 11.466 1091 91.4455 277.251 455.89
940 0 97.2356 10.5003 1021 93.1479 277.319 456.962
941 1 47.1856 9.17653 433 91.8522 276.778 476.891
942 0 53.1574 11.9833 637 86.0031 275.932 481.653
943 0 54.1361 12.5794 681 86.0294 276.574 477.837
944 0 53.1463 10.6498 566 90.6926 276.5 475.569
945 0 59.1881 11.7084 693 87.9812 275.747 476.062
946 0 59.1908 12.8229 759 87.4493 276.457 476.791
947 0 61.3116 11.5802 710 90.6183 275.962 472.992
948 0 64.1291 13.2077 847 87.8678 276.701 471.224
949 0 64.1579 11.16 716 93 276.306 471.994
950 0 68.252 13.8311 944 89.0445 275.511 470.146
951 0 71.178 13.4452 957 89.8631 275.235 470.358
952 0 73.2424 13.7352 1006 89.9811 276.536 467.544
953 0 74.2567 12.3356 916 93.8068 275.788 468.691
954 0 77.1898 13.0328 1006 93.8529 276.652 463.874
955 0 81.1566 12.5806 1021 94.0333 276.149 466.897
956 0 84.1659 13.6635 1150 93.3565 276.102 462.989
957 0 85.1213 11.6657 993 99.5358 276.496 461.765
958 0 88.0724 11.8425 1043 100.386 277.084 459.224
959 0 92.2103 11.9509 1102 100.263 277.394 456.54
960 0 97.2482 12.792 1244 97.7339 276.874 456.527
961 0 99.2951 12.1154 1203 99.3616 276.022 452.841
962 0 103.159 12.8345 1324 98.0498 276.397 453.211
963 1 57.1188 10.2068 583 94.7033 276.254 477.244
964 0 60.069 11.903 715 92.6 278.352 476.772
965 0 61.1302 11.4019 697 93.7934 277.997 478.56
966 0 63.1452 11.1014 701 94.6576 277.813 477.86
967 0 64.081 11.6415 746 92.7962 277.808 475.409
968 0 67.1357 11.2012 752 93.0253 278.626 474.955
969 0 70.1778 12.5681 882 86.6383 278.734 470.578
970 0 71.1714 12.5191 891 87.2952 278.58 466.221
971 0 74.2955 12.3022 914 88.4628 278.068 466.802
972 0 76.184 13.2574 1010 87.8109 277.87 464.877
973 0 80.1918 13.4927 1082 87.9741 277.482 464.312
974 0 80.1085 11.5219 923 93.6761 278.242 466.936
975 0 84.1363 12.5511 1056 93.2244 277.907 463.827
976 0 88.1166 12.8012 1128 92.6241 277.371 464.593
977 0 91.1158 13.1152 1195 92.0577 277.472 464.286
978 0 95.2917 13.6003 1296 92.4722 277.841 460.142
979 0 98.1816 12.8232 1259 94.0905 277.52 461.132
980 0 99.214 11.5911 1150 98.0496 276.288 455.002
981 0 103.347 11.8048 1220 96.6828 276.314 451.59
982 1 56.0625 10.5953 594 91.404 277.641 476.771
983 0 62.087 12.3697 768 91.5742 277.815 477.565
984 0 63.0968 11.411 720 91.8861 277.074 476.472
985 0 66.1387 13.6229 901 88.9323 276.408 475.031
986 0 66.0835 12.7868 845 91.0935 275.961 474.464
987 0 68.0968 11.5277 785 94.3108 276.625 474.268
988 0 70.1818 12.2396 859 92.2014 276.153 473.21
989 0 74.2843 13.1387 976 90.5912 277.452 471.501
990 0 77.196 12.3063 950 92.1011 277.634 470.537
991 0 79.0552 11.2074 886 94.0835 277.547 470.19
992 0 82.091 11.4873 943 94.334 276.502 467.201
993 0 84.1378 12.4439 1047 93.7049 276.858 466.027
994 0 89.1608 12.9429 1154 92.3094 276.357 465.419
995 0 91.1978 11.4696 1046 93.3088 276.172 460.531
996 0 95.3054 12.0455 1148 95.7726 277 456.466
997 1 48.0917 10.5008 505 95.8614 276.584 482.679
998 0 50.241 11.4647 576 99.0156 276.675 476.16
999 0 53.1156 12.8587 683 93.4583 276.111 478.299
1000 0 56.0127 13.4969 756 93.082 276.328 480.5
1001 0 55.0807 13.9976 771 94.0687 276.572 479.447
1002 0 56.0546 12.2024 684 98.25 276.231 478.765
1003 0 56.1293 12.1149 680 98.8529 276.747 479.097
1004 0 61.1379 13.3796 818 94.8301 276.922 476.16
1005 0 62.0778 14.0952 875 93.8777 276.865 476.279
1006 0 64.1691 12.3268 791 97.799 276.243 476.126
1007 0 65.0773 11.7706 766 101.252 276.876 474.879
1008 0 67.044 13.2599 889 97.1575 275.809 475.299
1009 0 68.0639 12.8703 876 99.5582 277.178 470.009
1010 0 71.1088 12.3613 879 100.484 276.917 470.612
1011 0 74.0728 13.3382 988 98.2156 277.351 469.048
1012 0 75.0751 12.5874 945 101.21 277.316 469.747
1013 0 79.1612 13.8452 1096 98.7637 276.18 466.669
1014 0 79.1394 13.1666 1042 101.712 277.56 465.921
1015 0 84.2287 13.3446 1124 101.484 276.753 464.654
1016 0 86.1168 14.4687 1246 99.2905 278.051 462.66
1017 0 85.0564 12.7445 1084 104.328 277.772 465.516
1018 0 92.3331 11.8484 1094 102.627 278.328 464.21
1019 0 94.1582 12.8188 1207 103.224 277.829 460.742
1020 1 49.0897 10.6132 521 104.94 277.722 479.714
1021 0 52.0366 11.7417 611 96.0131 276.458 480.173
1022 0 56.0612 12.6112 707 95.3904 277.731 478.645
1023 0 58.1386 11.3866 662 93.3308 277.755 476.704
1024 0 58.1035 13.2866 772 91.75 277.661 476.563
1025 0 58.1712 12.4804 726 95.2011 278.083 474.676
1026 0 60.1505 12.9176 777 93.861 278.134 475.148
1027 0 63.0936 13.1709 831 94.8002 278.433 472.638
1028 0 64.1359 11.5848 743 98.6528 278.47 471.973
1029 0 65.1386 11.038 719 100.69 278.434 469.019
1030 0 69.1633 12.2319 846 97.6123 278.447 468.564
1031 0 73.2602 13.0494 956 96.3672 277.539 469.583
1032 0 75.1335 14.0417 1055 96.1791 276.686 466.6
1033 0 79.1586 13.4793 1067 98.1321 277.56 467.484
1034 0 78.0956 13.3682 1044 101.011 277.487 467.133
1035 0 83.179 14.1983 1181 98.265 278.014 465.992
1036 0 84.123 12.6838 1067 103.193 277.849 462.59
1037 0 88.1913 13.1079 1156 102.463 278.248 460.478
1038 0 91.264 13.6417 1245 102.069 278.166 457.758
1039 0 93.2096 13.7432 1281 102.436 278.331 457.268
1040 0 96.1616 12.8118 1232 105.797 277.049 455.997
1041 0 102.433 14.6046 1496 100.584 277.014 455.215
1042 1 53.306 10.843 578 104.843 276.875 478.585
1043 0 55.0934 12.3608 681 100.269 276.67 475.759
1044 0 57.0917 11.8581 677 103.452 277.555 473.476
1045 0 59.0743 11.7141 692 104.34 277.62 473.182
1046 0 61.1578 10.9553 670 107.076 277.397 469.545
1047 0 65.1329 12.3286 803 102.301 278.836 470.062
1048 0 67.0572 10.8564 728 102.724 278.264 471.405
1049 0 68.3269 11.5474 789 103.592 278.311 469.962
1050 0 70.0816 12.6281 885 102.176 277.645 467.476
1051 0 76.2675 12.4299 948 101.753 276.958 466.677
1052 0 78.0705 12.5528 980 103.723 276.672 463.957
1053 0 79.3169 11.3469 900 104.859 277.202 464.793
1054 0 83.1013 11.5762 962 107.716 276.582 462.498
1055 0 84.2989 11.8388 998 107.803 276.728 460.847
1056 0 89.1547 13.1345 1171 105.032 276.999 458.543
1057 0 92.1592 12.4893 1151 105.606 277.641 459
1058 0 98.1559 12.6839 1245 104.067 277.304 454.104
1059 0 99.0894 12.6149 1250 105.049 277.752 453.552
1060 1 54.0493 11.212 606 97.6766 279.762 480.112
1061 0 55.2384 12.5456 693 100.747 279.216 478.433
1062 0 57.0436 11.6753 666 98.8604 279.562 478.341
1063 0 59.0859 12.0672 713 99.1669 277.805 477.116
1064 0 60.0711 11.4697 689 99.3179 278.142 476.032
1065 0 62.0551 12.1505 754 98.4947 278.06 475.023
1066 0 65.0854 13.2441 862 95.7958 279.103 473.647
1067 0 65.141 11.1143 724 100.116 278.193 472.844
1068 0 68.2089 13.2681 905 96.4917 278.274 470.112
1069 0 70.0767 12.786 896 97.5826 278.372 471.557
1070 0 73.1032 12.8996 943 97.1877 279.46 468.978
1071 0 75.2184 13.1351 988 96.6022 278.911 469.159
1072 0 77.1291 11.9281 920 99.0065 278.791 469.177
1073 0 80.0979 12.7594 1022 98.8483 279.059 464.019
1074 0 81.0699 11.891 964 100.74 278.045 465.728
1075 0 85.0505 11.6284 989 100.266 278.037 466.343
1076 0 88.1064 12.7687 1125 100.132 277.737 462.222
1077 0 91.1997 12.2917 1121 101.345 277.897 461.123
1078 0 95.2231 12.2974 1171 101.466 277.837 459.083
1079 0 97.2551 12.3798 1204 103.17 277.507 453.978
1080 0 100.536 12.5527 1262 102.747 278.414 448.654
1081 0 106.445 12.7108 1353 101.208 277.928 449.333
1082 1 58.1288 10.1499 590 103.903 279.124 474.344
1083 0 60.3315 11.6689 704 101.994 278.624 469.456
1084 0 63.3466 13.1657 834 101.222 278.737 467.583
1085 0 67.3375 12.3854 834 98.0156 278.781 468.393
1086 0 69.3245 12.9536 898 95.1013 278.618 469.153
1087 0 71.1129 12.0794 859 94.979 279.754 468.93
1088 0 74.0798 13.1075 971 92.6334 279.442 467.904
1089 0 76.0982 12.6284 961 92.871 280.222 465.175
1090 0 79.1769 13.5646 1074 91.5251 279.402 466.288
1091 0 82.1896 12.9213 1062 92.8672 279.454 464.26
1092 0 84.2845 13.4188 1131 93.3024 278.686 462.166
1093 0 87.1111 12.375 1078 94.8859 279.609 459.744
1094 0 91.116 12.9835 1183 94.3804 278.845 458.078
1095 0 93.199 13.3156 1241 93.2039 279.854 457.469
1096 0 98.1363 13.6545 1340 92.7627 279.107 454.225
1097 0 100.185 12.9061 1293 94.3155 278.819 452.138
1098 0 104.171 11.1259 1159 102.166 278.677 452.497
1099 0 108.128 11.7824 1274 100.038 278.841 450.451
1100 1 58.0853 11.9824 696 93.0359 277.927 475.191
1101 0 59.0953 11.3038 668 94.244 278.117 472
1102 0 63.0449 11.928 752 90.0758 279.174 474.342
1103 0 65.1508 12.7704 832 90.3185 279.196 474.407
1104 0 67.0704 12.5391 841 89.8359 280.018 470.927
1105 0 68.1319 12.3584 842 91.2601 279.935 469.141
1106 0 72.0981 12.372 892 92.1872 280.675 460.274
1107 0 72.0885 12.5818 907 93.6329 279.524 465.985
1108 0 77.0873 13.1409 1013 91.2122 279.099 465.987
1109 0 78.1331 11.5828 905 94.3381 279.027 466.853
1110 0 80.0988 11.6231 931 95.7132 279.09 463.772
1111 0 82.1143 12.3243 1012 96.1877 278.951 464.543
1112 0 87.0996 13.9381 1214 93.6409 279.305 463.927
1113 0 89.2338 14.0642 1255 94.6829 278.887 460.931
1114 0 92.2092 14.0658 1297 96.3948 279.021 458.621
1115 0 96.3741 13.8834 1338 96.2608 278.072 457.433
1116 0 100.221 13.6598 1369 97.3031 278.639 455.668
1117 1 55.2997 11.6276 643 98.1182 279.174 475.32
1118 0 51.1567 9.98892 511 96.2524 279.329 469.059
1119 0 56.1669 12.4629 700 88.4729 278.504 471.993
1120 0 57.1718 12.0689 690 90.6739 279.155 473.71
1121 0 60.115 12.1933 733 89.4966 277.668 475.465
1122 0 61.2128 12.7588 781 89.7759 278.761 472.875
1123 0 63.1263 12.3562 780 91.1397 278.058 471.768
1124 0 66.2275 13.4083 888 88.1745 278.23 468.774
1125 0 67.2557 12.4004 834 91.247 278.601 466.958
1126 0 70.2061 12.9191 907 89.6968 278.884 467.972
1127 0 72.1977 12.5904 909 91.1375 278.209 465.15
1128 0 73.1225 12.3491 903 92.7685 277.404 466.421
1129 0 75.1691 12.5184 941 93.559 277.855 463.711
1130 0 79.2024 13.1814 1044 94.0642 277.649 461.237
1131 0 82.1701 14.0927 1158 92.3342 278.464 460.497
1132 0 85.0989 14.254 1213 92.0305 277.77 459.508
1133 0 87.1074 12.2837 1070 95.6327 278.211 457.364
1134 0 93.1096 12.6732 1180 93.339 278.619 457.285
1135 1 47.1146 10.5487 497 91.2535 277.624 476.553
1136 0 49.0954 10.9379 537 88.8007 278.743 478.25
1137 0 50.0609 11.7457 588 91.4405 278.66 480.226
1138 0 52.0482 13.3338 694 87.755 278.866 478.156
1139 0 54.0377 13.8977 751 87.3262 278.578 476.839
1140 0 55.1002 12.686 699 89.9542 278.113 476.177
1141 0 56.1145 12.1003 679 91.5376 277.524 475.543
1142 0 59.0821 12.7111 751 88.8881 277.858 473.483
1143 0 59.0984 12.8599 760 89.4789 278.72 474.954
1144 0 60.0999 13.3777 804 89.9129 279.566 471.219
1145 0 64.0867 11.6561 747 91.668 278.817 472.928
1146 0 67.2036 12.0083 807 91.6766 278.537 471.815
1147 0 68.0515 13.4751 917 89.6859 279.606 469.346
1148 0 70.1991 13.0913 919 90.099 278.666 468.281
1149 0 74.0961 13.9683 1035 88.2068 277.994 466.272
1150 0 75.0941 14.9945 1126 87.4893 278.38 464.546
1151 0 78.1369 13.8091 1079 89.2864 278.259 462.385
1152 0 81.0791 12.2966 997 91.9699 278.695 463.284
1153 0 83.0932 13.2622 1102 90.5608 278.193 462.254
1154 0 86.2664 13.2381 1142 91.0175 279.101 459.924
1155 0 87.2104 13.3126 1161 91.0508 279.717 457.903
1156 1 49.0076 10.4474 512 97.4531 278.436 475.633
1157 0 54.0546 12.4319 672 89.3408 278.735 479.268
1158 0 53.135 12.5341 666 89.7327 279.288 476.533
1159 0 56.0586 12.6832 711 89.3221 279.793 474.91
1160 0 57.1263 13.1638 752 88.6995 279.636 472.134
1161 0 59.0671 12.9344 764 88.9529 278.827 473.704
1162 0 61.1079 13.6316 833 87.4526 278.591 470.498
1163 0 63.093 11.9189 752 90.4029 278.608 470.73
1164 0 64.0673 12.1435 778 90.126 278.094 470.758
1165 0 68.0983 13.4805 918 87.2418 279.056 467.35
1166 0 69.1241 13.483 932 87.5322 278.144 466.925
1167 0 70.2629 11.8128 830 90.688 278.952 465.929
1168 0 73.0885 12.6422 924 89.1613 278.271 464.07
1169 0 77.0885 13.4261 1035 87.0145 278.732 464.186
1170 0 79.0876 11.9488 945 90.2487 279.385 462.273
1171 0 82.1764 13.398 1101 87.5159 279.569 462.223
1172 0 85.1263 12.9807 1105 88.2869 279.306 462.816
1173 0 89.182 13.2538 1182 88.3723 279.362 459.445
1174 0 90.1692 12.2104 1101 91.3379 278.949 458.626
1175 1 50.057 12.2261 612 91.9902 279.943 478.27
1176 0 53.1188 12.3685 657 91.5845 280.618 476.381
1177 0 55.1624 13.4693 743 92.607 279.797 476.361
1178 0 56.2188 11.7576 661 96.4932 278.59 476.998
1179 0 57.1526 12.3529 706 95.6388 279.424 476.558
1180 0 58.2582 12.3588 720 96.0833 278.679 476.032
1181 0 61.1243 13.2353 809 94.9815 278.451 474.292
1182 0 61.1981 14.2652 873 93.4548 279.001 471.695
1183 0 64.2183 12.9402 831 95.5523 279.094 471.369
1184 0 62.2819 10.6451 663 98.9065 278.692 470.22
1185 0 66.3055 12.1559 806 98.928 279.538 469.875
1186 0 69.2847 12.629 875 97.2914 279.526 469.899
1187 0 72.2157 14.3736 1038 95.0193 279.3 464.623
1188 0 72.3597 12.507 905 99.8475 280.261 464.554
1189 0 77.413 14.3128 1108 95.2527 278.899 461.636
1190 0 76.102 12.9563 986 88.929 279.458 466.252
1191 0 80.1564 11.8269 948 91.2753 278.601 465.508
1192 0 85.0793 13.3875 1139 87.0939 277.752 461.319
1193 0 86.1506 12.5246 1079 90.4495 277.863 457.611
1194 0 88.1971 12.4494 1098 89.1876 277.62 458.159
1195 0 90.2391 11.946 1078 91.4453 278.428 456.168
1196 0 93.301 11.5862 1081 93.1915 278.838 455.787
1197 0 96.3525 11.9457 1151 91.1546 279.548 452.936
1198 0 101.234 12.9205 1308 88.7431 278.684 453.235
1199 0 101.317 11.0248 1117 91.6285 278.724 452.534
1200 0 103.22 11.6063 1198 91.2162 277.747 452.194
1201 1 56.1509 9.33199 524 89.9313 277.332 474.345
1202 0 58.1653 10.453 608 88.9408 278.434 472.016
1203 0 60.1022 10.9147 656 88.2058 279.392 473.143
1204 0 61.1805 11.556 707 87.6096 279.222 470.59
1205 0 65.0871 11.2311 731 86.6047 279.193 467.562
1206 0 66.1623 12.3031 814 85.8907 278.447 466.628
1207 0 68.129 11.9773 816 86.1213 280.449 466.952
1208 0 71.2111 11.8942 847 84.961 278.871 465.456
1209 0 76.0942 14.4558 1100 81.5991 279.606 464.271
1210 0 78.3144 11.5688 906 86.564 279.997 464.4
1211 0 79.3651 13.23 1050 84.2962 280.196 463.977
1212 0 82.315 12.4643 1026 85.963 279.285 460.827
1213 0 85.2242 12.4026 1057 86.07 279.004 459.665
1214 0 88.3178 11.6511 1029 87.1759 278.481 461.776
1215 0 89.3804 12.1168 1083 88.3389 279.265 457.371
1216 0 95.2061 12.3837 1179 87.0534 278.99 457.187
1217 0 97.1955 12.5006 1215 87.4058 278.849 456.347
1218 0 99.3001 12.5579 1247 87.5766 279.04 452.626
1219 0 102.215 12.1509 1242 88.504 278.684 449.077
1220 1 52.1505 11.8695 619 85.5428 278.536 476.861
1221 0 54.0612 12.3749 669 90.7818 280.075 475.668
1222 0 54.0731 11.4475 619 91.8061 279.79 474.354
1223 0 57.1455 13.0719 747 88.0817 280.782 472.71
1224 0 59.2853 13.7471 815 86.9117 279.977 471.88
1225 0 60.2585 12.4298 749 89.6969 280.037 471.852
1226 0 62.1426 13.1472 817 88.9486 280.705 468.244
1227 0 64.1308 12.724 816 89.8346 280.053 469.748
1228 0 68.1459 13.5298 922 88.1584 279.281 470.267
1229 0 69.2114 13.0036 900 90.4478 278.7 467.619
1230 0 71.2529 12.3925 883 92.4802 279.342 465.356
1231 0 73.2209 12.4281 910 93.4978 280.127 466.57
1232 0 75.4239 12.5159 944 93.4979 280.144 461.888
1233 0 80.1378 12.4785 1000 93.709 280.149 461.616
1234 0 84.3139 13.0228 1098 92.3297 280.084 464.203
1235 0 89.221 14.4024 1285 89.6342 279.788 461.435
1236 0 89.2867 12.2527 1094 95.7185 279.577 460.288
1237 0 91.3566 13.1244 1199 95.3369 279.751 458.063
1238 1 47.1776 9.94116 469 99.0064 280.625 476.902
1239 0 48.0333 10.5135 505 95.9644 279.626 475.507
1240 0 52.0598 13.4269 699 95.8655 281.142 478.383
1241 0 53.054 12.6475 671 97.4128 280.693 477.93
1242 0 52.0902 11.4801 598 93.0987 280.463 480.358
1243 0 55.0241 12.0129 661 94.0862 280.198 477.806
1244 0 56.0569 12.6122 707 92.1344 280.146 476.976
1245 0 60.1016 12.0629 725 91.7559 280.481 476.462
1246 0 62.0987 12.0453 748 91.3449 279.654 475.493
1247 0 64.0635 12.7686 818 90.3191 279.374 475.649
1248 0 64.1984 10.156 652 95.6549 279.574 473.888
1249 0 67.1322 12.2594 823 93.2005 279.403 469.519
1250 0 69.1736 12.4036 858 92.6667 280.036 470.365
1251 0 71.1681 12.07 859 93.858 279.193 467.928
1252 0 75.1603 12.0542 906 93.1192 280.54 469.669
1253 0 78.147 12.3741 967 93.2544 280.009 466.935
1254 0 78.1444 12.0034 938 95.6386 279.884 466.004
1255 0 80.168 12.7857 1025 94.6683 279.461 464.25
1256 0 83.1923 11.203 932 97.0665 280.365 467.847
1257 0 87.1698 12.9288 1127 94.3292 280.04 463.501
1258 0 88.0889 11.8176 1041 96.8559 279.782 461.124
1259 0 90.086 11.7221 1056 96.8864 279.339 463.356
1260 0 94.1285 11.9517 1125 97.4658 278.766 455.615
1261 0 97.1364 12.5802 1222 96.7938 278.386 454.947
1262 0 102.424 12.995 1331 95.6476 279.748 453.443
1263 1 54.129 10.826 586 98.1399 280.966 478.312
1264 0 56.2539 11.537 649 97.8721 281.33 473.663
1265 0 57.1379 11.761 672 97.631 280.848 475.927
1266 0 60.0499 12.0233 722 97.6122 278.758 476.248
1267 0 63.0403 12.8807 812 95.7845 279.058 473.985
1268 0 64.1353 12.2865 788 97.9797 278.867 472.926
1269 0 66.0533 11.9752 791 98.3439 279.303 472.829
1270 0 69.1161 13.7884 953 95.2088 279.757 470.104
1271 0 71.2333 13.898 990 94.5556 279.678 471.254
1272 0 72.0886 12.3737 892 99.2321 278.15 467.438
1273 0 77.0725 12.5596 968 98.3213 278.83 464.995
1274 0 78.1821 12.7011 993 99.0232 278.383 467.146
1275 0 81.1884 12.4895 1014 99.7091 279.131 463.922
1276 0 85.1012 13.4546 1145 96.8769 279.095 466.034
1277 0 88.1257 13.0041 1146 97.904 279.586 462.6
1278 0 89.147 14.7733 1317 96.0737 279.85 460.38
1279 0 92.3151 14.1039 1302 97.6267 280.292 459.511
1280 0 95.2681 13.4253 1279 98.6599 280.011 457.858
1281 0 96.3531 12.4542 1200 101.921 280.023 456.754
1282 0 101.272 13.2515 1342 100.057 279.127 453.028
1283 0 103.344 13.1019 1354 100.147 279.376 454.247
1284 1 56.0797 12.2148 685 103.366 279.565 477
1285 0 57.0268 12.7309 726 101.584 279.077 476.95
1286 0 60.1298 13.4376 808 98.8738 279.413 475.314
1287 0 61.0841 12.9494 791 100.645 279.584 474.29
1288 0 63.0339 13.7069 864 98.9688 279.975 472.851
1289 0 66.164 13.9049 920 97.8185 280.451 474.061
1290 0 66.1126 14.0367 928 98.2888 280.254 472.227
1291 0 70.1365 13.5878 953 98.5016 280.766 472.45
1292 0 72.0516 14.4619 1042 96.9875 279.597 469.225
1293 0 72.1557 14.3024 1032 97.7422 279.878 469.37
1294 0 76.1002 13.4559 1024 98.1172 279.658 469.022
1295 0 77.1241 13.9904 1079 97.5653 279.809 465.619
1296 0 79.2803 13.2315 1049 99.4623 279.784 466.177
1297 0 83.1161 13.7879 1146 98.0785 280.291 465.196
1298 0 84.1565 14.1403 1190 98.516 280.408 462.097
1299 0 87.098 13.0313 1135 100.215 281.152 461.007
1300 0 89.1738 13.8045 1231 98.0211 280.287 462.625
1301 0 92.2267 14.9198 1376 95.718 279.69 457.971
1302 0 96.0537 13.7527 1321 97.5927 279.921 458.117
1303 0 97.1625 14.4706 1406 96.7866 279.595 456.616
1304 0 99.0344 14.7323 1459 95.7889 279.14 453.142
1305 0 105.2 13.5836 1429 97.2085 279.561 452.376
1306 0 106.158 13.9321 1479 97.3563 279.803 447.293
1307 0 110.267 13.8482 1527 97.1513 279.464 446.962
1308 0 111.328 12.7371 1418 99.208 280.401 448.4
1309 1 58.1322 11.405 663 97.7572 280.591 473.745
1310 0 56.0712 10.023 562 96.7633 281.593 471.767
1311 0 61.2129 11.9419 731 92.6115 280.107 471.412
1312 0 65.1669 11.9693 780 92.1705 280.633 464.308
1313 0 64.0622 10.6303 681 96.2217 281.213 462.542
1314 0 69.1846 12.445 861 92.1243 281.21 465.193
1315 0 67.1387 12.0497 809 94.3993 281.007 464.546
1316 0 69.1083 11.5616 799 95.5344 280.612 463.035
1317 0 71.1014 11.139 792 96.9192 280.559 463.405
1318 0 75.1245 12.4327 934 94.4197 279.996 463.531
1319 0 77.2506 11.9999 927 95.6893 280.326 462.954
1320 0 80.1745 12.9966 1042 94.1315 279.349 461.834
1321 0 82.1969 13.346 1097 93.6819 279.335 460.612
1322 0 85.3225 12.4117 1059 95.5241 279.272 460.64
1323 0 88.3543 12.3367 1090 96.4844 279.147 457.991
1324 0 90.106 12.6185 1137 96.5963 278.697 456.164
1325 0 92.4059 12.3044 1137 98.1469 278.934 455.355
1326 0 95.2378 11.97 1140 99.2711 279.69 452.855
1327 0 98.2978 12.8182 1260 98.1706 279.092 450.713
1328 0 102.328 12.9193 1322 98.2073 279.633 452.865
1329 1 56.0859 9.75289 547 95.9452 280.464 471.916
1330 0 58.0992 11.859 689 92.3832 280.374 465.811
1331 0 59.1557 10.7513 636 96.3836 280.52 466.294
1332 0 61.2028 11.6008 710 95.9296 280.468 468.469
1333 0 62.1965 11.319 704 97.5568 280.348 470.771
1334 0 67.1579 11.9271 801 95.3296 280.035 471.667
1335 0 67.1554 10.8554 729 97.3086 279.818 470.307
1336 0 69.1694 11.7971 816 96.4142 279.862 469.252
1337 0 71.1329 11.837 842 98.1318 279.367 466.397
1338 0 75.2259 11.738 883 98.4553 278.566 467.519
1339 0 76.2774 12.5988 961 97.1904 279.109 467.883
1340 0 78.2095 12.1213 948 100.005 279.017 466.234
1341 0 81.1588 12.6788 1029 100.485 279.352 465.908
1342 0 83.2202 12.8214 1067 100.254 279.452 465.468
1343 0 87.3307 12.5729 1098 101.606 279.253 462.989
1344 0 90.1873 13.6937 1235 99.4907 279.495 462.102
1345 0 91.345 12.3816 1131 102.782 278.771 462.249
1346 0 96.2481 13.0288 1254 101.384 279.108 461.143
1347 0 99.1549 12.9494 1284 102.366 278.348 459.741
1348 0 101.429 13.7831 1398 101.556 279.225 457.666
1349 1 55.0632 11.06 609 97.376 278.491 483.862
1350 0 58.1334 11.852 689 96.0406 279.003 480.849
1351 0 59.1374 13.8998 822 90.944 278.361 476.482
1352 0 61.1217 12.5815 769 95.5384 278.477 479.748
1353 0 62.0687 12.5345 778 96.0257 278.384 479.797
1354 0 64.1863 13.1648 845 94.555 279.02 477.298
1355 0 65.1666 13.5038 880 94.6443 278.853 476.601
1356 0 65.2278 11.7588 767 98.4459 278.681 477.151
1357 0 69.3734 12.9733 900 95.3978 279.113 476.821
1358 0 72.1716 11.6528 841 96.7277 278.532 476.095
1359 0 73.1604 14.2153 1040 93.224 278.771 472.368
1360 0 75.1633 14.0095 1053 92.9639 277.59 471.923
1361 0 78.2381 12.5003 978 96.5654 277.284 468.889
1362 0 80.1277 12.2305 980 97.3551 277.565 469.202
1363 0 80.2153 12.0675 968 98.8895 278.139 467.612
1364 0 86.2423 14.0766 1214 94.6713 278.025 467.344
1365 0 88.1457 13.5004 1190 101.345 278.461 465.063
1366 0 91.1446 12.9903 1184 101.784 278.127 463.948
1367 0 94.2702 13.0158 1227 101.781 278.723 460.747
1368 0 97.1656 13.0705 1270 101.866 278.41 460.489
1369 1 49.2898 11.1991 552 97.5525 278.353 485.19
1370 0 50.1868 10.2417 514 101.021 278.558 486.072
1371 0 51.0719 11.2391 574 99.939 278.113 484.713
1372 0 54.0664 12.7066 687 96.4352 277.528 483.017
1373 0 58.0851 13.8245 803 93.8879 277.836 482.37
1374 0 57.2436 11.8092 676 98.4246 277.466 484.104
1375 0 59.1505 11.8849 703 98.9616 277.98 481.541
1376 0 60.0581 13.5202 812 96.8695 277.821 480.167
1377 0 62.1285 12.8604 799 97.3892 277.95 480.582
1378 0 64.0346 12.5869 806 98.8697 277.578 477.72
1379 0 65.1125 12.8854 839 98.4827 277.882 476.883
1380 0 69.0751 12.3634 854 98.4239 278.043 477.727
1381 0 71.08 13.8435 984 96.0132 278.032 474.18
1382 0 73.0869 14.3938 1052 95.7319 277.595 473.933
1383 0 72.1138 12.0088 866 101.661 276.895 466.669
1384 0 77.2838 13.1722 1018 99.558 277.201 465.812
1385 0 79.2112 13.2683 1051 100.126 277.551 463.753
1386 0 80.268 12.1468 975 102.964 277.041 463.054
1387 0 83.2877 13.6035 1133 101.903 276.895 459.816
1388 1 46.1669 12.4115 573 101.998 276.763 482.34
1389 0 46.126 11.8805 548 107.011 277.024 482.228
1390 0 47.1227 13.1571 620 106.137 276.823 481.452
1391 0 50.2576 13.6099 684 105.374 276.626 481.298
1392 0 51.223 13.2362 678 105.274 277.255 484.46
1393 0 53.3136 13.9739 745 103.421 277.299 483.628
1394 0 54.2232 13.5366 734 101.598 276.638 482.913
1395 0 55.0987 14.0838 776 101.437 277.485 479.817
1396 0 55.3654 14.1785 785 102.031 277.311 480.746
1397 0 56.2371 14.6345 823 102.674 277.688 478.198
1398 0 58.0826 13.653 793 104.299 277.163 478.275
1399 0 61.151 13.0497 798 99.6491 276.96 482.137
1400 0 62.0812 13.0313 809 100.349 276.281 481.189
1401 0 64.1206 13.9737 896 98.2355 276.963 479.338
1402 0 66.0605 14.5927 964 97.0135 276.373 477.474
1403 0 69.0896 12.2739 848 100.795 277.097 479.366
1404 0 70.0568 12.8753 902 100.854 277.334 477.426
1405 0 72.0859 13.3868 965 100.409 276.736 475.807
1406 0 73.0786 13.246 968 101.444 277.306 475.012
1407 0 76.1082 14.3874 1095 100.009 276.932 474.607
1408 0 79.1049 14.8031 1171 98.8915 277.164 474.904
1409 0 81.1293 14.2735 1158 101.379 276.005 470.849
1410 0 83.0944 13.2019 1097 107.407 276.594 468.275
1411 0 85.0745 13.8467 1178 107.223 276.355 467.226
1412 0 86.2634 14.1775 1223 108.134 276.508 468.098
1413 0 87.1991 14.0598 1226 108.958 276.906 466.996
1414 0 90.1278 13.847 1248 109.324 276.155 465.365
1415 0 92.1645 13.7255 1265 109.449 276.487 464.603
1416 0 95.1903 14.865 1415 102.373 275.97 463.387
1417 0 97.1486 13.4845 1310 107.884 276.865 463.729
1418 0 100.202 13.8321 1386 107.973 276.133 461.623
1419 0 104.116 15.1177 1574 105.081 276.153 461.242
1420 0 106.117 14.2485 1512 109.833 276.262 459.505
1421 0 110.166 14.8775 1639 108.809 276.436 457.69
1422 0 113.149 14.123 1598 112.3 276.809 454.805
1423 0 114.134 14.3778 1641 112.305 277.146 455.163
1424 0 120.259 14.9094 1793 110.914 277.185 453.956
1425 0 124.188 15.5007 1925 109.799 276.628 451.439
1426 0 127.286 14.3221 1823 113.378 277.118 448.47
1427 0 130.217 14.0381 1828 114.135 276.396 446.591
1428 0 134.248 14.935 2005 111.598 276.988 443.848
1429 1 83.1919 9.15955 762 112.306 277.097 476.185
1430 0 83.2772 10.5671 880 112.603 275.961 471.573
1431 0 86.078 12.6397 1088 110.389 276.783 469.902
1432 0 87.1587 13.9745 1218 110.121 276.161 467.791
1433 0 88.1809 13.8919 1225 110.657 277.297 464.739
1434 0 91.1011 13.0624 1190 112.297 276.328 466.518
1435 0 94.1431 13.1396 1237 111.576 277.326 466.354
1436 0 96.3034 13.2186 1273 112.839 277.372 460.435
1437 0 98.1824 13.1999 1296 113.461 277.228 458.757
1438 0 101.223 13.4653 1363 113.078 277.624 458.032
1439 0 105.224 14.5404 1530 110.263 277.796 455.329
1440 0 109.192 14.9828 1636 109.379 276.982 456.524
1441 0 114.337 15.9616 1825 107.259 277.072 450.559
1442 0 115.273 13.403 1545 112.761 277.726 448.21
1443 0 121.28 14.7593 1790 108.29 276.716 449.626
1444 0 125.367 14.3738 1802 108.723 276.905 447.862
1445 0 130.277 14.7224 1918 106.351 277.059 444.384
1446 1 67.1165 13.0072 873 104.18 277.141 477.181
1447 0 71.1576 13.182 938 102.997 277.373 474.616
1448 0 72.1227 13.3661 964 103.644 276.646 473.424
1449 0 74.1289 14.3129 1061 101.885 277.219 472.803
1450 0 78.1214 14.1958 1109 100.996 277.469 470.199
1451 0 80.2049 14.2261 1141 101.03 277.442 468.16
1452 0 82.1079 14.3348 1177 100.398 277.297 468.782
1453 0 86.1795 13.9128 1199 100.319 277.401 467.22
1454 0 91.1518 15.1067 1377 97.3362 276.694 467.412
1455 0 92.1741 14.2231 1311 99.2838 277.056 466.388
1456 0 97.0626 16.2266 1575 95.353 276.442 462.337
1457 0 98.0827 14.5999 1432 100.054 275.615 461.219
1458 0 100.117 14.7728 1479 99.7836 275.76 459.07
1459 0 103.044 13.0721 1347 101.929 276.784 461.131
1460 0 108.117 14.5397 1572 99.6934 276.231 455.841
1461 0 111.256 15.6397 1740 97.7966 277.218 454.656
1462 0 114.187 15.4221 1761 98.4174 276.009 453.439
1463 0 117.267 14.7868 1734 99.8656 276.772 449.431
1464 0 121.318 15.2821 1854 98.7724 276.426 446.854
1465 0 126.292 15.4325 1949 98.0918 276.307 443.045
1466 0 131.194 15.1303 1985 97.9436 277.363 442.466
1467 0 133.281 14.6608 1954 99.9775 277.081 438.102
1468 0 141.253 15.582 2201 96.5797 276.268 436.791
1469 0 144.325 14.987 2163 98.1979 276.521 433.912
1470 0 150.395 14.442 2172 99.2136 276.279 432.67
1471 0 152.18 14.7457 2244 99.3837 276.494 428.236
1472 0 158.212 14.765 2336 99.583 276.278 427.402
1473 0 166.327 17.5137 2913 93.4195 276.35 420.855
1474 0 169.271 15.3895 2605 98.301 276.628 420.274
1475 0 174.323 15.1271 2637 99.0027 276.557 418.871
1476 0 181.429 15.2236 2762 98.5069 276.335 417.915
1477 0 187.309 15.098 2828 99.0442 276.715 413.171
1478 0 197.483 16.1027 3180 98.0189 276.033 404.737
1479 0 203.407 14.5866 2967 101.566 276.178 407.623
1480 0 213.556 15.0733 3219 100.531 275.967 402.638
1481 0 219.419 14.347 3148 101.533 276.672 401.539
1482 0 227.275 15.6859 3565 98.9728 275.569 397.928
1483 1 174.304 14.8419 2587 100.131 277.257 418.765
1484 0 180.387 14.4744 2611 102.563 276.504 414.411
1485 0 189.36 15.056 2851 102.081 276.056 409.919
1486 0 195.495 15.2587 2983 101.841 275.373 409.034
1487 0 201.345 14.2243 2864 103.561 275.898 409.936
1488 0 207.365 14.0766 2919 105.504 275.25 397.615
1489 0 217.291 16.3099 3544 100.313 275.237 399.814
