time division length width area intensity CMx CMy
0 0 39.0348 11.1951 437 119.037 410.641 489.856
1 0 40.0247 11.5429 462 118.359 411.03 489.784
2 0 40.0243 13.142 526 115.26 411.063 489.51
3 0 40.0288 11.142 446 121.442 411.056 490.922
4 0 40.0162 11.8202 473 122.478 411.066 489.501
5 0 41.0433 10.7204 440 122.92 411.952 491.573
6 0 41.0956 11.5828 476 123.75 411.515 490.544
7 0 42.0461 11.9868 504 123.298 411.304 491.075
8 0 42.0288 10.3976 437 126.691 411.517 492.529
9 0 43.0342 10.8751 468 127.201 411.184 492.56
10 0 44.0473 11.2152 494 127.874 411.055 490.81
11 0 47.0248 12.3552 581 122.09 411.43 491.962
12 0 46.0268 12.3841 570 125.619 411.214 491.233
13 0 50.0375 12.9103 646 122.647 410.457 490.331
14 0 49.0607 12.5355 615 124.725 410.792 490.263
15 0 50.073 11.2036 561 128.055 410.305 490.462
16 0 52.0758 12.9811 676 123.105 410.138 488.859
17 0 54.0306 12.3819 669 122.755 410.158 491.06
18 0 54.0316 11.9189 644 124.644 410.29 489.491
19 0 57.0587 12.4083 708 122.653 409.787 488.749
20 0 59.1044 12.994 768 121.586 410.155 487.612
21 0 60.0333 12.3598 742 123.364 409.978 487.266
22 0 63.0891 12.411 783 121.788 410.045 487.755
23 0 66.0369 13.447 888 118.896 409.657 487.008
24 0 66.0175 12.2392 808 130.155 409.057 488.041
25 0 69.0687 12.5817 869 122.386 409.163 485.592
26 0 70.0732 12.2872 861 125.279 409.466 485.855
27 1 36.0264 10.7976 389 121.283 409.594 501.609
28 0 37.017 12.3457 457 118.14 408.917 501.394
29 0 39.0291 12.4779 487 118.891 409.078 501.041
30 0 39.0431 11.2696 440 123.091 408.811 502.455
31 0 37.0848 11.5681 429 127.711 408.59 501.932
32 0 39.0879 11.3334 443 124.693 408.835 503.81
33 0 42.0321 12.1336 510 124.078 408.92 502.022
34 0 44.0363 13.171 580 121.333 408.7 501.3
35 0 45.0344 12.546 565 123.55 408.887 499.85
36 0 45.0621 11.8059 532 126.459 408.438 499.335
37 0 46.0407 11.5116 530 126.17 408.377 498.611
38 0 50.0079 12.1581 608 122.03 407.914 496.354
39 0 51.076 12.3933 633 123.763 407.415 494.796
40 0 51.0591 12.9066 659 123.637 408.102 493.167
41 0 52.0143 12.3812 644 124.452 407.868 494.48
42 0 57.0669 14.5794 832 117.369 407.827 493.136
43 0 56.0978 12.2465 687 123.818 407.917 493.148
44 0 59.052 13.3272 787 120.194 408.278 490.057
45 0 63.1126 13.5155 853 125.954 409.312 470.114
46 0 64.1608 13.5909 872 125.661 409.028 467.961
47 0 66.1469 13.0316 862 127.039 409.422 466.57
48 0 68.1401 12.8118 873 126.474 409.275 466.871
49 0 69.1643 13.8077 955 125.214 408.782 465.468
50 0 71.1793 12.9251 920 126.53 408.892 464.989
51 0 73.1147 13.8276 1011 124.926 408.265 464.245
52 0 77.1067 15.6925 1210 119.341 408.064 463.113
53 0 80.1364 14.4254 1156 122.884 408.42 460.421
54 0 80.2031 14.2139 1140 124.606 408.03 460.975
55 0 85.1409 15.5272 1322 120.102 408.21 459.766
56 0 88.0966 14.2684 1257 126.321 407.78 459.195
57 0 89.0787 15.1551 1350 124.65 406.713 457.991
58 0 93.1765 15.2721 1423 124.009 407.251 456.122
59 0 96.4924 13.9804 1349 128.801 407.751 454.552
60 0 98.2763 13.3603 1313 130.327 407.966 453.423
61 0 102.441 14.5742 1493 128.594 407.519 452.322
62 0 106.376 17.0998 1819 121.402 407.25 451.267
63 1 53.0807 11.6615 619 125.202 406.806 476.22
64 0 57.0743 12.3874 707 123.651 407.257 475.397
65 0 59.0849 12.0843 714 123.199 406.615 476.004
66 0 63.0656 13.367 843 119.062 406.242 473.633
67 0 62.0686 13.5817 843 144.618 406.23 473.715
68 0 67.0553 13.5411 908 118.135 406.159 471.959
69 0 67.0843 13.6247 914 118.735 406.254 470.274
70 0 71.1712 13.7134 976 118.086 405.751 470.404
71 0 71.1339 13.9736 994 118.752 406.184 469.672
72 0 75.2688 14.7073 1107 109.681 407.269 468.989
73 0 78.1543 14.369 1123 110.806 407.1 467.531
74 0 79.3243 13.4133 1064 112.784 407.636 466.579
75 0 82.1711 14.3238 1177 112.92 407.043 463.682
76 0 85.2666 13.2056 1126 114.544 407.108 462.868
77 0 87.3277 13.8101 1206 115.103 407.358 461.545
78 0 90.2016 14.1572 1277 117.557 407.236 458.671
79 0 93.2379 13.1384 1225 118.562 407.634 459.403
80 0 97.085 13.8435 1344 116.465 407.391 459.833
81 0 102.194 14.5801 1490 115.798 407.461 455.588
82 1 54.1075 11.2184 607 112.568 407.804 480.415
83 0 53.106 12.202 648 112.245 407.986 480.409
84 0 56.1394 12.0771 678 114.948 408.484 478.804
85 0 58.1059 14.1638 823 110.389 408.487 476.318
86 0 60.2681 12.1125 730 115.17 407.574 476.185
87 0 62.1506 12.3732 769 115.363 408.147 475.65
88 0 63.1346 13.1148 828 115.454 407.853 473.675
89 0 66.1 13.2375 875 113.162 407.301 474.567
90 0 69.2132 14.0869 975 110.217 406.529 472.148
91 0 70.3018 13.1149 922 113.739 406.503 471.054
92 0 73.279 12.9914 952 112.093 406.141 470.578
93 0 73.185 13.5274 990 112.757 406.145 470.07
94 0 76.2075 13.0302 993 114.49 405.975 468.51
95 0 81.1461 13.6051 1104 112.206 405.844 468.471
96 0 80.2926 13.0025 1044 116.084 405.921 466.259
97 0 81.2542 12.5901 1023 117.782 406.053 464.497
98 0 86.2676 14.4666 1248 112.318 406.002 462.542
99 0 90.261 13.3502 1205 114.362 406.319 461.772
100 0 93.3414 14.1309 1319 114.398 406.045 458.903
101 0 96.1608 13.5294 1301 115.996 405.563 458.042
102 0 98.2347 13.9767 1373 115.781 406.2 454.616
103 0 102.059 13.3452 1362 116.599 406.139 457.733
104 0 105.106 14.8327 1559 114.849 405.866 453.695
105 1 51.0511 10.7931 551 109.75 405.24 484.637
106 0 52.1527 11.1595 582 109.799 405.304 481.952
107 0 54.0793 12.3892 670 113.987 404.278 479.722
108 0 55.0376 11.6648 642 115.238 404.29 480.274
109 0 57.0974 12.6451 722 113.823 404.283 479.835
110 0 57.12 11.4146 652 118.491 403.994 477.252
111 0 64.1262 11.9296 765 115.932 404.31 477.609
112 0 61.0718 12.3298 753 118.155 404.015 475.418
113 0 64.0698 11.9557 766 119.526 404.176 476.174
114 0 70.2194 14.2696 1002 112.146 404.217 474.961
115 0 69.1553 13.101 906 117.139 404.215 473.658
116 0 73.0433 13.5262 988 117.797 403.691 472.162
117 0 74.1611 12.5133 928 112.657 404.779 471.872
118 0 76.166 10.9104 831 114.391 405.168 474.332
119 0 80.1083 13.6565 1094 110.963 404.782 470.607
120 1 43.0072 10.5796 455 117.064 404.024 488.741
121 0 46.0889 13.0617 602 104.038 405.317 488.027
122 0 44.0753 10.0964 445 113.373 404.807 488.209
123 0 47.1326 9.56875 451 113.639 404.827 488.765
124 0 50.1031 11.6759 585 109.036 405.634 487.797
125 0 52.1859 12.168 635 106.748 406.027 488.271
126 0 50.1741 10.6429 534 112.476 405.144 485.846
127 0 54.059 10.729 580 112.376 405.34 486.388
128 0 55.1127 10.8686 599 111.815 405.137 486.454
129 0 57.0814 11.3347 647 110.606 405.343 487.085
130 0 57.0954 12.0325 687 111.607 405.885 483.424
131 0 63.1172 12.0253 759 108.059 405.287 486.423
132 0 64.1237 12.164 780 110.187 405.396 484.242
133 0 64.108 11.699 750 112.072 405.528 480.252
134 0 68.2064 13.4298 916 107.787 405.988 481.529
135 0 71.1475 14.3645 1022 107.016 406.408 478.628
136 0 72.2869 13.7231 992 111.351 406.097 477.007
137 0 75.3217 12.9578 976 115.532 406.679 476.65
138 0 79.213 11.7026 927 123.385 406.877 475.224
139 0 81.2722 12.4274 1010 121.666 406.437 475.215
140 0 82.2389 12.5731 1034 120.994 406.432 470.772
141 1 44.0866 10.6835 471 110.73 405.125 492.722
142 0 43.2335 9.52964 412 115.578 405.352 492.585
143 0 45.2461 10.8518 491 111.336 404.64 492.849
144 0 48.1132 10.6208 511 110.765 405.419 493.129
145 0 46.1464 10.1416 468 115.791 406.036 491.532
146 0 48.1756 9.69371 467 116.062 406.026 490.959
147 0 49.2393 9.91079 488 118.162 405.775 486.801
148 0 52.1851 10.6544 556 114.933 405.944 487.737
149 0 53.0728 10.8719 577 113.393 405.789 491.986
150 0 53.0704 10.8347 575 114.616 405.445 495.049
151 0 54.0599 9.84094 532 116.539 405.671 492.88
152 0 57.0656 11.6007 662 112.675 405.397 492.317
153 0 59.1256 11.6362 688 112.878 405.884 490.292
154 0 60.0836 11.6338 699 114.089 405.971 488.1
155 0 60.1147 11.1287 669 115.871 405.812 487.124
156 0 64.1272 13.4888 865 109.845 405.719 487.239
157 0 67.2491 11.0187 741 114.896 405.279 487.324
158 0 67.197 11.0868 745 116.144 405.007 487.438
159 0 69.2117 11.5732 801 115.547 405.308 485.918
160 0 74.2464 12.3912 920 113.093 405.704 484.328
161 0 76.1495 12.3441 940 114.341 405.51 483.883
162 0 78.2944 12.0443 943 116.088 406.038 480.275
163 0 81.1493 12.1258 984 116.488 406.096 477.267
164 0 83.0977 12.4913 1038 114.306 405.937 478.434
165 0 88.1458 11.4129 1006 116.458 405.961 475.687
166 1 46.0897 9.02588 416 108.863 405.334 485.95
167 0 46.1166 11.1457 514 106.175 405.358 485.29
168 0 48.0647 11.5053 553 112.011 405.105 484.68
169 0 48.2026 10.6011 511 115.292 405.71 482.46
170 0 50.198 10.6578 535 116.265 405.443 482.06
171 0 52.1044 11.8224 616 115.375 404.596 480.998
172 0 54.2034 12.0657 654 114.711 405.179 478.694
173 0 56.0812 12.1431 681 114.115 404.335 479.05
174 0 55.0428 10.6826 588 119.041 404.442 478.301
175 0 58.0377 11.6821 678 117.1 404.016 476.827
176 0 58.0777 11.674 678 118.972 404.286 475.783
177 0 62.0865 11.5645 718 117.858 404.131 474.414
178 0 65.074 12.2476 797 116.674 404.302 473.004
179 0 66.0802 11.2893 746 120.032 404.277 471.807
180 0 69.1156 13.3834 925 115.411 403.312 472.64
181 0 72.1053 13.4803 972 114.731 403.694 471.45
182 0 73.0435 12.5268 915 118.805 403.951 468.356
183 0 73.0503 11.1293 813 124.23 403.674 466.986
184 0 78.071 12.1684 950 120.196 404.026 466.482
185 0 81.2484 12.431 1010 118.645 405.139 467.57
186 0 85.2536 13.1959 1125 117.153 405.129 465.296
187 1 42.1281 10.8479 457 112.208 405.35 484.875
188 0 47.1023 11.1459 525 111.051 404.585 486.459
189 0 47.213 11.2257 530 109.794 405.343 484.845
190 0 48.2069 13.1102 632 111.699 404.872 482.642
191 0 49.203 11.7473 578 113.749 405.185 483.908
192 0 53.2888 12.0476 642 112.836 404.939 483.245
193 0 54.177 12.4776 676 113.271 405.469 481.722
194 0 53.1206 11.3327 602 116.64 405.63 481.586
195 0 56.1891 11.6749 656 113.901 405.456 481.527
196 0 57.1505 10.7961 617 117.143 405.841 478.582
197 0 62.1908 12.526 779 111.725 405.14 479.322
198 0 62.1812 11.8846 739 113.478 405.876 478.645
199 0 66.1437 12.1856 806 113.031 405.641 476.821
200 0 67.1593 12.6714 851 112.395 405.483 475.646
201 0 70.214 12.7325 894 111.059 405.049 474.4
202 0 72.2773 12.0646 872 114.185 405.487 474.98
203 0 75.2119 13.6415 1026 109.915 405.746 474.577
204 0 76.4321 12.7303 973 113.853 405.415 472.453
205 0 82.1861 13.725 1128 110.004 405.021 471.663
206 0 81.2225 13.6785 1111 113.509 404.051 468.392
207 0 86.4727 14.0622 1216 112.289 403.383 467.912
208 0 86.2096 12.6552 1091 115.813 404.089 466.28
209 0 89.3289 12.9521 1157 113.897 404.017 468.001
210 0 93.2951 13.0768 1220 113.426 403.498 466.075
211 0 97.4525 13.3193 1298 112.657 403.965 464.934
212 0 97.3136 11.3448 1104 118.13 404.259 462.486
213 0 102.257 13.075 1337 113.866 403.868 464.258
214 0 104.228 11.8586 1236 115.59 404.947 465.766
215 0 111.305 13.0272 1450 113.163 404.35 460.337
216 0 114.25 14.1095 1612 110.953 404.045 458.277
217 0 118.47 13.4465 1593 112.211 403.674 457.521
218 0 122.259 13.316 1628 113.585 404.087 453.829
219 1 62.2461 10.2978 641 106.777 404.71 484.197
220 0 65.2127 10.4121 679 116.299 405.333 478.384
221 0 67.2641 11.715 788 105.34 404.496 483.084
222 0 71.3463 12.9089 921 103.668 404.774 481.013
223 0 72.3286 12.1252 877 111.282 405.023 479.641
224 0 76.0712 12.5277 953 111.26 403.299 479.686
225 0 79.1667 12.0505 954 112.825 403.761 479.289
226 0 77.197 11.4771 886 111.92 404.245 475.442
227 0 80.1856 11.9099 955 111.846 403.785 477.758
228 0 85.193 12.6419 1077 109.156 403.94 477.692
229 0 85.1962 12.125 1033 110.425 404.046 476.532
230 0 89.3786 12.2177 1092 111.256 404.498 471.871
231 0 91.2746 11.7448 1072 112.035 405.17 472.967
232 0 93.3594 13.1642 1229 111.6 404.793 469.08
233 0 96.2977 11.7137 1128 116.353 405.208 465.918
234 0 101.453 12.6857 1287 116.9 405.709 466.137
235 0 104.547 11.8894 1243 120.464 405.652 464.098
236 0 107.561 12.2907 1322 120.737 405.515 461.34
237 0 112.545 12.8038 1441 119.316 405.65 460.549
238 0 114.476 12.2821 1406 118.793 405.816 460.835
239 1 64.3175 10.386 668 108.602 405.118 485.982
240 0 65.4099 10.0444 657 107.067 404.676 484.633
241 0 66.2107 9.72652 644 109.443 404.491 483.366
242 0 66.227 10.3885 688 107.791 404.67 481.073
243 0 70.2685 11.2568 791 105.26 404.579 479.869
244 0 71.1377 10.3883 739 109.843 404.391 479.054
245 0 73.3771 9.37622 688 108.682 404.667 478.529
246 0 76.1959 11.1555 850 106.025 405.036 477.069
247 0 82.2341 10.993 904 104.94 405.642 478.415
248 0 81.2826 11.3555 923 105.517 404.934 477.288
249 0 85.3637 11.7146 1000 104.554 404.873 475.267
250 0 88.2921 11.1561 985 106.507 405.16 471.113
251 0 92.3022 10.6606 984 108.491 405.768 468.75
252 0 91.2974 13.0891 1195 104.893 406.062 468.247
253 0 94.2749 11.2861 1064 109.626 405.269 466.782
254 0 101.276 13.2608 1343 105.346 405.382 467.246
255 0 102.187 12.1151 1238 108.817 406.026 464.913
256 0 107.267 12.744 1367 107.018 405.644 462.182
257 0 108.215 11.8746 1285 108.847 405.562 464.459
258 0 114.201 11.3397 1295 109.832 405.615 459.279
259 0 117.321 13.8168 1621 105.549 405.087 456.672
260 0 121.222 11.9368 1447 111.026 405.509 452.825
261 0 126.307 12.3825 1564 110.035 405.244 450.451
262 0 131.352 14.1756 1862 105.408 405.336 451.498
263 1 71.0655 10.1174 719 96.1266 404.302 484.431
264 0 71.1731 11.1278 792 96.2677 404.753 479.782
265 0 71.1459 10.4433 743 96.6824 404.511 480.324
266 0 78.1169 11.3548 887 93.8512 404.191 481.303
267 0 77.055 11.6281 896 94.3973 404.931 479.342
268 0 80.0859 11.1131 890 96.3596 404.747 476.737
269 0 77.1837 9.76891 754 99.2109 404.954 478.256
270 0 84.1413 10.6131 893 97.7088 405.171 476.652
271 0 84.1072 9.73757 819 99.6007 404.935 476.239
272 0 86.1201 10.915 940 97.9372 404.489 473.977
273 0 88.185 11.113 980 98.1459 404.914 470.817
274 0 89.1402 9.74869 869 100.192 405.109 472.425
275 0 95.1783 10.3595 986 98.6521 405.277 471.021
276 0 98.2816 12.5456 1233 99.5872 405.294 468.789
277 0 101.336 11.4273 1158 101.844 405.768 465.044
278 0 102.173 11.4903 1174 101.322 405.688 461.575
279 0 108.147 11.0498 1195 101.49 405.075 463.022
280 0 111.176 13.0964 1456 97.533 404.348 461.104
281 0 116.241 12.3365 1434 98.2001 404.586 457.496
282 1 65.0584 10.9133 710 86.0042 404.123 485.918
283 0 64.181 11.2494 722 86.3324 404.773 484.492
284 0 64.2255 10.4009 668 87.765 405.043 484.25
285 0 72.2219 10.9385 790 86.8937 404.808 485.077
286 0 72.1652 9.74153 703 88.8549 405.172 484.018
287 0 72.2837 8.90934 644 91.2407 405.37 478.736
288 0 74.1392 10.8175 802 90.6983 406.151 478.653
289 0 83.2274 12.5199 1042 86.3109 405.648 480.226
290 0 82.2566 9.47037 779 91.706 405.508 476.194
291 0 83.2502 9.39337 782 93.2097 405.449 473.385
292 0 90.2368 11.6361 1050 88.6 405.03 477.271
293 0 91.1778 9.68438 883 91.7123 405.281 472.442
294 0 96.269 10.6888 1029 90.3654 404.909 473.262
295 0 99.1544 11.9611 1186 87.989 405.034 472.336
296 0 102.167 12.4992 1277 88.0822 404.749 468.337
297 0 106.162 12.8106 1360 87.3154 404.854 469.829
298 0 110.195 10.436 1150 91.3287 405.137 467.156
299 0 114.441 10.8615 1243 91.0402 405.242 460.658
300 1 60.3063 11.9225 719 81.3477 404.508 489.616
301 0 58.2384 9.37526 546 83.533 404.74 489.782
302 0 61.2362 11.6434 713 80.2398 405.072 487.847
303 0 65.119 11.2102 730 80.9411 404.619 486.371
304 0 66.2146 10.2092 676 82.8121 404.047 486.663
305 0 69.1936 11.1137 769 81.762 404.514 485.995
306 0 67.1419 8.86183 595 86.6336 404.536 484.04
307 0 72.1636 10.5593 762 84.5722 405.106 483.152
308 0 76.3157 13.5097 1031 82.0698 404.931 482.942
309 0 76.2089 12.0327 917 84.7601 404.59 478.205
310 0 77.1212 12.1627 938 86.1055 404.916 474.597
311 0 80.2332 12.7753 1025 85.6898 404.814 474.354
312 0 83.1768 12.9363 1076 87.0493 404.904 472.172
313 0 87.1866 11.8252 1031 89.3404 404.843 472.489
314 0 88.1516 13.1478 1159 89.4081 404.89 469.536
315 0 91.0713 11.1671 1017 94.9243 404.564 464.896
316 0 94.1801 12.2956 1158 93.6693 404.972 463.072
317 0 97.2395 12.4024 1206 94.2454 404.429 460.443
318 0 101.094 11.1876 1131 97.496 403.728 460.728
319 0 105.239 12.7995 1347 95.2249 404.468 458.783
320 1 53.0696 8.81861 468 97.5897 404.139 482.93
321 0 58.1166 10.9779 638 93.7147 404.119 482.533
322 0 60.0926 11.4157 686 92.7595 403.863 483.367
323 0 61.1602 11.3145 692 98.6185 404.158 483.559
324 0 64.15 11.3952 731 98.7469 404.676 481.628
325 0 69.2563 9.91967 687 100.083 404.523 480.843
326 0 67.19 11.1624 750 100.705 404.744 479.525
327 0 69.1852 12.0402 833 99.8583 404.945 477.586
328 0 71.1676 11.3254 806 100.419 405.088 480.511
329 0 72.2264 11.6855 844 102.13 404.836 476.463
330 0 73.2311 12.2079 894 102.922 404.547 473.773
331 0 78.1591 13.3318 1042 100.316 404.894 473.039
332 0 80.2813 13.8388 1111 99.6742 404.507 472.593
333 0 82.2591 13.4575 1107 100.514 404.79 470.047
334 0 85.1838 14.815 1262 97.4731 405.469 467.368
335 0 85.1641 12.3291 1050 103.141 404.622 468.211
336 0 88.2212 11.9472 1054 103.402 405.056 466.606
337 0 91.1024 13.3806 1219 99.6374 404.892 468.061
338 0 93.154 14.2452 1327 100.205 404.583 463.626
339 0 98.1511 13.8969 1364 99.6202 405.306 463.498
340 0 101.416 13.9328 1413 100.048 405.73 462.882
341 1 52.1835 9.98399 521 99.6315 404.319 487.267
342 0 55.1464 10.4449 576 97.2795 404.28 485.493
343 0 55.152 11.8581 654 92.3914 404.471 485.372
344 0 56.1306 9.97673 560 96.1964 404.946 482.318
345 0 59.1013 12.7408 753 90.494 405.001 485.305
346 0 60.1064 12.3614 743 92.8264 404.96 482.168
347 0 64.2558 13.1039 842 90.481 405.635 481.875
348 0 65.0931 12.9814 845 92.0793 405.669 477.793
349 0 68.0838 12.5434 854 92.8829 405.86 478.205
350 0 67.194 12.2779 825 95.3976 405.714 474.733
351 0 70.0936 13.111 919 94.0892 405.687 474.425
352 0 71.3929 12.018 858 97.1632 406.411 475.706
353 0 75.2125 12.7372 958 96.9395 406.495 474.102
354 0 79.2746 13.4217 1064 95.7049 405.958 472.611
355 0 78.1225 12.4804 975 99.0708 406.395 469.208
356 0 83.2353 13.4198 1117 97.0895 406.18 471.143
357 0 84.1674 12.5821 1059 99.0113 406.418 466.901
358 0 88.2516 11.9318 1053 101.299 405.982 461.718
359 0 93.2426 13.2343 1234 98.8963 406.31 459.83
360 1 49.1125 10.5268 517 97.7834 404.725 480.82
361 0 51.2551 11.2769 578 97.6678 404.896 477.972
362 0 51.1066 10.3313 528 94.9261 405.311 482.909
363 0 54.1182 12.0107 650 92.7923 405.748 480.205
364 0 56.2285 13.4451 756 90.8545 405.287 479.271
365 0 57.0983 11.1212 635 95.6992 404.735 478.822
366 0 60.2157 11.7079 705 95.9617 404.948 478.157
367 0 61.1162 12.5826 769 95.0143 404.871 478.485
368 0 65.2516 12.8733 840 94.8679 405.367 476.842
369 0 64.3851 13.6367 878 95.2255 405.528 474.547
370 0 69.3085 12.4083 860 98.2884 405.773 473.617
371 0 70.2275 12.2174 858 100.338 405.499 474.712
372 0 72.1952 12.0645 871 102.945 405.411 469.917
373 0 77.1701 12.9066 996 100.774 405.27 470.931
374 0 78.2784 12.2767 961 103.641 404.892 468.612
375 0 83.2196 13.0618 1087 102.347 405.437 467.017
376 0 86.3542 13.9542 1205 99.7602 405.423 469.345
377 0 89.2578 14.0268 1252 101.18 405.498 465.257
378 1 47.2209 9.74145 460 103.515 404.8 486.711
379 0 50.1811 11.2194 563 97.6536 404.853 486.586
380 0 51.4211 12.2907 632 94.4636 405.797 485.646
381 0 53.0657 9.59189 509 98.3654 404.69 493.536
382 0 53.1203 9.71381 516 99.6977 404.767 492.758
383 0 58.0952 11.1541 648 96.5602 405.083 492.438
384 0 58.1357 10.3379 601 100.319 404.847 486.27
385 0 60.0594 11.9382 717 98.1367 405.017 486.987
386 0 61.1077 11.0461 675 100.607 405.144 484.834
387 0 64.1466 11.3178 726 99.1267 404.682 485.017
388 0 69.2007 11.5317 798 99.6642 405.099 483.941
389 0 71.1267 12.4426 885 98.2927 405.24 483.637
390 0 73.326 13.0377 956 96.751 404.519 484.197
391 0 75.111 11.4231 858 100.191 405.254 482.411
392 0 78.1124 12.0596 942 99.7219 404.936 479.948
393 0 79.1225 12.4617 986 101.074 404.84 477.694
394 0 81.1206 10.8357 879 103.132 404.901 479.46
395 0 84.2254 11.4336 963 103.351 405.176 474.302
396 0 90.3839 11.8605 1072 101.121 405.384 476.369
397 0 91.1822 10.5832 965 104.407 404.635 473.428
398 1 47.1198 9.76236 460 93.9826 404.278 497.383
399 0 50.2139 11.4311 574 92.5888 404.988 496.882
400 0 50.1065 11.4157 572 91.5367 405.089 496.909
401 0 49.0677 9.61937 472 96.7648 405.114 495.398
402 0 50.0499 11.0889 555 95.4396 405.195 493.849
403 0 51.0595 9.14619 467 99.7773 405.589 494.561
404 0 54.0653 10.4503 565 96.1186 405.327 495.081
405 0 57.1722 11.3342 648 95.1636 405.241 493.309
406 0 58.077 10.8305 629 97.7647 405.665 491.906
407 0 60.0575 11.822 710 95.9507 405.699 491.745
408 0 63.0454 12.0548 760 96.2632 406.103 490.65
409 0 63.1116 12.0897 763 97.3552 405.879 491.052
410 0 67.0789 11.807 792 98.5593 405.593 488.01
411 0 70.3033 12.0478 847 99.0071 405.715 488.72
412 0 71.1283 12.3017 875 100.969 405.691 486.632
413 0 72.1229 11.0229 795 103.838 405.702 487.463
414 0 76.0762 11.8828 904 101.823 405.637 486.749
415 0 80.2291 12.3023 987 101.637 406.72 482.954
416 0 84.1692 14.1619 1192 96.2156 405.961 483.039
417 0 85.1685 10.8843 927 104.428 406.381 481.419
418 1 45.0467 10.2116 460 95.337 406.283 505.161
419 0 46.0283 11.1888 515 97.0641 405.649 497.105
420 0 44.0355 8.53857 376 102.947 406.056 495.277
421 0 50.2309 12.7412 640 100.231 407.023 487.43
422 0 50.1657 10.6646 535 106.508 407.338 484.953
423 0 50.1486 11.5058 577 107.893 406.988 481.783
424 0 50.1892 11.8751 596 109.76 406.695 480.416
425 0 56.2387 13.9406 784 103.125 406.759 480.091
426 0 56.1959 12.0471 677 108.05 407.484 479.439
427 0 55.1126 12.1751 671 102.973 406.781 477.778
428 0 60.106 11.6128 698 102.398 406.543 479.582
429 0 62.1129 13.5882 844 99.59 406.72 478.808
430 0 61.3329 12.6686 777 102.893 406.578 477.812
431 0 64.075 12.5166 802 103.476 406.864 476.814
432 0 65.0774 12.585 819 105.77 406.338 473.595
433 0 68.16 13.3363 909 103.344 406.231 475.262
434 0 71.2307 13.7722 981 102.186 406.575 472.703
435 0 73.2111 12.4845 914 104.572 406.332 470.738
436 0 73.2136 12.7299 932 105.997 406.048 468.59
437 0 79.2789 12.6894 1006 104.882 405.889 470.397
438 0 81.2723 13.1287 1067 103.986 406.186 469.189
439 0 83.1092 13.4642 1119 105.354 405.738 467.441
440 0 86.2345 12.7907 1103 105.698 406.488 466.189
441 0 88.0604 13.2296 1165 106.656 406.291 461.458
442 0 91.138 12.0696 1100 108.835 405.883 463.169
443 1 48.0935 11.5816 557 108.585 405.203 481.645
444 0 52.0872 13.0358 679 104.912 405.607 479.968
445 0 50.0553 12.4063 621 108.306 406.187 480.206
446 0 50.0753 12.641 633 104.239 406.038 482.834
447 0 53.1773 13.2575 705 105.396 406.373 479.145
448 0 56.04 12.2234 685 108.255 406.505 479.114
449 0 57.2651 13.0446 747 107.378 406.505 478.427
450 0 59.2968 13.677 811 107.707 406.668 476.115
451 0 61.1988 13.5623 830 110.046 406.678 476.207
452 0 62.2056 13.6965 852 111.79 406.498 473.969
453 0 65.6532 13.6779 898 111.468 406.663 473.886
454 0 67.2875 14.0888 948 111.781 407.079 472.369
455 0 69.401 14.7981 1027 111.084 406.161 473.154
456 0 72.4941 14.4977 1051 113.142 406.702 470.689
457 0 72.3683 14.0117 1014 116.087 406.14 471.435
458 0 76.5882 14.2972 1095 116.49 405.987 469.217
459 0 78.1923 14.5283 1136 117.347 406.341 470.299
460 0 79.4125 13.8014 1096 120.859 406.12 467.952
461 0 84.2884 15.0199 1266 116.69 405.897 466.148
462 0 87.1745 14.2243 1240 119.141 406.344 466.231
463 0 90.3751 15.2254 1376 115.962 407.094 464.278
464 0 93.5978 13.1627 1232 121.136 406.739 462.981
465 0 96.3878 14.5143 1399 118.35 407.265 461.686
466 1 51.1467 13.3929 685 118.34 406.543 479.559
467 0 52.0413 12.5285 652 121.575 405.488 476.408
468 0 55.0883 13.796 760 117.792 405.737 475.557
469 0 57.1663 14.4491 826 114.395 406.415 478.393
470 0 56.1122 14.0076 786 117.977 406.23 478.42
471 0 59.0619 15.1028 892 114.618 406.094 475.761
472 0 63.2914 14.8361 939 114.444 405.972 473.968
473 0 64.2067 15.2788 981 115.822 406.51 472.142
474 0 64.1803 13.727 881 121.497 406.141 473.17
475 0 66.1683 13.7679 911 122.266 406.38 472.963
476 0 68.1213 14.709 1002 120.165 405.958 472.935
477 0 72.2347 14.4114 1041 120.833 406.155 471.838
478 0 72.0788 14.1373 1019 123.865 406.206 470.206
479 0 77.2807 14.5056 1121 121.589 406.134 468.214
480 0 77.238 12.9211 998 126.836 406.289 469.378
481 0 81.2022 14.6425 1189 121.014 405.808 466.261
482 0 84.3616 15.1609 1279 119.725 405.815 464.757
483 0 87.2358 15.2919 1334 118.501 406.406 465.353
484 0 90.1701 14.0845 1270 122.319 406.848 461.912
485 0 92.1833 13.9288 1284 121.231 406.531 461.233
486 1 49.1665 11.4712 564 124.996 405.906 478.926
487 0 51.0608 12.6516 646 117.734 406.24 480.683
488 0 52.2228 12.619 659 121.103 405.81 480.554
489 0 54.1177 13.8217 748 117.063 406.512 479.789
490 0 55.1053 13.3381 735 117.742 405.883 479.28
491 0 58.1626 14.7518 858 116.186 406.39 476.618
492 0 61.163 14.5022 887 114.72 406.782 477.419
493 0 60.1422 13.8838 835 118.466 405.858 477.231
494 0 63.148 14.0147 885 118.144 406.339 475.205
495 0 65.2801 14.0472 917 118.505 406.137 473.015
496 0 66.2683 13.3397 884 122.04 405.936 471.977
497 0 69.2683 16.2268 1124 113.731 406.486 472.308
498 0 71.2518 13.9505 994 120.652 406.246 470.015
499 0 71.3245 13.9503 995 122.632 406.197 467.6
500 0 76.2855 15.3764 1173 120.17 406.42 468.953
501 0 78.3674 14.062 1102 125.294 406.11 468.377
502 0 81.3192 14.9165 1213 124.753 406.231 466.621
503 0 84.3817 15.1336 1277 125.056 406.711 465.211
504 0 87.2302 13.6879 1194 128.356 407.322 464.207
505 0 90.2992 15.1275 1366 125.597 407.114 461.431
506 0 92.2118 14.3257 1321 128.449 407.212 459.807
507 0 93.1357 13.3676 1245 132.382 407.423 458.328
508 0 99.2693 13.821 1372 129.644 407.171 456.988
509 0 103.143 14.6592 1512 126.799 406.806 455.295
510 0 103.217 13.3892 1382 131.312 406.758 455.525
511 0 109.318 14.6088 1597 127.075 406.727 452.239
512 0 114.281 14.5431 1662 127.714 406.392 449.193
513 0 117.359 14.2299 1670 129.286 406.398 445.671
514 0 121.39 14.6223 1775 127.33 406.882 446.124
515 0 124.456 13.6032 1693 130.31 406.564 444.172
516 0 131.28 13.9092 1826 128.165 406.599 441.388
517 0 136.372 14.8124 2020 126.026 406.196 439.084
518 0 142.441 14.8974 2122 124.304 406.262 437.885
519 0 146.482 14.425 2113 126.495 406.318 431.951
520 0 152.317 14.1416 2154 126.083 406.47 434.105
521 0 159.346 15.0177 2393 124.937 405.83 427.746
522 0 163.331 13.0778 2136 128.196 405.518 428.355
523 0 170.42 14.435 2460 124.279 405.585 425.013
524 1 91.1573 13.0653 1191 124.579 406.04 462.013
525 0 95.2832 12.5101 1192 126.361 405.96 460.346
526 0 99.2506 13.3601 1326 123.558 405.952 459.582
527 0 103.15 14.4741 1493 118.587 405.721 457.509
528 0 104.188 13.8116 1439 120.649 405.408 455.491
529 0 109.28 14.376 1571 117.12 405.899 456.217
530 0 111.315 13.9064 1548 118.939 406.345 453.959
531 0 114.182 12.9092 1474 120.555 406.123 456.064
532 0 119.203 14.7731 1761 116.385 406.056 450.852
533 0 121.149 12.8355 1555 121.501 406.393 448.222
534 0 128.311 14.7688 1895 115.612 406.229 445.932
535 0 134.262 14.5238 1950 116.507 406.052 445.218
536 0 139.251 12.3302 1717 119.488 406.232 445.14
537 0 145.274 13.6225 1979 117.241 405.603 440.46
538 0 152.298 13.513 2058 116.604 406.044 439.643
539 0 155.318 13.3468 2073 118.097 406.032 435.877
540 0 162.554 13.3925 2177 117.577 406.107 431.63
541 0 170.32 13.8797 2364 116.654 406.075 432.844
542 0 171.333 12.9864 2225 120.481 406.293 425.28
543 0 179.197 14.7324 2640 115.885 407.159 424.338
544 0 185.232 13.8205 2560 119.093 407.1 422.398
545 0 193.481 14.3632 2779 119.081 407.166 419.418
546 0 200.573 14.3788 2884 118.875 407.811 418.53
547 0 207.616 15.6925 3258 116.305 407.384 415.646
548 0 214.521 14.9729 3212 118.396 407.302 413.663
549 1 57.1816 13.4134 767 119.748 407.383 482.421
550 0 61.1482 13.1974 807 117.929 406.301 478.859
551 0 60.186 13.3752 805 119.173 406.096 478.858
552 0 63.0937 14.4864 914 116.53 406.908 477.168
553 0 65.1059 13.9619 909 117.363 406.823 477.864
554 0 67.2618 12.9048 868 121.459 406.34 476.173
555 0 69.2281 13.6072 942 119.626 406.495 476.167
556 0 73.2431 13.9945 1025 118.466 407.215 475.49
557 0 74.1504 14.4032 1068 118.337 406.618 475.37
558 0 78.2632 13.7868 1079 119.476 407 473.735
559 0 82.1524 13.6332 1120 120.212 407.106 473.803
560 0 87.2697 15.6641 1367 113.88 407.556 470.625
561 0 89.1454 15.8169 1410 115.376 407.377 469.572
562 0 90.3401 14.9878 1354 118.076 407.195 470.499
563 0 95.1788 15.4341 1469 116.939 406.68 467.882
564 1 49.1382 12.3326 606 116.056 406.064 490.053
565 0 51.277 12.6958 651 112.444 406.559 491.178
566 0 51.1559 12.7845 654 110.881 406.807 490.442
567 0 53.4648 13.0927 700 109.109 406.643 491.637
568 0 51.2209 12.3582 633 114.923 406.949 489.512
569 0 55.5879 12.8086 712 112.066 406.774 490.697
570 0 55.3162 12.2568 678 121.398 407.124 485.664
571 0 59.1442 13.1374 777 117.624 407.154 487.511
572 0 61.3045 13.0659 801 119.402 407.363 486.182
573 0 62.2287 13.7718 857 118.03 407.756 488.208
574 0 66.4668 13.9919 930 118.156 407.337 486.176
575 0 67.2827 14.4911 975 117.729 407.588 486.085
576 0 71.4239 13.6929 978 119.292 407.599 486.363
577 0 72.3054 15.0335 1087 118.5 406.529 484.866
578 0 73.791 15.0018 1107 120.507 406.564 485.628
579 0 76.7301 14.4272 1107 122.698 406.741 484.823
580 0 79.3598 15.6124 1239 120.777 406.766 482.408
581 0 80.3351 15.5225 1247 123.717 406.329 481.628
582 0 83.6771 14.7472 1234 125.335 406.602 482.664
583 0 86.4586 15.4294 1334 125.748 406.786 479.431
584 0 89.4553 14.7113 1316 127.347 407.634 477.883
585 1 48.4654 12.6688 614 120.516 407.331 500.194
586 0 49.5116 12.4415 616 118.597 407.709 500.503
587 0 48.7364 12.9267 630 119.821 408.397 498.698
588 0 51.453 13.4492 692 119.113 408.397 498.562
589 0 53.4802 13.5564 725 120.992 408.15 497.777
590 0 53.7344 13.027 700 125.347 407.374 496.4
591 0 56.5736 13.6636 773 125.146 407.216 497.144
592 0 57.3527 13.9836 802 126.641 406.913 496.47
593 0 58.586 14.1843 831 127.877 406.877 496.32
594 0 60.3788 14.6906 887 130.62 406.692 494.117
595 0 62.4481 13.8995 868 134.266 406.788 494.166
596 0 65.8249 14.7968 974 132.201 406.26 493.101
597 0 65.505 13.9684 915 135.717 406.377 492.801
598 0 68.6097 15.2165 1044 133.689 406.979 491.795
599 0 69.6878 13.8331 964 138.922 406.481 490.584
600 0 72.4992 14.4829 1050 136.989 406.683 489.659
601 0 74.6488 13.9587 1042 139.485 407.602 487.851
602 0 77.4451 15.0817 1168 135.312 407.208 488.467
603 0 82.6941 16.4945 1364 128.43 407.222 485.211
604 0 83.8379 14.7666 1238 134.709 406.733 485.937
605 0 84.5427 13.8628 1172 136.626 406.849 483.142
606 0 87.7998 13.4624 1182 135.975 406.569 481.901
607 1 48.5385 14.71 714 132.683 406.585 501.022
608 0 48.2963 14.8459 717 134.367 406.669 500.953
609 0 50.4307 14.9512 754 125.773 407.782 501.077
610 0 49.3599 14.8299 732 130.926 407.015 500.512
611 0 52.2156 15.8382 827 129.492 407.308 499.924
612 0 53.3651 14.7475 787 135.574 406.826 499.111
613 0 54.1657 15.7295 852 133.264 407.142 498.838
614 0 55.3658 15.8401 877 134.545 407.534 498.07
615 0 57.3563 15.4996 889 136.494 407.207 496.8
616 0 59.1831 15.1563 897 136.107 407.211 496.695
617 0 62.4777 16.4059 1025 131.089 406.7 496.737
618 0 63.3187 15.8405 1003 134.832 406.785 494.84
619 0 64.5778 15.4233 996 135.836 406.488 492.732
620 0 66.4382 16.1203 1071 132.653 407.117 493.484
621 0 69.3604 15.4699 1073 134.31 407.294 490.744
622 0 72.3102 15.2537 1103 133.074 407.133 490.088
623 0 75.3814 15.5874 1175 132.8 406.735 487.962
624 0 77.3612 15.8477 1226 130.595 407.013 486.685
625 0 82.4394 15.2839 1260 129.248 407.027 487.613
626 1 42.0866 14.09 593 133.384 407.162 503.533
627 0 44.1357 13.5265 597 130.563 407.653 503.017
628 0 47.3441 14.6164 692 126.331 408.171 502.598
629 0 45.0895 13.95 629 133.377 407.703 501.758
630 0 49.3822 15.6129 771 124.625 407.898 501.694
631 0 50.3352 15.516 781 128.342 407.577 499.022
632 0 52.6131 15.7946 831 128.307 406.96 498.805
633 0 53.2403 15.7775 840 131.585 407.058 497.529
634 0 54.4823 15.7482 858 131.388 406.892 498.218
635 0 56.387 15.4646 872 132.525 407.153 496.664
636 0 59.3212 16.0482 952 132.516 407.137 494.613
637 0 62.3805 16.207 1011 131.57 406.867 494.767
638 0 63.4575 16.0107 1016 134.612 406.795 493.487
639 0 66.3898 15.5295 1031 136.445 407.368 492.216
640 0 67.5315 15.0152 1014 140.104 407.54 491.354
641 0 70.2928 15.4354 1085 138.253 407.805 491.174
642 0 73.44 16.0539 1179 136.775 407.187 489.506
643 0 75.2652 15.0534 1133 139.355 407.04 489.263
644 0 78.4847 15.6081 1225 137.404 406.932 486.86
645 0 81.2263 16.1032 1308 135.696 407.754 485.013
646 0 85.4675 14.836 1268 138.066 407.42 484.677
647 1 43.2002 14.1435 611 139.768 407.393 504.157
648 0 44.3302 13.8055 612 144.985 407.376 502.925
649 0 48.2874 14.7243 711 141.018 407.447 505.364
650 0 50.2199 15.5516 781 140.959 407.88 503.939
651 0 52.2833 15.7986 826 139.513 407.788 503.893
652 0 52.4379 15.3324 804 142.598 407.928 503.44
653 0 54.5263 15.5888 850 141.813 407.891 503.2
654 0 56.2471 15.823 890 143.991 408.263 502.836
655 0 59.462 17.4565 1038 140.201 408.247 500.631
656 0 61.4734 17.1131 1052 142.129 407.939 499.886
657 0 62.5709 15.4704 968 149.087 408.31 498.195
658 0 63.5889 16.245 1033 146.912 407.962 498.596
659 0 67.5287 17.0446 1151 143.622 408.096 497.277
660 0 67.6195 16.8886 1142 146.468 408.091 495.736
661 0 69.5178 15.7658 1096 150.391 407.837 494.729
662 0 72.6388 16.0383 1165 147.986 408.061 496.061
663 0 74.5695 16.3338 1218 149.362 408.249 492.777
664 0 78.4237 16.3089 1279 146.972 408.659 492.043
665 0 82.2536 16.2668 1338 143.6 409.002 490.667
666 0 82.3264 15.9366 1312 145.399 408.704 490.049
667 0 86.3883 15.0946 1304 147.57 408.35 487.748
668 0 90.222 16.1823 1460 142.546 408.263 487.818
669 1 46.1439 15.625 721 143.377 407.727 507.552
670 0 47.1888 15.9148 751 141.88 407.12 506.933
671 0 47.0894 14.4619 681 149.662 407.012 506.026
672 0 49.2004 15.0202 739 147.714 407.156 505.788
673 0 52.1246 16.4414 857 143.845 406.573 504.858
674 0 52.1208 15.5024 808 149.588 407.127 503.192
675 0 53.4911 15.3857 823 151.134 407.775 499.909
676 0 58.559 15.9839 936 148.134 407.92 499.419
677 0 59.6035 15.9554 951 149.443 408.183 497.06
678 0 60.5215 15.763 954 151.136 408.28 495.151
679 0 63.329 15.68 993 151.27 408.126 494.872
680 0 65.5839 15.0189 985 153.661 408.357 493.444
681 0 66.7887 16.6795 1114 148.606 407.36 492.986
682 0 70.7481 16.6506 1178 148.504 407.378 491.514
683 0 74.6416 16.5859 1238 147.468 407.466 491.399
684 0 75.6843 17.0181 1288 147.799 407.628 489.065
685 0 77.7178 16.2382 1262 151.295 407.539 487.708
686 0 80.7058 17.0992 1380 148.555 407.625 487.318
687 0 83.5958 16.5559 1384 149.86 407.043 484.133
688 0 87.5975 16.5758 1452 148.778 407.213 482.858
689 0 91.5353 16.7039 1529 148.899 407.291 480.785
690 0 93.6615 16.0578 1504 150.324 407.041 481.307
691 0 98.5504 16.5702 1633 148.688 407.558 477.393
692 0 100.731 16.3405 1646 149.883 407.327 475.482
693 0 105.377 17.4421 1838 145.805 407.533 473.255
694 0 108.479 15.8096 1715 150.548 407.173 471.402
695 1 54.3942 13.347 726 141.685 407.371 500.011
696 0 56.5142 13.8195 781 142.977 406.977 497.182
697 0 61.4015 14.1853 871 140.525 407.164 495.208
698 0 61.5163 13.8175 850 143.628 407.184 494.161
699 0 63.5807 14.0609 894 141.927 407.276 493.992
700 0 66.6396 13.4905 899 143.6 407.294 492.903
701 0 68.4029 13.8152 945 140.53 407.443 492.087
702 0 72.5244 14.5468 1055 139.578 406.918 489.454
703 0 74.4708 14.5561 1084 139.641 406.604 488.287
704 0 74.5117 13.4475 1002 142.571 406.735 487.098
705 0 78.3919 13.7514 1078 140.164 406.907 486.61
706 0 81.4008 14.8524 1209 136.837 406.958 485.071
707 0 84.3729 13.9381 1176 137.289 407.432 485.595
708 0 86.4756 13.3679 1156 140.69 406.684 480.839
709 0 90.3752 14.5947 1319 136.473 406.664 479.418
710 0 93.2758 15.6632 1461 133.253 406.673 480.3
711 0 95.3717 13.8196 1318 139.234 407.162 476.144
712 0 99.3683 13.6361 1355 139.193 406.337 474.986
713 0 102.446 14.1734 1452 137.862 406.707 472.249
714 0 107.463 14.8331 1594 136.09 406.939 470.221
715 0 111.497 15.2201 1697 134.744 406.751 467.962
716 0 113.332 14.1178 1600 138.594 406.684 466.738
717 0 121.4 17.1994 2088 129.398 406.894 462.645
718 0 123.598 14.9759 1851 136.303 407.096 461.868
719 0 128.412 15.458 1985 135.201 407.14 458.089
720 0 133.475 15.1714 2025 135.298 406.6 457.595
721 0 138.762 14.6726 2036 136.699 407.228 454.433
722 0 144.57 14.851 2147 135.502 407.039 453.163
723 1 79.6538 11.9015 948 127.45 407.51 486.959
724 0 81.3504 12.2433 996 129.316 407.455 484.733
725 0 85.6229 13.4193 1149 127.452 407.167 483.207
726 0 85.3368 12.0347 1027 130.579 407.201 483.197
727 0 91.5067 13.693 1253 126.068 407.469 479.641
728 0 95.5289 12.5093 1195 127.144 407.014 479.491
729 0 97.471 12.4345 1212 127.277 407.283 478.209
730 0 101.516 12.865 1306 125.337 407.109 476.06
731 0 105.495 13.3561 1409 124.999 407.229 472.441
732 0 108.615 12.6226 1371 126.914 407.084 470.656
733 0 115.598 13.9189 1609 124.1 407.254 468.986
734 1 60.3898 12.32 744 119.165 407.297 496.272
735 0 61.1366 12.7747 781 120.166 407.522 494.862
736 0 65.284 13.2345 864 118.701 407.279 493.962
737 0 66.3911 11.7034 777 121.653 407.138 494.566
738 0 68.4165 12.5262 857 121.511 407.287 491.421
739 0 69.5145 12.501 869 122.359 407.881 492.16
740 0 73.2212 12.8515 941 120.663 407.657 491.398
741 0 74.614 13.2683 990 121.91 407.754 489.846
742 0 76.358 12.4676 952 124.611 408.254 487.254
743 0 81.5776 13.4964 1101 121.399 407.743 485.882
744 0 82.4518 13.5109 1114 122.137 408.022 483.264
745 0 84.765 12.6467 1072 124.332 408.27 483.975
746 0 89.5074 13.7195 1228 120.932 408.391 482.82
747 0 92.4212 14.3149 1323 119.72 408.404 481.432
748 0 93.4607 12.754 1192 123.728 407.893 479.414
749 0 98.8208 13.5801 1342 122.038 407.92 475.891
750 0 103.547 13.8488 1434 120.911 407.904 475.938
751 0 106.339 14.087 1498 119.97 407.843 472.328
752 0 108.62 13.8464 1504 121.728 407.884 468.465
753 1 53.2602 11.6034 618 119.447 407.472 500.031
754 0 57.4025 12.8217 736 116.42 407.948 498.799
755 0 59.3944 13.0147 773 115.717 407.492 498.38
756 0 61.4971 12.9437 796 117.327 407.998 496.817
757 0 63.7486 13.4434 857 114.764 408.448 497.211
758 0 65.2972 12.6805 828 117.766 408.455 494.364
759 0 66.5976 13.3338 888 117.3 408.366 493.443
760 0 69.4285 13.1502 913 118.501 407.72 492.824
761 0 71.5238 12.9328 925 120.663 408.014 489.724
762 0 75.666 14.1014 1067 117.316 407.868 490.12
763 0 79.4867 15.3107 1217 114.386 407.869 489.27
764 0 82.7385 15.0232 1243 114.687 407.924 488.492
765 0 84.6201 13.6492 1155 120.979 407.898 486.144
766 0 88.9129 14.0362 1248 119.603 407.887 486.437
767 0 90.5429 13.8056 1250 121.421 408.03 484.461
768 0 92.5222 13.8345 1280 121.774 408.016 483.466
769 0 96.3251 14.067 1355 121.555 408.281 481.667
770 0 101.506 15.2995 1553 118.267 409.052 479.838
771 0 102.632 14.0501 1442 122.459 408.986 477.825
772 1 48.289 12.508 604 126.503 408.444 504.134
773 0 52.4758 13.835 726 120.037 408.386 501.526
774 0 54.5203 13.8297 754 122.085 408.573 499.061
775 0 57.3677 15.1828 871 117.352 408.261 499.009
776 0 57.41 14.4574 830 119.836 407.91 498.806
777 0 60.576 14.9069 903 119.745 408.021 497.331
778 0 60.6993 13.4928 819 125.114 408.248 497.501
779 0 63.7068 16.2463 1035 117.88 408.202 496.903
780 0 65.6998 15.9209 1046 119.731 407.66 496.181
781 0 66.7395 15.1035 1008 122.436 407.387 496.493
782 0 68.5929 16.1533 1108 121.17 407.392 494.887
783 0 69.5898 15.4764 1077 124.106 407.686 493.371
784 0 72.4988 16.3727 1187 120.856 408.073 494.81
785 0 73.7402 14.7409 1087 127.916 407.362 491.839
786 0 76.5456 15.5985 1194 124.856 408.068 491.632
787 0 80.5934 17.6565 1423 90.0675 407.833 492.039
788 0 80.496 16.9449 1364 122.354 407.545 489.842
789 0 83.6022 16.4828 1378 124.497 407.675 487.706
790 0 87.5761 16.0889 1409 124.779 407.417 486.697
791 0 88.3676 15.5147 1371 126.09 407.452 486.567
792 1 46.2369 15.1611 701 129 407.06 504.907
793 0 49.353 15.0953 745 127.05 407.431 504.427
794 0 50.2354 16.3829 823 126.543 407.516 502.515
795 0 51.3042 15.5933 800 130.2 407.636 502.536
796 0 53.1842 15.1737 807 129.403 407.281 501.886
797 0 55.6142 16.7403 931 125.488 407.641 501.105
798 0 57.3401 15.347 880 128.757 407.323 501.3
799 0 59.3527 16.562 983 125.77 407.584 500.947
800 0 58.5842 16.0623 941 128.269 407.689 500.08
801 0 61.4031 16.237 997 127.547 407.072 499.46
802 0 63.352 16.4951 1045 127.86 407.16 498.311
803 0 63.7117 15.1934 968 133.513 406.856 497.312
804 0 67.4525 16.2485 1096 129.839 406.837 496.893
805 0 69.8167 16.2139 1132 130.703 406.432 495.213
806 0 71.5535 16.002 1145 130.533 406.894 494.605
807 0 71.5615 16.4753 1179 132.038 406.929 491.904
808 0 75.6589 16.0589 1215 131.536 407.103 492.227
809 0 77.3647 16.6743 1290 130.07 407.313 491.791
810 0 79.5646 16.6908 1328 130.789 406.693 489.846
811 0 81.2728 17.3859 1413 129.265 407.751 488.687
812 0 84.4455 16.8629 1424 131.765 406.824 486.904
813 0 86.3092 16.5683 1430 132.072 407.068 487.188
814 0 89.3525 16.8322 1504 132.464 406.719 484.735
815 0 93.4899 16.7184 1563 132.065 406.692 483.06
816 0 97.4396 16.7796 1635 132.974 406.766 481.764
817 0 100.31 18.1039 1816 129.616 406.879 479.636
818 0 104.387 17.3202 1808 131.867 406.312 477.726
819 0 107.286 16.5912 1780 135.687 406.462 477.063
820 0 113.486 17.6321 2001 133.761 407.011 474.389
821 0 117.648 16.7619 1972 136.628 406.547 472.167
822 1 60.4515 14.6398 885 145.523 407.069 496.989
823 0 64.3033 16.08 1034 141.464 407.184 494.722
824 0 66.424 16.7409 1112 139.437 407.46 494.481
825 0 70.4079 17.6543 1243 137.018 407.656 494.117
826 0 71.4338 16.7148 1194 142.267 407.079 491.245
827 0 73.2671 15.7369 1153 146.082 407.09 492.659
828 0 77.3215 17.3302 1340 139.183 407.693 491.325
829 0 78.3686 16.3075 1278 142.93 407.596 491.672
830 0 83.4144 17.3231 1445 139.982 406.85 487.92
831 0 84.4176 16.8448 1422 141.37 406.414 488.8
832 0 87.427 17.6833 1546 139.295 406.8 485.133
833 0 90.2054 17.183 1550 141.079 406.932 483.954
834 0 93.4391 17.1556 1603 141.371 407.001 481.961
835 0 96.4677 16.4096 1583 141.733 406.639 481.603
836 0 99.647 16.7792 1672 139.429 406.178 479.287
837 0 107.562 19.4121 2088 128.552 406.771 473.614
838 0 108.534 18.2063 1976 133.644 406.448 476.208
839 0 111.731 18.0076 2012 134.387 406.734 474.32
840 0 115.66 16.609 1921 137.908 406.478 471.952
841 0 119.409 17.3019 2066 135.329 406.851 470.655
842 1 61.4177 14.8003 909 142.281 406.494 498.656
843 0 64.3856 16.1061 1037 139.731 406.57 495.985
844 0 66.4242 16.3645 1087 139.385 406.833 495.389
845 0 70.5595 16.8652 1190 136.692 406.772 493.383
846 0 73.6061 17.3491 1277 134.431 407.004 491.734
847 0 75.565 14.8746 1124 140.394 406.904 492.452
848 0 78.3393 16.4924 1292 135.813 406.644 491.063
849 0 80.4365 17.4921 1407 133.797 406.467 488.993
850 0 81.4891 15.9162 1297 137.012 407.389 488.763
851 0 86.6548 16.6176 1440 134.008 406.452 486.409
852 0 89.4006 16.6218 1486 133.238 407.299 484.644
853 0 92.4691 16.1676 1495 132.85 407.383 483.66
854 0 97.4555 18.1929 1773 125.354 407.247 482.162
855 0 101.425 17.2147 1746 127.709 407.022 479.543
856 0 104.355 16.7505 1748 129.169 406.826 477.841
857 1 52.3799 15.4639 810 133.154 406.964 501.595
858 0 54.4629 17.6083 959 129.214 407.177 500.796
859 0 55.488 17.0307 945 131.947 407.061 500.026
860 0 57.3895 15.6649 899 135.769 406.953 499.132
861 0 58.8028 16.5298 972 135.183 406.83 497.283
862 0 62.9567 17.2817 1088 133.4 407.324 496.851
863 0 63.7846 16.7438 1068 136.346 407.2 495.36
864 0 64.8068 16.0014 1037 138.354 407.578 495.851
865 0 67.428 17.1887 1159 138.055 407.522 493.097
866 0 66.7934 17.4718 1167 140.013 407.437 492.966
867 0 70.7494 16.9754 1201 138.744 408.168 493.968
868 0 73.6101 18.1225 1334 137.196 408.13 492.331
869 0 74.8412 17.2499 1291 141.079 408.352 490.527
870 0 77.4721 18.0323 1397 139.351 407.824 489.412
871 0 80.7228 18.0618 1458 138.649 407.857 488.778
872 0 84.6216 18.2578 1545 138.559 407.683 487.25
873 0 86.6513 17.3108 1500 142.69 407.599 485.117
874 0 88.5526 18.17 1609 142.987 407.277 483.61
875 0 94.4113 19.3515 1827 137.459 408.113 480.4
876 0 96.6237 17.9045 1730 142.445 407.462 478.806
877 0 99.4906 16.9262 1684 145.643 407.543 478.069
878 0 101.786 16.9866 1729 146.825 407.747 476.142
879 0 108.416 18.5397 2010 141.445 407.516 473.207
880 0 111.544 18.0288 2011 143.621 407.514 472.068
881 0 116.719 18.2233 2127 144.092 407.511 470.276
882 0 117.37 16.4863 1935 150.918 407.054 468.854
883 0 123.566 19.6008 2422 141.941 407.033 465.785
884 0 126.346 17.4996 2211 149.107 406.814 463.998
885 0 131.384 18.1072 2379 147.557 407.369 460.825
886 0 135.269 17.9864 2433 148.526 407.335 459.685
887 0 141.516 19.1073 2704 144.942 407.583 457.712
888 0 145.266 17.4095 2529 149.006 407.283 455.48
889 0 150.502 17.94 2700 146.553 406.775 455.131
890 0 157.483 18.0782 2847 143.563 406.554 448.197
891 0 164.385 17.8605 2936 144.535 407.24 443.471
892 0 172.417 16.7965 2896 147.016 406.547 441.071
893 1 86.2822 15.6695 1352 149.134 407.294 481.568
894 0 90.2944 15.9146 1437 148.311 407.716 477.484
895 0 93.2991 15.7772 1472 149.337 408.159 474.503
896 0 98.1954 16.4468 1615 147.615 407.587 473.225
897 0 101.132 16.0484 1623 150.804 407.437 470.19
898 0 107.175 16.0205 1717 149.107 408.103 468.87
899 0 110.11 16.2202 1786 149.553 407.125 466.661
900 0 113.123 16.566 1874 149.31 407.234 463.812
901 0 118.21 16.2931 1926 150.471 407.075 461.376
902 0 123.265 15.9331 1964 151.741 406.921 459.519
903 0 129.255 15.659 2024 152.647 406.694 455.157
904 0 136.281 15.923 2170 149.756 406.47 455.04
905 0 139.232 15.6358 2177 150.042 406.951 450.075
906 1 75.18 10.814 813 139.957 405.969 485.852
907 0 78.1759 13.2522 1036 136.815 406.22 481.984
908 0 81.2168 11.3031 918 141.083 406.292 481.702
909 0 86.2549 11.9993 1035 138.439 406.497 480.637
910 0 91.5406 13.2728 1215 131.76 407.117 478.938
911 0 94.4482 13.7006 1294 130.895 406.577 476.792
912 0 98.305 13.5497 1332 132.143 406.263 472.026
913 0 101.4 13.1953 1338 130.617 406.388 472.053
914 0 107.689 13.7804 1484 129.499 406.668 471.076
915 0 109.661 13.0767 1434 131.658 406.519 467.328
916 0 112.71 13.2198 1490 133.021 406.934 462.892
917 0 118.722 12.7693 1516 132.69 406.796 462.181
918 0 122.682 13.0337 1599 134.107 406.573 458.064
919 0 129.597 14.0975 1827 130.114 406.345 457.103
920 1 73.2627 7.54818 553 123.857 407.302 482.116
921 0 78.3952 10.5619 828 115.658 406.7 485.929
922 0 78.2726 9.17307 718 126.997 406.982 480.39
923 0 82.2316 9.83806 809 124.89 406.629 478.82
924 0 88.2164 11.2337 991 119.698 407.038 479.592
925 0 89.2175 9.23586 824 124.268 407.363 474.137
926 0 95.3441 11.3379 1081 118.717 407.242 475.36
927 0 97.2751 9.78668 952 122.259 406.776 471.869
928 0 103.251 11.7481 1213 117.375 407.726 471.481
929 0 105.485 11.0727 1168 119.762 407.928 466.329
930 0 110.251 11.9273 1315 118.217 407.505 466.784
931 1 59.0779 8.81886 521 106.797 406.683 493.783
932 0 60.1717 8.95769 539 104.364 406.553 494.557
933 0 62.2766 8.60676 536 105.334 406.722 491.271
934 0 66.2169 8.13992 539 107.555 406.36 488.521
935 0 67.055 7.85922 527 109.347 408.398 489.072
936 0 69.0855 10.1468 701 106.271 408.826 485.633
937 0 71.105 9.09921 647 111.187 408.332 483.206
938 0 74.2382 11.1398 827 110.121 406.746 484.929
939 0 77.2058 9.66248 746 111.716 407.747 482.948
940 0 78.2491 12.2174 956 108.185 408.006 479.38
941 0 81.2744 11.7626 956 109.607 407.581 479.177
942 0 83.3457 11.3983 950 110.379 407.965 479.796
943 0 86.6225 10.6901 926 114.653 407.384 475.221
944 0 89.8513 9.48234 852 117.91 407.79 471.808
945 0 93.615 11.1841 1047 113.719 407.764 471.709
946 0 93.5771 10.4192 975 116.533 407.919 467.915
947 0 99.776 10.3432 1032 115.36 408.182 468.943
948 0 102.642 11.2332 1153 113.651 409.003 470.261
949 0 103.896 9.9523 1034 115.639 408.614 466.54
950 0 109.717 10.3357 1134 115.026 408.63 465.571
951 0 109.709 9.94446 1091 117.324 408.137 464.263
952 0 112.491 12.0543 1356 114.103 407.913 462.253
953 0 114.601 10.3402 1185 117.965 407.251 459.761
954 0 119.382 11.4255 1364 114.943 407.407 463.394
955 0 127.653 12.2911 1569 112.764 407.393 459.361
956 0 131.278 13.5743 1782 109.587 406.87 457.052
957 0 133.281 11.9897 1598 108.452 407.368 456.198
958 0 135.291 11.5085 1557 106.523 407.045 450.944
959 0 141.251 12.4246 1755 104.702 406.628 453.067
960 0 142.25 10.355 1473 109.997 406.741 450.544
961 0 148.62 12.2662 1823 107.486 406.862 445.226
962 1 80.1838 10.0145 803 110.433 406.329 479.863
963 0 83.4376 10.3431 863 110.289 406.473 477.068
964 0 84.3255 10.3409 872 110.806 406.095 474.161
965 0 88.3145 10.5419 931 110.858 405.778 471.784
966 0 91.3204 11.5199 1052 109.193 405.593 471.087
967 0 93.4346 10.5742 988 113.108 405.873 466.86
968 0 98.411 12.2141 1202 109.525 405.775 467.276
969 0 98.5461 11.4363 1127 111.207 405.606 467.796
970 0 100.364 10.7608 1080 114.751 405.952 462.756
971 0 102.313 12.1099 1239 113.199 405.32 462.958
972 0 108.587 11.2168 1218 114.819 405.129 464.269
973 0 108.462 12.7878 1387 112.304 405.732 459.999
974 0 112.35 12.5767 1413 112.144 405.582 458.541
975 0 115.512 12.8818 1488 112.383 405.792 456.641
976 0 119.39 12.3545 1475 112.737 405.982 455.991
977 0 124.508 12.2804 1529 111.882 405.863 456.221
978 0 127.337 11.8583 1510 111.651 405.877 455.459
979 1 68.09 9.57557 652 109.647 405.175 481.316
980 0 72.1538 11.0736 799 106.781 404.521 481.842
981 0 73.096 11.0813 810 108.458 404.591 480.551
982 0 75.0692 10.8966 818 111.489 404.927 484.597
983 0 75.0692 10.8034 811 136.617 404.937 484.497
984 0 79.108 11.9836 948 110.386 405.113 479.926
985 0 85.1407 13.7537 1171 104.419 405.122 481.709
986 0 86.226 12.1541 1048 109.492 405.51 480.437
987 0 88.4279 12.3377 1091 108.5 406.033 480.095
988 0 87.2953 12.5551 1096 110.29 406.443 476.262
989 0 91.3497 12.8955 1178 108.557 406.419 476.239
990 0 96.3492 12.6934 1223 106.957 406.328 477.15
991 0 95.2642 12.7225 1212 108.111 407.025 474.049
992 0 101.186 13.4702 1363 105.983 406.796 472.781
993 0 103.225 11.6348 1201 109.574 407.063 473.003
994 0 107.224 14.437 1548 104.528 406.457 470.002
995 0 111.291 12.31 1370 100.36 406.558 468.553
996 0 113.083 12.3272 1394 101.175 407.122 467.169
997 0 115.183 12.4932 1439 102.091 407.662 460.325
998 1 65.1026 9.23158 601 96.777 406.116 491.233
999 0 67.0878 11.0601 742 94.2156 407.201 488.567
1000 0 71.2908 10.9411 780 93.8872 406.172 489.992
1001 0 72.3023 12.0605 872 93.9897 405.763 488.422
1002 0 75.0859 13.4912 1013 91.7651 406.151 488.099
1003 0 77.1098 12.2682 946 93.8626 406.082 487.064
1004 0 79.1121 11.6417 921 95.5994 406.417 484.497
1005 0 81.1638 10.7807 875 97.8994 405.947 485.27
1006 0 82.1074 11.9843 984 96.3425 405.692 480.978
1007 0 85.3408 11.9638 1021 96.9892 405.68 482.735
1008 0 88.0957 12.214 1076 97.2649 406.268 481.215
1009 0 88.1792 11.4993 1014 101.479 406.293 481.656
1010 0 92.2991 12.037 1111 99.9595 405.908 481.64
1011 0 94.099 12.0193 1131 97.3324 406.655 475.834
1012 0 97.1767 11.0932 1078 100.378 407.025 477.584
1013 0 101.336 12.4536 1262 100.291 406.596 475.922
1014 0 103.214 12.663 1307 102.285 406.15 472.408
1015 1 64.1703 11.5007 738 100.425 405.953 493.331
1016 0 65.0855 12.3069 801 95.5905 405.831 493.94
1017 0 66.2776 13.1417 871 96.8691 406.369 493.173
1018 0 66.2356 12.0177 796 99.6671 406.393 493.886
1019 0 65.1148 11.3338 738 101.488 405.672 492.55
1020 0 69.2056 11.4731 794 101.802 406.532 491.467
1021 0 70.2415 11.3893 800 101.991 405.505 491.109
1022 0 71.086 12.0839 859 99.7439 406.739 486.935
1023 0 75.3073 11.1808 842 100.34 406.404 489.652
1024 0 77.1534 14.5424 1122 91.9822 407.373 486.156
1025 0 78.2459 11.515 901 98.4262 407.362 485.271
1026 0 82.1169 12.5918 1034 101.897 406.247 484.351
1027 0 83.1346 10.8499 902 105.484 405.542 483.707
1028 0 88.1938 13.5044 1191 100.717 406.147 485.097
1029 0 91.1108 13.0391 1188 103.703 406.747 479.955
1030 0 94.1438 12.8421 1209 105.334 406.773 479.789
1031 0 96.2043 12.0889 1163 108.441 406.926 477.209
1032 0 101.175 12.2757 1242 108.341 406.225 475.527
1033 0 103.19 13.1505 1357 107.453 407.699 474.306
1034 1 55.1283 11.7181 646 104.681 407.119 495.334
1035 0 57.1087 11.4343 653 103.536 407.257 493.145
1036 0 58.0922 12.067 701 103.996 406.78 493.907
1037 0 59.2062 11.8231 700 107.327 406.534 491.561
1038 0 61.0933 11.6707 713 106.966 406.933 491.944
1039 0 61.1538 10.9887 672 107.762 407.19 489.987
1040 0 61.0982 11.7516 718 105.227 406.755 488.195
1041 0 66.0415 11.2051 740 104.73 406.642 488.949
1042 0 67.1744 12.862 864 102.918 406.896 486.802
1043 0 68.2004 13.4457 917 102.489 407.019 484.933
1044 0 70.1371 11.064 776 106.74 407.479 485.695
1045 0 74.0949 11.8632 879 104.471 407.447 485.109
1046 0 76.0869 11.9074 906 105.387 407.364 482.073
1047 0 79.2007 12.5125 991 103.997 407.36 480.456
1048 0 82.0757 12.2448 1005 104.308 407.457 479.399
1049 0 83.1454 10.7522 894 107.767 406.91 476.706
1050 0 89.1073 12.6252 1125 103.777 407.358 475.589
1051 0 92.1183 12.3754 1140 103.901 407.037 476.606
1052 1 53.0352 10.3516 549 102.869 406.302 496.73
1053 0 55.0891 12.1621 670 102.294 406.512 495.212
1054 0 54.0214 11.2363 607 103.451 406.522 493.354
1055 0 56.0603 11.559 648 102.773 406.14 495.302
1056 0 60.0663 12.2864 738 100.351 406.528 491.596
1057 0 61.058 12.9058 788 99.9759 406.258 491.457
1058 0 63.0677 12.4311 784 98.9924 406.75 488.358
1059 0 64.1364 12.6917 814 98.3894 406.746 487.117
1060 0 68.1453 12.2239 833 98.3902 407.538 487.363
1061 0 66.1776 11.6354 770 101.532 406.801 484.126
1062 0 70.0807 11.3726 797 102.035 406.715 484.295
1063 0 72.106 12.3984 894 101.18 407.242 480.4
1064 0 75.1488 12.2557 921 101.072 407.381 484.334
1065 0 77.1365 9.72302 750 108.076 407.248 479.34
1066 0 79.1523 12.5328 992 105.197 407.393 477.745
1067 0 82.1083 12.2156 1003 106.458 407.451 476.568
1068 0 88.2022 14.2854 1260 101.617 407.352 477.503
1069 0 91.1054 12.8093 1167 105.423 407.147 475.443
1070 0 93.2563 13.7471 1282 103.663 406.956 471.642
1071 0 99.0868 12.6858 1257 104.344 407.104 473.183
1072 0 100.096 11.7886 1180 108.129 407.533 469.598
1073 1 53.0484 10.0851 535 101.679 406.783 496.998
1074 0 54.0418 11.2691 609 110.837 406.016 489.456
1075 0 56.0232 11.0668 620 102.008 406.455 493.892
1076 0 58.0835 13.2568 770 98.9325 406.984 492.248
1077 0 59.0334 13.3314 787 100.78 406.46 487.794
1078 0 61.0961 12.0793 738 103.523 406.173 489.057
1079 0 65.0386 13.4536 875 98.08 406.666 488.783
1080 0 67.0428 13.4541 902 99.7018 406.264 485.725
1081 0 68.0714 13.4418 915 98.9093 407.37 484.297
1082 0 70.1433 12.2891 862 100.587 407.499 483.704
1083 0 72.1308 13.3785 965 99.7016 407.409 481.996
1084 0 74.1163 13.8971 1030 98.7709 407.316 478.255
1085 0 76.1557 11.8442 902 102.61 407.601 478.962
1086 0 74.1851 11.4309 848 105.629 407.307 474.355
1087 0 83.2148 11.3682 946 103.716 407.654 474.335
1088 0 84.1736 10.9773 924 105.711 406.996 474.344
1089 0 87.2113 12.6933 1107 102.481 406.621 475.547
1090 0 89.2554 13.8591 1237 101.787 407.179 471.251
1091 0 91.0795 12.6483 1152 104.468 407.331 468.406
1092 0 97.0858 12.6486 1228 101.933 407.296 468.579
1093 0 100.277 12.306 1234 103.387 407.437 463.831
1094 0 104.266 13.2738 1384 103.216 407.25 462.335
1095 0 105.141 12.4975 1314 108.505 405.529 463.245
1096 0 111.278 12.3834 1378 107.34 406.149 459.632
1097 1 60.1107 12.1276 729 100.971 405.41 487.102
1098 0 62.162 13.3039 827 95.1185 406.823 485.051
1099 0 64.3907 12.595 811 94.0567 407.047 487.434
1100 0 66.1405 11.7175 775 96.9871 406.787 484.04
1101 0 68.3494 12.9043 882 94.8084 407.009 483.014
1102 0 69.1075 10.9539 757 98.9723 406.839 481.631
1103 0 72.1761 13.093 945 95.528 406.958 477.543
1104 0 74.1844 11.8084 876 99.403 407.063 476.366
1105 0 79.1674 11.6336 921 99.0413 406.925 477.663
1106 0 81.3591 11.947 972 99.2346 407.265 470.902
1107 0 85.4413 12.9329 1105 97.4561 407.467 472.252
1108 0 87.4334 11.9977 1049 99.0076 407.356 472.111
1109 0 89.3661 12.7789 1142 98.7443 407.425 471.874
1110 0 93.4159 12.6317 1180 100.153 407.374 466.524
1111 0 96.3693 13.5832 1309 99.1704 407.43 465.37
1112 0 102.33 14.336 1467 101.445 407.617 471.785
1113 0 107.392 13.0456 1401 105.986 407.324 471.089
1114 0 109.309 13.5488 1481 105.224 407.446 470.344
1115 0 113.439 13.5491 1537 107.372 407.768 470.287
1116 1 57.1725 10.0923 577 101.127 405.92 493.563
1117 0 59.2155 10.3858 615 100.397 405.655 491.379
1118 0 61.0424 11.7132 715 97.0559 406.213 493.296
1119 0 62.0827 10.341 642 102.55 405.955 490.52
1120 0 64.0491 11.8971 762 101.037 405.201 488.147
1121 0 67.0706 12.4943 838 99.4141 405.549 485.191
1122 0 68.1029 9.82337 669 104.505 405.514 485.768
1123 0 73.0893 11.4518 837 101.869 405.206 485.004
1124 0 76.0522 13.2278 1006 99.2555 405.661 483.754
1125 0 77.1744 11.8303 913 103.022 406.297 483.814
1126 0 80.1269 12.0184 963 102.309 406.802 484.325
1127 0 82.2367 12.5005 1028 103.518 407.726 481.368
1128 0 87.1402 13.5873 1184 100.494 407.943 483.837
1129 0 88.3483 11.9527 1056 104.983 408.033 482.615
1130 0 90.2712 11.5984 1047 106.133 407.814 481.291
1131 0 94.4037 11.9911 1132 105.52 407.966 479.601
1132 0 99.2852 13.1742 1308 103.687 407.484 477.807
1133 0 100.426 11.75 1180 107.367 407.858 475.558
1134 0 102.238 14.1336 1445 103.832 407.709 474.091
1135 1 58.0542 11.7649 683 98.9004 406.129 497.801
1136 0 58.0861 13.0496 758 96.124 405.959 494.679
1137 0 58.28 10.9471 638 101.904 406.922 497
1138 0 62.2489 12.0323 749 100.887 406.407 495.665
1139 0 63.4195 10.5488 669 104.048 406.504 496.61
1140 0 66.3168 12.2141 810 101.6 407.278 493.295
1141 0 67.2894 11.6957 787 102.334 407.408 493.389
1142 0 70.2484 12.8259 901 101.289 406.935 492.413
1143 0 70.2268 11.0641 777 105.528 406.743 490.47
1144 0 73.2246 11.5398 845 105.525 406.956 489.092
1145 0 77.302 11.5004 889 105.038 406.832 487.064
1146 0 78.3307 12.3196 965 104.301 406.715 484.145
1147 0 80.3668 12.8162 1030 104.166 406.515 484.813
1148 0 83.1961 11.7073 974 107.401 406.315 483.219
1149 0 86.1794 12.9033 1112 104.88 406.253 482.339
1150 0 89.2254 13.0456 1164 105.057 405.838 482.015
1151 0 92.3657 11.3354 1047 108.339 406.37 479.284
1152 0 93.2851 12.5958 1175 106.546 405.883 478.252
1153 0 96.1843 12.5904 1211 106.018 406.657 477.861
1154 1 54.0727 12.0763 653 98.9234 405.847 499.541
1155 0 56.0397 12.8123 718 97.5153 406.598 499.169
1156 0 58.0712 12.0025 697 99.1521 406.641 497.384
1157 0 61.2125 12.5791 770 95.6442 406.008 496.871
1158 0 61.3029 11.9896 735 98.1905 405.765 494.486
1159 0 63.23 12.9211 817 96.0661 406.094 495.851
1160 0 64.1194 13.2877 852 96.8298 406.366 492.555
1161 0 66.0795 12.4547 823 98.181 406.554 492.176
1162 0 68.2109 12.1975 832 99.5589 405.911 491.082
1163 0 71.1493 12.6635 901 98.1054 406.456 490.358
1164 0 73.2407 11.4963 842 100.251 406.859 491.566
1165 0 75.2484 10.5384 793 102.4 406.637 490.401
1166 0 78.1532 12.6802 991 99.223 407.811 486.784
1167 0 80.2366 11.8524 951 101.399 406.934 485.571
1168 0 83.3175 12.0023 1000 104.042 406.955 484.99
1169 0 86.222 12.0851 1042 103.951 406.559 480.883
1170 0 89.4426 12.0077 1074 105.399 406.639 480.15
1171 0 92.2429 13.0091 1200 104.318 406.955 476.14
1172 0 94.4468 12.8961 1218 103.392 406.587 479.247
1173 0 98.3328 13.5357 1331 103.171 406.629 476.852
1174 0 100.344 12.3077 1235 107.19 406.719 476.045
1175 0 103.499 12.9084 1336 107.54 407.15 472.769
1176 1 54.145 10.7674 583 100.976 406.184 496.818
1177 0 57.3084 10.3999 596 101.431 406.767 497.597
1178 0 59.2109 11.9741 709 99.3004 406.248 496.928
1179 0 62.2083 12.0241 748 98.9719 406.533 495.31
1180 0 62.2379 11.9381 743 102.07 406.826 493.977
1181 0 64.3819 11.9288 768 103.215 407.219 492.922
1182 0 67.2608 10.9276 735 106.09 407.058 491.736
1183 0 67.4566 11.6371 785 106.45 406.836 493.326
1184 0 71.2053 12.9906 925 105.709 406.732 490.542
1185 0 73.2884 12.1711 892 108.812 407.168 490.308
1186 0 75.2708 11.7443 884 111.288 407.156 488.793
1187 0 78.822 13.1309 1035 110.015 408.05 486.187
1188 0 80.4803 13.6555 1099 109.526 407.532 486.464
1189 0 80.5648 13.0826 1054 111.728 407.563 485.178
1190 0 85.8494 14.5371 1248 108.656 407.401 482.872
1191 0 86.6483 13.2836 1151 111.556 407.891 480.487
1192 0 89.9226 13.9787 1257 110.881 408.026 477.727
1193 0 91.853 13.7285 1261 110.638 407.91 481.004
1194 0 94.8013 14.0082 1328 110.922 408.093 475.885
1195 0 97.6677 13.8224 1350 110.919 408.041 477.488
1196 0 100.378 13.9572 1401 112.939 407.398 473.856
1197 0 103.601 14.3339 1485 111.867 407.89 473.15
1198 0 106.869 13.1844 1409 114.67 407.227 470.82
1199 0 109.538 13.3469 1462 113.587 407.058 469.908
1200 0 113.464 13.0878 1485 114.434 407.1 469.055
1201 0 116.506 14.48 1687 112.027 407.368 465.616
1202 0 119.167 13.8545 1651 113.454 407.94 466.053
1203 0 122.239 11.9111 1456 113.208 407.083 461.825
1204 1 50.056 11.4072 571 104.559 406.75 497.722
1205 0 53.0949 10.8673 577 107.894 405.828 499.802
1206 0 55.1863 11.9957 662 105.627 406.276 499.444
1207 0 56.1072 10.9612 615 108.296 406.613 498.189
1208 0 58.1723 11.7582 684 108.276 406.939 495.494
1209 0 60.2685 11.8636 715 107.965 407.161 494.4
1210 0 62.0909 10.5974 658 110.465 406.008 496.236
1211 0 64.305 11.8809 764 109.48 406.279 493.753
1212 0 67.1374 11.9159 800 109.461 406.835 493.191
1213 0 69.0958 12.1281 838 109.69 406.877 492.875
1214 0 69.1406 11.9901 829 112.525 406.846 489.546
1215 0 71.3216 11.6234 829 114.481 406.928 487.856
1216 0 74.2307 11.3834 845 114.333 406.923 487.757
1217 0 76.1975 11.5621 881 115.18 406.703 484.217
1218 0 80.2089 11.7693 944 113.479 407.119 482.11
1219 0 81.1725 10.028 814 118.357 406.812 480.222
1220 1 46.051 9.7935 451 107.322 406.131 501.69
1221 0 46.0879 10.8488 500 106.492 406.942 499.534
1222 0 48.0243 8.74557 420 109.988 406.552 500.152
1223 0 48.2384 11.6919 564 111.046 404.957 501.229
1224 0 52.219 10.3219 539 112.863 405.167 499.237
1225 0 53.2506 11.8121 629 108.39 405.784 497.073
1226 0 54.1122 11.2544 609 110.241 405.511 499.614
1227 0 56.1318 12.6132 708 108.942 405.887 497.624
1228 0 59.1672 11.6957 692 109.815 406.181 500.266
1229 0 60.1198 14.3713 864 103.017 406.315 497.736
1230 0 61.1469 11.8076 722 110.22 406.084 495.788
1231 0 62.1696 12.868 800 107.404 406.07 497.292
1232 0 64.1008 12.7143 815 107.172 405.917 496.358
1233 0 65.0792 12.4617 811 109.465 405.972 494.146
1234 0 68.2155 12.7097 867 109.215 406.504 493.812
1235 0 69.2092 13.2352 916 108.969 406.167 490.384
1236 0 70.2511 12.313 865 110.439 406.647 492.558
1237 0 75.2214 14.3842 1082 103.662 406.617 490.116
1238 0 76.2074 14.5393 1108 104.687 406.725 489.615
1239 0 78.2549 12.3059 963 109.493 406.289 487.583
1240 0 81.3766 12.7432 1037 109.161 405.845 489.712
1241 0 83.3014 12.0166 1001 113.286 405.986 485.706
1242 0 89.1669 13.7719 1228 111.865 405.965 483.195
1243 0 91.3615 12.4888 1141 115.565 406.052 478.762
1244 0 96.1837 13.7133 1319 112.668 405.337 479.65
1245 1 51.0586 12.3779 632 105.748 405.114 505.551
1246 0 53.0268 13.5969 721 105.933 405.377 502.448
1247 0 52.1056 12.0908 630 111.1 404.338 500.689
1248 0 55.0408 13.1902 726 106.548 404.795 500.86
1249 0 57.0967 13.2057 754 106.456 405.463 499.686
1250 0 60.0754 13.816 830 103.473 405.28 498.654
1251 0 62.1117 11.9623 743 107.694 404.271 498.363
1252 0 64.107 12.5103 802 102.209 405.551 495.562
1253 0 64.1752 11.9984 770 104.022 405.575 492.544
1254 0 67.1625 12.6261 848 102.337 405.766 492.54
1255 0 68.1973 11.9213 813 103.909 405.83 492.354
1256 0 73.1448 13.5621 992 100.637 405.892 489.928
1257 0 75.1083 13.0079 977 101.684 405.581 490.099
1258 0 76.1667 13.4179 1022 100.477 405.187 488.256
1259 0 81.2051 14.3587 1166 100.649 405.492 487.841
1260 0 82.228 13.4747 1108 100.303 405.554 486.765
1261 0 86.2326 12.3619 1066 102.821 405.701 485.649
1262 0 88.1703 13.2471 1168 102.042 406.101 486.382
1263 0 91.2257 13.4611 1228 103.374 405.578 482.768
1264 0 93.1844 13.9508 1300 103.394 406.125 481.621
1265 1 50.0741 12.0621 604 109.637 404.863 503.397
1266 0 53.1049 14.2171 755 105.372 405.766 503.35
1267 0 55.0716 14.3994 793 101.184 405.369 499.349
1268 0 54.0849 12.7392 689 104.47 405.66 497.472
1269 0 56.0588 11.8804 666 105.937 405.535 500.017
1270 0 59.0844 12.846 759 103.858 404.939 495.75
1271 0 61.0456 12.0074 733 105.497 405.232 498.775
1272 0 63.1127 12.9134 815 104.261 405.541 495.962
1273 0 66.028 11.798 779 106.271 406.234 496.34
1274 0 68.1619 14.5682 993 101.75 405.834 493.647
1275 0 70.0952 14.7514 1034 101.187 406.083 494.412
1276 0 71.2238 13.1978 940 105.732 405.584 493.811
1277 0 75.2266 13.4793 1014 106.049 405.752 492.188
1278 0 76.0811 13.4593 1024 106.519 406.012 491.68
1279 0 77.1739 12.8023 988 109.544 405.943 490.831
1280 0 81.0825 14.5654 1181 107.009 405.547 487.643
1281 0 83.1073 13.6811 1137 108.665 405.597 488.04
1282 0 86.0694 14.1165 1215 109.281 405.948 487.083
1283 0 88.1903 13.7543 1213 110.992 405.692 488.649
1284 0 89.2704 13.8904 1240 112.22 405.635 488.358
1285 0 92.1432 12.9472 1193 116.725 405.583 483.496
1286 0 95.1044 13.2696 1262 117.64 405.592 483.2
1287 0 98.1867 14.4928 1423 117.151 405.769 482.331
1288 0 101.236 13.1178 1328 123.046 406.156 478.922
1289 0 104.317 14.015 1462 121.5 405.711 478.813
1290 0 108.378 13.7112 1486 122.036 405.52 478.824
1291 0 111.318 14.1306 1573 122.468 405.854 475.312
1292 1 60.2166 13.8998 837 120.859 405.442 500.797
1293 0 61.1507 14.5215 888 120.787 406.091 498.395
1294 0 65.1094 14.4372 940 119.929 405.733 497.677
1295 0 68.1963 14.3849 981 120.282 405.762 496.675
1296 0 69.0547 15.6977 1084 118.888 405.711 494.792
1297 0 72.1534 16.4372 1186 116.68 406.351 494.66
1298 0 74.2639 15.1622 1126 120.985 405.922 492.346
1299 0 77.1487 16.8635 1301 116.784 406.457 492.814
1300 0 79.0931 15.0835 1193 122.96 406.481 491.002
1301 0 79.3173 14.0827 1117 125.966 406.765 490.944
1302 0 82.3031 15.3457 1263 122.85 406.515 489.917
1303 0 87.1873 14.509 1265 124.089 406.657 488.146
1304 0 91.2863 16.6838 1523 119.758 406.954 484.068
1305 0 93.2733 15.9317 1486 122.592 407.157 483.81
1306 0 96.5785 15.8524 1531 123.218 406.356 482.483
1307 0 100.519 15.3204 1540 124.323 406.216 480.793
1308 0 101.529 15.2567 1549 127.815 406.397 477.474
1309 0 105.493 15.1574 1599 128.412 406.452 476.28
1310 0 112.526 16.3696 1842 124.309 406.972 472.015
1311 0 114.711 15.4649 1774 126.793 406.67 469.36
1312 1 59.3253 15.1874 901 126.767 407.061 495.66
1313 0 62.4836 15.5401 971 125.681 406.825 495.195
1314 0 65.3108 15.9239 1040 124.817 407.048 492.51
1315 0 67.3279 15.2537 1027 127.878 407.008 492.635
1316 0 69.2958 15.4411 1070 127.702 407.393 492.324
1317 0 73.5497 16.2475 1195 124.853 407.689 490.546
1318 0 76.5989 16.6974 1279 125.684 407.31 488.084
1319 0 76.9344 15.4677 1190 131.096 406.95 487.332
1320 0 79.7894 15.8793 1267 131.16 407.286 486.197
1321 0 83.5795 16.9539 1417 128.994 406.716 483.31
1322 0 85.742 15.395 1320 133.899 406.583 483.276
1323 0 88.7102 15.4661 1372 135.342 406.842 479.87
1324 0 92.9237 16.3252 1517 131.902 406.714 479.572
1325 0 94.8776 16.2104 1538 133.592 406.625 477.367
1326 0 97.6795 15.5918 1523 137.372 406.42 474.795
1327 0 102.91 16.3638 1684 133.474 406.167 474.619
1328 0 107.901 15.9776 1724 132.45 406.157 469.446
1329 0 109.617 16.4026 1798 131.33 406.191 467.343
1330 1 58.5228 12.9864 760 129.175 406.718 495.495
1331 0 57.5617 12.7689 735 131.86 406.607 496.113
1332 0 61.5282 12.7259 783 130.137 407.087 495.978
1333 0 62.5402 12.9996 813 130.555 406.893 495.579
1334 0 66.6386 12.6953 846 128.457 406.959 496.098
1335 0 67.6889 13.8132 935 128.015 406.53 491.978
1336 0 70.7974 13.9412 987 126.382 406.943 492.516
1337 0 73.4332 12.1199 890 128.884 406.917 491.942
1338 0 75.4032 12.2674 925 128.184 406.637 490.717
1339 0 78.5484 13.9914 1099 124.883 406.28 488.605
1340 0 81.431 12.047 981 129.118 406.972 485.67
1341 0 85.5729 11.943 1022 126.817 407.091 484.597
1342 0 87.4794 12.8487 1124 125.915 406.715 481.833
1343 0 93.5884 13.4525 1259 122.917 406.891 480.585
1344 0 95.363 12.573 1199 125.85 406.892 478.835
1345 0 101.424 13.8823 1408 123.639 407.06 477.348
1346 0 105.505 14.3121 1510 122.091 406.393 475.226
1347 0 108.295 12.8445 1391 125.029 406.681 470.265
1348 0 111.35 12.7795 1423 124.566 405.979 468.07
1349 1 60.3725 12.2904 742 112.728 406.171 496.35
1350 0 59.3668 10.3593 615 120.028 405.766 494.224
1351 0 65.4152 12.0156 786 116.786 405.931 493.415
1352 0 65.1943 11.7188 764 118.5 405.645 490.937
1353 0 69.2601 12.5758 871 115.18 405.797 490.727
1354 0 72.4517 10.2965 746 119.363 405.702 489.44
1355 0 74.3296 10.3593 770 119.308 405.905 486.635
1356 0 77.1733 11.8694 916 115.575 407.004 486.953
1357 0 80.294 11.5575 928 116.286 407.047 482.394
1358 0 83.4398 11.6012 968 115.367 407.051 480.463
1359 0 86.3511 10.9784 948 116.591 407.032 479.671
1360 0 89.5012 10.8714 973 116.938 406.876 476.224
1361 0 98.6473 9.56945 944 116.094 407.219 478.485
1362 0 97.4788 11.9 1160 113.234 406.784 474.558
1363 0 100.444 10.7622 1081 114.963 406.532 474.352
1364 0 102.345 10.7186 1097 115.555 406.71 471.468
1365 1 54.1652 8.86178 480 105.415 406.092 496.556
1366 0 56.3974 7.80177 440 105.443 406.711 495.843
1367 0 60.533 11.1675 676 100.497 406.809 495.024
1368 0 62.4764 9.95575 622 104.932 406.825 492.418
1369 0 64.2636 10.6437 684 104.711 406.604 491.646
1370 0 65.3691 9.71407 635 109.883 406.202 486.85
1371 0 71.3986 10.6024 757 107.828 406.07 488.042
1372 0 70.2297 9.21263 647 109.869 406.312 488.833
1373 0 74.2346 12.2989 913 104.878 406.717 484.507
1374 0 75.3084 9.65364 727 109.975 406.794 485.208
1375 0 78.4264 10.0476 788 109.749 406.518 482.643
1376 0 84.7059 12.3604 1047 102.892 407.264 482.665
1377 0 87.8851 12.7212 1118 102.52 407.45 480.831
1378 0 90.627 11.7515 1065 105.309 406.999 479.594
1379 0 90.7383 12.1448 1102 104.799 406.894 479.292
1380 0 95.5585 11.595 1108 107.308 407.096 478.667
1381 0 97.438 10.8582 1058 108.659 407.5 476.158
1382 0 101.74 13.2102 1344 104.094 406.947 474.314
1383 0 103.533 13.1455 1361 104.028 406.251 473.778
1384 0 103.781 10.9654 1138 111.753 406.025 467.148
1385 0 106.741 11.2796 1204 111.169 406.028 467.547
1386 0 110.836 11.2148 1243 109.562 407.242 468.222
1387 1 58.5785 8.14291 477 98.13 407.612 496.289
1388 0 62.5451 10.0727 630 94.3286 407.929 496.46
1389 0 60.359 8.94647 540 97.3926 407.346 495.244
1390 0 62.3605 9.97426 622 97.6302 406.572 494.145
1391 0 65.3621 11.3828 744 96.3495 407.323 494
1392 0 66.3991 10.6176 705 98.2071 406.506 492.274
1393 0 68.218 11.2727 769 97.4499 406.417 492.55
1394 0 70.1534 11.1612 783 98.7906 405.825 489.066
1395 0 71.2585 10.6935 762 100.917 406.018 490.226
1396 0 72.433 10.2854 745 102.706 404.903 490.616
1397 0 75.341 11.4811 865 100.428 405.333 487.394
1398 0 77.4063 11.1619 864 100.654 404.586 487.708
1399 0 78.3267 10.852 850 100.576 405.318 489.959
1400 0 81.2879 11.4408 930 100.999 405.455 484.247
1401 0 85.2279 11.9796 1021 99.237 406.13 482.718
1402 0 84.2528 11.145 939 101.574 405.516 482.817
1403 0 87.4353 11.2426 983 100.739 405.671 483.384
1404 0 90.4345 10.3722 938 103.191 405.381 478.83
1405 0 94.3976 11.4622 1082 101.69 405.592 477.504
1406 0 95.3622 11.3357 1081 103.928 405.559 473.636
1407 0 99.2851 12.8116 1272 102.087 405.246 472.694
1408 0 101.167 11.051 1118 108.261 405.061 468.559
1409 0 106.322 12.6314 1343 104.069 404.995 470.427
1410 0 107.29 11.5295 1237 107.642 404.857 467.179
1411 0 111.409 12.4317 1385 105.544 405.079 465.658
1412 0 114.569 11.9404 1368 106.476 405.655 460.968
1413 0 112.816 10.5127 1186 111.854 405.319 451.25
1414 0 121.909 12.3207 1502 106.942 404.913 452.915
1415 0 123.737 11.7265 1451 108.543 405.326 448.575
1416 0 128.839 13.9787 1801 102.549 405.466 451.876
1417 0 125.445 12.2444 1536 108.62 403.972 443.659
1418 0 131.827 13.9956 1845 104.231 404.397 443.336
1419 0 132.48 11.7603 1558 109.232 404.329 440.536
1420 0 141.784 13.0833 1855 104.196 404.748 443.17
1421 0 147.735 13.3009 1965 104.052 404.74 438.794
1422 0 149.652 13.1104 1962 105.939 405.052 431.587
1423 0 156.668 13.0276 2041 105.373 405.256 431.38
1424 0 163.734 13.3082 2179 102.395 405.575 431.978
1425 0 168.727 12.4994 2109 105.171 405.057 422.657
1426 1 96.6358 10.6689 1031 98.7449 405.727 464.299
1427 0 98.6908 10.4062 1027 99.1207 406.224 464.477
1428 0 102.458 11.4486 1173 97.1833 407.52 467.319
1429 0 107.621 12.1537 1308 96.7355 406.604 464.883
1430 0 106.666 12.2438 1306 97.3323 406.777 462.378
1431 0 108.756 11.2822 1227 99.1646 406.444 462.844
1432 0 114.756 11.9645 1373 98.5535 406.786 457.763
1433 0 112.568 11.4331 1287 103.291 405.803 451.831
1434 0 117.979 11.9174 1406 102.211 405.191 449.467
1435 1 60.2789 11.4468 690 97.1667 405.029 478.383
1436 0 67.1534 12.1662 817 92.53 403.692 484.244
1437 0 69.1411 12.3371 853 92.3329 403.669 481.889
1438 0 70.1458 10.9914 771 95.5486 403.429 480.543
1439 0 71.1104 12.4454 885 92.5729 403.577 483.094
1440 0 75.2541 12.3581 930 92.6462 404.083 481.801
1441 0 76.1153 10.7206 816 96.348 403.846 476.65
1442 0 74.1233 11.3594 842 91.0036 404.777 472.715
1443 0 77.1797 10.2618 792 92.1149 405.208 471.817
1444 0 81.1262 11.6115 942 90.1295 405.047 470.902
1445 0 81.0704 10.2257 829 93.8938 405.431 466.669
1446 0 86.1648 12.6386 1089 89.4444 405.443 468.376
1447 0 89.1622 10.0154 893 93.8847 405.249 465.816
1448 0 90.2116 11.6061 1047 91.1652 404.977 462.149
1449 0 94.2913 12.928 1219 88.676 405.13 463.364
1450 1 48.0539 7.15863 344 93.3372 404.631 486.302
1451 0 51.0654 9.69346 495 89.8889 405.24 483.796
1452 0 55.0306 11.2301 618 84.0129 404.754 484.667
1453 0 56.2594 9.56284 538 86.2454 406.394 484.939
1454 0 54.1968 9.24409 501 88.2754 406.421 483.022
1455 0 61.2152 9.91584 607 89.1516 405.036 493.031
1456 0 63.2258 11.024 697 88.2654 406.088 492.594
1457 0 66.2509 9.93194 658 90.0669 405.526 491.62
1458 0 67.18 9.45222 635 91.0346 405.795 488.636
1459 0 71.216 12.1602 866 86.1524 405.672 489.233
1460 0 73.2782 10.9309 801 88.2497 405.275 485.352
1461 0 75.2424 9.51591 716 91.5614 405.128 488.877
1462 0 76.2294 10.6783 814 90.7666 405.079 485.079
1463 0 80.1475 8.79628 705 92.1773 405.243 488.521
1464 0 81.1554 10.7818 875 91.0309 405.208 483.867
1465 0 84.1191 10.1642 855 92.248 405.165 484.655
1466 0 88.2487 10.4478 922 92.7798 405.431 482.13
1467 1 47.0147 11.188 526 88.8441 404.523 502.833
1468 0 45.0844 9.6042 433 84.8129 406.032 499.686
1469 0 47.0926 11.4455 539 88.9314 405.084 501.226
1470 0 46.03 10.667 491 92.2383 405.886 505.067
1471 0 46.1 10.8026 498 94.2831 404.984 500.711
1472 0 48.2119 10.4331 503 94.5527 405.024 500.505
1473 0 51.2945 9.4552 485 96.2515 404.755 500.726
1474 0 50.1501 9.53139 478 97.6799 404.351 500.165
1475 0 51.1303 9.50514 486 97.2304 404.488 499.967
1476 0 54.0811 9.80009 530 98.6038 404.947 499.694
1477 0 56.1826 11.427 642 96.4003 405.062 498.333
1478 0 57.2192 11.0977 635 97.5811 404.981 497.224
1479 0 57.3061 11.6916 670 97.0448 404.945 497.419
1480 0 57.2502 10.4978 601 99.8536 405.534 497.511
1481 0 61.2985 11.0606 678 97.7448 405.268 498.485
1482 0 64.2529 11.7971 758 97.2718 406.03 495.281
1483 0 65.2675 12.5943 822 96.8783 406.17 493.751
1484 0 67.2742 11.9659 805 97.6571 406.216 493.014
1485 0 67.3845 12.5548 846 97.3972 406.361 491.844
1486 0 70.4374 11.2298 791 100.343 406.18 490.781
1487 0 73.3342 13.0908 960 95.925 406.405 488.317
1488 0 76.2514 11.9473 911 97.1405 405.622 489.873
1489 0 77.3549 11.5442 893 98.9507 405.76 486.202
1490 0 78.2908 10.6909 837 99.2055 406.28 482.999
1491 0 80.3498 10.9521 880 101.467 405.91 483.332
1492 0 85.2264 12.8129 1092 98.0971 405.782 484.016
1493 0 86.2236 11.8065 1018 104.069 405.2 482.454
1494 0 89.2558 13.6574 1219 101.364 405.654 480.067
1495 0 92.3357 12.0647 1114 104.162 405.512 481.224
1496 1 51.0943 10.1577 519 101.572 404.268 502.942
1497 0 50.0464 9.7909 490 103.761 404.298 501.894
1498 0 50.0296 10.9135 546 104.086 404.518 498.897
1499 0 54.0864 11.9623 647 91.5873 405.607 498.838
1500 0 50.0568 9.56912 479 104.541 404.954 490.747
1501 0 55.0805 11.3107 623 99.4109 404.191 493.462
1502 0 56.0305 10.994 616 100.656 404.817 489.907
1503 0 57.0545 11.4277 652 99.2377 403.914 493.138
1504 0 58.0628 11.6426 676 88.5074 405.191 490.935
1505 0 59.0254 11.0461 652 90.0475 405.382 492.117
1506 0 61.1595 10.8732 665 92.2692 405.247 490.039
1507 0 62.2102 12.6507 787 90.5985 405.845 490.09
1508 0 63.0608 11.4651 723 94.1065 406.029 490.003
1509 0 63.057 11.5134 726 95.427 405.158 487.992
1510 0 63.0486 10.7377 677 98.3058 405.428 488.43
1511 0 66.0588 11.4595 757 95.6552 405.827 485.05
1512 0 70.1182 11.8942 834 93.7674 405.476 486.175
1513 0 70.1987 9.43038 662 97.6511 404.997 486.847
1514 0 75.1103 11.1037 834 93.9856 405 484.815
1515 0 75.0907 11.6259 873 93.2784 405.495 483.892
1516 0 79.101 12.8696 1018 90.7525 404.748 480.896
1517 0 80.1677 11.4011 914 94.7615 405.558 480.78
1518 0 84.0961 12.783 1075 92.8195 405.006 479.896
1519 0 85.1258 10.878 926 97.4784 404.809 479.036
1520 0 84.0969 9.25123 778 102.803 404.888 474.884
1521 0 88.1055 11.2706 993 100.718 405.367 478.943
1522 0 91.0653 10.1466 924 101.76 404.802 475.282
1523 0 95.151 10.8039 1028 100.771 405.248 474.485
1524 0 96.1168 11.5484 1110 102.25 405.595 473.517
1525 1 47.0987 9.2147 434 97.5276 405.267 501.737
1526 0 51.0188 11.6624 595 95.6891 405.508 498.782
1527 0 53.117 9.97796 530 97.1849 405.547 499.534
1528 0 54.0774 10.8548 587 98.6337 404.928 498.341
1529 0 55.0454 9.59208 528 102.263 405.131 497.674
1530 0 58.1133 10.5484 613 101.44 405.103 492.816
1531 0 60.1381 11.4071 686 100.662 405.389 493.315
1532 0 62.2284 12.7755 795 98.8277 405.542 492.767
1533 0 64.1833 11.5139 739 102.367 405.322 494.051
1534 0 64.2593 11.5781 744 113.273 405.491 490.798
1535 0 66.2194 10.0424 665 107.986 405.011 485.817
1536 0 68.1999 11.2317 766 106.38 405.285 486.828
1537 0 71.1843 12.292 875 102.918 405.446 487.333
1538 0 73.1478 11.1418 815 106.789 405.01 484.897
1539 0 77.1586 11.7809 909 106.322 405.614 482.406
1540 0 73.1564 9.88294 723 112.313 405.08 480.508
1541 0 80.1551 11.4528 918 108.322 405.133 481.503
1542 1 40.0338 9.26718 371 107.461 403.935 504.035
1543 0 44.0213 10.7675 474 111.502 403.243 506.606
1544 0 45.035 11.3023 509 113.167 403.585 504.008
1545 0 46.1567 11.4393 528 100.778 405.04 501.733
1546 0 43.1739 9.31119 402 106.667 404.276 500.381
1547 0 48.0427 10.6156 510 103.204 404.212 500.808
1548 0 49.0892 10.3892 510 103.91 403.198 498.539
1549 0 49.1214 9.60885 472 106.494 403.587 498.557
1550 0 52.0439 10.8562 565 104.041 403.262 497.662
1551 0 54.2091 11.7139 635 101.688 403.403 495.737
1552 0 56.2136 11.3318 637 102.381 402.863 496.43
1553 0 56.2302 10.4392 587 104.211 404.15 495.009
1554 0 57.246 11.5641 662 101.473 403.956 495.819
1555 0 59.3299 10.9894 652 103.762 404.222 493.696
1556 0 63.3638 10.8895 690 102.781 403.9 494.558
1557 0 63.1984 11.0446 698 103.612 403.629 493.953
1558 0 65.3515 12.0732 789 103.223 403.873 490.542
1559 0 68.2332 11.3288 773 103.78 403.978 491.613
1560 0 68.302 9.56049 653 107.899 403.603 489.948
1561 0 72.1925 11.123 803 105.615 404.288 488.995
1562 0 74.2219 12.0989 898 104.411 403.644 487.787
1563 0 78.3161 10.879 852 106.315 404.058 487.469
1564 1 40.0808 9.97983 400 100.775 405.058 506.92
1565 0 40.0876 8.8556 355 104.91 405.158 507.414
1566 0 43.1491 11.495 496 99.6391 405.335 504.829
1567 0 45.0252 11.4158 514 109.8 402.942 506.605
1568 0 43.0123 11.2061 482 113.268 402.932 506.952
1569 0 42.0519 9.41693 396 118.308 403.399 504.732
1570 0 46.1318 11.0336 509 111.802 402.617 505.086
1571 0 48.1264 11.0958 534 112.541 402.309 505.882
1572 0 49.1958 10.57 520 113.794 401.875 502.394
1573 0 50.0498 10.1499 508 105.276 403.154 500.144
1574 0 51.0297 10.4253 532 106.37 403.054 497.675
1575 0 52.0059 10.5373 548 103.881 402.987 499.177
1576 0 55.114 11.3401 625 103.482 403.59 495.917
1577 0 56.0181 10.1039 566 106.852 403.145 494.293
1578 0 57.081 10.9844 627 105.12 403.022 495.276
1579 0 61.141 11.0891 678 104.028 403.636 494.917
1580 0 63.16 11.3838 719 104.075 402.971 493.156
1581 0 65.0844 11.4159 743 103.697 403.814 492.513
1582 0 68.0894 11.8668 808 103.464 403.87 491.066
1583 0 70.1734 11.4431 803 104.32 404.402 490.177
1584 0 71.1706 11.7043 833 106.073 402.941 486.6
1585 0 75.29 11.024 830 107.048 403.457 486.063
1586 0 78.1477 12.8475 1004 102.059 404.126 486.265
1587 0 78.1736 11.8454 926 104.997 404.076 484.239
1588 0 80.1616 11.0028 882 108.542 404.266 482.468
1589 0 85.0971 13.3142 1133 102.864 403.717 482.945
1590 0 85.2282 10.1727 867 109.736 403.352 481.136
1591 0 90.2532 11.1353 1005 108.709 403.345 478.915
1592 1 47.036 11.268 530 101.323 402.891 498.696
1593 0 46.0264 10.3853 478 105.795 402.646 497.088
1594 0 49.0289 10.4428 512 101.969 403.604 497.295
1595 0 52.0248 11.6291 605 99.5868 403.64 496.833
1596 0 52.1112 12.0128 626 101.383 404.006 500.399
1597 0 51.1203 10.2308 523 105.103 403.075 497.44
1598 0 52.1249 10.6091 553 105.382 403.17 494.244
1599 0 56.054 12.7912 717 100.329 403.604 495.863
1600 0 56.0645 12.3964 695 101.774 404.373 494.981
1601 0 57.1128 11.2584 643 104.257 403.69 495.384
1602 0 61.0468 11.3519 693 103.131 404.345 494.563
1603 0 61.1216 11.9434 730 104.774 404.233 491.778
1604 0 65.1283 12.959 844 102.395 403.912 491.22
1605 0 64.1567 11.4252 733 106.593 403.664 490.891
1606 0 67.2096 12.2006 820 105.437 404.146 489.287
1607 0 71.2011 12.1487 865 103.725 404.72 490.479
1608 0 72.1331 11.354 819 105.552 404.067 488.601
1609 0 74.0609 12.9623 960 102.529 404.258 487.471
1610 0 73.1006 10.1504 742 108.779 403.907 487.24
1611 0 78.1346 11.6594 911 105.537 403.73 485.259
1612 0 82.1997 12.348 1015 104.173 404.621 481.346
1613 1 43.0307 9.87668 425 101.127 403.699 499.699
1614 0 45.0412 11.2564 507 100.353 403.116 499.247
1615 0 47.0844 10.4281 491 99.7475 403.24 499.939
1616 0 49.1067 10.9965 540 99.2444 402.683 500.306
1617 0 49.0842 10.6755 524 101.983 403.687 497.126
1618 0 51.0675 10.7896 551 102.294 403.985 497.494
1619 0 53.1166 11.1453 592 101.882 402.787 497.081
1620 0 55.0584 11.5877 638 102.679 402.922 497.652
1621 0 56.0821 12.9453 726 101.494 403.61 494.171
1622 0 57.0978 10.5433 602 104.138 403.321 497.752
1623 0 59.09 11.8971 703 103.986 403.865 493.458
1624 0 60.1574 11.0211 663 106.275 403.13 493.596
1625 0 64.1454 11.6142 745 104.054 402.22 494.93
1626 0 66.1066 12.6916 839 104.042 402.226 493.467
1627 0 68.047 13.6964 932 103.202 403.015 490.276
1628 0 69.12 11.8779 821 109.089 402.865 492.323
1629 0 76.1658 13.3131 1014 103.288 402.806 490.943
1630 0 76.1612 11.9877 913 105.752 402.768 491.384
1631 0 81.1106 13.7343 1114 102.691 402.642 486.306
1632 0 83.1617 12.614 1049 106.694 402.736 484.872
1633 1 42.0563 10.2482 431 107.014 402.148 507.476
1634 0 45.0548 10.4539 471 106.335 402.248 506.359
1635 0 46.0225 13.1023 603 98.8773 402.889 503.146
1636 0 46.0334 10.9268 503 103.39 403.435 503.306
1637 0 48.0353 11.8663 570 101.974 403.535 502.582
1638 0 49.0562 11.3747 558 102.502 403.946 498.602
1639 0 51.0559 11.6539 595 101.6 403.289 499.284
1640 0 51.0961 11.86 606 103.383 402.969 492.37
1641 0 53.1366 12.1197 644 103.773 402.998 491.663
1642 0 55.0772 11.4567 631 104.509 403.196 492.78
1643 0 56.1589 10.6305 597 106.678 403.307 491.424
1644 0 59.1315 12.1255 717 103.679 403.543 490.24
1645 0 59.0717 11.6299 687 105.894 403.118 488.003
1646 0 62.0398 12.2663 761 110.145 402.892 488.008
1647 0 67.1123 12.6504 849 91.1437 403.715 491.461
1648 0 69.0697 12.5381 866 103.831 403.624 490.463
1649 0 69.2369 12.0023 831 104.018 404.617 489.674
1650 0 74.2392 13.0255 967 100.481 404.831 488.707
1651 0 75.2092 11.8735 893 104.745 404.92 486.223
1652 0 78.2578 12.7655 999 103.075 404.684 485.909
1653 0 81.3165 12.728 1035 107.078 404.404 483.472
1654 0 81.2954 11.7965 959 110.922 404.927 480.639
1655 0 86.2653 12.7166 1097 107.838 404.45 481.294
1656 0 90.3419 12.8844 1164 107.274 405.379 478.85
1657 0 94.2999 13.1495 1240 107.136 404.494 478.877
1658 1 48.2198 12.049 581 103.778 402.898 498.571
1659 0 50.2538 11.9394 600 100.787 402.708 498.212
1660 0 51.1275 10.6596 545 99.1761 404.262 495.264
1661 0 52.04 11.8947 619 96.2795 403.557 494.239
1662 0 51.0167 11.2708 575 99.1217 403.219 494.343
1663 0 54.0846 11.0383 597 101.554 402.881 494.149
1664 0 57.0534 12.0764 689 97.8331 403.113 496.299
1665 0 59.1188 11.1809 661 102.868 403.002 493.079
1666 0 60.0949 11.6815 702 102.637 403.585 492.359
1667 0 61.095 10.5737 646 104.563 404.076 494.226
1668 0 64.0568 11.4274 732 104.587 403.713 490.527
1669 0 67.1145 11.9944 805 104.517 404.118 489.985
1670 0 69.2151 12.7718 884 105.087 403.941 489.422
1671 0 72.228 13.0143 940 105.534 403.16 488.423
1672 0 76.0451 12.8871 980 104.139 403.46 488.245
1673 0 76.2047 11.4035 869 107.939 403.081 488.466
1674 0 82.0929 12.7904 1050 107.371 403.751 483.725
1675 0 83.142 12.1118 1007 109.547 403.761 484.07
1676 0 85.0665 13.1309 1117 108.333 402.971 482.343
1677 0 86.2601 11.9638 1032 110.873 404.607 480.444
1678 1 47.1693 10.2821 485 106.155 403.497 497.485
1679 0 51.1371 10.6967 547 110.74 403.397 494.612
1680 0 49.1527 8.5855 422 116.422 404.211 493.818
1681 0 53.2132 12.2526 652 108.258 403.259 499.44
1682 0 54.2869 11.6603 633 111.867 403.237 497.847
1683 0 58.1063 12.5976 732 109.452 403.152 498.933
1684 0 56.0181 12.2996 689 113.224 403.206 500.289
1685 0 58.1085 13.4232 780 111.51 403.4 499.468
1686 0 62.1005 12.5925 782 113.258 403.367 496.313
1687 0 63.0608 13.1936 832 111.269 403.671 496.411
1688 0 66.0992 13.7218 907 110.451 403.77 493.043
1689 0 69.0876 12.4624 861 113.188 403.999 493.197
1690 0 71.2676 13.5966 969 111.338 403.749 491.136
1691 0 73.1754 12.6409 925 113.558 403.788 491.108
1692 0 76.2183 12.8316 978 112.687 404.126 489.179
1693 0 79.5488 12.9857 1033 109.014 404.85 485.51
1694 1 41.2441 10.1105 417 109.873 404.986 503.103
1695 0 42.2289 12.8348 542 115.886 402.978 492.624
1696 0 42.2172 9.83013 415 123.304 403.036 493.226
1697 0 44.2894 11.4926 509 109.2 404.053 495.699
1698 0 48.1788 11.1875 539 110.549 403.449 502.237
1699 0 48.0459 10.9062 524 112.7 403.162 502.737
1700 0 49.076 10.8811 534 113.191 403.803 501.066
1701 0 51.2016 11.6989 599 110.015 404.296 497.952
1702 0 54.2061 11.2534 610 110.554 404.356 496.457
1703 0 54.1103 10.5895 573 111.997 404.278 496.651
1704 0 57.2372 11.6358 666 111.402 402.815 496.811
1705 0 60.1498 11.0225 663 108.983 403.198 495.722
1706 0 62.2476 11.8398 737 106.664 403.271 495.198
1707 0 63.1852 11.7274 741 108.489 403.625 492.351
1708 0 66.1949 13.3545 884 108.723 403.036 493.459
1709 0 65.1712 10.9711 715 113.761 402.203 496.414
1710 0 69.1792 11.8822 822 111.79 402.518 494.119
1711 0 71.2668 11.3938 812 112.809 402.793 490.741
1712 0 73.1978 12.3638 905 111.766 402.42 490.446
1713 0 78.1279 12.0827 944 110.666 402.94 489.145
1714 0 81.2263 12.299 999 107.707 403.251 486.341
1715 0 83.2314 11.5101 958 112.014 403.259 486.384
1716 0 84.1812 11.9742 1008 111.41 403.084 484.162
1717 1 47.0574 12.7716 601 104.057 403.062 504.874
1718 0 46.0486 12.2696 565 106.494 403.142 504.11
1719 0 48.3081 10.9712 530 105.03 403.321 499.298
1720 0 48.2237 11.0319 532 112.876 401.968 503.158
1721 0 47.2146 10.9712 518 115.369 401.772 501.558
1722 0 50.1283 10.9718 550 114.495 402.415 501.796
1723 0 53.2204 11.349 604 111.051 402.56 502.061
1724 0 54.3512 12.1249 659 110.762 402.525 498.895
1725 0 55.1819 11.9061 657 111.154 402.542 497.697
1726 0 57.1817 12.1193 693 109.752 402.085 499.128
1727 0 58.089 12.3259 716 110.665 402.658 498.652
1728 0 60.1273 11.4091 686 112.723 402.372 496.793
1729 0 61.2941 11.3877 698 113.331 402.927 496.047
1730 0 63.4959 11.0243 700 113.311 402.753 496.676
1731 0 66.2518 12.3317 817 111.873 403.588 494.077
1732 0 69.1964 11.7925 816 113.49 402.798 493.164
1733 0 71.3079 11.0226 786 110.712 403.14 488.359
1734 0 74.1571 12.5949 934 109.399 403.192 486.535
1735 0 75.2606 11.9053 896 111.237 403.062 484.733
1736 0 78.2082 11.7763 921 111.961 403.201 486.254
1737 0 82.1756 12.5463 1031 111.083 403.163 483.451
1738 1 41.0456 11.3776 467 105.685 402.812 504.621
1739 0 44.0336 11.9908 528 107.5 402.091 504.155
1740 0 44.0734 11.6397 513 106.448 402.478 503.131
1741 0 43.1891 11.7159 506 108.887 401.976 502.437
1742 0 45.1057 12.4374 561 108.394 402.574 497.349
1743 0 47.0894 11.9347 562 109.028 402.413 497.758
1744 0 49.0996 12.7292 625 108.605 402.238 496.499
1745 0 49.204 13.068 643 108.547 401.952 496.068
1746 0 51.0997 12.3093 629 110.932 401.555 495.884
1747 0 50.0128 11.3771 569 122.063 401.473 486.942
1748 0 53.0549 11.8745 630 121.324 401.568 483.568
1749 0 53.047 11.9705 635 122.491 401.46 481.576
1750 0 58.1336 12.4369 723 118.884 402.437 481.546
1751 0 56.0444 12.6685 710 122.708 401.799 477.154
1752 0 56.0711 12.8944 723 122.285 401.675 478.124
1753 0 58.0359 12.1649 706 124.695 401.435 475.513
1754 0 63.2564 13.548 857 118.755 402.613 473.953
1755 0 64.1272 13.8475 888 118.702 403.087 471.949
1756 0 65.1788 12.9797 846 120.246 402.986 471.957
1757 0 68.1115 12.9787 884 120.602 403.147 470.414
1758 0 68.2996 12.5477 857 122.239 403.652 467.824
1759 0 71.4014 13.8093 986 119.755 403.562 466.191
1760 0 75.4279 12.86 970 121.628 403.088 465.64
1761 0 76.5205 13.2906 1017 120.682 403.11 464.597
1762 0 80.5404 13.5584 1092 119.015 403.143 461.705
1763 0 83.4618 13.1078 1094 119.92 403.094 458.567
1764 0 86.4051 13.9228 1203 118.154 403.112 457.162
1765 1 46.1819 13.9882 646 113.028 402.209 476.715
1766 0 47.2217 12.8966 609 114.696 402.931 476.064
1767 0 47.2462 12.6359 597 115.097 403.387 474.858
1768 0 49.0178 12.3221 604 107.152 403.164 486.171
1769 0 49.0847 12.5294 615 110.559 402.698 484.26
1770 0 52.0531 11.5267 600 110.307 403.368 484.295
1771 0 51.0957 10.1183 517 115.321 402.898 480.969
1772 0 52.0963 10.9413 570 113.533 403.411 479.449
1773 0 55.111 10.9053 601 111.943 402.907 479.536
1774 0 58.0466 11.4391 664 110.5 403.06 478.477
1775 0 60.0629 11.2882 678 110.206 402.714 477.631
1776 0 62.1171 12.0418 748 109.283 402.9 476.425
1777 0 62.1219 12.2984 764 109.173 402.499 475.991
1778 0 67.1067 11.2806 757 108.939 402.004 478.346
1779 0 70.2065 13.7309 964 104.082 402.455 476.82
1780 0 71.2009 11.2077 798 109.268 402.59 477.794
1781 0 73.3261 12.6285 926 107.883 402.803 474.636
1782 0 76.1683 13.6146 1037 104.891 404.045 475.832
1783 0 77.2383 11.8335 914 109.865 403.17 475.091
1784 0 81.2701 12.6615 1029 108.652 403.543 471.972
1785 0 83.3638 12.9912 1083 108.29 403.31 473.15
1786 1 45.3526 11.6862 530 98.9208 402.698 494.357
1787 0 47.1241 11.0135 519 97.6512 402.746 495
1788 0 49.2684 12.3609 609 95.399 403.253 490.448
1789 0 48.0393 11.1784 537 97.676 402.812 493.849
1790 0 50.2066 11.871 596 95.1024 403.463 498.064
1791 0 51.0682 11.7882 602 101.231 403.249 500.882
1792 0 52.0385 11.7029 609 102.187 402.558 500.118
1793 0 55.0691 12.2936 677 99.5613 402.991 497.148
1794 0 62.0612 15.0174 932 88.6223 402.701 491.387
1795 0 58.111 10.9618 637 100.344 402.922 493.992
1796 0 61.1485 11.8237 723 98.8313 403.382 493.207
1797 0 63.1752 12.5682 794 97.8287 404.321 491.858
1798 0 64.0987 11.2639 722 101.514 403.669 490.734
1799 0 67.1613 11.7776 791 100.855 403.259 490.168
1800 0 71.0667 12.6782 901 101.587 402.704 490.777
1801 0 73.0591 11.7713 860 101.526 403.227 489.145
1802 0 75.2538 11.5742 871 104.076 403.134 484.375
1803 0 79.24 11.2443 891 105.152 403.283 485.768
1804 0 80.2801 11.7588 944 104.403 403.671 484.465
1805 1 41.3093 11.7891 487 96.037 404.076 503.464
1806 0 40.275 10.7263 432 98.5347 404.669 504.257
1807 0 43.0355 12.6407 544 99.1599 403.557 504.697
1808 0 44.0547 13.5286 596 97.7232 403.854 504.903
1809 0 46.0166 13.343 614 97.6303 403.598 502.814
1810 0 48.0383 12.9896 624 96.6731 403.989 501.931
1811 0 49.1364 13.2081 649 95.228 403.914 500.652
1812 0 51.4125 11.4564 589 96.5569 404.058 495.555
1813 0 51.4084 12.0797 621 96.5185 403.968 494.259
1814 0 52.2712 12.1673 636 98.1635 404.116 493.294
1815 0 54.0381 13.7496 743 99.3432 403.075 493.755
1816 0 55.0712 11.349 625 103.291 402.933 494.699
1817 0 56.1192 12.2062 685 102.25 403.426 493.33
1818 0 61.1458 12.7727 781 99.4725 403.452 494.391
1819 0 62.214 12.8267 798 100.167 402.977 493.133
1820 0 65.0845 12.5836 819 102 403.515 490.388
1821 0 68.096 12.9229 880 100.753 403.474 491.131
1822 0 69.1344 11.7018 809 102.969 403.729 491.452
1823 0 72.0939 12.2757 885 101.882 403.728 490.322
1824 0 73.119 12.3634 904 103.889 403.81 487.767
1825 0 75.5358 12.3385 932 105.379 403.859 484.079
1826 0 77.2716 12.3331 953 106.313 404.443 482.041
1827 0 77.36 11.5434 893 108.573 404.279 483.075
1828 0 81.5165 12.4269 1013 107.168 404.829 480.716
1829 0 86.6031 13.1173 1136 105.1 404.657 480.002
1830 0 89.3494 12.3448 1103 107.159 404.287 479.427
1831 1 47.2218 10.3766 490 97.8306 404.667 499.508
1832 0 47.278 10.0046 473 98.3742 404.385 499.292
1833 0 50.0626 12.6242 632 95.1994 402.764 497.79
1834 0 51.1161 10.5446 539 98.9685 403.568 497.388
1835 0 54.0954 12.6628 685 95.0905 402.453 496.885
1836 0 55.0823 11.5282 635 96.9559 403.427 496.351
1837 0 57.1802 11.2102 641 97.6381 402.757 496.803
1838 0 59.0853 11.7965 697 97.5093 402.892 495.07
1839 0 62.1632 11.132 692 97.8483 403.211 496.564
1840 0 63.1637 11.6364 735 98.102 403.195 493.856
1841 0 66.1661 11.7281 776 98.7126 402.919 491.572
1842 0 67.1357 13.1674 884 97.0984 402.897 490.603
1843 0 68.1952 11.3938 777 102.174 402.949 489.99
1844 0 72.2471 13.8829 1003 98.984 402.82 490.444
1845 0 72.1109 11.5378 832 105.411 402.249 490.374
1846 0 78.1936 13.6456 1067 100.128 403.16 487.616
1847 0 80.2317 12.1149 972 103.532 403.091 485.763
1848 0 82.1738 11.7677 967 105.4 402.926 487.297
1849 0 85.2507 11.4603 977 106.428 403.145 484.232
1850 0 86.3265 11.6187 1003 107.973 402.849 481.868
1851 1 47.0476 11.0314 519 105.447 403.017 501.139
1852 0 49.1077 11.3831 559 101.309 402.533 498.301
1853 0 48.1926 12.201 588 98.0731 404.427 498.243
1854 0 52.1477 11.314 590 99.0017 404.156 497.79
1855 0 51.2278 12.0638 618 98.6602 404.358 497.489
1856 0 53.1045 12.7485 677 98.2718 403.916 496.617
1857 0 57.2019 12.08 691 99.3835 403.773 496.265
1858 0 56.1448 11.6841 656 101.863 402.982 494.768
1859 0 58.237 11.5906 675 101.936 403.804 495.077
1860 0 59.2864 11.0143 653 102.524 402.864 494.499
1861 0 61.2534 11.0361 676 101.996 403.231 494.288
1862 0 65.1395 12.0818 787 100.928 403.851 491.853
1863 0 65.1608 12.0164 783 101.461 403.129 490.194
1864 0 66.1129 13.5375 895 98.0391 404.36 490.506
1865 0 70.1338 12.6187 885 99.1198 404.159 489.302
1866 0 71.0792 12.6197 897 98.9097 404.386 489.317
1867 0 74.1923 12.8989 957 98.6761 403.889 487.013
1868 0 75.092 12.265 921 104.181 403.235 488.122
1869 0 80.227 13.2374 1062 101.508 403.497 485.516
1870 0 82.22 12.5152 1029 102.75 403.592 486.577
1871 0 84.2132 12.9196 1088 102.453 403.204 484.131
1872 0 87.2779 13.0388 1138 101.231 403.329 482.578
1873 1 45.1036 11.9724 540 102.73 403.487 503.422
1874 0 47.136 11.6047 547 101.329 402.83 501.594
1875 0 48.249 10.8603 524 102.821 403.048 501.88
1876 0 52.153 12.7701 666 98.8498 403.132 500.419
1877 0 54.1404 12.9109 699 98.4707 402.814 498.609
1878 0 56.036 13.759 771 96.5707 403.595 499.665
1879 0 57.1046 13.6592 780 97.2744 404.245 496.572
1880 0 57.1171 12.5707 718 101.203 403.409 495.364
1881 0 60.1287 13.4212 807 98.2317 403.789 496.104
1882 0 62.0731 13.0491 810 99.1432 403.996 497.069
1883 0 62.0862 13.0947 813 99.7835 403.777 495.483
1884 0 64.1192 13.0226 835 99.8754 403.382 494.242
1885 0 67.075 14.1782 951 97.4637 403.767 493.2
1886 0 69.2061 13.8427 958 97.5397 403.364 491.323
1887 0 72.192 13.8104 997 96.1304 403.442 491.574
1888 0 74.1377 14.4731 1073 94.6598 403.639 490.358
1889 0 78.1605 13.9073 1087 95.7056 403.647 487.597
1890 0 81.1473 14.4059 1169 94.8281 403.998 486.214
1891 0 82.1905 14.1866 1166 95.9957 403.931 485.364
1892 0 85.1661 13.9375 1187 98.7742 404.119 483.796
1893 0 89.2152 14.437 1288 99.4845 404.663 481.023
1894 0 91.1386 12.1573 1108 108.31 404.693 481.618
1895 1 44.0805 10.5035 463 104.158 403.911 504.678
1896 0 47.1182 12.2246 576 101.095 404.177 502.936
1897 0 48.0747 12.2726 590 103.327 403.332 481.532
1898 0 49.0668 11.9429 586 98.1178 403.689 481.294
1899 0 52.0708 12.1373 632 97.2437 403.326 483.733
1900 0 51.1506 12.6294 646 103.014 403.488 485.709
1901 0 52.0963 12.2658 639 104.892 403.826 483.224
1902 0 54.2502 13.788 748 101.578 403.886 484.877
1903 0 54.1762 12.2194 662 106.381 403.492 481.092
1904 0 57.1215 13.6726 781 102.972 403.595 482.729
1905 0 60.0724 12.6681 761 103.725 403.98 478.741
1906 0 63.0564 14.3205 903 99.4009 403.929 481.97
1907 0 65.0725 13.5848 884 100.423 404.217 481.122
1908 0 65.1696 11.9995 782 104.647 404.637 481.656
1909 0 70.1936 12.551 881 101.48 403.817 483.413
1910 0 70.0967 10.8992 764 104.906 403.623 481.971
1911 0 73.17 11.4938 841 104.659 403.633 480.177
1912 0 78.2533 12.7535 998 102.477 403.409 479.834
1913 0 79.1245 11.8547 938 104.348 403.306 480.893
1914 0 82.289 11.8485 975 104.993 403.354 479.829
1915 0 85.1048 13.0897 1114 103.845 403.635 480.779
1916 0 89.182 12.738 1136 103.473 403.595 480.551
1917 1 47.1034 10.7848 508 96.813 403.126 495.203
1918 0 48.1152 10.9321 526 95.6122 403.47 495.711
1919 0 50.1557 11.0855 556 94.9712 403.507 495.097
1920 0 52.1375 11.2971 589 93.4194 402.834 491.323
1921 0 52.0468 10.8556 565 94.9947 402.749 491.589
1922 0 55.0618 11.3872 627 93.7927 403.147 490.498
1923 0 57.1595 10.8119 618 94.3366 403.553 489.178
1924 0 59.1479 10.7189 634 94.7177 403.768 488.896
1925 0 60.1322 11.192 673 94.263 402.93 488.391
1926 0 64.1073 11.0128 706 94.466 403.221 488.568
1927 0 63.065 10.3544 653 97.2588 403.305 484.472
1928 0 66.2269 10.3281 684 98.7924 403.075 484.82
1929 0 70.2386 11.3186 795 98.4541 403.341 483.425
1930 0 73.2209 12.2369 896 96.0658 403.548 483.167
1931 0 75.1918 11.1714 840 98.2179 403.6 480.836
1932 0 78.082 11.8081 922 98.5911 403.21 480.668
1933 0 79.1382 10.9808 869 103.017 403.326 478.831
1934 1 41.1623 11.4668 472 91.5614 402.78 500.239
1935 0 42.2198 9.23738 390 95.7949 402.856 500.995
1936 0 46.0434 11.5978 534 100.873 402.509 505.444
1937 0 46.0583 11.9197 549 100.352 402.031 504.455
1938 0 52.0633 14.0214 730 92.7699 402.051 497.997
1939 0 56.1771 12.7988 719 94.6314 402.22 497.691
1940 0 56.1289 17.0322 956 87.2615 402.252 496.303
1941 0 55.0802 12.7087 700 99.0229 402.17 496.229
1942 0 52.0771 11.5022 599 107.531 401.831 499.533
1943 0 53.0837 12.6027 669 106.673 402.158 497.513
1944 0 54.0899 12.091 654 109.118 401.719 496.636
1945 0 55.0718 12.9467 713 107.823 402.355 498.452
1946 0 56.0848 10.5554 592 113.088 402.35 497.704
1947 0 59.0686 13.4759 796 107.579 402.627 497.227
1948 0 62.0951 13.4471 835 107.187 402.859 494.305
1949 0 64.0401 13.3822 857 107.426 402.463 493.47
1950 0 66.0994 12.5417 829 108.801 402.255 491.624
1951 0 68.0602 12.3714 842 110.24 401.73 491.587
1952 0 70.0734 12.758 894 108.938 401.84 492.659
1953 0 75.1404 12.9757 975 109.038 402.466 490.691
1954 1 39.0299 10.4279 407 113.752 401.43 508.369
1955 0 40.0367 10.1407 406 109.443 401.485 506.091
1956 0 41.1289 11.6949 481 111.087 401.405 504.441
1957 0 42.0358 12.4418 523 109.235 402.128 502.545
1958 0 44.0504 11.8955 524 105.616 402.557 501.744
1959 0 44.029 11.129 490 108.102 403.198 502.737
1960 0 43.0324 11.0614 476 109.655 402.628 502.985
1961 0 46.029 12.0576 555 106.98 402.141 500.901
1962 0 49.0476 12.9262 634 104.672 402.558 499.787
1963 0 50.0601 10.3476 518 108.716 402.041 501.766
1964 0 52.0307 12.4542 648 106.191 402.585 500.162
1965 0 52.1118 11.4561 597 110.345 402.806 497.323
1966 0 52.0852 11.8268 616 110.688 402.925 496.459
1967 0 56.1059 11.5139 646 110.308 402.511 495.641
1968 0 56.0846 12.1959 684 108.415 403.099 494.487
1969 0 58.199 11.6497 678 109.094 403.491 494.847
1970 0 63.1018 12.8523 811 105.503 403.263 493.848
1971 0 62.2775 11.6896 728 108.725 403.191 492.229
1972 0 65.1246 12.0231 783 108.078 403.043 489.739
1973 0 67.0985 11.3564 762 109.596 402.627 488.717
1974 0 71.1426 11.1888 796 109.078 403.2 488.94
1975 0 72.1444 11.7265 846 108.548 403.209 486.834
1976 0 76.2921 12.8454 980 105.59 403.262 485.22
1977 0 78.1362 12.4014 969 106.669 403.132 485.394
1978 0 82.0825 13.4255 1102 105.328 403.485 483.486
1979 0 84.1398 12.9427 1089 107.595 403.83 482.183
1980 1 42.1738 10.8361 457 105.867 403.068 504.597
1981 0 42.0834 10.7881 454 105.452 403.007 502.936
1982 0 44.0081 13.3157 586 110.454 401.925 504.657
1983 0 43.0908 10.768 464 104.343 402.386 500.901
1984 0 46.136 10.0139 462 103.81 402.284 500.095
1985 0 47.1946 12.1412 573 102.487 402.218 497.091
1986 0 48.0794 10.3995 500 106.554 402.638 497.214
1987 0 47.1002 10.2547 483 108.424 402.696 495.362
1988 0 50.1548 10.8664 545 107.084 402.354 496.993
1989 0 52.1356 10.2617 535 109.224 402.585 495.153
1990 0 55.0633 12.0044 661 107.421 403.168 491.891
1991 0 56.068 11.0045 617 109.744 403.037 492.237
1992 0 57.0734 11.3888 650 108.246 402.869 493.682
1993 0 60.1496 11.355 683 108.145 402.668 493.435
1994 0 60.0955 12.2305 735 109.543 402.052 490.856
1995 0 61.0885 11.7207 716 111.405 402.682 488.737
1996 0 66.0642 12.17 804 109.695 402.498 492.928
1997 0 67.2036 11.7702 791 112.722 402.693 487.056
1998 0 70.1271 11.9782 840 109.904 402.707 489.346
1999 0 73.1789 13.2005 966 109.156 402.532 485.187
2000 0 74.1814 11.9167 884 112.89 402.777 485.851
2001 0 78.1761 12.1009 946 110.807 402.88 488.032
2002 0 80.0797 12.8747 1031 111.032 402.587 485.73
2003 0 85.1183 12.8175 1091 111.483 402.898 484.124
2004 0 87.1858 12.3873 1080 111.694 402.409 481.865
2005 1 48.1983 11.5979 559 107.925 402.818 496.828
2006 0 48.1026 11.9952 577 108.854 403.496 494.463
2007 0 51.0446 12.5185 639 106.074 403.261 494.992
2008 0 53.0841 12.8664 683 106.464 403.305 493.938
2009 0 52.1642 11.828 617 109.603 402.893 501.31
2010 0 54.097 13.6606 739 105.472 402.553 498.981
2011 0 56.1449 12.6459 710 108.049 402.955 498.708
2012 0 59.259 12.8588 762 106.797 402.776 498.105
2013 0 61.1635 12.5238 766 107.285 403.386 497.67
2014 0 61.2077 12.5801 770 108.231 402.964 496.16
2015 0 64.2654 12.7751 821 108.548 402.939 494.881
2016 0 66.2362 13.5424 897 108.381 402.776 492.88
2017 0 67.1474 13.6714 918 109.196 402.802 491.907
2018 0 69.1453 13.233 915 111.224 403.126 489.87
2019 0 70.211 13.317 935 112.12 403.622 488.445
2020 0 74.2083 13.3408 990 113.626 403.25 488.644
2021 0 75.2147 11.5669 870 118.031 403.314 488.616
2022 0 77.1914 11.9573 923 118.094 403.187 487.416
2023 0 81.2502 13.083 1063 115.161 403.912 487.33
2024 0 82.3261 12.9364 1065 117.4 403.352 482.6
2025 0 87.6073 13.7774 1207 114.775 403.633 482.503
2026 0 90.4474 14.2845 1292 113.465 404.046 481.538
2027 0 92.3407 13.5693 1253 114.628 403.658 478.27
2028 0 96.4026 13.3503 1287 114.876 404.284 478.568
2029 0 100.509 12.8048 1287 117.296 403.416 474.666
2030 1 52.0474 12.5655 654 108.982 403.203 493.641
2031 0 54.2094 12.3595 670 110.496 402.907 488.569
2032 0 54.0934 11.665 631 115.108 402.623 487.048
2033 0 57.0799 12.7716 729 114.025 402.351 486.165
2034 0 59.1057 13.4166 793 111.786 402.206 485.252
2035 0 62.1037 12.7368 791 112.386 401.372 485.965
2036 0 63.2372 12.6666 801 113.19 401.567 485.749
2037 0 66.1342 13.2609 877 112.174 401.994 484.023
2038 0 67.4856 12.5212 845 114.142 403.124 484.436
2039 0 69.3248 13.8767 962 111.76 403.5 484.132
2040 0 70.4368 12.8484 905 115.786 403.35 482.086
2041 0 72.3905 13.6758 990 115.707 403.38 481.987
2042 0 75.2039 12.9249 972 117.743 402.627 481.474
2043 0 77.2261 12.0426 930 120.315 402.798 482.846
2044 0 80.1713 12.8974 1034 118.487 402.426 481.29
2045 0 83.1964 13.1977 1098 118.099 402.634 481.701
2046 0 86.2445 13.3458 1151 116.572 402.916 481.279
2047 0 90.3562 13.6128 1230 116.946 402.891 478.487
2048 0 94.3263 14.3332 1352 114.126 403.416 480.02
2049 1 50.2192 10.5935 532 113.932 402.872 500.391
2050 0 52.1122 12.7609 665 111.934 402.798 497.011
2051 0 53.1499 12.3425 656 113.273 403.073 497.122
2052 0 55.3131 13.1795 729 114.444 403.177 490.933
2053 0 56.3005 12.1846 686 116.497 402.955 491.697
2054 0 58.2902 11.9403 696 117.81 403.032 492.397
2055 0 60.2628 12.1468 732 117.674 402.907 492.765
2056 0 63.2349 12.841 812 116.394 403.15 492.546
2057 0 63.2484 12.9964 822 115.221 404.134 492.779
2058 0 66.3379 14.4261 957 110.89 404.275 492.333
2059 0 68.3153 13.8476 946 113.235 404.579 489.961
2060 0 71.5965 11.9838 858 115.938 405.198 487.944
2061 0 73.4592 13.6402 1002 112.698 404.575 487.504
2062 0 72.3628 12.5755 910 117.655 405.171 486.663
2063 0 77.3905 13.503 1045 114.41 404.831 485.742
2064 0 77.3116 11.3049 874 119.834 404.261 484.605
2065 0 82.2947 12.7226 1047 115.297 404.515 483.821
2066 0 82.3892 11.9797 987 118.905 404.636 475.692
2067 0 84.4412 12.1031 1022 119.042 404.596 472.446
2068 0 88.3477 12.8017 1131 117.595 404.716 470.004
2069 0 92.2739 14.056 1297 115.099 404.225 467.84
2070 1 46.1705 7.68889 355 117.344 402.454 489.025
2071 0 52.43 10.9098 572 109.685 403.498 488.953
2072 0 53.2704 11.0193 587 107.382 404.583 491.118
2073 0 55.2933 11.3938 630 107.51 403.836 493.262
2074 0 58.0387 11.0271 640 112.203 402.7 492.428
2075 0 59.1214 11.8231 699 111.04 402.564 490.029
2076 0 61.0927 11.3434 693 112.371 402.232 487.095
2077 0 64.021 10.6215 680 111.896 402.118 488.525
2078 0 67.0856 10.3599 695 112.37 402.407 489.845
2079 0 67.2463 12.0007 807 109.641 402.426 489.384
2080 0 70.3045 11.948 840 109.754 402.86 487.927
2081 0 75.2514 11.4417 861 107.477 402.454 486.562
2082 0 76.1068 11.2605 857 108.145 401.461 483.128
2083 1 41.1119 10.8971 448 103.623 400.232 503.212
2084 0 42.0425 11.2267 472 102.782 400.956 502.86
2085 0 42.1792 10.0998 426 102.237 403.235 503.404
2086 0 43.2006 10.9258 472 102.958 401.773 501.847
2087 0 45.0405 11.2787 508 102.362 402.175 502.337
2088 0 47.0689 11.0901 522 103.025 402.113 500.898
2089 0 48.1771 11.0634 533 102.644 401.94 498.51
2090 0 50.0754 10.1048 506 105.87 401.958 499.194
2091 0 51.0572 10.6939 546 105.907 401.916 499.112
2092 0 52.0608 12.4662 649 101.855 402.119 496.777
2093 0 53.045 10.7456 570 105.054 402.604 497.37
2094 0 56.1495 12.8942 724 101.337 402.32 496.559
2095 0 53.1673 11.7553 625 107.512 402.442 495.838
2096 0 56.1767 11.9089 669 106.232 402.329 495.41
2097 0 60.1307 11.7245 705 106.451 402.065 495.967
2098 0 60.0947 13.512 812 103.217 402.53 492.489
2099 0 62.2314 11.6019 722 107.817 402.079 492.571
2100 0 62.3253 10.5896 660 106.208 403.312 483.623
2101 0 64.2432 11.8456 761 103.869 403.434 485.632
2102 0 67.2617 11.9087 801 102.382 403.609 486.055
2103 0 70.2452 11.7019 822 103.397 403.766 483.062
2104 0 71.2528 11.1575 795 105.869 403.525 483.4
2105 0 74.1106 11.8606 879 104.147 403.388 480.496
2106 0 74.0942 10.8241 802 106.495 402.838 478.627
2107 0 79.1705 12.3531 978 104.303 402.856 477.92
2108 1 42.0934 9.09881 383 107.303 401.663 499.841
2109 0 42.0668 10.1267 426 113.812 401.113 489.117
2110 0 44.0982 9.20673 406 99.7882 403.325 499.345
2111 0 44.1062 10.3387 456 100.434 403.623 497.66
2112 0 47.0783 11.6402 548 98.8631 403.431 495.903
2113 0 47.0736 11.0465 520 102.421 403.123 498
2114 0 47.0515 8.82012 415 108.561 402.677 498.284
2115 0 51.0533 10.9493 559 113.732 402.231 500.451
2116 0 53.1157 12.1245 644 111.652 402.168 499.134
2117 0 53.1096 11.5987 616 113.325 401.795 498.89
2118 0 54.1752 11.4813 622 115.384 401.847 495.008
2119 0 56.1637 12.4814 701 113.609 401.718 495.892
2120 0 58.1515 10.6274 618 117.979 401.511 495.04
2121 0 60.1114 12.6265 759 114.983 401.397 494.324
2122 0 63.0871 12.348 779 114.443 401.528 492.987
2123 0 63.1086 11.6307 734 109.708 402.144 490.316
2124 0 65.1691 12.7821 833 109.167 401.995 488.336
2125 0 67.1647 12.3279 828 109.865 403.184 488.351
2126 0 69.2999 12.7129 881 110.058 402.755 487.294
2127 0 70.306 11.8909 836 112.161 402.307 484.736
2128 0 76.3592 13.3841 1022 106.793 402.596 485.906
2129 0 78.2224 11.7102 916 109.369 402.724 486.737
2130 0 81.2309 12.6553 1028 108.7 402.266 482.195
2131 0 85.1466 12.1907 1038 110.698 402.584 479.118
2132 0 88.1985 13.1181 1157 107.805 402.218 478.813
2133 0 90.2708 12.817 1157 110.022 402.113 476.451
2134 1 49.0323 10.8092 530 106.479 401.796 496.528
2135 0 50.0234 11.5146 576 106.96 402.071 496.786
2136 0 52.0864 12.4025 646 104.54 401.828 497.09
2137 0 52.0664 10.8899 567 109.309 401.667 495.402
2138 0 55.0377 12.7731 703 105.091 402.108 493.966
2139 0 56.0312 11.6721 654 108.991 401.301 493.008
2140 0 61.0489 11.8593 724 106.068 402.486 494.247
2141 0 61.0492 12.0886 738 107.016 402.073 491.321
2142 0 63.0621 12.7652 805 103.317 402.473 490.841
2143 0 64.0827 12.6399 810 103.304 402.656 489.453
2144 0 66.0495 12.8237 847 102.862 402.553 489.793
2145 0 70.1737 13.1816 925 102.006 402.385 487.653
2146 0 73.0943 12.9285 945 102.176 402.327 488.383
2147 0 74.145 11.8012 875 106.045 403.151 484.706
2148 0 77.1554 13.9588 1077 102.827 402.337 485.154
2149 0 79.2479 13.8174 1095 105.079 402.505 481.989
2150 0 84.179 12.4378 1047 108.512 402.806 482.807
2151 0 84.2386 12.5714 1059 111.345 402.647 479.543
2152 1 41.0449 9.98907 410 106.476 400.883 502.08
2153 0 44.1679 13.177 582 102.875 401.436 499.445
2154 0 44.0625 12.8454 566 98.7014 401.604 499.751
2155 0 47.1354 12.4959 589 100.846 402.492 492.01
2156 0 48.2657 13.1149 633 99.1216 403.275 490.081
2157 0 49.1568 12.1651 598 102.059 402.405 490.216
2158 0 51.1639 11.7857 603 102.552 402.857 489.587
2159 0 51.0657 12.2783 627 103.703 402.742 487.293
2160 0 52.2099 10.8792 568 106.264 403.169 487.621
2161 0 53.1608 12.2647 652 103.853 402.318 488.345
2162 0 56.1846 13.2599 745 101.714 402.758 491.332
2163 0 58.1715 12.4631 725 103.354 402.443 491.263
2164 0 60.223 11.939 719 105.115 402.356 492.036
2165 0 61.0561 11.8743 725 106.571 402.382 488.73
2166 0 63.2604 11.5554 731 106.889 402.053 489.729
2167 0 65.2194 11.7143 764 105.514 401.753 487.521
2168 0 67.1444 12.7784 858 104.577 402.549 487.634
2169 0 70.1085 13.4506 943 103.373 402.23 486.071
2170 0 71.2374 13.0269 928 104.343 402.562 484.405
2171 0 75.2211 12.789 962 105.045 403.201 481.472
2172 0 77.1922 11.5037 888 108.077 402.975 480.17
2173 0 82.0968 14.1053 1158 101.947 402.541 479.409
2174 0 84.0846 12.7966 1076 105.242 402.517 477.756
2175 0 88.1575 13.283 1171 104.1 402.248 477.456
2176 1 45.0777 10.3821 468 101.468 401.607 498.32
2177 0 46.119 11.7305 541 99.3697 401.61 498.054
2178 0 46.0884 10.7402 495 102.727 401.713 495.448
2179 0 49.0716 10.7394 527 101.926 401.632 496.996
2180 0 51.0329 10.8753 555 102.076 401.912 497.005
2181 0 53.1276 12.4982 664 99.6732 401.664 495.559
2182 0 52.0597 11.6213 605 102.711 401.982 495.812
2183 0 55.0673 12.4756 687 100.412 402.035 495.205
2184 0 56.0461 12.2399 686 101.485 402.319 492.341
2185 0 60.0304 13.0934 786 98.6094 402.243 491.531
2186 0 61.027 11.7817 719 102.408 402.512 490.915
2187 0 62.1205 13.1036 814 101.014 402.133 489.327
2188 0 63.0693 11.6856 737 104.001 403.172 489.809
2189 0 67.0568 12.4372 834 102.036 402.165 488.013
2190 0 69.0742 13.0729 903 100.797 402.209 486.883
2191 0 68.0688 11.459 780 105.147 402.19 486.372
2192 0 76.0552 13.1352 999 99.6977 402.228 487.512
2193 0 75.0858 13.1317 986 100.511 402.155 486.14
2194 0 77.2023 11.3209 874 103.918 401.926 483.722
2195 0 81.3055 12.7913 1040 100.225 403.088 482.914
2196 0 83.1385 11.4267 950 102.835 402.982 480.745
2197 0 87.1746 12.974 1131 99.3705 402.912 478.364
2198 0 87.1986 11.7892 1028 102.035 403.06 476.261
2199 0 91.1865 11.3284 1033 102.236 402.621 476.989
2200 0 94.2343 11.8428 1116 101.631 402.686 470.384
2201 1 43.0713 8.72972 376 101.566 401.942 496.949
2202 0 47.0384 10.0131 471 100.964 400.904 493.996
2203 0 50.0149 9.99702 500 98.694 401.956 494.916
2204 0 52.0346 11.4539 596 95.8624 402.013 495.059
2205 0 53.1421 11.2905 600 96.845 402.068 492.475
2206 0 55.0567 12.5689 692 93.6445 402.158 492.129
2207 0 57.0624 11.0055 628 96.0669 402.463 489.465
2208 0 58.0512 11.0764 643 95.3157 402.198 487.341
2209 0 62.0213 10.9156 677 94.9143 401.625 489.414
2210 0 62.1416 10.7657 669 95.5516 402.046 487.833
2211 0 62.0484 11.0559 686 95.7638 401.672 485.818
2212 0 64.0672 11.1289 713 95.5386 402.234 483.334
2213 0 68.0493 12.7555 868 93.0173 402.649 482.518
2214 0 71.1498 10.4006 740 96.1459 402.935 475.823
2215 0 71.061 10.6669 758 96.7823 403.149 479.803
2216 0 74.1451 10.4794 777 97.4788 402.673 479.224
2217 0 78.1829 10.5394 824 97.0049 402.868 476.108
2218 0 77.1387 10.7987 833 98.6399 402.621 475.94
2219 0 82.2306 9.61929 791 99.4121 403.005 477.394
2220 0 86.114 11.4267 984 97.3557 402.559 474.135
2221 1 41.1114 9.34048 384 93.9141 402.763 494.073
2222 0 46.1452 9.47012 437 92.9908 402.911 495.49
2223 0 46.2741 10.092 467 96.7602 402.116 494.696
2224 0 51.1016 12.4654 637 97.9937 401.443 498.642
2225 0 49.0902 9.24829 454 96.1784 401.982 494.54
2226 0 51.0344 10.2676 524 95.1508 402.531 492.191
2227 0 48.0634 9.6331 463 107.346 401.879 488.587
2228 0 54.1281 11.1218 602 101.437 402.028 490.115
2229 0 55.046 11.9173 656 100.43 401.694 488.8
2230 0 57.0409 9.97529 569 104.299 401.594 488.26
2231 0 60.0856 9.95247 598 104.383 401.224 487.03
2232 0 60.0698 9.08943 546 106.559 401.769 487.98
2233 0 62.0754 10.2939 639 105.369 401.642 485.84
2234 0 65.0789 10.6332 692 104.675 401.798 484.85
2235 0 68.1594 9.24304 630 106.403 401.927 483.9
2236 0 71.1549 10.8074 769 103.334 402.363 485.183
2237 0 72.1077 10.9974 793 104.327 401.536 485.144
2238 0 76.0451 10.1124 769 106.096 401.627 484.42
2239 0 81.1325 12.1037 982 102.725 401.871 481.115
2240 0 83.0966 12.672 1053 101.826 401.779 482.386
2241 0 82.1461 10.7491 883 107.062 401.921 480.088
2242 0 88.108 11.5654 1019 105.45 402.227 477.955
2243 0 93.4291 12.3516 1154 100.95 402.038 475.305
2244 1 45.1686 8.65646 391 99.844 401.545 497.55
2245 0 47.2051 11.2064 529 95.4291 401.784 493.414
2246 0 48.0485 9.90666 476 96.395 402.319 496.834
2247 0 48.0612 10.4242 501 97.7645 402.281 496.894
2248 0 50.135 10.9305 548 96.2628 402.445 497.588
2249 0 50.0736 11.7227 587 97.402 402.458 496.487
2250 0 50.0715 9.32667 467 100.754 402.872 497.188
2251 0 51.1524 10.2048 522 100.061 402.718 496.343
2252 0 55.1714 11.0021 607 98.8254 402.404 495.83
2253 0 58.2463 11.8634 691 97.7931 402.214 493.407
2254 0 58.1583 11.7094 681 98.5771 402.994 492.73
2255 0 60.1047 11.7961 709 99.5994 402.904 491.999
2256 0 63.1226 11.1687 705 99.7135 402.416 491.762
2257 0 65.1854 12.1653 793 98.8928 403.223 490.487
2258 0 67.1553 12.3147 827 98.6904 402.825 490.498
2259 0 70.1876 11.9394 838 100.247 402.718 490.172
2260 0 72.1973 12.1611 878 100.002 403.248 491.2
2261 0 75.1932 12.9001 970 99.1866 402.782 491.568
2262 0 77.2292 12.068 932 100.335 402.686 493.863
2263 0 79.217 12.3711 980 100.761 402.088 491.318
2264 0 81.1628 12.1361 985 102.144 401.295 491.022
2265 0 83.2729 12.0327 1002 104.571 401.677 490.153
2266 0 85.132 11.1122 946 108.394 401.156 489.958
2267 1 42.1524 10.984 463 106.464 399.952 512.978
2268 0 47.1308 11.9455 563 109.522 399.414 514.528
2269 0 48.0598 12.4012 596 105.75 399.146 514.237
2270 0 50.0586 12.8649 644 104.335 399.121 515.357
2271 0 52.0901 12.4784 650 104.486 398.832 515.537
2272 0 55.0547 13.7863 759 100.722 398.494 512.846
2273 0 54.0639 12.0043 649 104.544 397.866 512.3
2274 0 56.0384 12.2416 686 104.37 398.726 511.878
2275 0 59.1598 13.0156 770 101.932 398.068 508.804
2276 0 60.3485 11.0856 669 103.629 398.501 509.369
2277 0 62.2241 12.5996 784 100.681 398.29 508.579
2278 0 62.277 12.4926 778 102.852 398.68 505.036
2279 0 64.2811 12.5542 807 103.737 398.611 503.83
2280 0 67.322 13.2943 895 103.552 398.022 503.009
2281 0 68.2051 13.7673 939 101.755 398.052 502.387
2282 0 70.1539 12.2873 862 105.432 397.644 503.28
2283 0 74.2304 13.4446 998 103.02 397.994 500.575
2284 0 76.4117 13.231 1011 102.669 398.104 501.051
2285 0 77.2508 13.4626 1040 104.079 396.762 498.198
2286 0 78.1249 12.4672 974 105.376 397.25 499.444
2287 0 81.2171 12.8667 1045 105.464 397.663 495.651
2288 0 85.1688 13.4556 1146 105.559 397.081 495.609
2289 0 87.2734 12.6957 1108 106.449 396.419 493.425
2290 0 90.1567 12.7889 1153 104.547 396.685 493.995
2291 0 94.2019 11.5603 1089 109.421 397.268 493.737
2292 1 45.121 11.8348 534 102.878 397.309 516.148
2293 0 48.2363 12.1071 584 101.832 396.67 515.848
2294 0 49.1632 12.55 617 96.9287 396.874 513.946
2295 0 51.1016 11.7413 600 96.4683 396.207 508.877
2296 0 53.0701 13.4351 713 92.9958 396.586 507.935
2297 0 53.1053 11.6184 617 96.3955 397.039 508.17
2298 0 55.0988 11.5792 638 97.2665 396.832 506.646
2299 0 58.1047 11.7891 685 96.3752 396.622 505.526
2300 0 59.1484 10.6681 631 99.2108 396.415 501.493
2301 0 61.1883 13.3522 817 94.1469 396.588 501.673
2302 0 63.069 12.2881 775 96.3419 396.505 499.212
2303 0 65.0726 10.7265 698 98.0086 395.99 500.319
2304 0 67.0981 11.4608 769 96.7737 396.231 499.38
2305 0 71.1403 12.3137 876 98.2272 396.376 498.326
2306 0 75.1676 13.4898 1014 92.8945 395.776 495.292
2307 0 73.0805 11.0016 804 100.775 395.909 493.498
2308 0 78.0722 12.6037 984 97.8293 395.912 494.582
2309 0 82.0835 11.8051 969 98.2198 395.967 493.158
2310 0 83.1588 12.0252 1000 97.663 395.653 491.622
2311 0 86.1086 11.4971 990 99.2505 396.232 492.3
2312 0 89.1581 10.1056 901 102.203 397.174 486.33
2313 1 48.103 9.60439 462 91.1212 395.896 513.208
2314 0 47.072 8.13647 383 92.5953 396.851 511.376
2315 0 48.1683 9.54984 460 93.0652 396.254 508.17
2316 0 50.2063 10.6959 537 89.7784 396.758 507.555
2317 0 51.1917 11.33 580 88.1172 397.057 508.078
2318 0 53.3075 9.92356 529 89.9698 396.811 505.541
2319 0 55.2222 9.50704 525 90.5486 396.703 502.941
2320 0 56.3021 10.5857 596 89.6107 397.389 502.72
2321 0 56.2082 9.16237 515 92.3845 397.579 502.569
2322 0 62.1662 11.4371 711 87.9156 397.454 501.61
2323 0 63.1954 11.0768 700 88.8014 398.047 501.324
2324 0 65.234 10.608 692 90.276 397.669 499.299
2325 0 68.201 12.3898 845 87.8142 398.503 499.026
2326 0 69.2086 12.773 884 88.69 397.65 495.656
2327 0 73.1384 12.114 886 89.5564 397.984 497.063
2328 0 75.129 12.4453 935 89.2267 397.541 494.905
2329 0 80.2878 12.8164 1029 89.0758 398.001 493.597
2330 0 81.2285 13.2466 1076 89.6134 398.02 490.099
2331 0 82.3056 13.3891 1102 89.9138 397.776 491.275
2332 0 86.2366 12.5469 1082 91.7375 397.774 488.372
2333 0 86.3059 11.2507 971 93.7096 397.104 487.818
2334 0 91.2355 11.1251 1015 94.1429 396.736 486.701
2335 0 97.2414 12.7004 1235 90.2049 397.328 483.948
2336 0 98.1906 12.3026 1208 92.6523 396.726 482.906
2337 1 51.1154 10.8774 556 92.0414 397.2 507.577
2338 0 51.0601 10.5953 541 95.1442 397.203 508.096
2339 0 55.0884 13.6145 750 93.384 396.315 505.609
2340 0 56.1787 12.6204 709 95.5331 396.755 504.234
2341 0 57.1206 11.2919 645 98.7798 396.594 503.122
2342 0 59.314 12.6108 748 92.869 397.713 499.084
2343 0 61.196 11.3733 696 95.227 398.191 499.082
2344 0 62.1682 13.6726 850 92.7518 398.806 495.211
2345 0 62.2005 12.315 766 97.2506 398.62 495.794
2346 0 67.2428 12.1797 819 97.0928 398.537 495.458
2347 0 67.1936 10.8493 729 100.403 397.818 493.218
2348 0 71.2051 11.502 819 99.525 398.391 494.282
2349 0 74.1949 12.1572 902 100.44 399.213 490.49
2350 0 75.2374 11.9356 898 100.546 399.28 491.306
2351 0 77.1759 12.8149 989 100.536 399.592 488.6
2352 0 80.1486 13.3253 1068 101.007 400.452 483.375
2353 0 84.2211 13.8208 1164 100.576 400.499 483.881
2354 0 86.2018 12.7956 1103 102.904 400.597 484.187
2355 0 88.2311 12.8866 1137 105.1 400.531 480.923
2356 0 92.1073 12.4963 1151 106.765 400.237 477.513
2357 0 94.2525 13.0501 1230 105.863 400.063 479.396
2358 0 97.2766 13.3125 1295 106.797 400.092 478.256
2359 0 99.2944 11.7026 1162 110.798 400.152 473.664
2360 0 103.195 13.1887 1361 108.134 400.555 471.011
2361 0 106.219 12.719 1351 110.543 400.51 471.813
2362 0 108.218 12.0035 1299 114.497 400.717 467.388
2363 0 113.176 14.0047 1585 110.849 400.344 470.266
2364 1 61.1301 10.3877 635 112.135 399.252 493.787
2365 0 64.0575 11.9736 767 108.761 400.3 489.213
2366 0 65.0677 11.0961 722 106.564 401.835 489.651
2367 0 68.1816 11.8654 809 110.115 400.44 490.253
2368 0 69.3247 12.1457 842 108.461 400.437 487.629
2369 0 71.1206 12.8092 911 107.251 400.585 488.632
2370 0 74.1371 12.5174 928 107.894 401.041 485.888
2371 0 77.2604 13.3833 1034 106.012 400.856 485.425
2372 0 77.1517 12.1838 940 110.177 401.034 483.578
2373 0 80.2717 11.8722 953 110.886 401.076 480.332
2374 0 81.3936 12.5317 1020 110.355 401.164 479.426
2375 0 86.1378 12.1201 1044 111.202 401.378 479.799
2376 0 88.1716 13.916 1227 108.116 401.926 478.975
2377 0 91.3194 13.2393 1209 110.548 400.986 478.6
2378 0 94.3723 13.5209 1276 109.777 401.556 476.159
2379 0 96.364 12.7018 1224 112.151 402.083 474.087
2380 0 100.419 12.7565 1281 113.304 401.297 470.451
2381 1 50.1634 10.4259 523 107.509 401.92 497.34
2382 0 52.2975 11.9317 624 104.261 401.353 498.995
2383 0 52.3299 11.9435 625 103.952 402.571 495.445
2384 0 50.1498 11.2264 563 107.975 401.458 491.989
2385 0 57.1055 12.5032 714 107.141 401.139 498.909
2386 0 57.0977 12.5224 715 108.641 401.368 496.001
2387 0 58.1831 11.5326 671 111.444 400.672 495.405
2388 0 62.1711 13.2859 826 106.436 400.889 494.659
2389 0 62.2427 12.8529 800 108.594 401.24 493.031
2390 0 65.1587 11.9554 779 110.237 401.686 493.813
2391 0 67.1859 13.4105 901 105.806 401.982 491.759
2392 0 68.246 13.129 896 107.779 401.737 490.801
2393 0 69.1427 12.4814 863 110.976 401.512 487.962
2394 0 73.0843 14.3533 1049 106.459 401.793 488.17
2395 0 75.2024 12.4597 937 110.702 401.737 488.618
2396 0 78.1971 13.9519 1091 108.664 402.283 488.121
2397 0 79.1556 14.2252 1126 108.866 401.9 486.012
2398 0 83.2075 13.7488 1144 109.817 401.988 484.007
2399 0 85.158 13.4808 1148 110.133 401.909 484.738
2400 0 85.3098 12.5191 1068 114.186 401.713 481.477
2401 0 87.2047 11.6966 1020 116.759 401.792 481.117
2402 0 92.2 11.8763 1095 115.533 401.937 479.877
2403 1 48.0298 10.7433 516 111.484 401.686 502.909
2404 0 50.0698 10.8648 544 108.998 401.145 501.759
2405 0 52.3966 11.3939 597 109.541 401.462 497.183
2406 0 52.1763 10.1962 532 113.397 401.571 500.147
2407 0 57.2138 11.4133 653 110.095 401.096 497.103
2408 0 57.3208 11.2525 645 111.064 401.419 497.005
2409 0 59.3785 11.2667 669 112.254 401.323 494.477
2410 0 61.2953 12.4153 761 110.185 401.991 493.611
2411 0 64.2203 11.9433 767 111.597 401.635 493.89
2412 0 64.2068 11.058 710 115.759 401.749 492.007
2413 0 69.3033 13.5491 939 110.496 401.608 490.428
2414 0 71.2405 12.3385 879 114.747 401.544 490.43
2415 0 73.153 11.0317 807 118.735 401.924 488.849
2416 0 75.1695 13.2501 996 116.2 401.922 486.805
2417 0 78.2596 12.1135 948 118.922 402.059 486.339
2418 0 80.2259 11.9537 959 120.136 401.771 484.431
2419 0 84.3582 12.8855 1087 115.576 401.798 485.022
2420 0 86.2727 11.9505 1031 118.343 402.05 482.522
2421 0 88.5333 12.3908 1097 119.086 402.522 479.01
2422 0 93.3742 12.9051 1205 117.155 402.027 477.23
2423 0 96.5068 13.3255 1286 115.721 402.474 476.946
2424 0 98.5998 11.2475 1109 120.514 401.907 475.846
2425 0 101.554 12.4958 1269 118.515 402.055 473.228
2426 1 53.2885 10.978 585 110.588 402.292 500.197
2427 0 54.1238 11.215 607 109.259 400.381 492.824
2428 0 56.2928 11.0671 623 111.478 401.562 495.992
2429 0 58.3381 11.7762 687 109.691 400.863 495.294
2430 0 59.2559 12.7076 753 107.4 401.276 495.891
2431 0 61.3542 11.8981 730 109.43 401.281 495.577
2432 0 64.2621 13.0404 838 107.216 401.98 492.883
2433 0 65.3137 12.5548 820 108.745 401.412 492.332
2434 0 68.191 13.1542 897 107.517 401.157 490.184
2435 0 68.2721 11.9668 817 111.553 401.324 488.348
2436 0 72.2717 11.8719 858 111.643 400.914 489.253
2437 0 75.2883 12.1134 912 110.217 401.791 487.683
2438 0 77.3875 12.6248 977 108.916 401.794 484.768
2439 0 80.3347 13.3815 1075 109.447 400.958 483.851
2440 0 83.3059 12.244 1020 113.689 401.303 483.849
2441 0 86.2463 12.186 1051 114.428 400.942 480.718
2442 1 43.1572 9.63917 416 114.077 399.43 497.55
2443 0 47.1518 10.9434 516 108.698 399.831 495.678
2444 0 44.1007 12.4034 547 97.4954 400.165 495.786
2445 0 43.1261 10.0867 435 100.848 401.566 496.566
2446 0 44.0264 8.9719 395 103.271 401.185 495.924
2447 0 48.0886 10.8342 521 99.1248 401.048 494.142
2448 0 47.0413 11.1391 524 100.366 401.126 493.933
2449 0 51.17 11.5888 593 97.7605 400.852 493.42
2450 0 52.151 12.0803 630 97.1476 401.759 494.187
2451 0 52.0967 11.0372 575 99.6644 402.478 492.753
2452 0 54.1952 12.049 653 98.2894 402.277 492.698
2453 0 55.1529 11.1508 615 99.0455 402.133 491.507
2454 0 56.1516 11.2552 632 100.467 402.703 488.101
2455 0 58.1515 10.2491 596 107.856 402.413 488.268
2456 0 63.0803 11.8896 750 103.057 402.361 488.027
2457 0 63.1248 11.6594 736 104.148 402.298 486.732
2458 0 64.0521 10.2573 657 107.546 402.067 485.242
2459 0 63.11 10.0935 637 108.542 401.885 485.573
2460 0 67.2134 10.5336 708 106.958 402.13 484.507
2461 0 69.1204 11.6319 804 105.068 401.889 481.517
2462 0 73.171 12.054 882 103.762 401.859 479.416
2463 0 74.2013 11.4149 847 105.189 401.699 476.575
2464 0 78.1457 11.4786 897 104.014 402.128 479.338
2465 0 77.1716 10.7553 830 106.388 401.872 476.992
2466 0 82.1205 11.1665 917 104.653 401.507 475.592
2467 0 85.2368 12.5885 1073 103.048 401.25 474.817
2468 0 85.1652 11.4718 977 105.472 401.251 475.722
2469 0 90.2755 12.3289 1113 104.004 401.844 470.346
2470 0 94.2334 12.6601 1193 102.559 401.412 468.716
2471 0 96.405 12.5201 1207 103.495 401.902 464.071
2472 1 49.2106 10.5465 519 98.2678 402.389 477.919
2473 0 54.5062 13.0994 714 97.1274 401.791 475.34
2474 0 51.2191 10.9725 562 94.0961 402.875 486.874
2475 0 53.2152 11.5381 614 93.6124 402.765 487.117
2476 0 55.1024 12.3044 678 92.0782 402.919 488.311
2477 0 58.0271 12.2874 713 92.136 402.153 488.314
2478 0 58.0469 10.7155 622 94.8312 402.387 487.317
2479 0 61.095 13.2744 811 90.5623 402.113 486.832
2480 0 62.0816 10.0352 623 95.8122 402.498 485.066
2481 0 64.1083 10.841 695 95.1568 402.43 480.55
2482 0 64.0583 11.6612 747 94.6305 402.149 481.305
2483 0 68.3407 10.6232 726 96.6653 402.043 478.063
2484 0 69.1292 11.5147 796 96.7651 401.859 476.805
2485 0 71.1683 11.3393 807 97.6468 402.375 475.674
2486 0 76.3431 12.5355 957 95.278 401.819 476.396
2487 0 78.4637 12.1585 954 95.7264 402.306 475.114
2488 0 80.3799 11.794 948 97.539 402.082 472.292
2489 0 83.2655 11.7095 975 98.801 401.802 471.114
2490 0 86.4393 10.759 930 100.395 401.147 473.651
2491 0 91.5691 11.4667 1050 100.357 401.921 467.048
2492 0 95.4775 10.5365 1006 103.031 401.831 471.418
2493 1 48.155 10.8608 523 99.9981 401.6 491.564
2494 0 50.3424 9.55457 481 99.0312 401.674 489.663
2495 0 54.2763 11.073 601 94.5907 401.361 490.168
2496 0 54.1446 11.2292 608 95.1414 402.271 488.901
2497 0 58.1698 11.157 649 94.7689 402.028 489.213
2498 0 58.2533 12.0165 700 94.3943 402.187 486.486
2499 0 59.1353 10.8565 642 96.3427 402.153 487.129
2500 0 63.0358 11.4062 719 95.3894 401.786 484.118
2501 0 65.0737 9.66597 629 98.9475 402.196 486.041
2502 0 66.095 12.1341 802 95.5973 401.883 482.898
2503 0 67.1633 11.5986 779 97.2567 402.162 480.162
2504 0 68.0953 11.4692 781 98.0064 402.207 478.762
2505 0 72.213 10.6906 772 98.7124 402.468 478.464
2506 0 75.1711 11.2676 847 97.6824 402.13 477.757
2507 0 76.1566 11.4632 873 98.5808 401.93 472.489
2508 0 77.1078 11.4515 883 98.9796 402.25 472.751
2509 0 82.2376 11.2479 925 102.261 401.151 470.35
2510 0 87.2187 12.0616 1052 104.24 400.859 463.689
2511 0 89.1112 12.7706 1138 105.086 400.863 460.676
2512 0 84.1573 10.1358 853 110.392 401.562 463.218
2513 1 49.1468 11.2927 555 104.933 401.061 481.11
2514 0 50.0906 12.5972 631 101.983 400.341 485.548
2515 0 51.033 11.228 573 104.665 400.768 485.3
2516 0 53.1853 13.1803 701 101.372 400.708 485.031
2517 0 54.0132 10.2568 554 108.542 400.487 485.233
2518 0 59.086 12.1349 717 103.06 400.669 486.269
2519 0 60.0945 10.7165 644 105.433 401.106 484.189
2520 0 61.1237 11.0432 675 107.083 400.776 484.01
2521 0 61.1101 10.7838 659 108.9 400.696 481.736
2522 0 66.0983 14.191 938 99.6173 401.539 480.48
2523 0 62.1542 10.1361 630 112.1 401.146 476.332
2524 0 69.1132 11.4884 794 105.87 401.052 478.453
2525 0 71.338 11.7469 838 106.49 400.838 474.761
2526 0 73.2468 12.0415 882 105.781 400.941 472.518
2527 0 77.0636 12.6259 973 103.802 401.302 472.157
2528 0 80.196 12.7064 1019 103.414 401.619 471.119
2529 0 80.0885 11.4873 920 106.56 400.985 468.463
2530 0 82.1896 10.7191 881 108.555 401.536 467.914
2531 1 47.0935 10.0651 474 94.3397 401.534 492.675
2532 0 46.0973 7.37571 340 94.8029 402.497 493.041
2533 0 49.2593 11.815 582 87.4759 403.94 485.964
2534 0 47.0644 8.88146 418 94.2273 404.722 485.411
2535 0 51.1197 10.6417 544 91.0643 405.292 484.382
2536 0 55.1269 9.61418 530 93.3887 404.275 482.625
2537 0 53.1385 8.67544 461 96.2798 404.651 483.549
2538 0 56.1738 9.4528 531 95.0264 404.853 483.158
2539 0 58.0787 10.1758 591 94.2352 404.746 479.787
2540 0 61.1756 10.6088 649 93.4068 404.746 481.562
2541 0 63.1856 11.3634 718 92.3552 404.568 481.89
2542 0 64.1016 10.3274 662 95.0982 404.622 479.246
2543 0 65.0971 11.5827 754 93.4125 404.407 481.011
2544 0 68.1883 10.1337 691 95.809 404.873 479.459
2545 0 70.0854 12.7416 893 92.4826 404.606 478.684
2546 0 71.1078 9.577 681 97.467 403.58 476.558
2547 0 72.2117 10.5523 762 97.6299 404.096 472.444
2548 0 77.1817 11.8163 912 94.6535 403.499 472.651
2549 0 79.223 11.2846 894 96.8568 403.708 470.372
2550 0 82.178 10.9397 899 98.5929 403.982 469.447
2551 0 86.3662 11.8333 1022 97.3787 403.829 469.288
2552 0 86.2021 9.52413 821 102.759 404.473 467.073
2553 0 91.2678 11.7785 1075 99.2372 404.792 465.446
2554 0 94.2558 11.7128 1104 99.7545 404.688 465.165
2555 1 51.1283 9.99446 511 97.8434 403.779 485.301
2556 0 56.2056 11.4935 646 93.3096 404.833 487.628
2557 0 56.1378 11.1333 625 95.1904 403.957 484.709
2558 0 57.0909 10.8248 618 95.89 404.395 486.877
2559 0 58.0992 10.9124 634 97.0631 403.964 484.06
2560 0 61.1627 11.5593 707 96.348 403.973 483.426
2561 0 62.1648 12.2095 759 96.2701 404.634 481.814
2562 0 63.1338 11.8003 745 98.0872 405.259 481.34
2563 0 67.1578 11.4804 771 98.144 403.713 482.724
2564 0 71.1931 12.122 863 97.2016 403.439 480.508
2565 0 70.1686 11.8286 830 99.3807 404.037 479.943
2566 0 73.0974 10.5613 772 101.197 403.29 481.615
2567 0 76.0868 11.5132 876 100.468 403.331 478.802
2568 0 79.1616 11.7986 934 101.134 403.883 478.073
2569 0 82.1215 13.0295 1070 97.9925 403.779 477.537
2570 0 84.2091 12.0414 1014 100.333 402.98 478.004
2571 0 86.1541 12.7794 1101 100.449 403.386 472.381
2572 0 91.2545 12.1857 1112 101.609 403.872 471.19
2573 0 93.1672 13.0625 1217 100.427 403.067 469.854
2574 1 51.0978 12.6229 645 102.569 401.812 492.313
2575 0 54.0797 11.6495 630 105.062 401.64 492.395
2576 0 55.1985 12.1924 673 94.8455 402.7 489.453
2577 0 57.2798 12.0985 693 94.4646 403.117 489.351
2578 0 56.2794 9.59499 540 99.8111 402.413 488.087
2579 0 59.1833 11.3039 669 97.0628 402.689 488.683
2580 0 63.1938 11.979 757 96.3778 403.419 486.159
2581 0 63.1649 11.1771 706 98.2394 402.816 486.776
2582 0 64.2092 12.6617 813 96.877 402.367 484.392
2583 0 66.1582 12.062 798 98.5038 402.976 484.842
2584 0 69.1859 12.9073 893 97.1198 402.834 484.91
2585 0 73.3958 11.5265 846 99.8901 401.678 482.856
2586 0 73.3501 13.2651 973 98.3433 402.354 480.543
2587 0 75.1826 11.3191 851 102.531 401.73 480.664
2588 0 79.2654 12.1743 965 101.408 402.681 480.123
2589 0 81.1558 13.4186 1089 101.32 402.557 479.122
2590 0 87.1837 12.6629 1104 103.646 402.591 479.148
2591 0 88.1057 12.1672 1072 111.396 402.771 474.305
2592 1 46.065 10.5286 485 104.711 401.297 496.792
2593 0 48.1579 10.0295 483 103.816 401.499 496.884
2594 0 51.1831 12.2892 629 103.269 401.809 488.865
2595 0 52.0729 12.2328 637 98.7991 402.231 493.923
2596 0 53.1786 11.1135 591 101.381 402.425 493.059
2597 0 51.0874 9.6697 494 106.472 403.352 492.447
2598 0 55.1013 10.2538 565 105.313 402.857 491.614
2599 0 56.1918 10.998 618 105.587 403.426 488.663
2600 0 57.2562 12.1908 698 103.264 402.93 490.762
2601 0 60.2764 10.7007 645 106.853 403.228 489.167
2602 0 60.0786 11.5515 694 105.941 403.46 489.592
2603 0 62.1634 11.2928 702 107.635 403.202 486.823
2604 0 64.1375 11.834 759 107.19 403.291 486.3
2605 0 65.0873 10.9084 710 110.042 403.303 482.427
2606 0 64.2142 12.5829 808 109.676 403.396 476.517
2607 0 69.1038 12.8502 888 108.985 403.586 477.931
2608 0 72.093 12.2758 885 110.223 403.354 478.12
2609 0 74.098 12.9693 961 110.059 403.291 474.61
2610 0 76.0298 12.311 936 111.881 402.645 476.26
2611 0 78.1767 13.0985 1024 110.443 403.028 476.009
2612 0 77.1608 11.0808 855 116.581 403.441 474.048
2613 0 85.1423 12.8021 1090 112.597 403.015 469.681
2614 0 87.1929 14.4392 1259 110.836 403.22 466.4
2615 0 90.3631 13.9437 1260 109.47 404.512 467.083
2616 0 94.2832 13.1837 1243 111.619 404.833 464.765
2617 0 98.3652 13.7447 1352 111.589 403.887 462.856
2618 0 98.5292 13.4782 1328 115.558 404.279 458.796
2619 0 101.361 14.7295 1493 113.894 404.24 456.393
2620 0 105.425 14.0384 1480 117.764 404.119 455.333
2621 1 57.085 11.1763 638 117.563 403.76 479.21
2622 0 59.1579 12.4413 736 116.09 404.257 478.067
2623 0 59.1097 11.2503 665 121.047 404.426 475.91
2624 0 62.0553 13.6652 848 104.41 402.172 486.785
2625 0 63.0809 12.3492 779 108.313 402.221 486.056
2626 0 64.106 11.9646 767 112.691 401.879 487.301
2627 0 67.0575 12.5713 843 111.087 401.402 486.832
2628 0 70.0742 13.0148 912 110.73 401.453 485.421
2629 0 73.1454 12.8101 937 110.488 401.904 483.613
2630 0 73.0812 12.4656 911 111.991 402.434 481.817
2631 0 73.215 12.5794 921 113.141 401.863 479.466
2632 0 79.1569 13.6185 1078 109.503 401.747 479.138
2633 0 83.1413 13.5432 1126 109.689 402.332 477.251
2634 0 84.2254 12.6446 1065 112.261 401.595 478.706
2635 0 83.3536 12.8729 1073 114.426 402.007 472.727
2636 0 88.3644 13.0256 1151 111.836 401.603 476.169
2637 0 89.4516 11.8388 1059 116.056 401.297 472.391
2638 0 94.4127 12.8584 1214 114.446 402.404 468.661
2639 0 98.2857 13.1047 1288 112.804 401.791 470.402
2640 0 101.379 13.0303 1321 113.313 401.407 467.285
2641 0 104.338 13.7438 1434 111.518 402.072 466.859
2642 0 110.473 12.6184 1394 113.965 401.83 465.811
2643 1 59.2704 10.1568 602 107.339 401.291 493.688
2644 0 58.2028 10.1541 591 104.396 402.102 489.467
2645 0 60.1117 10.6136 638 101.887 401.951 490.566
2646 0 63.1759 11.1593 705 101.546 401.438 489.607
2647 0 63.1546 10.0547 635 103.893 401.436 486.422
2648 0 66.1036 10.8164 715 102.278 401.373 487.126
2649 0 70.1024 11.2978 792 101.982 401.643 485.045
2650 0 71.1534 10.4703 745 104.042 400.742 486.056
2651 0 75.1027 10.7719 809 103.511 401.368 483.455
2652 0 77.1397 11.1356 859 102.661 401.03 484.298
2653 0 79.1654 10.8886 862 105.416 401.108 478.104
2654 0 82.1441 9.50768 781 107.912 400.909 477.374
2655 0 86.1448 12.5719 1083 103.078 400.317 476.281
2656 1 42.1403 10.7735 454 96.2357 400.72 501.225
2657 0 43.129 11.2685 486 94.8909 400.43 497.535
2658 0 43.146 10.1052 436 96.211 401.392 495.507
2659 0 44.0618 9.50936 419 97.5298 400.442 496.348
2660 0 44.0726 10.1197 446 97.5673 400.778 496.424
2661 0 47.037 10.8213 509 95.387 400.815 494.261
2662 0 49.0638 12.6774 622 91.9839 400.735 495.699
2663 0 55.0359 11.8832 654 101.254 399.677 499.083
2664 0 53.0516 9.40594 499 108.385 399.902 498.85
2665 0 54.0575 11.9502 646 103.384 398.957 496.584
2666 0 55.041 10.3741 571 106.743 398.816 498.625
2667 0 58.0838 11.5695 672 104.746 399.635 495.918
2668 0 60.0874 12.5817 756 103.188 399.149 496.439
2669 0 62.0555 11.103 689 105.521 399.63 494.861
2670 0 59.1192 8.37292 495 105.501 401.687 486.828
2671 0 64.1305 11.0556 709 100.755 401.426 488.678
2672 0 66.1675 9.94446 658 103.204 400.983 488.068
2673 0 69.3101 12.0185 833 99.3746 400.951 488.612
2674 0 72.2138 12.1445 877 100.852 400.692 484.366
2675 0 71.197 11.1662 795 103.197 401.326 486.187
2676 0 76.3421 11.1603 852 103.595 401.388 482.048
2677 0 79.2931 11.7539 932 102.621 400.904 484.145
2678 0 80.0763 10.0279 803 106.991 401.228 481.3
2679 0 83.2425 12.5777 1047 103.223 401.69 478.686
2680 0 85.2611 12.3972 1057 106.032 401.615 477.973
2681 0 89.1877 12.5354 1118 107.287 401.685 480.886
2682 0 90.3762 11.939 1079 107.655 402.307 481.41
2683 0 94.2778 12.0601 1137 110.272 402.387 478.302
2684 1 50.0819 10.0835 505 106.764 401.511 498.596
2685 0 50.0237 12.1542 608 104.814 401.018 494.623
2686 0 52.058 12.1787 634 106.427 400.683 494.957
2687 0 54.1344 11.3606 615 108.631 400.74 494.091
2688 0 55.0738 11.7479 647 109.501 400.329 492.354
2689 0 56.0815 12.7671 716 108.398 399.992 492.258
2690 0 55.0461 11.1361 613 114.644 399.985 490.801
2691 0 58.0868 12.9117 750 109.675 400.469 489.676
2692 0 56.0459 10.8126 606 115.281 401.304 488.502
2693 0 63.1158 11.9146 752 110.25 400.918 489.773
2694 0 63.0762 12.366 780 111.313 401.419 489.101
2695 0 63.136 11.8474 748 114.028 401.254 488.266
2696 0 67.1473 11.4822 771 114.826 400.619 486.335
2697 0 69.1076 12.0971 836 114.191 401.068 485.571
2698 0 70.1482 11.3474 796 116.832 401.188 485.824
2699 0 72.2303 12.031 869 116.844 401.605 484.174
2700 0 75.3058 12.0177 905 117.29 401.143 484.002
2701 0 77.1511 12.6635 977 116.636 401.086 481.299
2702 0 77.1403 12.406 957 119.174 401.196 481.024
2703 0 80.1434 12.3029 986 120.899 401.008 476.862
2704 0 80.0784 11.6885 936 124.504 400.606 477.17
2705 0 84.2261 12.4071 1045 122.979 401.035 476.493
2706 0 86.1152 12.6691 1091 121.089 400.783 474.88
2707 0 87.1614 12.6891 1106 122.635 400.786 476.591
2708 0 88.1934 10.9532 966 128.216 400.868 473.01
2709 0 91.1539 12.1882 1111 126.735 401.081 472.497
2710 0 90.0997 11.3652 1024 131.009 400.366 470.092
2711 0 94.1198 11.6235 1094 130.633 400.957 467.553
2712 0 94.1142 11.9429 1124 131.426 401.305 469.334
2713 0 95.1744 11.4842 1093 134.721 400.849 469.529
2714 0 98.1237 12.6473 1241 132.458 400.687 465.554
2715 0 99.172 12.1506 1205 135.924 400.396 463.821
2716 0 101.168 12.5138 1266 135.97 400.743 464.026
2717 0 100.29 11.1077 1114 143.706 401.164 461.175
2718 0 103.148 12.9813 1339 139.458 400.821 461.971
2719 0 105.118 13.3564 1404 141.772 401.094 461.972
2720 0 108.117 13.6889 1480 141.544 400.968 461.124
2721 0 111.135 13.5331 1504 144.517 400.669 463.14
2722 0 110.08 12.9906 1430 152.838 400.901 460.512
2723 0 113.141 14.5659 1648 147.143 401.443 458.313
2724 0 112.187 14.1193 1584 151.454 401.203 457.722
2725 0 114.19 14.4409 1649 151.258 401.705 458.118
2726 0 113.169 13.9438 1578 156.278 401.478 457.151
2727 0 117.129 14.5651 1706 153.652 401.71 454.967
2728 0 118.27 14.2386 1684 156.08 402.419 452.458
2729 0 118.231 14.4801 1712 156.891 401.673 454.628
2730 0 119.229 13.7551 1640 160.888 401.84 451.127
2731 0 123.188 14.8797 1833 156.923 402.595 450
2732 0 123.258 14.6927 1811 159.194 402.467 451.738
2733 0 125.143 14.7672 1848 159.456 402.17 450.093
2734 0 127.181 14.3417 1824 161.27 402.504 450.783
2735 0 124.294 14.345 1783 164.378 402.183 452.672
2736 0 127.15 14.0464 1786 165.549 402.13 450.438
2737 0 125.231 13.2555 1660 169.872 402.337 449.934
2738 0 127.221 15.2255 1937 162.718 402.232 451.528
2739 0 127.156 13.4874 1715 170.828 402.279 450.444
2740 0 130.226 14.5746 1898 167.356 402.817 449.159
2741 0 130.21 13.9313 1814 169.143 402.926 451.845
2742 0 130.194 14.2172 1851 168.791 402.847 451.489
2743 0 132.247 14.0268 1855 169.887 403.061 447.417
2744 0 132.25 13.535 1790 171.752 402.978 447.064
2745 0 132.296 14.6263 1935 170.116 402.726 446.61
2746 0 134.251 14.6368 1965 171.655 403.124 449.41
2747 0 136.203 14.9409 2035 172.352 402.701 446.227
2748 0 137.143 14.2552 1955 177.503 403.1 443.264
2749 0 138.348 15.6923 2171 172.16 402.56 444.38
2750 0 138.296 15.2716 2112 174.491 402.717 440.613
2751 0 138.328 15.0801 2086 175.04 402.722 442.076
2752 0 140.171 14.8818 2086 175.405 403.437 440.648
2753 0 140.294 15.5459 2181 174.001 403.356 440.937
2754 0 140.375 15.8433 2224 173.609 403.289 440.674
2755 0 143.229 15.5136 2222 173.321 403.538 442.544
2756 0 139.25 14.7433 2053 180.628 403.11 439.212
2757 0 142.328 15.1622 2158 177.577 402.808 439.607
2758 0 141.317 14.5771 2060 179.099 402.776 441.687
2759 0 143.214 14.5447 2083 177.289 403.273 441.367
2760 0 143.355 14.928 2140 176.877 402.857 438.841
2761 0 143.203 15.1463 2169 178.13 402.876 436.935
2762 0 145.31 15.6217 2270 174.824 403.476 438.003
2763 0 146.183 15.3848 2249 175.652 403 437.553
2764 0 147.257 16.006 2357 173.998 403.219 433.85
2765 0 145.254 15.1735 2204 180.46 403.415 428.764
2766 0 145.454 14.2382 2071 183.645 403.395 427.558
2767 0 147.209 16.0181 2358 175.675 403.432 423.066
2768 0 148.317 15.4736 2295 179.719 403.411 422.735
2769 0 149.198 16.0726 2398 177.638 403.641 422.219
2770 0 150.43 15.3227 2305 180.757 403.726 424.033
2771 0 149.274 15.7898 2357 180.474 403.373 422.291
2772 0 150.326 15.2003 2285 182.962 403.003 422.56
2773 0 150.21 15.7379 2364 180.822 403.536 422.18
2774 0 151.334 15.1981 2300 182.335 403.304 424.043
