time division length width area intensity CMx CMy
0 0 33.056 12.9175 427 139.244 487.611 498.944
1 0 33.0918 12.2991 407 140.744 487.772 499.553
2 0 34.0115 11.4667 390 141.762 487.723 499.254
3 0 36.0612 12.2015 440 139.084 487.945 498.114
4 0 38.015 12.0216 457 139.429 487.877 497.46
5 0 36.0335 12.6271 455 139.492 488.84 497.38
6 0 38.1298 12.3001 469 138.437 488.269 497.271
7 0 39.0886 12.5356 490 138.537 488.202 496.204
8 0 42.0497 13.9834 588 130.196 488.442 497.085
9 0 42.1584 13.4967 569 134.313 487.938 496.65
10 0 45.0329 12.5242 564 134.328 487.824 496.676
11 0 44.0296 13.4001 590 133.071 488.093 496.086
12 0 45.0413 13.2323 596 134.07 487.678 495.495
13 0 45.2065 12.5424 567 136.776 486.843 495.919
14 0 47.0654 14.3842 677 130.861 487.27 495.346
15 0 47.1476 13.7441 648 132.73 486.9 494.789
16 0 48.0897 13.3085 640 133.284 486.52 496.311
17 0 50.0532 13.5855 680 130.653 486.831 496.55
18 0 51.087 13.3106 680 133.204 486.826 495.141
19 0 53.0735 14.3575 762 129.156 486.161 494.693
20 0 55.0847 13.7969 760 130.357 486.334 492.367
21 0 59.2569 13.7031 812 128.522 486.355 492.877
22 0 59.0471 14.2259 840 128.073 486.35 491.787
23 0 61.1219 13.105 801 129.493 486.554 492.655
24 0 63.0992 14.0255 885 132.301 486.045 490.941
25 0 66.191 13.31 881 127.409 486.052 491.077
26 0 69.0426 15.4977 1070 122.486 486.34 487.878
27 0 70.0557 13.9746 979 126.93 486.354 487.415
28 0 74.2052 14.9989 1113 122.092 485.803 486.88
29 0 77.1254 15.2609 1177 121.418 486.129 483.302
30 0 79.0565 14.6225 1156 124.403 485.558 484.945
31 0 79.1148 12.8295 1015 128.62 485.207 485.321
32 1 40.0551 13.6063 545 131.006 485.883 502.229
33 0 43.0579 12.9825 559 134.531 485.798 500.886
34 0 44.0719 14.7032 648 131.022 485.765 500.765
35 0 45.0794 14.6852 662 125.536 485.539 500.335
36 0 46.1285 13.8743 640 127.638 485.117 499.317
37 0 49.0471 13.8846 681 125.411 485.123 498.919
38 0 53.194 16.2424 864 116.788 484.81 498.244
39 0 53.0888 14.9184 792 121.999 484.407 496.596
40 0 55.0664 15.6538 862 119.274 484.919 496.159
41 0 56.0336 15.5443 871 119.79 484.682 494.853
42 0 59.0556 14.444 853 120.175 484.297 495.409
43 0 60.0461 14.0725 845 121.092 484.783 494.968
44 0 62.102 14.6855 912 119.027 485.191 491.292
45 0 65.1435 15.4121 1004 116.102 485.237 492.053
46 0 66.1444 13.6822 905 120.987 484.985 491.156
47 0 71.0627 14.1002 1002 120.427 485.539 488.95
48 0 73.2599 15.4655 1133 116.492 485.631 486.749
49 0 75.3775 14.8586 1120 119.171 485.175 485.365
50 0 78.2888 15.8005 1237 116.401 485.32 484.711
51 0 81.3746 14.8941 1212 117.88 484.693 484.143
52 0 83.357 15.4876 1291 117.112 484.445 482.858
53 0 87.1804 14.6822 1280 118.476 484.643 479.434
54 1 42.1616 13.306 561 115.078 485.146 502.619
55 0 45.2713 12.9442 586 115.754 485.05 500.933
56 0 47.2253 13.5309 639 114.718 484.465 498.961
57 0 50.1114 14.1684 710 111.897 483.252 499.503
58 0 52.0313 14.0108 729 112.267 483.384 500.173
59 0 53.032 13.1241 696 115.737 483.642 499.131
60 0 57.0916 14.6607 837 112.614 483.706 497.117
61 0 58.0855 13.0842 760 116.884 483.257 497.178
62 0 59.0846 14.2846 844 115.179 483.09 496.204
63 0 61.0256 14.7807 902 114.592 482.998 493.895
64 0 64.1824 14.1939 911 116.892 483.436 494.211
65 0 67.1075 14.7524 990 116.148 482.79 492.796
66 0 68.0993 13.4803 918 119.507 482.432 492.647
67 0 68.0993 13.5244 921 151.869 481.43 492.669
68 0 75.0648 14.9071 1119 116.419 482.364 490.288
69 0 78.0907 14.7905 1155 116.121 482.689 488.791
70 0 81.0519 14.682 1190 116.94 482.06 487.821
71 0 81.0759 13.5675 1100 120.566 482.008 486.819
72 0 86.1968 14.3045 1233 117.854 482.633 485.35
73 0 89.1521 13.6733 1219 119.551 482.493 482.993
74 0 92.0703 15.7163 1447 115.961 483.077 482.342
75 0 96.1487 13.7495 1322 120.281 482.772 477.977
76 1 52.0492 12.2576 638 116.735 482.473 501.55
77 0 53.0616 12.8341 681 117.953 482.843 500.09
78 0 54.0722 12.7792 691 119.965 482.997 498.077
79 0 59.0966 15.1447 895 114.002 483.144 496.452
80 0 61.1486 14.7346 901 114.85 483.989 495.049
81 0 62.0951 15.122 939 115.035 483.931 494.191
82 0 65.2163 13.6776 892 118.237 483.9 492.981
83 0 68.1563 15.039 1025 113.338 484.304 493.532
84 0 69.1791 13.718 949 118.96 484.164 491.705
85 0 70.1932 13.5768 953 119.441 484.757 491.207
86 0 73.3734 14.3376 1052 118.168 484.019 489.841
87 0 75.1679 14.3013 1075 118.172 484.114 488.458
88 0 80.0952 14.3954 1153 117.075 483.932 488.545
89 0 80.1855 14.6909 1178 117.933 483.248 487.83
90 0 85.1034 14.9583 1273 117.37 483.253 485.383
91 0 87.2157 15.2266 1328 118.497 483.298 483.828
92 0 88.1245 14.4795 1276 121.401 482.75 482.34
93 0 93.2065 15.3745 1433 119.102 482.898 481.293
94 0 95.1058 15.1516 1441 118.095 482.674 479.729
95 0 95.151 14.8291 1411 123.059 482.534 475.933
96 0 101.076 15.0184 1518 121.908 482.345 475.625
97 0 105.065 14.334 1506 125.126 482.413 475.436
98 0 109.301 14.8672 1625 123.481 482.125 473.305
99 0 112.093 13.8367 1551 118.438 481.811 466.106
100 0 116.158 14.7042 1708 119.189 481.744 462.541
101 1 61.0912 11.3437 693 117.649 482.056 491.843
102 0 64.0543 12.1928 781 119.375 481.306 495.397
103 0 64.1257 12.6003 808 120.748 481.53 495.595
104 0 68.0346 14.522 988 116.415 481.642 493.155
105 0 71.104 13.0091 925 118.625 481.489 494.457
106 0 73.1497 13.1238 960 119.322 481.524 491.232
107 0 75.0897 11.7593 883 120.528 480.542 489.771
108 0 78.1133 13.0708 1021 117.734 480.69 488.627
109 0 81.1063 13.2912 1078 117.128 480.481 487.485
110 0 83.1602 13.2154 1099 117.949 480.335 484.933
111 0 87.1308 13.1756 1148 118.242 480.567 482.601
112 0 90.0637 13.7902 1242 116.076 480.244 483.809
113 0 93.1157 12.5328 1167 119.792 480.567 480.301
114 0 97.2058 13.6412 1326 118.198 480.21 477.496
115 0 100.148 12.9908 1301 119.898 480.395 474.529
116 0 102.158 12.8233 1310 120.505 479.993 475.082
117 1 54.1626 10.7085 580 120.853 479.748 497.372
118 0 56.1107 12.1902 684 119.187 481.785 496.016
119 0 61.2755 12.2724 752 116.275 481.258 496.326
120 0 62.092 13.2062 820 115.423 482.309 495.545
121 0 64.1685 12.8412 824 117.142 482.176 493.927
122 0 66.0829 13.9522 922 114.29 482.176 492.971
123 0 71.1983 14.2138 1012 112.721 482.223 491.152
124 0 73.1169 13.3211 974 114.508 482.91 490.746
125 0 73.0452 12.239 894 118.257 483.29 486.971
126 0 76.1876 13.2699 1011 115.385 482.376 487.507
127 0 79.151 13.7206 1086 112.129 482.892 485.497
128 0 79.2478 12.9972 1030 115.159 482.598 483.55
129 0 82.3347 13.2508 1091 114.118 482.728 483.236
130 0 86.3922 13.1493 1136 113.692 482.355 483.293
131 0 86.2241 12.943 1116 113.178 482.561 480.524
132 0 88.2175 11.9137 1051 116.42 482.817 476.252
133 0 90.2342 13.0328 1176 113.264 482.793 473.082
134 0 93.1285 12.3485 1150 115.248 482.372 472.661
135 0 98.0681 13.511 1325 112.528 482.814 471.22
136 0 101.17 13.5712 1373 113.853 482.685 473.583
137 0 105.197 13.1088 1379 116.087 482.901 471.227
138 0 109.399 13.7753 1507 114.622 482.934 467.819
139 1 60.0868 12.2989 739 112.383 482.664 496.794
140 0 62.0186 13.4637 835 108.71 483.624 493.989
141 0 64.1037 12.0274 771 114.147 482.422 493.047
142 0 63.0508 11.6256 733 108.904 481.034 492.971
143 0 62.0824 10.4861 651 111.329 480.223 493.052
144 0 67.0747 10.4659 702 109.583 480.989 494.246
145 0 69.0379 11.8486 818 108.081 481.471 491.111
146 0 72.0963 11.3459 818 109.653 481.725 489.117
147 0 73.0504 11.143 814 110.43 481.625 488.671
148 0 75.0861 12.1061 909 109.552 481.383 486.619
149 0 80.0956 11.7984 945 109.119 481.54 485.61
150 0 81.1144 11.3174 918 111.504 481.519 484.203
151 0 87.1274 11.4201 995 109.748 481.76 482.945
152 0 88.2584 12.1008 1068 109.685 481.896 481.745
153 0 92.288 12.1034 1117 110.35 482.232 479.35
154 0 94.1268 12.2282 1151 111.307 482.191 477.11
155 0 98.43 11.5717 1139 112.526 480.736 474.215
156 0 101.393 13.0088 1319 108.382 480.814 475.08
157 0 107.128 12.2657 1314 109.567 480.392 471.129
158 1 58.0364 10.7002 621 112.159 479.564 494.341
159 0 56.054 11.5068 645 113.045 480.775 493.04
160 0 62.0399 11.7505 729 102.757 480.305 494.262
161 0 60.1431 11.0237 663 105.437 480.789 495.057
162 0 64.1208 12.1645 780 103.458 480.141 492.822
163 0 65.0315 10.6564 693 107.755 480.407 491.253
164 0 65.0517 10.899 709 108.19 480.244 490.076
165 0 71.0876 12.7026 903 103.024 479.967 491.928
166 0 71.0727 10.9887 781 108.266 479.836 491.474
167 0 73.0569 12.456 910 106.324 479.848 488.51
168 0 77.176 12.4521 961 106.709 480.012 486.619
169 0 79.1284 12.486 988 108.76 479.711 485.25
170 0 79.1191 11.7165 927 112.198 479.461 483.872
171 0 82.1765 12.4245 1021 111.587 479.667 484.254
172 0 85.2456 12.7983 1091 112.256 479.497 482.248
173 0 87.2385 13.3657 1166 111.797 479.822 478.325
174 0 91.0832 13.7127 1249 111.116 479.745 477.4
175 0 95.1628 12.673 1206 113.647 479.171 479.498
176 0 98.1033 12.9557 1271 112.914 479.478 476.555
177 0 101.06 12.9626 1310 114.056 479.223 475.644
178 1 54.0183 10.9407 591 115.601 478.731 498.887
179 0 55.0413 12.2635 675 113.683 478.85 496.609
180 0 57.0756 11.8089 674 115.304 477.917 497.099
181 0 59.021 12.0635 712 114.449 478.33 495.747
182 0 59.0377 12.7207 751 114.791 478.525 494.218
183 0 62.1267 11.7502 730 116.737 478.222 494.419
184 0 64.1323 13.285 852 112.763 478.61 492.516
185 0 64.1083 11.8861 762 117.483 478.644 492.499
186 0 68.0851 12.7047 865 114.782 478.842 491.718
187 0 70.089 12.0846 847 118.43 479.299 489.584
188 0 72.1936 12.4942 902 117.441 479.101 490.37
189 0 75.1619 12.6793 953 116.158 479.109 489.359
190 0 77.2046 13.3153 1028 115.981 478.436 486.508
191 0 80.2284 12.776 1025 116.712 479.059 486.423
192 0 84.1919 12.6972 1069 116.385 478.793 485.521
193 0 83.2604 11.9024 991 119.496 479.346 484.468
194 0 87.237 11.9559 1043 119.205 479.53 481.893
195 0 91.3533 11.9098 1088 118.597 479.603 480.622
196 1 48.1552 11.6291 560 110.891 479.734 501.975
197 0 49.1504 11.9429 587 109.985 479.204 502.002
198 0 49.2335 10.6228 523 113.113 480.044 501.738
199 0 51.1034 12.191 623 109.429 479.233 498.825
200 0 53.0797 12.6037 669 107.199 479.04 498.457
201 0 53.164 12.8094 681 107.891 478.692 499.135
202 0 54.107 12.2905 665 110.368 478.808 495.797
203 0 55.1336 12.1886 672 110.391 479.326 497.124
204 0 58.2619 12.152 708 109.514 479.023 497.058
205 0 60.0564 13.787 828 105.487 478.976 494.732
206 0 62.2393 12.0021 747 110.237 478.743 494.807
207 0 62.1393 11.8444 736 112.14 477.996 493.083
208 0 65.0963 12.9961 846 107.501 478.714 493.676
209 0 66.0568 12.3984 819 108.988 478.6 490.144
210 0 67.0883 12.655 849 109.088 478.134 488.324
211 0 69.1577 12.5799 870 108.613 478.722 491.091
212 0 70.1645 12.8555 902 106.6 479.142 489.456
213 0 72.1598 11.918 860 109.047 478.722 486.442
214 0 76.076 12.3166 937 106.152 479.428 486.947
215 0 78.145 12.7071 993 108.811 478.677 485.973
216 0 79.1809 12.4525 986 108.98 478.775 484.188
217 0 84.1537 12.5247 1054 107.561 478.5 484.106
218 1 44.0679 10.2796 453 108.126 478.623 503.395
219 0 44.0882 10.2068 450 108.964 478.582 503.393
220 0 45.048 11.2991 509 104.1 479.224 502.817
221 0 48.0923 12.4344 598 101.794 478.711 501.87
222 0 48.0726 12.2523 589 103.893 478.891 501.171
223 0 48.0597 11.0071 529 107.713 478.779 500.752
224 0 52.066 12.8875 671 101.96 478.635 500.364
225 0 51.0407 12.3431 630 104.902 479.064 499.376
226 0 53.0884 12.7146 675 104.356 479.227 498.147
227 0 55.0615 13.7483 757 101.732 478.852 498.396
228 0 56.0963 12.7638 716 104.824 478.793 498.739
229 0 56.2482 12.5871 708 105.996 478.766 495.34
230 0 60.1613 13.2477 797 103.163 479.013 495.752
231 0 60.1186 12.7581 767 105.378 479.312 494.819
232 0 61.0823 11.8692 725 107.923 479.142 493.259
233 0 64.3114 12.7816 822 105.067 479.512 491.987
234 0 67.1902 13.7222 922 103.492 480.081 491.684
235 0 70.1872 12.6946 891 105.359 479.797 492.287
236 0 72.1989 13.352 964 104.9 479.528 489.455
237 0 72.2158 12.6427 913 107.735 479.791 487.774
238 0 78.3649 14.6367 1147 101.606 479.774 487.813
239 0 77.301 12.626 976 109.246 479.607 485.031
240 1 40.1728 10.8531 436 110.206 479.649 504.126
241 0 39.4387 9.407 371 105.391 480.307 497.509
242 0 41.2238 10.6492 439 111.524 479.487 501.54
243 0 45.0209 12.9051 581 107.704 478.852 503.22
244 0 45.0844 10.6023 478 112.249 479.241 503.343
245 0 47.132 12.6241 595 109.497 478.612 502.002
246 0 49.0207 11.9949 588 110.486 478.696 502.94
247 0 50.0968 12.1365 608 111.643 479.396 500.737
248 0 50.0738 12.1221 607 112.974 478.944 500.275
249 0 51.0637 12.925 660 112.471 478.974 499.871
250 0 53.0635 12.796 679 112.667 479.359 497.863
251 0 56.1126 13.1878 740 111.499 479.768 497.492
252 0 53.0703 11.7015 621 107.99 480.791 499.163
253 0 56.1701 12.3553 694 105.746 480.053 498.605
254 0 58.0431 12.6285 733 106.078 480.005 496.336
255 0 58.0935 10.9651 637 109.085 480.305 498.353
256 0 61.0847 12.2944 751 106.589 480.075 496.463
257 0 64.0845 12.8268 822 105.855 480.136 494.355
258 0 64.1009 11.8719 761 108.405 480.133 494.958
259 0 67.0963 13.026 874 106.114 479.704 492.279
260 0 69.0628 12.0181 830 109.312 480.006 493.077
261 0 72.1542 12.7921 923 108.563 480.205 489.794
262 0 74.1686 12.512 928 109.822 480.33 489.837
263 0 77.0731 12.3779 954 108.783 480.069 487.442
264 0 82.1189 13.0299 1070 107.288 480.497 488.126
265 0 83.2234 12.0519 1003 109.321 480.454 486.552
266 0 88.2209 13.4208 1184 106.395 480.334 483.1
267 0 91.2884 14.4597 1320 104.425 480.583 480.461
268 0 94.198 14.7349 1388 105.292 480.437 478.304
269 1 46.0241 11.6026 534 115.309 479.614 502.073
270 0 48.0718 12.3981 596 111.839 479.339 502.049
271 0 50.1487 13.2805 666 103.045 479.956 501.264
272 0 52.1125 13.989 729 109.993 480.218 500.77
273 0 52.1135 12.7414 664 114.486 480.348 499.193
274 0 55.0462 13.8429 762 111.257 480.449 500.231
275 0 56.1222 14.1299 793 112.554 480.718 497.518
276 0 57.1801 13.5887 777 113.133 481.486 497.835
277 0 58.0533 13.057 758 116.172 481.311 496.154
278 0 61.1022 13.2237 808 113.687 481.12 496.324
279 0 62.3975 12.9332 807 115.444 482.136 494.887
280 0 63.2607 12.8358 812 115.7 481.521 494.915
281 0 63.2965 12.9075 817 117.294 481.603 492.681
282 0 66.2137 12.5654 832 118.035 481.394 492.571
283 0 69.3539 13.3374 925 116.345 481.499 490.766
284 0 70.2193 12.7315 894 118.935 481.732 489.83
285 0 74.2533 13.023 967 118.044 481.413 488.476
286 0 77.2337 13.3879 1034 116.788 481.789 488.706
287 0 75.1935 12.5942 947 121.341 481.624 485.908
288 0 80.3934 13.2722 1067 119.448 482.05 485.788
289 0 83.3363 13.8595 1155 118.034 481.968 483.884
290 0 86.182 14.0052 1207 117.248 481.766 482.367
291 0 88.0893 13.2933 1171 115.588 482.494 482.085
292 0 89.0885 12.7177 1133 117.529 482.176 481.387
293 0 91.1464 12.5842 1147 117.212 482.511 478.06
294 1 50.0228 11.2749 564 113.94 482.543 501.378
295 0 52.0837 12.1919 635 103.888 482.238 501.756
296 0 52.0726 10.7158 558 107.387 481.677 499.027
297 0 54.0634 11.9859 648 105.085 481.849 498.702
298 0 57.042 12.745 727 102.853 482.303 497.755
299 0 60.0635 13.8021 829 100.427 481.864 496.51
300 0 60.2251 12.9348 779 102.39 482.035 494.979
301 0 61.1613 11.7885 721 105.698 481.864 493.993
302 0 66.3085 13.1506 872 101.985 481.755 493.526
303 0 68.1973 13.9008 948 101.296 481.421 492.168
304 0 69.1963 12.7897 885 104.714 480.858 491.518
305 0 72.1514 13.4855 973 104.01 481.301 488.779
306 0 74.1831 12.4287 922 105.278 481.411 489.747
307 0 76.1453 12.7782 973 106.61 481.777 486.585
308 0 79.2715 12.5392 994 107.308 481.399 485.354
309 0 81.1744 13.1322 1066 107.092 481.102 483.962
310 0 85.1801 12.5499 1069 107.206 481.268 483.259
311 0 88.1248 13.0156 1147 106.955 480.955 483.317
312 0 91.2737 12.3256 1125 109.795 480.892 482.093
313 1 47.0345 9.90763 466 109.893 481.607 503.605
314 0 49.0859 12.4272 610 105.492 481.018 501.531
315 0 53.0728 12.3792 657 105.303 480.787 500.69
316 0 51.0148 11.0556 564 109.255 479.654 501.887
317 0 51.0565 10.1652 519 112.522 479.039 500.308
318 0 54.0315 11.2527 608 109.023 478.385 500.936
319 0 57.0373 12.1324 692 106.425 479.069 499.595
320 0 60.0148 13.4967 810 104.268 479.478 497.414
321 0 60.0175 11.6466 699 108.411 479.074 495.78
322 0 63.0422 12.912 814 106.08 478.918 495.042
323 0 65.1733 12.4284 810 108.228 478.54 495.2
324 0 68.2195 13.0021 887 107.528 478.929 492.78
325 0 69.0877 12.1295 838 112.017 478.668 492.974
326 0 73.143 13.0703 956 108.506 479.002 492.493
327 0 76.0741 13.0925 996 109.102 479.22 489.96
328 0 78.0355 11.0719 864 112.977 479.361 490.903
329 0 82.0987 13.8248 1135 107.544 479.122 486.093
330 1 44.0309 10.5835 466 108.472 479.041 505.227
331 0 44.2853 10.9743 486 106.578 479.407 504.016
332 0 45.0867 12.11 546 104.687 479.24 504.147
333 0 48.0926 12.9958 625 105.979 482.61 504.435
334 0 48.0356 13.0528 627 107.758 483.121 502.041
335 0 49.0524 12.8842 632 109.288 482.416 502.824
336 0 51.0735 11.5911 592 111.735 483.091 504.147
337 0 53.0971 13.3529 709 107.736 482.532 502.047
338 0 52.0408 11.5486 601 114.216 482.84 501.017
339 0 53.06 12.1184 643 114.317 483.176 500.219
340 0 55.024 12.7399 701 113.449 483.195 499.322
341 0 58.0538 12.7985 743 111.908 482.571 500.1
342 0 58.0775 12.3628 718 114.635 482.635 498.833
343 0 60.1533 12.2022 734 114.913 482.238 498.146
344 0 61.1025 11.3416 693 116.691 482.569 498.26
345 0 63.0597 11.5446 728 116.766 482.805 498.663
346 0 66.2106 12.5962 834 114.637 482.501 496.432
347 0 68.1542 13.6015 927 112.175 483.15 495.998
348 0 69.1922 13.1662 911 115.593 483.07 493.029
349 0 72.2688 13.1039 947 113.819 483.295 494.073
350 0 75.142 12.9621 974 115.266 482.969 491.663
351 0 78.2426 13.0364 1020 115.182 482.774 487.964
352 0 80.1447 13.251 1062 114.194 483.248 488.287
353 0 83.4005 12.41 1035 117.124 483.155 486.657
354 1 43.3248 11.2176 486 114.208 482.165 505.216
355 0 45.2544 10.9603 496 114.752 482.577 504.075
356 0 45.1581 11.4265 516 104.579 480.688 503.855
357 0 46.0938 12.2576 565 101.996 481.117 504.621
358 0 46.0521 11.8996 548 106.12 481.049 504.451
359 0 49.1665 12.3255 606 105.16 481.282 502.998
360 0 50.0696 11.8635 594 106.37 480.685 504.054
361 0 50.1115 11.7937 591 107.481 480.465 502.372
362 0 52.1814 12.1499 634 106.453 480.448 502.468
363 0 55.1043 13.5017 744 102.259 480.961 501.523
364 0 56.1225 13.0251 731 104.419 480.412 499.663
365 0 57.1653 12.5426 717 105.759 480.068 498.19
366 0 59.1572 11.5962 686 106.622 479.962 497.904
367 0 60.0582 10.6563 640 108.525 479.908 497.038
368 0 63.094 12.1248 765 105.569 480.515 495.137
369 0 65.2074 12.4219 810 104.585 480.733 492.979
370 0 67.1167 12.5453 842 104.156 481.113 492.822
371 0 70.1785 12.3685 868 104.536 480.932 491.336
372 0 73.2237 14.2577 1044 99.6849 480.66 491.567
373 0 76.1818 12.6277 962 101.879 480.768 489.655
374 0 77.2573 12.7496 985 102.781 480.661 488.083
375 0 80.0862 11.8248 947 105.223 480.671 487.454
376 1 41.1254 10.3829 427 103.073 481.822 506.686
377 0 42.0738 11.0045 463 101.972 481.84 506.091
378 0 44.0546 10.8275 477 101.13 482.239 505.335
379 0 45.0827 10.8911 491 102.328 483.265 504.289
380 0 48.0582 12.1311 583 99.3431 484.017 504.278
381 0 49.076 11.6554 572 102.497 484.07 503.519
382 0 51.0591 12.2016 623 100.596 484.03 502.713
383 0 52.021 12.1489 632 101.677 483.937 500.239
384 0 54.0879 11.7586 636 100.024 483.766 500.953
385 0 55.0757 12.3467 680 99.8956 483.812 500.774
386 0 58.0228 13.3568 775 97.3019 483.902 500.034
387 0 59.1191 11.8912 703 99.8578 483.395 498.852
388 0 61.0765 13.2129 807 98.8513 483.789 498.843
389 0 62.071 12.4051 770 102.423 483.877 499.413
390 0 62.0669 12.3254 765 104.795 483.139 496.689
391 0 64.1638 12.2499 786 104.915 483.723 493.947
392 0 65.1054 10.3217 672 108.679 483.51 493.002
393 0 69.1248 11.7903 815 105.025 483.226 496.135
394 0 73.1201 13.43 982 102.847 483.307 493.02
395 0 75.1645 13.69 1029 103.24 483.368 491.131
396 0 77.255 13.902 1074 103.662 483.521 491.495
397 0 81.1519 13.0496 1059 104.822 482.823 490.026
398 0 82.2135 12.1878 1002 107.216 482.499 488.657
399 0 87.1609 14.238 1241 102.587 483.145 486.057
400 0 88.1704 13.61 1200 103.952 483.188 482.534
401 0 95.1961 12.6581 1205 104.046 483.126 483.162
402 0 96.1339 13.5332 1301 103.394 483.015 481.982
403 0 99.2982 12.8602 1277 104.511 483.208 481.55
404 1 50.1446 10.5894 531 107.552 484.215 504.548
405 0 54.0494 13.5802 734 102.73 483.881 501
406 0 55.0627 12.4585 686 104.958 484.286 502.366
407 0 57.1019 12.7491 728 104.059 484.249 501.148
408 0 59.1901 13.3806 792 100.256 484.287 500.215
409 0 60.1355 13.6192 819 101.115 484.194 499.088
410 0 61.065 12.6259 771 103.296 483.865 498.969
411 0 64.0466 14.2708 914 99.4179 483.802 497.481
412 0 65.135 14.0478 915 101.256 483.628 494.788
413 0 67.0996 12.936 868 103.323 483.253 496.222
414 0 69.1243 14.105 975 100.654 483.132 492.159
415 0 72.0894 14.5653 1050 99.6143 483.747 492.314
416 0 74.242 11.7588 873 104.584 483.094 492.864
417 0 75.1034 12.343 927 103.012 483.365 490.844
418 0 79.1373 13.3944 1060 100.237 483.525 488.614
419 0 80.1988 13.0675 1048 101.766 482.821 487.799
420 0 84.1718 13.6269 1147 100.341 483.048 486.253
421 0 88.2147 13.1271 1158 100.797 482.878 483.009
422 0 88.2045 12.8225 1131 102.571 483.348 482.91
423 0 92.1776 14.1249 1302 99.7404 483.066 479.092
424 0 94.2043 12.664 1193 103.052 482.813 480.2
425 0 97.2596 12.5952 1225 102.984 482.786 478.727
426 0 100.178 13.2265 1325 101.772 483.717 480.433
427 0 105.219 13.4957 1420 101.808 483.046 475.531
428 0 106.196 11.5447 1226 110.148 482.418 474.418
429 0 114.244 13.8738 1585 101.979 482.95 472.022
430 0 114.263 11.5698 1322 107.536 482.755 472.678
431 1 60.1545 12.4513 749 102.449 484.328 499.306
432 0 60.1359 12.1059 728 104.771 483.523 497.499
433 0 64.0664 13.1894 845 100.172 483.064 498.359
434 0 64.0354 13.0397 835 102.738 483.762 498.004
435 0 65.0785 14.3058 931 99.4973 483.527 494.936
436 0 66.1793 13.0101 861 103.067 483.38 495.465
437 0 70.0918 13.3682 937 102.428 483.049 492.764
438 0 72.0954 12.9551 934 104.557 483.382 491.485
439 0 75.168 12.5452 943 106.294 483.249 492.07
440 0 78.1085 13.5837 1061 104.385 483.922 490.693
441 0 80.1614 13.3106 1067 106.949 483.701 486.44
442 0 84.0784 14.1772 1192 103.544 482.492 487.461
443 0 85.1895 15.1192 1288 102.839 483.096 485.526
444 0 89.2124 14.5608 1299 104.768 483.53 483.584
445 0 93.1464 14.4718 1348 104.704 483.29 482.705
446 0 95.157 14.4288 1373 105.205 482.973 478.515
447 0 100.136 15.2093 1523 103.753 483.362 477.692
448 0 102.129 14.3936 1470 106.546 483.495 475.426
449 0 107.249 13.5852 1457 108.045 482.882 474.333
450 0 110.232 15.1227 1667 104.169 483.212 472.761
451 0 112.118 13.8872 1557 109.197 483.154 471.283
452 1 57.0701 12.7037 725 108.17 483.281 500.091
453 0 58.1418 12.3491 718 108.401 483.63 500.611
454 0 59.0296 11.8584 700 105.839 484.213 498.587
455 0 58.0906 11.4821 667 107.307 483.588 495.82
456 0 63.0336 12.644 797 103.718 483.886 497.391
457 0 65.1763 13.4251 875 100.168 483.368 497.85
458 0 67.1646 12.6555 850 101.925 483.188 496.226
459 0 69.1058 13.5589 937 101.414 483.42 494.075
460 0 70.2184 13.8568 973 102.488 483.069 491.346
461 0 74.137 15.1072 1120 98.7259 482.769 493.056
462 0 75.1357 13.3492 1003 103.658 483.314 492.141
463 0 78.1566 12.9356 1011 103.265 484.012 490.248
464 0 81.149 13.3458 1083 102.023 483.639 490.341
465 0 84.2291 13.8313 1165 100.988 484.167 488.726
466 0 88.4543 13.6342 1206 101.02 483.832 485.169
467 0 91.3246 14.3882 1314 99.3432 483.089 484.257
468 0 91.1315 12.5204 1141 103.902 483.225 484.522
469 0 97.3168 14.0777 1370 99.8518 483.399 481.997
470 0 99.1913 13.2169 1311 102.246 483.478 481.014
471 1 54.0569 12.0614 652 103.259 483.824 501.761
472 0 57.0456 12.9896 741 101.25 483.385 501.404
473 0 55.1515 11.6044 640 93.1438 483.028 496.378
474 0 57.2714 10.7034 613 93.3018 482.276 497.382
475 0 57.2066 10.5233 602 95.3571 483.492 495.578
476 0 62.1768 11.0813 689 93.1843 482.987 497.493
477 0 63.151 11.0212 696 94.5647 483.318 495.447
478 0 65.1414 11.5134 750 94.5787 483.236 493.744
479 0 66.1527 12.3502 817 94.4859 483.118 492.584
480 0 68.2252 11.6086 792 96.2134 483.328 491.534
481 0 70.2119 10.7816 757 98.0211 482.818 491.556
482 0 75.2504 12.7175 957 95.9436 482.623 487.84
483 0 76.2294 13.3938 1021 96.0069 483.12 485.773
484 0 79.2077 11.3499 899 100.211 483.612 485.082
485 0 83.1348 13.5683 1128 96.5665 482.777 484.701
486 0 86.1059 12.3569 1064 97.204 482.04 485.237
487 0 88.1187 11.0873 977 103.259 483.175 486.034
488 0 92.1839 12.3449 1138 107.01 483.279 487.39
489 0 95.1926 12.3644 1177 107.911 484.004 482.572
490 1 50.1735 12.2774 616 107.26 481.323 505.318
491 0 52.1048 12.8011 667 106.285 480.78 502.984
492 0 53.1085 11.7495 624 108.237 481.152 503.008
493 0 56.1709 13.6369 766 103.946 480.722 502.279
494 0 57.1482 12.1789 696 107.129 481.178 501.447
495 0 60.1591 12.9324 778 104.722 481.068 499.933
496 0 61.2698 13.5303 829 104.573 481.001 498.359
497 0 63.1361 12.8294 810 105.754 481.381 498.373
498 0 66.0982 13.8884 918 103.619 481.164 496.393
499 0 68.1171 14.3136 975 102.508 481.445 497.283
500 0 69.0501 12.5127 864 110.803 481.363 493.14
501 0 73.171 13.8306 1012 107.271 481.16 495.04
502 0 75.1088 13.7667 1034 111.139 480.971 491.004
503 0 78.0869 13.2673 1036 113.089 481.505 490.625
504 0 79.1687 11.8607 939 116.754 482.258 490.352
505 0 83.2877 13.3153 1109 113.384 482.174 488.487
506 1 43.0466 10.5235 453 117.47 481.294 505.263
507 0 46.0131 11.7141 539 114.72 481.575 505.124
508 0 48.0359 12.1367 583 114.456 481.381 505.026
509 0 51.1232 13.3795 684 110.909 480.936 504.436
510 0 52.0187 12.6108 656 114.828 480.855 501.247
511 0 51.037 12.4224 634 115.88 480.776 502.625
512 0 54.0629 13.4843 729 111.993 480.678 502.484
513 0 56.0397 12.9908 728 113.408 480.562 501.828
514 0 58.0721 13.6554 793 112.182 481.329 499.736
515 0 60.0488 13.4224 806 113.278 480.908 499.272
516 0 61.0935 14.5515 889 111.875 481.244 499.088
517 0 62.0867 13.9321 865 113.823 480.849 498.599
518 0 64.0337 14.2581 913 113.481 480.94 495.946
519 0 65.066 13.4632 876 115.056 481.092 496.245
520 0 70.0784 13.542 949 113.102 481.224 496.213
521 0 70.0376 13.9354 976 114.459 480.741 493.124
522 0 73.0792 14.0806 1029 113.987 480.357 492.22
523 0 75.0618 13.2691 996 115.581 480.567 491.927
524 0 76.1299 12.9516 986 117.518 481.18 491.263
525 0 81.099 14.4145 1169 111.027 481.062 489.515
526 0 83.1028 14.476 1203 112.101 480.746 488.575
527 0 86.1365 13.8965 1197 114.38 480.597 488.38
528 1 44.1748 11.9978 530 116.432 480.921 508.46
529 0 44.3286 11.8885 527 102.414 482.195 501.085
530 0 46.0885 11.4562 528 102.267 483.261 505.038
531 0 48.0596 12.4013 596 100.846 483.057 503.466
532 0 50.1258 12.5684 630 101.543 482.978 504.302
533 0 50.114 11.853 594 102.97 483.098 504.352
534 0 54.2758 12.5102 679 101.975 482.826 502.389
535 0 53.1688 11.755 625 105.003 482.48 502
536 0 54.0995 13.0131 704 103.124 482.719 501.074
537 0 58.0899 13.789 801 108.813 481.411 503.079
538 0 58.0498 13.609 790 110.685 481.329 501.108
539 0 61.0464 13.0884 799 112.578 481.472 500.059
540 0 62.0405 13.5396 840 111.999 481.426 497.71
541 0 66.078 13.9381 921 110.453 481.342 496.955
542 0 68.1212 13.2411 902 111.868 481.406 495.534
543 0 69.033 13.5298 934 110.602 482.146 494.885
544 0 73.039 14.1158 1031 109.401 482.121 493.187
545 0 76.1539 13.6172 1037 110.144 481.922 493.365
546 0 77.1129 12.0084 926 114.397 482.289 492.366
547 0 81.0933 12.3438 1001 113.997 481.834 488.905
548 1 42.0352 11.6569 490 114.627 481.373 507.812
549 0 43.0364 12.7334 548 114.443 482.626 508.637
550 0 46.0506 13.572 625 107.565 481.974 507.568
551 0 46.0376 13.8582 638 106.538 481.489 507.672
552 0 46.0255 13.1666 606 110.074 482.196 506.795
553 0 48.0647 12.5872 605 109.754 481.972 507.651
554 0 50.0638 13.0633 654 109.561 481.835 504.261
555 0 52.0388 14.1433 736 105.492 482.015 504.707
556 0 54.1511 13.647 739 106.455 482.636 504.168
557 0 55.1341 12.7507 703 109.356 482.091 503.182
558 0 55.0761 14.1804 781 107.429 482.659 502.211
559 0 58.1692 15.0251 874 105.381 483.001 501.406
560 0 60.2084 13.5363 815 108.914 483.153 501.006
561 0 61.1231 14.5281 888 107.483 483.08 500.292
562 0 64.1018 14.711 943 106.417 483.107 498.746
563 0 64.0997 14.4618 927 109.255 482.21 497.014
564 0 66.2088 12.9741 859 112.407 482.185 497.567
565 0 70.174 13.5948 954 111.538 482.305 494.311
566 0 70.1366 14.486 1016 110.705 482.34 495.17
567 0 73.2118 13.4268 983 113.889 481.923 493.78
568 0 75.1786 15.8024 1188 108.346 482.402 492.222
569 0 77.113 12.7216 981 116.148 482.264 492.214
570 0 81.249 14.4125 1171 111.63 482.75 490.1
571 0 84.2625 14.6803 1237 111.105 482.806 488.306
572 0 87.2772 13.692 1195 113.995 483.053 485.738
573 0 90.3617 14.442 1305 111.926 483.407 485.728
574 1 47.065 13.4707 634 115.603 482.382 506.464
575 0 48.1823 13.1584 634 115.752 482.516 507.14
576 0 47.1231 12.4992 589 111.749 484.89 507.224
577 0 49.1301 13.5355 665 107.469 483.704 505.177
578 0 50.132 13.0855 656 109.462 483.954 504.838
579 0 53.1611 13.318 708 110.826 484.171 505.147
580 0 56.0663 13.5019 757 109.622 484.107 503.66
581 0 59.0662 14.1706 837 106.465 483.618 503.516
582 0 61.048 14.4476 882 106.783 484.219 500.258
583 0 62.1052 12.9136 802 111.142 483.794 502.665
584 0 66.1145 15.458 1022 105.187 484.368 498.844
585 0 67.2061 13.3321 896 111.923 484.132 497.722
586 0 71.0777 13.7033 974 110.008 484.367 496.667
587 0 73.1846 13.5684 993 111.495 484.775 494.197
588 0 76.1154 12.6518 963 111.188 483.177 494.375
589 0 78.0972 12.8942 1007 110.328 483.188 493.525
590 0 81.1099 13.4386 1090 110.593 482.526 490.101
591 0 84.064 13.1685 1107 110.962 482.505 490.368
592 0 88.1053 12.2694 1081 112.744 482.385 487.296
593 0 90.2384 12.2786 1108 113.206 482.52 486.9
594 1 42.0781 10.7419 452 106.124 483.312 506.821
595 0 44.1657 10.4606 462 107.864 483.836 507.669
596 0 47.2182 12.2622 579 107.997 483.49 508.684
597 0 47.128 12.4979 589 108.822 483.63 508.07
598 0 49.1432 13.3691 657 107.502 484.146 506.951
599 0 51.35 13.2814 682 107.908 483.399 504.348
600 0 52.133 14.0602 733 106.622 483.562 504.059
601 0 53.136 13.776 732 108.977 484.488 503.832
602 0 55.1464 12.9292 713 105.742 483.583 501.902
603 0 55.0751 13.418 739 106.183 483.529 500.559
604 0 59.1441 12.8669 761 106.784 483.043 501.378
605 0 60.1336 13.2206 795 107.582 483.24 499.886
606 0 60.1206 12.2753 738 111.72 482.84 499.312
607 0 64.0485 13.7864 883 110.576 483.533 499.552
608 0 66.1344 15.2417 1008 106.575 483.26 499.19
609 0 68.0873 14.687 1000 108.206 483.491 498.896
610 0 70.0787 14.8119 1038 110.821 482.78 495.181
611 0 72.3334 13.9216 1007 115.272 483.04 495.452
612 0 75.2019 14.8534 1117 113.413 482.784 494.77
613 0 78.2219 13.9092 1088 115.419 482.919 493.666
614 0 79.3057 14.0217 1112 117.255 483.207 489.549
615 0 82.1304 13.4055 1101 124.629 482.966 491.515
616 0 85.2674 13.7919 1176 124.209 482.74 489.099
617 0 88.2156 13.9318 1229 125.235 482.22 486.687
618 0 92.3812 15.3278 1416 123.275 482.234 484.299
619 1 46.2464 13.5146 625 124.786 482.013 506.064
620 0 48.1991 14.3986 694 125.117 482.537 503.818
621 0 50.3154 14.0315 706 129.212 482.448 503.803
622 0 51.2457 15.0452 771 129.52 482.1 502.432
623 0 52.1147 15.0629 785 130.999 481.657 501.008
624 0 56.1943 15.1617 852 126.88 481.796 502.142
625 0 57.4131 14.7005 844 130.218 481.802 501.329
626 0 58.2604 14.4867 844 132.147 481.918 501.262
627 0 60.1974 15.5654 937 129.097 482.022 499.021
628 0 60.2809 14.449 871 134.211 482.38 499.138
629 0 63.1981 15.2378 963 133.372 482.021 496.738
630 0 66.2439 15.6392 1036 131.238 482.145 496.099
631 0 69.2899 16.5392 1146 127.993 481.937 496.295
632 0 71.2768 16.008 1141 131.321 481.38 495.152
633 0 73.5123 15.63 1149 135.5 481.545 491.575
634 0 74.2122 14.9841 1112 138.793 481.486 491.386
635 0 78.2936 15.7101 1230 136.559 481.694 489.198
636 0 80.2896 15.195 1220 138.877 481.737 488.447
637 0 83.4526 16.9557 1415 132.291 481.36 488.681
638 1 45.1665 14.0812 636 141.297 481.432 505.758
639 0 45.1382 13.0266 588 146.808 481.852 505.211
640 0 48.2557 14.8998 719 140.463 482.2 504.209
641 0 50.1136 16.5823 831 135.363 482.536 503.225
642 0 49.2236 14.1599 697 144.264 481.89 503.947
643 0 53.4195 15.1256 808 138.136 481.668 502.906
644 0 54.3902 16.1426 878 135.293 481.744 502.563
645 0 55.2918 14.0527 777 141.288 482.376 501.777
646 0 58.1513 16.2679 946 135.037 482.061 500.133
647 0 60.1336 14.6341 880 138.107 481.781 500.415
648 0 61.1579 15.6317 956 136.06 481.757 499.481
649 0 63.3299 14.8587 941 140.187 481.328 497.595
650 0 65.0997 15.8065 1029 137.71 481.724 496.43
651 0 65.1321 14.9849 976 141.372 481.567 495.592
652 0 70.3035 15.2908 1075 137.367 481.833 494.409
653 0 72.1318 16.3312 1178 134.207 481.88 492.111
654 0 76.2209 15.7175 1198 136.639 482.176 492.169
655 0 77.1041 14.9927 1156 140.684 482.017 490.09
656 0 79.1133 16.3436 1293 136.733 481.741 489.012
657 0 81.176 15.2878 1241 139.235 482.265 486.64
658 0 85.0773 15.6328 1330 136.022 482.074 485.747
659 0 88.1742 15.8096 1394 133.888 482.2 484.133
660 0 90.0894 14.5411 1310 136.652 482.527 482.017
661 0 94.1281 15.6914 1477 132.113 482.547 479.192
662 1 48.0432 12.7177 611 126.939 483.411 498.871
663 0 49.0517 12.2524 601 127.218 483.81 498.879
664 0 52.0578 12.3901 645 118.71 484.079 498.281
665 0 55.3037 12.6755 701 116.374 484.524 500.613
666 0 56.0652 14.822 831 120.012 484.568 501.071
667 0 59.2514 13.4849 799 122.827 484.313 499.851
668 0 61.0581 14.0194 856 120.842 484.082 500.32
669 0 62.118 14.1183 877 122.374 483.488 499.044
670 0 63.0809 12.5712 793 127.34 482.986 497.697
671 0 67.1618 13.5494 910 124.402 482.644 496.61
672 0 68.0618 13.1792 897 128.072 482.622 493.872
673 0 69.1024 13.7767 952 127.831 482.016 492.682
674 0 74.1002 13.2118 979 127.87 482.57 493.985
675 0 77.1187 15.6771 1209 123.764 482.756 491.934
676 0 80.2569 13.5938 1091 128.444 482.879 491.231
677 0 81.0875 13.7629 1116 129.677 483.028 487.677
678 0 85.1272 14.308 1218 126.27 483.287 487.959
679 0 87.1588 14.0778 1227 128.328 482.932 486.729
680 0 91.1259 13.7283 1251 130.811 483.103 483.68
681 0 95.1666 14.5114 1381 126.881 482.119 484.521
682 1 51.0193 13.0735 667 123.286 482.724 504.942
683 0 52.0439 13.5655 706 124.183 482.69 503.259
684 0 56.0951 12.871 722 123.389 482.656 503.805
685 0 55.1317 13.4405 741 117.37 483.05 502.476
686 0 55.0406 13.3356 734 118.858 483.241 502.738
687 0 58.1066 13.3203 774 118.218 482.735 499.636
688 0 59.0366 13.0766 772 119.386 482.825 500.617
689 0 60.1616 12.134 730 122.797 482.993 499.571
690 0 64.2617 13.3983 861 119.085 482.61 497.512
691 0 66.1471 13.8328 915 118.537 482.808 497.245
692 0 66.0924 13.587 898 120.53 482.574 495.582
693 0 69.0749 12.5082 864 121.972 482.96 497.358
694 0 73.0798 13.2868 971 121.505 482.986 494.759
695 0 74.057 13.4491 996 122.387 483.057 493.765
696 0 78.1308 13.2598 1036 123.468 482.886 491.033
697 0 80.1049 13.6446 1093 123.581 482.857 489.153
698 0 81.2324 13.3198 1082 125.987 482.878 489.394
699 0 86.1096 13.4364 1157 125.583 482.946 486.707
700 0 90.1503 13.3666 1205 124.609 482.917 484.673
701 0 93.1268 14.0668 1310 123.14 483.222 482.082
702 0 96.1227 14.5023 1394 122.648 482.687 480.806
703 0 99.346 13.5083 1342 126.228 481.883 480.115
704 1 51.1288 12.9868 664 117.851 481.55 502.217
705 0 51.1881 12.0145 615 117.902 482.589 503.382
706 0 53.1311 12.008 638 116.732 482.66 504.873
707 0 56.2831 12.3483 695 116.732 483.163 503.475
708 0 59.1701 12.5063 740 120.403 482.366 499.785
709 0 59.2844 12.2798 728 119.821 482.544 499.549
710 0 63.1986 12.9117 816 118.534 482.352 498.306
711 0 63.1884 9.87523 624 125.734 483.066 497.612
712 0 67.4263 11.9093 803 120.963 482.305 495.547
713 0 69.413 11.8134 820 121.956 482.482 494.494
714 0 72.3614 11.9124 862 122.593 482.534 491.474
715 0 75.5604 11.514 870 123.268 482.185 487.845
716 0 78.5185 13.067 1026 120.25 482.149 483.753
717 0 80.4703 12.6009 1014 120.698 482.219 483.896
718 0 83.7156 12.7097 1064 120.337 482.461 481.714
719 1 42.3682 10.9516 464 117.731 483.043 501.584
720 0 42.2988 9.24377 391 121.056 482.66 502.696
721 0 46.2232 12.2882 568 113.275 483.604 503.671
722 0 47.4599 10.3877 493 116.594 483.227 503.172
723 0 50.5665 11.826 598 110.166 483.122 503.129
724 0 51.056 12.0848 617 109.126 483.261 503.784
725 0 51.2835 11.9142 611 110.704 483.082 502.632
726 0 52.1354 11.6044 605 113.907 482.881 501.208
727 0 56.2458 12.6409 711 113.803 483.068 498.594
728 0 56.3704 10.4842 591 118.171 482.151 498.215
729 0 61.7636 13.9241 860 110.969 482.29 493.565
730 0 62.0837 12.1932 757 117.203 482.439 489.972
731 0 63.6631 13.0217 829 116.283 482.539 490.331
732 0 66.9373 13.6695 915 114.538 482.428 490.475
733 0 64.7607 10.7164 694 123.54 482.794 487.983
734 0 70.869 12.6572 897 118.222 482.586 486.754
735 0 74.8408 12.5733 941 117.721 482.697 487.733
736 0 77.6742 11.883 923 120.504 482.066 485.872
737 0 76.8807 12.3048 946 121.901 481.872 484.295
738 0 80.8259 14.0549 1136 118.17 481.977 483.174
739 0 82.0896 12.4864 1025 123.15 482.497 482.416
740 0 86.864 14.4133 1252 119.254 482.268 479.349
741 0 89.7846 13.9556 1253 122.468 482.204 476.127
742 0 90.813 13.0708 1187 123.447 482.708 475.751
743 1 45.6586 9.74625 445 118.038 482.256 501.36
744 0 50.5067 11.3648 574 116.906 482.098 499.641
745 0 49.3172 11.3348 559 119.673 482.551 497.787
746 0 52.4282 12.169 638 117.133 482.368 494.983
747 0 53.5245 12.4803 668 117.683 482.425 495.317
748 0 55.4168 12.4692 691 117.679 482.042 494.661
749 0 56.712 12.2902 697 118.791 482.069 494.148
750 0 57.5481 13.4149 772 118.777 482.181 492.214
751 0 60.7382 13.2701 806 117.045 482.124 492.364
752 0 62.6789 13.4016 840 117.908 482.33 489.436
753 0 64.8884 12.8066 831 118.987 482.159 489.827
754 0 67.9321 13.278 902 117.275 482.44 490.636
755 0 68.6412 11.6548 800 120.791 482.266 489.025
756 0 72.0046 13.3464 961 118.031 482.519 487.143
757 0 77.933 13.6014 1060 115.905 482.575 486.392
758 0 78.9634 13.9432 1101 116.439 482.478 485.56
759 0 78.7178 13.3769 1053 119.912 482.483 483.11
760 0 82.73 14.0578 1163 118.807 481.857 482.078
761 0 86.6305 14.0828 1220 119.545 482.187 480.156
762 0 88.6108 14.8402 1315 118.43 481.896 479.708
763 0 90.8123 13.9519 1267 121.416 481.964 479.52
764 0 94.7717 14.1814 1344 119.914 482.134 479.842
765 0 96.7414 13.4896 1305 124.625 482.206 477.361
766 0 100.687 14.5302 1463 122.42 482.209 474.44
767 0 101.496 13.7149 1392 125.958 482.451 472.822
768 0 103.656 13.8921 1440 126.328 482.452 470.263
769 0 106.825 13.4707 1439 127.509 482.772 469.686
770 0 111.548 14.3436 1600 125.275 483.467 467.533
771 1 57.4618 10.1111 581 123.685 483.978 496.043
772 0 60.2964 13.5497 817 114.332 483.482 491.464
773 0 63.3069 11.0414 699 116.901 484.72 497.466
774 0 65.2884 11.1505 728 118.146 483.482 494.942
775 0 66.7362 10.1894 680 119.79 482.182 491.569
776 0 68.413 12.673 867 116.195 481.863 488.216
777 0 68.7005 11.7466 807 119.454 481.918 488.543
778 0 72.4864 12.292 891 118.67 482.305 487.58
779 0 77.6543 13.2639 1030 116.221 482.011 486.05
780 0 76.4342 12.2197 934 120.687 481.424 484.839
781 0 78.4682 11.1383 874 123.6 481.093 483.895
782 0 82.549 12.5501 1036 120.642 480.683 481.815
783 0 84.5085 10.9456 925 123.09 481.141 482.308
784 0 86.5067 11.317 979 123.667 481.41 478.669
785 0 91.4258 12.3926 1133 121.242 480.635 478.69
786 0 94.5034 10.4441 987 123.583 481.28 482.244
787 0 91.1905 9.22245 841 91.8823 481.678 479.137
788 1 48.6297 8.8629 431 110.856 482.513 494.118
789 0 56.1237 10.5838 594 115.231 481.904 500.042
790 0 56.2029 11.245 632 113.244 484.057 501.011
791 0 58.1494 11.1093 646 113.607 484.025 499.54
792 0 60.1341 11.5242 693 112.079 483.388 499.247
793 0 61.2104 10.8152 662 112.565 483.721 497.384
794 0 61.0642 9.69472 592 107.767 483.456 498.784
795 0 66.1031 10.877 719 105.238 483.378 497.615
796 0 66.141 9.28319 614 108.839 481.912 495.257
797 1 131.733 12.4191 1636 123.331 481.52 461.201
798 0 134.796 10.8163 1458 129.344 481.249 454.348
799 0 141.128 12.7969 1806 125.671 481.444 452.969
800 0 145.927 11.8004 1722 126.939 481.681 453.232
801 0 149.003 12.3823 1845 127.63 480.706 447.317
802 1 80.3727 10.6379 855 112.056 480.648 490.04
803 0 78.7792 7.98434 629 121.019 481.138 489.773
804 0 82.1085 10.1086 830 117.559 481.031 488.992
805 1 42.0708 10.4586 440 107.398 481.582 509.08
806 0 42.1356 9.27957 391 111.729 482.043 508.386
807 0 45.0441 11.5664 521 106.774 482.065 507.28
808 0 45.0468 9.32365 420 111.919 482.076 508.764
809 0 48.1188 9.47655 456 112.412 482.268 506.346
810 0 49.0954 10.3065 506 111.674 481.751 506.915
811 0 50.085 9.60368 481 113.468 482.678 506.443
812 0 54.076 10.7626 582 112.912 481.863 503.507
813 0 51.1392 10.3443 529 116.701 481.932 503.163
814 0 54.0619 9.97005 539 119.417 481.649 503.545
815 0 54.0243 10.0695 544 121.344 481.704 501.397
816 0 58.0529 10.8177 628 118.288 481.53 503.102
817 0 60.0352 10.8103 649 119.721 481.314 500.581
818 0 62.213 11.5571 719 119.65 480.734 499.302
819 0 64.0843 10.5174 674 123.69 481.055 499.169
820 0 67.0525 10.9616 735 124.767 481.755 496.288
821 0 67.0293 12.0544 808 125.689 481.507 493.677
822 0 72.0994 11.6506 840 125.264 481.531 493.989
823 0 72.1553 12.0296 868 125.712 481.385 491.454
824 0 74.0946 10.8375 803 128.969 481.305 492.128
825 0 74.2657 11.1896 831 129.212 481.147 489.244
826 0 79.2584 11.8978 943 128.453 480.764 488.238
827 0 82.4115 11.6853 963 129.104 480.916 490.378
828 0 86.4579 11.2772 975 130.375 481.398 488.5
829 0 86.4854 11.4008 986 131.021 481.327 487.421
830 1 48.0948 10.3754 499 135.281 480.345 504.97
831 0 50.046 10.7101 536 134.056 479.882 504.435
832 0 51.1032 11.5648 591 131.912 480.684 503.508
833 0 53.0429 12.2354 649 124.988 480.869 503.185
834 0 51.1268 10.1512 519 133.283 482.166 502.383
835 0 53.0666 11.1746 593 130.971 481.87 502.121
836 0 53.2649 10.138 540 133.361 481.322 502.578
837 0 57.0754 10.4599 597 131.402 482.002 502.883
838 0 56.0601 11.8088 662 132.31 481.719 500.589
839 0 59.1611 11.6293 688 132.288 482.029 500.702
840 0 61.0865 10.5424 644 134.429 481.78 499.707
841 0 65.1111 11.6416 758 131.392 481.918 498.079
842 0 68.0695 12.5019 851 128.81 479.521 497.786
843 0 69.0779 12.0154 830 131.841 479.54 496.049
844 0 71.0519 12.2868 873 131.266 479.774 495.843
845 0 75.0817 12.5463 942 131.221 479.452 493.859
846 0 77.1442 12.7294 982 131.232 479.708 491.396
847 0 79.1536 13.8086 1093 128.553 479.915 490.147
848 0 82.0861 12.0605 990 134.266 479.528 489.147
849 0 85.2133 13.4369 1145 129.046 479.498 489.246
850 0 86.0895 12.7077 1094 131.319 480.427 487.15
851 1 47.06 11.4322 538 128.613 479.55 506.387
852 0 45.2213 10.6587 482 116.936 482.84 500.512
853 0 48.4324 10.5301 510 116.378 483.3 500.02
854 0 50.1436 12.0055 602 121.751 484.11 505.679
855 0 49.1046 11.3839 559 124.023 483.975 506.295
856 0 48.0706 10.5262 506 129.589 483.812 505.686
857 0 53.0797 12.1139 643 123.392 483.624 504.056
858 0 54.1001 13.3641 723 122.371 483.62 501.805
859 0 56.137 12.4161 697 124.142 483.518 502.584
860 0 56.0893 12.8723 722 126.08 483.316 499.773
861 0 58.1488 12.3132 716 126.69 483.395 499.599
862 0 61.1251 12.8916 788 126.746 483.505 499.093
863 0 61.1478 11.9546 731 129.551 483.602 500.402
864 0 63.1453 12.0674 762 129.875 483.794 498.412
865 0 65.1462 13.1857 859 129.368 483.545 495.95
866 0 66.239 13.0437 864 130.457 483.531 495.94
867 0 69.2376 12.4643 863 131.225 484.183 495.112
868 0 73.1546 14.2575 1043 126.632 483.905 494.616
869 0 74.2531 13.454 999 129.743 484.201 493.97
870 0 76.1488 13.513 1029 131.227 483.641 491.85
871 0 78.3078 14.5963 1143 128.358 483.572 491.467
872 0 81.255 12.9346 1051 134.051 483.442 490.046
873 0 82.1504 12.5136 1028 137.423 484.239 486.475
874 0 84.1753 13.555 1141 136.67 483.826 484.901
875 0 90.1094 13.5502 1221 134.657 484.773 482.694
876 1 46.1606 10.8318 500 135.422 483.022 502.508
877 0 48.1969 11.204 540 132.919 482.546 496.876
878 0 51.1612 11.2781 577 138.567 482.016 497.877
879 0 53.1807 13.1627 700 114.49 482.244 497.416
880 0 54.23 11.4328 620 118.534 482.24 497.721
881 0 55.1207 11.6835 644 120.688 482.087 496.126
882 0 56.1126 12.2967 690 119.696 481.613 496.97
883 0 57.1224 11.9918 685 122.181 481.378 496.429
884 0 57.1213 12.8499 734 122.054 481.405 493.037
885 0 62.1855 12.4949 777 121.287 481.837 494.042
886 0 61.1155 11.6501 712 127.431 481.72 493.237
887 0 63.0452 12.1341 765 126.817 482.201 492.044
888 0 66.1003 12.239 809 127.057 481.902 490.297
889 0 68.1278 11.816 805 127.493 481.308 491.641
890 0 70.1051 12.7951 897 124.175 481.185 490.452
891 0 70.0612 12.4891 875 128.259 482.065 489.048
892 0 72.1452 12.2947 887 128.823 481.422 488.871
893 0 75.1182 12.6867 953 128.999 481.66 486.321
894 0 78.0831 12.8965 1007 128.245 482.129 485.673
895 0 82.0991 13.5081 1109 126.863 482.754 486.664
896 0 82.1063 12.3011 1010 131.871 482.385 484.095
897 0 86.2198 13.4076 1156 130.439 482.484 482.829
898 0 87.1479 13.5402 1180 130.896 483.302 481.052
899 0 91.0963 14.589 1329 127.871 482.471 480.436
900 0 94.0598 15.1712 1427 126.421 482.763 478.158
901 0 98.2105 13.9598 1371 128.049 482.637 478.46
902 0 101.293 13.8905 1407 129.034 482.375 476.545
903 0 103.183 14.2757 1473 129.069 482.316 475.733
904 0 104.198 13.3976 1396 132.577 482.291 472.143
905 0 107.126 13.0967 1403 131.577 482.716 470.911
906 0 113.394 13.1664 1493 128.593 482.196 473.49
907 0 116.252 14.1159 1641 127.675 482.392 469.235
908 0 120.201 13.6688 1643 129.365 482.417 465.814
909 0 125.124 13.9781 1749 129.393 482.59 464.921
910 0 129.183 14.4988 1873 126.46 483.05 460.448
911 0 135.402 14.3425 1942 125.716 482.517 460.556
912 0 141.153 14.4028 2033 125.76 482.222 458.634
913 0 143.245 13.9132 1993 125.558 482.344 456.105
914 0 151.294 15.3013 2315 122.873 482.39 452.233
915 0 156.474 14.5583 2278 123.817 482.496 448.255
916 0 161.207 14.6706 2365 124.159 482.798 442.686
917 0 166.517 15.4219 2568 123.711 482.76 442.414
918 0 171.339 13.7972 2364 128.822 482.453 439.489
919 0 180.458 14.2304 2568 127.188 482.43 436.389
920 0 189.515 15.4288 2924 126.603 482.994 431.862
921 0 195.508 14.4853 2832 128.743 482.391 428.359
922 0 202.831 14.6772 2977 126.237 482.355 425.965
923 0 207.525 14.7693 3065 126.273 482.005 424.77
924 0 215.529 15.0513 3244 125.137 482.561 418.592
925 0 220.425 14.2361 3138 128.566 482.858 410.603
926 0 229.793 15.4095 3541 126.36 482.556 406.942
927 0 237.899 14.9265 3551 127.489 482.36 398.559
928 0 247.67 15.6458 3875 124.078 483.169 397.271
929 1 66.1264 10.6009 701 106.047 483.35 495.444
930 0 71.2527 12.8837 918 107.511 481.049 494.092
931 0 73.2744 12.0915 886 109.997 481.574 491.659
932 0 75.3216 12.9843 978 107.938 481.264 491.667
933 0 79.4723 13.9042 1105 105.254 481.965 489.718
934 0 81.4173 12.3315 1004 115.72 481.904 486.845
935 0 84.6154 12.4209 1051 114.579 482.251 486.885
936 0 86.5659 13.1576 1139 113.691 482.744 483.427
937 0 90.4232 13.5585 1226 112.198 482.601 484.423
938 0 91.4214 11.9994 1097 115.479 481.872 483.849
939 0 94.7729 15.9539 1512 105.411 482.734 477.331
940 0 97.808 13.4243 1313 113.235 482.818 478.399
941 0 102.737 12.0988 1243 115.889 482.236 478.226
942 0 103.348 12.1145 1252 104.55 484.327 474.357
943 0 105.19 10.2957 1083 108.943 483.776 472.622
944 0 110.344 11.4823 1267 106.08 484.432 473.174
945 1 55.2101 10.3242 570 100.756 484.205 501.532
946 0 59.3153 12.6274 749 98.9119 484.895 497.881
947 0 59.1278 11.9233 705 99.3348 482.793 495.087
948 0 58.0651 11.7454 682 101.817 483.469 498.776
949 0 63.1538 11.8916 751 99.3941 482.79 494.093
950 0 65.2448 12.0163 784 100.457 482.878 484.895
951 0 70.2957 14.4532 1016 93.5532 482.891 486.217
952 0 68.2185 11.8736 810 101.393 482.285 490.349
953 0 70.2815 11.9377 839 103.093 481.824 478.021
954 0 74.3578 13.3006 989 98.5258 482.176 488.768
955 0 75.3195 13.1042 987 99.7112 483.151 490.622
956 0 79.321 13.0104 1032 93.4729 483.845 485.284
957 0 81.3471 12.3791 1007 95.1569 484.427 485.476
958 0 82.4108 12.8624 1060 96.3377 483.943 483.012
959 0 85.3069 12.2264 1043 97.976 483.57 481.356
960 0 88.3858 13.1356 1161 95.9854 483.576 482.999
961 0 91.4175 14.2424 1302 95.288 483.623 479.95
962 0 93.4458 12.8524 1201 99.1074 483.694 478.701
963 0 98.5565 12.6729 1249 99.7262 483.931 476.162
964 0 101.285 14.5431 1473 97.1575 483.255 472.358
965 0 105.424 13.1658 1388 99.9388 483.115 471.213
966 0 108.415 12.941 1403 100.516 483.158 468.934
967 0 112.347 12.3012 1382 105.3 482.998 467.15
968 0 116.377 12.7688 1486 105.346 482.965 465.321
969 0 120.322 13.1398 1581 104.6 482.864 465.067
970 0 125.253 13.6045 1704 104.657 483.336 461.129
971 1 65.3387 11.999 784 105.07 483.367 494.4
972 0 67.2612 13.0833 880 103.667 483.06 491.23
973 0 70.0757 13.4426 942 104.661 484.056 491.039
974 0 72.1609 13.456 971 103.91 483.776 490.303
975 0 73.0963 11.1086 812 109.14 484.091 490.012
976 0 77.0608 13.8202 1065 101.806 483.834 490.317
977 0 79.1779 12.7435 1009 103.505 483.743 489.2
978 0 83.2922 12.4021 1033 104.663 483.773 487
979 0 84.2722 13.9429 1175 101.547 483.805 485.458
980 0 86.3173 11.3303 978 106.991 483.061 485.684
981 0 90.1541 12.035 1085 106.108 483.144 481.735
982 0 95.1792 12.0089 1143 105.853 483.051 480.773
983 0 95.1792 12.0825 1150 136.965 483.055 480.689
984 0 101.279 13.6455 1382 102.954 482.679 474.423
985 0 104.318 13.1616 1373 103.388 482.656 473.667
986 1 53.2575 11.0595 589 111.333 482.986 496.846
987 0 56.2175 11.7223 659 108.929 483.648 495.222
988 0 59.1326 13.2753 785 105.166 483.711 496.006
989 0 62.179 12.7374 792 100.141 484.876 496.98
990 0 58.0842 11.0529 642 104.621 484.656 497.963
991 0 63.2291 11.8142 747 103.288 485.044 495.704
992 0 66.2726 13.5954 901 100.332 484.604 494.667
993 0 68.3329 12.2635 838 102.646 485.149 494.599
994 0 72.2622 12.4131 897 103.1 484.033 491.605
995 0 73.2265 12.5501 919 102.684 483.976 491.876
996 0 76.2607 11.9459 911 104.625 484.533 488.195
997 0 79.354 12.2993 976 103.569 484.757 489.612
998 0 84.4105 13.6594 1153 101.115 484.03 486.581
999 0 87.3232 13.7077 1197 101.244 484.581 484.566
1000 0 89.2769 13.0829 1168 102.953 484.36 483.736
1001 1 48.0866 12.2695 590 101.644 484.992 503.878
1002 0 52.166 12.3452 644 99.0621 484.346 503.399
1003 0 53.6494 14.222 763 96.0695 483.05 496.163
1004 0 50.0757 11.7822 590 99.4695 485.249 502.853
1005 0 51.166 11.0034 563 100.433 484.979 503.618
1006 0 53.1274 11.7077 622 99.8714 484.492 501.119
1007 0 55.1978 11.3954 629 99.8235 484.661 501.844
1008 0 56.1161 12.4385 698 97.702 484.871 501.115
1009 0 59.1254 13.8012 816 95.75 484.734 498.907
1010 0 62.1601 11.8726 738 98.5203 484.453 498.95
1011 0 61.0976 12.0299 735 99.6299 484.671 497.81
1012 0 65.2608 12.2738 801 98.6866 484.904 496.238
1013 0 69.5046 13.438 934 96.2527 484.322 494.722
1014 0 69.4211 12.561 872 98.6732 483.522 494.159
1015 0 72.3251 13.1766 953 96.4145 484.476 492.216
1016 0 74.4947 12.9405 964 98.2656 484.003 487.543
1017 0 76.3395 12.261 936 99.5577 484.635 485.939
1018 0 79.16 12.8348 1016 97.2835 484.937 487.771
1019 0 84.2447 12.9148 1088 97.2399 484.25 484.922
1020 0 86.2292 13.0582 1126 97.2229 485.002 482.93
1021 1 45.2434 11.4492 518 96.5019 484.529 502.633
1022 0 45.2818 11.7707 533 94.8837 485.221 501.255
1023 0 51.0374 12.9121 659 94.3096 484.737 502.56
1024 0 52.1729 13.4553 702 93.9986 484.261 503.432
1025 0 51.3353 10.9866 564 100.073 485.039 502.156
1026 0 54.147 13.7958 747 95.6345 484.133 498.886
1027 0 54.2107 11.6582 632 100.503 483.513 500.163
1028 0 56.1768 10.4492 587 99.6814 483.855 500.879
1029 0 58.2758 12.0805 704 98.9517 484.54 497.584
1030 0 61.1484 13.0175 796 96.5013 484.372 498.415
1031 0 62.1516 11.2145 697 101.024 484.831 496.228
1032 0 63.3131 14.1519 896 98.0346 483.648 495.353
1033 0 65.2319 13.0918 854 100.471 484.619 492.972
1034 0 67.4328 13.2873 896 100.902 484.321 492.857
1035 0 68.3324 12.1465 830 104.528 483.986 490.689
1036 0 74.3764 12.3023 915 102.633 483.625 492.176
1037 0 74.2673 13.5726 1008 102.125 483.801 488.003
1038 0 78.476 12.335 968 104.229 484.086 487.733
1039 0 80.2628 13.3561 1072 102.748 483.502 486.7
1040 0 82.3373 12.716 1047 103.536 483.381 485.575
1041 0 84.5378 12.87 1088 103.708 483.364 483.094
1042 0 88.5542 14.0818 1247 101.098 482.924 481.331
1043 0 89.3013 12.4746 1114 104.446 482.923 480.826
1044 0 93.3734 11.6414 1087 99.5971 483.436 478.021
1045 1 49.073 12.084 593 94.5379 484.243 501.737
1046 0 49.4626 12.5145 619 97.2181 482.753 498.126
1047 0 51.3938 13.4452 691 95.9566 482.712 493.944
1048 0 53.1261 11.3127 601 99.2296 484.661 501.003
1049 0 55.0721 14.1451 779 93.8421 484.144 499.339
1050 0 59.1189 13.5151 799 93.9449 484.438 499.284
1051 0 60.1425 12.3041 740 97.3108 484.168 497.958
1052 0 61.167 13.9618 854 94.7658 483.76 495.634
1053 0 66.3794 13.7995 916 93.822 484.082 494.586
1054 0 66.2178 13.1687 872 96.2787 484.018 493.807
1055 0 68.1801 12.1296 827 98.5139 483.911 494.117
1056 0 69.2199 12.8431 889 97.8718 483.97 489.099
1057 0 71.3635 11.7707 840 100.706 483.688 490.049
1058 0 75.1889 13.3397 1003 96.9272 483.924 488.48
1059 0 78.2774 13.3883 1048 97.3702 483.794 486.403
1060 0 81.2303 12.7292 1034 99.1538 484.313 486.193
1061 0 84.3112 13.545 1142 98.3441 483.612 485.887
1062 0 87.1739 12.4579 1086 100.613 483.367 481.826
1063 0 88.3074 11.5392 1019 103.201 483.861 484.23
1064 1 45.1106 11.3942 514 103.358 485.161 503.829
1065 0 46.1192 11.145 514 105.735 483.119 501.914
1066 0 49.0826 12.6929 623 104.563 480.687 501.35
1067 0 51.1301 11.5783 592 107.321 480.802 499.986
1068 0 51.1061 12.1121 619 108.808 480.895 499.787
1069 0 54.0298 12.1044 654 108.286 480.846 500.468
1070 0 54.0265 12.9566 700 107.947 481.276 500.194
1071 0 56.0449 12.4365 697 109.732 481.957 500.135
1072 0 57.2507 13.1003 750 109.097 483.84 499.891
1073 0 58.2273 13.7049 798 109.222 483.342 500.753
1074 0 59.1951 13.3457 790 110.411 484.013 499.63
1075 0 61.3326 13.0762 802 112.171 483.824 498.269
1076 0 61.1901 13.2865 813 112.788 484.196 497.448
1077 0 63.1823 13.9754 883 111.81 483.533 494.336
1078 0 65.1393 13.2639 864 113.757 483.271 495.517
1079 0 67.1803 13.6647 918 111.951 483.638 494.814
1080 0 71.1875 13.0641 930 113.548 483.285 493.063
1081 0 73.1186 12.7054 929 114.618 483.966 490.413
1082 0 76.2406 13.1426 1002 112.673 482.964 489.455
1083 0 78.1674 13.8293 1081 114.14 482.173 487.046
1084 0 79.3014 12.5975 999 116.513 481.83 488.559
1085 0 81.3275 12.2714 998 114.423 482.675 485.87
1086 1 46.0387 11.9682 551 109.258 481.895 505.57
1087 0 48.2104 12.7358 614 108.326 484.637 500.072
1088 0 50.2344 12.3421 620 108.553 484.61 498.713
1089 0 49.1014 11.9141 585 113.467 480.827 502.126
1090 0 54.038 12.0841 653 112.107 481.392 500.015
1091 0 53.1034 12.5792 668 111.698 481.805 499.383
1092 0 55.0208 11.7228 645 113.617 481.522 498.132
1093 0 56.0595 11.8981 667 113.748 481.721 497.885
1094 0 57.1386 12.3384 705 113.498 481.704 496.664
1095 0 61.3503 12.7628 783 111.379 481.181 495.626
1096 0 63.3426 12.4087 786 111.218 481.573 495.771
1097 0 64.4349 14.0762 907 107.244 481.497 494.434
1098 0 67.3256 13.2936 895 107.456 482.269 493.494
1099 0 68.2477 12.9382 883 109.125 482.273 491.908
1100 0 70.2383 14.0949 990 106.143 482.321 490.887
1101 0 72.2474 12.9278 934 108.337 482.509 491.254
1102 0 75.2666 13.4854 1015 106.332 482.507 490.239
1103 0 78.3139 12.6925 994 108.132 482.666 487.52
1104 0 80.3762 12.006 965 109.618 482.805 486.769
1105 0 84.4489 12.3862 1046 108.604 483.076 483.248
1106 0 88.3654 14.0213 1239 104.776 482.605 481.32
1107 1 45.1298 9.77182 441 105.463 482.789 503.893
1108 0 47.0856 11.8932 560 98.8 482.162 504.262
1109 0 47.0697 10.9837 517 102.004 481.656 504.352
1110 0 49.1248 12.1731 598 98.8278 481.166 502.391
1111 0 53.0452 11.9521 634 98.0315 481.219 500.722
1112 0 53.2116 12.3657 658 98.6018 481.488 500.705
1113 0 55.0761 12.5826 693 97.6999 481.59 500.935
1114 0 55.1006 11.4518 631 99.7987 481.876 498.849
1115 0 56.1926 12.2614 689 100.203 482.302 498.25
1116 0 58.1348 11.6626 678 101.088 481.827 499.047
1117 0 62.0866 12.4504 773 97.9819 481.938 496.4
1118 0 63.1346 12.1328 766 98.8446 481.879 495.394
1119 0 66.0993 13.4495 889 96.2463 481.935 493.676
1120 0 70.0841 12.856 901 96.4428 481.082 494.875
1121 0 70.109 12.0099 842 97.9157 481.542 493.682
1122 0 74.2017 11.9539 887 98.1184 481.552 489.981
1123 0 73.189 12.174 891 99.3838 481.41 488.976
1124 0 79.2446 13.4899 1069 95.754 481.688 488.384
1125 0 80.2238 11.8917 954 99.2547 482.335 488.287
1126 0 84.1877 13.2323 1114 96.0548 482.497 486.472
1127 0 89.193 12.344 1101 97.8556 482.599 484.71
1128 0 92.2895 12.9701 1197 96.5497 482.495 483.797
1129 1 46.1009 11.2796 520 103.496 482.108 503.771
1130 0 49.0757 11.6555 572 101.855 481.998 502.846
1131 0 50.0892 12.0385 603 94.9104 482.204 504.687
1132 0 50.109 12.1735 610 96.259 481.675 503.595
1133 0 52.0691 11.9457 622 96.1174 482.021 502.186
1134 0 52.0622 11.7552 612 97.3726 481.806 501.634
1135 0 56.1142 11.6192 652 97.1426 481.4 501.011
1136 0 57.1871 11.7859 674 97.3709 480.709 498.136
1137 0 57.1946 12.746 729 95.3169 481.896 497.225
1138 0 61.1545 12.6565 774 94.8385 481.317 495.975
1139 0 64.0805 12.4843 800 94.0762 481.615 496.345
1140 0 63.042 11.1037 700 96.97 482.116 495.819
1141 0 68.1672 12.572 857 92.2392 482.55 493.764
1142 0 69.4256 12.0849 839 93.2384 482.247 492.327
1143 0 69.1792 11.3763 787 94.8996 481.919 491.169
1144 0 71.2623 11.9418 851 94.658 482.163 490.246
1145 0 76.2266 10.8099 824 94.7597 482.262 490.897
1146 0 77.1476 11.0308 851 94.9742 482.089 490.656
1147 0 78.2447 11.6685 913 94.3122 482.174 486.606
1148 0 82.3693 10.3558 853 95.5217 481.712 484.894
1149 0 83.2811 11.6473 970 94.1124 481.49 483.699
1150 0 87.2444 12.2759 1071 93.6611 481.084 481.711
1151 0 90.1908 11.8083 1065 94.3568 481.8 478.438
1152 1 47.2254 11.1804 528 91.0701 480.398 501.903
1153 0 47.3584 9.8821 468 93.4252 481.293 500.57
1154 0 49.1768 11.8552 583 88.8062 480.961 500.875
1155 0 53.2343 11.0079 586 93.7457 481.137 500.224
1156 0 53.3543 11.0207 588 95.6599 482.515 496.784
1157 0 54.3322 12.1107 658 92.9954 481.974 496.646
1158 0 54.1102 12.0125 650 89.88 480.723 497.123
1159 0 57.0674 10.6891 610 86.3328 482.62 498.607
1160 0 58.1239 10.4776 609 88.22 481.849 498.435
1161 0 58.1519 9.78472 569 88.6081 481.849 496.52
1162 0 62.0948 9.32445 579 89.9914 481.275 495.587
1163 0 63.1949 9.63686 609 90.1248 481.476 494.353
1164 0 67.1222 10.3692 696 89.4971 481.99 490.512
1165 0 69.0999 11.6932 808 87.1572 482.208 491.066
1166 0 71.064 11.4826 816 88.3578 482.923 488.52
1167 0 74.1388 10.8175 802 89.1559 482.105 485.847
1168 0 78.1668 11.3859 890 87.2551 482.266 487.691
1169 0 81.1943 13.7448 1116 84.3737 482.124 484.74
1170 0 83.2516 12.1439 1011 87.366 482.507 482.852
1171 0 85.178 9.38036 799 91.03 482.798 485.638
1172 1 46.1078 11.4948 530 87.7453 482.802 502.823
1173 0 47.3433 11.3638 538 87.8699 484.182 499.123
1174 0 48.1902 9.85678 475 93.0084 484.914 501.737
1175 0 51.0845 12.4695 637 88.7488 484.774 500.581
1176 0 52.1099 12.608 657 91.6865 483.979 498.405
1177 0 52.1415 11.4113 595 94.1916 484.64 499.34
1178 0 56.0688 11.3075 634 94.6199 484.267 499.669
1179 0 57.1361 12.584 719 94.5076 484.332 496.794
1180 0 59.1994 13.7164 812 93.4865 484.773 497.241
1181 0 62.1389 12.6491 786 96.8206 484.826 494.19
1182 0 63.2533 13.5961 860 95.6954 484.78 494.172
1183 0 66.2999 13.2429 878 97.6116 484.763 494.249
1184 0 68.1679 11.8531 808 100.929 484.125 492.809
1185 0 69.2188 13.9413 965 99.028 484.658 490.99
1186 0 72.1686 13.7317 991 100.392 484.401 489.32
1187 0 74.1504 13.1355 974 104.052 485.296 487.51
1188 0 79.1989 14.1164 1118 101.679 484.368 487.821
1189 0 82.3271 13.8836 1143 102.093 484.418 485.476
1190 0 84.2831 13.2885 1120 105.06 483.665 484.786
1191 1 46.3283 11.7855 546 103.751 482.976 501.352
1192 0 47.4937 11.3489 539 105.772 482.469 501.037
1193 0 46.13 12.0529 556 106.281 481.87 502.21
1194 0 50.0932 12.1174 607 104.517 482.148 502.306
1195 0 52.0877 11.9606 623 105.897 481.448 499.653
1196 0 52.1864 12.1679 635 106.398 481.567 501.209
1197 0 54.0605 12.0975 654 107.08 481.91 499.362
1198 0 56.0377 12.5987 706 106.424 480.959 498.918
1199 0 56.0697 12.9482 726 106.493 480.81 497.793
1200 0 57.0824 13.6294 778 106.278 480.784 497.386
1201 0 58.0321 11.7693 683 111.893 480.893 496.225
1202 0 61.1078 13.8771 848 107.163 481.403 494.11
1203 0 64.0735 13.0163 834 109.004 480.632 494.511
1204 0 66.0373 13.7195 906 109.298 480.97 492.897
1205 0 67.1706 12.967 871 112.108 480.402 491.029
1206 0 69.0633 12.8723 889 113.283 480.693 490.738
1207 0 72.0592 13.7387 990 112.305 481.181 489.325
1208 0 75.105 13.3546 1003 114.424 481.341 487.255
1209 0 78.1969 12.9417 1012 115.401 481.347 485.154
1210 1 41.0243 10.5791 434 115.228 480.124 505.544
1211 0 42.1269 11.3941 480 115 480.788 503.619
1212 0 40.3651 9.93434 401 113.339 483.928 500.194
1213 0 44.0499 11.8048 520 115.338 484.304 504.965
1214 0 47.0369 12.7347 599 113.945 484.589 503.698
1215 0 46.1412 11.1397 514 110.905 480.802 502.7
1216 0 46.0568 11.5292 531 110.036 481.143 502.629
1217 0 46.0497 11.2487 518 113.413 484.517 503.533
1218 0 48.0228 12.0984 581 110.788 484.552 502.153
1219 0 50.0383 11.9908 600 111.882 484.342 500.763
1220 0 50.0726 11.683 585 112.66 483.971 503.217
1221 0 53.0584 11.3837 604 112.344 484.717 501.627
1222 0 53.0555 11.8932 631 112.154 484.358 498.624
1223 0 55.1244 12.4446 686 111.525 483.477 499.338
1224 0 56.0848 10.9477 614 115.793 483.441 498.487
1225 0 57.0994 11.1385 636 115.253 483.404 496.541
1226 0 62.109 11.9789 744 111.331 483.418 497.211
1227 0 62.0661 10.8433 673 115.247 484.079 495.899
1228 0 65.0695 11.9103 775 112.658 484.346 495.188
1229 0 70.2052 13.7882 968 106.187 483.701 491.876
1230 0 70.2512 12.6403 888 109.741 483.507 491.93
1231 0 74.1938 13.6534 1013 107.53 483.646 489.66
1232 0 75.2111 13.0566 982 108.547 483.295 488.1
1233 0 79.146 13.8984 1100 105.732 482.916 488.395
1234 0 79.1813 13.6143 1078 108.677 483.468 484.789
1235 0 82.2981 13.3539 1099 109.915 482.745 483.744
1236 0 85.2546 12.4333 1060 111.821 483.358 484.416
1237 0 85.2806 13.18 1124 109.857 482.731 484.658
1238 0 91.2647 13.806 1260 109.14 482.911 480.883
1239 0 93.3184 14.1666 1322 108.187 482.504 480.804
1240 0 94.443 12.5473 1185 113.078 482.311 481.401
1241 0 100.3 13.7587 1380 109.651 482.332 475.707
1242 0 105.511 12.8044 1351 110.915 482.286 477.078
1243 0 107.629 12.9519 1394 111.796 482.192 472.894
1244 1 56.3325 12.3552 696 114.925 482.08 494.616
1245 0 58.0832 12.4821 725 110.039 482.778 496.717
1246 0 58.1238 11.768 684 112.379 481.208 496.747
1247 0 62.2689 14.0198 873 106.9 480.495 493.66
1248 0 63.2446 13.1711 833 109.172 481.306 493.688
1249 0 66.3474 13.6855 908 107.424 482.08 491.536
1250 0 69.26 12.7635 884 109.745 481.276 492.543
1251 0 71.3402 13.8351 987 108.027 480.852 489.802
1252 0 75.5952 14.7232 1113 104.142 482.01 488.614
1253 0 77.6527 14.1013 1095 106.802 481.896 486.706
1254 0 81.5425 14.6917 1198 110.293 481.64 485.419
1255 0 84.6401 13.4097 1135 112.632 481.714 484.083
1256 0 86.8034 13.2253 1148 114.03 481.801 483.418
1257 0 89.5554 13.7569 1232 113.38 481.829 480.096
1258 0 92.712 13.3424 1237 112.466 481.496 478.542
1259 0 93.326 12.1188 1131 109.213 483.127 475.378
1260 1 50.1594 11.4435 574 106.005 483.578 499.693
1261 0 52.304 11.9494 625 105.954 483.346 498.787
1262 0 54.0896 12.849 695 104.075 484.288 500.75
1263 0 54.0113 13.5157 730 105.048 483.001 500.577
1264 0 55.0562 12.2965 677 109.347 484.083 498.663
1265 0 56.1164 14.0601 789 105.373 483.848 498.894
1266 0 59.0297 13.417 792 106.539 484.235 497.242
1267 0 60.117 12.5588 755 110.154 483.709 497.159
1268 0 62.0863 12.8692 799 108.594 483.909 494.645
1269 0 65.0994 13.3642 870 107.987 484.099 492.516
1270 0 66.1636 13.8747 918 107.593 483.52 493.912
1271 0 67.169 12.6695 851 110.945 483.744 492.421
1272 0 70.1342 14.016 983 108.335 483.9 490.033
1273 0 73.1888 13.8136 1011 108.346 484.56 488.737
1274 0 75.1328 12.6975 954 110.367 484.003 488.69
1275 0 76.2569 12.0382 918 112.094 484.313 487.218
1276 0 79.2545 13.0718 1036 111.013 483.77 486.389
1277 0 81.1639 12.6657 1028 112.845 483.878 485.262
1278 0 83.2556 13.5126 1125 111.612 484.081 482.307
1279 0 87.1357 12.3715 1078 114.348 483.918 482.237
1280 0 92.1546 13.7703 1269 111.024 483.652 479.73
1281 0 92.2588 12.3891 1143 115.025 483.667 479.736
1282 0 96.2702 12.9324 1245 114.143 484.028 479.414
1283 0 99.2543 12.8357 1274 115.859 483.455 475.002
1284 0 104.279 14.6051 1523 110.713 483.347 476.268
1285 0 107.259 14.1806 1521 113.001 483.311 471.701
1286 0 109.207 12.9937 1419 115.848 483.457 470.897
1287 0 113.417 14.2042 1611 113.749 483.181 467.58
1288 0 118.13 13.7222 1621 115.413 483.657 468.036
1289 0 121.212 13.0433 1581 117.285 482.981 465.972
1290 0 125.22 14.0073 1754 116.08 482.696 461.88
1291 0 130.289 13.7617 1793 116.27 483.036 459.178
1292 0 134.34 14.1134 1896 115.237 482.464 455.893
1293 0 137.316 12.9847 1783 118.399 482.799 451.836
1294 0 141.458 13.4669 1905 117.055 482.65 449.051
1295 0 148.458 14.0646 2088 115.368 482.322 447.153
1296 0 153.535 14.9999 2303 114.158 482.008 444.505
1297 0 155.362 13.7228 2132 117.07 482.707 437.257
1298 0 163.485 13.3835 2188 116.806 481.593 438.844
1299 0 168.746 14.2996 2413 115.467 481.762 431.584
1300 0 173.477 13.091 2271 118.238 481.602 431.709
1301 1 104.354 12.563 1311 114.006 481.613 468.635
1302 0 107.282 12.4904 1340 114.537 480.59 474.128
1303 0 113.181 13.4828 1526 102.176 481.339 473.979
1304 0 115.19 12.7181 1465 105.135 481.546 470.764
1305 0 118.216 12.2319 1446 107.438 481.923 463.633
1306 0 123.136 12.9369 1593 105.935 481.076 465.677
1307 0 128.354 12.8239 1646 104.843 482.078 463.009
1308 0 131.327 12.8534 1688 104.666 483.062 462.944
1309 0 135.236 13.6354 1844 104.207 483.003 455.618
1310 1 63.2223 10.471 662 99.7779 484.779 493.814
1311 0 64.19 10.6091 681 100.796 483.972 493.752
1312 0 68.268 13.198 901 106.743 484.814 490.707
1313 0 70.1332 11.9059 835 109.76 484.686 489.701
1314 0 72.101 12.219 881 109.462 484.586 489.627
1315 0 73.0923 13.0657 955 105.103 484.792 486.543
1316 0 77.1323 11.9405 921 107.989 485.154 485.594
1317 0 79.0631 14.128 1117 103.055 485.067 483.677
1318 0 83.0751 14.0114 1164 104.877 484.918 483.983
1319 0 85.1114 11.9138 1014 110.697 484.649 482.64
1320 0 87.067 12.9326 1126 108.536 484.612 481.746
1321 1 49.0481 10.5611 518 108.784 484.517 502.185
1322 0 47.0413 11.288 531 109.011 484.367 501.343
1323 0 52.0319 11.1086 578 110.168 484.74 500.976
1324 0 51.0213 11.8382 604 109.695 484.421 499.609
1325 0 56.0718 10.9681 615 110.452 484.444 499.044
1326 0 55.0083 10.962 603 111.917 484.677 498.464
1327 0 57.0304 11.7481 670 109.731 484.312 497.461
1328 0 58.0337 12.1653 706 108.873 484.187 496.602
1329 0 61.1701 12.2936 752 109.307 483.743 495.239
1330 0 63.1008 12.377 781 108.717 484.213 494.942
1331 0 64.1186 10.9329 701 111.535 484.198 495.783
1332 0 66.1071 12.1923 806 108.844 484.653 492.46
1333 0 70.0601 11.7613 824 108.32 484.422 493.556
1334 0 67.1025 11.624 780 111.091 484.351 490.042
1335 0 72.025 12.1763 877 106.464 483.892 493.402
1336 0 75.0809 11.4143 857 109.725 484.238 488.725
1337 0 75.0385 11.061 830 111.388 484.19 488.47
1338 0 82.0851 11.1348 914 110.236 483.896 487.296
1339 0 82.1728 11.6097 954 110.549 483.44 486.433
1340 0 83.0816 12.241 1017 108.515 484.088 486.237
1341 0 83.0947 12.0104 998 110.476 484.21 483.75
1342 0 87.1091 11.2847 983 112.756 483.915 480.6
1343 0 93.0801 10.3567 964 112.487 484.054 482.315
1344 0 93.197 12.876 1200 109.371 484.01 478.537
1345 0 95.1409 12.4867 1188 110.975 484.143 478.19
1346 0 96.3432 11.7912 1136 114.128 483.476 475.39
1347 1 60.0654 6.50958 391 112.153 484.563 500.164
1348 0 60.0888 8.47079 509 110.756 483.792 496.953
1349 0 63.0671 8.5306 538 107.234 484.297 500.898
1350 0 61.1188 8.63891 528 108.413 484.042 496.638
1351 0 60.2442 11.1712 673 101.985 484.251 497.048
1352 0 61.3909 11.7118 719 102.669 483.285 492.929
1353 0 62.2735 10.8232 674 104.715 483.877 494.469
1354 0 64.3248 10.9911 707 105.967 483.448 490.658
1355 0 67.268 11.6549 784 104.254 483.787 490.925
1356 0 69.2047 10.4328 722 106.32 483.632 489.307
1357 0 72.347 11.7213 848 102.329 483.605 489.623
1358 0 74.3245 12.4185 923 101.748 483.378 485.12
1359 0 75.2821 11.8488 892 103.447 483.266 484.979
1360 0 79.3167 11.5234 914 103.295 482.965 485.744
1361 0 83.3622 12.7036 1059 100.834 483.11 483.174
1362 0 84.3232 12.6418 1066 101.78 482.605 480.506
1363 0 85.3503 11.2009 956 104.345 482.288 482.217
1364 0 91.2859 13.1784 1203 102.751 482.673 479.097
1365 0 91.298 11.8184 1079 105.744 482.703 479.203
1366 0 95.3923 11.5104 1098 105.415 483.318 476.949
1367 0 101.421 12.8179 1300 103.152 482.166 474.583
1368 0 102.395 11.2115 1148 106.18 480.659 471.605
1369 0 106.457 11.4319 1217 105.606 480.891 468.482
1370 0 109.308 11.9021 1301 105.079 480.311 467.28
1371 0 113.226 11.9054 1348 105.322 480.103 469.397
1372 1 61.3314 11.4623 703 105.711 480.888 491.458
1373 0 60.078 10.6029 637 93.7033 481.9 486.562
1374 0 58.0635 11.6252 675 93.3718 481.508 490.116
1375 0 62.1068 11.4963 714 93.7367 481.113 488.796
1376 0 66.111 10.5429 697 95.1248 481.301 486.268
1377 0 67.0914 9.82242 659 95.648 482.349 485.554
1378 0 70.066 11.7032 820 92.6012 481.665 485.105
1379 0 68.1316 10.2155 696 96.3262 481.707 483.562
1380 0 73.0688 10.6064 775 96.4942 482.449 482.557
1381 0 77.0938 11.8168 911 94.5543 483.001 480.805
1382 0 81.0784 10.8167 877 96.4538 482.554 482.109
1383 0 83.1406 10.5965 881 97.7412 481.934 479.11
1384 0 85.1034 12.1617 1035 95.8493 482.042 475.303
1385 0 92.1464 11.8724 1094 96.107 481.879 474.949
1386 0 92.0757 13.2065 1216 94.8125 483.072 473.274
1387 0 96.1152 11.9752 1151 96.8862 482.68 471.903
1388 0 99.117 11.3099 1121 97.8805 483.004 471.921
1389 0 104.227 11.7052 1220 96.9902 482.857 464.908
1390 0 105.24 11.8207 1244 96.6656 482.357 467.338
1391 0 109.295 12.4983 1366 97.2408 483.038 466.271
1392 0 114.207 12.1008 1382 99.1823 481.936 464.144
1393 0 119.403 13.6261 1627 96.1026 482 464.641
1394 1 61.0863 9.11825 557 94.781 482.864 489.476
1395 0 63.1563 9.69025 612 97.1487 482.828 489.516
1396 0 64.1981 8.78531 564 96.0567 480.229 493.86
1397 0 68.1205 11.3475 773 97.9043 479.933 494.45
1398 0 71.1543 11.7772 838 95.2339 479.194 493.785
1399 0 72.1733 11.2646 813 97.4317 479.875 492.381
1400 0 73.1295 11.3361 829 97.7648 480.049 494.022
1401 0 79.0849 11.9492 945 95.5513 480.648 491.778
1402 0 79.1406 10.7909 854 99.3419 479.984 488.324
1403 0 82.1296 13.0038 1068 96.2013 480.224 487.118
1404 0 84.1101 12.0556 1014 99.7258 479.964 484.998
1405 0 85.1845 12.1031 1031 100.251 480.018 483.324
1406 0 91.1029 12.3597 1126 98.0977 480.058 482.453
1407 0 92.2515 11.3711 1049 100.222 479.562 480.348
1408 0 95.3053 11.3005 1077 99.8301 479.737 482.378
1409 0 96.1361 10.4955 1009 102.615 479.94 480.613
1410 0 101.301 12.8726 1304 99.8643 479.242 472.908
1411 0 104.276 12.5437 1308 100.58 479.281 472.836
1412 0 108.327 13.7085 1485 99.1475 480.162 467.108
1413 0 110.289 13.0204 1436 100.264 480.114 467.551
1414 0 112.171 10.4751 1175 104.973 481.71 469.752
1415 0 117.453 12.124 1424 102.067 482.098 464.371
1416 0 123.435 13.1972 1629 100.029 481.358 461.978
1417 1 71.1578 12.3247 877 99.5473 478.862 488.677
1418 0 72.3007 11.9363 863 97.4554 481.87 487.679
1419 0 75.11 12.2886 923 96.1268 482.368 486.302
1420 0 77.1955 13.4982 1042 94.3234 482.396 486.435
1421 0 80.0783 12.2255 979 99.522 482.662 484.125
1422 0 83.0811 12.217 1015 99.4946 483.065 482.432
1423 0 87.1363 13.4846 1175 96.8383 483.306 481.948
1424 0 88.1579 11.1504 983 98.6175 483.17 480.001
1425 0 93.377 12.2193 1141 95.4776 482.528 479.339
1426 0 93.2093 12.3807 1154 96.9714 483.167 477.789
1427 0 97.2742 12.3157 1198 96.5952 482.991 473.289
1428 1 47.1343 10.0564 474 101.54 484.951 499.722
1429 0 51.1527 11.2604 576 98.0868 484.075 497.979
1430 0 50.6441 11.9264 604 98.7864 482.949 494.338
1431 0 53.0413 12.0849 641 98.1061 484.051 496.456
1432 0 54.0467 11.7861 637 98.8148 483.992 495.224
1433 0 55.0605 12.4409 685 97.9343 483.561 494.518
1434 0 58.0519 11.2141 651 100.966 483.121 495.398
1435 0 58.3458 11.5347 673 102.281 484.134 492.022
1436 0 59.1296 12.5487 742 100.201 483.559 491.745
1437 0 61.0528 11.8586 724 102.362 483.289 490.511
1438 0 66.0994 13.4192 887 98.8128 483.145 490.033
1439 0 68.1722 12.8205 874 99.6625 483.017 488.811
1440 0 68.1506 13.2941 906 99.9669 483.405 486.534
1441 0 72.1166 13.4643 971 98.7734 483.013 486.853
1442 0 74.1561 13.6873 1015 98.4532 483.387 485.517
1443 0 77.176 13.2813 1025 97.638 483.488 484.874
1444 0 79.1222 12.7524 1009 100.094 483.324 483.439
1445 0 82.3178 14.7356 1213 96.2317 483.122 480.531
1446 0 81.3623 12.77 1039 99.6853 483.626 473.87
1447 0 85.2901 12.6275 1077 98.9666 483.344 475.24
1448 0 86.4846 11.7362 1015 98.1438 483.197 475.572
1449 0 89.2449 12.8859 1150 96.4974 483.255 474.433
1450 0 89.2607 10.643 950 101.285 483.209 473.705
1451 0 94.5366 10.9164 1032 99.7558 483.403 476.698
1452 1 44.2159 10.6749 472 93.5318 482.822 497.269
1453 0 48.1566 10.8812 524 91.8092 483.83 498.281
1454 0 46.1698 10.9379 505 94.1446 483.446 495.879
1455 0 48.0873 10.2314 492 94.8028 482.945 495.443
1456 0 47.1089 10.5713 498 95.8454 483.506 494.872
1457 0 53.234 13.0744 696 97.2543 483.928 498.488
1458 0 54.0869 12.2765 664 99.2078 484.041 498.702
1459 0 56.0969 12.8528 721 97.7268 484.351 496.072
1460 0 55.1424 11.026 608 101.536 483.724 497.03
1461 0 59.1469 11.1417 659 100.364 483.399 496.401
1462 0 59.1223 11.1802 661 100.399 483.666 496.8
1463 0 63.1826 13.5005 853 96.7104 483.525 492.683
1464 0 62.1647 11.7108 728 101.163 483.401 491.066
1465 0 65.1853 12.6102 822 98.944 483.398 493.299
1466 0 68.0961 12.4383 847 100.51 483.501 489.694
1467 0 72.2318 12.0999 874 101.441 483.259 489.651
1468 0 74.1536 13.2698 984 99.565 484.085 487.749
1469 0 75.2927 13.069 984 100.005 483.42 483.946
1470 0 79.1931 12.9431 1025 100.08 483.764 486.006
1471 0 80.1611 11.3272 908 103.958 483.65 482.055
1472 0 85.2173 13.049 1112 99.4451 483.431 484.321
1473 1 45.1667 11.5572 522 101.345 484.632 501.28
1474 0 45.0426 12.6991 572 98.7675 484.164 501.802
1475 0 47.0571 11.3267 533 102.651 483.976 503.353
1476 0 49.0267 13.1561 645 101.695 484.012 501.256
1477 0 51.0795 12.0792 617 104.006 484.219 501.207
1478 0 53.0527 12.7421 676 103.03 484.034 499.679
1479 0 52.1096 11.6485 607 105.891 483.931 499.512
1480 0 55.0639 11.8408 652 105.449 484.379 497.84
1481 0 57.0752 12.8602 734 103.226 484.164 497.898
1482 0 57.0411 12.8679 734 104 484.628 495.518
1483 0 61.0899 12.2279 747 105.289 484.545 496.074
1484 0 64.2478 12.9343 831 103.178 484.458 493.892
1485 0 64.1787 13.7273 881 102.712 484.494 493.512
1486 0 68.0605 13.8112 940 101.954 484.287 493.763
1487 0 71.1328 14.7189 1047 100.484 483.97 491.494
1488 0 73.3136 14.4584 1060 101.89 483.04 492.142
1489 0 75.2382 14.2614 1073 102.55 483.178 489.472
1490 0 76.3492 14.2503 1088 103.711 482.81 489.347
1491 0 80.3415 13.48 1083 106.329 482.639 486.546
1492 0 80.4421 12.7794 1028 109.057 482.569 483.866
1493 0 84.4934 12.9833 1097 109.833 482.112 484.431
1494 0 89.4434 14.2436 1274 106.775 482.285 481.036
1495 0 90.5001 13.3481 1208 110.859 482.253 479.826
1496 1 48.2744 10.8339 523 115.887 482.388 499.514
1497 0 51.1739 10.8063 553 113.807 481.362 496.694
1498 0 51.0783 11.0223 563 111.371 481.684 492.103
1499 0 53.1317 10.6904 568 107.173 482.706 494.761
1500 0 57.1212 11.2218 641 105.298 483.914 493.922
1501 0 58.0722 11.434 664 105.67 483.113 493.477
1502 0 60.0238 12.695 762 103.294 483.495 492.003
1503 0 63.0567 11.3707 717 104.704 482.711 492.339
1504 0 66.1241 11.7506 777 98.8456 482.907 490.097
1505 0 65.1046 10.3219 672 103.327 482.546 489.351
1506 0 66.2601 11.6661 773 103.091 482.233 488.432
1507 0 65.1392 11.3756 741 107.14 482.872 485.717
1508 0 66.13 11.6135 768 108.286 483.055 484.865
1509 0 69.1868 13.7165 949 102.941 482.709 488.603
1510 0 69.1225 10.6333 735 112.842 483.408 484.841
1511 0 73.0543 10.5401 770 111.03 483.858 485.319
1512 0 76.0762 11.7645 895 107.551 483.475 484.326
1513 0 78.0468 12.7744 997 104.967 482.861 483.326
1514 0 82.0855 12.3408 1013 104.395 482.815 482.764
1515 0 83.0733 11.2792 937 108.045 483.218 478.033
1516 0 87.2451 12.1153 1057 104.897 482.314 480.604
1517 0 90.1648 13.0982 1181 103.364 483.064 478.565
1518 0 93.0983 12.4922 1163 103.459 482.287 478.768
1519 0 95.3061 11.8775 1132 104.353 482.2 478.486
1520 0 99.4447 12.9921 1292 98.8885 482.118 474.169
1521 1 52.0492 11.4315 595 108.166 483.087 500.578
1522 0 52.0879 10.8663 566 107.657 478.901 501.622
1523 0 54.039 11.5472 624 106.833 479.404 500.304
1524 0 55.0199 12.1592 669 108.525 479.732 498.868
1525 0 55.0278 12.4119 683 110.026 480.545 499.971
1526 0 59.1138 13.1272 776 108.746 480.183 496.929
1527 0 59.1037 13.1126 775 109.604 480.231 497.117
1528 0 63.0286 12.7561 804 110.719 480.057 498.613
1529 0 61.0421 12.2375 747 114.408 480.294 495.51
1530 0 65.1466 11.9883 781 114.288 479.602 495.768
1531 0 65.0446 11.0386 718 118.702 480.056 495.558
1532 0 70.0903 13.4398 942 112.27 480.085 493.803
1533 0 71.1289 13.103 932 115.174 479.917 491.443
1534 0 71.0804 13.4918 959 121.282 479.532 490.937
1535 0 75.0954 11.9714 899 121.638 478.928 489.113
1536 0 78.1128 13.0196 1017 119.402 479.472 488.805
1537 0 79.0708 12.8366 1015 122.683 479.325 487.941
1538 0 83.1473 13.3739 1112 121.15 480.203 487.718
1539 0 86.1427 13.6402 1175 127.803 480.426 484.752
1540 1 42.1183 9.71074 409 128.44 480.032 507.606
1541 0 43.3581 11.4396 496 126.026 481.585 504.008
1542 0 47.0872 10.9372 515 126.856 479.763 505.833
1543 0 47.1149 12.7136 599 122.972 479.653 505.594
1544 0 49.0553 12.3942 608 123.604 479.86 503.207
1545 0 50.3592 11.7556 592 126.681 480.343 503.367
1546 0 52.1483 11.8892 620 124.958 479.606 504.418
1547 0 54.0889 12.9232 699 122.72 479.542 503.293
1548 0 55.2372 12.5278 692 124.767 479.682 502.634
1549 0 55.4403 12.6803 703 125.327 480.78 501.104
1550 0 56.3622 12.7213 717 126.41 480.476 498.621
1551 0 56.4062 12.3923 699 128.22 480.033 498.021
1552 0 59.4733 12.1904 725 127.09 479.855 496.418
1553 0 63.4154 14.2868 906 120.088 481.227 495.731
1554 0 63.3756 14.0117 888 122.032 480.754 495.017
1555 0 66.4407 13.8319 919 122.49 481.01 493.249
1556 0 68.3766 13.3379 912 123.622 480.708 493.52
1557 0 70.2958 13.8131 971 122.88 480.328 491.49
1558 0 73.3043 13.71 1005 122.291 480.733 492.178
1559 0 75.3519 14.0541 1059 121.496 480.797 491.131
1560 0 77.398 13.9151 1077 122.918 480.402 487.56
1561 0 79.2625 13.1462 1042 125.041 481.202 486.838
1562 0 82.3033 13.1586 1083 123.636 480.499 488.887
1563 0 85.2788 14.0129 1195 121.022 480.613 486.831
1564 0 87.2432 12.3104 1074 125.573 481.122 483.804
1565 1 49.1281 11.8873 584 119.057 482.187 505.286
1566 0 49.0226 11.3417 556 122.754 482.264 504.237
1567 0 50.2007 12.3305 619 119.554 481.236 503.271
1568 0 52.2286 13.2877 694 117.444 481.578 502.37
1569 0 53.0941 12.7509 677 118.867 482.465 501.542
1570 0 57.0433 14.2348 812 114.734 481.707 500.755
1571 0 57.1179 13.0257 744 119.046 481.581 500.085
1572 0 59.0588 12.2759 725 121.594 481.143 499.023
1573 0 60.0903 12.7641 767 120.446 481.709 498.103
1574 0 64.0966 13.0896 839 117.384 481.474 497.607
1575 0 65.1616 13.5816 885 116.824 481.287 496.12
1576 0 66.1128 14.1122 933 116.369 481.81 495.089
1577 0 67.2871 13.3161 896 119.049 480.763 493.561
1578 0 70.3196 13.1684 926 118.854 480.465 494.303
1579 0 72.3815 13.6361 987 117.684 480.767 491.427
1580 0 75.3298 12.9033 972 119.237 480.278 490.564
1581 0 76.4022 12.2379 935 122.342 480.983 487.08
1582 0 79.3817 12.673 1006 120.332 480.823 487.265
1583 0 85.4094 12.7269 1087 119.58 481.081 486.482
1584 1 41.0551 10.766 442 119.023 481.272 506.473
1585 0 41.0194 11.1167 456 120.417 481.754 505.697
1586 0 43.0367 11.6645 502 117.88 481.159 504.671
1587 0 48.0936 12.8915 620 113.681 482.606 503.587
1588 0 47.0835 11.6389 548 119.323 482.679 503.057
1589 0 50.064 11.3055 566 118.655 482.122 503.373
1590 0 50.0716 11.5035 576 119.576 481.91 501.333
1591 0 54.118 13.3412 722 113.796 481.769 500.731
1592 0 52.084 11.2511 586 120.648 481.988 500.333
1593 0 54.04 11.9911 648 119.245 481.819 498.403
1594 0 56.1703 11.5185 647 119.097 482.195 497.853
1595 0 60.1864 12.7936 770 116.253 482.029 495.869
1596 0 59.1218 11.0112 651 121.034 482.364 494.647
1597 0 64.1344 13.5497 869 113.756 481.526 493.673
1598 0 67.1832 12.8455 863 114.568 481.542 493.786
1599 0 66.0794 13.3173 880 114.469 481.877 493.493
1600 0 68.1803 12.5549 856 117.824 482.248 488.51
1601 0 71.1417 12.3134 876 118.241 481.632 489.17
1602 0 74.3413 13.021 968 115.768 482.516 487.144
1603 0 76.2752 12.6909 968 117.036 482.192 485.563
1604 0 79.3381 12.4656 989 117.111 481.705 484.975
1605 0 81.3351 13.5612 1103 115.83 481.168 483.801
1606 0 82.3566 12.8709 1060 117.424 480.992 484.958
1607 0 84.6999 11.8654 1005 118.907 480.632 483.755
1608 0 89.5616 14.7608 1322 111.518 480.297 479.787
1609 0 90.6694 12.8378 1164 116.828 480.422 477.802
1610 0 95.6996 13.9499 1335 112.114 480.315 477.16
1611 1 49.1096 11.0569 543 105.282 481.899 501.173
1612 0 52.1228 12.106 631 103.212 482.529 499.125
1613 0 54.1198 13.2299 716 100.73 481.798 499.479
1614 0 55.0942 13.3045 733 106.192 481.804 499.514
1615 0 55.0256 12.5941 693 107.14 481.925 500.074
1616 0 56.0444 13.5607 760 105.875 481.243 498.562
1617 0 60.1467 13.0348 784 105.31 482.093 495.853
1618 0 60.134 12.2892 739 107.865 482.378 495.225
1619 0 61.1416 11.9231 729 108.835 481.326 495.636
1620 0 65.0991 13.057 850 105.74 481.401 495.06
1621 0 68.1208 13.799 940 103.906 481.716 492.816
1622 0 71.1168 13.0208 926 104.853 481.455 492.565
1623 0 72.186 12.3016 888 106.164 481.384 489.007
1624 0 75.2028 13.8426 1041 103.519 480.926 490.588
1625 0 76.11 13.7301 1045 104.844 480.286 488.249
1626 0 79.1959 13.776 1091 105.215 480.359 486.497
1627 0 83.0809 12.7948 1063 106.119 481.092 484.36
1628 0 85.0928 12.9153 1099 106.155 480.967 485.838
1629 0 88.2204 13.2736 1171 103.645 480.824 484.368
1630 0 91.2134 13.1998 1204 103.597 480.749 483.465
1631 1 49.0796 11.247 552 107.793 480.842 502.719
1632 0 51.0352 11.4235 583 107.545 481.172 502.48
1633 0 52.2248 10.1867 532 101.115 478.823 494.568
1634 0 53.1337 11.4993 611 92.3159 480.254 495.738
1635 0 54.0481 12.2669 663 91.0905 480.623 493.258
1636 0 54.1991 10.7935 585 94.2308 481.085 493.097
1637 0 57.2046 11.3802 651 93.7266 480.822 492.284
1638 0 59.1932 11.454 678 93.2994 481.308 491.394
1639 0 59.098 10.8464 641 95.4415 480.71 488.343
1640 0 64.2214 11.1801 718 94.3774 480.773 488.262
1641 0 65.1496 11.6348 758 95.128 480.854 489.136
1642 0 68.1287 12.0654 822 95.0499 481.247 489.029
1643 0 70.1796 12.6533 888 95.2849 481.1 487.291
1644 0 74.1214 12.6279 936 96.1645 481.109 484.407
1645 0 74.1649 11.7711 873 99.1959 480.612 484.923
1646 0 79.1934 12.4758 988 103.481 480.176 486.003
1647 0 84.2186 13.8449 1166 86.1278 480.636 482.443
1648 0 84.1574 12.2271 1029 99.8416 480.049 478.496
1649 0 89.1039 12.7716 1138 98.964 480.33 478.917
1650 0 91.305 12.2885 1122 99.2897 481.07 477.506
1651 0 93.2908 12.52 1168 100.347 481.031 474.587
1652 0 98.14 12.8999 1266 100.633 480.577 471.446
1653 1 48.0619 10.1952 490 98.0694 481.029 497.888
1654 0 52.225 11.0675 578 96.3581 481.1 496.588
1655 0 53.2372 11.815 629 96.8617 480.204 494.544
1656 0 55.2183 12.9848 717 94.3877 481.425 493.729
1657 0 56.2543 12.2302 688 96.7442 480.602 494.145
1658 0 58.0674 11.9516 694 98.0288 481.532 492.863
1659 0 58.0544 10.938 635 100.789 481.334 492.902
1660 0 61.087 11.8356 723 99.8714 481.571 490.367
1661 0 62.0847 11.1139 690 101.074 481.61 486.996
1662 0 66.0303 13.9936 924 95.9545 481.179 487.907
1663 0 70.3314 13.7207 965 95.1917 480.411 488.084
1664 0 70.2565 11.7569 826 100.625 479.615 486.489
1665 0 73.2139 13.2762 972 99.3004 479.593 484.832
1666 0 75.1348 13.6422 1025 99.9063 480.06 482.602
1667 0 79.1273 12.4483 985 102.536 481.322 484.08
1668 0 79.199 11.3259 897 105.541 480.572 482.606
1669 0 81.2867 11.9085 968 106.644 480.956 480.33
1670 0 85.3019 10.8087 922 109.133 481.175 481.973
1671 0 86.3842 11.7267 1013 109.172 480.136 479.144
1672 0 89.1922 12.1535 1084 107.877 480.422 477.543
1673 0 91.1713 11.9665 1091 109.15 480.092 477.6
1674 0 96.2507 12.5194 1205 109.348 480.92 474.748
1675 0 101.36 14.1575 1435 107.103 480.243 471.331
1676 0 102.299 13.2358 1354 111.319 479.689 472.22
1677 0 105.465 12.1842 1285 114.913 480.503 471.237
1678 0 109.324 11.2326 1228 117.997 480.308 470.178
1679 1 58.0468 10.4915 609 106.365 480.498 496.657
1680 0 60.2244 12.6859 764 116.427 478.709 498.353
1681 0 62.1302 14.035 872 116.463 478.273 496.103
1682 0 64.1982 13.1935 847 119.247 478.03 496.197
1683 0 67.0575 14.152 949 117.141 477.904 494.443
1684 0 69.0813 13.3032 919 120.197 477.829 492.287
1685 0 71.2196 12.8616 916 121.381 478.073 493.078
1686 0 72.1264 13.0188 939 122.015 478.198 490.253
1687 0 77.1087 13.5782 1047 120.139 478.528 489.734
1688 0 79.0831 13.1381 1039 122.096 478.627 486.772
1689 0 80.1223 13.6666 1095 120.918 478.743 486.91
1690 0 83.2041 14.7589 1228 116.044 478.344 486.664
1691 0 87.1258 14.2093 1238 117.592 478.524 484.01
1692 0 89.0656 13.5518 1207 116.624 478.821 484.474
1693 0 92.2107 13.7403 1267 117.204 478.538 480.052
1694 0 95.1871 12.8379 1222 118.985 478.647 477.588
1695 0 98.1876 12.853 1262 119.032 478.445 478.646
1696 0 103.159 13.5518 1398 115.586 478.543 476.612
1697 1 52.0701 11.7342 611 119.003 477.671 501.007
1698 0 53.1522 12.5489 667 110.307 478.913 500.546
1699 0 54.2369 12.0398 653 121.002 478.473 498.956
1700 0 56.2038 11.1736 628 123.255 479.667 497.908
1701 0 58.1234 11.8197 687 120.99 478.649 497.651
1702 0 61.0369 12.2876 750 120.108 478.344 493.913
1703 0 63.1089 11.1553 704 121.567 478.714 493.473
1704 0 67.2277 12.2122 821 117.122 478.318 495.34
1705 0 67.0829 11.7168 786 116.472 477.982 491.28
1706 0 70.2654 12.7944 899 112.79 478.79 490.572
1707 0 72.2594 12.5243 905 113.56 478.924 489.683
1708 0 74.3536 12.333 917 114.827 478.858 489.453
1709 0 77.1352 12.7828 986 112.884 477.901 488.846
1710 0 79.544 13.062 1039 111.265 479.702 488.226
1711 0 79.4738 12.6708 1007 114.015 479.563 485.492
1712 0 82.3705 13.3543 1100 113.907 479.339 483.224
1713 0 87.4573 13.1378 1149 113.821 479.941 482.457
1714 0 87.3837 12.1419 1061 117.787 479.432 480.366
1715 0 90.4054 13.0413 1179 114.972 479.852 480.031
1716 0 94.3738 13.8386 1306 112.517 479.665 480.62
1717 0 95.4636 12.895 1231 115.851 479.901 477.718
1718 0 96.4084 12.7893 1233 116.5 479.755 476.953
1719 0 101.489 13.0852 1328 115.557 479.199 476.005
1720 1 53.0796 12.3211 654 112.145 481.471 498.268
1721 0 57.1016 11.6459 665 111.98 481.111 498.059
1722 0 56.1053 12.6013 707 112.571 481.588 496.011
1723 0 58.1537 11.8651 690 114.242 481.801 496.141
1724 0 62.1375 12.3597 768 111.956 481.496 495.673
1725 0 63.1395 12.7179 803 112.253 481.577 493.62
1726 0 64.0743 12.0485 772 113.415 481.238 494.836
1727 0 67.0479 12.5134 839 112.561 481.194 492.358
1728 0 69.0613 13.4663 930 111.169 481.238 492.476
1729 0 70.0694 12.9729 909 112.707 481.586 492.176
1730 0 73.1152 12.9932 950 112.678 481.34 489.82
1731 0 74.0913 12.9975 963 112.925 481.802 488.434
1732 0 78.287 12.8501 1006 112.415 481.245 489.021
1733 0 80.0893 12.4861 1000 114.072 481.105 487.817
1734 0 81.1752 12.7256 1033 115.022 480.992 486.487
1735 0 83.3753 13.5652 1131 115.728 480.343 484.287
1736 0 87.3299 13.4662 1176 115.832 480.25 483.17
1737 0 90.3564 12.7274 1150 117.507 479.943 483.008
1738 0 93.345 13.7768 1286 115.607 480.041 480.012
1739 0 95.4142 12.7968 1221 118.301 479.628 478.308
1740 0 98.3454 12.3036 1210 116.902 479.812 478.957
1741 0 101.281 13.3194 1349 114.73 479.491 474.726
1742 1 54.1063 13.5104 731 109.272 481.137 499.941
1743 0 52.035 10.935 569 106.815 480.394 494.2
1744 0 58.042 12.6288 733 112.132 481.362 497.648
1745 0 57.0694 12.4585 711 114.422 481.028 496.997
1746 0 60.047 13.3562 802 110.975 480.611 496.534
1747 0 60.0771 13.4993 811 111.719 480.597 494.491
1748 0 65.0784 13.599 885 108.997 480.714 494.629
1749 0 65.1346 13.0499 850 112.225 480.639 492.782
1750 0 66.1396 11.2641 745 117.404 481.464 492.745
1751 0 67.0962 13.1602 883 114.57 480.718 489.009
1752 0 72.0837 13.0959 944 112.547 480.623 490.557
1753 0 72.0769 12.1814 878 116.589 480.354 486.871
1754 0 77.129 13.5876 1048 111.857 481.132 486.459
1755 0 78.1333 13.541 1058 112.357 481.284 483.706
1756 0 80.1319 13.5776 1088 111.477 480.849 483.415
1757 0 85.4684 13.7712 1177 112.556 479.55 484.81
1758 0 87.5194 13.3113 1165 113.566 479.93 483.258
1759 0 91.4724 12.8891 1179 115.103 479.31 481.439
1760 0 92.4672 11.9394 1104 117.063 479.037 481.179
1761 0 96.614 12.2135 1180 116.719 478.57 475.407
1762 1 49.187 12.0967 595 103.187 478.371 500.751
1763 0 51.5032 12.407 639 102.897 478.723 498.025
1764 0 52.5076 13.0457 685 102.768 478.696 496.94
1765 0 54.1778 12.8466 696 100.777 481.126 500.109
1766 0 57.0934 13.5042 771 99.5888 480.895 498.925
1767 0 57.1059 11.9077 680 103.819 481.259 495.585
1768 0 59.1808 13.011 770 102.405 481.339 497.63
1769 0 62.1155 14.0706 874 100.325 481.164 495.196
1770 0 63.1296 12.9416 817 103.257 481.869 494.771
1771 0 65.0428 13.0376 848 103.25 481.374 495.281
1772 0 66.1057 14.0684 930 101.483 481.552 492.6
1773 0 67.2122 12.2448 823 106.504 481.323 492.109
1774 0 72.1818 14.0617 1015 102.678 481.349 491.128
1775 0 73.1518 13.6702 1000 104.581 480.792 490.321
1776 0 76.1398 13.357 1017 106.144 480.905 490.216
1777 0 78.2481 13.5722 1062 106.419 480.522 488.231
1778 0 79.1599 14.7928 1171 105.625 480.199 487.048
1779 0 83.1231 15.2304 1266 103.382 480.225 485.599
1780 0 83.2797 12.8723 1072 109.475 480.245 484.986
1781 0 88.1995 14.3198 1263 105.104 480.135 484.497
1782 0 91.2165 13.8681 1265 106.236 480.94 482.345
1783 0 92.2804 12.3103 1136 110.066 480.052 483.217
1784 0 96.241 12.9674 1248 106.897 480.892 476.542
1785 1 51.0394 11.8536 605 106.922 482.091 499.398
1786 0 52.1029 12.3985 646 106.56 481.895 497.728
1787 0 54.0445 12.4157 671 111.088 481.146 498.568
1788 0 58.1081 15.0926 877 105.895 481.351 496.42
1789 0 59.14 13.2229 782 111.588 481.005 496.256
1790 0 61.1572 13.3427 816 109.652 481.822 495.349
1791 0 61.0339 12.9109 788 112.109 481.734 493.693
1792 0 65.1246 14.4339 940 108.019 481.187 492.197
1793 0 65.0629 13.8328 900 110.858 481.543 491.128
1794 0 69.0678 13.3637 923 111.128 481.116 489.931
1795 0 69.0967 13.2278 914 112.553 481.404 489.836
1796 0 72.0286 13.6473 983 111.195 481.813 488.086
1797 0 75.0927 14.9548 1123 108.348 482.252 486.614
1798 0 76.1217 13.5178 1029 112.226 481.911 484.665
1799 0 80.0926 13.7341 1100 110.693 481.367 484.931
1800 0 81.0751 12.8523 1042 113.279 481.332 484.274
1801 0 85.149 13.7641 1172 112.093 481.606 480.283
1802 1 43.107 10.3696 447 113.485 482.081 502.45
1803 0 47.0899 11.8072 556 110.914 482.023 500.09
1804 0 49.2219 12.9617 638 109.633 481.185 496.61
1805 0 48.1777 12.2671 591 96.3909 480.57 495.907
1806 0 50.0605 11.5061 576 97.4601 480.953 495.672
1807 0 54.0814 13.6461 738 102.203 481.997 497.024
1808 0 54.0334 13.8248 747 102.829 482.114 497.254
1809 0 56.107 12.4762 700 105.921 481.877 497.513
1810 0 59.1514 12.9836 768 104.337 482.159 496.632
1811 0 61.0779 14.1459 864 101.392 482.066 496.713
1812 0 62.0518 14.085 874 102.881 481.662 495.535
1813 0 63.0679 13.9532 880 103.898 481.584 493.239
1814 0 67.0639 15.2988 1026 100.829 481.52 491.26
1815 0 70.0562 13.4178 940 103.187 481.629 491.32
1816 0 72.0854 13.9557 1006 102.392 481.498 489.65
1817 0 71.058 12.5953 895 105.793 481.851 488.932
1818 0 75.0821 12.7194 955 104.991 481.669 488.489
1819 1 40.0302 11.6412 466 105.294 481.88 504.21
1820 0 42.0366 11.0856 466 104.871 482.21 505.174
1821 0 43.0447 11.8017 508 101.774 481.961 503.47
1822 0 42.045 11.4877 483 107.056 482.209 503.306
1823 0 45.0511 13.0296 587 102.555 482.049 502.181
1824 0 46.0303 11.6228 535 106.028 482.017 502.664
1825 0 48.0535 11.7994 567 105.587 481.626 502.471
1826 0 49.0419 13.8249 678 100.919 481.681 500.684
1827 0 51.0147 13.8783 708 101.157 481.593 500.131
1828 0 51.0094 12.2722 626 106.653 482.238 498.371
1829 0 51.0586 11.8295 604 108.238 481.879 497.626
1830 0 56.0545 13.1301 736 104.022 481.769 497.31
1831 0 55.0964 12.8321 707 106.618 482.113 494.307
1832 0 59.0802 13.6425 806 103.64 481.824 495.468
1833 0 59.0489 12.3965 732 107.223 481.325 495.937
1834 0 58.0586 12.5735 730 109.67 481.759 493.36
1835 0 63.0401 13.1821 831 107.939 480.72 491.614
1836 0 66.0812 12.9386 855 108.178 481.678 491.049
1837 0 66.0923 12.0589 797 111.424 481.28 490.774
1838 0 69.0901 13.5475 936 108.74 481.471 489.01
1839 0 70.0537 11.4912 805 114.17 481.798 489.35
1840 0 74.0495 11.7354 869 113.757 481.623 486.81
1841 0 77.0469 13.2127 1018 110.505 481.286 486.664
1842 0 79.0743 13.0763 1034 111.73 481.199 485.984
1843 0 82.0775 13.1461 1079 113.218 481.294 483.151
1844 1 39.0314 12.6565 494 104.172 481.715 506.534
1845 0 41.019 11.58 475 104.173 481.257 505.419
1846 0 41.0857 11.0744 455 114.64 481.281 504.976
1847 0 45.027 13.3031 599 108.581 481.24 503.785
1848 0 44.0345 12.8308 565 111.669 480.938 502.15
1849 0 48.1052 12.4519 599 112.125 480.943 502.124
1850 0 49.0356 12.1748 597 114.127 481.452 500.436
1851 0 50.0343 12.3915 620 114.473 482.41 499.287
1852 0 50.0451 11.5895 580 117.621 481.422 499.14
1853 0 53.0364 12.0295 638 116.016 481.986 499.179
1854 0 55.0365 12.1192 667 114.43 481.645 498.603
1855 0 54.0911 12.2756 664 114.958 482.059 496.926
1856 0 57.0149 12.2249 697 115.326 481.621 495.651
1857 0 58.0594 11.7983 685 115.974 481.496 495.19
1858 0 61.1596 12.7862 782 113.441 480.9 492.825
1859 0 63.0896 13.6948 864 110.818 481.713 491.014
1860 0 66.2066 13.2162 875 110.769 481.029 490.811
1861 0 68.1354 12.4458 848 111.991 481.074 491.12
1862 0 69.1234 13.0491 902 112.089 481.253 488.187
1863 0 73.0919 11.4924 840 113.77 479.998 489.385
1864 0 74.2788 12.2915 913 111.642 481.905 484.467
1865 1 39.1056 11.3283 443 109.005 482.061 503.106
1866 0 40.0945 12.0465 483 106.814 482.346 503.143
1867 0 39.0199 11.8401 462 108.21 482.065 503.948
1868 0 42.0886 11.8084 497 108.861 481.644 503.346
1869 0 43.0236 13.481 580 105.962 481.686 501.64
1870 0 43.0175 12.3903 533 109.6 481.411 503.426
1871 0 45.11 12.4584 562 109.783 481.052 500.783
1872 0 47.025 11.8235 556 109.183 481.232 502.617
1873 0 48.0366 11.3663 546 111.051 481.566 500.194
1874 0 50.0256 13.653 683 106.375 480.593 499.492
1875 0 49.0367 11.991 588 111.918 480.742 499.384
1876 0 53.0453 11.8955 631 111.582 480.886 500.3
1877 0 54.0538 12.5245 677 110.363 480.594 500.006
1878 0 52.1052 12.398 646 113.659 481.263 498.156
1879 0 56.1145 13.3121 747 110.59 481.987 497.016
1880 0 60.062 13.919 836 109.154 481.068 496.061
1881 0 60.0264 13.7439 825 109.97 481.432 496.078
1882 0 63.0464 14.2752 900 109.601 481.657 493.781
1883 0 61.0636 13.4941 824 113.917 481.308 493.618
1884 0 66.1823 13.9463 923 111.886 480.984 493.036
1885 0 65.0822 13.4292 874 114.67 481.161 491.088
1886 0 71.0599 14.6496 1041 110.87 480.764 491.022
1887 0 73.0661 14.8496 1085 109.797 480.726 490.847
1888 0 74.0882 13.6864 1014 113.518 480.968 488.543
1889 0 77.1573 14.5158 1120 111.292 480.86 488.667
1890 0 80.1199 13.8168 1107 113.724 481.202 487.085
1891 0 83.069 12.7605 1060 116.306 480.819 486.901
1892 0 84.0744 12.6436 1063 117.801 480.794 485.997
1893 1 45.0943 11.354 512 118.693 480.857 504.182
1894 0 48.2096 13.0057 627 116.223 479.665 497.584
1895 0 49.2159 12.2115 601 118.393 478.063 497.972
1896 0 50.1684 13.674 686 117.329 477.843 497.095
1897 0 52.0487 14.2751 743 114.857 477.693 498.346
1898 0 54.0222 12.5874 680 118.612 477.715 497.991
1899 0 55.0509 13.8599 763 116.008 477.379 497.088
1900 0 56.0456 13.6318 764 117.445 477.784 496.696
1901 0 58.1073 13.2686 771 117.773 477.719 495.438
1902 0 60.0767 15.3803 924 111.903 478.087 495.473
1903 0 61.1542 13.932 852 116.727 477.478 492.734
1904 0 63.0516 13.5762 856 116.562 477.617 492.62
1905 0 65.0774 14.3829 936 113.65 477.898 492.394
1906 0 66.0319 13.0694 863 116.798 477.72 491.067
1907 0 68.0541 13.0925 891 117.079 477.991 487.81
1908 0 74.0446 15.6392 1158 109.085 478.602 487.89
1909 0 75.0992 14.3144 1075 113.374 477.907 485.702
1910 0 77.0957 12.8023 987 116.372 477.631 484.896
1911 0 81.114 14.3625 1165 111.774 477.724 483.97
1912 0 83.0771 14.0231 1165 113.136 477.585 480.894
1913 0 88.1395 14.4771 1276 110.092 477.717 481.94
1914 1 47.0249 13.1845 620 109.192 477.4 502.481
1915 0 47.0261 11.568 544 111.847 478.042 503.169
1916 0 49.3895 13.8288 683 109.467 479.953 498.085
1917 0 52.0598 13.254 690 109.23 477.648 499.714
1918 0 52.0398 12.7402 663 110.851 477.793 501.012
1919 0 53.0701 12.2856 652 113.482 478.103 497.563
1920 0 55.039 12.6819 698 112.077 477.85 497.047
1921 0 55.0832 12.3268 679 112.839 478.04 497.524
1922 0 58.2382 13.771 802 110.004 478.194 496.016
1923 0 61.0413 15.5305 948 105.488 478.496 494.601
1924 0 63.1412 13.6203 860 108.485 478.729 494.771
1925 0 62.0899 13.255 823 111.731 477.758 492.279
1926 0 65.1016 13.502 879 110.67 478.078 493.397
1927 0 68.2034 13.3131 908 110.367 478.009 490.621
1928 0 69.0992 13.4444 929 109.906 477.849 489.01
1929 0 73.0887 13.3126 973 109.623 478.541 489.836
1930 0 75.0948 13.4896 1013 109.419 478.31 488.152
1931 0 77.0274 13.8912 1070 110.038 478.448 485.378
1932 0 79.0346 13.1968 1043 112.161 477.872 485.975
1933 0 84.2387 14.8507 1251 110.459 478.041 484.169
1934 0 87.2379 14.3974 1256 112.506 477.941 483.508
1935 0 89.1317 14.0579 1253 112.919 477.836 482.711
1936 1 51.1104 12.0915 618 113.906 477.684 503.35
1937 0 52.0431 12.9124 672 111.64 477.528 500.469
1938 0 54.1278 11.8978 644 117.575 477.567 496.301
1939 0 55.043 13.3532 735 115.097 478.28 496.517
1940 0 58.2602 12.736 742 116.953 478.875 496.112
1941 0 59.4354 12.5178 744 119.134 479.234 494.134
1942 0 60.2404 12.3339 743 120.795 479.008 494.474
1943 0 63.2158 12.5918 796 121.774 479.406 491.387
1944 0 63.2435 12.7128 804 123.396 478.976 490.877
1945 0 66.2348 11.8971 788 125.612 479.437 490.647
1946 0 69.3521 12.2275 848 124.6 479.656 488.077
1947 0 71.3022 12.6223 900 124.627 479.598 488.543
1948 0 72.1938 13.0344 941 123.792 479.882 487.12
1949 0 76.2519 13.6259 1039 123.986 479.292 484.547
1950 0 78.1977 14.3355 1121 122.993 479.115 483.595
1951 0 80.205 13.5278 1085 125.668 478.607 483.168
1952 0 85.2405 13.937 1188 124.533 478.742 481.532
1953 0 87.2595 13.4083 1170 126.533 479.004 479.698
1954 0 89.2838 13.1267 1172 130.292 479.133 477.061
1955 0 94.2376 14.1345 1332 126.584 479.14 477.016
1956 0 94.2624 13.9504 1315 129.481 478.795 474.449
1957 0 97.3089 13.75 1338 130.987 479.282 472.801
1958 0 100.218 14.2989 1433 130.033 479.426 472.338
1959 0 104.26 14.0323 1463 130.296 480.01 472.409
1960 0 106.345 14.0768 1497 130.712 479.272 471.87
1961 0 108.147 14.3416 1551 131.493 478.957 465.899
1962 0 112.328 14.6803 1649 130.324 479.639 464.339
1963 0 117.32 14.0556 1649 131.235 479.28 463.5
1964 0 120.4 12.9983 1565 132.925 479.502 463.654
1965 0 124.528 12.9048 1607 128.776 479.941 459.249
1966 0 128.394 13.5676 1742 127.805 480.066 456.876
1967 1 67.0948 10.582 710 118.28 478.889 490.179
1968 0 67.3346 11.183 753 117.851 479.382 487.627
1969 0 70.2406 12.2579 861 114.206 479.986 490.214
1970 0 73.1702 11.6167 850 115.404 479.408 489.424
1971 0 75.3319 13.2879 1001 113.645 479.135 485.551
1972 0 77.2754 12.3972 958 114.722 479.183 486.117
1973 0 78.3087 11.825 926 116.73 478.848 485.122
1974 0 82.2114 12.1273 997 116.675 479.268 481.784
1975 0 85.2307 11.9441 1018 116.592 479.442 482.718
1976 0 88.4898 12.024 1064 116.159 479.328 480.513
1977 0 90.2027 12.0839 1090 115.655 479.51 477.983
1978 0 93.287 11.8559 1106 116.016 480.102 479.917
1979 0 98.4278 12.3339 1214 115.075 479.852 476.182
1980 0 97.193 12.254 1191 118.392 478.678 468.187
1981 0 100.248 11.7808 1181 119.928 479.1 470.154
1982 0 105.32 12.3148 1297 118.917 479.015 469.262
1983 0 109.472 12.4963 1368 118.488 479.102 463.136
1984 0 114.49 13.0055 1489 113.864 479.531 466.762
1985 0 117.209 11.9103 1396 117.362 479.4 465.415
1986 0 121.565 13.6964 1665 114.959 479.955 461.651
1987 0 126.463 12.3752 1565 118.53 479.812 460.524
1988 0 130.349 13.2337 1725 118.741 479.741 460.589
1989 0 136.248 12.1396 1654 124.062 480.094 462.649
1990 0 142.422 13.7549 1959 121.404 480.459 456.481
1991 1 74.1619 12.0547 894 124.681 480.814 490.126
1992 0 77.2482 13.0747 1010 121.763 480.472 488.174
1993 0 77.169 12.9845 1002 127.506 480.141 482.597
1994 0 81.2707 13.375 1087 127.109 479.235 485.736
1995 0 85.2844 13.5312 1154 126.214 479.568 483.881
1996 0 86.2072 12.702 1095 128.355 479.998 483.304
1997 0 89.2202 13.5507 1209 127.941 479.859 478.178
1998 0 93.2652 13.9816 1304 125.946 479.896 477.869
1999 0 98.234 13.0199 1279 122.381 479.581 479.464
2000 0 100.263 13.2551 1329 122.029 479.59 476.634
2001 0 102.285 12.8074 1310 117.821 479.938 474.456
2002 0 109.243 12.4768 1363 117.391 479.596 473.136
2003 1 50.0992 12.116 607 115.835 481.344 500.56
2004 0 51.1342 12.1445 621 115.886 480.85 500.341
2005 0 53.1256 11.7834 626 112.241 480.829 499.636
2006 0 54.1373 11.8218 640 112.381 481.184 499.256
2007 0 58.1925 13.4725 784 108.013 480.867 497.899
2008 0 59.257 12.2517 726 111.492 480.908 496.835
2009 0 60.3251 12.5984 760 109.987 480.658 497.308
2010 0 62.4206 13.5692 847 107.306 480.635 495.954
2011 0 66.2118 12.8074 848 108.685 480.837 494.442
2012 0 65.2619 12.0591 787 111.654 480.667 494.982
2013 0 68.1905 12.773 871 110.265 480.789 492.506
2014 0 72.3443 12.9105 934 110.948 480.175 486.995
2015 0 72.2436 12.97 937 111.923 479.978 488.745
2016 0 74.1637 12.9578 961 112.254 479.696 487.905
2017 0 77.1648 13.0759 1009 111.93 479.634 487.39
2018 0 79.1841 11.9216 944 115.406 479.922 483.948
2019 0 83.1261 12.6434 1051 111.871 480.318 486.645
2020 0 85.2154 12.7794 1089 113.554 479.859 482.582
2021 0 88.2606 12.9616 1144 114.781 479.716 481.232
2022 0 91.2604 12.689 1158 115.521 479.826 480.771
2023 0 92.3436 12.2802 1134 117.875 480.13 478.755
2024 0 94.4517 12.6731 1197 117.438 479.389 476.859
2025 0 99.308 13.7149 1362 115.377 479.61 473.151
2026 0 102.327 13.2516 1356 117.001 479.698 470.688
2027 0 104.346 13.3115 1389 116.157 479.285 467.701
2028 1 54.2734 12.4739 677 107.211 479.282 492.127
2029 0 57.2729 12.5888 721 106.458 478.526 492.427
2030 0 59.3082 12.1231 719 106.718 478.353 492.562
2031 0 60.2438 12.8976 777 109.924 481.517 495.534
2032 0 62.1822 12.592 783 110.384 481.512 494.458
2033 0 63.1504 12.4623 787 111.784 481.452 492.74
2034 0 65.2331 13.5514 884 108.337 481.19 492.362
2035 0 67.4302 13.97 942 108.154 480.364 490.501
2036 0 69.175 12.996 899 110.585 480.67 491.752
2037 0 70.2409 12.7134 893 111.838 480.953 492.445
2038 0 72.3022 12.0467 871 115.454 480.773 488.813
2039 0 75.2874 13.0168 980 112.853 480.855 488.98
2040 0 79.2454 14.0828 1116 112.632 480.549 486.385
2041 0 80.2182 12.279 985 118.845 480.904 485.783
2042 0 83.3441 13.0423 1087 116.602 480.379 484.669
2043 0 88.2569 13.3134 1175 115.826 481.007 483.992
2044 0 91.2891 13.6051 1242 117.424 480.602 480.31
2045 0 93.2716 13.7341 1281 117.663 480.687 479.92
2046 0 95.4626 13.3351 1273 119.088 481.324 479.742
2047 0 100.474 13.6353 1370 117.369 480.799 475.294
2048 0 103.362 13.1383 1358 119.292 481.328 474.392
2049 0 107.423 13.0699 1404 118.432 481.126 473.924
2050 0 112.493 13.6987 1541 116.147 480.827 470.942
2051 0 115.327 12.6684 1461 118.282 481.073 468.779
2052 1 61.1001 11.7021 715 113.446 480.881 494.102
2053 0 60.2119 11.5758 697 118.353 481.684 495.584
2054 0 62.2118 11.2519 700 119.747 481.631 496.164
2055 0 65.1381 12.7729 832 117.375 481.46 492.917
2056 0 67.332 11.4656 772 117.6 480.488 494.051
2057 0 68.2435 12.0451 822 117.397 480.605 492.764
2058 0 72.3188 13.0533 944 114.864 480.39 490.862
2059 0 74.251 13.6429 1013 112.482 480.544 492.596
2060 0 76.2005 13.1495 1002 115.877 481.069 489.845
2061 0 77.2701 13.0581 1009 116.773 480.288 489.256
2062 0 81.2138 13.6061 1105 116.51 481.704 486.164
2063 0 85.1697 13.3498 1137 115.954 481.509 486.685
2064 0 84.3785 12.2662 1035 120.602 480.885 483.774
2065 0 90.291 12.6923 1146 118.32 480.96 483.464
2066 0 91.4948 11.3558 1039 122.705 480.942 482.887
2067 0 96.6641 13.0555 1262 118.711 480.599 477.246
2068 1 55.1958 11.2146 619 122.74 481.292 496.94
2069 0 56.3051 13.5156 761 116.321 481.066 496.876
2070 0 59.6996 13.4004 800 122.286 479.958 491.492
2071 0 61.2569 13.6964 839 121.025 480.626 496.079
2072 0 63.3131 13.7728 872 121.987 481.078 495.021
2073 0 64.3276 13.0582 840 126.439 480.433 493.81
2074 0 66.2905 13.5012 895 124.194 480.333 494.221
2075 0 68.7062 14.3655 987 123.071 479.657 492.891
2076 0 69.4909 13.2104 918 126.875 479.652 492.276
2077 0 72.4139 14.4309 1045 123.672 479.499 489.18
2078 0 74.2914 13.8912 1032 126.537 479.576 488.786
2079 0 77.3728 14.4883 1121 124.527 478.972 487.352
2080 0 78.3712 13.9209 1091 127.57 479.21 485.741
2081 0 80.5382 13.6705 1101 127.433 478.871 485.338
2082 0 83.3731 14.1652 1181 127.124 478.659 483.184
2083 0 87.5383 14.6679 1284 126.21 478.168 482.581
2084 0 87.5883 14.0544 1231 128.807 478.575 480.636
2085 0 92.5255 15.5957 1443 123.967 478.405 477.85
2086 0 92.4625 14.5464 1345 129.106 479.179 476.813
2087 0 96.6277 14.3851 1390 128.302 478.976 475.491
2088 0 99.6156 13.9938 1394 125.539 478.811 473.235
2089 0 102.359 14.1463 1448 119.644 477.984 473.602
2090 0 106.323 14.8697 1581 119.412 477.615 469.338
2091 0 107.616 13.1671 1417 123.876 477.477 470.054
2092 1 55.0887 12.7431 702 116.671 478.523 495.442
2093 0 58.1946 12.9565 754 115.687 478.268 496.568
2094 0 57.1428 12.95 740 117.307 479.87 496.114
2095 0 60.1328 13.6032 818 114.539 479.392 496.565
2096 0 61.0975 13.8304 845 115.226 479.471 494.509
2097 0 64.1395 13.5486 869 114.959 479.235 494.776
2098 0 64.1141 13.242 849 116.91 479.648 494.111
2099 0 65.1414 12.4345 810 118.563 479.173 492.225
2100 0 69.1978 15.0727 1043 112.345 479.618 490.18
2101 0 72.1082 13.2856 958 114.946 479.602 490.889
2102 0 72.1616 14.1072 1018 113.213 479.785 488.366
2103 0 77.3431 14.1965 1098 112.606 479.97 486.195
2104 0 78.473 13.9538 1095 113.921 479.861 483.943
2105 0 81.5036 12.7479 1039 114.708 479.855 485.094
2106 0 86.6394 14.1737 1228 113.96 479.495 482.559
2107 0 89.4099 14.5062 1297 111.428 479.781 481.6
2108 0 93.276 14.3981 1343 114.187 479.816 478.526
2109 1 49.5377 12.657 627 110.668 479.668 499.088
2110 0 51.3557 13.0073 668 110.007 479.813 498.741
2111 0 52.2655 13.3932 700 109.747 479.983 500.16
2112 0 52.2377 14.0129 732 110.709 479.63 497.31
2113 0 55.459 14.8218 822 107.777 479.687 496.364
2114 0 57.0549 13.7762 786 114.478 479.798 496.786
2115 0 56.0705 13.1442 737 117.541 479.294 497.406
2116 0 61.1054 12.9776 793 117.037 479.948 495.166
2117 0 63.2796 13.3534 845 116.317 480.289 493.428
2118 0 64.4772 13.6017 877 116.731 479.959 491.865
2119 0 67.2994 13.9229 937 116.589 479.63 490.231
2120 0 69.2551 14.165 981 116.825 479.36 488.591
2121 0 70.3666 14.2681 1004 117.14 479.187 489.262
2122 0 72.3405 15.1091 1093 115.684 479.542 488.412
2123 0 76.3196 14.2034 1084 117.42 479.091 485.838
2124 0 79.5321 14.5727 1159 118.116 478.863 483.615
2125 0 84.6865 13.0481 1105 119.886 479.91 483.34
2126 0 85.4795 14.5883 1247 118.067 479.593 480.72
2127 0 89.4423 13.8749 1241 119.39 479.168 479.691
2128 0 90.4992 13.1161 1187 122.687 479.381 476.738
2129 0 95.4948 14.6081 1395 119.027 479.56 476.138
2130 0 97.5826 14.4903 1414 119.642 479.172 474.028
2131 0 101.195 13.9631 1413 121.191 479.304 471.728
2132 1 55.214 13.8733 766 111.723 479.2 495.533
2133 0 58.16 14.89 866 110.251 478.764 496.539
2134 0 59.1954 12.3827 733 116.308 479.119 495.58
2135 0 61.1996 12.7779 782 116.017 479.246 494.843
2136 0 64.2296 13.7164 881 113.637 479.304 494.081
2137 0 65.4171 12.4738 816 116.751 479.086 494.565
2138 0 66.3659 11.3763 755 120.07 479.476 492.951
2139 0 69.264 12.6473 876 116.384 478.663 492.221
2140 0 72.4309 12.6465 916 117.878 479.55 489.179
2141 0 75.4865 13.9628 1054 115.354 478.753 486.129
2142 0 78.4613 12.8726 1010 117.12 478.523 487.423
2143 0 80.3169 13.3596 1073 116.318 478.527 483.587
2144 0 85.3197 14.557 1242 112.866 478.345 482.805
2145 0 87.258 13.0762 1141 117.231 477.47 475.277
2146 0 89.3744 12.4756 1115 119.277 477.562 471.261
2147 1 49.2538 11.9382 588 116.352 478.044 492.743
2148 0 48.2272 11.902 574 118.402 478.449 497.864
2149 0 52.5757 12.4012 652 106.419 477.601 496.621
2150 0 52.2191 12.6391 660 105.035 477.329 497.63
2151 0 55.1761 13.4478 742 102.155 477.216 497.162
2152 0 58.1565 12.965 754 101.919 477.54 497.581
2153 0 58.2314 11.523 671 106 477.909 496.586
2154 0 60.1157 11.7108 704 106.599 477.675 494.577
2155 0 62.1861 11.948 743 105.506 478.296 493.853
2156 0 64.2075 12.2727 788 105.284 478.48 492.467
2157 0 68.1846 11.7768 803 105.98 477.579 491.466
2158 0 69.1041 11.5767 800 108.144 478.312 489.194
2159 0 74.1799 12.7123 943 105.694 477.998 486.701
2160 0 76.2009 12.2833 936 107.416 478.483 485.327
2161 0 79.0968 12.4152 982 107.842 477.645 483.797
2162 0 80.1626 11.302 906 111.326 478.347 483.383
2163 0 84.1733 11.7971 993 110.123 478.031 480.869
2164 0 87.1736 11.5861 1010 111.46 477.985 479.052
2165 1 43.1418 11.1725 482 101.149 480.257 501.691
2166 0 45.2101 10.6613 482 103.249 479.697 497.699
2167 0 49.2117 9.06288 446 102.769 479.753 499.61
2168 0 50.3033 12.0271 605 98.1554 480.304 499.276
2169 0 52.1416 10.2989 537 101.354 480.084 501.043
2170 0 52.1751 10.6373 555 103.054 479.991 499.297
2171 0 53.2892 10.7339 572 101.474 480.455 498.706
2172 0 54.3014 11.6572 633 100.899 480.052 497.705
2173 0 56.3129 10.637 599 103.401 479.806 494.888
2174 0 58.5249 13.0543 764 111.526 479.859 495.872
2175 0 62.401 12.4357 776 113.437 479.606 495.049
2176 0 63.3288 13.043 826 111.847 479.446 495.012
2177 0 64.6555 11.7391 759 115.333 479.278 493.922
2178 0 66.4379 12.4176 825 114.432 479.355 493.423
2179 0 68.4757 12.9097 884 113.305 479.181 491.462
2180 0 68.4363 12.1719 833 116.992 479.641 492.14
2181 0 68.5022 13.1529 901 118.752 479.022 490.78
2182 0 72.549 13.7286 996 117.012 479.384 490.193
2183 0 75.5976 14.4052 1089 113.544 479.212 489.741
2184 0 76.5507 14.4871 1109 113.82 479.362 486.71
2185 0 77.8011 13.226 1029 117.409 479.361 486.278
2186 0 78.6256 13.7105 1078 118.287 479.435 483.05
2187 0 81.7484 12.9421 1058 120.638 479.019 482.613
2188 0 86.7571 14.2467 1236 115.379 479.828 480.921
2189 0 89.8816 12.9615 1165 118.353 478.785 478.442
2190 0 93.7266 12.7072 1191 119.073 478.673 475.259
2191 0 95.5104 11.0145 1052 115.11 478.828 479.055
2192 0 93.3016 10.8573 1013 115.689 478.755 475.127
2193 1 51.2628 10.8266 555 106.602 480.05 498.36
2194 0 51.2144 10.9735 562 108.69 478.596 493.931
2195 0 54.2834 10.6847 580 109.248 479.921 494.817
2196 0 58.0634 11.608 674 103.81 480.858 497.956
2197 0 60.0413 12.9244 776 105.268 480.624 495.356
2198 0 61.0291 12.6005 769 105.13 480.813 496.598
2199 0 61.0371 12.1893 744 108.613 480.649 495.683
2200 0 64.1321 13.5813 871 105.025 481.015 493.959
2201 0 64.1722 11.8743 762 109.643 480.5 492.51
2202 0 66.152 10.9596 725 111.095 479.91 492.412
2203 0 71.1454 12.4393 885 106.19 480.371 490.96
2204 0 72.1714 11.8607 856 107.624 480.39 489.263
2205 0 75.1407 12.4433 935 106.07 480.171 488.139
2206 0 78.1751 12.1522 950 106.18 480.408 486.185
2207 0 80.2484 12.2619 984 111.525 479.918 486.542
2208 0 84.2445 11.7159 987 118.501 477.48 483.553
2209 0 86.5418 12.6528 1095 117.527 478.188 477.531
2210 0 91.1774 11.527 1051 118.293 477.586 481.919
2211 1 49.1093 12.2176 600 113.588 478.755 499.193
2212 0 51.0867 12.0188 614 111.764 480.433 499.047
2213 0 52.1129 12.7032 662 112.447 480.878 499.003
2214 0 54.1141 10.9214 591 117.249 478.105 498.323
2215 0 55.1414 11.4433 631 116.311 478.149 498.07
2216 0 55.146 11.6418 642 119.218 478.02 495.612
2217 0 60.1412 12.7367 766 114.923 476.341 493.727
2218 0 61.1278 13.2018 807 114.235 476.461 492.96
2219 0 60.0995 10.7655 647 121.981 477.624 494.104
2220 0 63.0906 12.6009 795 117.323 476.862 490.669
2221 0 64.3076 12.9845 835 115.901 479.782 492.342
2222 0 66.3139 12.8329 851 117.286 479.879 490.417
2223 0 69.324 13.1989 915 116.549 479.825 489.674
2224 0 70.2349 12.4582 875 119.254 479.939 488.877
2225 0 72.525 13.747 997 116.351 479.635 488.428
2226 0 73.2386 13.0532 956 119.415 480.15 487.162
2227 0 75.423 12.9536 977 120.088 480.332 486.8
2228 0 78.372 13.5252 1060 118.653 480.16 485.295
2229 0 80.3526 12.4451 1000 120.983 479.892 485.519
2230 0 81.3069 13.037 1060 120.778 479.663 482.757
2231 0 85.3906 13.245 1131 120.933 479.089 480.469
2232 0 87.2761 13.2339 1155 122.072 479.589 479.331
2233 0 90.3346 13.2065 1193 122.619 479.612 478.459
2234 0 95.3757 13.9448 1330 120.012 479.637 477.829
2235 0 96.4081 13.0798 1261 123.676 479.857 476.477
2236 1 52.2463 11.1013 580 119.998 481.457 501.553
2237 0 52.1059 11.3423 591 124.619 480.479 499.21
2238 0 51.026 12.0331 614 120.109 480.881 498.832
2239 0 52.1504 12.7516 665 115.695 480.72 497.45
2240 0 53.136 12.3457 656 118.107 480.643 497.448
2241 0 56.0828 13.2483 743 115.039 480.864 496.798
2242 0 57.0855 13.1732 752 116.574 480.992 496.007
2243 0 58.1689 12.1543 707 118.976 480.389 497.672
2244 0 60.1433 13.0355 784 117.865 480.329 495.157
2245 0 63.0637 13.6687 862 115.483 480.26 494.201
2246 0 63.1217 13.1492 830 118.231 480.239 492.272
2247 0 66.2121 12.4297 823 121.063 480.013 492.284
2248 0 67.2156 13.0922 880 119.155 480.139 491.953
2249 0 70.3231 12.4568 876 121.137 480.042 491.424
2250 0 69.1113 11.8215 817 126.509 480.635 492.532
2251 0 71.1946 12.3464 879 125.418 480.249 490.675
2252 0 75.4654 13.1583 993 124.164 479.67 487.972
2253 0 77.7485 12.5662 977 124.792 478.861 486.292
2254 0 79.5651 12.2038 971 126.253 479.657 484.756
2255 0 82.6945 12.5643 1039 125.716 479.479 482.106
2256 0 85.6396 12.973 1111 125.21 478.702 481.257
2257 0 88.7127 13.7861 1223 123.362 479.241 478.939
2258 0 93.7821 14.2884 1340 120.077 478.431 479.543
2259 1 50.2103 10.4959 527 114.795 477.049 502.596
2260 0 51.3353 10.8502 557 113.607 477.772 501.391
2261 0 51.5352 12.3993 639 112.122 477.801 500.768
2262 0 53.1203 12.387 658 109.828 479.582 504.792
2263 0 56.3808 11.7771 664 107.563 477.426 500.892
2264 0 58.28 12.8003 746 108.223 476.464 503.283
2265 0 58.3311 12.549 732 110.246 476.824 502.66
2266 0 60.2557 12.3806 746 110.13 476.342 503.381
2267 0 62.2965 12.6813 790 109.294 476.306 502.64
2268 0 64.1792 12.2158 784 106.88 476.255 499.673
2269 0 67.2005 13.3779 899 103.385 475.81 502.32
2270 0 68.1528 11.5036 784 108.273 475.631 501.153
2271 0 69.134 12.3239 852 108.337 474.493 503.183
2272 0 72.1948 12.9234 933 106.726 474.073 500.282
2273 0 75.1859 12.8615 967 107.644 473.884 499.241
2274 0 77.2009 13.1475 1015 106.77 474.261 498.975
2275 0 78.155 12.9742 1014 108.825 474.038 496.94
2276 0 82.0824 13.523 1110 107.923 473.496 494.686
2277 0 83.1258 11.7292 975 112.544 473.136 494.127
2278 0 88.2504 13.303 1174 108.043 473.687 492.347
2279 0 90.155 13.5988 1226 108.816 473.592 489.96
2280 0 93.1934 13.9709 1302 109.574 473.055 487.818
2281 1 49.1774 11.3873 560 111.596 472.393 509.421
2282 0 51.2139 12.0866 619 111.683 472.535 507.483
2283 0 49.1576 11.3309 557 114.557 472.774 508.713
2284 0 54.2585 12.5879 683 111.943 475.846 507.798
2285 0 56.3002 13.4635 758 110.277 474.398 506.89
2286 0 57.1804 13.4137 767 110.849 474.634 505.725
2287 0 57.3277 12.8734 738 113.332 474.966 505.206
2288 0 62.3291 13.4127 836 109.086 474.397 505.574
2289 0 62.2716 12.9594 807 109.033 473.628 505.525
2290 0 65.225 12.8018 835 108.491 473.83 504.666
2291 0 66.1154 13.4159 887 107.486 474.28 504.899
2292 0 69.234 13.3461 924 107.211 474.193 504.435
2293 0 73.2351 13.4635 986 105.945 473.407 502.977
2294 0 74.209 13.0442 968 105.806 474.498 501.225
2295 0 78.2744 13.3632 1046 104.151 474.272 503.531
2296 0 80.2504 13.408 1076 105.153 474.341 501.138
2297 0 82.1799 12.4726 1025 108.724 474.962 499.085
2298 0 84.1735 11.7971 993 110.265 474.807 499.569
2299 0 88.2385 13.1688 1162 108.614 474.149 494.97
2300 1 49.1976 12.338 607 108.563 474.873 514.952
2301 0 48.0674 11.3798 547 111.819 475.137 512.702
2302 0 50.1706 12.7764 641 104.17 474.863 511.88
2303 0 51.1497 11.8867 608 104.396 474.584 513.184
2304 0 55.1733 13.6117 751 96.8016 475.165 511.744
2305 0 55.0817 13.253 730 98.6699 475.2 509.045
2306 0 58.1397 13.6568 794 96.9622 474.566 510.664
2307 0 59.184 12.6217 747 99.6426 474.772 508.952
2308 0 58.0631 11.8147 686 102.254 474.678 509.219
2309 0 61.1531 12.1662 744 101.099 474.724 506.663
2310 0 64.1753 13.0736 839 99.2694 474.125 504.965
2311 0 67.2149 12.3782 832 99.6791 473.912 504.791
2312 0 67.1382 11.8561 796 101.421 474.077 503.814
2313 0 71.185 12.7976 911 99.9934 473.73 500.597
2314 0 72.221 11.9494 863 101.504 474.443 501.266
2315 0 75.2906 12.9365 974 100.184 473.628 499.157
2316 0 78.2639 12.6367 989 100.414 473.739 497.285
2317 0 79.2564 11.507 912 96.8147 473.19 492.355
2318 0 81.4919 12.5779 1025 95.3141 473.046 492.7
2319 0 83.2819 13.0761 1089 95.4215 472.942 488.831
2320 0 84.5126 11.5722 978 98.8027 473.296 487.324
2321 0 88.3107 12.1729 1075 98.0521 474.032 488.359
2322 0 88.2354 8.63599 762 104.114 474.126 487.902
2323 0 91.401 11.3018 1033 100.928 474.404 485.045
2324 0 95.4271 12.334 1177 101.056 473.523 481.018
2325 0 94.2818 10.511 991 105.764 474.156 479.093
2326 1 54.4795 10.3709 565 98.6832 473.173 501.867
2327 0 58.1784 11.6194 676 95.3831 475.157 505.565
2328 0 60.0479 13.1062 787 91.3062 474.82 502.619
2329 0 61.0903 12.0968 739 94.0447 475.103 501.384
2330 0 61.0674 11.299 690 96.1493 474.726 499.751
2331 0 63.2021 13.0534 825 93.1758 473.822 499.297
2332 0 66.1319 12.3238 815 94.8184 474.368 499.551
2333 0 68.0888 13.8055 940 91.7532 473.836 497.365
2334 0 72.2814 12.479 902 94.0166 473.376 496.335
2335 0 72.1258 12.7278 918 93.7582 473.696 491.939
2336 0 75.2499 12.4651 938 95.4328 473.591 491.788
2337 0 77.1336 11.7199 904 99.5675 474.279 492.576
2338 0 81.1993 12.7464 1035 98.37 474.375 489.842
2339 0 82.1168 13.7852 1132 97.6678 474.158 487.337
2340 0 85.1432 13.1778 1122 99.82 474.538 486.024
2341 0 87.214 12.4292 1084 102.442 474.438 485.919
2342 0 91.2426 13.2394 1208 101.977 474.368 482.051
2343 0 93.2034 13.2184 1232 103.522 474.651 482.173
2344 0 94.2217 11.7489 1107 106.739 475.006 480.301
2345 0 99.4519 13.0113 1294 105.627 475.076 478.039
2346 1 52.2286 10.3583 541 107.458 475.235 498.194
2347 0 55.3054 11.8072 653 111.037 473.923 495.793
2348 0 58.1812 11.7392 683 111.458 474.54 494.88
2349 0 58.4053 12.944 756 111.146 475.349 494.745
2350 0 59.2943 12.2946 729 113.535 474.613 492.381
2351 0 65.2873 11.5643 755 112.575 475.181 493.036
2352 0 64.1445 12.1289 778 114.062 475.776 490.206
2353 0 68.11 12.01 818 113.366 474.91 490.397
2354 0 68.0844 13.1601 896 111.357 475.042 488.77
2355 0 72.0477 12.1447 875 113.642 474.879 487.047
2356 0 73.0491 11.855 866 115.217 474.427 484.564
2357 0 76.1983 11.3257 863 114.338 474.545 483.161
2358 0 78.0448 12.0572 941 109.82 474.758 480.303
2359 0 83.0813 12.8428 1067 107.771 474.739 481.151
2360 0 85.1134 11.5728 985 111.381 474.927 478.176
2361 0 89.153 10.8577 968 111.654 475.384 477.632
2362 0 92.1437 13.1751 1214 107.253 475.357 476.072
2363 0 96.1667 13.0503 1255 107.759 474.693 474.555
2364 1 50.1252 10.9725 550 101.171 475.247 500.211
2365 0 51.1605 10.4182 533 107.58 475.709 496.368
2366 0 52.0562 11.891 619 96.7738 476.748 493.184
2367 0 54.1901 12.6222 684 96.114 476.31 491.208
2368 0 55.0822 11.4919 633 98.1216 476.378 492.332
2369 0 57.1192 12.3951 708 95.7274 476.261 492.929
2370 0 59.0941 12.7424 753 94.6481 476.659 490.942
2371 0 62.1246 10.7043 665 98.0692 476.402 491.038
2372 0 61.1554 11.528 705 97.2496 476.506 488.702
2373 0 65.1655 11.5552 753 96.2125 477.154 486.667
2374 0 62.275 12.509 779 96.3004 476.445 482.814
2375 0 66.1462 10.9908 727 98.9367 476.835 482.763
2376 0 66.0608 12.0949 799 97.8298 477.125 479.864
2377 0 71.2167 12.0899 861 97.4599 476.172 481.484
2378 0 71.1217 12.7106 904 96.5763 477.01 479.545
2379 0 76.487 13.0218 996 95.2159 477.603 479.443
2380 0 79.1244 11.9306 944 97.1134 476.822 477.431
2381 0 81.2952 12.0302 978 97.4724 477.427 476.062
2382 0 82.2278 12.0762 993 97.5952 476.795 474.179
2383 0 88.168 12.3628 1090 96.3771 477.212 471.651
2384 0 90.2009 13.7914 1244 93.7211 477.339 471.965
2385 0 92.3317 14.253 1316 93.4141 477.377 469.284
2386 0 97.3238 12.6691 1233 95.5653 477.682 468.967
2387 0 101.561 13.8241 1404 94.1289 477.024 463.967
2388 1 51.1997 10.1368 519 95.0848 477.146 489.715
2389 0 57.3494 11.1945 642 95.3115 477.836 490.327
2390 0 59.3568 12.3659 734 96.4796 479.139 493.951
2391 0 59.1193 10.5042 621 99.628 479.51 495.251
2392 0 61.3249 11.3168 694 99.4265 479.065 492.765
2393 0 66.1992 13.8975 920 94.4587 478.857 492.177
2394 0 68.2895 12.4617 851 98.255 478.758 491.682
2395 0 70.3273 13.3661 940 96.5798 478.818 491.304
2396 0 73.3202 13.7752 1010 97.3614 478.968 488.87
2397 0 72.4153 11.4617 830 103.078 478.566 488.623
2398 0 75.3382 11.9461 900 102.473 478.594 486.974
2399 0 79.2907 13.9108 1103 97.8314 478.611 486.158
2400 0 82.288 13.3798 1101 97.2461 478.662 483.832
2401 0 85.3005 13.5286 1154 97.8822 478.432 480.383
2402 0 86.3639 12.3547 1067 101.217 478.295 479.778
2403 0 90.3146 13.3976 1210 99.5298 478.575 479.994
2404 0 93.3305 13.8326 1291 98.6607 478.001 478.686
2405 0 97.1787 12.7394 1238 101.047 478.666 475.774
2406 0 100.51 12.8943 1296 100.907 478.489 474.002
2407 0 104.386 12.5688 1312 101.829 478.344 473.22
2408 1 55.1108 10.0888 556 98.3579 479.827 498.268
2409 0 56.1342 9.67326 543 102.015 478.595 491.602
2410 0 56.0275 10.477 587 102.543 480.078 491.242
2411 0 59.0583 10.2441 605 104.155 480.055 490.788
2412 0 59.0557 10.38 613 104.622 480.055 489.493
2413 0 62.0697 9.71489 603 106.983 479.904 487.632
2414 0 64.0404 10.3216 661 106.439 479.755 485.523
2415 0 69.0934 12.1864 842 101.945 479.679 486.565
2416 0 72.0644 12.5721 906 102.466 479.328 485.418
2417 0 74.1692 11.7164 869 101.833 479.333 484.974
2418 0 74.1141 11.8871 881 106.17 479.191 484.049
2419 0 78.1649 12.448 973 104.906 478.965 483.213
2420 0 82.1012 11.6929 960 107.12 479.298 480.068
2421 0 84.0925 12.7954 1076 98.1747 477.719 481.324
2422 0 86.1599 11.7804 1015 101.441 476.898 478.142
2423 0 90.2442 12.2335 1104 100.847 478.293 477.737
2424 0 93.3876 11.9181 1113 102.112 478.361 479.764
2425 0 93.1494 12.2706 1143 108.946 479.074 474.871
2426 1 52.0671 10.9474 570 108.754 479.793 496.742
2427 0 52.2964 11.4348 598 109.564 477.62 493.252
2428 0 55.1177 11.8292 652 119.406 480.301 498.285
2429 0 57.0696 12.7213 726 116.153 479.441 499.904
2430 0 58.1291 12.1454 706 120.458 479.98 496.123
2431 0 60.1459 12.5362 754 121.21 480.041 494.631
2432 0 63.1012 13.1693 831 118.762 480.442 495.242
2433 0 64.2219 11.8495 761 122.83 479.984 494.556
2434 0 67.1078 13.8285 928 117.051 479.591 493.529
2435 0 66.1243 12.7487 843 122.397 479.628 492.439
2436 0 70.1228 12.036 844 124.075 479.276 493.232
2437 0 72.1619 13.3589 964 122.046 480.006 489.794
2438 0 74.3015 13.7413 1021 120.654 479.12 489.903
2439 0 73.4074 12.9415 950 125.691 478.351 490.048
2440 0 77.431 13.2893 1029 125.248 478.881 488.74
2441 0 81.3304 14.0784 1145 123.703 478.385 487.116
2442 0 82.3963 14.1026 1162 125.244 478.056 484.762
2443 0 83.4816 12.7573 1065 131.07 478.278 485.08
2444 0 86.4562 13.6717 1182 129.114 478.007 484.349
2445 0 89.3112 14.5782 1302 128.803 478.273 482.443
2446 0 90.3766 13.3774 1209 133.611 478.032 480.165
2447 0 94.524 13.4569 1272 133.994 477.857 477.182
2448 0 97.5631 14.3292 1398 132.128 477.8 475.145
2449 0 99.5425 13.2305 1317 135.039 477.72 476.241
2450 0 104.444 13.1458 1373 135.385 478.476 471.883
2451 0 108.614 14.9705 1626 129.183 479.204 468.799
2452 1 60.1508 11.4712 690 115.717 479.546 498.461
2453 0 63.3565 11.2696 714 116.315 477.632 489.689
2454 0 65.2303 11.3751 742 112.507 478.668 494.133
2455 0 65.2463 11.8627 774 113.579 478.791 492.111
2456 0 68.2578 11.6324 794 115.218 478.322 492.768
2457 0 71.1647 11.6912 832 114.966 478.332 491.501
2458 0 71.2275 10.7543 766 118.235 478.257 491.736
2459 0 75.2669 12.9539 975 112.677 478.351 491.029
2460 0 74.1785 11.378 844 116.268 478.714 490.598
2461 0 76.2395 11.2409 857 116.146 478.624 489.005
2462 0 80.2402 13.2477 1063 111.731 478.769 485.253
2463 0 84.5146 12.4712 1054 112.004 478.567 484.036
2464 0 85.3029 11.8753 1013 113.723 479.064 482.943
2465 0 87.3369 12.8239 1120 111.055 478.933 480.174
2466 0 90.3151 10.563 954 114.8 478.616 479.121
2467 0 96.4385 12.8372 1238 109.746 478.349 477.214
2468 0 97.362 13.2906 1294 108.937 478.386 476.777
2469 0 100.301 12.602 1264 110.341 479.806 470.212
2470 0 101.381 12.2903 1246 111.004 478.794 472.936
2471 0 103.554 12.8435 1330 111.37 478.623 466.242
2472 0 109.684 13.776 1511 105.418 479.504 469.106
2473 0 112.871 13.6882 1545 106.058 478.773 466.588
2474 0 114.438 12.4784 1428 109.16 478.768 465.599
2475 0 118.506 12.472 1478 109.227 478.769 465.28
2476 0 121.542 11.9959 1458 112.213 479.57 460.846
2477 0 126.303 12.4779 1576 110.993 479.949 459.561
2478 1 68.2431 12.0159 820 100.294 480.182 487.005
2479 0 69.4418 10.5124 730 102.993 479.314 484.956
2480 0 73.3405 11.2216 823 100.295 480.078 486.638
2481 0 75.241 11.4166 859 100.652 479.764 487.534
2482 0 75.2413 11.39 857 102.099 479.219 483.557
2483 0 75.1914 10.3336 777 104.376 478.891 480.229
2484 0 81.1977 11.552 938 101.534 478.612 479.755
2485 0 83.2075 11.4293 951 101.367 479.34 481.065
2486 0 86.2781 10.6168 916 102.52 478.973 477.507
2487 0 89.2107 11.669 1041 100.331 479.125 477.897
2488 0 92.1782 10.6858 985 102.879 478.82 475.422
2489 0 95.3565 12.5109 1193 100.875 478.464 474.365
2490 0 95.1686 9.64604 918 107.092 477.754 472.84
2491 0 100.508 12.1284 1219 104.261 478.206 468.982
2492 0 102.246 11.9222 1219 107.408 478.271 467.08
2493 0 107.343 12.297 1320 105.646 478.401 466.707
2494 0 113.313 11.4197 1294 106.162 477.999 468.433
2495 0 115.337 9.99682 1153 110.79 477.981 466.86
2496 0 119.377 13.8804 1657 109.42 478.847 462.435
2497 0 123.319 12.1312 1496 113.486 478.654 463.051
2498 0 126.311 12.6276 1595 113.404 478.682 459.691
2499 1 69.1129 11.8068 816 112.838 480.261 485.205
2500 0 71.062 12.4258 883 111.542 480.009 486.655
2501 0 76.0693 11.9365 908 110.6 480.297 487.795
2502 0 75.0618 11.5105 864 113.892 479.742 485.054
2503 0 79.1032 11.327 896 114.378 479.785 484.056
2504 0 80.1243 12.568 1007 112.215 479.855 482.999
2505 0 82.1589 10.8327 890 115.045 480.143 482.981
2506 0 85.1014 11.3042 962 114.34 479.873 481.47
2507 0 90.216 12.3038 1110 112.398 479.599 478.706
2508 0 92.1906 11.9643 1103 113.148 479.918 478.056
2509 0 93.2991 11.8651 1107 113.762 479.643 476.163
2510 0 95.1184 12.5107 1190 114.054 479.889 473.882
2511 0 97.3149 11.5604 1125 116.483 479.892 473.968
2512 0 100.156 13.0196 1304 114.161 479.814 471.331
2513 0 101.263 12.7589 1292 115.506 480.156 471.259
2514 0 106.298 13.3211 1416 112.993 479.599 468.58
2515 0 110.353 14.6529 1617 109.585 479.762 466.443
2516 0 112.385 13.9432 1567 111.779 479.594 466.295
2517 0 111.362 11.6198 1294 110.416 479.012 464.952
2518 0 119.326 13.5763 1620 111.173 478.831 462.958
2519 1 66.1782 12.8743 852 103.526 480.621 490.893
2520 0 68.0606 12.0628 821 108.336 480.563 489.381
2521 0 69.1846 13.1388 909 106.349 480.447 487.161
2522 0 72.1476 12.6269 911 105.575 480.911 487.967
2523 0 75.2378 12.2146 919 105.469 480.962 486.247
2524 0 75.1688 12.146 913 105.14 480.39 485.674
2525 0 78.4214 12.9429 1015 104.256 480.211 482.444
2526 0 84.2045 12.6715 1067 103.324 480.234 484.524
2527 0 86.3045 12.8962 1113 101.032 480.061 481.988
2528 0 88.3134 11.8555 1047 97.8768 480.018 478.45
2529 0 90.3365 9.98489 902 101.026 479.344 478.481
2530 1 49.1422 9.82862 483 95.7888 480.857 492.853
2531 0 51.1918 11.4667 587 98.4157 480.625 493.612
2532 0 52.2842 11.4949 601 97.6073 477.622 493.18
2533 0 54.0539 10.4895 567 99.328 477.365 494.813
2534 0 56.1306 10.6893 600 98.4867 477.467 493.082
2535 0 58.0968 11.6013 674 97.4303 478.126 492.139
2536 0 60.1706 12.4812 751 96.1718 477.216 489.959
2537 0 61.0778 12.0011 733 98.0737 477.804 486.383
2538 0 62.0815 13.8044 857 94.3722 478.006 487.095
2539 0 61.287 10.6548 653 104.959 477.755 492.317
2540 0 62.2244 11.3942 709 105.025 477.887 490.728
2541 0 64.0934 11.7641 754 108.129 477.585 487.371
2542 0 67.135 12.81 860 104.979 477.61 485.201
2543 0 69.1474 12.2781 849 105.816 477.526 486.062
2544 0 72.1431 12.4198 896 105.756 478.096 484.009
2545 0 75.4212 13.7627 1038 102.867 478.108 483.505
2546 0 76.3766 13.2894 1015 104.703 478.313 483.109
2547 0 78.2058 12.416 971 107.308 478.396 480.479
2548 0 81.1962 13.7322 1115 104.524 478.305 480.617
2549 0 82.2063 12.1645 1000 107.641 478.726 480.873
2550 0 83.3728 11.9463 996 109.113 477.937 478.703
2551 0 88.4187 12.9837 1148 106.936 478.026 476.547
2552 0 91.3206 13.6442 1246 105.376 479.178 477.487
2553 0 95.3697 14.0611 1341 104.544 479.141 473.479
2554 0 95.2764 11.4509 1091 110.863 478.926 470.858
2555 0 99.2008 12.6209 1252 108.263 478.526 469.253
2556 0 105.272 12.387 1304 106.252 479.998 472.293
2557 1 57.091 12.2436 699 107.897 478.657 492.619
2558 0 59.2123 11.3321 671 110.821 479.297 491.063
2559 0 62.3669 12.9716 809 108.422 479.686 487.574
2560 0 64.4479 12.9872 837 108.589 479.835 487.197
2561 0 64.5956 13.0504 843 110.055 480.912 486.418
2562 0 66.427 13.0971 870 109.536 481.521 485.651
2563 0 69.5 13.6691 950 107.226 480.693 485.278
2564 0 71.4751 14.0748 1006 106.671 480.305 484.031
2565 0 74.6497 13.9853 1044 106.255 480.886 482.801
2566 0 76.5031 13.555 1037 107.265 480.181 480.915
2567 0 77.3393 13.1111 1014 108.261 480.209 480.087
2568 0 81.3757 14.4638 1177 105.105 480.769 479.444
2569 0 83.4156 14.1221 1178 105.866 480.683 476.519
2570 0 87.3217 13.7194 1198 105.371 480.066 476.869
2571 0 88.3616 12.1207 1071 108.727 480.239 474.712
2572 0 93.3886 14.188 1325 104.174 480.869 472.568
2573 0 95.2663 15.3255 1460 102.095 480.089 471.314
2574 0 98.5003 13.3908 1319 105.998 480.197 470.014
2575 0 101.389 14.2817 1448 103.869 479.948 467.153
2576 1 57.2099 12.0783 691 100.48 478.453 489.088
2577 0 59.2501 12.27 727 98.7895 478.407 490.025
2578 0 61.0652 13.592 830 95.9108 477.061 490.581
2579 0 62.1191 14.118 877 95.3717 477.392 489.231
2580 0 63.0937 12.7588 805 97.9019 477.855 487.998
2581 0 68.1675 14.6111 996 93.5402 477.451 487.997
2582 0 67.1793 12.9653 871 99.0195 477.099 482.798
2583 0 69.0534 13.6995 946 96.9123 479.294 484.984
2584 0 74.1882 13.7488 1020 96.2274 480.234 484.004
2585 0 77.1981 13.7439 1061 95.4797 479.022 483.328
2586 0 78.166 12.5374 980 98.752 479.494 484.34
2587 0 81.1926 13.2155 1073 97.9348 478.911 482.725
2588 0 85.2616 12.2329 1043 99.7651 479.8 480.527
2589 0 88.1472 13.6817 1206 98.3607 479.649 476.562
2590 0 92.3338 13.3321 1231 99.9634 479.801 476.396
2591 1 48.12 12.0116 578 105.005 479.879 493.753
2592 0 51.1195 12.5784 643 103.397 479.681 493.956
2593 0 54.1305 11.1952 606 98.6568 480.219 494.627
2594 0 55.0941 12.7963 705 96.0298 480.573 493.058
2595 0 55.114 11.3946 628 100.866 480.39 493.097
2596 0 58.1543 12.7764 743 98.3607 479.946 492.598
2597 0 60.2355 12.6005 759 99.2767 480.884 491.075
2598 0 61.1282 12.6128 771 101.357 480.271 489.266
2599 0 63.1119 13.3889 845 100.599 480.572 488.111
2600 0 65.2049 12.407 809 103.23 480.02 486.462
2601 0 65.1981 11.7488 766 105.537 480.396 488.39
2602 0 70.2038 12.5492 881 103.848 480.507 486.151
2603 0 70.1834 11.9116 836 106.867 479.926 485.336
2604 0 71.1869 12.0668 859 107.461 479.799 486.014
2605 0 74.3755 13.3781 995 105.065 479.634 484.089
2606 0 77.2294 14.2174 1098 103.711 479.522 484.267
2607 0 82.1364 13.8428 1137 103.364 480.007 482.176
2608 0 85.2373 14.6415 1248 102.074 479.959 479.586
2609 0 89.2507 13.6021 1214 103.737 479.696 478.507
2610 0 91.3162 13.9515 1274 103.812 479.538 477.073
2611 1 51.1838 11.996 614 101.813 480.604 498.98
2612 0 52.194 11.3423 592 103.368 480.968 498.36
2613 0 53.4289 12.9331 691 99.5007 480.452 496.224
2614 0 55.1659 12.5984 695 94.2302 480.191 493.932
2615 0 55.1686 13.1596 726 95.1102 481.598 495.375
2616 0 57.1029 12.101 691 96.5948 482.101 492.333
2617 0 58.0952 13.1336 763 98.3984 481.139 492.409
2618 0 62.0632 13.599 844 99.263 481.451 493.879
2619 0 64.0943 12.8873 826 100.77 481.167 493.338
2620 0 65.1174 12.9612 844 100.77 480.852 493.079
2621 0 66.2023 11.6763 773 103.814 479.953 493.308
2622 0 67.2445 13.6368 917 101.557 480.133 490.145
2623 0 70.2197 13.8565 973 100.882 480.26 490.658
2624 0 74.1848 13.062 969 102.477 479.712 489.013
2625 0 76.1331 13.8573 1055 100.347 479.832 486.493
2626 0 79.2137 13.3941 1061 100.844 479.516 486.58
2627 0 80.3158 13.9948 1124 99.1815 478.79 486.389
2628 0 85.2643 13.5578 1156 100.182 478.73 482.584
2629 0 86.3556 13.0738 1129 101.81 479.122 479.202
2630 0 89.3605 13.1602 1176 101.553 479.672 479.409
2631 0 92.3807 14.332 1324 100.366 479.033 476.515
2632 0 93.2269 12.3033 1147 105.137 479.26 478.07
2633 0 97.1644 13.7911 1340 102.127 479.87 476.107
2634 0 99.1726 13.421 1331 103.319 479.184 476.973
2635 0 103.235 14.0649 1452 103.211 478.951 471.583
2636 0 107.399 14.5346 1561 102.391 478.288 472.121
2637 0 110.595 13.5088 1494 107.288 477.715 469.716
2638 0 115.343 14.5566 1679 105.467 479.23 467.846
2639 0 119.447 13.8638 1656 109.963 478.745 465.207
2640 1 65.1375 13.295 866 98.1409 479.261 496.045
2641 0 65.3769 12.4662 815 101.756 479.237 491.772
2642 0 66.1867 11.5884 767 103.029 479.257 491.352
2643 0 70.2487 12.5554 882 102.184 479.361 491.348
2644 0 71.2689 12.3195 878 103.156 479.134 489.764
2645 0 75.3214 12.1745 917 104.045 479.048 488.537
2646 0 75.3074 12.3494 930 105.245 478.582 486.224
2647 0 79.2055 12.0699 956 104.574 478.564 487.319
2648 0 81.2706 12.0708 981 104.845 478.302 485.235
2649 0 85.2869 13.4722 1149 102.564 478.519 483.832
2650 0 87.303 13.2871 1160 104.022 477.588 482.25
2651 0 91.2448 13.3377 1217 105.507 478.214 482.316
2652 0 93.2118 13.4103 1250 106.982 477.4 478.398
2653 0 94.2013 13.4075 1263 107.603 478.444 478.4
2654 0 98.4323 13.6236 1341 106.65 478.117 477.212
2655 0 103.575 13.594 1408 106.818 477.491 472.752
2656 0 106.407 13.8149 1470 106.302 478.437 472.124
2657 0 108.343 12.9219 1400 108.576 478.144 470.678
2658 1 59.0503 11.4817 678 104.158 478.544 496.038
2659 0 62.0889 12.466 774 98.1111 478.434 494.238
2660 0 62.0735 10.7453 667 105.241 478.426 493.022
2661 0 64.352 12.4782 803 104.461 477.397 489.156
2662 0 65.3365 11.525 753 107.311 477.135 487.687
2663 0 68.3146 11.9594 817 106.794 477.072 487.028
2664 0 71.474 12.2982 879 108.201 477.469 484.63
2665 0 72.3486 11.721 848 112.986 476.127 482.805
2666 0 76.3315 12.9828 991 109.78 476.341 480.769
2667 0 78.2736 12.0475 943 112.926 476.716 480.828
2668 0 81.2268 12.0034 975 112.538 476.291 482.075
2669 0 85.5308 13.843 1184 109.455 476.789 477.981
2670 0 87.2351 13.733 1198 110.421 477.108 477.596
2671 0 93.1555 14.5348 1354 104.126 477.719 475.559
2672 0 93.2776 13.2615 1237 108.542 477.314 475.75
2673 0 97.2836 13.4658 1310 108.592 477.138 472.073
2674 0 99.2622 13.1772 1308 110.323 476.681 471.049
2675 0 101.339 12.7987 1297 111.545 477.557 469.922
2676 0 107.186 13.2106 1416 110.73 478.294 472.675
2677 0 111.245 13.4838 1500 110.253 477.525 473.006
2678 0 117.179 13.5178 1584 110.689 478.205 468.257
2679 0 121.219 13.1746 1597 112.379 478.527 466.585
2680 1 63.1115 12.1531 767 108.495 478.918 495.791
2681 0 64.1673 12.4051 796 110.255 478.74 492.155
2682 0 68.1815 12.7747 871 110.243 479.665 491.111
2683 0 72.1719 13.2323 955 111.187 479.716 488.592
2684 0 71.2393 13.8688 988 108.118 478.64 489.107
2685 0 73.1458 13.1382 961 110.425 478.716 489.7
2686 0 77.1596 13.2971 1026 110.841 478.196 488.538
2687 0 79.1749 13.7922 1092 110.717 478.267 486.507
2688 0 81.2589 13.3524 1085 112.147 478.034 487.278
2689 0 83.2925 13.5306 1127 112.854 477.424 487.976
2690 0 84.4148 13.102 1106 115.129 477.54 485.466
2691 0 85.3296 13.3717 1141 117.074 477.674 482.849
2692 0 89.2598 13.2422 1182 118.402 478.244 482.759
2693 0 89.5143 11.9199 1067 121.604 477.545 484.836
2694 0 94.1806 14.4828 1364 117.128 477.803 479.085
2695 0 94.098 12.3063 1158 118.334 478.24 479.344
2696 0 99.3979 13.0586 1298 112.629 477.478 474.589
2697 0 102.248 13.4281 1373 112.784 476.908 476.077
2698 0 103.237 12.9508 1337 117.156 477.007 472.103
2699 0 109.357 13.1587 1439 116.193 477.356 471.124
2700 0 111.305 12.2546 1364 120.438 476.542 469.759
2701 0 116.445 13.4484 1566 122.197 476.434 464.669
2702 0 121.327 12.7672 1549 123.912 476.667 464.068
2703 1 67.0412 12.3804 830 110.416 478.026 491.736
2704 0 66.1833 10.5011 695 116.783 477.924 486.39
2705 0 68.0823 11.6477 793 116.338 476.038 486.676
2706 0 70.0798 9.84591 690 120.528 475.632 483.023
2707 0 73.0658 11.5375 843 117.559 475.582 482.291
2708 0 75.0363 12.6605 950 115.795 475.592 479.927
2709 0 79.106 12.7677 1010 114.308 475.785 480.187
2710 0 80.121 11.932 956 116.976 475.311 478.566
2711 0 81.197 11.2566 914 114.856 476.711 476.074
2712 0 83.3388 10.7753 898 116.666 477.414 473.072
2713 0 90.1566 12.3674 1115 115.213 476.143 474.339
2714 0 92.2928 12.5145 1155 116.315 476.072 472.533
2715 0 95.2072 12.0369 1146 117.894 475.695 471.843
2716 0 97.2168 11.9527 1162 116.952 476.284 468.281
2717 0 101.295 12.4785 1264 114.902 476.911 467.794
2718 0 102.228 12.0613 1233 116.77 477.248 473.231
2719 0 105.332 13.0729 1377 115.585 477.38 469.223
2720 0 106.265 13.0899 1391 119.758 477.142 470.536
2721 0 108.242 13.128 1421 124.23 476.607 468.05
2722 0 110.424 13.3395 1473 127.087 476.805 465.64
2723 0 117.338 14.5222 1704 124.465 477.168 463.173
2724 0 119.406 13.542 1617 128.096 476.697 462.827
2725 0 123.312 13.6808 1687 127.922 477.042 461.773
2726 0 131.318 14.7048 1931 124.546 476.916 459.976
2727 0 133.311 14.9576 1994 124.195 477.139 456.985
2728 0 136.345 13.6565 1862 128.961 477.931 453.249
2729 0 142.47 13.8345 1971 129.178 477.422 447.509
2730 0 142.474 14.2061 2024 125.131 477.963 439.011
2731 0 146.433 13.2211 1936 128.008 478.553 439.185
2732 0 152.454 14.634 2231 125.805 478.296 433.538
2733 0 156.373 15.5589 2433 126.26 477.603 432.256
2734 0 160.381 13.3557 2142 133.048 478.089 426.88
2735 0 165.623 13.247 2194 133.676 477.626 425.777
2736 0 168.495 13.0746 2203 134.962 477.586 418.964
2737 0 179.423 14.5522 2611 128.678 477.816 421.958
2738 1 100.168 12.2095 1223 127.549 476.834 461.706
2739 0 105.223 12.2691 1291 128.394 476.654 458.607
2740 0 106.247 13.4028 1424 128.13 477.009 455.202
2741 0 111.31 13.4938 1502 126.465 477.141 457.705
2742 0 114.287 13.6236 1557 126.471 477.01 456.164
2743 0 118.24 14.8427 1755 122.378 477.334 457.354
2744 0 121.384 12.9918 1577 125.545 477.624 455.413
2745 0 124.305 13.1934 1640 129.238 477.594 451.562
2746 0 128.268 13.1521 1687 130.188 477.849 450.947
2747 0 129.272 13.2743 1716 129.601 477.402 447.674
2748 0 135.39 13.6937 1854 128.341 477.761 446.056
2749 0 139.228 12.7704 1778 131.259 477.298 439.851
2750 0 146.293 12.3998 1814 128.727 477.249 440.265
2751 1 86.2612 12.6129 1088 125.756 477.965 468.025
2752 0 90.2581 11.168 1008 128.534 478.691 466.699
2753 0 95.3149 12.5479 1196 125.61 477.988 464.47
2754 0 97.3563 11.9047 1159 127.879 477.935 466.814
2755 0 102.267 13.807 1412 123.479 477.416 470.002
2756 0 104.086 12.778 1330 127.657 477.052 465.551
2757 0 106.104 12.5443 1331 128.201 476.784 464.466
2758 0 110.128 13.0212 1434 125.877 476.742 463.791
2759 0 116.135 12.9763 1507 123.377 477.174 463.109
2760 0 118.31 13.4984 1597 121.746 476.95 462.021
2761 0 120.504 12.4726 1503 123.526 477.59 455.616
2762 0 123.447 13.0015 1605 122.819 478.188 450.966
2763 1 73.2415 11.0457 809 118.04 477.096 483.466
2764 0 78.3269 12.2946 963 117.513 477.657 484.192
2765 0 80.3773 13.0883 1052 118.297 478.035 482.922
2766 0 80.5599 10.9484 882 125.217 477.897 480.78
2767 0 85.6256 12.7415 1091 118.659 478.218 480.735
2768 0 86.5244 12.1238 1049 121.902 478.073 478.959
2769 0 90.4233 13.0166 1177 118.854 478.427 480.268
2770 0 91.4814 12.5162 1145 121.804 478.345 475.359
2771 0 92.4209 12.3132 1138 122.344 478.245 472.959
2772 0 95.5877 11.8635 1134 123.54 477.831 471.848
2773 0 100.664 13.3513 1344 118.012 478.751 475.132
2774 0 102.714 13.338 1370 119.78 478.287 469.906
2775 0 107.654 13.7291 1478 117.931 478.42 468.188
2776 0 110.576 14.9128 1649 115.4 477.918 468.494
2777 0 111.79 12.926 1445 121.875 478.87 464.809
2778 0 115.524 14.1269 1632 118.808 478.275 464.752
2779 0 119.584 13.5971 1626 118.752 478.653 463.722
2780 0 123.731 14.2082 1758 116.456 478.808 461.011
2781 0 126.591 13.6819 1732 117.767 478.788 457.746
2782 0 131.007 14.19 1859 116.157 478.927 455.208
2783 0 133.691 13.2844 1776 117.322 478.337 454.655
2784 1 78.5896 11.0829 871 112.94 478.457 484.053
2785 0 81.4694 12.2868 1001 109.33 478.792 483.43
2786 0 81.1934 11.799 958 112.642 476.672 481.517
2787 0 85.2533 13.0787 1115 107.64 476.256 481.563
2788 0 86.2507 12.6608 1092 109.629 476.544 480.209
2789 0 91.1994 13.136 1198 108.812 476.931 481.113
2790 0 90.249 13.4073 1210 109.699 476.697 475.653
2791 0 94.2948 14.4865 1366 107.201 475.993 475.21
2792 0 97.3492 14.0628 1369 107.759 476.77 472.034
2793 0 100.25 13.9352 1397 106.612 477.218 476.608
2794 0 102.414 13.3088 1363 108.973 477.028 471.134
2795 0 105.478 13.4151 1415 107.264 476.896 470.018
2796 0 108.551 13.0354 1415 108.363 477.34 470.784
2797 0 111.395 13.5284 1507 107.885 476.701 469.459
2798 0 111.527 13.6649 1524 108.264 476.591 470.721
2799 0 115.307 12.0634 1391 112.121 477.04 466.443
2800 0 119.402 13.2327 1580 108.813 477.553 464.699
2801 0 125.691 14.2412 1790 108.102 477.407 463.213
2802 0 127.616 12.5298 1599 113.594 477.23 458.912
2803 0 132.519 13.2887 1761 112.874 476.995 455.968
2804 0 139.349 13.721 1912 112.457 477.548 455.402
2805 0 142.609 12.9655 1849 112.886 477.665 450.168
2806 1 85.488 11.604 992 110.385 478.238 476.719
2807 0 87.1925 10.1041 881 102.518 479.616 480.274
2808 0 90.2165 11.8382 1068 100.593 479.066 473.753
2809 0 93.1571 13.8583 1291 96.7893 479.606 475.334
2810 0 97.2488 11.7739 1145 100.579 478.721 471.95
2811 0 99.23 10.9443 1086 102.324 479.637 470.573
2812 0 105.278 12.1677 1281 99.071 479.284 473.318
2813 0 106.178 10.6236 1128 103.309 478.985 466.413
2814 0 111.233 12.2625 1364 100.971 478.251 467.603
2815 0 114.337 11.125 1272 103.927 477.7 463.961
2816 0 117.205 13.8134 1619 99.7523 477.563 464.802
2817 0 119.189 11.4608 1366 104.27 477.714 462.444
2818 0 125.249 11.9602 1498 102.141 478.133 459.427
2819 0 125.155 12.3687 1548 102.432 478.178 459.605
2820 0 131.196 12.3555 1621 106.977 478.5 453.173
2821 0 136.339 11.3467 1547 106.46 479.278 455.442
2822 0 140.351 12.3048 1727 103.366 478.421 455.14
2823 0 146.444 12.148 1779 104.123 478.094 445.588
2824 0 151.681 11.8802 1802 104.315 478.468 442.138
2825 1 88.2811 11.7013 1033 92.9497 478.052 480.683
2826 0 88.2324 11.5377 1018 93.2456 478.939 480.35
2827 0 92.1214 11.5608 1065 92.4244 479.392 481.3
2828 0 95.21 12.3516 1176 91.3835 479.194 478.361
2829 0 98.1714 12.4884 1226 91.7422 479.207 477.068
2830 0 100.069 12.0916 1210 94.205 479.382 475.184
2831 0 100.162 10.5629 1058 97.552 478.754 473.205
2832 0 105.271 13.565 1428 92.6926 477.636 470.217
2833 0 110.196 12.6683 1396 93.6211 478.315 470.978
2834 0 111.153 12.3163 1369 95.4909 478.213 467.459
2835 0 114.257 11.6055 1326 97.0943 478.547 465.849
2836 0 117.212 13.3774 1568 94.7762 478.817 465.923
2837 0 121.149 13.5948 1647 94.5968 478.244 462.891
2838 0 121.298 11.5336 1399 98.6791 478.677 460.147
2839 0 125.218 13.5843 1701 95.2534 478.078 458.739
2840 0 130.234 13.6294 1775 96.7887 478.348 457.604
2841 0 133.3 13.3983 1786 97.1596 477.989 452.101
2842 0 137.337 13.1283 1803 98.7321 477.734 451.534
2843 0 145.366 16.5857 2411 90.3841 478.18 455.627
2844 0 147.27 13.7503 2025 95.3249 477.661 451.641
2845 0 153.275 15.0971 2314 91.118 477.779 446.844
2846 1 87.154 11.0609 964 87.6162 478.929 481.869
2847 0 90.2408 13.1426 1186 84.6467 478.671 480.139
2848 0 94.342 13.0483 1231 85.0187 478.627 477.559
2849 0 95.415 12.2832 1172 87.1715 478.601 475.961
2850 0 97.3513 11.9156 1160 88.3879 478.368 477.493
2851 0 101.31 13.5524 1373 83.528 478.786 472.316
2852 0 105.18 13.5197 1422 84.0281 478.778 471.35
2853 0 108.332 12.5817 1363 86.0939 478.731 473.029
2854 0 110.315 11.73 1294 87.9637 478.876 471.602
2855 0 115.392 12.5572 1449 88.118 478.816 468.502
2856 0 117.204 12.4143 1455 90.3258 478.768 465.368
2857 0 122.21 11.4229 1396 95.1547 478.882 463.627
2858 0 123.357 12.8975 1591 93.4551 478.233 462.439
2859 0 128.444 13.1575 1690 94.8698 478.389 457.018
2860 1 77.1761 12.0374 929 90.9709 479.774 486.265
2861 0 79.2867 12.0071 952 93.5147 478.195 482.894
2862 0 81.1333 13.0649 1060 90.6038 478.781 481.955
2863 0 82.2026 11.204 921 92.3996 479.182 481.886
2864 0 86.1048 12.4035 1068 90.4541 479.236 480.512
2865 0 88.2177 12.7639 1126 91.4245 478.523 477.934
2866 0 92.1741 13.4094 1236 90.5024 478.539 478.16
2867 0 95.218 13.3798 1274 91.1578 478.649 476.545
2868 0 96.2004 12.0789 1162 95.2126 479.219 476.128
2869 0 101.166 12.5932 1274 94.6272 478.737 476.233
2870 0 102.199 12.8377 1312 95.936 479.007 471.493
2871 0 107.191 13.7325 1472 94.2473 478.183 470.956
2872 0 109.297 13.5686 1483 95.7046 477.71 467.411
2873 0 112.221 12.7962 1436 97.7507 477.918 466.916
2874 0 116.147 14.1975 1649 95.4724 478.024 466.945
2875 0 117.255 12.9974 1524 98.7841 478.538 464.856
2876 0 120.172 12.1076 1455 100.3 478.428 466.81
2877 0 124.218 13.5166 1679 100.043 478.425 459.544
2878 0 129.255 13.0672 1689 100.964 478.103 460.84
2879 0 132.136 13.0926 1730 101.975 478.186 454.901
2880 0 138.208 13.2264 1828 101.836 478.317 451.28
2881 0 141.225 12.2854 1735 103.592 477.934 455.622
2882 1 81.188 11.1593 906 104.592 478.552 478.466
2883 0 85.1159 12.3831 1054 101.224 478.734 480.528
2884 0 88.1631 13.4183 1183 100.122 478.986 478.523
2885 0 90.1771 12.664 1142 101.472 478.662 478.874
2886 0 93.1731 12.3963 1155 102.378 479.13 476.476
2887 0 96.4348 11.9355 1151 104.479 478.691 474.52
2888 0 97.3788 12.9494 1261 103.232 478.849 474.523
2889 0 102.407 13.3976 1372 102.695 478.552 473.432
2890 0 103.267 13.7121 1416 102.943 478.282 472.77
2891 0 106.298 12.6907 1349 106.623 478.543 468.324
2892 0 110.313 13.5705 1497 103.781 478.554 467.161
2893 0 111.384 13.5657 1511 104.754 478.331 465.182
2894 0 114.485 13.4865 1544 105.013 477.839 463.122
2895 0 117.28 13.8557 1625 104.81 478.01 464.292
2896 0 118.245 13.5905 1607 106.724 478.464 462.183
2897 0 121.255 13.9541 1692 106.38 477.805 461.706
2898 0 123.255 12.7621 1573 111.256 477.852 456.674
2899 0 128.394 12.1969 1566 109.695 477.678 459.476
2900 0 130.431 13.279 1732 109.518 477.258 454.957
2901 0 137.364 13.0456 1792 108.932 477.078 455.368
2902 1 81.2286 11.3014 918 104.834 477.12 483.131
2903 0 85.2021 14.0372 1196 96.7475 476.249 480.455
2904 0 83.1641 11.0504 919 105.516 476.357 475.288
2905 0 88.1192 11.0305 972 104.02 475.257 477.522
2906 0 90.1594 11.0693 998 104.609 474.746 476.252
2907 0 92.126 11.9076 1097 103.604 475.088 475.067
2908 0 96.1692 12.3636 1189 101.362 475.709 475.821
2909 0 98.2069 11.6081 1140 102.574 475.109 474.605
2910 0 102.147 12.3645 1263 101.536 475.682 470.679
2911 0 104.089 11.8841 1237 103.299 476.023 468.597
2912 0 104.102 12.2572 1276 103.955 475.633 467.172
2913 0 109.185 13.0238 1422 101.957 475.66 464
2914 0 110.155 11.5928 1277 105.179 475.428 466.662
2915 0 114.114 12.3298 1407 101.323 476.109 462.61
2916 0 119.127 11.811 1407 101.262 475.908 465.188
2917 0 120.125 13.361 1605 100.091 476.53 460.057
2918 0 122.221 12.6656 1548 101.3 476.557 461.132
2919 0 124.246 11.59 1440 104.01 476.508 457.207
2920 1 70.1414 12.489 876 99.0856 475.281 485.158
2921 0 71.3245 10.1929 727 104.131 475.53 481.74
2922 0 74.319 11.7736 875 101.399 476.064 479.278
2923 0 77.2185 12.6524 977 99.8966 475.312 477.229
2924 0 77.1337 11.7847 909 103.537 475.916 476.427
2925 0 83.0622 11.5215 957 101.538 476.347 477.903
2926 0 83.1993 12.0794 1005 101.268 476.324 475.9
2927 0 83.1758 11.5418 960 104.204 475.847 472.241
2928 0 87.0896 11.9877 1044 103.939 475.83 470.816
2929 0 91.121 13.5973 1239 100.482 476.522 471.274
2930 0 94.205 13.0566 1230 102.297 476.077 469.269
2931 0 95.1401 12.9704 1234 103.385 475.957 464.482
2932 0 97.2425 13.6874 1331 102.842 475.978 463.551
2933 0 101.497 13.2418 1344 103.966 475.965 458.914
2934 0 102.193 13.3865 1368 104.352 476.549 459.637
2935 0 104.199 11.8811 1238 108.448 476.337 457.406
2936 0 107.355 13.3389 1432 105.254 476.529 457.059
2937 0 110.247 13.0616 1440 106.244 476.065 456.524
2938 1 56.0769 9.36215 525 108.41 475.568 479.061
2939 0 60.2252 10.7264 646 101.82 475.616 481.755
2940 0 64.2696 12.292 790 98.8924 475.86 484.578
2941 0 66.2416 12.7865 847 96.8583 475.769 479.849
2942 0 66.3844 9.20397 611 99.3895 477.052 481.524
2943 0 67.3077 10.0286 675 99.0207 476.945 481.844
2944 0 72.3055 10.4971 759 97.0685 477.329 480.2
2945 0 75.3952 10.5312 794 96.2872 477.49 484.288
2946 0 78.3526 11.9205 934 94.6424 477.684 483.598
2947 0 83.5623 11.5124 962 95.3753 477.631 480.734
2948 0 84.3061 12.419 1047 94.3792 477.308 480.02
2949 0 87.2903 12.2694 1071 95.1419 476.87 477.644
2950 0 86.3137 11.2497 971 98.7024 477.65 476.081
2951 0 91.2581 11.473 1047 97.6418 477.957 478.561
2952 0 94.227 11.3662 1071 98.6741 478.029 477.591
2953 0 94.2412 11.4706 1081 99.4191 477.627 476.08
2954 0 98.3747 11.9645 1177 98.2116 477.525 475.663
2955 0 98.3561 12.5259 1232 98.5974 477.062 472.825
2956 0 103.374 12.0533 1246 98.7921 477.246 473.243
2957 0 107.425 11.9246 1281 98.6557 477.265 472.196
2958 0 108.441 11.9051 1291 100.816 476.617 466.478
2959 0 114.596 12.6444 1449 98.7874 477.102 467.474
2960 0 117.51 13.1137 1541 98.9053 477.201 463.225
2961 0 120.422 12.4645 1501 100.105 478.066 462.935
2962 0 123.36 11.4867 1417 101.674 477.915 462.243
2963 0 128.474 11.8156 1518 102.638 477.966 457.864
2964 0 133.168 12.9986 1731 100.701 477.685 455.938
2965 0 136.336 12.9679 1768 101.113 477.822 451.389
2966 1 79.2463 11.4327 906 94.4426 477.738 479.324
2967 0 82.1816 11.4381 940 98.0255 478.268 481.89
2968 0 84.109 11.9607 1006 97.7714 478.123 478.843
2969 0 87.1406 11.8888 1036 97.862 477.777 477.89
2970 0 89.1769 11.8865 1060 98.9424 477.885 476.471
2971 0 91.2865 12.4005 1132 98.3852 478.28 474.058
2972 0 94.3945 11.6638 1101 96.7757 477.287 472.348
2973 0 97.1285 10.3574 1006 99.6084 478.079 472.554
2974 0 99.223 11.4086 1132 98.2906 477.248 467.123
2975 0 102.359 10.7758 1103 100.257 476.466 468.566
2976 0 106.434 11.0022 1171 101.453 476.7 466.338
2977 0 109.296 10.8513 1186 103.804 476.806 470.174
2978 1 64.4092 10.3246 665 99.4316 477.905 490.053
2979 0 64.411 9.74988 628 101.71 477.927 490.639
2980 0 67.4152 12.7271 858 97.0932 477.379 489.986
2981 0 67.1794 11.4023 766 97.9047 478.249 488.349
2982 0 72.1204 14.0598 1014 92.3836 478 487.289
2983 0 73.3542 12.351 906 96.6236 477.478 485.967
2984 0 73.3498 12.2836 901 98.6792 477.815 484.585
2985 0 77.2897 13.3524 1032 95.0494 478.067 485.923
2986 0 78.1696 12.1786 952 99.5221 477.126 483.101
2987 0 81.2243 12.447 1011 99.7962 477.203 482.73
2988 0 84.2574 12.5805 1060 100.399 476.812 481.279
2989 0 86.2902 13.1417 1134 100.268 477.064 478.852
2990 0 90.1426 14.111 1272 99.4182 477.38 481.38
2991 0 93.1668 13.7603 1282 99.5819 477.005 478.91
2992 0 94.1889 13.9295 1312 99.5259 477.336 478.293
2993 0 99.4243 14.6745 1459 99.3153 477.243 473.95
2994 0 101.268 14.4666 1465 100.885 476.485 473.102
2995 0 103.162 14.1427 1459 102.885 476.419 470.796
2996 0 108.254 14.2813 1546 101.962 476.426 471.106
2997 0 110.115 13.2134 1455 105.223 476.665 468.804
2998 0 112.115 14.2443 1597 104.579 476.209 466.091
2999 0 115.186 14.177 1633 104.914 476.255 466.617
3000 0 120.24 15.9265 1915 101.919 476.144 462.207
3001 0 124.236 14.8105 1840 105.633 475.418 460.316
3002 0 128.243 14.839 1903 111.305 475.086 452.663
3003 0 133.257 16.3218 2175 107.19 474.788 452.386
3004 0 138.376 16.7587 2319 105.092 474.698 453.024
3005 0 140.283 14.8842 2088 109.963 475.171 447.724
3006 0 145.437 14.7693 2148 108.76 475.574 447.788
3007 0 150.393 15.526 2335 107.801 475.394 442.3
3008 0 155.507 15.6584 2435 106.749 475.956 442.227
3009 0 156.627 14.4292 2260 110.396 475.22 439.031
3010 0 160.712 13.1042 2106 112.962 475.409 438.349
3011 0 165.583 13.9084 2303 112.418 476.061 435.688
3012 0 170.651 13.9115 2374 112.303 475.75 430.423
3013 0 176.592 14.4061 2544 110.904 476.245 431.072
3014 0 179.576 13.053 2344 114.512 476.363 425.727
3015 0 186.617 13.2786 2478 113.232 476.207 428.097
3016 0 192.845 13.6742 2637 112.487 476.167 425.525
3017 1 115.417 11.5234 1330 107.774 476.847 461.89
3018 0 117.412 10.6973 1256 110.443 476.969 455.079
3019 0 123.438 12.1195 1496 107.301 476.814 455.399
3020 0 126.388 11.8841 1502 107.737 476.366 452.721
3021 0 132.437 12.1567 1610 106.641 476.281 451.888
3022 0 136.647 11.0577 1511 109.713 476.756 445.197
3023 0 143.566 12.7189 1826 106.572 476.498 443.917
3024 0 149.687 13.8423 2072 103.762 476.777 444.359
3025 0 154.876 13.7465 2129 104.633 475.788 443.171
3026 0 157.689 14.1735 2235 105.74 476.212 436.234
3027 0 163.776 12.511 2049 109.646 476.368 436.265
3028 0 170.546 14.219 2425 106.712 476.5 431.823
3029 0 176.803 13.9251 2462 104.394 475.887 429.095
3030 1 100.558 10.7898 1085 104.688 475.841 468.163
3031 0 105.799 12.4765 1320 102.237 475.854 466.436
3032 0 107.845 12.1285 1308 103.612 475.681 463.345
3033 0 110.457 11.7874 1302 105.746 475.684 461.426
3034 0 112.79 12.2706 1384 104.921 475.936 463.381
3035 0 116.56 12.2427 1427 106.643 476.34 457.308
3036 0 120.506 12.5803 1516 106.106 475.833 457.407
3037 0 123.778 12.2478 1516 108.104 476.046 454.612
3038 0 128.564 12.8497 1652 107.137 476.319 453.822
3039 0 131.623 12.7865 1683 107.893 475.909 453.407
3040 0 137.752 13.8365 1906 105.658 476.267 451.575
3041 0 139.481 12.9552 1807 109.299 476.082 446.944
3042 0 144.56 13.8904 2008 107.954 476.602 445.426
3043 0 148.48 12.5067 1857 110.596 476.6 443.892
3044 1 88.4237 13.13 1161 102.618 476.509 473.738
3045 0 90.3717 13.19 1192 102.133 476.054 474.827
3046 0 92.3157 13.1072 1210 100.067 475.852 473.867
3047 0 94.1149 12.8673 1211 99.8877 475.765 473.329
3048 0 95.1642 13.7026 1304 101.626 476.216 475.155
3049 0 96.1802 11.9983 1154 108.891 475.964 472.519
3050 0 97.4209 13.1902 1285 99.6008 476.451 474.545
3051 0 98.2747 12.5465 1233 109.619 476.998 471.745
3052 0 101.407 13.3126 1350 108.284 476.036 472.836
3053 0 102.265 13.113 1341 109.051 475.985 469.236
3054 0 105.535 13.4648 1421 106.948 476.557 469.934
3055 0 105.307 13.2374 1394 107.877 476.346 468.465
3056 0 109.434 12.3636 1353 109.18 476.405 469.02
3057 0 114.26 13.8894 1587 104.229 476.44 467.263
3058 0 116.557 12.8092 1493 105.15 476.296 463.244
3059 0 120.517 12.5376 1511 104.629 476.638 460.076
3060 0 125.471 13.2301 1660 101.792 476.608 458.978
3061 0 127.358 12.6415 1610 102.698 476.256 457.368
3062 0 131.466 12.4139 1632 103.208 476.292 452.871
3063 0 135.581 12.7673 1731 101.359 476.361 456.583
3064 0 138.448 12.2284 1693 103.579 476.553 453.576
3065 1 77.5983 10.0389 779 105.42 475.95 481.195
3066 0 83.4886 12.1693 1016 100.951 477.41 479.024
3067 0 80.3399 8.16531 656 99.9177 477.355 478.497
3068 0 86.2732 11.1506 962 97.606 476.14 482.574
3069 0 86.2838 12.9456 1117 99.2346 475.895 476.903
3070 0 89.4569 11.9275 1067 101.819 475.861 477.888
3071 0 91.4798 13.3144 1218 100.246 475.428 476.126
3072 0 93.6027 13.2047 1236 101.985 476.75 474.24
3073 0 94.6052 11.2573 1065 107.789 476.276 472.181
3074 0 99.8243 12.2315 1221 106.003 476.292 471.84
3075 0 101.821 12.8755 1311 106.115 476.627 469.828
3076 0 101.66 12.0598 1226 110.614 475.9 465.48
3077 0 102.567 12.3724 1269 110.782 475.944 466.897
3078 0 106.621 13.1963 1407 110.602 475.362 466.002
3079 0 107.674 13.3923 1442 111.455 475.579 463.16
3080 0 110.928 13.2699 1472 112.618 476.023 463.648
3081 0 113.74 12.1505 1382 115.938 476.265 459.517
3082 0 118.737 13.8288 1642 119.259 476.622 457.991
3083 0 120.748 13.2838 1604 120.793 476.152 457.532
3084 0 125.925 13.2142 1664 121.517 476.702 455.967
3085 0 130.43 12.7042 1657 115.258 476.876 454.89
3086 0 133.594 12.4931 1669 117.511 476.484 450.868
3087 0 136.45 11.5866 1581 119.553 476.395 448.058
3088 0 142.556 11.2167 1599 117.634 476.601 449.211
3089 1 80.4184 12.3977 997 103.662 476.82 481.305
3090 0 82.3781 11.2651 928 106.142 477.314 478.853
3091 0 84.3429 11.3584 958 105.976 477.63 477.141
3092 0 88.2899 11.5529 1020 106.485 477.917 474.561
3093 0 91.1769 11.8341 1079 106.573 477.52 477.444
3094 0 93.3987 10.1393 947 109.867 478.059 477.541
3095 0 97.0777 12.8557 1248 107.901 477.69 472.494
3096 0 98.1797 12.0493 1183 109.992 477.901 472.76
3097 0 103.19 13.2571 1368 83.8808 478.365 469.857
3098 0 105.191 12.8053 1347 108.898 478.512 468.742
3099 0 107.233 13.2982 1426 107.918 478.11 466.785
3100 0 110.28 11.897 1312 110.541 477.55 464.947
3101 0 113.257 13.1294 1487 108.196 477.604 462.331
3102 0 116.469 12.4583 1451 110.123 477.432 462.327
3103 0 120.304 12.6928 1527 109.906 478.175 459.624
3104 0 122.419 13.5763 1662 107.289 477.899 458.17
3105 0 128.405 12.3438 1585 109.03 477.859 457.646
3106 0 131.388 13.4487 1767 109.233 477.653 454.013
3107 0 135.325 13.0649 1768 111.156 478.376 448.444
3108 0 140.374 12.2173 1715 112.659 477.977 450.49
3109 1 79.0673 10.9021 862 109.353 478.459 482.274
3110 0 83.3568 11.7327 978 107.338 477.326 473.813
3111 0 86.0446 11.5754 996 114.121 475.239 478.301
3112 0 86.2268 11.3886 982 116.371 475.347 475.684
3113 0 91.2669 12.5675 1147 112.779 475.3 474.818
3114 0 93.1873 13.5748 1265 111.268 475.122 471.002
3115 0 97.3226 12.8953 1255 111.495 475.561 472.724
3116 0 100.287 13.8902 1393 110.214 475.569 471.651
3117 0 100.215 12.8224 1285 114.431 475.515 470.022
3118 0 104.318 13.1234 1369 114.496 476.275 467.316
3119 0 108.441 14.3488 1556 111.305 476.674 465.841
3120 0 110.257 13.0151 1435 115.101 476.723 465.565
3121 0 113.39 12.9112 1464 114.49 476.923 467.149
3122 0 116.361 14.1715 1649 112.65 476.15 461.724
3123 0 119.51 12.1998 1458 117.148 475.785 460.463
3124 0 123.443 13.7635 1699 113.2 476.66 459.135
3125 0 128.52 14.6825 1887 110.692 476.639 456.632
3126 0 132.372 13.6963 1813 110.639 476.372 455.175
3127 0 137.404 13.4858 1853 110.935 477.037 453.155
3128 1 78.1329 11.7108 915 106.102 475.944 482.83
3129 0 81.2205 11.3149 919 104.178 475.147 482.097
3130 0 82.2038 11.9459 982 101.74 478.613 481.314
3131 0 86.213 12.4575 1074 100.143 477.923 477.122
3132 0 87.2498 11.1404 972 102.822 477.818 477.444
3133 0 93.2737 12.5437 1170 99.3017 478.518 477.708
3134 0 96.3084 12.2419 1179 100.574 477.723 475.473
3135 0 100.185 12.9959 1302 99.2673 477.923 474.065
3136 0 101.249 12.9384 1310 99.8038 478.006 472.948
3137 0 105.373 12.6883 1337 99.9536 477.827 471.306
3138 0 108.381 12.6867 1375 101.199 476.261 466.008
3139 0 110.35 12.261 1353 101.148 476.379 464.899
3140 0 113.401 12.0633 1368 101.9 476.172 462.103
3141 0 117.577 12.2643 1442 101.753 476.372 458.353
3142 0 121.739 12.1818 1483 102.589 476.962 455.081
3143 0 123.548 11.9792 1480 102.661 477.282 454.914
3144 0 128.664 11.8681 1527 102.616 477.489 453.223
3145 0 132.688 11.4404 1518 102.284 477.421 454.026
3146 0 136.535 11.9017 1625 103.651 477.515 448.945
3147 0 142.62 12.2563 1748 102.03 477.725 447.519
3148 1 80.2957 12.2049 980 93.5622 477.394 482.104
3149 0 80.3417 13.5546 1089 93.0597 476.979 481.878
3150 0 81.3371 12.8232 1043 95.1755 477.031 479.975
3151 0 84.2331 13.1184 1105 94.0896 476.794 479.965
3152 0 86.1474 11.933 1028 98.0467 477.564 474.426
3153 0 89.2638 12.9728 1158 95.4577 477.418 474.727
3154 0 93.248 12.5901 1174 96.4387 477.377 472.941
3155 0 91.1639 12.9547 1181 97.7079 477.055 471.638
3156 0 94.274 12.7288 1200 98.03 477.044 470.458
3157 0 98.1976 14.0635 1381 95.5489 476.573 470.615
3158 0 100.24 13.5376 1357 97.0206 476.389 466.853
3159 0 104.096 12.7575 1328 98.4563 475.617 468.793
3160 0 107.194 13.0418 1398 98.284 475.71 465.974
3161 0 109.106 13.2898 1450 98.1517 476.007 467.14
3162 0 114.148 12.7642 1457 99.3047 475.874 461.999
3163 0 118.145 12.8824 1522 99.615 476.147 459.926
3164 0 117.136 12.9934 1522 100.57 475.702 460.951
3165 0 121.327 12.8826 1563 102.07 476.402 456.177
3166 0 124.144 13.3312 1655 101.883 475.882 453.225
3167 0 127.09 13.101 1665 102.754 475.953 449.24
3168 0 134.132 13.8967 1864 100.272 476.34 447.877
3169 0 134.216 12.1669 1633 103.142 475.766 447.448
3170 1 68.2797 10.7499 734 99.1049 475.95 479.029
3171 0 70.2782 11.7391 825 98.9042 475.707 474.301
3172 0 74.5072 10.509 783 95.433 476.181 477.317
3173 0 79.3391 11.684 927 93.1165 476.104 476.874
3174 0 79.3923 10.1269 804 96.2612 476.805 476.122
3175 0 82.4565 10.0053 825 97.6727 476.053 472.985
3176 0 87.4224 10.7524 940 95.6979 477.135 471.812
3177 0 92.1839 13.332 1229 90.0871 477.502 474.535
3178 0 92.4726 11.0411 1021 94.5299 477.044 468.439
3179 0 95.3771 13.1897 1258 90.3196 477.144 471.828
3180 0 99.3958 11.6001 1153 92.9575 476.538 470.403
3181 0 100.43 10.9031 1095 95.1845 476.148 465.202
3182 0 107.251 12.9509 1389 90.725 476.382 467.979
3183 0 107.353 12.3984 1331 90.3997 477.614 467.908
3184 0 110.324 13.8319 1526 89.4921 477.641 464.786
3185 0 113.42 12.608 1430 91.6629 477.839 464.353
3186 0 117.381 13.3157 1563 90.4408 477.864 461.377
3187 0 122.349 13.1264 1606 89.4458 477.869 462.289
3188 1 68.3126 9.52973 651 90.725 478.547 487.856
3189 0 73.0326 10.5843 773 90.9353 477.815 487.239
3190 0 74.0945 11.1614 827 88.3519 475.042 485.861
3191 0 79.1762 12.8195 1015 88.2975 475.596 482.301
3192 0 79.2221 12.4334 985 90.534 475.748 480.996
3193 0 83.184 12.9592 1078 92.4555 475.405 480.807
3194 0 84.2394 12.049 1015 95.264 475.892 476.018
3195 0 88.3931 14.345 1268 90.832 475.392 477.831
3196 0 92.2023 13.7198 1265 91.581 474.853 475.892
3197 0 95.3679 14.1557 1350 90.9978 475.775 474.33
3198 0 96.2463 13.5694 1306 92.9487 475.25 473.495
3199 0 99.3919 13.814 1373 92.6111 475.418 469.906
3200 0 100.23 12.5511 1258 94.9102 475.818 468.477
3201 0 106.526 14.6631 1562 91 476.086 466.571
3202 0 107.465 13.5765 1459 94.6086 476.372 460.474
3203 0 107.54 14.0971 1516 88.5442 476.16 457.869
3204 0 110.272 15.1171 1667 87.4961 476.566 455.444
3205 0 111.396 14.5607 1622 89.8884 476.174 452.174
3206 0 109.239 13.6306 1489 93.2626 476.324 450.351
3207 0 117.275 12.5687 1474 95.0109 476.098 447.571
3208 0 119.339 14.086 1681 92.1785 475.645 446.872
3209 0 125.318 14.4991 1817 92.115 475.802 449.668
3210 0 131.474 12.8619 1691 95.9101 476.514 442.384
3211 0 140.342 14.8138 2079 90.8696 476.438 440.519
3212 1 83.2452 11.2319 935 87.7112 476.337 477.102
3213 0 85.2959 11.4191 974 88.847 477.098 473.665
3214 0 85.1709 12.0933 1030 86.8466 476.459 475.662
3215 0 89.1895 13.1966 1177 89.1852 476.687 469.917
3216 0 93.3474 10.6805 997 94.0451 476.391 467.153
3217 0 97.3621 11.8013 1149 92.3655 476.692 467.41
3218 0 102.537 10.1232 1038 96.9489 476.391 465.084
3219 0 104.38 11.1036 1159 97.0095 476.793 466.036
3220 0 109.691 12.3803 1358 96.1443 476.614 465.359
3221 0 112.349 12.7104 1428 97.7451 476.445 468.631
3222 0 115.699 11.3225 1310 101.943 476.65 465.095
3223 0 118.55 11.7672 1395 102.361 476.591 462.337
3224 0 121.647 12.5363 1525 101.372 476.979 460.762
3225 0 126.574 13.4388 1701 99.328 476.915 458.925
3226 0 129.535 12.8383 1663 100.73 477.58 455.776
3227 0 130.629 11.8044 1542 103.852 477.252 452.501
3228 0 136.376 12.5389 1710 103.102 477.528 450.822
3229 0 139.549 12.1893 1701 105.245 477.48 448.34
3230 0 145.526 11.4137 1661 107.09 477.983 444.53
3231 0 151.753 13.2847 2016 103.291 477.355 442.698
3232 0 154.499 13.4176 2073 103.955 477.854 441.077
3233 0 160.463 13.9658 2241 103.274 477.664 435.949
3234 0 165.507 12.6762 2098 106.023 478.098 435.805
3235 1 95.3787 11.2813 1076 101.403 477.771 470.928
3236 0 100.431 13.2928 1335 96.8592 478.333 469.709
3237 0 101.334 10.8651 1101 103.153 477.736 467.734
3238 0 107.195 12.2207 1310 100.838 476.993 469.079
3239 0 108.174 11.4815 1242 102.677 477.16 468.676
3240 0 112.288 11.0252 1238 103.741 477.096 466.672
3241 0 115.32 10.9868 1267 104.868 477.76 463.092
3242 0 122.5 11.8938 1457 102.832 477.977 460.078
3243 0 123.653 12.1712 1505 103.758 477.875 455.453
3244 0 126.493 11.2497 1423 106.506 477.022 458.05
3245 0 128.503 12.0464 1548 107.072 477.718 454.691
3246 0 133.537 12.0341 1607 107.767 477.967 451.679
3247 0 139.524 13.0157 1816 105.139 477.987 447.942
3248 0 141.547 11.5015 1628 109.942 477.61 445.625
3249 0 148.515 12.524 1860 106.797 477.081 445.497
3250 0 154.484 12.3897 1914 107.464 477.851 445.631
3251 1 89.2382 10.8026 964 102.104 477.488 474.591
3252 0 93.2802 13.3469 1245 100.957 477.489 473.447
3253 0 95.3224 12.6728 1208 95.3369 477.527 471.839
3254 0 98.2167 10.0696 989 99.6421 477.466 472.403
3255 0 100.288 11.2377 1127 97.6318 478.028 468.532
3256 0 102.32 11.767 1204 96.3887 476.425 468.475
3257 0 107.495 11.0424 1187 97.567 477.601 467.75
3258 0 110.268 11.8348 1305 96.6789 477.344 465.916
3259 0 114.371 11.2704 1289 97.6998 477.866 465.458
3260 0 116.402 11.7781 1371 97.7812 477.443 457.769
3261 0 119.265 11.1097 1325 99.2589 478.386 456.787
3262 0 124.275 11.0963 1379 98.0892 478.26 460.321
3263 0 126.453 12.1231 1533 97.5545 477.034 454.094
3264 0 131.187 11.4417 1501 99.1239 477.045 453.656
3265 0 137.27 11.991 1646 98.9587 477.32 455.568
3266 1 79.1091 11.086 877 104.691 478.221 478.973
3267 0 83.2527 11.8194 984 100.812 477.607 479.455
3268 0 85.1912 11.3744 969 99.3302 477.835 480.529
3269 0 88.111 11.86 1045 98.2488 478.291 480.274
3270 0 91.1019 12.1073 1103 99.0299 477.533 475.304
3271 0 95.0707 12.5065 1189 97.069 478.676 476.423
3272 0 96.0902 13.0711 1256 96.6107 478.255 472.957
3273 0 100.184 14.0941 1412 94.7089 478.854 470.676
3274 0 103.077 14.5813 1503 93.7918 478.658 468.414
3275 0 105.158 14.112 1484 95.5903 477.989 466.377
3276 0 108.112 13.079 1414 97.7694 478.753 464.844
3277 0 112.195 13.6192 1528 96.4378 478.931 462.487
3278 0 115.123 12.5779 1448 99.2604 479.077 462.906
3279 0 118.116 12.8263 1515 98.7756 478.203 460.525
3280 0 122.158 13.6298 1665 97.4156 478.579 460.147
3281 0 125.245 12.6072 1579 100.529 478.293 460.348
3282 0 127.215 12.6479 1609 101.687 477.85 457.1
3283 0 129.441 12.6158 1633 102.116 477.729 456.801
3284 0 135.454 10.8745 1473 105.552 478.048 457.599
3285 0 137.358 11.4445 1572 106.062 477.989 451.41
3286 0 141.492 11.5201 1630 107.534 477.618 444.639
3287 0 149.667 13.1559 1969 102.859 477.442 442.373
3288 0 151.594 11.8277 1793 105.513 476.837 441.615
3289 0 149.296 13.2488 1978 102.385 477.993 432.216
3290 0 152.343 12.8328 1955 104.423 477.829 425.753
3291 0 153.357 12.4416 1908 104.325 476.794 420.295
3292 1 110.381 8.30762 917 104.691 478.168 459.021
3293 0 109.167 8.7664 957 107.171 478.29 453.584
3294 0 111.251 6.93025 771 111.082 478.58 452.141
3295 0 111.354 10.3005 1147 105.289 478.143 453.917
3296 0 109.461 11.2003 1226 105.5 478.049 449.471
3297 0 114.123 12.469 1423 104.869 478.44 448.21
3298 0 119.19 13.0128 1551 102.538 478.271 448.121
3299 0 122.128 12.4214 1517 103.434 479.035 447.359
3300 0 127.093 13.919 1769 102.516 479.008 443.642
3301 0 127.138 14.0005 1780 106.4 479.234 438.885
3302 0 134.194 13.3016 1785 107.715 479.485 437.864
3303 0 140.498 13.445 1889 107.805 478.735 436.609
3304 0 146.351 13.2489 1939 107.761 478.928 442.073
3305 0 147.321 13.0124 1917 110.514 479.382 436.078
3306 0 154.525 13.2535 2048 110.031 479.184 433.968
3307 0 156.408 11.649 1822 113.544 478.368 428.091
3308 0 159.498 12.4391 1984 113.156 478.67 423.067
3309 0 165.436 12.8932 2133 112.01 478.966 422.109
3310 0 172.36 12.7814 2203 112.238 479.337 420.012
3311 0 177.407 12.4516 2209 112.848 479.147 420.191
3312 0 181.326 11.7689 2134 115.138 478.903 413.15
3313 0 190.436 12.4189 2365 111.267 479.438 414.581
3314 0 193.294 11.3816 2200 114.577 479.122 405.093
3315 0 203.475 12.6944 2583 109.808 479.08 410.117
3316 0 202.243 11.7285 2372 114.097 479.194 398.395
3317 1 218.587 12.9285 2826 110.923 479.358 397.76
3318 0 221.606 12.1793 2699 113.082 479.376 392.785
3319 0 227.44 11.3788 2588 113.316 479.62 395.345
3320 0 236.501 13.3615 3160 109.751 478.868 385.782
3321 0 242.464 11.5523 2801 113.794 478.652 383.743
3322 0 249.485 11.0187 2749 114.94 477.773 378.534
3323 0 259.439 12.8431 3332 110.518 477.859 376.998
3324 1 59.0981 6.0408 357 103.804 479.457 473.031
3325 0 63.106 7.98656 504 93.5853 478.841 476.976
3326 0 68.2733 11.2343 767 84.6623 476.681 476.222
3327 0 69.1789 8.18168 566 90.6855 476.364 476.954
3328 0 71.1249 10.4464 743 87.2826 477.532 480.747
3329 0 76.152 10.9386 833 85.97 478.031 478.958
3330 0 71.2294 7.76365 553 95.7722 477.971 474.181
3331 0 78.1929 9.01616 705 93.556 475.757 474.74
3332 0 79.2136 10.2003 808 91.5186 476.463 473.856
3333 0 80.2078 9.25096 742 94.8356 476.179 467.815
3334 0 82.1958 8.65008 711 96.7286 476.66 466.771
3335 0 90.2692 10.4798 946 92.8658 475.71 471.101
3336 0 88.1129 8.93172 787 99.5731 478.027 468.694
3337 0 96.1463 11.6593 1121 104.721 479.463 476.551
3338 1 38.0439 7.4125 282 97.6915 479.096 505.333
3339 0 41.1325 9.18981 378 94.6772 478.36 504.413
3340 0 42.0804 8.95905 377 94.8249 478.836 503.52
3341 0 42.1645 9.81868 414 94.5072 477.507 501.891
3342 0 41.2036 8.9798 370 97.6486 476.497 501.043
3343 0 42.2371 9.35197 395 96.4911 475.694 498.466
3344 0 43.3006 10.4849 454 93.0859 474.674 498.526
3345 0 43.3531 10.426 452 95.5442 474.945 497.666
3346 0 44.2447 10.0351 444 97.1667 475.061 496.628
3347 0 44.2462 8.76911 388 98.317 474.539 497.358
3348 0 44.2827 10.0942 447 95.6622 474.309 497.396
3349 0 47.2953 9.89527 468 95.5962 474.115 497.624
3350 0 46.3177 9.84506 456 95.4715 474.018 496.535
3351 0 48.2114 11.1384 537 92.7654 474.752 496.566
3352 0 46.1001 9.13231 421 95.0048 474.572 498.658
3353 0 48.0618 10.008 481 93.5489 474.023 497.033
3354 0 48.1605 10.4858 505 93.2911 473.65 496.695
3355 0 47.0787 10.1957 480 93.7583 474.05 496.667
3356 0 50.1071 11.7748 590 89.8559 474.303 496.249
3357 0 50.1116 9.91785 497 93.0724 474.692 496.473
3358 0 50.0912 10.6406 533 92.5985 474.946 496.752
3359 0 52.0619 8.81643 459 96.0871 473.887 498.824
3360 0 51.0951 9.12025 466 95.4313 474.403 497.077
3361 0 51.0594 9.06788 463 96.3283 474.406 497.793
3362 0 51.0814 9.47506 484 96.0124 474.564 497.504
3363 0 52.0798 8.9286 465 98.7806 473.735 494.834
3364 0 51.016 9.2716 473 97.7505 474.522 494.345
3365 0 51.0329 9.22934 471 97.4098 474.446 496.701
3366 0 51.0814 9.94492 508 97.5079 473.687 495.291
3367 0 55.0494 10.4633 576 95.3715 474.307 494.418
3368 0 54.1212 10.0146 542 95.5277 473.679 493.568
3369 0 56.083 8.50526 477 97.3585 474.01 493.136
3370 1 204.398 13.9483 2851 130.934 475.103 407.944
3371 0 210.423 14.9128 3138 128.355 475.714 406.147
3372 0 215.447 14.8389 3197 128.469 476.007 406.31
3373 1 61.0917 9.0847 555 95.8685 474.946 493.773
3374 0 62.1502 9.39659 584 95.8682 474.274 495.125
3375 0 61.2092 9.85147 603 96.1476 474.489 495.786
3376 0 60.0741 8.8058 529 96.6654 474.157 494.444
3377 0 58.4134 9.98059 583 95.7839 476.832 494.652
