time division length width area intensity CMx CMy
0 0 66.3175 12.4251 824 90.7148 887.012 467.765
1 0 67.1071 10.1033 678 94.5383 886.221 466.529
2 0 71.0844 10.4242 741 94.1984 886.228 464.374
3 0 71.0734 9.38467 667 95.5592 886.79 466.411
4 0 74.1707 11.6218 862 92.7111 887.045 463.59
5 0 77.1928 10.1046 780 93.6192 886.21 465.736
6 0 79.2511 9.86737 782 97.2059 887.563 458.556
7 1 38.0957 7.37616 281 92.5658 887.342 482.27
8 0 44.2033 10.9947 486 104.733 885.053 482.076
9 0 46.0346 11.4479 527 104.256 884.734 486.416
10 0 48.0516 11.7166 563 103.865 885.265 486.178
11 0 49.0154 11.0577 542 105.705 885.227 484.644
12 0 52.0702 13.7123 714 97.7269 886.915 481.045
13 0 52.0776 13.2495 690 101.067 886.603 482.801
14 0 53.0747 11.5498 613 106.312 886.214 483.591
15 0 56.0594 11.7197 657 105.586 885.764 483.237
16 0 56.1415 12.2904 690 105.48 886.493 481.425
17 0 63.0762 15.1087 953 93.1249 886.152 474.896
18 0 67.0916 13.8467 929 96.1281 886.733 475.374
19 0 72.1728 12.8442 927 97.2967 885.947 474.04
20 0 72.103 14.4932 1045 94.9215 887.093 472.886
21 0 72.1011 15.3257 1105 94.9059 886.71 471.548
22 0 71.0521 13.9334 990 101.898 886.653 471.643
23 0 75.117 15.1231 1136 98.838 885.86 469.899
24 0 70.1181 13.8338 970 107.298 886.261 470.956
25 0 73.0768 12.6579 925 111.318 886.737 471.757
26 0 76.1196 12.4541 948 112.707 886.501 471.178
27 0 78.0764 12.6799 990 112.322 886.769 469.241
28 0 79.1854 12.3508 978 114.355 886.894 468.24
29 0 82.1661 11.6228 955 117.088 887.023 467.048
30 0 85.1082 12.1962 1038 115.942 887.577 467.483
31 0 87.1068 12.3067 1072 116.692 888.243 464.312
32 0 90.1629 12.5662 1133 115.961 887.675 462.722
33 0 94.1298 13.5026 1271 112.629 887.743 462.371
34 0 95.1286 12.9929 1236 116.254 887.036 459.366
35 0 95.1312 12.877 1225 134.938 887.03 459.3
36 0 100.257 12.8071 1284 115.53 887.038 458.509
37 0 105.212 12.6886 1335 114.287 887.315 454.714
38 0 108.16 11.7326 1269 117 887.574 454.671
39 0 110.278 12.0604 1330 119.298 887.105 452.062
40 0 115.357 12.483 1440 117.296 887.342 446.819
41 1 56.1102 11.6735 655 111.569 887.427 478.408
42 0 57.2971 11.3967 653 108.992 888.133 475.813
43 0 61.2698 12.3715 758 109.315 887.902 477.578
44 0 61.2502 12.0326 737 110.849 888.107 474.925
45 0 65.256 12.5046 816 109.353 888.884 474.989
46 0 67.2959 11.0705 745 113.157 887.879 474.31
47 0 68.2812 12.2581 837 110.843 888.767 472.293
48 0 70.3945 11.1941 788 112.929 888.223 472.312
49 0 74.255 11.6625 866 112.594 888.788 468.652
50 0 77.2282 12.3789 956 110.365 887.52 467.179
51 0 77.2866 11.9426 923 114.111 888.275 464.608
52 0 81.2612 11.3954 926 115.424 887.611 465.378
53 0 84.2241 12.1224 1021 113.951 888.392 465.386
54 0 86.3125 11.4352 987 116.481 887.673 465.687
55 1 44.1271 10.5604 466 112.2 889.054 485.215
56 0 47.0719 10.4946 494 113.431 889.725 483.164
57 0 47.2748 10.5341 498 114.984 888.46 480.801
58 0 49.3479 11.7533 580 113.619 888.495 481.202
59 0 52.2584 11.7493 614 113.536 888.71 479.362
60 0 51.3253 11.5148 591 115.298 888.288 479.453
61 0 53.3767 11.5781 618 116.206 888.267 477.206
62 0 55.2068 11.6652 644 116.388 888.259 478.651
63 0 56.3246 12.8008 721 114.397 889.107 477.232
64 0 58.2483 12.7901 745 114.283 888.468 476.231
65 0 58.2067 12.8336 747 145.285 888.487 476.281
66 0 65.1648 12.8904 840 111.981 888.692 475.689
67 0 64.2161 11.7105 752 116.943 888.806 473.746
68 0 67.2389 12.2994 827 116.468 889.705 470.658
69 0 69.327 12.405 860 117.556 888.97 469.686
70 0 71.2303 13.4213 956 114.248 889.322 469.66
71 0 72.2398 13.1091 947 115.951 888.347 465.35
72 0 81.3396 16.1176 1311 104.473 887.842 461.68
73 0 89.3103 20.9942 1875 90.0581 887.959 455.763
74 0 86.289 15.1352 1306 107.853 889.42 458.581
75 0 84.2468 12.7364 1073 116.996 888.475 461.767
76 0 88.3286 13.4724 1190 115.434 888.959 459.512
77 0 90.2115 12.3266 1112 117.406 887.706 460.943
78 1 46.1578 11.6557 538 112.006 887.424 481.647
79 0 48.1477 11.1947 539 112.505 887.371 482.84
80 0 50.1709 12.9159 648 111.194 887.775 482.909
81 0 51.1258 11.4815 587 115.869 887.741 480.707
82 0 52.1726 12.0753 630 113.937 888.048 481.597
83 0 55.2396 12.0204 664 112.752 888.218 481.617
84 0 55.3349 13.1201 726 111.72 888.435 479.304
85 0 58.2176 12.0582 702 113.212 888.762 479.192
86 0 61.3836 12.821 787 110.296 887.527 478.208
87 0 59.2724 11.4725 680 116.297 887.035 476.063
88 0 63.3752 12.2603 777 113.512 887.734 474.165
89 0 64.4074 12.0328 775 113.693 888.015 472.732
90 0 71.3876 13.2656 947 109.229 888.525 473.306
91 0 71.3556 12.1644 868 112.401 888.692 470.582
92 0 73.5776 14.2707 1050 108.569 888.525 462.46
93 0 74.4321 11.5139 857 115.652 886.83 461.3
94 0 79.5865 11.9995 955 113.026 887.718 459.423
95 0 80.3985 12.6371 1016 112.575 888.253 462.028
96 0 84.2501 11.9288 1005 111.544 887.586 435.873
97 0 85.1622 10.5446 898 111.174 888.095 435.901
98 0 91.2718 12.5011 1141 105.968 887.989 437.304
99 0 93.1524 11.3577 1058 108.865 887.532 435.938
100 1 47.2253 10.7358 507 92.716 888.308 459.562
101 0 51.1502 10.0684 515 93.7126 887.132 463.557
102 0 52.1336 11.0677 577 92.1976 887.028 458.908
103 0 57.1649 12.0703 690 89.2507 887.193 462.807
104 0 57.156 11.8798 679 90.9396 887.844 459.95
105 0 58.1616 11.8807 691 90.8394 887.3 464.462
106 0 62.191 12.1561 756 90.0198 887.753 468.225
107 0 61.1844 10.5909 648 92.2901 887.744 474.407
108 0 65.1362 12.4355 810 89.063 888.325 473.29
109 0 67.1688 11.5232 774 90.0258 888.275 474.545
110 0 66.2083 10.0138 663 94.2066 888.713 473.021
111 0 70.2249 11.036 775 92.6155 888.386 470.988
112 0 74.1889 11.9964 890 91.5022 888.028 469.655
113 0 77.1015 11.3098 872 92.7924 887.219 470.858
114 0 80.193 11.1855 897 93.4905 888.009 469.086
115 0 82.104 10.9617 900 94.6556 887.809 466.881
116 0 83.1832 10.9758 913 95.0712 888.394 467.561
117 0 86.2651 10.6532 919 94.1186 887.815 464.084
118 0 91.1665 10.9909 1002 94.5319 888.526 463.412
119 1 49.1608 9.66217 475 87.7537 888.16 485.653
120 0 49.1209 9.46644 465 92.3763 888.333 484.43
121 0 49.1477 12.1878 599 90.0651 887.72 480.063
122 0 53.1051 12.2022 648 87.4043 888.292 481.96
123 0 54.0754 11.3545 614 88.4446 888.704 481.883
124 0 57.0967 11.8396 676 86.8743 887.806 480.084
125 0 59.0723 10.2417 605 89.0314 887.593 478.846
126 0 60.1165 11.8769 714 86.1008 888.846 477.492
127 0 62.1318 10.526 654 83.656 887.624 476.211
128 0 63.1698 11.4453 723 83.5007 887.964 473.88
129 0 67.1489 12.4946 839 81.8892 886.927 471.453
130 0 69.1185 12.0952 836 82.1184 887.65 471.141
131 0 68.2284 8.96987 612 86.8627 887.623 472.417
132 0 71.1282 10.699 761 84.59 887.787 469.799
133 0 75.1018 12.5563 943 80.7497 887.434 469.511
134 0 78.159 10.8881 851 83.792 887.576 468.04
135 0 80.1219 12.7056 1018 80.8045 887.337 465.699
136 0 82.2065 11.021 906 83.1998 887.439 465.373
137 0 86.2024 11.5658 997 81.9147 887.509 463.438
138 0 88.34 11.5123 1017 82.7217 886.655 459.282
139 0 90.2707 11.1443 1006 83.7674 886.941 457.453
140 0 91.3048 10.1418 926 86.5043 886.943 457.667
141 1 50.11 9.43923 473 85.4038 888.218 481.359
142 0 51.1905 10.7442 550 86.6545 887.935 479.864
143 0 53.1914 10.622 565 82.085 888.136 478.354
144 0 56.1578 10.15 570 85.0982 887.712 464.712
145 0 58.1031 10.9461 636 83.6651 887.564 469.354
146 0 59.0985 10.8294 640 83.4016 887.411 477.645
147 0 61.1734 10.74 657 84.0609 886.793 474.402
148 0 63.1416 10.4685 661 84.3737 887.346 471.853
149 0 64.1699 10.6124 681 84.8943 887.733 473.254
150 0 65.1037 10.6445 693 85.5007 887.664 470.791
151 0 69.1861 12.4013 858 82.8345 887.599 467.219
152 0 72.1727 10.849 783 85.2388 886.907 467.881
153 0 74.208 11.8855 882 84.0918 887.164 466.596
154 0 73.176 9.12867 668 89.5314 887.781 464.672
155 0 78.1909 11.2033 876 87.1416 886.905 468.223
156 0 81.2361 10.7095 870 88.0069 887.567 468.056
157 0 84.2318 12.2282 1030 87.1748 887.355 463.17
158 0 89.2426 12.3259 1100 87.2464 887.826 462.181
159 0 93.2615 11.516 1074 88.8045 886.958 459.642
160 0 96.3731 12.296 1185 87.7924 886.417 458.331
161 1 51.1667 12.4886 639 82.9624 886.923 479.192
162 0 52.1291 11.2221 585 84.3692 887.067 477.559
163 0 52.2834 10.8256 566 89.1078 887.943 475.496
164 0 57.1328 10.6244 607 90.4811 886.125 459.633
165 0 58.1262 11.5094 669 89.1719 887.042 463.126
166 0 57.1262 10.5556 603 91.7363 886.844 464.872
167 0 60.182 11.648 701 89.679 887.238 462.154
168 0 62.1715 11.983 745 89.8242 886.808 459.756
169 0 63.0853 11.7777 743 89.7362 886.264 467.175
170 0 64.1392 11.0385 708 91.6709 885.808 465.962
171 0 65.153 11.143 726 92.0744 886.333 464.284
172 0 69.0983 12.7789 883 89.265 886.42 458.872
173 0 70.3037 10.6111 746 92.6582 886.997 461.387
174 0 72.1877 12.9246 933 89.4812 886.493 460.389
175 0 74.2506 11.9191 885 91.0023 886.486 459.76
176 0 77.2199 11.8234 913 92.701 886.102 454.042
177 0 79.2482 11.7227 929 93.6103 886.537 454.763
178 0 80.1827 11.1495 894 95.4743 886.28 455.188
179 0 84.2609 11.8798 1001 93.9121 887.24 455.724
180 0 88.1376 12.628 1113 92.5642 886.875 452.787
181 0 89.1487 12.6867 1131 92.8232 886.432 451.929
182 0 93.1976 11.2771 1051 94.7336 887.039 457.205
183 0 93.1976 11.202 1044 126.748 888.028 457.312
184 0 97.2372 11.9193 1159 94.6531 887.106 455.33
185 1 49.1622 10.1907 501 90.2216 885.966 471.14
186 0 51.1204 10.485 536 91.4869 885.987 472.437
187 0 56.1017 12.3882 695 94.8 885.622 480.214
188 0 58.228 11.5752 674 96.6039 885.463 479.38
189 0 58.0394 11.1131 645 98.6078 885.879 476.82
190 0 60.1235 12.2581 737 92.2076 885.788 476.746
191 0 64.0949 11.5766 742 92.2534 885.496 475.155
192 0 65.1228 11.5474 752 91.9295 884.955 475.957
193 0 70.122 13.9329 977 87.2416 885.51 470.764
194 0 70.2902 13.1171 922 89.5108 885.496 472.089
195 0 71.1518 11.2436 800 93.2825 885.785 471.814
196 0 71.2076 12.611 898 93.0334 884.679 465.059
197 0 76.134 12.0445 917 93.1985 885.07 465.576
198 0 77.1739 12.6468 976 92.377 885.497 464.583
199 0 81.1457 12.57 1020 92.3373 884.868 464.248
200 0 85.1458 12.8838 1097 92.2215 884.896 462.576
201 0 86.2073 12.6207 1088 93.6443 885.09 461.26
202 0 88.1422 12.6273 1113 92.3351 885.24 462.916
203 0 92.1462 12.9794 1196 92.2542 885.564 460.136
204 0 93.1245 12.0913 1126 94.278 886.81 461.215
205 0 98.1347 13.4407 1319 98.5345 886.547 458.387
206 0 99.523 12.791 1273 105.825 885.556 447.285
207 1 54.4839 11.251 613 101.111 885.628 462.02
208 0 52.3585 11.5359 604 93.9056 885.616 464.391
209 0 51.2742 11.1947 574 97.3449 886 462.141
210 0 56.1477 12.2712 689 91.6502 886.29 461.257
211 0 59.2818 12.7358 755 90.004 887.147 462.226
212 0 59.1695 12.8107 758 90.2216 886.788 465.788
213 0 61.1227 12.7121 777 91.6281 887.122 461.537
214 0 64.1802 12.0286 772 91.7034 887.29 467.938
215 0 67.1609 12.6859 852 90.3568 887.519 468.252
216 0 67.1631 11.1222 747 95.087 887.527 465.435
217 0 68.1359 12.1669 829 94.2461 887.106 465.285
218 0 69.2187 11.5287 798 95.9712 885.845 467.045
219 0 73.1015 13.8301 1011 91.0485 886.33 471.458
220 0 77.0967 12.5816 970 94.3588 886.042 469.091
221 0 81.0773 12.9259 1048 93.1861 886.17 468.264
222 0 83.0954 12.5157 1040 94.8952 887.005 465.555
223 0 84.1337 12.183 1025 95.7902 886.275 465.591
224 0 89.0837 12.7633 1137 95.1346 885.923 463.56
225 0 91.1588 12.8128 1168 96.2209 886.568 462.364
226 0 92.2113 12.0159 1108 98.046 886.509 462.01
227 1 51.0998 11.4678 586 97.0307 886.922 479.403
228 0 51.1488 11.5545 591 97.3993 885.606 479.58
229 0 52.1602 10.9471 571 98.9965 883.732 479.86
230 0 56.1298 13.1659 739 94.2612 884.18 477.524
231 0 57.1453 11.112 635 97.3543 884.85 479.361
232 0 58.104 10.5156 611 99.6318 885.645 479.018
233 0 61.1446 12.5604 768 95.8529 885.174 476.806
234 0 61.1389 12.6924 776 97.1095 884.802 475.298
235 0 64.1378 10.8828 698 99.957 884.702 475.453
236 0 66.1123 11.4502 757 98.1295 884.893 475.243
237 0 69.1072 12.1261 838 97.1253 884.777 473.285
238 0 70.1116 11.7099 821 98.8015 884.798 471.927
239 0 71.0698 11.7631 836 98.4797 885.512 472.859
240 0 75.2598 13.7125 1032 94.5078 884.945 467.491
241 0 79.1058 13.1217 1038 95.421 884.813 467.686
242 0 81.1098 11.4043 925 98.4854 883.494 469.602
243 1 41.0398 8.9669 368 103.943 883.951 485.291
244 0 43.0468 11.0113 474 99.9684 883.983 485.407
245 0 46.0664 11.44 527 98.9753 884.156 484.734
246 0 48.0178 11.35 545 103.272 884.191 482.855
247 0 49.037 12.9086 633 101.088 883.965 481.774
248 0 50.0963 10.6794 535 106.357 884.28 481.467
249 0 52.0243 12.8594 669 100.511 884.72 480.025
250 0 53.0491 10.9144 579 105.378 885.477 479.411
251 0 56.0529 12.5239 702 101.413 884.865 478.953
252 0 56.195 12.2787 690 102.687 884.467 477.172
253 0 58.0755 12.0188 698 103.41 883.377 477.744
254 0 64.1202 15.5177 995 92.0241 884.961 474.693
255 0 63.0889 13.0609 824 100.359 885.302 475.556
256 0 64.0877 12.1864 781 103.681 885.36 474.318
257 0 67.1485 12.0777 811 103.076 884.873 472.805
258 0 67.2853 11.206 754 105.314 886.015 470.133
259 0 74.3193 13.1191 975 100.299 886.335 468.419
260 0 74.2056 12.7349 945 102.382 885.437 468.324
261 0 77.3266 12.6735 980 102.521 886.098 468.747
262 0 79.304 12.0423 955 103.573 886.709 467.253
263 0 81.307 11.967 973 103.581 886.234 465.632
264 0 85.2762 12.5592 1071 102.329 885.263 461.88
265 0 89.3719 12.1179 1083 102.991 886.846 462.121
266 0 89.2227 11.8019 1053 104.265 886.627 460.702
267 1 46.1774 9.18199 424 103.507 885.191 484.099
268 0 48.3637 11.2688 545 100.272 885.776 482.508
269 0 50.3444 11.3816 573 99.5986 886.366 479.264
270 0 52.5124 11.1021 583 99.0943 886.923 479.647
271 0 55.4011 12.3102 682 96.6481 886.145 476.557
272 0 55.4235 11.8542 657 99.7275 886.224 474.697
273 0 57.387 13.4177 770 95.2 885.796 477.473
274 0 59.3072 12.2245 725 97.4359 886.766 476.032
275 0 59.3836 12.4445 739 96.9702 886.283 474.409
276 0 63.4235 14.0327 890 93.2258 886.255 473.857
277 0 62.1512 12.2282 760 97.7605 886.067 474.954
278 0 64.1447 12.1288 778 97.2404 885.379 474.315
279 0 65.1281 12.7288 829 96.4005 885.858 472.69
280 0 67.0975 12.6383 848 96.1203 885.791 473.314
281 0 71.2415 13.0121 927 94.4466 886.247 473.658
282 0 71.3149 12.3817 883 95.9728 885.148 469.106
283 0 75.1132 13.26 996 93.8323 885.254 469.197
284 0 76.1813 12.3127 938 95.4062 885.936 468.861
285 0 81.1259 13.855 1124 91.9947 884.853 465.377
286 0 82.2074 12.2982 1011 94.7705 885.41 462.322
287 0 86.1579 12.303 1060 94.6208 884.957 460.523
288 0 88.2651 11.2275 991 95.7911 884.926 460.194
289 0 93.3815 12.133 1133 92.5004 886.35 458.994
290 1 46.1475 8.53785 394 89.6371 887.203 483.201
291 0 47.0392 9.58775 451 84.1397 887.947 483.018
292 0 51.1621 11.3365 580 81.6448 887.057 481.481
293 0 52.0775 11.0604 576 81.8507 886.37 478.455
294 0 52.1217 8.2883 432 85.9329 887.002 479.336
295 0 54.056 10.9516 592 82.2804 887.274 476.414
296 0 56.1711 10.4146 585 82.853 886.6 474.945
297 0 57.1805 11.1751 639 82.7214 886.782 474.063
298 0 59.1826 13.3992 793 78.4779 886.763 470.4
299 0 61.1058 10.1627 621 83.3655 887.833 474.525
300 0 64.1371 11.3507 728 82.0728 886.986 469.545
301 0 65.1054 12.8714 838 80.8747 886.126 469.927
302 0 65.174 10.6024 691 83.5412 887.434 469.936
303 0 73.1762 15.2782 1118 74.9821 886.338 465.928
304 0 75.1237 11.5676 869 82.1266 887.081 466.72
305 0 77.1484 12.1325 936 81.1154 886.786 467.635
306 0 78.18 11.8828 929 82.5318 887.278 466.46
307 0 82.1001 11.4007 936 82.609 887.094 467.828
308 0 82.1365 10.6286 873 84.8041 886.698 465.448
309 0 88.1521 11.639 1026 83.6511 886.476 463.818
310 1 45.0384 9.08114 409 86.0587 888.54 482.655
311 0 48.1534 11.1726 538 82.8234 888.104 480.147
312 0 50.1535 11.4648 575 82.5965 887.856 479.247
313 0 51.1045 10.6644 545 84.7725 888.244 481.811
314 0 54.0838 10.7611 582 84.6014 888.644 480.495
315 0 55.0727 11.5484 636 83.8223 888.285 478.69
316 0 55.0507 11.0807 610 85.7246 887.774 479.326
317 0 59.1508 12.9161 764 82.6322 888.224 476.469
318 0 59.0567 12.7166 751 84.4088 888.734 475.866
319 0 62.0644 13.4377 834 83.7806 889.242 475.635
320 0 66.0483 13.4144 886 82.2122 888.712 470.8
321 0 67.0706 13.1056 879 84.4164 888.339 471.936
322 0 66.0657 11.2767 745 89.0872 887.212 472.812
323 0 70.1146 12.665 888 87.5923 888.157 471.019
324 0 72.0959 10.5554 761 91.4428 888.459 473.155
325 0 74.1933 11.187 830 90.7482 888.07 468.269
326 0 76.1198 13.1766 1003 87.2832 888.991 467.368
327 0 78.1188 12.5194 978 89.7597 888.251 466.37
328 0 82.1204 12.4817 1025 90.0224 889.043 464.319
329 0 85.1 12.4207 1057 90.175 888.237 463.641
330 1 43.0683 10.4021 448 95.154 889.471 483.592
331 0 42.058 10.2715 432 96.0255 889.255 484.653
332 0 48.0324 11.2841 542 90.7066 888.31 484.129
333 0 47.0463 12.052 567 88.4233 887.869 484.894
334 0 49.0407 11.9289 585 89.1385 889.027 481.814
335 0 51.1222 11.9518 611 90.527 889.417 481.381
336 0 52.1097 11.9939 625 91.696 889.485 480.51
337 0 53.0376 12.18 646 92.709 889.622 478.441
338 0 56.0945 11.4628 643 92.8258 889.121 479.807
339 0 57.0593 11.8824 678 93.3673 889.353 477.279
340 0 59.0598 11.4799 678 94.0413 888.192 476.892
341 0 62.2167 13.244 824 90.8083 888.125 473.405
342 0 64.2228 11.211 720 95.1181 887.929 472.664
343 0 65.1029 12.4726 812 93.7611 888.339 473.277
344 0 66.0945 13.0722 864 93.5914 888.312 470.147
345 0 69.2065 11.9208 825 96.1733 888.524 468.554
346 0 72.2396 12.9154 933 94.2315 887.294 469.438
347 0 74.1793 12.9955 964 95.1494 888.257 468.221
348 0 77.3253 13.7859 1066 93.4512 888.281 465
349 0 83.2872 15.1284 1260 89.9603 887.238 463.449
350 0 82.2825 13.5752 1117 95.6938 887.384 463.736
351 0 87.2585 14.3138 1249 92.9079 887.311 463.558
352 1 45.1005 12.0398 543 99.2707 889.28 482.177
353 0 46.0882 10.7403 495 102.646 889.491 483.723
354 0 46.1075 11.6901 539 102.705 888.649 482.486
355 0 48.1897 13.1771 635 94.7339 888.268 481.698
356 0 49.0707 11.2898 554 100.04 888.487 484.653
357 0 50.1508 12.0636 605 98.4116 888.379 480.476
358 0 51.1098 11.896 608 99.4539 889.02 480.257
359 0 55.0574 12.0602 664 98.8675 888.158 478.515
360 0 55.1166 12.0653 665 99.6677 887.935 480.186
361 0 57.1347 12.9344 739 98.2463 887.936 477.323
362 0 59.1274 13.1411 777 97.7426 888.587 477.753
363 0 60.1105 13.0926 787 98.0407 888.379 476.653
364 0 66.1186 14.9429 988 92.0202 888.717 475.621
365 0 64.1763 12.9175 829 99.1544 887.843 474.6
366 0 65.1641 12.998 847 100.523 888.235 474.034
367 0 68.1616 14.9644 1020 95.9088 887.503 472.879
368 0 69.1766 14.051 972 98.8302 886.801 471.283
369 0 71.209 12.2316 871 103.836 887.747 472.085
370 0 75.3453 13.9491 1051 99.5347 887.65 470.713
371 0 76.245 13.6665 1042 101.317 887.679 467.517
372 0 79.3888 13.6417 1083 101.588 887.226 466.524
373 0 81.3265 13.7962 1122 101.41 887.686 466.985
374 0 83.2253 13.1571 1095 104.205 887.359 464.316
375 0 86.1427 13.2571 1142 105.372 887.645 458.754
376 0 91.2039 13.8481 1263 103.081 888.351 462.958
377 0 94.1768 14.0374 1322 102.725 888.428 459.288
378 1 47.1026 9.78715 461 108.694 888.703 480.931
379 0 48.0865 11.4585 551 100.147 886.436 477.777
380 0 49.0296 11.8296 580 99.8621 885.891 477.452
381 0 51.0976 9.6482 493 104.643 885.041 477.7
382 0 51.025 10.681 545 104.275 886.125 475.446
383 0 52.0363 10.2813 535 106.714 885.996 475.585
384 0 54.0334 11.4374 618 105.481 885.85 473.557
385 0 57.0415 10.729 612 106.377 885.912 472.987
386 0 59.0225 10.8942 643 105.347 886.208 472.83
387 0 59.0323 10.9262 645 108.043 884.927 468.256
388 0 63.0415 11.2942 712 106.42 885.403 469.963
389 0 65.0949 12.1515 791 105.394 885.114 467.602
390 0 68.055 12.4605 848 105.147 884.821 466.579
391 0 66.0802 10.2905 680 111.868 885.244 463.21
392 0 73.037 11.7885 861 108.685 886.072 464.983
393 0 76.0856 11.6448 886 109.746 885.642 463.866
394 0 77.1211 11.9941 925 110.075 885.877 461.826
395 0 81.2003 11.6256 944 109.52 885.997 463.706
396 0 83.2266 12.1956 1015 109.921 886.049 459.139
397 0 86.2351 12.3732 1067 108.945 886.312 458.943
398 1 41.0949 10.6582 438 98.5571 886.002 478.84
399 0 44.2261 11.5543 511 99.2368 886.033 478.969
400 0 45.2276 10.9004 493 105.156 885.955 478.684
401 0 45.1357 9.28312 419 102.773 886.184 477.563
402 0 45.1357 9.1945 415 128.54 886.176 477.46
403 0 50.0735 10.0452 503 95.7078 887.334 478.946
404 0 52.1092 10.4204 543 96.7735 887.58 478.306
405 0 51.0448 8.67865 443 100.738 887.907 480.187
406 0 55.0508 11.7528 647 93.7651 887.257 476.995
407 0 57.177 11.9279 682 93.2375 886.37 476.378
408 0 56.0327 10.4939 588 96.5782 886.774 472.24
409 0 58.0507 10.7837 626 95.4872 886.665 474.484
410 0 62.0466 10.8467 673 94.3373 887.3 472.927
411 0 65.1072 11.4273 744 92.8616 886.914 472.39
412 0 66.1543 11.5185 762 92.8228 886.459 472.731
413 0 70.0753 10.8598 761 94.3193 886.315 471.623
414 0 71.0935 11.1684 794 93.0214 887.743 471.137
415 0 73.1947 11.4626 839 93.6877 886.498 468.824
416 0 74.1325 10.4812 777 96.9176 886.84 463.555
417 0 79.1199 11.2487 890 92.9045 886.403 467.845
418 0 80.182 9.81518 787 97.3952 884.858 463.379
419 0 85.3287 11.6022 990 95.8949 885.608 459.731
420 1 44.1627 10.3028 455 93.5473 885.24 480.787
421 0 46.086 10.7625 496 99.744 885.302 487.442
422 0 47.0698 11.5361 543 98.1123 885.834 485.239
423 0 49.1454 11.1709 549 97.7031 887.891 486.679
424 0 48.0776 11.6062 558 97.4265 887.652 485.815
425 0 51.1181 10.3681 530 98.5151 887.649 483.955
426 0 55.0625 11.714 645 95.1659 886.104 483.716
427 0 56.0565 10.6856 599 97.4658 887.033 482.725
428 0 58.1259 10.5633 614 96.298 886.681 485.2
429 0 59.0855 11.458 677 96.771 887.524 479.842
430 0 62.0977 10.8378 673 97.6092 887.288 479.823
431 0 63.0776 11.2243 708 97.4167 887.35 477.499
432 0 66.1105 10.785 713 97.6957 887.691 479.99
433 0 69.1721 12.9532 896 93.7623 888.273 476.698
434 0 73.1508 12.2487 896 95.6674 886.693 476.099
435 0 72.0511 10.2982 742 99.8544 886.125 476.509
436 0 74.1226 11.2381 833 100.208 886.505 470.233
437 0 80.1118 11.3092 906 100.379 887.322 470.252
438 0 82.2262 11.6143 955 100.039 886.816 469.888
439 0 84.0775 11.5251 969 100.188 886.722 469.845
440 0 90.1084 13.1286 1183 97.6314 887.155 464.971
441 1 45.0143 10.8854 490 101.847 887.471 487.096
442 0 47.1449 11.9207 562 100.096 886.192 484.044
443 0 47.0805 11.2573 530 100.338 887.681 485.006
444 0 48.1298 11.4482 551 98.6007 887.434 483.105
445 0 52.155 12.367 645 95.9287 887.664 481.465
446 0 53.1348 12.233 650 97.3892 886.518 479.483
447 0 54.1551 13.0551 707 95.8939 887.286 480.629
448 0 54.1783 11.6098 629 99.717 887.552 479.704
449 0 58.0822 12.8267 745 96.1423 888.119 479.051
450 0 59.0934 12.6072 745 98.2215 886.472 477.183
451 0 61.1852 13.974 855 95.2105 887.549 475.097
452 0 65.1822 12.8716 839 96.7282 886.094 477.228
453 0 64.1874 12.8063 822 98.3017 887.328 475.023
454 0 70.1616 13.8252 970 94.9175 886.206 473.742
455 0 71.4249 12.9507 925 97.4843 886.797 470.936
456 0 71.2367 12.9849 925 98.7059 886.274 471.879
457 0 73.2709 12.3241 903 101.313 887.187 468.107
458 0 79.3757 13.7952 1095 95.947 885.833 470.289
459 0 80.144 12.6398 1013 99.6515 886.447 469.44
460 0 87.1706 15.6475 1364 91.989 885.717 460.852
461 0 88.1638 14.405 1270 96.8913 885.229 462.794
462 0 87.1373 11.8204 1030 104.575 886.636 465.961
463 0 92.2049 13.9147 1283 104.691 886.421 459.743
464 0 94.277 14.3831 1356 104.479 886.112 457.763
465 1 49.2052 11.8687 584 101.789 886.777 481.068
466 0 51.0424 12.7345 650 96.3292 885.988 465.166
467 0 51.1103 12.2089 624 97.9054 885.673 467.272
468 0 53.0651 13.8132 733 96.4952 885.538 466.697
469 0 55.1544 13.9608 770 95.126 884.921 468.751
470 0 56.0806 12.3394 692 98.5491 884.921 466.88
471 0 58.1383 12.8315 746 97.3525 885.741 470.186
472 0 60.1777 12.4132 747 97.4565 886.272 473.099
473 0 63.2293 13.0478 825 95.2655 885.406 478.143
474 0 63.2745 12.7856 809 96.6663 886.027 475.989
475 0 67.1204 14.5112 974 93.8357 884.805 475.385
476 0 72.2057 16.176 1168 87.9307 884.89 470.339
477 0 74.1026 15.5865 1155 89.3827 885.126 470.559
478 0 75.2553 15.8793 1195 90.0711 885.739 471.088
479 0 73.1135 12.6105 922 99.0846 884.715 473.184
480 0 77.2082 13.2758 1025 97.9249 885.257 470.768
481 0 80.1514 13.9735 1120 96.9866 885.861 467.975
482 0 82.158 11.7578 966 99.9472 886.525 471.542
483 0 85.5205 13.0963 1120 97.45 885.328 469.429
484 0 89.1669 13.3794 1193 97.7049 885.266 466.731
485 0 93.3462 12.7161 1187 98.1946 884.57 463.343
486 0 97.2212 12.8367 1248 97.383 884.579 464.211
487 1 51.0908 11.6068 593 99.0236 886.642 483.919
488 0 53.1578 12.4911 664 97.7078 887.758 482.252
489 0 56.0666 12.61 707 97.3041 886.703 483.168
490 0 56.1306 12.756 716 97.8617 886.517 481.478
491 0 58.1618 12.7231 740 97.5568 887.112 479.772
492 0 61.1128 12.7796 781 97.9155 886.606 479.743
493 0 63.0885 12.7757 806 94.9851 886.196 479.489
494 0 64.2291 12.3776 795 96.1421 886.257 479.225
495 0 66.1715 13.2988 880 94.1534 886.615 479.555
496 0 67.1962 13.349 897 94.8395 887.333 474.808
497 0 71.1918 13.0914 932 94.5536 886.917 473.813
498 0 73.2824 12.3358 904 96.7754 885.939 475.171
499 0 76.0993 12.8122 975 96.0749 886.571 472.589
500 0 78.1198 12.2248 955 101.003 886.093 471.994
501 0 82.1823 12.0342 989 101.741 886.01 468.101
502 0 84.2091 12.5521 1057 100.64 885.487 467.861
503 0 86.1825 11.7309 1011 102.682 885.968 465.156
504 1 46.1259 9.84262 454 100.934 887.13 488.899
505 0 44.2097 10.7216 474 101.964 885.03 487.764
506 0 45.0535 10.3433 466 96.5107 885.987 489.185
507 0 44.0699 9.71184 428 98.8411 885.82 488.301
508 0 47.099 10.3611 488 96.8443 885.871 488.811
509 0 47.076 9.85641 464 98.0388 885.821 488.625
510 0 49.0947 10.1233 497 98.2616 886.388 485.159
511 0 50.1923 10.6391 534 97.4569 885.923 486.097
512 0 53.0793 11.1343 591 95.4704 885.963 483.435
513 0 55.0634 11.2416 619 95.3053 886.583 483.738
514 0 58.1428 11.9533 695 93.9669 886.584 482.643
515 0 59.047 12.6171 745 93.3128 886.945 482.074
516 0 60.1222 11.1606 671 96.3621 886.51 479.627
517 0 66.1613 11.2301 743 94.3486 885.279 480.316
518 0 67.1389 11.6475 782 93.5217 885.014 478.957
519 0 70.2719 11.7543 826 93.8015 885.344 475.416
520 0 74.2183 11.9782 889 93.0562 886.241 474.24
521 0 75.1376 13.1492 988 91.5445 885.719 472.183
522 0 78.1915 11.5486 903 95.8228 885.757 469.595
523 0 82.2162 11.7738 968 95.9153 885.947 470.903
524 1 43.1646 10.3557 447 102.461 886.74 485.629
525 0 47.3448 10.8354 513 100.427 886.565 486.548
526 0 48.3076 12.6067 609 96.9901 886.325 485.366
527 0 52.0915 12.862 670 96.7806 887.254 483.715
528 0 51.2293 12.649 648 98.554 885.613 480.835
529 0 52.1166 10.7259 559 103.211 886.356 480.025
530 0 54.0918 11.8872 643 100.062 886.255 482.065
531 0 54.0238 11.4579 619 101.574 886.67 481.619
532 0 57.0317 11.7654 671 99.8808 885.674 482.31
533 0 58.1032 9.68966 563 104.679 886.448 480.615
534 0 59.0367 11.3489 670 101.422 885.77 481.304
535 0 62.1693 10.7609 669 103.321 885.904 477.755
536 0 64.0741 13.4688 863 97.7984 885.72 478.717
537 0 68.1929 10.7343 732 103.149 886.21 477
538 0 68.1314 11.5512 787 103.076 884.848 475.449
539 0 69.2113 11.9489 827 103.455 885.681 472.042
540 0 76.3496 12.613 963 101.214 884.822 472.599
541 0 74.1564 10.9229 810 105.783 885.547 472.058
542 0 79.3019 11.9921 951 103.56 885.097 472.117
543 0 83.3277 12.8169 1068 101.944 884.36 468.691
544 0 85.2638 12.7135 1084 102.463 884.866 468.029
545 1 42.2355 10.986 464 93.9289 885.192 491.334
546 0 42.1005 11.7338 494 94.7146 885.437 490.126
547 0 44.186 9.57317 423 99.1489 887.622 488.794
548 0 49.2357 11.7191 577 95.0901 886.18 489.764
549 0 50.0709 11.8033 591 99.8257 884.892 486.805
550 0 51.1891 12.3073 630 100.105 884.686 486.771
551 0 51.0708 12.6883 648 100.798 885.15 486.073
552 0 52.0991 12.649 659 101.537 884.958 483.829
553 0 53.0676 11.7397 623 104.096 885.124 484.35
554 0 57.1429 13.055 746 100.387 884.997 482.582
555 0 57.1146 12.7813 730 102.519 885.658 480.411
556 0 58.087 13.3593 776 97.8144 884.781 479.664
557 0 59.1276 12.7352 753 104.166 884.782 480.732
558 0 60.0595 12.3045 739 105.743 885.378 479.146
559 0 61.0671 12.6255 771 101.027 886.154 481.481
560 0 60.1157 11.7773 708 105.27 886.648 481.799
561 0 62.0596 12.9875 806 104.462 885.78 479.37
562 0 62.0495 13.7632 854 103.639 885.645 479.978
563 0 64.0734 13.0475 836 105.815 884.507 477.523
564 0 66.0887 14.5713 963 102.023 884.421 478.258
565 0 64.0604 13.6278 873 107.553 883.945 479.317
566 0 66.0407 12.8254 847 109.349 884.648 477.553
567 0 68.1465 13.7645 938 105.342 884.053 478.8
568 0 69.315 13.0275 903 107.013 883.698 476.752
569 0 72.243 12.458 900 106.99 885.059 474.85
570 0 74.1025 13.6298 1010 102.857 885.266 475.266
571 0 74.157 13.0264 966 105.711 885.79 469.447
572 0 79.2761 13.043 1034 103.294 885.354 469.975
573 0 79.2498 12.1893 966 107.422 886.018 467.04
574 0 80.2967 12.6655 1017 107.386 884.882 468.868
575 0 83.2166 12.7258 1059 107.826 885.273 468.073
576 0 84.1436 11.2308 945 112.968 884.562 468.184
577 0 86.1465 11.6662 1005 113.188 884.863 466.957
578 0 89.2479 11.8434 1057 113.248 885.122 468.066
579 0 91.1666 13.0311 1188 114.148 885.304 463.549
580 0 95.1817 13.2483 1261 114.86 884.851 462.704
581 0 96.1972 11.3621 1093 120.289 884.812 463.999
582 0 99.1597 11.3958 1130 123.176 885.062 458.932
583 0 99.2315 11.3573 1127 125.004 886.394 456.276
584 0 104.258 11.5771 1207 124.063 884.444 455.967
585 0 108.087 13.0728 1413 120.959 884.478 453.97
586 0 107.258 11.8872 1275 124.786 883.973 449.184
587 0 109.152 11.5893 1265 126.299 884.199 445.492
588 0 109.269 12.6751 1385 125.9 884.133 442.571
589 0 114.146 11.5728 1321 129.878 884.145 440.041
590 0 117.179 10.7613 1261 134.546 884 437.864
591 0 122.188 12.5462 1533 130.687 885.01 437.14
592 0 123.192 11.2264 1383 136.056 884.525 434.982
593 0 128.2 10.8346 1389 138.849 885.007 431.086
594 0 129.212 10.5408 1362 141.529 884.172 426.578
595 1 63.0434 9.13656 576 125.773 885.979 463.483
596 0 70.0582 10.2914 721 120.391 883.85 465.15
597 0 76.1384 12.9107 983 130.991 884.795 469.271
598 0 78.0935 12.5619 981 132.231 885.621 469.073
599 0 80.0852 13.0736 1047 131.273 884.924 469.777
600 0 83.2557 12.5036 1041 133.794 885.039 466.695
601 0 85.1255 11.9118 1014 136.306 884.689 465.106
602 0 87.1534 12.5296 1092 134.156 885.415 463.729
603 0 92.1894 12.5286 1155 133.872 885.881 464.612
604 0 93.0876 12.0746 1124 136.503 885.788 463.363
605 0 97.1281 13.1064 1273 133.042 885.064 460.794
606 0 100.143 12.592 1261 134.578 884.932 458.274
607 0 103.219 13.6699 1411 131.742 885.381 457.165
608 0 107.275 13.2929 1426 131.445 885.272 458.4
609 0 111.3 13.4771 1500 131.27 886.263 453.549
610 0 115.4 15.0607 1738 126.486 884.889 453.446
611 0 118.367 14.8098 1753 128.094 884.885 448.889
612 0 120.296 13.7993 1660 132.938 884.845 445.697
613 0 126.304 13.1746 1664 132.538 884.974 448.641
614 0 131.425 13.521 1777 133.447 883.225 441.224
615 0 135.427 13.4168 1817 133.294 883.917 439.227
616 0 139.361 13.5116 1883 132.836 883.574 438.833
617 0 143.213 13.6929 1961 135.139 883.27 420.752
618 0 149.377 13.5496 2024 134.077 883.004 419.731
619 0 155.296 13.0654 2029 130.881 884.164 424.337
620 0 157.284 12.2263 1923 129.222 884.4 430.378
621 0 163.353 12.623 2062 129.725 884.419 426.194
622 0 167.399 12.5329 2098 131.446 884.303 424.822
623 0 176.479 13.2707 2342 129.19 884.255 423.026
624 0 179.345 13.1925 2366 131.448 883.12 418.991
625 0 187.361 13.5941 2547 129.185 883.409 415.481
626 0 191.402 13.4533 2575 130.064 882.278 414.349
627 0 199.606 13.4265 2680 130.029 882.447 411.487
628 0 205.445 14.2666 2931 128.674 882.18 406.389
629 0 209.334 13.1847 2760 131.038 882.723 405.352
630 0 216.316 13.1798 2851 134.125 883.634 400.296
631 0 226.432 14.8477 3362 132.944 882.62 392.302
632 0 234.427 14.6485 3434 130.718 883.275 389.674
633 1 179.41 11.6939 2098 137.577 882.788 415.801
634 0 186.366 12.4111 2313 135.768 883.431 410.248
635 0 194.371 13.3199 2589 132.069 883.143 409.229
636 0 197.326 12.786 2523 134.005 883.402 402.843
637 0 204.349 12.5912 2573 134.276 882.901 397.954
638 0 211.443 11.9039 2517 133.768 883.241 395.723
639 0 216.442 12.5761 2722 132.287 883.376 385.056
640 0 225.453 12.5303 2825 132.535 883.053 378.473
641 0 233.591 11.7513 2745 134.274 883.066 373.481
642 1 174.293 9.73646 1697 127.602 882.306 411.12
643 0 179.405 9.4702 1699 127.081 883.107 400.695
644 0 183.363 9.54392 1750 120.97 882.95 397.6
645 1 58.0484 5.82272 338 95.9408 884.506 475.254
646 0 59.0921 5.31374 314 96.449 884.691 471.439
647 0 65.2567 8.32099 543 92.2799 885.514 472.363
648 0 68.216 8.75162 597 91.6047 885.325 472.811
649 0 67.2609 7.93923 534 94.2022 885.472 470.107
650 0 71.2567 8.46236 603 92.8391 884.932 469.401
651 0 72.1069 9.16695 661 92.5915 884.965 469.233
652 0 79.1181 11.881 940 97 885.306 471.181
653 0 80.1838 12.0349 965 96.9088 884.889 473.114
654 0 82.149 10.627 873 102.463 884.994 470.529
655 0 85.0819 11.1069 945 100.749 885.345 470.293
656 0 88.0376 10.5182 926 101.995 884.239 466.933
657 0 91.0803 10.7817 982 101.787 883.661 465.958
658 1 49.0413 9.91001 486 103.646 882.64 484.854
659 0 52.2954 10.7658 563 105.304 883.016 484.153
660 0 52.1388 9.74322 508 108.89 882.858 483.307
661 0 58.1518 10.8681 632 104.782 883.646 482.41
662 0 57.0579 11.0239 629 106.291 882.189 481.267
663 0 60.0113 11.4978 690 105.971 881.899 479.833
664 0 62.0709 11.1808 694 106.004 881.713 480.8
665 0 62.0932 13.3831 831 102.394 883.078 479.26
666 0 61.0727 10.7086 654 108.979 883.728 478.983
667 0 65.0627 12.4188 808 105.715 883.389 476.056
668 0 68.1889 11.6734 796 106.705 883.938 477.305
669 0 69.0797 12.5941 870 104.57 882.943 477.125
670 0 71.0977 12.4336 884 104.63 882.688 476.253
671 0 70.1079 11.4252 801 107.88 883.424 475.502
672 0 76.1767 11.9197 908 105.703 883.66 473.858
673 0 77.2191 11.8365 914 107.204 885.149 471.74
674 0 78.2718 11.1023 869 108.297 884.69 473.395
675 0 81.24 12.0753 981 106.475 883.914 470.136
676 0 84.1885 12.2938 1035 105.243 883.202 469.525
677 0 86.2822 11.9607 1032 103.984 884.479 468.191
678 1 45.0619 10.186 459 102.227 883.039 487.375
679 0 47.0986 11.8475 558 96.1452 883.858 486.817
680 0 48.0544 12.3402 593 93.8786 884.094 488.064
681 0 50.0787 12.0211 602 97.2326 883.234 483.9
682 0 53.0503 12.9123 685 94.0788 883.439 483.556
683 0 53.0389 12.8396 681 95.1101 883.993 482.186
684 0 53.0971 11.2247 596 104.341 882.601 482.176
685 0 55.0385 11.9371 657 101.297 883.848 483.619
686 0 56.1464 11.7728 661 101.66 883.263 480.396
687 0 58.1548 11.9681 696 100.451 883.348 479.914
688 0 59.0732 12.0021 709 101.339 883.463 477.709
689 0 62.1357 12.3279 766 98.7885 883.584 480.038
690 0 64.2195 11.959 768 100.19 884.339 478.086
691 0 65.2151 13.1258 856 97.8867 884.947 476.355
692 0 67.1025 13.1441 882 98.3175 885.039 474.158
693 0 71.1797 13.4729 959 97.756 885.016 475.748
694 0 72.1267 12.7276 918 101.037 884.679 474.349
695 0 74.1876 12.8054 950 101.357 884.299 472.841
696 0 76.1039 12.8377 977 103.236 883.214 473.492
697 0 80.176 13.4704 1080 102.489 883.566 470.074
698 0 82.2027 13.4545 1106 101.86 883.769 471.544
699 0 85.3525 13.8602 1183 102.183 885.598 464.195
700 0 87.5229 13.3794 1171 103.972 885.907 462.839
701 1 47.1715 10.3664 489 102.771 887.162 486.278
702 0 48.1033 12.3484 594 100.564 887.256 483.71
703 0 49.0888 12.5894 618 98.7443 885.592 468.299
704 0 52.2554 11.1759 584 99.7997 885.902 466.63
705 0 54.1649 12.5912 682 97.0557 885.601 466.067
706 0 55.0914 12.4157 684 98 885.62 467.664
707 0 56.0626 13.2352 742 97.124 885.392 467.171
708 0 58.1045 13.1831 766 97.188 886.584 471.007
709 0 59.1542 13.7606 814 96.2211 885.673 471.942
710 0 62.1667 13.1903 820 97.9634 886.105 470.96
711 0 62.0653 13.0186 808 99.2871 886.057 468.257
712 0 65.1753 12.8116 835 99.6431 885.837 469.893
713 0 67.236 14.6796 987 95.8602 885.997 469.274
714 0 68.1934 13.7403 937 97.6756 886.534 473.342
715 0 71.2009 12.6684 902 100.702 886.396 472.973
716 0 72.132 12.7683 921 100.669 885.95 471.04
717 0 77.1144 12.877 993 100.26 885.279 469.694
718 0 79.1919 12.4003 982 100.548 886.386 469.796
719 0 84.1022 12.4254 1045 100.091 886.657 468.885
720 0 85.0989 13.2317 1126 100.309 887.074 464.597
721 0 91.1676 13.1187 1196 99.4273 886.666 461.67
722 1 45.0725 9.3627 422 102.483 885.654 487.277
723 0 47.0338 10.248 482 92.583 884.977 485.064
724 0 50.0934 12.2172 612 95.6863 884.065 485.286
725 0 52.1133 12.6072 657 95.6088 884.447 483.971
726 0 53.1255 10.974 583 99.7101 884.897 482.949
727 0 56.0806 13.2666 744 95.4315 884.403 483.317
728 0 55.0491 11.1355 613 101.86 883.638 482.498
729 0 57.0488 11.7619 671 100.82 884.526 480.973
730 0 59.1053 12.2155 722 101.411 885.188 481.614
731 0 60.1139 11.5947 697 104.139 884.931 481.014
732 0 62.1321 10.7835 670 106.546 884.627 478.763
733 0 65.204 11.8398 772 103.996 884.648 477.105
734 0 66.168 11.8184 782 105.59 884.584 475.51
735 0 68.0484 11.2567 766 107.45 883.509 475.807
736 0 74.1166 11.8867 881 105.652 883.83 473.848
737 0 75.0865 12.8785 967 104.21 884.355 473.69
738 0 77.0639 11.6527 898 108.317 883.647 471.376
739 0 80.1063 13.1076 1050 105.409 884.079 472.023
740 0 83.0833 13.6851 1137 105.374 883.575 468.043
741 0 83.183 12.6228 1050 108.824 883.157 468.982
742 0 86.0776 11.9892 1032 110.559 883.249 464.665
743 0 90.2097 11.7061 1056 112.387 882.402 464.045
744 0 94.0713 13.4685 1267 109.77 882.627 460.469
745 1 48.0289 8.93212 429 113.361 882.716 483.294
746 0 50.1468 10.2698 515 104.14 883.441 480.287
747 0 57.0161 11.9615 682 109.604 883.362 483.472
748 0 59.0322 12.8066 756 108.585 883.377 483.712
749 0 61.1103 12.9111 789 110.454 883.202 480.772
750 0 64.1437 14.7325 945 105.13 883.185 481.471
751 0 64.0556 13.4414 861 110.708 883.25 479.627
752 0 67.2843 12.3654 832 113.478 882.661 479.268
753 0 71.1617 13.5888 967 109.547 883.568 476.317
754 0 74.1956 13.2757 985 110.457 882.738 475.609
755 0 74.1628 13.3895 993 111.348 883.709 475.733
756 0 78.1939 13.3642 1045 110.9 883.741 472.984
757 0 81.3203 13.0964 1065 112.156 883.994 471.66
758 0 84.4896 13.9307 1177 110.939 883.847 465.524
759 0 86.2838 12.8529 1109 170.292 882.694 467.973
760 0 89.1654 12.931 1153 171.441 882.233 467.48
761 1 49.0387 13.2956 652 158.118 883.397 486.699
762 0 52.0662 12.9259 673 157.12 882.743 488.065
763 0 52.0385 12.4331 647 161.978 883.329 486.328
764 0 53.1423 13.0216 692 163.087 882.666 485.285
765 0 58.136 12.9008 750 162.949 883.481 486.483
766 0 57.063 13.1434 750 166.703 882.584 483.991
767 0 61.0472 11.8761 725 168.92 883.519 485.476
768 0 62.1966 14.8561 924 165.183 883.681 482.919
769 0 63.2299 13.9175 880 170.833 883.62 481.302
770 0 65.316 12.5697 821 175.235 882.95 482.418
771 0 67.3032 13.8626 933 176.767 883.543 480.322
772 0 70.115 15.5602 1091 174.87 883.016 479.557
773 0 76.1958 15.4077 1174 176.072 883.841 477.792
774 0 73.2074 13.5369 991 184.947 883.166 477.853
775 0 79.2452 16.5941 1315 181.42 883.139 475.369
776 0 79.1948 15.5439 1231 187.878 883.107 474.758
777 0 83.2528 12.2759 1022 197.823 883.344 475.499
778 0 86.31 14.054 1213 196.194 882.958 474.848
783 0 91.5651 11.3144 1036 122.102 882.391 462.329
784 0 96.558 11.1125 1073 121.369 882.941 461.281
785 0 97.5167 11.0135 1074 121.472 883.321 460.171
786 0 100.565 11.6343 1170 120.503 882.718 458.565
787 0 103.511 11.139 1153 121.501 883.301 461.997
788 0 107.721 11.6133 1251 119.466 884.624 460.623
789 0 110.971 11.3453 1259 121.094 885.371 457.418
790 0 115.77 12.9394 1498 118.01 884.814 452.24
791 0 125.05 12.4511 1557 115.888 885.636 450.209
792 0 124.826 12.1929 1522 117.528 885.466 452.421
793 0 126.404 10.3874 1313 123.705 886.043 453.014
794 1 71.3721 10.9146 779 122.309 884.855 464.697
795 0 74.3893 10.566 786 122.513 884.966 468.964
796 0 76.3986 12.0814 923 118.599 884.957 471.727
797 1 39.1318 10.0685 394 116.647 884.967 490.891
798 0 39.1217 9.35542 366 115.587 884.749 490.071
799 0 43.1564 11.076 478 110.293 883.184 487.247
800 0 43.0203 11.4597 493 116.112 881.268 487.943
801 0 44.0828 11.3423 500 119.524 881.034 484.822
802 0 45.0551 11.6302 524 119.571 880.828 484.754
803 0 46.0378 10.1004 465 123.346 881.342 484.643
804 0 49.1454 12.0662 593 117.857 881.848 484.541
805 0 48.0492 10.9679 527 122.213 882.032 482.935
806 0 51.0884 11.8618 606 120.106 882.554 483.884
807 0 53.034 12.3317 654 119.216 881.859 483.014
808 0 53.1806 11.978 637 121.33 882.702 481.633
809 0 56.1616 12.2148 686 119.529 882.283 480.816
810 0 56.0573 12.7013 712 119.577 881.869 480.104
811 0 58.0636 12.1591 706 121.426 882.463 480.518
812 0 60.1759 12.4635 750 120.14 881.965 480.417
813 0 61.0637 13.7561 840 116.47 880.798 480.651
814 0 62.1365 12.7622 793 119.072 882.491 477.895
815 0 65.1475 13.4771 878 117.116 881.744 477.617
816 0 66.0364 12.0842 798 120.961 881.591 476.189
817 0 71.1251 12.7381 906 117.24 881.998 475.469
818 0 74.0876 13.43 995 115.232 882.473 472.634
819 0 76.1263 13.0572 994 116.132 881.484 473.498
820 1 39.0589 11.009 430 115.056 882.544 492.377
821 0 41.2324 12.4659 514 112.292 882.626 490
822 0 43.0899 12.6016 543 111.808 882.366 488.923
823 0 44.0288 11.6288 512 111.975 882.525 489.482
824 0 45.0214 12.4608 561 107.914 882.597 487.69
825 0 47.062 12.9404 609 107.128 882.655 488.084
826 0 49.0969 12.9132 634 106.397 882.964 486.812
827 0 50.0826 13.5177 677 107.118 883.148 485.752
828 0 53.0829 14.1289 750 105.939 882.321 485.152
829 0 54.1231 14.2638 772 106.14 883.37 483.87
830 0 56.0792 12.9995 729 110.167 882.809 483.224
831 0 57.0505 14.1804 809 108.257 883.255 482.284
832 0 60.1628 15.5412 935 104.245 882.778 481.034
833 0 59.0989 14.1119 834 110.138 883.791 480.362
834 0 59.0957 13.5881 803 113.159 882.527 480.271
835 0 63.1265 14.0511 887 111.085 882.027 478.322
836 0 66.1439 12.7298 842 113.327 882.619 478.023
837 0 67.1751 13.636 916 112.114 883.128 477.202
838 0 70.1715 13.8518 972 111.284 883.013 476.092
839 0 71.1678 14.6134 1040 110.538 883.042 475.656
840 0 75.1031 15.006 1127 108.358 883.377 473.074
841 0 77.1218 14.6911 1133 109.659 883.21 471.086
842 0 78.0934 13.3942 1046 113.113 883.308 471.206
843 0 80.1177 14.1542 1134 112.537 883.128 471.026
844 0 83.0407 14.246 1183 99.415 884.088 468.221
845 0 88.0441 14.5268 1279 110.801 884.231 467.657
846 0 90.117 13.4714 1214 114.572 884.912 466.698
847 1 50.1105 12.4924 626 114.66 884.665 484.297
848 0 48.1459 11.7975 568 116.706 885 483.104
849 0 51.0897 12.0964 618 112.243 883.905 478.819
850 0 52.0374 12.2412 637 113.242 885.226 477.327
851 0 52.0421 12.1632 633 112.76 885.763 478.404
852 0 53.0655 12.1548 645 113.713 885.332 475.112
853 0 58.0869 13.2904 772 108.608 885.128 476.038
854 0 61.0515 12.5468 766 111.166 884.477 473.974
855 0 61.0367 13.5328 826 109.794 884.283 473.298
856 0 65.0921 12.49 813 111.263 884.78 471.48
857 0 68.0366 13.2282 900 109.099 883.834 469.384
858 0 71.0287 13.7691 978 107.746 884.255 468.478
859 0 73.1414 13.6311 997 108.704 884.015 465.875
860 0 77.0674 12.1712 938 111.364 883.867 466.364
861 0 80.066 12.4023 993 111.314 884.238 464.434
862 0 82.0583 12.8933 1058 110.023 884.137 462.41
863 0 86.1484 12.699 1094 110.149 883.394 460.874
864 0 90.0566 13.858 1248 108.111 883.183 459.308
865 0 92.1016 13.3331 1228 109.055 883.456 459.116
866 0 98.1129 13.1379 1289 108.989 883.673 456.647
867 0 102.171 13.2914 1358 109.139 883.292 456.613
868 1 53.1371 11.6491 619 105.494 884.389 481.711
869 0 56.1012 12.9587 727 103.025 883.798 481.685
870 0 57.058 12.426 709 105.915 884.087 480.244
871 0 62.0855 12.9821 806 103.488 884.208 479.562
872 0 63.0322 12.9458 816 104.495 883.654 478.626
873 0 65.0827 12.922 841 105.46 882.76 477.492
874 0 65.0827 13.1679 857 139.783 881.742 477.763
875 0 71.0468 12.6536 899 106.166 882.993 476.387
876 0 71.1841 12.264 873 107.943 883.477 473.624
877 0 73.0582 12.3053 899 109.115 883.354 472.464
878 0 76.0837 13.0908 996 108.939 882.381 469.074
879 0 80.1137 13.4434 1077 106.799 882.634 469.219
880 0 81.1021 12.8357 1041 109.498 882.997 467.521
881 0 84.1931 12.4238 1046 110.323 883.178 464.103
882 0 89.0587 13.8673 1235 106.819 882.96 463.494
883 0 93.1705 12.8045 1193 108.747 883.142 461.603
884 0 98.2057 13.8688 1362 105.847 883.018 459.601
885 0 100.13 12.5237 1254 109.419 883.364 457.729
886 1 59.1154 10.7755 637 110.214 883.154 478.016
887 0 61.0903 12.8989 788 106.722 882.841 475.945
888 0 61.0506 11.9409 729 110.089 883.365 474.41
889 0 62.0747 10.9707 681 112.819 882.737 474.103
890 0 64.1056 11.1067 712 109.058 883.447 476.941
891 0 67.1954 12.0098 807 105.731 884.11 473.301
892 0 70.1878 11.5832 813 107.78 884.055 470.306
893 0 75.312 12.6275 951 104.703 883.606 469.143
894 0 76.1606 11.4364 871 107.666 884.478 468.927
895 0 78.1641 12.0644 943 106.012 884.753 465.989
896 0 82.0599 12.2106 1002 101.112 885.106 468.664
897 0 86.1385 11.8878 1024 102.274 882.936 464.663
898 0 88.1182 12.4378 1096 101.154 883.696 464.066
899 0 90.1135 12.0959 1090 102.317 883.943 462.872
900 0 92.2034 10.7371 990 104.667 883.921 460.501
901 0 96.1835 11.634 1119 103.894 883.561 457.708
902 0 100.194 11.5177 1154 103.484 883.25 457.332
903 1 53.1301 9.37321 498 102.098 883.329 477.564
904 0 48.208 9.27231 447 91.6779 883.593 470.365
905 0 52.1102 9.74857 508 88.9094 884.6 470.697
906 0 52.19 8.60319 449 91.5323 884.416 470.04
907 0 55.0997 10.363 571 88.3678 885.06 469.804
908 0 58.1732 11.1907 651 86.8126 884.917 467.384
909 0 58.0889 9.72647 565 89.708 884.929 466.313
910 0 57.1963 9.79085 560 91.375 884.6 464.532
911 0 62.127 11.1707 694 88.5764 884.255 462.418
912 0 64.2704 10.9226 702 89.7564 884.563 462.222
913 0 68.109 9.11773 621 91.7955 884.217 461.763
914 0 69.1897 10.464 724 90.2762 883.167 457.624
915 0 72.0482 8.82742 636 92.1038 884.467 457.41
916 0 76.1391 9.60085 731 91.6265 884.892 455.833
917 0 82.153 12.075 992 87.8538 884.321 455.244
918 0 83.1164 9.54083 793 91.4363 884.615 451.188
919 0 88.2093 12.5157 1104 86.5507 884.938 452.875
920 0 89.2147 10.3458 923 90.662 884.673 448.832
921 0 96.1789 12.092 1163 88.5512 885.024 447.168
922 0 98.1335 11.6474 1143 95.4663 883.855 447.402
923 0 98.1793 8.79004 863 92.2144 884.721 444.133
924 0 105.066 10.0698 1058 90.1219 883.565 446.691
925 0 106.151 12.1337 1288 88.403 883.649 442.308
926 1 53.0494 12.1773 646 83.1502 883.933 469.92
927 0 55.2388 11.1878 618 84.178 884.395 466.277
928 0 57.0472 10.1845 581 85.4028 884.513 467.544
929 0 60.0578 11.8886 714 82.8838 885.05 465.304
930 0 63.0941 10.9043 688 84.5552 884.411 465.16
931 0 66.1197 11.6607 771 83.6783 884.197 463.868
932 0 67.1066 10.5802 710 86.5986 883.951 461.728
933 0 70.0679 10.5326 738 86.2005 884.198 461.444
934 0 73.2372 10.5001 769 86.5865 883.737 464.352
935 0 77.0907 10.7147 826 87.6973 883.915 458.419
936 0 78.1819 11.3709 889 87.8234 883.845 457.229
937 0 80.1678 11.8751 952 88.1376 884.197 456.18
938 0 83.2037 10.252 853 92.354 884.584 454.996
939 0 85.1406 11.0406 940 97.4064 884.356 450.607
940 0 91.148 9.9289 905 98.8685 885.034 453.798
941 1 51.1082 9.33313 477 89.9057 884.633 476.809
942 0 55.0715 11.5668 637 92.7127 884.473 479.925
943 0 57.0343 11.7298 669 90.2945 884.943 479.697
944 0 58.0536 12.2301 710 90.6662 884.81 477.91
945 0 61.1395 12.0707 738 92.4553 884.018 475.469
946 0 62.0232 11.4796 712 95.0309 884.812 476.556
947 0 64.2667 11.6234 747 95.7818 884.12 476.037
948 0 65.0844 12.599 820 94.8756 884.715 474.95
949 0 69.1211 13.1074 906 95.8996 884.502 473.087
950 0 71.0875 12.3791 880 98.1852 883.598 473.641
951 0 73.0786 14.4912 1059 95.8442 883.259 470.363
952 0 76.0843 12.565 956 99.568 884.447 469.909
953 0 77.1963 12.9669 1001 99.5794 883.77 469.555
954 0 81.2516 13.8336 1124 97.2989 884.419 468.496
955 0 84.081 13.487 1134 98.8783 884.027 466.902
956 0 86.1667 13.3694 1152 100.489 884.009 463.291
957 0 89.0813 12.2585 1092 103.528 884.375 465.162
958 0 91.0901 13.8983 1266 101.3 884.929 461.454
959 0 95.1611 12.1058 1152 104.678 885.194 460.407
960 0 98.1885 13.3213 1308 102.852 884.609 457.925
961 0 102.174 12.5081 1278 104.724 883.571 457.038
962 1 57.1005 11.6111 663 105.783 884.376 477.419
963 0 59.0345 12.3487 729 103.93 884.567 475.025
964 0 58.1569 12.0192 699 103.791 885.247 469.479
965 0 59.0802 12.2715 725 103.931 884.863 468.495
966 0 62.1034 12.5919 782 104.171 884.969 469.091
967 0 64.0278 11.6668 747 106.644 885.015 469.047
968 0 67.076 12.5082 839 105.825 885.876 468.149
969 0 69.1624 13.2442 916 104.508 884.681 464.3
970 0 70.1723 12.284 862 106.914 884.773 463.841
971 0 73.219 9.98375 731 111.886 884.211 462.502
972 0 76.136 12.7535 971 105.857 884.222 463.793
973 0 79.0559 11.2579 890 106.322 884.222 463.796
974 0 83.0793 13.12 1090 101.331 884.917 464.641
975 0 86.0789 11.6405 1002 105.664 884.366 458.522
976 0 89.0601 11.9358 1063 105.65 883.941 458.055
977 0 93.0757 11.1844 1041 107.165 884.064 456.338
978 0 96.1318 12.3476 1187 106.701 884.347 451.701
979 1 49.0248 10.1581 498 104.797 884.633 474.153
980 0 50.1195 10.3153 517 105.238 884.232 474.644
981 0 54.2141 11.4546 621 102.573 884.924 475.01
982 0 57.1665 10.7056 612 102.475 885.021 476.404
983 0 58.2209 11.3361 660 101.814 885.162 473.667
984 0 58.1213 10.4609 608 103.812 885.623 473.362
985 0 65.0711 11.6949 761 99.1708 885.127 471.233
986 0 65.1663 10.4348 680 101.793 884.446 469.078
987 0 70.1349 12.8039 898 96.9722 885.15 468.716
988 0 71.1389 12.3702 880 98.5455 884.285 463.523
989 0 74.2876 11.6574 866 102.01 884.479 463.484
990 0 78.1475 11.2096 876 101.058 884.54 464.929
991 0 82.2838 11.7885 970 100.097 884.541 462.806
992 0 88.345 12.3719 1093 97.215 883.655 463.695
993 0 89.1908 11.7949 1052 98.9354 883.968 462.199
994 0 92.3423 11.1975 1034 101.309 883.435 454.925
995 0 97.2774 11.5443 1123 99.2939 883.264 456.329
996 1 50.2369 12.4211 624 93.4984 884.296 476.503
997 0 53.3477 10.7408 573 95.4887 884.602 477.457
998 0 53.1812 11.2822 600 86.95 885.427 478.687
999 0 57.1094 10.3836 593 88 885.207 477.946
1000 0 58.1595 10.4368 607 88.3723 885.357 476.957
1001 0 59.1043 11.0314 652 88.7653 885.031 476.149
1002 0 61.1421 9.73142 595 89.3042 885.145 475.457
1003 0 64.1036 10.5142 674 88.5015 885.267 475.651
1004 0 64.0553 9.35129 599 89.8614 885.755 475.149
1005 0 68.0856 8.88588 605 90.0281 885.489 475.764
1006 0 72.1399 11.3807 821 87.4872 884.881 470.611
1007 0 74.1328 10.0765 747 90.6961 885.471 469.896
1008 0 75.0871 10.1349 761 91.749 884.371 468.784
1009 0 78.1254 11.1743 873 91.0619 885.485 466.494
1010 0 81.1883 11.1346 904 90.5376 885.156 467.302
1011 0 85.1967 11.6436 992 90.4194 885.509 465.128
1012 0 87.2083 10.71 934 91.8522 885.783 467.062
1013 0 89.2224 11.5554 1031 92.0601 884.25 461.49
1014 0 92.1499 10.8953 1004 94.3426 885.684 458.055
1015 0 94.18 9.36505 882 99.7755 884.718 458.028
1016 1 52.0416 9.31946 485 90.0371 885.701 480.282
1017 0 55.1544 11.1143 613 88.6639 884.563 478.622
1018 0 56.0467 10.7232 601 89.4725 886.574 477.867
1019 0 57.0504 10.9026 622 89.0354 886.384 476.96
1020 0 61.1765 11.4587 701 88.5549 885.619 472.698
1021 0 64.0958 11.3424 727 88.6726 885.443 474.22
1022 0 66.1214 11.131 736 89.4728 886.469 474.342
1023 0 68.0902 11.1764 761 90.3154 886.116 473.196
1024 0 69.2042 10.404 720 91.6764 885.889 472.231
1025 0 72.1382 11.3255 817 91.4431 886.14 468.436
1026 0 75.1395 11.3522 853 91.796 886.057 467.367
1027 0 79.1598 12.4811 988 91.169 886.306 467.153
1028 0 80.1699 11.6627 935 93.6 886.211 466.719
1029 0 82.2082 12.0548 991 93.9011 885.996 465.534
1030 0 84.1924 12.3645 1041 96.1364 886.36 461.858
1031 0 86.177 11.5576 996 97.8133 885.582 461.51
1032 0 91.1634 12.0553 1099 97.3703 884.64 461.356
1033 0 96.1603 11.5744 1113 98.1806 885.506 459.659
1034 0 97.1078 12.6354 1227 96.9055 884.599 456.629
1035 0 103.093 12.5033 1289 97.4368 884.946 455.936
1036 0 105.147 11.6028 1220 100.098 884.614 456.379
1037 1 57.0843 11.5794 661 95.2284 885.265 475.136
1038 0 59.1066 12.7059 751 108.024 884.493 476.153
1039 0 58.0939 11.774 684 111.297 884.658 477.072
1040 0 62.0939 12.0302 747 113.086 883.586 474.26
1041 0 65.1866 13.2849 866 109.067 883.729 472.775
1042 0 67.101 12.6973 852 110.539 884.08 472.823
1043 0 70.148 12.1457 852 113.115 883.759 471.021
1044 0 75.2445 13.5957 1023 109.109 884.014 471.616
1045 0 76.2563 13.5989 1037 110.679 884.561 469.804
1046 0 77.2009 13.4066 1035 112.716 884.3 468.01
1047 0 82.2044 12.8095 1053 113.793 885.589 466.786
1048 0 83.289 12.4746 1039 117.962 885.012 463.081
1049 0 87.3288 14.1878 1239 113.205 885.44 462.275
1050 0 90.4072 13.1737 1191 116.919 884.855 456.933
1051 0 94.3472 13.7047 1293 116.356 884.268 458.029
1052 0 98.4711 13.3643 1316 117.332 884.201 455.82
1053 0 100.371 13.2707 1332 119.038 884.393 450.432
1054 0 106.283 15.6752 1666 114.061 884.104 444.213
1055 1 54.3983 13.2725 722 110.69 884.878 477.584
1056 0 56.2845 12.5256 705 111.623 885.105 478.976
1057 0 58.2242 13.5339 788 111.456 885.77 478.617
1058 0 60.1676 12.7976 770 114.044 885.392 475.975
1059 0 62.2653 13.1373 818 111.875 885.864 477.298
1060 0 63.1585 12.2391 773 115.383 886.027 475.357
1061 0 66.2607 13.13 870 112.62 885.762 473.069
1062 0 68.1844 13.4782 919 111.936 885.868 472.21
1063 0 69.3112 13.4322 931 112.287 884.257 470.145
1064 0 72.1838 13.7288 991 110.943 884.416 468.903
1065 0 73.3334 13.3364 978 112.367 884.339 467.199
1066 0 76.2836 13.1876 1006 110.552 885.377 468.749
1067 0 80.2264 13.5367 1086 108.519 884.219 465.523
1068 0 83.3317 13.3923 1116 108.004 884.393 464.659
1069 0 84.3577 13.0753 1103 108.642 884.404 463.145
1070 0 88.5571 12.5343 1110 108.915 885.467 458.071
1071 0 91.3983 12.5714 1149 107.812 885.151 459.77
1072 0 94.2547 12.88 1214 107.096 885.38 459.679
1073 1 49.0378 10.706 525 107.857 886.128 478.912
1074 0 53.0357 11.5017 610 103.352 884.915 476.995
1075 0 52.2054 10.5162 549 106.891 884.383 473.523
1076 0 56.1405 11.0081 618 103.684 884.328 471.592
1077 0 53.076 10.419 553 106.593 884.481 471.08
1078 0 59.0872 11.5423 682 102.053 884.638 473.032
1079 0 61.0676 12.8874 787 98.784 885.264 471.169
1080 0 61.2822 12.4669 764 99.9895 886.25 471.444
1081 0 63.1956 12.58 795 98.4767 885.996 471.015
1082 0 65.1688 12.3525 805 98.7342 886.703 467.897
1083 0 68.2632 12.2614 837 98.2855 886.278 467.927
1084 0 70.1507 12.5159 878 97.7733 886.263 467.321
1085 0 74.1333 13.3139 987 96.2381 886.381 465.279
1086 0 73.2003 11.9262 873 100.109 885.904 461.994
1087 0 79.2239 12.8875 1021 97.7365 886.254 461.328
1088 0 79.0905 12.1506 961 100.109 884.824 460.447
1089 0 84.1601 13.0941 1102 97.2822 885.593 457.498
1090 0 86.1475 12.6295 1088 98.5864 884.896 458.676
1091 0 90.1348 13.0028 1172 96.7594 885.16 457.46
1092 0 92.0684 12.5776 1158 98.8627 884.502 456.225
1093 0 97.2089 14.69 1428 94.3102 885.548 451.427
1094 0 100.082 13.1892 1320 98.0015 884.761 453.441
1095 0 103.057 11.7022 1206 100.666 885.551 448.51
1096 1 56.145 10.9004 612 94.8301 885.918 474.972
1097 0 57.0545 9.97292 569 96.5694 884.666 471.93
1098 0 56.0634 10.1314 568 96.919 883.815 473.549
1099 0 61.0948 11.6868 714 93.2633 883.79 472.312
1100 0 63.0825 11.6673 736 93.8098 882.654 468.549
1101 0 66.0532 12.9593 856 91.3972 883.121 467.97
1102 0 71.1458 12.0597 858 92.204 884.08 465.768
1103 0 68.1106 9.99844 681 97.5477 884.498 464.372
1104 0 75.0879 11.4932 863 93.3175 885.213 464.352
1105 0 78.1259 12.8254 1002 91.7166 885.29 463.006
1106 0 79.0591 11.1436 881 96.3065 885.527 461.09
1107 0 84.0538 12.5277 1053 94.1007 884.509 459.878
1108 0 85.1381 12.2389 1042 94.6276 884.304 456.16
1109 0 88.2802 11.5768 1022 95.8787 884.171 453.322
1110 1 51.0585 8.81342 450 94.1644 884.153 477.922
1111 0 52.0874 10.1944 531 92.7326 884.04 477.911
1112 0 52.07 12.9057 672 82.9628 885.35 475.638
1113 0 54.1238 11.8432 641 84.4197 885.674 477.262
1114 0 58.1095 11.4439 665 85.218 885.238 475.821
1115 0 59.0466 11.9736 707 85.0396 884.704 475.263
1116 0 62.0548 12.1667 755 85.0212 885.158 473.909
1117 0 65.105 11.6274 757 85.7424 885.273 470.754
1118 0 68.1245 14.2093 968 81.9029 884.911 470.291
1119 0 68.0562 11.6815 795 87.634 884.811 471.796
1120 0 72.1015 12.7321 918 86.5349 885.405 469.536
1121 0 75.0522 11.7785 884 88.905 884.081 467.505
1122 0 78.2544 14.1717 1109 84.8188 885.142 468.153
1123 0 80.1063 14.3809 1152 85.6554 884.464 463.597
1124 0 82.1341 12.0291 988 91.0324 884.757 464.816
1125 0 85.1262 12.9807 1105 89.9982 885.375 460.576
1126 0 88.3961 11.4711 1014 93.0256 886.073 458.289
1127 1 48.3168 10.7209 518 92.332 886.075 477.809
1128 0 49.3777 11.3412 560 87.625 885.414 477.777
1129 0 52.0381 12.0873 629 86.9205 886.277 479.97
1130 0 52.0879 10.5207 548 91.8741 885.852 477.599
1131 0 52.0285 11.2246 584 90.8356 886.755 479.423
1132 0 55.0188 11.8141 650 90.4246 885.834 476.5
1133 0 58.0995 13.3048 773 87.2988 886.191 475.608
1134 0 58.0526 12.1958 708 90.2062 886.746 475.162
1135 0 60.0874 12.4485 748 91.0267 886.253 473.551
1136 0 59.0749 10.5121 621 95.6296 886.177 474.923
1137 0 62.1159 10.9473 680 94.1824 886.797 475.296
1138 0 63.1608 11.2253 709 94.2454 886.511 475.274
1139 0 66.0995 12.7081 840 92.6905 886.185 472.888
1140 0 68.1875 11.0137 751 96.0599 886.112 471.59
1141 0 71.0757 12.8314 912 93.5713 885.603 469.224
1142 0 72.1904 11.7052 845 96.6722 885.84 468.871
1143 0 74.1058 11.5645 857 98.0677 886.564 466.558
1144 0 78.2608 13.0589 1022 95.9051 887.083 465.187
1145 0 80.0931 12.2233 979 99.3034 886.282 464.056
1146 0 83.2207 12.2686 1021 100.083 886.201 464.207
1147 0 86.2065 13.2125 1139 99.8613 886.97 460.334
1148 0 90.215 14.2105 1282 98.2059 886.079 458.757
1149 0 92.3572 12.7223 1175 102.555 885.651 458.594
1150 1 50.1573 11.3443 569 103.074 886.188 476.705
1151 0 52.115 11.2827 588 97.6973 885.165 470.978
1152 0 51.0947 11.2732 576 93.1962 886.403 470.745
1153 0 51.1209 10.4458 534 97.3951 885.875 470.949
1154 0 54.0856 10.4094 563 96.5364 886.634 472.984
1155 0 56.1711 11.91 669 96.9626 887.39 473.079
1156 0 56.1346 11.1518 626 99.7812 886.441 471.351
1157 0 58.1344 10.1317 589 102.117 886.954 468.596
1158 0 61.1434 11.4485 700 99.22 887.434 467.103
1159 0 61.0371 11.7633 718 98.8774 887.769 468.097
1160 0 64.082 12.5308 803 97.8281 887.522 464.858
1161 0 65.0612 11.2356 731 101.974 886.679 463.324
1162 0 70.1868 11.3127 794 100.251 886.285 465.193
1163 0 72.0953 11.79 850 99.4706 886.575 464.459
1164 0 76.0777 11.37 865 99.9029 885.906 462.143
1165 0 75.1221 12.4863 938 99.161 886.387 461.88
1166 0 76.0592 12.1353 923 101.725 885.423 457.406
1167 0 80.0887 11.325 907 101.061 886.252 457.246
1168 0 86.1232 11.5416 994 98.2254 885.836 458.446
1169 0 87.2371 12.0591 1052 98.2747 886.135 457.99
1170 0 87.1092 10.9977 958 102.823 886.571 451.79
1171 0 91.2012 10.9648 1000 102.573 886.69 453.121
1172 0 96.116 11.3197 1088 101.628 886.164 450.818
1173 0 100.071 11.8815 1189 99.2775 886.53 454.46
1174 1 53.0986 11.2809 599 96.9098 885.975 472.878
1175 0 56.1796 11.481 645 100.653 886.239 470.856
1176 0 57.0525 11.989 684 99.155 887.023 472.079
1177 0 59.0388 12.839 758 99.1926 886.654 469.76
1178 0 59.0692 11.258 665 103.767 884.221 467.964
1179 0 63.0972 11.8547 748 101.997 885.251 467.202
1180 0 66.083 11.6671 771 102.538 884.498 467.062
1181 0 68.0466 11.4186 777 103.054 884.32 465.798
1182 0 70.0444 12.1352 850 101.786 885.027 465.946
1183 0 73.056 11.5665 845 101.959 885.091 465.759
1184 0 77.0699 12.4951 963 100.541 884.664 464.324
1185 0 76.0562 12.1489 924 103.185 885.465 459.763
1186 0 80.1427 11.8414 949 101.453 885.995 462.779
1187 0 82.0848 12.5236 1028 101.846 885.695 458.158
1188 0 86.1386 12.2013 1051 101.236 886.778 460.442
1189 0 88.1808 12.463 1099 101.203 885.479 458.022
1190 0 93.1713 12.7507 1188 99.3224 885.874 459.062
1191 0 93.2401 12.4195 1158 101.905 885.139 457.003
1192 0 97.0613 13.0948 1271 96.6168 885.126 456.116
1193 0 100.127 13.0834 1310 98.0748 885.057 453.398
1194 0 102.109 13.8969 1419 97.5074 884.86 450.619
1195 1 52.0233 9.36119 487 97.1314 886.234 478.472
1196 0 56.0279 11.1195 623 96.0465 886.432 474.265
1197 0 56.0279 11.0124 617 129.11 887.415 474.326
1198 0 57.0694 11.6875 667 101.03 886.651 476.015
1199 0 61.1139 13.2867 812 98.0517 886.978 470.544
1200 0 63.1229 12.8004 808 99.5965 885.881 469.756
1201 0 65.1557 13.0303 849 99.5948 885.404 467.837
1202 0 66.2506 13.8414 917 98.5987 886.513 467.099
1203 0 70.1076 13.9785 980 97.4204 887.624 468.007
1204 0 72.2822 14.4849 1047 96.9284 887.091 465.445
1205 0 73.1893 14.1004 1032 97.3353 886.98 465.235
1206 0 76.1043 12.8639 979 99.4576 886.181 465.372
1207 0 78.2061 13.5156 1057 98.1495 888.199 463.195
1208 0 83.3552 13.4485 1121 97.4407 886.667 458.842
1209 0 83.1645 14.2368 1184 97.6816 887.361 455.997
1210 0 87.3488 13.7724 1203 98.6093 887.806 457.04
1211 0 91.1683 13.9193 1269 97.5642 888.031 455.965
1212 0 94.2923 13.4051 1264 98.8196 887.131 454.764
1213 0 97.1756 13.172 1280 97.9242 886.809 457.52
1214 0 101.205 13.0823 1324 98.3527 886.501 454.493
1215 0 102.257 13.5932 1390 98.6957 887.13 449.149
1216 0 107.17 14.407 1544 97.1049 886.671 448.688
1217 0 108.223 12.5112 1354 101.332 886.648 447.138
1218 0 114.13 13.362 1525 98.5856 886.679 447.679
1219 0 118.168 14.0732 1663 97.6518 886.385 443.716
1220 0 121.065 13.439 1627 99.5661 885.978 444.256
1221 0 123.241 13.0314 1606 102.205 886.522 439.696
1222 0 130.132 13.8859 1807 98.3005 885.848 440.697
1223 0 130.132 13.8552 1803 143.735 884.831 440.659
1224 0 138.147 13.7896 1905 99.5433 885.568 430.303
1225 0 141.176 14.4926 2046 98.3143 885.585 433.544
1226 0 146.23 13.6292 1993 100.775 886.556 432.051
1227 0 148.171 12.553 1860 104.201 885.878 427.283
1228 0 155.291 13.6776 2124 102.255 885.403 427.105
1229 0 158.248 14.0033 2216 104.544 884.802 423.797
1230 0 163.126 13.6091 2220 111.028 885.403 418.321
1231 0 168.381 13.802 2324 109.665 886.425 414.639
1232 0 173.527 13.3178 2311 110.352 886.341 411.01
1233 0 177.398 14.6619 2601 106.343 886.4 411.705
1234 0 182.465 13.4711 2458 110.789 886.061 405.9
1235 0 190.65 14.0204 2673 112.522 885.726 404.166
1236 1 53.3427 10.5731 564 108.243 885.452 468.417
1237 0 57.1894 11.2958 646 106.638 886.107 468.113
1238 0 61.2529 11.8199 724 106.275 886.644 472.325
1239 0 63.371 12.8608 815 107.229 886.721 467.211
1240 0 63.4898 13.0887 831 107.646 887.579 467.039
1241 0 66.4809 11.8229 786 106.982 887.383 470.346
1242 0 68.4817 11.755 805 105.482 887.03 469.912
1243 0 68.2575 12.0719 824 106.835 886.917 467.228
1244 0 72.0712 11.2111 808 98.75 886.55 469.672
1245 0 72.2235 9.1383 660 102.389 887.898 463.718
1246 0 77.2902 11.3727 879 97.9078 887.06 464.323
1247 0 80.2778 12.8055 1028 97.1955 886.875 462.659
1248 0 82.2479 11.976 985 100.018 886.763 461.32
1249 0 83.4843 11.9543 998 100.334 886.244 461.625
1250 0 87.3905 12.5872 1100 100.559 886.74 456.345
1251 0 90.2301 11.4042 1029 102.499 885.954 456.61
1252 0 92.46 12.1891 1127 101.564 887.217 454.492
1253 0 95.2911 12.2467 1167 102.551 886.745 452.257
1254 0 99.5507 11.9035 1185 102.366 886.644 454.367
1255 0 101.396 12.2095 1238 103.204 886.33 451.128
1256 0 104.395 12.673 1323 102.351 887.109 450.714
1257 0 106.371 11.4317 1216 105.973 886.854 447.477
1258 0 109.301 12.031 1315 103.829 886.684 449.861
1259 0 112.436 12.1313 1364 105.18 886.153 445.563
1260 0 117.31 13.5027 1584 103.169 885.664 443.515
1261 0 119.42 11.7317 1401 107.895 885.128 441.65
1262 0 123.447 12.6613 1563 106.34 886.404 441.892
1263 1 70.2233 10.609 745 99.5409 887.003 470.185
1264 0 74.1875 12.0775 896 95.0837 887.927 469.002
1265 0 74.2332 10.3458 768 98.2487 888.025 468.404
1266 0 76.0984 11.7348 893 97.3404 887.489 464.833
1267 0 77.1606 11.7547 907 96.5391 887.948 463.03
1268 0 81.2117 11.9687 972 95.9938 887.567 461.708
1269 0 83.124 10.6708 887 98.363 888.032 463.132
1270 0 84.2519 11.2876 951 98.0705 888.438 459.829
1271 0 88.194 11.7695 1038 96.6291 888.398 459.959
1272 0 91.1125 10.5145 958 99.2401 886.839 458.291
1273 0 91.3453 9.5243 870 101.356 887.256 453.285
1274 0 95.1745 10.8537 1033 97.9961 886.657 458.181
1275 0 99.1381 9.62294 954 100.882 887.264 454.535
1276 0 101.237 10.2926 1042 99.975 886.729 453.429
1277 0 106.2 11.6007 1232 97.0714 886.726 448.649
1278 1 55.2335 9.05248 500 93.292 886.45 472.868
1279 0 58.1655 9.88559 575 91.1513 886.483 474.504
1280 0 60.2262 11.4568 690 88.3594 886.294 472.18
1281 0 60.0681 9.63906 579 92.0604 886.304 470.572
1282 0 61.0757 8.02283 490 93.402 885.716 471.639
1283 0 62.2372 10.1868 634 90.7114 887.293 472.822
1284 0 65.0936 10.2929 670 90.6493 887.518 470.073
1285 0 66.1566 9.47752 627 92.1627 887.804 472.55
1286 0 67.1144 9.99785 671 91.4575 888.159 470.721
1287 0 71.0701 9.82129 698 91.8739 888.115 466.223
1288 0 74.154 10.1411 752 92.1755 888.576 467.241
1289 0 76.2548 11.7894 899 90.0868 889.019 467.108
1290 0 80.1565 11.7395 941 90.6769 888.67 462.446
1291 0 82.2801 10.9261 899 92.8554 889.327 463.198
1292 0 80.1963 9.68873 777 97.8237 888.084 459.963
1293 0 86.3126 12.3505 1066 94.546 888.147 459.071
1294 0 88.1831 10.9658 967 99.4405 887.774 458.837
1295 0 90.1469 12.0359 1085 97.6276 888.065 455.488
1296 0 93.2035 12.7785 1191 96.3174 888.181 459.195
1297 0 97.3995 12.074 1176 99.4311 888.373 454.48
1298 0 99.4149 10.5819 1052 103.082 888.313 455.272
1299 1 56.4905 11.3647 642 103.889 888.913 472.798
1300 0 51.2388 10.09 517 102.021 887.391 467.476
1301 0 53.3394 11.0425 589 98.8472 886.998 467.065
1302 0 54.2912 10.4437 567 100.515 887.309 468.372
1303 0 56.238 11.0068 619 101.554 886.937 466.821
1304 0 57.1735 10.4419 597 102.526 886.596 466.229
1305 0 63.1096 9.82418 620 103.477 887.053 466.106
1306 0 68.2997 11.9473 816 106.602 888.091 473.303
1307 0 68.1606 10.8127 737 111.076 887.63 470.711
1308 0 71.1958 12.2339 871 108.605 887.952 468.086
1309 0 73.2049 12.3216 902 107.446 888.292 470.155
1310 0 77.1486 12.8324 990 106.892 888.663 468.014
1311 0 79.2746 13.4217 1064 106.694 887.236 465.068
1312 0 79.1465 12.7485 1009 107.976 887.696 466.237
1313 0 80.1844 12.6583 1015 109.612 887.942 464.972
1314 0 83.2196 12.0525 1003 109.7 888.012 464.966
1315 0 83.2719 12.0689 1005 111.964 887.606 458.011
1316 0 86.1608 12.4999 1077 110.917 887.245 458.818
1317 0 89.2567 11.7526 1049 112.795 887.225 456.817
1318 0 93.413 11.9362 1115 111.364 886.516 456.492
1319 0 97.3825 13.3391 1299 107.865 886.557 453.703
1320 0 101.419 11.625 1179 110.152 885.625 452.596
1321 1 53.2362 10.8573 578 105.796 886.218 474.187
1322 0 55.1437 12.2045 673 104.514 885.682 467.826
1323 0 57.1512 12.5807 719 102.47 887.59 469.691
1324 0 58.1791 12.4787 726 102.802 885.86 472.806
1325 0 57.1723 11.4216 653 106.896 887.386 474.438
1326 0 59.1591 12.5424 742 104.193 887.714 472.22
1327 0 60.137 12.139 730 105.142 887.115 472.24
1328 0 63.1642 12.6971 802 102.591 887.973 474.388
1329 0 63.186 13.0567 825 103.453 887.321 470.674
1330 0 65.151 11.9875 781 105.781 887.517 470.499
1331 0 66.2808 11.4362 758 106.5 887.735 469.616
1332 0 69.1299 12.5271 866 102.851 887.547 470.043
1333 0 75.1068 14.6458 1100 95.5255 886.924 465.175
1334 0 78.2663 15.7411 1232 92.2857 886.375 462.858
1335 0 80.4393 15.5894 1254 93.1212 886.236 464.283
1336 0 79.1577 12.8857 1020 101.518 886.06 463.005
1337 0 80.2057 12.1188 972 103.31 885.459 463.996
1338 0 83.1096 11.8759 987 99.847 885.46 466.131
1339 0 84.1378 12.0279 1012 95.8953 885.939 462.062
1340 0 86.1708 12.7537 1099 94.2475 885.893 460.825
1341 0 89.1948 11.2002 999 97.5155 886.307 458.515
1342 0 91.0998 11.6136 1058 97.0331 886.553 458.716
1343 1 47.1444 8.84517 417 99.6906 887.189 480.36
1344 0 52.1943 11.4189 596 96.4799 886.564 480.591
1345 0 43.1296 10.2482 442 95.5294 884.674 473.633
1346 0 49.1327 10.8278 532 93.4756 885.028 473.68
1347 0 51.1035 11.917 609 91.353 884.342 473.66
1348 0 53.1219 10.5794 562 93.5801 885.415 475.434
1349 0 55.1882 9.60351 530 96.1132 884.292 473.215
1350 0 55.0858 11.3641 626 93.155 884.185 473.107
1351 0 54.3014 10.8469 589 96.3192 884.222 471.915
1352 0 55.143 11.0984 612 97.2239 884.186 468.026
1353 0 57.1539 11.7402 671 96.9404 884.222 468.341
1354 0 62.0888 11.5963 720 96.075 885.026 469.143
1355 0 61.2489 10.7104 656 99.032 884.841 468.181
1356 0 60.1424 10.1592 611 102.268 884.774 465.622
1357 0 65.2193 12.2816 801 98.0275 884.99 465.277
1358 0 69.2814 12.2111 846 97.6277 884.52 465.719
1359 0 70.1508 12.5872 883 97.9185 884.965 465.622
1360 0 72.1411 12.9746 936 97.6261 883.999 462.676
1361 0 75.1484 11.6835 878 99.9419 883.798 462.425
1362 0 77.2212 12.121 936 100.566 883.791 457.956
1363 0 82.2815 12.0926 995 98.8191 884.289 459.217
1364 0 86.2098 12.1216 1045 97.91 883.97 459.488
1365 0 88.1855 11.6913 1031 100.842 884.252 455.954
1366 0 90.3022 12.7572 1152 99.5009 883.963 453.699
1367 0 93.1637 12.4941 1164 100.525 884.695 451.034
1368 0 92.3701 11.1724 1032 104.393 884.398 449.299
1369 1 50.0795 10.9825 550 91.5309 884.495 476.745
1370 0 50.1087 9.59913 481 92.2058 884.923 475.285
1371 0 55.1046 11.5235 635 85.9433 885.102 475.18
1372 0 54.0643 9.59967 519 90.9538 884.501 473.306
1373 0 55.0679 11.1136 612 88.665 884.768 473.647
1374 0 57.0417 9.76479 557 90.8941 884.259 470.776
1375 0 59.0716 10.8851 643 89.2737 884.439 472.579
1376 0 56.1286 10.28 577 91.5321 884.146 470.374
1377 0 61.1599 11.9523 731 87.8331 884.238 469.337
1378 0 67.1429 12.0936 812 86.4015 883.835 468.557
1379 0 66.1528 10.8839 720 120.503 883.81 466.711
1380 0 66.0405 11.2204 741 89.5209 884.265 465.587
1381 0 69.1107 12.0531 833 88.2101 884.653 467.16
1382 0 71.063 11.2154 797 89.9987 884.281 464.381
1383 0 74.1246 13.909 1031 86.2008 883.913 462.73
1384 0 75.1179 12.1675 914 89.5799 884.438 463.234
1385 0 78.1877 11.0375 863 91.4809 884.574 460.932
1386 0 82.2413 11.065 910 90.8703 884.021 459.023
1387 0 81.1521 11.1519 905 91.9414 883.814 457.406
1388 0 88.1678 13.7805 1215 86.344 883.578 457.34
1389 0 89.1717 12.6273 1126 88.2398 883.647 459.148
1390 0 92.2757 11.4548 1057 91.2677 883.483 453.425
1391 1 49.2308 8.26717 407 89.7813 883.167 478.344
1392 0 48.1655 8.5746 413 92.138 884.254 474.467
1393 0 50.092 10.5805 530 87.8321 884.377 475.1
1394 0 54.0706 11.3555 614 87.0896 883.819 473.311
1395 0 53.1914 10.1144 538 90.2491 884.69 472.286
1396 0 56.2219 9.97833 561 90.7041 884.499 471.412
1397 0 57.1543 10.2704 587 90.7274 884.468 472.513
1398 0 59.1764 10.0885 597 91.6868 884.226 469.427
1399 0 62.2555 11.0994 691 90.6643 883.619 469.981
1400 0 66.0873 11.7572 777 90.0952 882.829 469.079
1401 0 66.1522 12.8491 850 89.5365 883.479 464.992
1402 0 68.2282 10.846 740 95.0716 882.973 466.276
1403 0 72.247 13.3016 961 91.5213 883.606 466.271
1404 0 74.1896 11.6054 861 96.0941 883.735 465.409
1405 0 74.0854 12.4586 923 96.5276 883.133 463.778
1406 0 77.1048 12.6581 976 97.8514 883.83 464.602
1407 0 80.1957 13.3049 1067 97.2259 883.254 462.323
1408 0 83.1129 13.3433 1109 98.4851 883.465 463.326
1409 0 87.1435 13.954 1216 99.5041 882.845 461.083
1410 0 88.3434 12.7231 1124 103.871 883.596 458.705
1411 0 88.1536 12.9887 1145 105.042 883.252 456.33
1412 0 92.1652 13.8664 1278 103.288 883.464 453.299
1413 0 96.1819 14.3686 1382 102.009 883.9 456.392
1414 0 98.2052 13.9606 1371 103.807 883.125 454.44
1415 0 100.353 12.5856 1263 107.553 883.62 452.392
1416 1 55.1248 9.86851 544 97.2482 882.983 475.357
1417 0 58.0656 10.6431 618 95.5129 884.105 476.79
1418 0 60.0962 11.5981 697 93.3859 883.821 475.673
1419 0 61.0811 10.1341 619 96.4814 883.914 474.709
1420 0 62.0552 9.86219 612 98.6111 884.32 471.974
1421 0 65.1121 11.9179 776 95.3557 884.269 470.765
1422 0 65.1283 9.39684 612 100.16 884.145 471.685
1423 0 68.0534 11.0648 753 98.66 884.304 468.899
1424 0 73.0787 12.0281 879 96.8214 884.386 468.456
1425 0 71.0812 10.4528 743 101.65 883.984 466.814
1426 0 75.0657 11.2968 848 99.8868 884.265 466.379
1427 0 78.1547 9.92903 776 103.049 883.633 465.696
1428 0 82.1112 12.1786 1000 100.553 884.32 460.6
1429 0 85.0753 11.3782 968 102.335 884.135 461.694
1430 0 88.1025 12.3152 1085 101.126 882.971 460.251
1431 0 91.226 12.047 1099 101.023 883.765 460.168
1432 0 94.1837 13.2507 1248 100.741 883.217 456.019
1433 0 97.2194 12.7135 1236 102.334 884.266 455.809
1434 0 99.2977 12.2259 1214 103.87 883.192 455.408
1435 1 54.0376 10.5482 570 95.0825 883.658 477.882
1436 0 56.0779 11.8763 666 92.042 883.384 475.886
1437 0 59.057 12.2932 726 88.0427 884.36 476.045
1438 0 60.1687 11.501 692 90.2803 884.686 474.403
1439 0 61.1277 11.7295 717 90.1743 884.918 476.335
1440 0 65.1135 11.718 763 90.0052 884.079 472.938
1441 0 62.1834 10.1796 633 94.9005 884.068 470.52
1442 0 64.1244 11.0566 709 93.8745 884.787 468.305
1443 0 69.1387 12.0049 830 91.1289 883.631 466.58
1444 0 69.1591 11.929 825 92.1248 883.857 466.87
1445 0 72.1673 10.6419 768 94.3997 883.988 465.776
1446 0 76.1313 12.0056 914 91.9376 883.731 463.367
1447 0 73.1095 10.1765 744 96.9073 883.778 460.448
1448 0 78.0991 11.8183 923 93.6381 883.107 461.611
1449 0 82.1645 12.7062 1044 93.046 883.811 460.483
1450 0 86.156 11.7461 1012 93.6344 883.855 461.556
1451 0 87.2439 12.0582 1052 94.2281 883.929 460.144
1452 0 90.1913 12.2739 1107 93.785 883.836 461.451
1453 0 93.1261 11.8764 1106 95.0108 884.002 460.427
1454 0 96.1581 12.833 1234 98.872 883.492 459.382
1455 0 100.159 12.8396 1286 98.6477 883.785 459.096
1456 0 103.303 14.3558 1483 96.2623 883.269 457.883
1457 0 105.126 12.3376 1297 99.8273 882.537 456.667
1458 0 108.211 12.9376 1400 100.264 882.617 452.889
1459 0 112.358 12.8607 1445 100.792 883.657 450.037
1460 0 116.305 13.4303 1562 100.134 883.053 447.388
1461 1 66.3467 10.9576 727 101.138 884.417 473.506
1462 0 66.3212 11.0674 734 98.0027 883.221 466.623
1463 0 72.1846 14.3382 1035 94.1894 883.861 471.513
1464 0 72.3263 11.9873 867 98.5813 883.796 473.144
1465 0 75.4842 12.3602 933 99.0193 883.572 468.793
1466 0 77.3864 12.1598 941 98.8151 884.518 469.032
1467 0 80.3004 11.5815 930 100.414 884.261 468.273
1468 0 82.2075 12.882 1059 99.1105 883.469 465.818
1469 0 85.2865 11.6666 995 101.507 883.604 461.508
1470 0 87.3806 11.0322 964 103.164 883.385 461.69
1471 0 89.3961 11.9133 1065 101.787 883.449 460.297
1472 0 93.3823 13.268 1239 99.8894 883.303 459.956
1473 0 95.4207 11.748 1121 103.471 883.311 458.403
1474 0 100.313 15.2622 1531 96.6969 883.45 457.721
1475 0 97.4238 12.2352 1192 104.965 883.495 454.862
1476 0 104.324 13.2376 1381 101.366 883.125 451.699
1477 0 106.304 12.8499 1366 102.752 883.422 444.847
1478 0 110.25 13.1156 1446 103.393 883.094 433.635
1479 0 112.148 12.9026 1447 101.182 883.196 439.594
1480 0 117.117 12.3723 1449 97.9634 883.204 450.102
1481 0 121.267 13.4991 1637 99.3622 883.686 441.975
1482 0 125.146 14.0396 1757 98.8748 882.458 435.809
1483 1 70.1338 12.1054 849 89.2485 885.187 470.035
1484 0 71.1984 12.1351 864 89.7326 884.409 472.039
1485 0 70.1389 10.1655 713 94.0617 884.1 469.665
1486 0 73.1187 11.8301 865 91.6347 883.41 470.042
1487 0 78.1336 12.9394 1011 88.723 884.005 470.223
1488 0 80.1215 11.4576 918 91.5991 883.37 469.598
1489 0 82.2104 12.5167 1029 90.9631 883.413 466.674
