time division length width area intensity CMx CMy
0 0 45.0395 12.5001 563 141.767 790.897 493.94
1 0 47.017 13.3781 629 136.211 791.215 493.38
2 0 48.0592 12.4222 597 141.916 791.179 492.479
3 0 50.0867 12.8377 643 141.059 791.325 492.11
4 0 51.0253 12.9348 660 142.883 791.598 490.694
5 0 52.0443 13.3156 693 141.509 792.482 490.322
6 0 53.0504 12.7049 674 141.479 791.779 490.84
7 0 54.0212 12.6432 683 138.893 791.851 490.867
8 0 54.0401 13.5825 734 137.657 792.279 489.936
9 0 56.068 13.0021 729 141.207 791.436 488.422
10 0 58.0359 12.923 750 139.228 791.285 487.648
11 0 59.024 13.0794 772 138.196 791.623 487.851
12 0 62.1402 14.4995 901 133.677 791.149 486.62
13 0 63.1474 13.4923 852 137.038 790.2 486.904
14 0 64.0617 13.3777 857 136.741 790.68 486.355
15 0 64.0331 12.3061 788 140.231 790.057 485.835
16 0 69.1436 13.6528 944 132.75 789.561 485.101
17 0 70.0542 13.6466 956 132.759 789.879 484.461
18 1 34.0434 11.2503 383 137.339 789.877 501.645
19 0 35.0035 10.9703 384 135.38 789.091 502.492
20 0 36.0138 12.0787 435 133.552 789.416 500.336
21 0 41.0513 12.7889 525 128.592 790.792 500.547
22 0 37.021 13.0466 483 124.88 789.385 501.942
23 0 38.0636 12.4266 473 125.584 788.873 502.133
24 0 38.071 12.214 465 130.353 788.333 502.632
25 0 40.083 11.2267 450 128.758 788.28 501.282
26 0 40.0557 11.9583 479 128.177 788.879 501.303
27 0 44.083 11.7959 520 126.408 788.827 500.563
28 0 45.0805 12.5775 567 125.473 788.436 499.862
29 0 46.08 12.8689 593 124.826 788.766 499.164
30 0 47.1018 13.0993 617 125.99 788.006 499.002
31 0 50.1322 13.624 683 125.849 787.654 497.073
32 0 49.0772 12.8777 632 129.532 787.878 496.646
33 0 53.1463 13.1336 698 125.542 787.764 497.016
34 0 55.1747 13.1945 728 125.806 787.772 495.519
35 0 56.1208 13.8986 780 124.014 788.178 495.051
36 0 58.0766 13.8093 802 125.01 787.946 493.43
37 0 60.1795 13.5761 817 125.775 788.038 492.338
38 0 63.2218 14.3147 905 123.056 787.431 489.439
39 0 66.2887 14.633 970 121.981 787.08 489.876
40 0 70.2194 14.9816 1052 119.939 787.695 489.042
41 0 71.2949 13.1426 937 125.68 787.397 487.193
42 0 73.299 13.4927 989 123.632 787.029 487.708
43 0 76.2979 14.0371 1071 121.43 787.43 485.331
44 0 80.1534 14.0481 1126 120.309 787.707 484.889
45 1 43.0475 12.8927 555 122.214 788.595 502.277
46 0 44.0866 12.5889 555 117.178 787.705 502.998
47 0 45.042 12.9657 584 117.442 788.901 502.908
48 0 46.0577 12.5061 576 118.97 788.823 502.064
49 0 50.0186 13.315 666 118.095 788.407 501.27
50 0 49.0392 12.2759 602 123.296 788.39 500.839
51 0 53.074 13.6225 723 120.477 787.574 498.613
52 0 53.0606 13.5505 719 121.818 787.492 498.547
53 0 56.0501 14.487 812 118.342 787.719 498.457
54 0 58.0335 13.8885 806 120.367 787.687 497.649
55 0 60.0321 13.9092 835 121.182 787.539 496.531
56 0 59.0805 13.2023 780 124.796 787.04 495.946
57 0 64.0742 14.967 959 118.322 787.04 494.537
58 0 66.0472 14.4139 952 120.131 787.093 493.11
59 0 67.0227 14.6368 981 120.608 787.542 492.15
60 0 70.0374 14.3209 1003 120.438 787.629 491.827
61 0 72.0599 13.6414 983 122.351 787.246 491.247
62 0 75.0749 13.7862 1035 122.611 786.997 489.669
63 0 79.0715 14.0506 1111 120.992 786.986 487.993
64 1 43.0291 11.806 508 122.254 787.551 506.413
65 0 43.1017 11.5077 496 124.103 787.353 505.97
66 0 45.1409 12.6271 570 118.86 786.272 504.302
67 0 45.1529 12.6238 570 155.693 786.281 504.189
68 0 48.059 13.7123 659 109.475 784.695 503.92
69 0 49.0214 11.6276 570 115.167 784.544 502.782
70 0 51.0632 12.8272 655 121.605 783.498 500.267
71 0 52.0788 13.0956 682 119.743 783.887 501.233
72 0 55.06 13.4944 743 119.555 784.341 498.794
73 0 56.0288 13.9749 783 118.926 784.359 496.649
74 0 56.0496 12.4354 697 122.871 784.481 495.821
75 0 60.0497 13.5887 816 119.616 784.245 497.654
76 0 62.0849 14.8667 923 115.947 784.502 495.751
77 0 64.092 13.309 853 119.571 784.797 495.657
78 0 64.0999 12.4493 798 123.185 784.915 493.367
79 0 67.0489 13.5871 911 119.54 785.244 493.76
80 0 69.087 13.6929 946 119.47 785.299 492.497
81 0 73.1025 14.637 1070 116.66 785.282 491.288
82 0 76.1297 13.7528 1047 117.611 785.14 490.434
83 0 77.05 13.6016 1048 117.237 785.362 489.713
84 0 79.1163 13.6634 1081 119.088 785.085 485.732
85 0 83.0856 12.9505 1076 119.693 785.621 484.431
86 0 87.1796 14.1891 1237 115.737 784.985 483.739
87 0 90.0949 12.6866 1143 120.828 785.06 481.047
88 0 93.0827 13.6868 1274 117.502 784.746 479.974
89 0 96.1915 12.7974 1231 117.498 784.188 481.576
90 1 47.0351 10.5666 497 113.761 784.048 502.378
91 0 50.0114 11.8773 594 109.017 784.239 502.362
92 0 52.0389 13.1825 686 110.933 783.656 501.013
93 0 52.1228 11.1467 581 115.365 784.437 501.336
94 0 55.0614 12.3499 680 112.469 784.006 500.262
95 0 55.2 12.2101 674 113.089 784.531 499.227
96 0 58.2029 12.7142 740 111.812 784.766 497.149
97 0 60.3132 12.8828 777 110.619 784.934 498.475
98 0 61.2163 12.8561 787 112.761 784.798 495.254
99 0 65.2787 12.8679 840 111.581 785.185 495.527
100 0 64.1522 12.9847 833 113.576 785.055 493.456
101 0 70.1406 15.7541 1105 105.804 784.798 491.766
102 0 71.1233 12.4572 886 114.792 784.046 491.648
103 0 73.1722 13.2701 971 113.631 784.172 491.475
104 0 76.1275 13.924 1060 113.197 783.334 487.881
105 0 78.1808 13.4816 1054 114.398 783.268 487.435
106 0 80.2074 12.131 973 117.569 783.253 486.816
107 0 83.1487 12.7362 1059 115.024 782.951 487.016
108 0 86.318 12.7204 1098 115.807 783.1 483.745
109 1 42.0135 10.687 449 110.572 783.136 506.374
110 0 45.0438 10.6563 480 107.54 782.717 504.473
111 0 47.0416 12.5421 590 105.247 783.107 503.071
112 0 51.1323 12.2623 627 113.405 782.858 502.338
113 0 52.1605 13.3243 695 111.583 783.168 501.544
114 0 53.0598 13.89 737 110.545 782.83 501.111
115 0 54.0754 11.7614 636 116.006 783.296 501.292
116 0 57.1047 12.8186 732 113.026 782.545 499.186
117 0 58.1544 12.8279 746 113.584 782.633 497.516
118 0 59.085 13.2182 781 111.772 783.288 498.382
119 0 62.0493 12.9897 806 111.717 782.845 496.681
120 0 63.1147 13.5151 853 112.505 782.875 495.613
121 0 66.0822 13.1049 866 113.262 783.383 493.955
122 0 67.1428 13.1362 882 114.954 782.828 492.379
123 0 68.0565 12.4896 850 117.393 782.762 491.862
124 0 71.0684 13.1423 934 117.222 783.928 490.494
125 0 75.2457 13.436 1011 116.618 785.58 489.043
126 0 76.2647 13.5843 1036 118.119 784.691 486.996
127 0 76.2834 13.2794 1013 120.805 784.977 485.627
128 0 82.229 13.3286 1096 119.306 784.797 487.487
129 0 83.1983 12.6805 1055 122.234 785.116 485.148
130 0 87.224 13.1271 1145 122.333 785.109 482.827
131 0 89.5534 12.607 1129 123.76 784.673 481.316
132 1 46.2146 10.2565 474 118.88 785.854 504.251
133 0 47.1736 12.7826 603 106.439 784.512 502.048
134 0 47.107 10.9962 518 110.809 784.452 503.558
135 0 49.2075 12.4371 612 112.386 785.502 501.379
136 0 52.1858 12.9537 676 110.5 785.222 501.729
137 0 54.147 12.5584 680 115.743 784.518 500.146
138 0 56.1071 12.4405 698 114.461 785.334 501.003
139 0 55.2248 13.0557 721 115.725 785.255 497.813
140 0 58.1706 12.9962 756 115.284 785.554 496.804
141 0 59.2441 12.5076 741 116.375 785.018 497.005
142 0 61.3372 12.2112 749 117.152 785.463 496.996
143 0 61.2687 13.3837 820 116.526 784.637 495.379
144 0 65.2603 11.6457 760 119.322 785.401 495.654
145 0 67.3133 13.2218 890 116.967 785.654 493.733
146 0 69.518 13.0614 908 117.41 785.838 492.497
147 0 71.1485 12.8604 915 119.836 785.077 491.76
148 0 72.2846 12.2571 886 121.589 785.244 490.309
149 0 75.1898 12.3155 926 121.312 785.633 489.427
150 0 77.2591 12.6328 976 121.449 785.109 487.834
151 0 80.2748 13.4538 1080 119.853 785.03 486.093
152 0 82.4419 13.0395 1075 121.534 784.641 484.866
153 0 87.3489 12.5474 1096 121.933 784.994 482.816
154 1 42.2778 11.7319 496 117.077 784.381 505.165
155 0 44.3446 11.9293 529 114.272 783.692 503.013
156 0 45.0539 12.7625 575 111.81 784.81 503.012
157 0 46.0602 12.4185 572 118.061 785.918 503.647
158 0 48.0047 12.4988 600 119.347 785.27 501.257
159 0 49.033 12.2775 602 118.322 785.229 503.449
160 0 51.0985 12.7205 650 118.008 785.391 499.534
161 0 52.0859 12.6138 657 117.729 785.023 498.924
162 0 54.0358 13.9907 756 114.71 785.468 497.861
163 0 55.101 12.4317 685 118.166 785.85 498.768
164 0 57.1393 13.4408 768 114.908 785.934 496.299
165 0 59.048 14.0055 827 113.817 785.989 494.438
166 0 60.0427 13.6903 822 116.178 785.765 495.696
167 0 63.0738 13.2385 835 116.066 785.679 493.934
168 0 65.0832 13.26 863 116.419 785.893 492.817
169 0 67.043 13.4093 899 115.966 785.636 490.403
170 0 69.0559 13.6846 945 114.388 785.399 490.052
171 0 72.1047 13.1892 951 113.16 785.374 490.374
172 0 72.1136 12.9657 935 114.724 785.098 487.645
173 0 76.1987 13.9504 1063 111.605 785.024 487.448
174 0 80.1756 13.3956 1074 112.749 784.823 486.366
175 0 83.2274 13.8056 1149 109.902 784.462 487.086
176 0 81.1808 13.3775 1086 116.413 784.988 485.807
177 1 44.0524 12.3262 543 114.455 784.827 504.389
178 0 43.1013 10.4405 450 108.613 784.544 499.049
179 0 44.3032 11.2633 499 105.168 783.968 498.643
180 0 46.0205 13.3419 614 107.158 783.946 503.474
181 0 46.0265 12.8621 592 109.284 783.775 503.769
182 0 49.0353 12.2769 602 111.091 784.051 502.563
183 0 50.0669 12.6431 633 113.041 784.036 501.054
184 0 54.1214 12.823 694 111.297 784.285 501.294
185 0 54.0266 12.9751 701 112.623 784.787 499.809
186 0 54.0489 13.0438 705 115.136 784.723 499.487
187 0 60.0302 13.6265 818 116.797 785.285 496.109
188 0 60.0586 12.954 778 119.641 785.243 497.411
189 0 61.0399 11.8775 725 122.894 785.204 496.921
190 0 63.1254 13.4177 847 120.758 784.466 494.898
191 0 64.0166 12.6686 811 124.308 784.989 492.958
192 0 68.1029 13.6852 932 122.259 784.815 491.608
193 0 69.0511 12.9324 893 126.451 785.213 489.395
194 0 72.0419 13.506 973 124.025 785.221 490.059
195 0 75.0916 14.2892 1073 121.523 785.077 488.232
196 0 75.1834 12.556 944 122.135 783.317 488.666
197 0 77.094 12.8026 987 123.19 782.66 485.622
198 0 81.2144 13.7537 1117 119.748 783.491 484.859
199 1 40.0581 11.6081 465 119.198 783.626 506.209
200 0 42.1134 11.6115 489 119.636 785.374 503.556
201 0 44.2261 12.7753 565 117.527 784.536 503.133
202 0 45.0438 12.2325 551 119.31 784.407 505.183
203 0 45.1132 12.9452 584 120.526 784.753 502.935
204 0 48.1035 12.4939 601 122.276 784.574 503.81
205 0 49.0232 12.5451 615 125.013 784.45 501.312
206 0 52.0782 12.4044 646 125.166 784.314 501.661
207 0 53.0347 13.444 713 124.079 783.537 499.583
208 0 54.0282 12.2529 662 125.175 784.122 499.675
209 0 57.0285 13.2565 756 121.276 784.077 498.397
210 0 59.057 13.106 774 121.599 784.171 497.687
211 0 61.1191 13.7273 839 119.729 784.499 496.228
212 0 61.0778 12.0666 737 124.585 785.092 494.106
213 0 66.0658 13.4412 888 120.126 783.662 494.711
214 0 64.0619 12.285 787 124.357 784.179 492.958
215 0 70.1597 12.7138 892 122.132 784.582 490.526
216 0 72.2374 13.0819 945 121.07 783.405 491.147
217 0 73.064 13.3171 973 120.097 783.311 490.385
218 0 78.1899 14.0939 1102 116.681 782.766 487.453
219 1 38.0352 11.6471 443 120.181 781.79 506.309
220 0 41.0328 11.9173 489 117.806 781.933 507.012
221 0 43.0717 12.6069 543 115.536 782.136 506.464
222 0 41.1619 12.3901 510 118.594 783.941 505.782
223 0 43.0525 13.0538 562 115.735 784.087 506.272
224 0 44.0241 12.3341 543 118.383 783.95 505.545
225 0 43.057 12.1002 521 120.497 785.242 504.023
226 0 47.0524 13.5381 637 116.476 784.969 503.62
227 0 48.1791 12.8894 621 119.185 784.296 502.673
228 0 50.0933 12.9159 647 120.142 784.318 502.414
229 0 52.0768 14.5746 759 115.347 783.928 501.141
230 0 54.0698 12.8168 693 120.349 784.462 500.358
231 0 55.0591 13.7489 757 119.55 784.919 498.806
232 0 56.1388 12.5938 707 122.414 784.6 498.962
233 0 57.0798 13.7527 785 120.186 784.716 497.099
234 0 59.0846 12.389 732 121.817 784.54 498.617
235 0 62.0537 13.1499 816 120.368 784.404 496.023
236 0 64.1082 14.0388 900 118.81 783.852 494.268
237 0 66.1183 13.9296 921 118.251 785.415 492.465
238 0 67.0608 14.0022 939 118.673 784.908 492.08
239 0 71.1568 13.941 992 117.981 783.771 491.29
240 0 72.3927 13.3301 965 120.064 783.854 489.678
241 0 76.2423 14.349 1094 117.462 783.564 488.964
242 0 77.304 14.1648 1095 118.037 783.624 486.364
243 0 80.1838 15.3398 1230 112.32 783.504 482.144
244 0 83.3091 13.576 1131 114.279 783.771 481.248
245 1 41.1933 10.1716 419 114.411 782.644 499.675
246 0 44.1309 11.6698 515 110.984 782.821 498.489
247 0 49.0485 13.0279 639 106.297 782.64 499.327
248 0 49.0129 12.4049 608 108.84 782.087 499.082
249 0 49.0545 12.2109 599 110.446 782.04 497.389
250 0 51.027 12.6796 647 116.453 782.362 500.377
251 0 53.0697 13.0394 692 114.798 782.737 499.864
252 0 56.0715 13.9286 781 113.817 782.898 498.207
253 0 57.0297 13.0984 747 115.478 781.973 498.344
254 0 60.033 13.276 797 114.383 782.021 497.492
255 0 62.1217 13.4092 833 114.146 782.623 496.286
256 0 64.1391 13.2525 850 114.294 782.329 495.529
257 0 68.051 13.6221 927 112.097 782.255 494.848
258 0 70.1314 14.1591 993 111.006 782.596 495.218
259 0 68.1961 12.9773 885 116.418 782.047 492.034
260 0 74.0944 13.6313 1010 113.44 782.371 491.421
261 0 75.0738 13.3602 1003 115.106 782.608 491.338
262 0 79.1845 15.4197 1221 110.711 782.744 488.443
263 1 41.0226 11.7496 482 113.274 782.481 507.755
264 0 43.1619 12.0708 521 115.294 782.724 505.441
265 0 45.0933 13.8158 623 108.982 782.361 505.573
266 0 46.0187 12.1038 557 115.513 781.601 504.406
267 0 47.1048 12.2917 579 115.582 782.594 503.737
268 0 50.0979 12.6153 632 113.894 782.472 502.962
269 0 49.0605 12.9432 635 114.839 782.565 501.976
270 0 51.0858 13.3109 680 114.974 782.801 501.19
271 0 53.1221 13.7419 730 113.11 782.774 502.04
272 0 54.1877 13.1211 711 115.776 782.582 499.546
273 0 56.0447 13.7212 769 114.309 782.518 498.659
274 0 58.0684 13.8974 807 114.587 782.517 499.161
275 0 60.0274 13.3606 802 116.52 782.731 499.07
276 0 63.2114 14.6334 925 113.849 784.051 496.181
277 0 64.1854 14.7697 948 114.368 784.672 496.665
278 0 67.2619 14.1239 950 116.111 784.64 494.233
279 0 68.2355 13.6 928 119.516 783.752 494.04
280 0 70.2456 13.8087 970 120.041 783.149 493.1
281 0 72.1514 13.5826 980 122.371 782.241 490.516
282 0 74.1122 13.3986 993 123.373 782.015 490.886
283 0 78.2565 14.248 1115 120.885 782.251 488.715
284 0 79.1306 13.5851 1075 124.33 782.478 488.604
285 0 83.1412 13.9281 1158 124.279 782.241 486.892
286 0 86.1145 13.9582 1202 124.193 782.56 483.446
287 0 88.0853 14.4519 1273 122.153 782.544 484.451
288 0 91.2108 13.7813 1257 125.718 782.924 480.597
289 0 93.0819 12.9671 1207 126.676 782.97 482.093
290 1 48.0714 10.8172 520 122.238 783.287 505.606
291 0 51.1058 12.3469 631 122.789 782.965 501.862
292 0 52.12 13.3922 698 120.447 782.824 500.741
293 0 53.1662 11.9813 637 126.289 782.678 500.37
294 0 56.1487 12.6094 708 123.918 782.429 499.332
295 0 57.1138 13.4118 766 122.435 782.49 497.046
296 0 60.2304 13.797 831 120.17 782.483 497.889
297 0 61.2636 12.6013 772 124.117 782.589 496.905
298 0 63.1376 13.2726 838 120.729 782.921 496.763
299 0 67.2211 13.2994 894 120.867 782.553 493.815
300 0 67.1997 12.7233 855 122.586 782.532 494.096
301 0 70.2638 12.5385 881 118.378 782.264 493.491
302 0 71.2299 12.958 923 117.829 782.562 491.592
303 0 73.1766 13.1463 962 117.466 782.29 491.654
304 0 75.1765 12.331 927 118.368 781.662 492.682
305 0 79.2511 14.0061 1110 115.268 782.252 489.497
306 0 80.3295 13.2952 1068 118.272 782.652 486.792
307 0 82.224 13.1349 1080 118.988 783.05 487.969
308 0 85.4137 13.1361 1122 119.738 782.865 486.627
309 1 46.3606 12.1439 563 117.952 783.345 504.297
310 0 47.2722 12.3963 586 119.391 783.078 503.164
311 0 47.2525 12.867 608 119.26 783.237 504.594
312 0 49.2246 12.6157 621 121.103 783.245 502.443
313 0 49.2553 11.1866 551 125.436 783.14 502.294
314 0 52.1479 13.4809 703 120.101 783 500.272
315 0 54.2049 13.4859 731 120.22 782.995 501.287
316 0 55.1623 12.6173 696 122.445 783.652 500.341
317 0 56.1634 14.0483 789 119.527 782.894 498.074
318 0 57.1517 13.1755 753 122.64 782.478 498.414
319 0 59.2949 14.47 858 118.517 782.748 497.894
320 0 59.1429 12.3768 732 125.747 783.034 497.154
321 0 63.1501 13.745 868 120.221 782.598 495.656
322 0 65.1259 12.9595 844 123.556 781.987 494.546
323 0 65.1292 13.1892 859 123.179 782.042 494.327
324 0 69.1519 14.0849 974 119.932 782.51 492.616
325 0 71.3326 13.3319 951 117.729 783.586 492.104
326 0 73.2093 13.1268 961 117.967 783.95 491.497
327 0 73.1138 12.0087 878 120.885 784.888 490.244
328 0 78.1168 13.1726 1029 116.708 785.015 489.554
329 0 80.1315 13.3156 1067 115.983 784.768 489.341
330 0 81.1648 12.6163 1024 119.151 784.239 486.697
331 0 85.3579 13.3673 1141 116.722 784.7 487.105
332 0 89.3366 13.0294 1164 118.194 784.121 483.028
333 0 90.1156 13.0943 1180 119.169 784.275 481.483
334 1 47.1741 11.3622 536 116.918 785.321 504.019
335 0 47.2209 11.4144 539 120.675 783.987 501.972
336 0 50.2529 12.9147 649 110.424 785.015 501.986
337 0 50.2566 12.0183 604 113.675 784.651 501.288
338 0 52.2827 10.8258 566 121.193 784.463 499.809
339 0 54.2518 11.3176 614 120.331 784.881 499.034
340 0 56.3418 12.7792 720 116.797 784.921 498.478
341 0 58.3077 12.314 718 117.273 784.369 498.443
342 0 61.3258 12.9636 795 115.069 784.395 496.933
343 0 62.2666 13.0568 813 115.237 784.107 496.26
344 0 66.4346 13.1407 873 113.99 784.48 495.969
345 0 67.358 12.7527 859 115.056 784.986 496.409
346 0 69.3363 12.5043 867 116.15 784.699 494.849
347 0 70.4722 12.9271 911 118.2 785.148 490.737
348 0 72.2354 12.5146 904 119.455 785.291 492.188
349 0 77.4217 13.3296 1032 115.854 785.47 491.297
350 0 79.4012 12.8084 1017 119.27 785.171 488.009
351 0 80.3881 12.4148 998 120.659 785.08 487.65
352 0 82.2959 11.6409 958 123.196 785.816 485.918
353 0 88.2265 13.8167 1219 117.691 785.753 484.119
354 1 46.0299 11.9488 550 112.642 786.082 505.325
355 0 46.1831 10.9997 508 116.402 786.268 503.03
356 0 50.0664 11.0853 555 106.002 785.676 505.366
357 0 51.225 12.4353 637 108.725 785.228 500.732
358 0 53.1166 12.8961 685 108.215 783.318 502.35
359 0 55.018 13.432 739 110.89 783.413 500.049
360 0 58.066 12.8475 746 110.205 782.791 500.375
361 0 60.1229 12.9402 778 111.21 782.731 498.679
362 0 61.0287 12.3385 753 113.44 782.632 497.946
363 0 63.2202 11.4837 726 114.493 783.445 496.185
364 0 66.2762 13.5041 895 110.568 782.955 494.499
365 0 66.3193 12.9977 862 111.97 782.713 494.51
366 0 68.3235 13.0994 895 112.169 782.664 493.819
367 0 70.1315 12.0203 843 114.434 783.063 492.856
368 0 74.1655 12.1485 901 114.362 783.734 491.108
369 0 76.2331 13.0914 998 113.771 783.275 489.05
370 0 78.2378 12.9349 1012 115.474 783.588 485.876
371 0 81.2058 13.2503 1076 115.44 783.451 486.421
372 0 84.2943 14.4494 1218 112.236 783.208 485.66
373 0 87.3817 13.1263 1147 115.241 783.202 484.125
374 0 90.3275 13.5064 1220 114.686 783.066 482.987
375 0 93.2429 12.2583 1143 118.528 783.287 481.582
376 1 51.1348 11.4012 583 112.086 782.59 503.904
377 0 53.0814 11.6425 618 111.934 782.982 502.817
378 0 54.0742 11.3548 614 109.41 783.156 501.686
379 0 57.0667 12.1612 694 114.677 782.903 499.559
380 0 59.071 12.5104 739 113.926 783.087 498.064
381 0 60.1386 12.4379 748 114.321 783.15 498.672
382 0 63.0814 12.5869 794 113.53 783.38 497.945
383 0 65.0938 12.6433 823 113.831 783.42 496.502
384 0 67.0901 12.7441 855 113.6 783.317 495.112
385 0 69.1386 13.2343 915 113.06 783.095 494.671
386 0 68.23 13.1467 897 114.672 784.763 493.854
387 0 72.3196 13.9105 1006 111.877 784.136 492.066
388 0 73.2673 13.6486 1000 114.105 784.527 491.814
389 0 76.1899 13.1513 1002 115.668 784.456 490.63
390 0 78.1635 14.2394 1113 114.537 783.718 487.843
391 0 81.2414 13.9707 1135 114.915 784.339 488.24
392 0 83.1771 12.9002 1073 118.196 783.952 484.566
393 0 88.3108 12.9316 1142 116.724 783.596 485.304
394 0 90.2647 13.3607 1206 116.697 784.04 484.384
395 0 92.2521 12.3683 1141 118.578 783.905 483.236
396 0 95.2657 13.898 1324 116.595 784.046 478.616
397 0 96.2064 12.3485 1188 120.584 783.236 479.303
398 0 101.358 13.2303 1341 118.748 783.045 476.582
399 0 102.17 12.0975 1236 122.1 783.845 478.139
400 0 105.178 13.1302 1381 119.615 784.027 474.535
401 0 108.307 13.8772 1503 119.067 784.09 472.171
402 0 114.264 13.8101 1578 116.849 784.156 474.3
403 0 116.279 12.8656 1496 120.727 784.518 473.231
404 0 119.226 14.0909 1680 117.924 784.35 469.576
405 0 123.402 13.0306 1608 120.845 784.221 470.375
406 0 128.352 13.9694 1793 119.273 784.882 466.776
407 0 132.353 14.1213 1869 118.988 784.993 462.259
408 0 138.414 15.1646 2099 117.224 785.776 460.661
409 0 142.378 14.7495 2100 118.33 785.693 458.334
410 0 147.291 12.7231 1874 116.49 786.117 452.42
411 0 153.37 12.9751 1990 116.133 786.261 451.802
412 1 83.1274 11.0914 922 117.924 786.816 487.304
413 0 86.1266 12.83 1105 112.908 786.662 486.147
414 0 92.1263 12.8628 1185 116.8 786.688 484.889
415 0 91.1237 10.9851 1001 124.055 787.339 481.856
416 0 96.1609 14.1742 1363 115.778 786.268 482.479
417 0 98.1094 13.4646 1321 118.607 786.659 479.817
418 0 102.11 12.5747 1284 120.854 786.976 478.012
419 0 104.282 12.5237 1306 122.8 785.464 476.441
420 0 105.314 12.8758 1356 123.18 785.923 474.731
421 0 112.329 13.5584 1523 120.26 785.813 473.352
422 0 116.366 13.5606 1578 119.852 786.222 470.032
423 0 116.313 12.2772 1428 124.576 786.037 467.639
424 0 121.225 12.2912 1490 124.277 785.795 465.997
425 1 66.087 10.7737 712 113.494 786.86 496.704
426 0 67.1126 11.5925 778 104.927 786.406 494.156
427 0 70.0761 11.5303 808 106.653 783.515 493.413
428 0 72.3192 11.9056 861 108.085 783.039 492.571
429 0 74.1416 12.0985 897 110.817 783.245 489.327
430 0 76.133 12.6095 960 111.8 783.193 490.964
431 0 78.0924 11.3968 890 115.673 783.526 488.116
432 0 81.0625 12.1141 982 112.69 782.946 488.136
433 0 85.166 13.0334 1110 110.905 782.869 485.086
434 0 85.1242 12.7813 1088 111.051 783.176 485.375
435 0 88.1487 12.8987 1137 110.42 782.901 484.582
436 0 93.2532 12.9754 1210 110.301 782.731 482.774
437 0 92.079 11.8485 1091 112.742 782.579 481.456
438 0 96.1669 12.4263 1195 110.592 782.956 477.065
439 0 99.3306 12.4634 1238 110.11 782.7 475.966
440 0 101.206 12.1337 1228 111.296 783.893 476.07
441 0 104.134 12.9449 1348 109.502 783.574 473.822
442 0 106.095 11.5934 1230 112.076 783.211 474.376
443 0 112.095 12.6946 1423 109.568 783.083 470.992
444 0 115.13 11.6912 1346 111.53 783.233 469.415
445 0 118.28 12.1069 1432 110.603 783.346 467.871
446 1 61.2432 10.3522 634 105.246 783.992 495.61
447 0 65.3437 11.2023 732 102.269 785.217 495.786
448 0 67.2105 11.6946 786 104.234 784.57 493.536
449 0 65.2079 10.2902 671 108.061 785.21 494.143
450 0 71.238 11.9459 851 103.786 785.526 491.699
451 0 71.2879 11.8393 844 105.019 785.618 491.831
452 0 74.2422 11.8666 881 103.229 785.578 490.443
453 0 76.2443 12.0665 920 101.804 786.392 491.241
454 0 77.2886 11.9034 920 103.752 786.773 487.299
455 0 79.2501 10.8013 856 108.076 785.71 486.348
456 0 82.1758 11.5971 953 106.644 786.473 485.332
457 0 83.2044 11.8023 982 106.772 785.87 488.022
458 0 87.2194 11.7176 1022 108.502 785.616 483.319
459 0 90.3047 12.9451 1169 106.403 786.013 482.515
460 0 92.2317 11.688 1078 110.43 785.812 482.079
461 0 96.309 13.519 1302 105.845 785.561 480.647
462 0 98.1184 11.1396 1093 110.425 786.593 480.924
463 0 99.1871 11.6346 1154 110.712 786.819 479.593
464 0 104.192 12.285 1280 107.841 786.997 477.655
465 0 106.371 12.2778 1306 109.795 787.564 474.263
466 0 109.198 12.134 1325 110.118 787.278 473.73
467 0 112.267 11.7755 1322 109.494 786.554 471.554
468 0 115.186 11.3469 1307 111.24 786.727 472.005
469 0 118.144 12.0277 1421 112.861 786.997 470.144
470 0 123.197 12.5734 1549 114.445 786.854 466.577
471 0 126.255 12.0233 1518 113.017 786.376 460.295
472 1 70.0986 10.0145 702 103.809 784.392 488.171
473 0 75.2077 11.1691 840 105.621 787.555 490.449
474 0 77.1489 11.0177 850 104.968 785.192 490.801
475 0 77.1356 11.3825 878 106.489 785.944 491.297
476 0 79.1153 10.9081 863 109.441 785.652 489.885
477 0 83.3388 11.5192 960 109.569 785.628 485.434
478 0 87.1757 11.689 1019 109.415 786.04 486.33
479 0 90.2582 11.2566 1016 108.62 786.301 487.022
480 0 93.2604 11.2695 1051 110.733 786.52 484.459
481 0 95.2536 10.4248 993 114.233 785.474 484.863
482 0 99.4184 11.0141 1095 113.035 785.383 483.129
483 0 100.387 10.8182 1086 111.82 785.697 481.876
484 0 104.428 11.9508 1248 109.362 786.166 481.42
485 0 107.572 11.2483 1210 111.599 785.547 478.521
486 1 56.2015 11.6189 653 113.622 786.002 501.626
487 0 59.1905 11.6742 691 113.781 786.025 500.955
488 0 62.2429 12.387 771 111.879 785.512 500.283
489 0 63.2212 12.2902 777 112.569 785.849 498.605
490 0 64.1626 11.0968 712 116.173 785.128 498.013
491 0 66.1543 12.1836 806 112.078 785.201 498.761
492 0 68.1584 13.0578 890 111.193 785.81 496.808
493 0 69.2487 12.2024 845 113.982 785.208 495.928
494 0 72.2615 13.3543 965 111.138 785.649 494.851
495 0 73.2029 13.005 952 112.497 785.359 492.711
496 0 75.1774 12.7964 962 113.23 785.175 492.384
497 0 79.2463 13.2498 1050 112.001 785.561 490.724
498 0 80.3432 11.9861 963 116.173 785.05 487.611
499 0 83.2533 12.6842 1056 113.422 785.053 489.271
500 0 86.3877 12.0851 1044 118.523 784.96 488.396
501 0 89.2982 12.1839 1088 120.72 784.682 486.162
502 1 46.0309 12.0354 554 114.222 783.792 507.63
503 0 47.1415 11.1367 525 118.29 784.463 507.162
504 0 48.4064 12.8495 622 111.474 786.831 501.883
505 0 50.2259 11.4284 574 110.051 786.024 506.261
506 0 51.1696 11.6475 596 110.651 785.899 504.542
507 0 54.3365 11.8521 644 117.762 785.691 503.505
508 0 55.2004 11.576 639 118.138 785.124 502.26
509 0 56.2265 12.3074 692 116.757 785.071 501.725
510 0 59.3507 13.5803 806 113.859 785.504 499.546
511 0 61.2747 13.3334 817 113.006 785.397 498.461
512 0 63.3284 13.4221 850 113.088 785.293 495.605
513 0 64.4021 12.7636 822 114.526 785.169 496.886
514 0 65.2951 12.2061 797 116.248 786.02 495.765
515 0 68.162 12.9838 885 116.42 785.056 495.537
516 0 69.2991 11.6163 805 121.214 785.958 493.853
517 0 71.3906 11.6542 832 121.738 785.54 493.172
518 0 74.2779 11.3493 843 122.823 785.698 491.994
519 0 76.2963 13.015 993 120.204 785.756 489.875
520 0 81.3513 12.8455 1045 119.953 785.989 488.441
521 0 80.4019 12.537 1008 122.633 785.244 487.116
522 0 83.3262 12.7211 1060 121.914 785.077 487.035
523 0 86.2886 13.5939 1173 119.298 785.211 484.766
524 0 89.3702 13.3937 1197 120.436 785.688 482.845
525 0 91.2808 12.9929 1186 121.018 785.621 484.034
526 0 95.2518 14.2779 1360 117.99 785.41 482.782
527 0 98.3323 13.9934 1376 114.271 785.041 480.39
528 0 101.201 13.8437 1401 115.142 784.929 477.733
529 0 104.335 14.7505 1539 112.653 785.471 478.205
530 0 106.252 13.7127 1457 116.6 785.837 476.2
531 0 109.275 12.6104 1378 123.338 785.651 474.808
532 1 58.0179 11.8584 688 119.74 786.565 501.036
533 0 62.0348 12.6703 786 116.099 786.606 500.05
534 0 63.1721 14.0093 885 112.122 785.214 497.323
535 0 66.0521 13.3077 879 112.882 785.716 495.585
536 0 68.1123 14.2999 974 108.184 786.446 494.427
537 0 71.0946 12.8139 911 111.24 785.833 493.398
538 0 74.0734 13.1356 973 109.599 786.44 493.803
539 0 74.1134 12.0896 896 113.112 786.182 489.919
540 0 78.2733 12.8269 1004 109.941 785.981 489.59
541 0 80.1682 13.4966 1082 108.521 785.891 488.096
542 0 82.1158 12.5554 1031 110.664 786.308 489.63
543 0 85.0635 13.2842 1130 108.414 787.233 488.588
544 0 87.188 12.192 1063 110.944 786.764 485.315
545 0 92.209 12.8946 1189 109.602 786.633 484.237
546 0 94.1563 13.5519 1276 109.053 787.168 481.412
547 0 99.208 14.4142 1430 109.857 786.041 479.957
548 1 50.0577 12.0461 603 112.512 786.854 504.527
549 0 48.2306 10.7815 520 108.008 786.346 500.512
550 0 48.1451 9.61677 463 104.732 786.27 498.065
551 0 51.1437 11.849 606 101.233 785.812 498.531
552 0 54.0914 12.1646 658 101.643 786.444 496.746
553 0 55.0455 10.5549 581 104.103 786.153 498.246
554 0 54.1073 11.1815 605 105.959 785.992 495.547
555 0 57.0794 11.1599 637 105.939 786.093 494.584
556 0 60.0891 11.3665 683 105.454 786.647 495.271
557 0 61.0691 11.184 683 108.287 786.146 493.754
558 0 65.1134 12.962 844 107.084 786.502 491.012
559 0 67.1481 11.3034 759 111.034 786.46 491.655
560 0 69.209 13.3942 927 108.064 786.875 489.554
561 0 71.1024 11.8139 840 113.438 786.525 488.139
562 0 73.0379 13.1165 958 111.6 786.38 488.146
563 0 75.114 12.9936 976 112.455 785.855 487.415
564 0 77.0662 12.872 992 113.133 785.96 486.124
565 0 80.1106 11.5091 922 116.043 785.857 485.653
566 0 83.133 11.2711 937 114.088 785.916 486.252
567 0 85.2104 11.3953 971 114.254 785.217 483.034
568 0 88.0882 11.3977 1004 112.431 785.127 485.279
569 0 93.0885 13.5677 1263 110.156 784.864 482.582
570 0 96.1427 11.7742 1132 115.134 785.123 481.958
571 0 99.1673 13.2402 1313 113.711 785.013 477.698
572 1 49.0531 11.2531 552 111.911 785.397 502.991
573 0 51.0508 11.5767 591 114.702 785.687 500.35
574 0 54.0254 13.5677 733 115.439 787.587 504.88
575 0 55.0949 11.7434 647 120.539 787.852 504.294
576 0 57.0474 13.1995 753 118.028 787.829 502.102
577 0 58.0469 13.2996 772 118.254 786.808 501.365
578 0 63.1042 12.8993 814 118.324 786.864 500.275
579 0 64.0664 13.1894 845 118.735 787.022 498.381
580 0 66.1379 13.0031 860 119.169 786.984 498.485
581 0 69.1092 13.7898 953 117.8 786.654 497.058
582 0 71.1401 14.2676 1015 116.161 786.89 497.486
583 0 75.1155 13.5391 1017 119.571 786.924 494.766
584 0 76.0719 13.4347 1022 124.562 787.572 493.348
585 0 81.1502 13.3826 1086 124.772 787.204 492.391
586 0 83.1337 13.7971 1147 123.982 787.323 489.409
587 0 85.1835 14.1811 1208 124.025 787.754 487.704
588 0 88.1795 13.1096 1156 122.653 787.573 486.757
589 0 91.0854 13.6136 1240 121.477 787.389 484.885
590 0 94.1316 13.8848 1307 120.713 786.495 484.387
591 0 98.212 13.8069 1356 121.501 786.309 483.124
592 0 100.388 13.4678 1352 122.195 785.814 483.466
593 0 103.507 14.1923 1469 120.095 785.385 480.285
594 1 50.3221 12.6982 639 120.146 785.77 503.495
595 0 52.2605 12.6482 661 121.738 785.672 501.352
596 0 55.4717 13.8089 766 118.265 785.282 500.751
597 0 56.12 13.6671 767 117.741 785.761 502.361
598 0 58.2139 13.2614 772 116.677 785.749 500.148
599 0 59.1294 12.8362 759 118.094 785.285 498.671
600 0 62.1323 13.0206 809 122.344 785.697 498.79
601 0 67.2644 13.826 930 118.727 786.527 498.283
602 0 68.3119 13.9654 954 121.565 785.958 496.664
603 0 71.2618 14.2433 1015 120.698 785.889 495.385
604 0 74.4212 14.4717 1077 121.497 784.789 491.898
605 0 74.2548 14.2348 1057 123.931 784.84 487.302
606 0 79.4268 14.4536 1148 122.482 784.474 484.634
607 0 82.2804 13.8551 1140 123.046 784.861 484.385
608 0 85.3183 14.2759 1218 121.507 785.053 481.632
609 0 87.3177 13.9605 1219 122.418 785.288 481.134
610 0 91.3224 13.8411 1264 123.033 784.499 480.119
611 1 45.1745 11.9315 539 124.109 785.206 506.701
612 0 47.155 13.2966 627 121.63 785.105 505.064
613 0 47.2284 12.8313 606 122.076 785.198 504.64
614 0 50.0307 13.9514 698 122.182 787.099 506.08
615 0 50.0328 13.2913 665 125.826 786.872 504.388
616 0 53.1532 13.6022 723 123.776 786.938 503.642
617 0 54.0687 13.3164 720 124.183 786.288 503.753
618 0 57.111 14.1654 809 121.655 786.313 501.623
619 0 60.2149 14.2988 861 120.134 786.07 500.35
620 0 61.0914 13.8154 844 122.822 786.763 498.868
621 0 65.1201 14.097 918 120.505 786.864 499.562
622 0 67.0944 14.8298 995 119.881 786.654 496.369
623 0 70.0614 14.473 1014 118.469 786.83 497.411
624 0 72.0456 15.046 1084 116.923 786.789 495.042
625 0 75.0766 13.6527 1025 120.002 786.567 496.499
626 0 76.0942 14.6792 1117 119.509 786.719 492.168
627 0 79.0822 14.5418 1150 118.587 786.969 491.199
628 0 81.0693 14.8515 1204 117.518 787.269 491.08
629 0 84.0809 14.6644 1233 118.378 786.757 490.272
630 0 85.1646 14.3604 1223 119.109 785.886 488.11
631 0 89.3628 15.577 1392 115.019 785.817 485.593
632 0 92.1352 14.8586 1369 113.062 785.366 485.572
633 0 94.2431 14.8976 1404 114.925 785.133 484.677
634 0 99.2572 15.6059 1549 118.721 784.832 481.07
635 0 101.336 15.1673 1537 121.348 785.042 479.461
636 0 104.348 14.2599 1488 125.013 785.176 477.833
637 1 52.0528 12.7563 664 121.066 785.039 504.255
638 0 56.1889 14.3801 808 117.449 785.186 501.995
639 0 58.0509 14.7457 856 118.304 785.013 500.952
640 0 59.1361 13.1054 775 123.738 785.27 501.41
641 0 64.0923 14.8068 949 117.142 785.652 501.005
642 0 65.1686 14.5315 947 120.132 785.132 499.797
643 0 66.1317 15.5599 1029 119.782 784.981 496.017
644 0 68.194 14.5761 994 122.792 784.775 496.589
645 0 70.2152 14.3559 1008 124.127 785.523 496.342
646 0 73.2421 14.8139 1085 123.537 785.169 495.176
647 0 76.3284 14.621 1116 123.546 784.894 494.288
648 0 77.3354 14.4436 1117 126.378 784.891 492.885
649 0 80.4422 14.5446 1170 129.103 784.414 491.101
650 0 83.2574 16.0706 1338 127.337 784.706 487.826
651 0 86.4252 15.1692 1311 130.773 784.783 485.863
652 0 88.3644 15.8322 1399 128.338 784.997 486.367
653 0 90.3124 15.38 1389 130.14 785.042 484.874
654 0 95.4292 15.4774 1477 129.387 785.391 482.225
655 0 98.3428 15.2731 1502 130.085 785.224 482.595
656 0 102.239 15.2681 1561 130.099 785.013 480.139
657 0 106.428 15.7478 1676 128.764 785.419 478.244
658 1 52.398 12.5577 658 128.169 785.263 503.693
659 0 55.3665 13.221 732 129.937 785.578 499.904
660 0 57.1331 15.1576 866 119.837 785.879 503.155
661 0 61.1268 14.6253 894 120.188 785.81 502.134
662 0 61.0798 13.2941 812 126.075 785.938 500.615
663 0 64.1323 14.4857 929 121.413 786.374 501.163
664 0 66.0823 14.0582 929 124.009 786.786 498.016
665 0 68.4245 13.6208 932 123.529 786.656 495.405
666 0 70.3449 13.8034 971 123.864 786.421 495.953
667 0 73.4144 13.5532 995 125.639 786.193 492.465
668 0 75.3606 13.8003 1040 125.515 785.951 489.994
669 0 78.5157 14.2647 1120 123.652 785.358 489.261
670 0 79.5855 14.2237 1132 124.813 784.845 487.186
671 0 83.5218 14.4992 1211 122.689 784.733 486.702
672 0 83.5434 14.1962 1186 124.205 784.971 486.471
673 0 85.3626 13.7648 1175 126.52 784.295 482.93
674 0 89.4236 14.5599 1302 124.291 784.866 482.177
675 0 93.3132 14.9175 1392 123.884 785.09 481.775
676 0 95.4028 13.1443 1254 129.701 785.094 480.393
677 0 98.4787 13.8101 1360 128.039 785.312 477.32
678 0 103.276 13.9336 1439 127.009 785.47 474.331
679 0 106.506 12.741 1357 129.276 785.351 475.615
680 0 110.468 13.5605 1498 128.69 785.644 471.105
681 0 115.321 15.045 1735 124.573 784.452 471.014
682 0 118.59 14.4194 1710 127.588 784.274 470.054
683 0 123.402 15.8101 1951 124.259 784.27 469.775
684 0 130.454 14.8098 1932 126.725 784.573 468.332
685 0 133.351 15.3054 2041 128.284 784.572 463.463
686 0 135.246 14.7879 2000 131.174 784.86 462.555
687 0 141.36 14.2049 2008 133.918 784.265 459.123
688 0 147.502 16.4541 2427 129.038 784.325 457.906
689 0 152.626 16.013 2444 133.851 784.305 454.849
690 0 157.414 15.2147 2395 137.477 784.005 450.798
691 0 162.515 15.4817 2516 137.018 784.483 452.282
692 0 167.549 15.6372 2620 137.747 784.411 448.706
693 0 174.539 15.6298 2728 138.689 784.593 445.361
694 0 180.536 16.0965 2906 137.581 784.375 441.681
695 0 187.578 15.6309 2932 137.928 784.077 440.063
696 0 190.653 14.8909 2839 140.8 783.828 439.032
697 0 201.645 16.172 3261 135.444 783.764 435.532
698 0 208.553 17.07 3560 133.147 783.838 429.502
699 0 215.698 15.8694 3423 136.247 783.868 426.301
700 1 164.45 15.6461 2573 139.356 783.715 450.602
701 0 172.732 15.7238 2716 134.036 783.994 447.652
702 0 177.807 16.1467 2871 133.245 783.498 446.145
703 0 185.531 15.7655 2925 134.09 783.293 444.628
704 0 190.537 15.9182 3033 134.284 783.497 439.809
705 0 198.661 15.8813 3155 134.704 783.662 434.419
706 0 207.717 16.6573 3460 132.79 783.854 431.71
707 0 213.549 16.3897 3500 134.179 784.387 429.072
708 0 222.591 15.369 3421 136.055 783.78 427.179
709 0 231.346 15.4963 3585 134.539 784.02 420.986
710 1 69.1277 15.9415 1102 145.089 784.092 492.374
711 0 72.3327 16.272 1177 144.337 784.88 491.236
712 0 75.1515 16.5799 1246 142.697 784.071 490.273
713 0 76.2723 15.7462 1201 147.078 784.311 488.364
714 0 81.1766 17.0985 1388 142.431 784.532 485.155
715 0 83.2155 16.259 1353 143.758 784.392 484.65
716 0 86.2641 16.6581 1437 143.367 784.342 479.924
717 0 91.2403 16.8127 1534 142.076 784.531 478.256
718 0 93.162 16.9382 1578 141.946 784.767 479.762
719 0 96.1763 16.9376 1629 143.007 784.851 477.081
720 0 101.193 16.3153 1651 144.127 784.42 475.959
721 0 105.189 16.1709 1701 144.597 784.657 471.614
722 0 108.158 16.7626 1813 143.6 784.633 468.544
723 0 114.119 16.1147 1839 142.729 785.064 467.459
724 0 118.211 15.6839 1854 144.922 785.005 463.734
725 1 61.0574 12.8895 787 137.611 784.845 491.614
726 0 63.0417 11.8652 748 139.755 784.848 490.709
727 0 68.0865 13.4682 917 140.389 784.824 492.613
728 0 70.0822 13.4414 942 140.926 784.695 493.772
729 0 73.1962 13.9761 1023 139.414 785.237 492.409
730 0 74.1597 13.7406 1019 140.212 785 489.57
731 0 78.2774 13.4777 1055 138.14 785.301 489.899
732 0 80.1729 13.5333 1085 135.584 785.333 489.829
733 0 82.1807 12.9714 1066 136.24 785.482 485.504
734 0 86.1778 12.4278 1071 134.252 785.312 483.829
735 0 89.1543 12.3157 1098 131.91 785.569 485.731
736 0 95.1942 14.087 1341 128.007 784.799 481.502
737 1 52.1386 12.4668 650 122.375 783.86 503.791
738 0 53.1763 12.3927 659 121.546 784.539 503.668
739 0 54.0697 11.5961 627 126.7 784.82 501.089
740 0 57.1883 11.8556 678 126.739 784.566 500.117
741 0 59.3325 12.7923 759 127.091 784.577 498.509
742 0 61.3529 12.0614 740 129.527 785.335 498.023
743 0 64.4203 12.5582 809 130.263 785.037 494.743
744 0 66.3185 13.4804 894 128.569 785.275 494.694
745 0 68.4568 11.9199 816 133.706 785.662 492.549
746 0 71.4963 12.3783 885 132.092 785.784 492.521
747 0 75.5914 13.3613 1010 129.497 785.923 490.528
748 1 41.3285 9.9931 413 126.772 785.094 509.726
749 0 40.0568 10.2355 410 118.785 787.007 509.583
750 0 41.0505 10.7916 443 118.009 786.74 510.149
751 0 42.1286 11.3225 477 120.979 785.358 507.382
752 0 42.0763 9.41148 396 124.747 785.417 508.492
753 0 45.19 10.1571 459 123.608 785.333 506.571
754 0 47.1182 10.4418 492 123.77 785.472 506.587
755 0 49.1181 11.1161 546 121.782 785.26 506.207
756 0 50.1564 12.2816 616 121.742 785.443 503.669
757 0 52.1407 11.2772 588 123.456 785.604 503.777
758 0 53.2779 10.9802 585 124.588 785.369 501.875
759 0 54.1732 11.9247 646 122.771 785.317 499.94
760 0 55.1049 11.2694 621 123.878 784.86 500.233
761 0 57.1006 11.9438 682 122.485 785.277 500.092
762 0 60.2458 12.3494 744 121.751 786.031 499.946
763 0 61.2301 11.8896 728 124.386 786.036 496.721
764 0 65.3305 12.7199 831 121.061 786.495 498.077
765 0 64.2223 11.3512 729 127.292 786.881 494.686
766 0 69.3407 12.5612 871 122.625 786.743 493.571
767 0 71.1909 12.6421 900 124.054 786.721 493.672
768 0 72.4238 11.3775 824 127.217 786.674 493.629
769 0 75.5688 12.1346 917 125.888 786.616 491.707
770 0 76.4978 11.9611 915 127.492 786.954 489.937
771 0 80.672 11.5406 931 128.751 786.816 487.423
772 0 84.3898 13.4969 1139 118.358 786.457 487.503
773 1 41.2472 10.5462 435 117.848 785.568 507.869
774 0 43.2007 11.9906 518 114.409 785.452 506.697
775 0 45.0431 12.0551 543 113.3 784.917 506.691
776 0 46.0412 11.9675 551 112.61 784.211 505.479
777 0 46.0427 11.2504 518 119.376 783.961 506.768
778 0 47.1205 12.1179 571 118.769 785.476 506.613
779 0 48.1348 11.8002 568 121.463 785.34 505.225
780 0 49.1988 10.5287 518 126.307 784.714 505.06
781 0 53.2579 12.017 640 121.455 784.647 503.617
782 0 54.1627 12.9056 699 121.04 784.588 502.634
783 0 53.134 11.2169 596 127.542 785.059 501.485
784 0 56.2288 12.8938 725 122.219 785.287 500.239
785 0 59.1138 12.9073 763 122.374 784.722 499.263
786 0 61.1908 13.2373 810 120.741 785.283 499.323
787 0 64.3489 13.7376 884 92.7421 785.045 494.308
788 0 63.2884 12.5141 792 128.768 784.691 495.601
789 0 65.2092 11.8848 775 130.772 784.698 494.245
790 0 69.3149 13.1862 914 127.21 784.237 493.271
791 0 70.2866 12.4206 873 129.711 784.257 493.069
792 0 73.2595 13.3498 978 127.76 783.721 491.34
793 0 73.2155 12.3471 904 130.331 783.888 490.853
794 0 77.1892 13.2272 1021 126.579 783.85 489.376
795 0 79.2233 12.5847 997 129.678 784.012 487.889
796 0 82.2103 13.1127 1078 128.021 783.674 486.72
797 0 84.2317 13.4154 1130 127.947 783.942 486.015
798 0 87.1087 13.5118 1177 128.514 783.72 483.625
799 0 91.2428 13.897 1268 128.837 784.007 482.498
800 0 96.2545 14.2227 1369 126.455 783.955 480.918
801 0 97.1345 13.6718 1328 128.925 783.196 479.782
802 1 53.06 10.6106 563 127.542 783.156 501.32
803 0 54.0203 11.0514 597 125.385 783.104 501.503
804 0 53.0326 9.42816 500 122.218 786.136 495.878
805 0 57.0772 11.756 671 121.346 786.228 496.188
806 0 58.1028 10.2405 595 125.005 786.709 496.649
807 0 60.0652 10.8216 650 122.154 786.886 500.623
808 0 62.1229 12.5718 781 117.387 784.05 500.487
809 0 65.1928 12.7468 831 115.844 784.051 499.343
810 0 64.2128 12.1627 781 118.876 783.597 497.688
811 0 68.195 11.7164 799 116.703 784.697 500.001
812 0 71.1946 12.6976 904 115.439 783.69 496.417
813 0 72.2405 11.697 845 118.375 783.793 496.689
814 0 72.171 10.6968 772 121.645 783.469 495.815
815 0 77.1876 11.621 897 118.362 783.63 494.039
816 0 80.2569 13.083 1050 116.338 783.778 492.362
817 0 83.3771 12.3055 1026 119.213 783.845 491.606
818 0 86.2567 12.1962 1052 120.127 783.28 488.503
819 1 47.1534 10.9218 515 120.631 784.948 509.122
820 0 48.1339 11.1356 536 123.299 785.349 505.341
821 0 49.1726 11.9375 587 120.784 786.676 504.884
822 0 50.1303 10.8118 542 121.635 785.729 506.756
823 0 52.1701 11.9225 622 120.74 786.042 503.09
824 0 52.1606 11.062 577 122.574 786.153 503.818
825 0 54.1219 11.5665 626 121.757 786.337 503.07
826 0 56.2148 12.3989 697 120.032 785.809 501.594
827 0 59.1039 12.9941 768 118.405 785.905 500.587
828 0 60.1597 12.1676 732 121.224 786.22 498.996
829 0 63.1043 13.6441 861 116.641 786.283 499.553
830 0 64.282 12.7874 822 123.864 786.361 497.271
831 0 66.1567 13.2413 876 122.468 785.971 498.444
832 0 67.1547 12.9701 871 124.642 786.385 497.274
833 0 69.1836 13.0956 906 125.857 786.351 495.921
834 0 70.3348 13.3078 936 127.043 786.291 492.943
835 0 73.4267 13.0334 957 127.183 786.052 491.304
836 0 76.1754 13.6133 1037 122.833 785.426 491.194
837 0 78.1215 12.5702 982 121.413 785.582 491.954
838 0 80.1605 11.1277 892 127.108 784.592 488.683
839 0 85.1061 13.0425 1110 121.561 785.215 488.541
840 0 85.1048 11.9382 1016 125.261 784.88 486.543
841 1 45.0379 12.4118 559 112.281 783.968 506.664
842 0 47.0691 12.4923 588 108.522 784.291 507.206
843 0 50.0498 12.3277 617 120.06 785.671 506.528
844 0 50.1359 10.5314 528 126.481 785.765 505.621
845 0 53.1119 11.7864 626 122.845 785.565 504.326
846 0 52.1213 10.9936 573 126.323 785.773 504.227
847 0 54.2013 12.1215 657 125.23 786.324 501.822
848 0 56.1091 12.1727 683 123.572 785.596 501.43
849 0 57.1029 12.2936 702 123.778 785.776 501.553
850 0 58.1231 12.6456 735 123.52 786.838 499.008
851 0 61.2088 12.1061 741 124.918 785.842 498.3
852 0 64.1137 13.5696 870 121.166 786.606 497.287
853 0 64.1308 11.9132 764 125.52 787.135 496.493
854 0 67.1124 13.1868 885 121.672 786.975 498.19
855 0 68.07 11.7526 800 125.759 786.806 495.447
856 0 71.0927 12.5048 889 124.161 786.746 496.394
857 0 75.1179 13.0462 980 122.234 786.565 493.637
858 0 77.0535 13.3544 1029 122.774 786.76 492.773
859 0 77.0429 13.1745 1015 123.112 786.487 489.799
860 0 82.051 13.4063 1100 121.908 786.407 488.914
861 0 84.09 12.8077 1077 122.799 786.098 489.342
862 0 86.2488 13.7509 1186 122.008 785.569 489.648
863 1 40.0295 10.6921 428 123.895 786.773 509.864
864 0 46.1401 10.9449 505 120.489 784.937 507.307
865 0 44.2683 11.4755 508 121.699 783.709 502.352
866 0 47.1866 11.4439 540 120.052 783.737 503.113
867 0 49.034 12.3384 605 112.01 784.425 505.63
868 0 50.2069 12.9265 649 114.995 786.992 504.994
869 0 51.1375 14.2948 731 115.43 786.906 502.36
870 0 54.1436 13.9813 757 120.875 786.297 502.349
871 0 54.35 12.3827 673 126.333 786.415 501.409
872 0 58.3124 13.5649 791 122.335 786.221 500.753
873 0 58.2781 13.2812 774 124.022 786.372 500.942
874 0 60.2485 13.3115 802 125.666 785.805 499.014
875 0 62.3031 13.0491 813 124.71 786.711 498.248
876 0 65.161 13.2288 862 123.281 785.945 497.342
877 0 65.2425 12.7524 832 124.397 785.897 496.829
878 0 68.1774 13.2889 906 123.744 786.131 495.546
879 0 69.3044 12.5389 869 128.175 786.25 492.018
880 0 72.3802 13.8297 1001 124.011 786.123 493.491
881 0 72.3354 12.7462 922 130.292 786.126 491.084
882 0 77.4268 14.0261 1086 125.474 785.631 491.991
883 0 77.5233 14.2409 1104 127.708 785.303 489.73
884 0 81.4312 13.3487 1087 129.636 785.11 488.434
885 0 82.3385 14.3554 1182 128.195 785.668 488.327
886 0 85.4578 13.7846 1178 130.494 785.517 486.969
887 0 87.397 15.1264 1322 128.833 785.618 483.637
888 0 90.5022 15.6129 1413 127.166 785.355 482.953
889 0 92.2377 15.0264 1386 130.649 784.654 481.53
890 0 95.4323 14.691 1402 130.292 784.593 481.486
891 0 98.6319 14.9445 1474 130.99 785.269 478.875
892 0 101.492 15.8338 1607 128.979 784.482 474.397
893 0 105.535 14.6586 1547 129.145 784.772 477.329
894 0 108.574 15.8233 1718 127.769 785.068 470.525
895 0 110.644 14.7772 1635 130.976 785.762 468.087
896 0 114.593 14.486 1660 131.101 785.295 469.21
897 1 60.2979 13.0021 784 127.36 785.12 495.161
898 0 64.4104 13.3985 863 126.698 785.73 493.138
899 0 65.3901 13.3201 871 128.808 784.735 492.811
900 0 67.2842 13.0789 880 128.46 785.257 491.932
901 0 68.359 13.8241 945 126.897 785.051 491.04
902 0 70.3177 12.8133 901 130.169 784.964 490.679
903 0 74.4691 14.2744 1063 126.119 784.867 488.418
904 0 76.5244 13.8387 1059 126.838 784.829 486.837
905 0 77.2821 13.6901 1058 120.302 785.917 484.264
906 0 79.1987 13.3209 1055 121.977 785.154 482.94
907 0 81.1496 14.1837 1151 119.688 785.265 482.467
908 0 84.1647 13.5092 1137 122.005 785.42 480.079
909 0 86.3106 12.7794 1103 124.804 785.609 478.708
910 0 91.2016 13.6511 1245 120.513 786.148 476.294
911 0 95.3014 14.0292 1337 118.693 785.629 475.626
912 1 47.0482 11.0525 520 109.81 784.544 500.658
913 0 49.0603 10.9457 537 113.253 784.421 500.57
914 0 54.0657 13.4281 726 118.124 784.147 501.712
915 0 56.0194 13.0312 730 118.445 784.012 499.462
916 0 56.0301 13.1893 739 117.816 784.134 500.141
917 0 59.129 12.5488 742 119.078 783.67 498.02
918 0 61.1086 14.2206 869 114.75 783.507 497.71
919 0 63.1396 12.8604 812 117.18 783.268 495.756
920 0 66.0517 12.8081 846 116.499 783.947 495.012
921 0 68.0845 13.3217 907 115.404 783.443 493.487
922 0 70.118 13.7055 961 114.105 783.618 493.769
923 0 73.1647 14.3512 1050 112.928 783.39 489.893
924 0 75.0929 13.1304 986 114.423 783.613 489.655
925 0 79.1152 12.8041 1013 113.867 783.731 490.328
926 0 82.1402 13.343 1096 113.672 783.722 486.98
927 0 83.1316 12.3058 1023 117.397 783.203 486.424
928 0 86.0613 13.7344 1182 114.652 783.929 482.56
929 0 91.0939 13.7441 1252 111.887 784.176 483.071
930 1 48.0323 10.8677 522 109.621 783.128 504.933
931 0 50.0452 11.6095 581 109.831 783.783 503.361
932 0 51.1108 12.7957 654 108.141 784.758 500.214
933 0 54.0699 13.2236 715 107.744 788.057 502.186
934 0 56.0664 12.9846 728 108.584 787.973 501.378
935 0 57.033 13.2204 754 108.528 788.219 500.037
936 0 58.0369 12.337 716 110.878 788.485 500.538
937 0 61.0832 13.146 803 109.314 788.2 497.986
938 0 61.0289 12.7317 777 111.58 787.472 496.923
939 0 63.0421 12.7851 806 110.489 788.052 498.552
940 0 65.0392 13.315 866 110.792 788.02 494.837
941 0 67.0493 13.1097 879 112.197 787.543 494.221
942 0 68.0851 11.4563 780 114.999 788.1 495.86
943 0 70.0593 12.7463 893 113.72 787.434 493.198
944 0 73.0628 12.7425 931 114.638 787.981 490.116
945 0 76.0695 12.7778 972 114.382 787.878 490.895
946 0 79.1483 14.3907 1139 110.826 788.067 489.233
947 0 82.1218 13.7722 1131 113.236 788.057 487.782
948 0 82.1285 12.6753 1041 117.409 788.695 487.638
949 0 86.1187 12.7498 1098 116.064 788.4 487.387
950 0 87.2544 12.1713 1062 118.184 788.244 485.49
951 0 91.1735 13.2056 1204 116.105 787.809 483.14
952 1 45.1701 11.6449 526 113.903 787.827 505.692
953 0 47.0603 12.6434 595 110.139 787.427 505.492
954 0 48.1248 11.9481 575 110.005 787.56 504.603
955 0 50.1061 13.9105 697 105.829 786.476 504.261
956 0 50.0542 12.866 644 113.543 787.545 503.258
957 0 51.051 12.7128 649 110.786 788.475 503.686
958 0 55.0848 12.6169 695 111.165 788.016 501.665
959 0 55.0199 12.5046 688 112.32 787.618 499.603
960 0 56.0396 12.509 701 111.705 787.703 500.793
961 0 57.1018 11.9611 683 112.676 787.703 498.956
962 0 61.0646 13.5103 825 107.962 787.922 497.287
963 0 63.1107 12.0265 759 109.668 788.362 498.586
964 0 65.0711 12.6016 820 109.02 787.632 495.862
965 0 66.1057 12.8884 852 109.474 787.177 494.779
966 0 66.2616 13.3109 882 109.011 786.817 491.59
967 0 71.1691 13.475 959 108.543 786.731 493.387
968 0 72.2098 12.8791 930 111.366 786.615 492.172
969 0 75.2835 12.951 975 110.771 786.234 491.19
970 0 77.2859 12.719 983 112.677 786.274 489.219
971 0 80.3311 12.5605 1009 114.467 785.664 486.413
972 0 82.3284 11.8185 973 116.091 785.746 487.524
973 1 40.1011 9.25162 371 114.369 786.377 506.747
974 0 42.0794 10.6941 450 106.098 786.853 503.107
975 0 37.1047 7.95048 295 106.773 786.207 500.169
976 0 40.0455 10.1135 405 104.207 786.467 499.114
977 0 43.1107 9.67278 417 99.1894 786.257 501.07
978 0 39.0639 9.29246 363 101.807 786.284 497.791
979 0 47.1345 12.7507 601 105.318 787.008 504.379
980 0 49.0539 12.4353 610 107.438 786.782 503.967
981 0 52.1066 12.3785 645 107.391 786.808 502.957
982 0 51.042 12.3036 628 110.642 787.287 501.113
983 0 51.0698 12.1794 622 128.355 787.272 501.037
984 0 55.0632 13.0577 719 109.787 787.413 498.979
985 0 55.0835 11.764 648 112.802 787.194 498.702
986 0 59.1003 12.7411 753 110.657 787.507 497.163
987 0 60.098 12.1302 729 112.217 787.657 495.754
988 0 64.1217 13.6303 874 108.215 787.749 496.664
989 0 64.1039 12.6357 810 111.385 787.735 493.194
990 0 66.1354 12.9431 856 111.062 787.528 493.317
991 0 69.1392 11.7878 815 112.899 788.088 491.963
992 0 70.159 13.4837 946 111.142 787.796 489.73
993 0 75.2551 13.7266 1033 110.422 788.076 488.335
994 0 76.2646 11.9453 911 112.914 787.221 489.472
995 0 80.1606 12.8367 1029 110.003 787.086 487.748
996 0 82.0888 14.1432 1161 109.532 785.385 487.409
997 0 85.1468 13.236 1127 110.475 785.459 486.968
998 0 87.1701 12.7223 1109 110.645 785.397 482.693
999 0 90.2544 12.6088 1138 110.862 787.786 482.069
1000 0 94.0929 14.0712 1324 108.529 787.52 481.301
1001 1 49.1046 11.6486 572 109.442 787.591 504.126
1002 0 54.1822 12.9194 700 110.93 787.301 500.486
1003 0 53.0813 13.0178 691 109.559 787.618 499.945
1004 0 56.0586 13.2897 745 111.793 787.905 497.672
1005 0 57.0651 13.0728 746 111.937 787.529 497.038
1006 0 59.1055 12.7061 751 113.146 787.234 496.692
1007 0 59.0565 12.3272 728 115.753 787.091 493.464
1008 0 60.1191 11.4273 687 113.581 787.303 494.543
1009 0 66.1134 12.7357 842 109.31 787.344 494.923
1010 0 66.098 11.2258 742 112.001 786.842 494.691
1011 0 71.1374 13.8043 982 106.101 787.07 492.666
1012 0 71.2415 13.2226 942 108.219 787.445 491.753
1013 0 73.3031 11.964 877 110.066 786.831 491.33
1014 0 78.308 14.3919 1127 103.843 785.418 491.523
1015 0 81.3145 12.8636 1046 108.274 785.852 488.321
1016 0 82.1772 13.0815 1075 108.072 785.364 486.7
1017 1 40.0834 11.4012 457 109.383 787.142 507.834
1018 0 41.1218 11.2836 464 111.099 787.03 506.259
1019 0 42.2942 11.8219 500 100.742 785.4 503.684
1020 0 45.1043 11.7506 530 98.6453 787.425 505.766
1021 0 45.1373 13.5143 610 95.7115 786.398 505.02
1022 0 47.1487 12.5348 591 96.9002 787.135 503.621
1023 0 48.118 12.5733 605 97 786.901 504.177
1024 0 51.1279 11.8918 608 99.5444 786.602 505.367
1025 0 50.2604 11.2414 565 102.451 787.188 502.11
1026 0 55.231 14.72 813 97.075 786.255 500.547
1027 0 55.2138 13.33 736 100.918 785.793 500.386
1028 0 55.3517 12.7729 707 104.089 786.021 500.079
1029 0 59.245 13.5032 800 108.875 786.374 497.57
1030 0 61.3864 12.8041 786 111.66 786.225 495.545
1031 0 64.3421 12.9775 835 109.794 786.657 495.119
1032 0 68.4037 13.0987 896 109.578 786.475 495.117
1033 0 68.3049 12.737 870 108.81 787.621 492.621
1034 0 69.3255 11.9148 826 111.215 787.184 492.712
1035 0 74.4295 13.4087 998 107.844 786.423 489.454
1036 0 76.3923 12.9071 986 110.208 785.765 490.804
1037 0 77.4329 12.1654 942 112.679 785.839 487.118
1038 0 80.4815 12.5867 1013 111.492 785.705 485.009
1039 1 40.2602 10.6308 428 108.71 784.124 505.283
1040 0 42.0826 12.2378 515 106.35 784.01 503.775
1041 0 45.0941 12.5072 564 104.688 784.204 503.457
1042 0 46.0316 13.5559 624 102.575 784.522 503.761
1043 0 47.1722 13.4189 633 104.107 787.09 503.142
1044 0 49.0682 12.4724 612 105.485 787.552 504.76
1045 0 50.0895 13.6555 684 105.385 787.52 501.849
1046 0 51.2784 14.08 722 105.841 786.835 500.774
1047 0 52.1034 13.55 706 107.388 786.407 503.534
1048 0 53.2495 12.601 671 111.387 786.963 501.228
1049 0 57.2843 14.1924 813 110.439 786.096 499.652
1050 0 58.3916 13.2896 776 113.564 786.369 498.041
1051 0 60.2073 12.6231 760 115.467 786.009 497.821
1052 0 63.2994 14.0918 892 111.677 785.732 496.188
1053 0 66.2528 13.5843 900 112.638 786.06 496.022
1054 0 70.2616 12.7523 896 113.217 786.037 496.566
1055 0 69.2671 13.1231 909 115.748 785.67 493.933
1056 0 76.1493 13.6836 1042 111.954 785.959 493.756
1057 0 77.25 14.4337 1115 112.705 785.561 491
1058 0 79.3373 13.827 1097 114.289 785.886 489.904
1059 0 82.2906 13.6225 1121 115.18 785.791 486.795
1060 0 84.3948 12.8088 1081 118.132 786.183 486.167
1061 1 43.2843 11.1357 482 115.971 786.178 504.778
1062 0 44.0917 12.2926 542 104.083 785.17 506.666
1063 0 43.1002 10.696 461 110.44 784.646 504.482
1064 0 47.0646 13.1521 619 103.817 785.015 506.002
1065 0 48.1079 11.2663 542 108.288 784.786 504.753
1066 0 52.0335 12.9724 675 105.71 784.354 501.316
1067 0 54.058 12.8196 693 105.971 784.291 501.635
1068 0 54.0538 12.3765 669 110.504 784.486 500.055
1069 0 56.0983 12.6742 711 111.124 784.253 499.082
1070 0 56.1132 13.3658 750 117.884 783.943 498.149
1071 0 58.1353 12.1097 704 122.033 784.55 497.036
1072 0 64.0917 12.4353 797 117.56 785.125 498.282
1073 0 64.2511 13.027 837 121.495 785.992 493.995
1074 0 65.2947 12.2828 802 124.772 786.89 494.315
1075 0 70.2455 13.0542 917 122.025 787.224 493.543
1076 0 74.3884 14.5453 1082 117.788 787.47 492.646
1077 0 74.3251 12.8086 952 124.506 786.769 490.876
1078 0 77.4355 12.5007 968 125.049 786.66 491.51
1079 0 80.4267 12.4337 1000 123.113 786.914 491.12
1080 0 83.3401 13.9789 1165 121.667 786.337 487.01
1081 0 87.3803 14.3739 1256 118.647 787.402 487.258
1082 0 91.3839 13.3065 1216 120.803 786.845 485.85
1083 1 48.0313 12.4919 600 116.338 787.82 505.217
1084 0 48.0518 12.1536 584 114.81 787.313 505.95
1085 0 48.0384 13.1561 632 113.807 788.109 503.625
1086 0 49.1082 11.9125 585 120.265 787.655 502.959
1087 0 52.0589 12.7356 663 116.373 788.084 503.655
1088 0 53.0374 13.1417 697 116.245 787.406 502.141
1089 0 55.0258 12.6123 694 117.141 787.108 502.903
1090 0 55.055 12.7509 702 117.94 787.631 499.689
1091 0 56.0206 11.8528 664 120.877 788.054 497.94
1092 0 60.0456 13.1234 788 116.707 787.764 497.9
1093 0 59.1188 13.0077 769 118.926 787.831 495.902
1094 0 62.0188 13.2057 819 118.316 787.598 495.832
1095 0 64.0258 13.1822 844 119.412 786.399 494.822
1096 0 65.0715 13.4775 877 119.892 786.906 494
1097 0 67.057 13.1828 884 120.007 786.734 494.397
1098 0 71.1721 14.0785 1002 117.744 787.554 491.363
1099 0 73.0337 13.8292 1010 117.329 787.531 490.614
1100 0 75.0802 13.8918 1043 117.916 787.447 488.559
1101 0 77.0669 13.1185 1011 121.095 787.576 487.7
1102 0 79.1287 13.042 1032 121.145 787.395 488.907
1103 0 81.2314 13.3815 1087 120.847 787.106 486.539
1104 0 83.2254 13.0729 1088 123.033 787.182 488.099
1105 0 85.0966 12.7737 1087 125.032 787.341 482.989
1106 1 45.0638 11.628 524 120.92 786.767 508.101
1107 0 46.1343 11.8133 545 122.084 787.031 505.266
1108 0 47.2782 12.3736 585 123.588 784.973 501.576
1109 0 47.3375 11.9989 568 125.678 785.21 501.127
1110 0 50.0592 12.625 632 123.568 787.03 504.198
1111 0 49.0359 12.0932 593 120.081 783.919 505.322
1112 0 50.0559 12.3262 617 120.83 784.076 505.42
1113 0 52.0393 12.8172 667 119.054 784.067 504.996
1114 0 55.0505 14.2596 785 119.059 784.087 502.668
1115 0 56.1312 14.0207 787 122.046 784.578 501.522
1116 0 59.0114 14.6412 864 120.878 784.201 498.581
1117 0 59.032 13.5689 801 123.863 784.107 499.041
1118 0 61.0545 13.5453 827 123.41 784.259 498.676
1119 0 62.0846 13.997 869 123.132 784.289 497.628
1120 0 64.0483 13.2869 851 126.474 783.392 495.975
1121 0 68.061 14.1932 966 122.94 783.944 493.578
1122 0 70.225 13.8555 973 124.314 784.01 493.388
1123 0 72.1146 13.8807 1001 125.987 783.832 490.757
1124 0 76.1413 14.8014 1127 123.122 784.3 491.056
1125 0 77.1202 14.7432 1137 125.223 784.917 489.439
1126 0 79.1577 14.8564 1176 124.512 785.133 488.852
1127 0 81.2243 14.5523 1182 126.319 785.39 486.673
1128 0 85.1327 14.495 1234 126.37 785.28 485.863
1129 0 88.4917 14.4759 1281 126.211 785.4 484.286
1130 1 44.0709 11.2319 495 125.396 785.016 506.6
1131 0 46.0449 12.7919 589 123.869 785.105 504.594
1132 0 47.0822 13.041 614 116.191 785.044 504.858
1133 0 50.0702 12.5424 628 113.631 785.083 504.21
1134 0 51.0292 11.758 600 116.607 784.855 505.718
1135 0 53.0363 12.8214 680 115.484 784.4 504.482
1136 0 54.0866 12.1657 658 118.277 783.728 504.067
1137 0 59.0632 13.2909 785 122.274 784.859 500.005
1138 0 59.126 12.8201 758 125.139 784.269 499.621
1139 0 61.0457 14.2025 867 121.09 784.517 498.755
1140 0 63.0855 12.4593 786 125.688 784.903 497.899
1141 0 64.0623 12.3942 794 125.183 784.894 496.461
1142 0 66.0558 12.8528 849 125.503 784.376 494.542
1143 0 69.1549 12.4069 858 128.006 783.857 491.916
1144 0 71.0677 13.8459 984 125.061 784.308 490.1
1145 0 74.0648 13.5557 1004 124.649 784.005 491.179
1146 0 76.0316 13.1787 1002 126.723 783.851 489.87
1147 0 79.0932 14.2111 1124 123.674 783.883 487.877
1148 0 82.1202 14.5031 1191 122.937 784.343 486.65
1149 0 82.1267 14.5872 1198 123.992 784.155 484.069
1150 0 83.1365 13.6282 1133 125.74 783.639 484.948
1151 0 89.153 14.8284 1322 121.564 784.172 483.822
1152 0 91.2123 13.1232 1197 127.458 783.728 482.556
1153 0 93.1856 13.0385 1215 127.067 784.79 483.849
1154 0 96.2451 13.476 1297 127.234 784.558 481.889
1155 0 99.2855 13.0331 1294 131.922 784.914 477.556
1156 1 51.1312 12.3212 630 123.53 785.557 501.354
1157 0 54.1149 12.6398 684 120.942 785.149 502.114
1158 0 56.1562 12.768 717 120.434 784.213 500.729
1159 0 58.2465 13.3742 779 125.032 784.286 498.086
1160 0 59.1608 14.5197 859 122.815 784.288 498.847
1161 0 63.1731 14.0091 885 123.995 784.492 495.07
1162 0 62.1411 13.1314 816 129.612 783.838 495.958
1163 0 63.0646 12.5586 792 130.699 783.782 494.277
1164 0 66.0566 13.2311 874 128.162 784.15 494.267
1165 0 69.0991 13.1116 906 128.605 784.215 492.829
1166 0 72.0834 12.6936 915 128.993 785.103 491.127
1167 0 74.072 13.6219 1009 126.853 784.272 489.673
1168 0 77.0838 13.2842 1024 126.544 784.536 488.896
1169 0 80.0864 13.5728 1087 124.269 783.623 484.158
1170 0 82.036 13.2137 1084 126.034 783.925 484.141
1171 0 85.091 13.844 1178 124.645 784.312 483.201
1172 0 88.1586 14.145 1247 122.649 783.717 481.86
1173 0 91.1998 13.443 1226 123.132 783.925 483.081
1174 0 92.1898 13.4939 1244 125.372 784.376 480.357
1175 0 97.1233 14.4044 1399 122.37 784.514 478.225
1176 0 101.265 13.6869 1386 123.844 783.759 477.833
1177 1 55.1934 12.1391 670 125.53 784.463 499.645
1178 0 55.1256 12.4443 686 123.844 784.003 499.617
1179 0 57.0937 12.6634 723 125.003 783.539 499.479
1180 0 60.1115 12.4602 749 126.311 783.786 498.294
1181 0 61.2175 13.4275 822 124.386 784.046 497.425
1182 0 64.0725 13.75 881 123.837 784.157 495.117
1183 0 67.1018 13.2038 886 124.178 784.089 495.635
1184 0 67.1284 13.4816 905 125.114 783.446 493.64
1185 0 70.1779 13.0241 914 126.024 784.111 493.433
1186 0 73.1535 13.3965 980 124.24 783.926 492.158
1187 0 76.0987 13.3774 1018 125.159 784.777 489.63
1188 0 77.1005 12.8274 989 128.005 784.235 487.878
1189 0 80.1297 14.1271 1132 123.508 784.384 487.69
1190 0 84.103 13.3883 1126 125.266 783.907 484.298
1191 0 89.2129 13.3949 1195 121.674 784.892 484.532
1192 1 46.1363 12.0079 554 119.715 784.865 505.659
1193 0 45.1995 12.3674 559 120.25 785.301 504.297
1194 0 47.2055 12.5409 592 119.917 786.22 503.948
1195 0 51.1611 12.0209 615 120.143 783.977 500.54
1196 0 51.0451 11.7935 602 121.831 783.198 500.944
1197 0 50.0457 11.6693 584 124.303 783.704 498.695
1198 0 54.0842 13.4975 730 119.995 783.54 497.507
1199 0 54.0337 11.9925 648 124.003 783.415 498.799
1200 0 55.3457 11.9612 662 123.997 785.742 499.524
1201 0 57.2682 11.385 652 125.376 785.807 498.035
1202 0 59.4206 13.2109 785 121.832 786.236 495.567
1203 0 60.4116 12.3652 747 124.888 785.697 496.312
1204 0 62.2839 12.4109 773 124.026 786.041 496.038
1205 0 63.3016 12.6379 800 124.575 785.539 495.411
1206 0 66.2993 13.3486 885 123.155 785.712 494.718
1207 0 68.2674 11.8212 807 127.985 786.154 494.12
1208 0 69.2175 12.4246 860 128.317 786.156 493.206
1209 0 72.3963 13.1636 953 126.983 786.236 490.253
1210 0 75.3325 13.6727 1030 125.39 785.213 490.147
1211 0 78.426 12.8784 1010 127.788 785.369 488.093
1212 0 80.5949 12.4946 1007 129.37 785.857 487.128
1213 1 39.1625 11.031 432 127.792 786.662 507.053
1214 0 42.3225 12.4048 525 124.229 786.162 504.213
1215 0 42.4005 12.0282 510 120.641 784.814 502.175
1216 0 44.0883 12.4296 548 123.235 783.666 502.982
1217 0 45.0464 13.1642 593 120.54 783.336 503.852
1218 0 46.0157 12.9521 596 121.532 783.628 501
1219 0 49.1091 14.2133 698 116.484 783.44 501.487
1220 0 51.021 13.7002 699 116.144 783.152 502.923
1221 0 51.0193 13.1323 670 119.582 785.299 500.81
1222 0 54.0515 13.5982 735 118.491 783.548 498.893
1223 0 54.0688 12.965 701 121.324 782.802 499.011
1224 0 55.0495 13.7513 757 120.672 783.022 497.24
1225 0 58.0608 14.3642 834 117.776 783.501 496.204
1226 0 58.0375 12.9744 753 121.944 783.526 497.157
1227 0 62.0717 13.7422 853 119.498 783.714 494.148
1228 0 64.0421 13.3194 853 121.256 783.947 493.733
1229 0 66.0339 14.2048 938 117.616 783.977 492.101
1230 0 68.0796 14.248 970 118.408 783.846 492.386
1231 0 68.0879 14.6428 997 117.621 783.603 491.657
1232 0 69.1362 13.3794 925 120.106 783.374 489.691
1233 0 74.1128 14.2485 1056 117.049 783.363 490.114
1234 0 75.1166 13.4857 1013 120.955 784.001 487.84
1235 0 79.1873 13.9037 1101 119.946 783.575 486.47
1236 0 82.1982 14.5259 1194 118.083 784.199 486.144
1237 0 83.2573 13.8006 1149 120.275 784.023 485.28
1238 0 87.1901 15.8275 1380 113.775 784.449 482.786
1239 0 89.6168 14.8187 1328 113.194 785.565 481.822
1240 1 42.102 11.0684 466 116.736 785.938 498.242
1241 0 43.0209 12.1336 522 114.523 786.054 496.561
1242 0 45.2192 11.9639 541 113.442 785.327 498.421
1243 0 46.0788 11.7191 540 113.261 786.054 499.002
1244 0 48.105 10.8305 521 115.697 784.82 498.894
1245 0 51.1075 12.0922 618 111.243 785.078 498.162
1246 0 52.1063 11.9179 621 112.159 785.296 496.283
1247 0 54.1969 11.6612 632 113.214 784.919 495.161
1248 0 56.0971 11.7297 658 110.761 785.144 496.182
1249 0 57.1332 12.0595 689 110.435 785.716 494.742
1250 0 58.1518 11.7795 685 112.486 785.342 491.747
1251 0 62.1501 11.6492 724 112.051 784.506 492.008
1252 0 62.1079 11.4961 714 114.038 784.887 490.27
1253 0 65.1614 12.8297 836 109.657 784.783 490.696
1254 0 67.1674 11.7766 791 112.008 784.936 490.453
1255 0 71.1021 12.3062 875 110.233 784.969 489.451
1256 0 74.1126 12.2246 906 110.745 784.919 487.001
1257 0 76.0661 12.923 983 109.026 784.638 487.49
1258 0 78.0975 13.4191 1048 107.251 784.199 484.752
1259 0 80.0816 13.0117 1042 108.513 784.968 485.125
1260 0 82.1515 10.7119 880 112.794 784.565 483.492
1261 1 44.176 10.1186 447 99.9687 784.638 505.119
1262 0 45.0684 10.3176 465 100.938 785.606 506.772
1263 0 47.0846 11.9147 561 114.228 783.364 504.765
1264 0 49.0707 12.2476 601 112.441 783.373 504.06
1265 0 50.0714 13.7604 689 109.611 782.573 501.084
1266 0 52.1597 13.1327 685 109.248 783.001 501.613
1267 0 53.1256 13.7034 728 110.045 783.651 500.839
1268 0 54.1181 12.7869 692 111.653 783.962 500.747
1269 0 55.1228 13.8055 761 109.248 784.403 499.335
1270 0 59.2151 13.6452 808 108.611 784.509 498.371
1271 0 59.2262 13.6088 806 109.273 785.212 496.751
1272 0 60.3214 13.6436 823 110.546 785.474 495.417
1273 0 63.2689 12.9764 821 111.458 786.272 494.984
1274 0 65.2218 12.9098 842 110.914 785.683 494.134
1275 0 67.2233 13.6411 917 109.172 785.877 493.55
1276 0 68.367 13.1496 899 111.278 785.79 493.195
1277 0 70.2084 12.5199 879 113.729 785.983 490.104
1278 0 75.3702 14.0241 1057 109.437 785.808 490.041
1279 0 76.3114 14.2181 1085 109.852 785.626 489.195
1280 0 79.3563 13.9497 1107 111.339 785.381 487.399
1281 0 82.3695 13.2938 1095 112.523 785.474 487.573
1282 1 42.0582 11.6505 490 110.067 786.678 506.218
1283 0 44.0683 11.4822 506 109.858 786.674 503.897
1284 0 42.1089 12.3252 519 108.686 786.274 505.495
1285 0 46.0949 12.5177 577 112.024 783.172 502.25
1286 0 48.1839 13.3032 641 109.615 783.471 504.192
1287 0 48.1947 11.9723 577 114.896 783.419 500.433
1288 0 53.0642 12.9843 689 110.239 783.884 501.614
1289 0 54.1895 13.2867 720 109.979 783.614 500.676
1290 0 56.1721 12.8177 720 111.149 783.411 500.361
1291 0 56.2912 12.5952 709 113.216 783.746 498.832
1292 0 59.188 12.6208 747 112.443 783.328 497.71
1293 0 59.1871 12.4014 734 114.134 783.565 497.243
1294 0 62.3082 13.1443 819 111.672 783.615 493.956
1295 0 64.2813 11.6986 752 115.503 783.669 495.059
1296 0 67.3641 12.6774 854 112.337 783.509 490.196
1297 0 68.2256 12.9717 885 111.724 783.85 491.306
1298 0 71.2927 13.3534 952 111.416 783.825 491.377
1299 0 73.3249 12.1241 889 115.146 784.039 490.125
1300 0 76.5709 12.6158 966 116.272 784.5 488.126
1301 0 82.6543 13.7924 1140 111.701 784.782 487.146
1302 1 40.4661 12.4302 503 113.513 784.414 506.272
1303 0 40.2844 10.9968 443 118.086 783.867 507.169
1304 0 43.0928 11.7653 507 116.209 783.27 505.481
1305 0 43.0823 11.7914 508 117.598 783.415 505.256
1306 0 46.0561 12.3979 571 116.811 782.779 505.231
1307 0 46.0552 12.5284 577 118.957 782.581 502.74
1308 0 48.0703 11.9201 573 121.342 782.949 503.581
1309 0 47.0584 12.8351 604 121.459 783.27 503.656
1310 0 50.0613 14.0228 702 118.283 783.65 501.187
1311 0 52.0931 13.8214 720 118.729 783.589 500.867
1312 0 51.074 12.8049 654 121.394 783.613 500.784
1313 0 56.0324 13.4387 753 118.943 783.442 500.126
1314 0 56.0506 14.0944 790 117.525 783.628 499.514
1315 0 59.0483 14.6321 864 116.953 783.747 499.984
1316 0 58.0817 12.8956 749 123.712 784.043 498.837
1317 0 62.0989 15.2177 945 116.55 784.168 498.165
1318 0 63.0436 14.3393 904 120.188 784.071 497.176
1319 0 64.0958 14.0571 901 121.66 783.802 496.388
1320 0 64.043 14.2248 911 123.091 784.191 494.446
1321 0 68.1217 14.1218 962 122.641 783.634 495.285
1322 0 70.0733 14.2993 1002 123.162 783.64 493.573
1323 0 74.0867 15.0094 1112 120.352 784.026 493.508
1324 0 76.1074 14.6898 1118 121.998 783.862 490.352
1325 0 79.1611 15.8664 1256 119.312 783.951 489.467
1326 0 80.2394 14.7932 1187 124.579 783.759 487.868
1327 0 83.172 15.5822 1296 121.438 783.551 486.76
1328 0 84.0961 14.3051 1203 125.712 783.314 485.849
1329 0 85.1774 14.053 1197 128.289 783.236 485.137
1330 0 89.1916 14.5642 1299 122.206 783.838 481.274
1331 0 91.5771 14.2831 1308 122.385 784.932 479.466
1332 0 96.63 13.0601 1262 125.149 785.092 476.346
1333 0 98.3178 13.4258 1320 125.988 785.642 476.655
1334 0 100.476 12.819 1288 127.908 785.533 475.054
1335 0 103.316 12.9215 1335 128.281 785.22 477.622
1336 1 57.0493 13.6548 779 124.334 786.478 496.406
1337 0 60.0365 13.1753 791 123.795 786.282 496.827
1338 0 61.0623 12.1352 741 125.744 785.887 495.323
1339 0 65.0659 13.2942 865 123.449 785.362 494.199
1340 0 67.0895 13.9217 934 121.046 786.127 493.415
1341 0 69.0483 13.324 920 125.082 786.354 492.08
1342 0 71.094 14.1784 1008 123.974 786.159 491.665
1343 0 75.0983 14.4744 1087 122.47 786.112 490.853
1344 0 77.0322 13.0075 1002 127.228 786.25 489.877
1345 0 81.0541 13.9413 1130 125.974 786.285 487.158
1346 0 83.0354 13.4762 1119 127.735 785.718 485.011
1347 0 85.0489 14.1095 1200 125.286 786.277 484.892
1348 1 42.0485 11.2965 475 118.937 786.038 505.996
1349 0 43.0487 13.3802 576 116.226 786.319 505.339
1350 0 45.0349 12.8345 578 121.569 785.488 506.699
1351 0 48.2125 14.3116 690 116.867 785.455 505.636
1352 0 47.04 13.9456 656 120.154 786.262 504.081
1353 0 51.0224 13.2099 674 118.573 786.331 505.564
1354 0 50.1177 14.0669 705 120.034 786.299 503.804
1355 0 52.0131 14.5156 755 120.759 786.497 500.495
1356 0 55.0544 13.9317 767 125.819 786.342 500.808
1357 0 56.0414 13.8112 774 125.191 786.373 500.205
1358 0 60.1075 13.6256 819 124.761 786.25 498.399
1359 0 61.043 14.6454 894 121.633 786.185 497.947
1360 0 64.0212 14.792 947 120.77 786.052 497.003
1361 0 65.0844 13.3826 871 124.025 786.223 496.467
1362 0 66.1494 13.4846 892 123.524 785.704 494.647
1363 0 70.0471 14.5616 1020 118.477 785.336 493.851
1364 0 71.0985 13.4743 958 122.065 785.622 493.03
1365 0 72.1314 13.7527 992 122.086 785.599 490.865
1366 0 76.1582 13.4588 1025 120.252 786.161 489.475
1367 0 78.082 13.9981 1093 119.188 786.049 488.624
1368 0 82.1499 14.2788 1173 119.204 786.128 487.055
1369 0 85.0176 14.8087 1259 116.733 785.849 487.028
1370 1 41.0232 11.3107 464 119.517 785.914 506.821
1371 0 43.0232 11.6914 503 117.726 785.895 507.427
1372 0 44.0475 12.4184 547 116.32 785.996 507.186
1373 0 45.0699 13.4014 604 112.065 786.52 502.656
1374 0 47.2651 13.0963 619 108.995 784.499 503.486
1375 0 48.1899 12.928 623 109.128 784.029 504.592
1376 0 50.2406 13.3955 673 108.013 784.04 504.86
1377 0 50.2148 12.6855 637 111.545 784.521 502.444
1378 0 53.2312 12.812 682 110.755 784.214 503.283
1379 0 55.2044 13.1874 728 109.923 784.224 502.225
1380 0 58.3169 13.5981 793 115.648 784.832 499.517
1381 0 59.2021 12.8036 758 117.949 784.743 498.319
1382 0 62.1965 14.9365 929 113.349 784.478 497.216
1383 0 64.1839 13.9287 894 116.602 783.896 496.228
1384 0 67.2231 13.7453 924 116.399 784.029 496.321
1385 0 68.1812 14.6961 1002 116.188 784.054 493.788
1386 0 71.2493 14.1896 1011 116.878 785.109 493.86
1387 0 73.3208 14.4025 1056 117.573 784.609 491.093
1388 0 75.2116 14.0404 1056 118.276 784.949 491.109
1389 0 78.3134 14.6718 1149 116.037 785.076 489.979
1390 0 82.2816 15.4713 1273 114.863 784.581 486.941
1391 0 85.301 15.416 1315 116.61 785.497 485.138
1392 0 87.4394 13.7581 1203 117.066 784.881 482.056
1393 0 90.4306 13.5021 1221 117.943 784.995 481.649
1394 1 45.3531 11.5538 524 114.823 785.063 505.036
1395 0 48.3494 12.1615 588 118.182 784.721 502.476
1396 0 49.231 13.5281 666 116.944 784.444 501.776
1397 0 53.0647 14.9252 792 118.795 783.317 501.131
1398 0 54.1092 13.8609 750 121.505 782.557 500.972
1399 0 58.1646 13.9432 811 120.266 783.371 500.804
1400 0 58.1003 12.9259 751 124.843 783.27 497.77
1401 0 59.1237 13.0912 774 125.521 783.603 496.81
1402 0 64.1223 14.831 951 119.264 783.253 496.447
1403 0 67.2615 14.0794 947 121.615 783.478 495.469
1404 0 67.2288 13.3871 900 126.092 783.149 493.974
1405 0 71.1921 13.3442 950 126.118 783.154 493.318
1406 0 73.1272 13.962 1021 125.493 783.172 490.362
1407 0 74.2196 13.6756 1015 125.893 782.725 490.54
1408 0 79.344 14.2292 1129 123.949 783.303 488.08
1409 0 80.4322 14.1486 1138 125.635 783.476 486.874
1410 0 82.435 14.7268 1214 124.501 783.288 486.613
1411 0 87.6024 14.8284 1299 123.798 783.917 481.237
1412 0 89.6631 15.4913 1389 123.824 784.177 479.736
1413 1 47.2484 11.8734 561 118.426 785.538 501.176
1414 0 47.1618 11.1955 528 120.824 785.051 501.566
1415 0 49.1427 13.1454 646 116.963 785.412 500.017
1416 0 50.0582 12.905 646 113.515 785.488 500.149
1417 0 54.0552 12.9682 701 113.017 785.17 499.618
1418 0 55.1279 13.1331 724 114.892 785.228 497.761
1419 0 56.0814 13.0346 731 116.194 785.512 496.933
1420 0 58.1058 12.46 724 118.238 785.492 496.525
1421 0 60.0716 13.4673 809 117 785.237 495.628
1422 0 60.0874 12.6482 760 120.857 785.778 495.697
1423 0 62.0653 12.5674 780 126.51 786.173 493.268
1424 0 66.128 13.9275 921 121.254 786.356 492.431
1425 0 70.0793 13.0566 915 123.565 785.927 491.06
1426 0 70.1005 13.6946 960 123.73 786.411 490.107
1427 0 72.0558 12.5597 905 127.621 786.535 489.718
1428 0 74.1866 13.4526 998 127.241 787.205 486.887
1429 0 77.1695 14.2284 1098 125.367 786.296 484.403
1430 0 79.3736 13.5058 1072 124.621 786.348 484.827
1431 1 40.311 11.2376 453 122.536 787.068 503.81
1432 0 40.1426 11.0108 442 123.412 787.262 503.26
1433 0 41.3899 12.201 505 120.067 786.125 500.648
1434 0 42.3568 12.8197 543 118.477 785.622 498.33
1435 0 42.1433 12.6236 532 119.581 786.498 499.889
1436 0 44.2239 11.9166 527 119.863 786.03 501.027
1437 0 47.2778 13.5582 641 114.984 785.736 499.048
1438 0 45.2984 10.8834 493 122.063 785.655 499.477
1439 0 47.114 12.1832 574 120.395 785.862 498.408
1440 0 50.0279 14.7118 736 115.122 786.117 496.355
1441 0 51.0365 12.5988 643 120.658 786.05 496.725
1442 0 55.0632 13.1667 725 118.815 786.393 496.07
1443 0 56.0252 13.244 742 120.251 786.629 494.173
1444 0 57.0199 12.6798 723 123.225 786.56 493.556
1445 0 60.048 12.4567 748 124.084 786.991 493.612
1446 0 63.0752 13.8406 873 125.686 787.149 492.379
1447 0 64.0521 14.2696 914 126.093 786.868 491.26
1448 0 65.1541 13.5985 886 129.459 786.449 488.299
1449 0 69.0807 13.9402 963 127.366 786.739 489.053
1450 0 73.0478 14.2099 1038 125.415 786.604 489.192
1451 0 72.0972 13.4818 972 130.752 787.063 486.838
1452 0 74.1538 14.6857 1089 128.271 786.271 484.617
1453 0 80.1433 14.4616 1159 126.991 787.176 486.002
1454 1 43.0821 11.745 506 126.164 787.401 503.439
1455 0 43.1216 11.7342 506 124.98 786.907 503.901
1456 0 44.1808 13.06 577 124.147 786.92 499.324
1457 0 45.6847 12.3236 563 118.071 785.412 497.103
1458 0 46.4572 11.7312 545 119.756 785.701 495.956
1459 0 45.3888 11.1701 507 124.243 785.558 494.882
1460 0 48.3951 11.7367 568 119.25 785.526 498.021
1461 0 49.2848 12.4379 613 119.917 785.188 495.608
1462 0 51.4541 13.1379 676 115.896 785.396 495.771
1463 0 51.2931 11.3466 582 121.632 785.38 492.739
1464 0 54.2919 13.2985 722 115.454 785.048 492.77
1465 0 57.3556 12.4138 712 116.118 784.983 493.045
1466 0 60.4334 13.006 786 113.358 785.099 491.455
1467 0 58.3055 11.7999 688 118.916 784.682 489.225
1468 0 60.4118 12.2824 742 118.286 785.509 487.469
1469 0 63.3213 12.3497 782 117.554 785.1 487.712
1470 0 65.4427 13.1566 861 116.596 785.246 486.647
1471 0 69.3114 12.9272 896 118.039 785.196 484.504
1472 0 71.2397 12.1421 865 119.615 785.353 484.209
1473 0 74.3165 12.4871 928 117.902 785.18 483.917
1474 0 77.273 13.187 1019 115.898 784.625 482.365
1475 0 80.2501 12.9969 1043 116.185 784.551 480.34
1476 0 83.3014 12.1727 1014 118.076 784.524 480.292
1477 0 84.2151 12.3375 1039 119.051 784.613 476.526
1478 0 90.1762 12.3314 1112 117.862 784.512 475.86
1479 1 50.0472 10.7698 539 106.601 784.384 499.208
1480 0 49.2121 11.6435 573 107.452 784.948 496.714
1481 0 51.1722 11.8424 606 106.777 784.038 494.074
1482 0 50.0703 10.1258 507 114.122 784.316 489.807
1483 0 54.1586 11.891 644 109.068 784.379 493.267
1484 0 55.135 11.9162 657 110.333 784.393 492.14
1485 0 58.0515 12.9023 749 108.439 784.81 490.844
1486 0 59.0336 10.4517 617 114.425 784.566 490.981
1487 0 62.0411 12.7818 793 109.836 784.681 489.04
1488 0 64.0455 11.1171 712 114.389 783.965 490.962
1489 0 67.1205 12.6936 852 111.413 784.516 487.906
1490 0 69.147 11.989 829 113.152 784.298 487.71
1491 0 69.3356 11.3794 789 116.601 784.323 484.881
1492 0 72.1302 11.1326 803 115.085 783.985 486.833
1493 0 74.1509 11.7463 871 117.519 783.754 482.923
1494 0 77.1297 12.2651 946 117.064 784.086 482.701
1495 0 81.178 12.2447 994 117.67 784.13 482.087
1496 0 83.151 13.2891 1105 115.705 784.173 479.147
1497 0 86.2602 10.4451 901 124.686 784.711 476.537
1498 0 89.3041 12.2727 1096 119.981 785.124 477.191
1499 0 93.333 13.2965 1241 119.947 784.568 474.95
1500 0 95.2835 11.6599 1111 124.933 784.439 473.794
1501 1 47.2713 8.2291 389 114.728 784.093 499.46
1502 0 49.3553 9.74566 481 115.017 784.083 493.657
1503 0 50.0581 10.0483 503 117.905 782.453 495.724
1504 0 52.3366 11.3114 592 104.535 784.422 493.363
1505 0 52.3991 11.3552 595 107.23 784.802 492.647
1506 0 51.2024 10.1363 519 110.566 784.224 495.085
1507 0 53.3213 10.2586 547 113.468 785.035 493.835
1508 0 54.0506 10.1572 549 115.883 784.342 495.069
1509 0 56.046 11.1515 625 124.224 783.104 498.646
1510 0 56.0265 11.2982 633 126.891 783.387 497.765
1511 0 58.0147 11.4109 662 124.4 783.64 498.474
1512 0 59.1726 13.3846 792 122.354 783.28 496.859
1513 0 62.2174 12.7456 793 122.177 782.883 495.883
1514 0 62.1001 13.0113 808 121.796 782.871 495.269
1515 0 64.1124 12.2441 785 123.232 783.409 494.298
1516 0 66.1823 12.8282 849 120.436 782.518 493.656
1517 0 67.2159 11.9763 805 124.022 783.535 491.932
1518 0 68.2669 12.3632 844 123.924 783.055 492.408
1519 0 71.1092 11.8831 845 124.465 783.12 492.679
1520 0 73.522 12.3229 906 124.743 784.51 487.557
1521 0 75.3437 12.1974 919 125.264 784.884 489.058
1522 0 77.4072 12.7766 989 124.672 784.043 487.688
1523 0 80.5282 12.7533 1027 123.204 784.671 487.191
1524 0 83.462 12.7962 1068 125.383 784.728 487.447
1525 0 86.4171 13.5737 1173 124.59 784.893 485.067
1526 1 45.0229 11.8384 533 124.013 783.456 505.426
1527 0 46.2745 12.4475 576 123.608 786.057 504.097
1528 0 47.451 11.5277 547 128.667 785.618 502.971
1529 0 50.4487 13.4196 677 123.591 785.589 502.065
1530 0 49.3871 13.1613 650 126.729 785.122 502.803
1531 0 51.3572 13.0848 672 128.11 785.08 500.359
1532 0 52.3333 13.2229 692 128.702 785.321 500.176
1533 0 54.2945 12.598 684 131.75 785.273 500.079
1534 0 55.2522 12.5968 696 135.914 784.787 499.319
1535 0 57.2627 11.945 684 135.576 784.354 499.604
1536 0 58.2691 12.9743 756 133.255 784.573 498.332
1537 0 60.308 13.2486 799 131.662 784.637 497.861
1538 0 60.1566 12.1682 732 135.717 784.391 498.428
1539 0 62.3059 13.4016 835 132.493 784.927 497.059
1540 0 62.2627 13.1539 819 135.341 784.275 496.011
1541 0 66.1757 13.7815 912 132.542 784.418 495.616
1542 0 67.1437 12.8679 864 135.791 784.196 496.159
1543 0 69.0893 12.6937 877 135.262 784.62 494.594
1544 0 72.1065 13.6326 983 133.18 785.129 491.314
1545 0 73.0778 13.8072 1009 133.006 784.955 492.131
1546 0 77.1131 12.9031 995 134.499 784.353 491.631
1547 0 78.0625 12.7078 992 136.072 784.578 489.456
1548 0 81.1908 12.5507 1019 135.566 783.756 488.173
1549 0 83.1155 13.2346 1100 134.21 783.947 486.561
1550 0 85.1196 12.6763 1079 135.839 783.706 484.972
1551 1 47.0338 11.5661 544 135.972 783.833 504.36
1552 0 49.0564 12.4347 610 132.418 783.015 503.218
1553 0 53.3905 12.7925 683 129.753 782.837 499.657
1554 0 50.1497 13.021 653 122.026 783.56 495.259
1555 0 51.0858 11.5884 592 126.75 784.098 494.333
1556 0 52.1933 11.2658 588 126.284 783.81 495.247
1557 0 55.0999 12.7042 700 121.51 783.414 494.724
1558 0 56.1105 11.3526 637 124.353 783.598 494.155
1559 0 58.0677 11.7105 680 122.547 783.719 493.824
1560 0 61.1135 11.5523 706 121.958 783.331 492.503
1561 0 63.071 12.4938 788 119.721 783.89 489.881
1562 0 66.1434 11.8379 783 119.789 783.148 488.903
1563 0 67.1808 12.5482 843 118.288 783.363 486.635
1564 0 69.0914 12.9828 897 116.997 783.697 484.768
1565 0 71.0993 12.6584 900 116.47 783.456 486.214
1566 0 74.1593 12.3113 913 117.203 783.602 484.654
1567 0 76.0934 12.1298 923 116.574 783.413 483.402
1568 0 76.1265 12.5318 954 115.966 783.395 480.852
1569 0 79.0681 11.8505 937 116.464 783.693 480.47
1570 0 83.0898 12.6971 1055 113.658 783.236 480.691
1571 0 85.2222 12.1917 1039 116.888 782.747 475.808
1572 0 88.1567 12.2169 1077 115.566 782.133 476.557
1573 1 41.0656 8.86386 364 108.148 781.805 499.995
1574 0 43.0716 11.7247 505 105.309 781.723 497.57
1575 0 43.0286 11.8061 508 111.478 780.87 494.923
1576 0 46.0986 10.8029 498 111.622 781.606 496.386
1577 0 46.023 10.9945 506 112.462 781.107 493.905
1578 0 51.0294 11.8167 603 108.582 780.861 493.629
1579 0 52.0672 11.8501 617 108.736 781.143 493.272
1580 0 52.0441 12.1628 633 109.671 780.697 490.284
1581 0 55.0137 10.5428 580 112.328 781.438 489.8
1582 0 58.0572 12.6082 732 108.26 781.303 489.094
1583 0 61.1104 13.5656 829 106.439 781.692 487.63
1584 0 62.0248 11.9468 741 112.251 780.337 484.869
1585 0 64.0653 12.8775 825 108.967 780.989 484.115
1586 0 67.0629 13.465 903 106.865 781.539 484.494
1587 0 68.1093 12.245 834 111.814 781.77 481.534
1588 0 73.0739 12.7679 933 110.96 782.004 481.834
1589 0 75.1568 13.066 982 111.545 781.516 480.897
1590 0 78.2316 12.7698 999 113.319 781.997 477.207
1591 0 81.2104 12.3506 1003 114.396 782.232 479.352
1592 0 83.1816 13.8011 1148 112.816 782.296 477.145
1593 0 86.3325 13.2511 1144 115.69 782.398 474.558
1594 0 88.3456 12.9265 1142 118.555 782.71 471.051
1595 0 91.4801 12.9318 1183 118.806 782.768 469.604
1596 0 95.2101 12.6772 1207 117.353 783.127 472.471
1597 0 96.3196 13.7874 1328 117.528 782.224 469.239
1598 0 100.113 14.4037 1442 115.511 783.001 466.103
1599 0 107.177 14.6394 1569 117.013 783.513 469.887
1600 0 113.175 15.3922 1742 115.416 784.207 467.133
1601 1 56.1199 12.3842 695 116.16 784.258 496.514
1602 0 58.0564 12.7634 741 116.115 784.969 494.528
1603 0 62.0925 13.0289 809 117.101 785.1 495.253
1604 0 62.1136 12.4771 775 120.239 784.672 492.871
1605 0 65.0585 12.6194 821 119.158 784.488 494.706
1606 0 68.1042 13.5087 920 117.685 784.877 491.027
1607 0 72.1615 14.4121 1040 114.208 785.538 491.633
1608 0 70.1401 12.8172 899 121.347 784.785 488.095
1609 0 75.0681 13.6409 1024 118.548 784.752 486.368
1610 0 78.0937 13.8295 1080 117.692 784.448 487.543
1611 0 81.1051 14.3764 1166 116.163 783.952 486.664
1612 0 82.1271 14.027 1152 117.82 784.827 484.938
1613 0 84.2971 13.0491 1100 120.63 784.156 484.13
1614 0 85.1761 12.797 1090 115.677 783.628 482.693
1615 0 88.1421 12.4118 1094 116.052 783.734 481.658
1616 0 90.2209 12.4361 1122 116.426 783.234 480.589
1617 1 50.0833 10.8819 545 115.099 784.866 498.861
1618 0 49.0565 10.8446 532 115.91 785.489 499.891
1619 0 52.2131 11.8169 617 113.227 780.575 498.835
1620 0 55.2532 12.7775 706 113.426 781.46 499.109
1621 0 56.1316 11.384 639 117.275 781.817 497.304
1622 0 57.4065 11.8453 680 117.326 781.713 494.95
1623 0 61.329 12.4085 761 115.141 781.975 495.294
1624 0 64.2974 11.7423 755 115.465 781.381 496.702
1625 0 63.2465 12.3011 778 117.233 780.317 493.045
1626 0 66.2062 14.047 930 113.287 780.46 492.483
1627 0 68.2407 13.0714 892 115.253 781.249 491.85
1628 0 70.1413 13.7294 963 114.777 781.141 490.524
1629 0 72.1299 13.9332 1005 113.77 781.047 489.257
1630 0 74.3628 12.7483 948 116.672 780.911 488.454
1631 0 78.1342 13.8224 1080 113.703 780.716 487.248
1632 0 78.2525 13.3159 1042 116.124 780.903 487.652
1633 0 83.1365 13.3756 1112 115.198 780.501 485.555
1634 0 83.1493 13.602 1131 115.58 780.584 484.414
1635 0 86.1676 13.3577 1151 116.534 781.142 482.346
1636 0 88.2976 13.7603 1215 116.577 781.83 480.069
1637 0 90.2306 13 1173 119.379 781.848 477.364
1638 1 48.1855 9.87848 476 116.353 782.363 501.779
1639 0 49.6974 11.7913 586 113.725 783.693 496.997
1640 0 51.3702 12.4586 640 106.191 784.095 497.264
1641 0 52.092 11.4221 595 116.558 780.41 496.324
1642 0 56.0773 13.3566 749 110.045 780.784 496.358
1643 0 55.0505 11.3169 623 116.73 780.681 496.034
1644 0 58.1093 12.597 732 113.339 780.947 493.825
1645 0 60.0895 13.4466 808 109.939 780.504 495.704
1646 0 60.0699 12.6852 762 113.706 780.278 493.159
1647 0 64.0767 13.2966 852 100.248 780.92 492.092
1648 0 64.079 12.469 799 114.73 780.723 490.373
1649 0 66.1053 12.949 856 114.143 781.2 489.819
1650 0 68.0465 12.2269 832 114.611 781.108 490.732
1651 0 68.0425 12.8743 876 113.812 781.126 489.287
1652 0 70.0773 12.1865 854 112.539 780.988 488.746
1653 0 72.2346 12.1687 879 112.589 780.772 486.911
1654 0 75.1678 12.665 952 111.602 781.211 487.38
1655 0 76.0691 12.7384 969 113.22 780.727 485.28
1656 0 79.1481 13.6453 1080 111.272 781.848 482.857
1657 0 80.1074 12.1587 974 115.144 780.965 482.426
1658 0 85.1115 13.2532 1128 112.573 781.468 480.603
1659 0 89.0833 14.4359 1286 109.1 781.203 481.288
1660 0 91.2081 13.4089 1223 112.504 781.489 478.659
1661 0 92.1682 12.2385 1128 116.946 781.738 476.564
1662 1 48.11 10.2058 491 116.24 781.45 499.218
1663 0 50.4981 11.8222 597 110.97 783.811 496.591
1664 0 47.3019 11.268 533 104.159 781.704 490.85
1665 0 50.041 10.8911 545 101.394 780.648 493.257
1666 0 50.0635 9.78758 490 106.484 780.882 492.743
1667 0 53.0488 10.1793 540 105.252 781.483 492.644
1668 0 54.0662 10.5056 568 106.012 780.979 492.613
1669 0 55.0986 10.8351 597 110.358 781.005 488.558
1670 0 57.0608 10.1996 582 112.895 781.359 489.373
1671 0 60.0435 12.1245 728 109.001 780.533 488.874
1672 0 61.0878 11.9991 733 108.696 780.91 488.633
1673 0 62.129 12.5384 779 108.988 780.736 487.326
1674 0 67.0789 11.5983 778 111.725 781.395 485.031
1675 0 68.0542 11.1676 760 113.199 781.375 484.653
1676 0 69.1171 11.8205 817 114.274 780.69 481.177
1677 0 73.1988 11.1887 819 114.708 781.349 482.703
1678 0 75.0583 12.2038 916 114.713 781.153 480.468
1679 0 76.1123 11.4699 873 116.876 780.74 480.339
1680 0 82.2379 11.8315 973 114.319 784.403 481.829
1681 0 84.2089 12.2434 1031 113.238 784.237 482.803
1682 0 89.2596 12.5589 1121 112.106 784.224 482.394
1683 0 89.2134 12.3188 1099 113.824 783.976 481.73
1684 1 52.1489 11.9466 623 110.947 784.796 499.538
1685 0 52.0565 11.9486 622 109.695 784.977 498.818
1686 0 53.036 11.3885 604 112.654 785.007 497.551
1687 0 55.0937 12.1611 670 108.287 785.399 497.988
1688 0 56.1025 12.0315 675 108.939 785.394 495.655
1689 0 59.0502 12.2946 726 107.405 785.406 496.77
1690 0 56.1434 12.3968 696 108.987 784.803 495.616
1691 0 61.0375 12.0254 734 108.62 785.045 494.251
1692 0 65.2115 13.3105 868 103.002 785.082 492.348
1693 0 65.1005 11.6435 758 106.923 784.84 493.394
1694 0 67.0549 11.4384 767 108.249 785.001 490.785
1695 0 69.0713 13.0445 901 105.387 784.629 487.602
1696 0 72.0754 12.3343 889 106.253 784.758 485.729
1697 0 72.0464 11.4093 822 107.915 784.473 487.109
1698 0 76.0925 12.7608 971 104.678 784.581 485.625
1699 0 79.1133 12.1724 963 106.66 784.547 481.475
1700 0 84.2508 13.4836 1136 102.765 784.879 480.504
1701 0 84.1818 12.4255 1046 106.093 784.781 477.382
1702 1 41.0394 12.0372 494 102.866 784.781 495.619
1703 0 41.1193 10.7492 442 106.24 784.226 491.493
1704 0 46.0383 10.5564 486 102.529 783.502 493.944
1705 0 45.0265 8.90587 401 104.835 784.095 491.035
1706 0 46.0764 10.2656 473 102.51 784.074 489.63
1707 0 48.0953 10.9782 528 100.951 784.252 488.307
1708 0 49.1181 9.71128 477 103.31 784.04 490.262
1709 0 52.0916 10.3472 539 102.006 783.327 489.414
1710 0 52.0759 11.2336 585 100.415 783.096 486.434
1711 0 52.2161 9.78626 511 102.348 782.765 484.712
1712 0 58.121 11.9234 693 97.6118 782.176 486.528
1713 0 58.1178 11.167 649 100.24 782.978 484.98
1714 0 61.0892 10.1818 622 102.778 783.432 486.116
1715 0 68.2253 11.462 782 99.5985 783.969 487.139
1716 0 69.0458 12.2817 848 100.92 783.787 488.059
1717 0 71.0611 11.3424 806 103.402 783.965 488.03
1718 0 73.154 11.4553 838 107.774 783.939 486.794
1719 0 75.0977 10.5862 795 109.722 783.381 487.85
1720 0 79.1259 12.0694 955 107.693 783.67 483.384
1721 0 83.1006 13.5498 1126 104.63 783.284 483.411
1722 1 44.0737 10.7093 472 103.394 784.792 505.589
1723 0 44.0498 10.9195 481 104.441 784.692 503.613
1724 0 45.2058 11.3039 511 102.354 784.247 502.644
1725 0 47.0636 12.4088 584 97.8425 784.356 504.435
1726 0 48.0323 11.638 559 101.742 783.945 502.977
1727 0 50.0363 12.391 620 101.631 784.039 500.806
1728 0 53.0541 11.9124 632 103.223 784.13 500.85
1729 0 53.0577 12.2697 651 104.886 784.602 499.584
1730 0 55.0808 11.583 638 107.345 784.44 498.821
1731 0 55.0604 11.9324 657 107.257 784.808 496.992
1732 0 58.0651 12.0554 700 107.139 784.49 497.616
1733 0 58.0768 11.0715 643 110.751 784.236 496.274
1734 0 59.0524 11.6676 689 110.916 784.238 494.92
1735 0 62.1089 12.4942 776 109.165 784.121 492.282
1736 0 63.0602 13.8439 873 105.597 784.089 495.265
1737 0 64.0901 12.7945 820 110.251 783.848 493.423
1738 0 67.0635 12.0483 808 117.089 784.111 491.577
1739 0 67.0769 12.7764 857 116.889 783.865 488.009
1740 0 71.1086 12.7833 909 115.714 783.98 490.826
1741 0 72.1365 12.5734 907 117.773 783.358 490.871
1742 0 74.083 12.9719 961 117.689 783.989 488.591
1743 0 74.1003 11.6194 861 122.369 784.062 488.353
1744 0 79.113 13.8789 1098 116.461 783.673 485.342
1745 0 79.0918 12.3022 973 120.346 783.358 483.958
1746 0 83.0844 12.8544 1068 118.363 782.893 483.735
1747 0 85.1558 12.53 1067 118.863 783.005 484.556
1748 0 88.061 12.6163 1111 120.469 782.881 481.007
1749 0 88.1778 12.5088 1103 121.425 782.811 481.257
1750 0 91.1319 13.0251 1187 121.251 783.577 479.463
1751 0 94.0732 13.447 1265 121.176 782.92 477.534
1752 0 98.1642 13.9766 1372 119.554 782.785 477.136
1753 0 99.0545 13.5481 1342 122.328 782.573 473.125
1754 0 104.099 14.2845 1487 119.779 783.329 473.531
1755 0 105.191 13.4327 1413 123.27 783.616 471.029
1756 0 110.205 14.0465 1548 120.629 783.189 470.921
1757 0 112.106 13.6834 1534 121.677 783.041 469.307
1758 0 117.23 14.6464 1717 115.34 782.835 464.72
1759 0 121.266 13.7301 1665 117.182 782.733 467.067
1760 0 125.25 14.4511 1810 115.862 782.131 463.89
1761 0 130.338 14.9534 1949 115.431 782.107 461.998
1762 0 133.236 13.2922 1771 120.136 782.015 459.924
1763 0 134.343 13.1305 1764 121.548 782.468 455.404
1764 0 143.254 15.0223 2152 115.675 782.209 455.222
1765 0 146.315 13.5393 1981 120.725 782.441 451.799
1766 0 149.497 14.0136 2095 121.143 782.195 451.401
1767 0 157.29 14.0377 2208 120.633 782.701 447.636
1768 0 161.349 14.2424 2298 118.41 783.088 446.667
1769 0 167.245 13.9675 2336 120.886 782.607 444.33
1770 0 172.456 13.8354 2386 122.992 783.21 441.49
1771 0 179.297 14.5513 2609 122.57 782.936 436.83
1772 0 185.289 14.6474 2714 121.13 783.279 432.343
1773 0 191.365 15.3319 2934 120.281 782.816 429.781
1774 0 198.341 14.5154 2879 121.658 782.908 423.59
1775 0 200.363 13.6902 2743 126.216 782.316 419.166
1776 0 209.39 13.482 2823 126.374 782.388 417.042
1777 0 219.345 13.6543 2995 123.625 782.162 419.118
1778 0 225.507 13.7157 3093 125.865 781.684 412.027
1779 0 231.403 13.5003 3124 124.069 781.776 404.615
1780 0 240.708 13.6306 3281 125.764 781.43 401.644
1781 0 247.696 12.8746 3189 126.151 781.707 400.118
1782 1 189.521 13.3441 2529 121.74 783.144 430.566
1783 0 194.588 14.153 2754 122.029 782.241 424.996
1784 0 201.477 12.7111 2561 125.377 782.717 423.217
1785 0 207.702 13.0235 2705 124.549 782.637 417.939
1786 0 216.667 13.2 2860 122.538 782.606 417.504
1787 0 221.668 11.824 2621 124.999 782.529 414.871
1788 0 229.53 13.8282 3174 121.019 782.009 407.53
1789 0 238.581 13.4001 3197 121.383 781.826 407.13
1790 0 245.717 13.0272 3201 121.276 782.551 400.269
1791 0 255.771 13.2658 3393 122.876 782.551 398.107
1792 0 264.683 13.2347 3503 126.305 782.168 393.606
1793 1 206.437 12.0279 2483 123.262 782.583 421.17
1794 0 214.535 13.2007 2832 122.007 782.321 418.147
1795 0 222.49 13.9152 3096 120.51 782.744 412.645
1796 0 227.428 14.2243 3235 121.215 783.223 406.953
1797 0 234.676 13.5847 3188 122.537 783.761 406.637
1798 0 241.415 13.7605 3322 123.249 783.319 402.518
1799 0 249.473 14.1097 3520 122.989 782.783 398.491
1800 0 255.499 13.2564 3387 125.597 782.798 393.723
1801 0 264.541 14.4023 3810 122.934 783.051 387.52
1802 0 272.51 14.8361 4043 123.138 782.949 383.48
1803 0 281.448 14.7878 4162 124.198 782.956 376.578
1804 1 305.383 19.1956 5862 108.957 783.024 351.583
1805 0 309.589 20.1557 6240 108.3 782.61 348.978
1806 0 310.697 16.8138 5224 118.933 782.667 361.174
1807 0 319.587 17.7636 5677 115.789 783.057 354.642
1808 0 331.722 16.8786 5599 118.181 783.175 348.625
1809 0 339.725 15.6273 5309 122.462 782.719 341.788
1810 0 353.757 17.642 6241 116.694 782.891 336.086
1811 0 363.862 16.4128 5972 119.764 782.277 333.486
1812 0 376.674 16.3245 6149 120.073 781.839 330.256
1813 0 383.317 14.265 5468 123.24 781.907 316.666
1814 0 385.802 13.0456 5033 127.472 782.326 314.236
1815 0 392.564 13.6003 5339 125.336 782.005 327.627
1816 0 381.145 9.65249 3679 115.349 783.111 272.211
1817 0 380.063 9.83783 3739 111.975 782.904 270.505
1818 1 201.433 8.45939 1704 83.9126 783.685 411.087
1819 0 200.61 11.5199 2311 76.3401 782.902 409.71
1820 0 201.687 7.9331 1600 89.2856 783.313 425.399
1821 0 193.4 8.28853 1603 90.1241 783.67 425.911
1822 0 201.035 9.01336 1812 88.6418 783.701 427.472
1823 0 191.213 11.0767 2118 85.9301 783.771 438.568
1824 1 166.776 15.0861 2516 78.8895 783.935 415.022
1825 0 166.432 12.5937 2096 88.9742 783.46 434.172
1826 1 150.773 20.7862 3134 75.941 783.009 394.194
1827 0 144.838 17.8959 2592 86.5216 782.803 402.139
1828 0 137.804 20.4421 2817 85.618 783.504 393.619
1829 1 118.469 13.379 1585 110.318 782.938 415.412
1830 0 124.561 13.4552 1676 115.512 782.437 418.93
1831 1 64.2777 10.968 705 116.843 783.128 452.257
1832 0 68.3755 12.3582 845 108.689 782.782 462.134
1833 0 68.4534 13.0162 891 107.223 782.363 468.974
1834 0 71.3381 13.6393 973 108.452 782.471 468.772
1835 0 76.0957 13.8773 1056 109.215 783.728 476.269
1836 0 76.0599 13.2001 1004 112.861 784.708 475.525
1837 0 79.1001 13.4134 1061 112.591 784.141 472.488
1838 0 82.1168 15.2953 1256 107.918 784.33 474.893
1839 0 82.1403 14.3413 1178 112.068 784.593 473.836
1840 0 84.1077 13.6254 1146 113.776 784.522 477.091
1841 0 87.0806 15.2617 1329 110.211 784.33 476.576
1842 0 89.0837 13.594 1211 114.4 784.261 480.273
1843 0 91.0611 14.1334 1287 114.104 784.294 477.218
1844 0 94.0686 14.0855 1325 113.262 784.423 476.435
1845 0 95.0992 12.9759 1234 117.338 783.714 475.648
1846 0 98.0973 13.2521 1300 116.456 784.213 474.415
1847 0 101.118 14.4484 1461 112.914 784.192 474.085
1848 0 104.076 14.3261 1491 113.48 783.876 468.755
1849 0 108.164 13.9603 1510 113.307 783.773 471.099
1850 0 110.202 13.9562 1538 112.499 783.302 469.791
1851 0 108.214 12.272 1328 116.335 783.394 461.658
1852 0 116.222 14.2657 1658 110.967 782.882 458.633
1853 1 58.0677 9.5578 555 109.461 783.602 487.919
1854 0 62.0508 11.9418 741 105.181 783.683 488.175
1855 0 67.1263 12.0519 809 108.743 784.476 491.606
1856 0 68.231 12.1646 830 109.018 784.384 488.351
1857 0 70.1697 13.7239 963 104.752 784.073 486.694
1858 0 73.1738 12.4498 911 106.817 783.447 489.11
1859 0 74.1575 12.7297 944 107.536 784.343 487.183
1860 0 77.1996 12.1374 937 108.044 783.492 484.517
1861 0 82.2202 11.9192 980 107.651 783.637 484.558
1862 0 80.2091 12.1557 975 108.961 784.121 482.15
1863 0 84.244 12.9624 1092 106.858 783.407 482.031
1864 0 88.1493 13.9763 1232 103.847 784.433 480.688
1865 0 89.1745 12.7278 1135 107.574 784.074 478.645
1866 0 92.2984 13.7164 1266 104.613 784.43 477.062
1867 0 94.184 12.9215 1217 106.802 783.782 474.022
1868 0 96.2162 13.9581 1343 106.405 783.457 475.768
1869 0 98.2348 13.936 1369 107.833 783.529 473.432
1870 0 99.2294 13.111 1301 109.842 783.485 475.321
1871 0 104.204 13.3392 1390 108.985 782.978 474.724
1872 0 107.146 12.2356 1311 110.272 783.152 473.057
1873 0 107.272 12.2213 1311 111.494 783.594 471.734
1874 0 111.325 12.6836 1412 111.659 782.274 465.915
1875 1 61.0852 10.0352 613 109.23 782.498 495.023
1876 0 65.0474 11.3917 741 107.767 783.684 491.155
1877 0 66.1302 12.2334 809 105.59 783.852 489.408
1878 0 68.1902 13.301 907 101.041 784.358 488.73
1879 0 71.1663 12.5059 890 103.098 785.031 487.606
1880 0 71.1523 12.5646 894 104.223 784.242 488.257
1881 0 75.0844 12.3861 930 104.087 784.417 486.992
1882 0 75.1174 12.9531 973 105.503 784.583 484.07
1883 0 77.0942 12.569 969 106.633 784.123 483.729
1884 0 82.1763 12.2176 1004 106.501 783.794 484.264
1885 0 84.1474 13.5476 1140 104.338 783.718 481.754
1886 0 86.1566 12.1291 1045 107.474 783.176 480.085
1887 0 89.1521 11.8898 1060 106.718 783.295 479.575
1888 0 92.1362 13.3172 1227 103.517 783.545 478.205
1889 0 94.14 11.0474 1040 108.206 783.428 477.455
1890 1 49.048 9.664 474 108.903 784.481 499.542
1891 0 52.0799 10.4263 543 104.86 784.901 496.394
1892 0 52.0804 10.4838 546 129.698 785.921 496.542
1893 0 55.1131 12.4834 688 104.493 785.267 495.686
1894 0 57.105 12.5558 717 104.501 785.513 496.014
1895 0 55.114 11.8482 653 107.703 784.591 493.403
1896 0 60.1613 12.2005 734 104.435 784.936 495.23
1897 0 59.117 12.1623 719 106.334 784.668 491.851
1898 0 63.0952 11.8868 750 105.957 784.679 491.836
1899 0 64.0744 12.3138 789 105.786 784.234 491.678
1900 0 65.1137 11.979 780 107.138 784.59 492.368
1901 0 65.0831 11.3547 739 110.106 784.471 488.217
1902 0 71.145 13.1141 933 104.077 784.665 489.506
1903 0 71.1114 12.4031 882 107.471 784.008 487.2
1904 0 74.1913 12.8317 952 106.136 784.266 485.537
1905 0 76.1936 13.072 996 105.157 784.446 484.554
1906 0 78.1303 13.7335 1073 104.088 784.118 481.07
1907 0 82.1468 13.3054 1093 103.317 784.395 479.978
1908 0 83.1151 12.6692 1053 104.97 784.858 480.8
1909 0 85.2271 12.5547 1070 101.736 784.099 481.19
1910 0 86.2424 12.0706 1041 102.361 784.065 481.848
1911 0 90.1308 11.3945 1027 103.359 784.229 483.109
1912 1 43.1307 10.6884 461 104.544 783.043 503.844
1913 0 39.2534 10.3176 405 99.6321 783.035 496.123
1914 0 39.1361 10.2974 403 99.8337 784.084 494.898
1915 0 42.0323 8.66 364 102.596 784.764 494.739
1916 0 45.0874 8.64987 390 103.167 784.551 493.979
1917 0 45.1119 9.22152 416 102.913 784.507 495.716
1918 0 46.2818 9.05324 419 105.671 783.599 492.16
1919 0 51.1766 9.53561 488 102.26 783.572 494.287
1920 0 48.2247 11.0524 533 100.293 782.938 494.767
1921 0 49.1748 9.11036 448 104.243 783.35 491.504
1922 0 51.1997 10.4688 536 102.509 783.168 492.257
1923 0 54.1457 11.229 608 100.89 783.551 490.964
1924 0 55.2494 10.7512 594 102.175 783.785 489.673
1925 0 55.1541 9.70009 535 104.209 782.757 489.505
1926 0 56.1238 10.2808 577 105.191 783.118 486.962
1927 0 60.3375 9.59602 579 105.079 782.984 486.164
1928 0 60.1024 9.25088 556 105.777 783.396 487.489
1929 0 62.0963 10.532 654 104.05 783.664 485.089
1930 0 63.2944 11.7546 744 100.528 783.124 487.259
1931 0 67.2263 10.249 689 105.312 783.115 483.296
1932 0 67.1283 10.7853 724 103.203 782.45 485.381
1933 0 70.0409 11.8645 831 100.834 783.212 485.745
1934 0 73.1865 10.4254 763 104.913 783.097 482.097
1935 0 74.1177 10.3619 768 106.354 782.066 480.464
1936 0 78.2779 12.2895 962 101.687 782.127 481.602
1937 0 77.1736 10.3922 802 105.107 781.926 479.925
1938 0 82.2582 10.4792 862 105.26 782.303 477.787
1939 0 85.269 11.6572 994 102.627 782.59 478.426
1940 0 85.4446 10.2874 879 106.954 782.147 473.232
1941 1 46.1114 8.50116 392 98.3622 781.523 500.089
1942 0 49.0603 10.0285 492 96.4919 781.15 497.959
1943 0 48.0817 8.63114 415 99.3687 781.383 496.427
1944 0 51.1804 10.3555 530 97.0321 780.996 495.319
1945 0 52.1403 9.39771 490 100.206 781.418 494.331
1946 0 51.1068 10.8205 553 98.7161 781.499 490.973
1947 0 55.0671 10.805 595 98.7412 781.531 494.681
1948 0 56.0676 12.0569 676 97.3713 781.605 492.478
1949 0 58.0986 10.6887 621 99.7375 780.929 493.802
1950 0 58.1232 10.5638 614 107.801 780.186 488.393
1951 0 61.1602 12.0013 734 102.992 779.853 488.985
1952 0 63.1507 11.8289 747 104.106 779.972 487.522
1953 0 65.1124 11.4571 746 106.765 780.26 486.236
1954 0 69.1057 11.7212 810 106.785 780.293 484.641
1955 0 69.0831 11.4066 788 107.184 780.292 483.173
1956 0 73.1313 10.9119 798 109.184 779.749 481.274
1957 0 75.0693 10.9499 822 109.779 780.237 480.811
1958 0 78.0808 11.6034 906 108.577 780.699 480.244
1959 0 82.2309 12.7689 1050 104.947 781.49 479.484
1960 0 84.1077 11.7112 985 107.989 780.371 479.937
1961 1 42.1369 9.94379 419 100.57 780.647 499.9
1962 0 45.0975 10.6879 482 99.6867 780.998 500.774
1963 0 46.0842 12.781 589 104.63 780.297 502.241
1964 0 49.0853 12.6718 622 104.638 780.847 502.431
1965 0 51.1645 13.2905 680 105.244 781.113 501.621
1966 0 51.0418 12.8326 655 109.353 781.038 501.617
1967 0 53.0997 13.4464 714 110.3 780.973 499.23
1968 0 54.0381 11.6029 627 119.126 781.15 500.316
1969 0 56.1069 13.0643 733 116.405 780.978 497.85
1970 0 57.06 12.9162 737 116.776 780.562 497.4
1971 0 59.1373 14.4748 856 112.95 780.486 495.572
1972 0 59.1195 13.5657 802 116.005 780.297 497.131
1973 0 62.1598 14.1088 877 114.296 780.003 495.751
1974 0 61.1226 13.4157 820 117.206 780.554 495.439
1975 0 63.1011 13.2961 839 117.032 780.634 493.286
1976 0 66.2334 14.0412 930 114.899 780.568 492.589
1977 0 67.1066 14.8569 997 112.762 780.713 492.482
1978 0 66.1497 13.7416 909 117.108 781.026 491.519
1979 0 71.2286 13.1127 934 116.565 781.084 490.865
1980 0 73.0864 14.5034 1060 112.887 780.554 489.423
1981 0 74.1612 14.1853 1052 113.814 780.798 488.888
1982 0 79.1372 14.2285 1126 107.321 780.549 487.636
1983 0 80.1729 14.4438 1158 106.932 780.478 487.659
1984 0 81.1576 13.3691 1085 108.09 780.496 486.761
1985 0 85.2875 14.3632 1225 106.09 780.375 484.183
1986 0 86.0969 15.4825 1333 104.147 780.866 481.536
1987 1 48.1222 11.2838 543 110.993 780.529 501.692
1988 0 50.0444 13.1483 658 104.623 780.774 501.663
1989 0 52.0355 13.068 680 104.854 780.516 500.934
1990 0 53.1091 11.6741 620 113.282 780.637 497.919
1991 0 55.0547 13.3322 734 109.559 780.567 496.94
1992 0 57.0901 12.997 742 110.001 780.354 495.605
1993 0 59.1167 13.7356 812 107.384 780.212 495.32
1994 0 59.0975 13.3001 786 109.761 779.358 495.075
1995 0 61.2003 12.696 777 111.133 779.865 493.596
1996 0 64.1091 13.2587 850 108.907 780.173 494.049
1997 0 63.142 13.0658 825 111.327 780.516 489.855
1998 0 66.0612 13.0939 865 110.451 780.335 491.746
1999 0 69.0464 14.1499 977 107.588 780.294 491.634
2000 0 73.1031 13.6109 995 107.748 780.331 490.549
2001 0 72.0259 13.6062 980 109.438 780.537 488.813
2002 0 74.1654 12.998 964 110.511 780.026 488.339
2003 0 77.1929 12.9934 1003 109.681 780.564 486.898
2004 0 80.0846 13.3484 1069 108.926 779.942 484.615
2005 0 80.0738 11.8016 945 112.125 779.975 485.551
2006 0 84.1425 12.8116 1078 110.244 780.546 484.232
2007 0 87.1238 12.2355 1066 110.852 780.349 482.128
2008 0 90.0924 11.9211 1074 110.92 780.626 481.727
2009 1 48.0883 11.3957 548 105.31 780.356 503.779
2010 0 49.2555 11.3287 558 104.346 782.057 500.161
2011 0 51.3465 12.8149 658 101.903 783.199 496.228
2012 0 52.2023 12.3558 645 108.445 780.56 499.465
2013 0 53.2452 12.0011 639 109.579 780.762 499.448
2014 0 54.1889 11.7367 636 110.929 780.291 497.624
2015 0 58.1504 13.6886 796 104.979 780.442 498.496
2016 0 56.109 12.85 721 109.512 779.928 495.49
2017 0 58.2659 12.5974 734 109.559 780.236 495.971
2018 0 59.2222 13.424 795 107.811 780.63 496.557
2019 0 61.3919 12.4609 765 109.318 781.323 495.152
2020 0 61.1737 12.2765 751 111.208 780.735 493.119
2021 0 66.3755 13.5442 899 106 780.722 493.182
2022 0 68.3164 13.5985 929 105.416 780.769 492.523
2023 0 70.2684 13.1638 925 105.621 781.366 493.448
2024 0 71.1476 13.6898 974 106.396 780.581 490.345
2025 0 73.3314 13.2003 968 107.569 781.058 488.036
2026 0 75.2255 12.6553 952 107.912 781.443 490.411
2027 0 77.2657 12.4505 962 107.84 781.043 486.456
2028 0 81.2453 13.9208 1131 104.468 781.547 485.101
2029 0 83.2737 12.7651 1063 107.632 780.658 483.226
2030 0 86.2208 12.642 1090 107.576 780.829 481.948
2031 0 89.2979 12.5759 1123 106.913 781.289 482.663
2032 0 91.3199 12.2974 1123 107.358 781.549 480.484
2033 0 94.2588 13.4523 1268 105.267 781.586 477.332
2034 0 96.2284 13.5303 1302 104.717 781.326 477.214
2035 1 53.3153 12.4542 664 102.134 781.434 496.878
2036 0 55.1134 11.8302 652 103.086 780.623 497.471
2037 0 55.1399 11.5343 636 105.602 781.401 496.426
2038 0 59.0402 13.584 802 99.4613 779.693 493.979
2039 0 60.0289 12.9604 778 100.955 779.945 493
2040 0 61.0833 12.8349 784 101.731 779.511 494.125
2041 0 63.0586 12.8452 810 102.725 779.779 493.336
2042 0 66.0659 13.3806 884 101.197 779.416 492.803
2043 0 64.0567 11.3805 729 107.875 779.99 490.185
2044 0 69.1091 12.8203 886 103.534 779.661 488.755
2045 0 71.0992 13.4741 958 102.211 779.937 488.49
2046 0 74.114 13.1149 972 102.394 780.458 486.728
2047 0 75.0264 13.5152 1014 101.671 780.184 486.832
2048 0 77.1021 13.5275 1043 101.527 780.779 484.345
2049 0 81.0658 13.2732 1076 101.982 780.52 483.007
2050 0 84.1365 13.9298 1172 101.299 780.436 482.103
2051 0 86.13 11.8077 1017 105.593 780.664 481.457
2052 0 89.0861 13.6385 1215 102.135 780.463 478.117
2053 1 49.0327 11.4006 559 106.535 780.018 496.513
2054 0 51.1003 11.1545 570 106.395 780.702 496.819
2055 0 53.0394 11.1992 594 105.88 779.69 496.934
2056 0 55.0452 12.517 689 104.205 779.874 495.343
2057 0 55.0296 11.0849 610 108.467 780.107 494.62
2058 0 58.0448 13.5068 784 103.006 780.154 493.708
2059 0 59.0393 11.6702 689 106.894 780.17 495.504
2060 0 60.03 10.9445 657 108.828 780.904 495.25
2061 0 62.0292 11.0915 688 132.094 779.85 494.44
2062 0 65.0474 13.8053 898 103.245 780.969 491.85
2063 0 65.0814 10.8019 703 109.504 780.752 491.865
2064 0 65.0814 10.8787 708 141.332 780.75 491.968
2065 0 71.0832 13.5334 962 103.073 780.714 489.519
2066 0 73.0486 12.6217 922 105.807 780.563 487.997
2067 0 76.0791 13.2099 1005 104.958 780.517 486.032
2068 0 78.0563 12.491 975 105.368 780.572 486.478
2069 0 82.0403 13.0668 1072 103.663 780.302 484.89
2070 0 81.0205 12.2685 994 106.371 779.607 483.545
2071 0 85.0448 11.6997 995 107.462 780.224 482.412
2072 0 89.1536 12.2485 1092 105.552 780.841 481.04
2073 1 49.0111 11.1811 548 102.588 780.628 502.133
2074 0 51.1823 11.0194 564 100.527 780.544 499.784
2075 0 53.1447 11.4969 611 98.3437 780.354 501.545
2076 0 54.0883 13.5889 735 102.408 779.894 498.648
2077 0 54.0692 12.3176 666 105.441 779.907 497.171
2078 0 57.0291 11.9413 681 106.358 780.048 498.398
2079 0 57.0399 12.8331 732 104.949 779.63 499
2080 0 59.0568 13.4785 796 104.849 779.741 497.352
2081 0 59.0618 13.0541 771 106.293 779.464 495.454
2082 0 63.0997 12.2188 771 106.249 779.329 496.167
2083 0 63.1342 12.1646 768 107.941 778.901 494.831
2084 0 66.2296 13.6495 904 104.414 779.375 492.792
2085 0 69.1373 12.5692 869 106.796 779.197 492.296
2086 0 70.099 13.3811 938 106.47 780.009 490.352
2087 0 70.2552 12.8531 903 107.798 780.358 488.533
2088 0 73.1776 13.2281 968 106.528 780.283 489.306
2089 0 76.4019 12.395 947 108.534 780.746 490.081
2090 0 76.4947 12.3146 942 111.528 780.357 487.969
2091 0 79.3147 12.2172 969 108.493 780.155 489.26
2092 0 82.2675 13.2252 1088 106.472 780.531 485.135
2093 0 85.2608 13.8516 1181 104.819 780.867 484.523
2094 1 45.1079 11.1289 502 104.683 780.604 504.753
2095 0 47.1124 10.8252 510 106.867 781.012 502.494
2096 0 50.0399 12.7498 638 103.335 780.348 501.981
2097 0 50.2029 13.1467 660 101.798 781.886 501.677
2098 0 54.1763 14.3605 778 106.506 780.95 500.023
2099 0 54.2248 12.1347 658 113.676 780.856 498.114
2100 0 55.2711 12.1582 672 114.314 781.376 496.972
2101 0 57.3102 13.3658 766 110.616 781.631 497.379
2102 0 56.2929 12.6304 711 113.049 782.187 498.218
2103 0 60.2573 12.6458 762 112.743 782.164 496.852
2104 0 60.372 12.6217 762 114.269 781.979 495.314
2105 0 62.1563 13.7396 854 110.995 781.464 494.407
2106 0 64.166 12.0625 774 114.304 780.651 493.601
2107 0 65.2646 12.3497 806 114.114 781.333 493.328
2108 0 67.0463 14.1246 947 109.652 782.638 492.344
2109 0 68.017 13.4525 915 112.26 783.731 490.706
2110 0 70.0937 12.2693 860 115.555 783.703 490.288
2111 0 72.0744 12.723 917 115.538 783.727 487.414
2112 0 75.0454 13.3519 1002 113.667 783.544 487.71
2113 0 77.133 12.5497 968 114.118 783.378 488.7
2114 0 78.1086 12.9563 1012 113.681 783.318 484.408
2115 0 83.1484 12.9888 1080 112.319 783.606 485.122
2116 0 84.1306 13.0511 1098 113.251 783.529 483.588
2117 0 87.1055 13.0417 1136 112.566 783.274 482.504
2118 1 47.0978 11.6991 551 107.105 783.877 503.33
2119 0 47.0205 11.9097 560 108.536 783.78 501.714
2120 0 49.1543 11.7589 578 108.448 783.08 502.671
2121 0 50.2958 12.5657 632 106.345 782.517 501.294
2122 0 51.0449 13.0278 665 108.641 783.444 499.887
2123 0 53.187 11.6006 617 111.823 782.945 499.797
2124 0 54.1723 12.8663 697 109.78 782.694 498.89
2125 0 55.1766 12.8315 708 109.162 783.855 499.325
2126 0 55.0581 12.3506 680 111.682 783.572 497.044
2127 0 58.1811 12.4955 727 109.173 783.077 498.549
2128 0 61.1815 12.4057 759 108.988 783.236 497.431
2129 0 63.1649 12.1587 768 107.921 783.331 497.625
2130 0 63.1524 13.317 841 106.315 783.052 495.101
2131 0 65.1336 12.1443 791 109.297 783.018 492.637
2132 0 69.1381 12.4967 864 107.529 782.808 492.277
2133 0 70.087 12.6557 887 107.924 782.608 490.873
2134 0 71.2782 12.5003 891 108.034 782.898 492.057
2135 0 74.2423 11.7723 874 109.295 783.138 490.791
2136 0 76.2761 14.5131 1107 103.431 782.902 488.912
2137 0 78.2548 12.8554 1006 105.555 782.082 488.767
2138 0 78.2215 13.2317 1035 106.409 782.202 486.004
2139 0 80.2086 12.6919 1018 108.205 781.307 485.449
2140 0 84.3065 12.5732 1060 107.538 782.34 485.672
2141 0 86.2857 11.8907 1026 108.928 781.728 483.972
2142 0 88.3492 12.4959 1104 108.793 781.591 482.872
2143 0 90.1917 12.1519 1096 108.984 781.779 478.998
2144 0 93.2111 12.4234 1158 107.033 781.769 481.684
2145 0 95.2203 12.0352 1146 107.864 781.461 479.23
2146 0 100.333 13.0266 1307 105.879 781.246 478.322
2147 0 103.246 12.3589 1276 107.234 781.723 477.17
2148 1 54.0608 10.8581 587 97.6542 780.177 497.293
2149 0 55.2801 13.0789 723 95.7856 780.927 493.083
2150 0 55.1866 11.2527 621 103.778 782.454 497.132
2151 0 57.4012 11.7419 674 103.27 781.984 495.319
2152 0 60.263 11.2839 680 103.882 782.051 494.021
2153 0 62.4076 13.2195 825 99.8836 782.298 492.013
2154 0 63.3151 11.6086 735 103.381 782.061 492.238
2155 0 63.3547 12.1538 770 103.103 782.523 490.34
2156 0 67.3398 12.2661 826 101.222 782.683 490.429
2157 0 70.3252 13.011 915 102.149 781.722 488.616
2158 0 74.3506 13.7591 1023 100.259 782.346 487.632
2159 0 75.2909 12.3122 927 102.165 782.088 488.356
2160 0 78.3301 13.6984 1073 98.712 782.529 487.103
2161 0 78.4619 12.5666 986 103.629 781.523 484.328
2162 0 82.3196 13.8606 1141 99.4777 782.006 481.437
2163 0 87.2674 13.556 1183 96.9493 782.016 482.331
2164 0 87.2359 13.1483 1147 98.0052 782.088 480.935
2165 1 41.1209 11.0649 455 97.2593 783.536 500.653
2166 0 44.1895 11.247 497 95.2032 782.7 501.286
2167 0 45.3307 11.9786 543 97.0203 780.42 501.838
2168 0 47.0367 13.0749 615 90.7317 781.072 501.28
2169 0 50.1768 12.6353 634 92.7445 783.555 499.002
2170 0 49.1293 11.7445 577 95.5095 783.584 499.851
2171 0 52.0495 11.8541 617 95.1135 783.893 499.232
2172 0 53.0904 10.6987 568 98.6461 783.871 498.824
2173 0 55.1017 11.996 661 96.1271 783.563 497.728
2174 0 55.1145 11.3945 628 96.7707 783.596 499.436
2175 0 60.2218 12.62 760 93.8684 783.232 497.268
2176 0 60.098 12.646 760 95.1039 783.146 496.096
2177 0 61.0952 13.3726 817 94.9131 782.858 494.711
2178 0 63.2145 12.5288 792 96.9533 783.066 493.496
2179 0 66.2297 12.9096 855 96.1766 783.043 491.745
2180 0 67.1928 12.6502 850 97.4329 783.312 491.216
2181 0 69.1452 12.7702 883 98.752 782.961 489.203
2182 0 70.1271 12.0781 847 104.432 783.506 488.829
2183 0 75.1164 13.4857 1013 99.92 783.54 489.835
2184 0 78.2201 12.9634 1014 101.159 783.605 487.801
2185 0 79.1651 13.8066 1093 99.7466 783.442 484.723
2186 0 81.1501 14.3931 1168 100.044 783.582 484.294
2187 0 84.0881 13.2718 1116 103.427 783.091 482.985
2188 0 88.125 12.9702 1143 103.674 784.35 483.185
2189 0 89.1686 12.4035 1106 101.636 783.206 481.819
2190 0 93.2204 12.6367 1178 100.138 782.98 479.53
2191 0 96.2902 12.9089 1243 101.51 783.105 478.648
2192 0 96.1871 13.1722 1267 106.659 782.863 473.644
2193 0 101.1 13.6696 1382 104.522 782.544 475.785
2194 1 52.109 11.6103 605 102.617 782.587 498.62
2195 0 55.1564 11.7665 649 101.094 783.646 500.1
2196 0 55.077 11.7653 648 99.1821 783.889 496.877
2197 0 59.1039 13.3325 788 95.3909 783.598 496.673
2198 0 59.0469 12.0921 714 99.2157 783.71 495.134
2199 0 61.1253 12.9734 793 98.9508 783.241 493.641
2200 0 64.063 12.9092 827 99.0532 783.936 494.41
2201 0 64.0271 13.057 836 100.41 783.379 491.441
2202 0 67.0515 12.811 859 100.605 782.736 493.342
2203 0 68.044 11.8747 808 108.441 783.376 490.957
2204 0 69.0808 11.7688 813 109.918 783.576 489.062
2205 0 73.1746 12.2584 897 108.07 783.404 489.557
2206 0 73.0654 12.6051 921 108.004 783.572 488.776
2207 0 75.1785 13.2751 998 108.347 783.787 484.989
2208 0 78.154 13.7293 1073 105.554 783.418 487.536
2209 0 80.1115 12.7822 1024 108.408 782.828 484.031
2210 0 82.1691 12.3891 1018 109.231 783.166 483.571
2211 0 85.1663 12.8337 1093 107.737 782.742 482.101
2212 0 87.2147 12.4291 1084 109.444 783.154 478.556
2213 0 90.1388 12.8579 1159 109.094 783.44 478.336
2214 0 94.2729 12.379 1167 109.49 783.177 476.911
2215 0 97.2035 12.3144 1197 108.666 783.246 476.626
2216 0 97.1615 11.7125 1138 109.798 783.073 477.249
2217 1 61.0422 12.0081 733 103.993 783.18 494.169
2218 0 64.3984 12.2984 792 106.418 781.799 495.251
2219 0 64.577 12.3728 799 109.335 781.385 488.224
2220 0 65.1504 12.7551 831 109.983 780.54 490.1
2221 0 67.2852 12.2315 823 110.522 780.165 489.12
2222 0 69.2258 13.3332 923 108.51 780.508 487.078
2223 0 71.2358 12.5499 894 109.596 780.351 485.858
2224 0 73.2748 12.5555 920 110.213 780.465 485.61
2225 0 77.5036 13.9348 1080 106.35 780.142 482.699
2226 0 77.1559 13.1681 1016 107.638 781.197 485.449
2227 0 77.1189 11.8259 912 110.281 780.443 486.873
2228 0 82.1648 13.1808 1083 106.891 780.416 482.258
2229 0 84.1708 12.2014 1027 108.693 780.089 483.028
2230 0 87.147 12.2322 1066 107.776 780.064 481.447
2231 0 88.1554 11.2755 994 111.371 779.736 480.071
2232 0 93.2496 13.4371 1253 106.556 780.304 478.512
2233 1 52.225 11.01 575 107.737 781.174 497.513
2234 0 54.6075 11.8482 647 103.274 782.73 499.751
2235 0 54.6154 12.7803 698 105.885 782.277 495.628
2236 0 54.4658 11.5302 628 109.479 782.696 495.287
2237 0 56.4526 12.1695 687 107.872 781.767 495.52
2238 0 58.1694 11.9822 697 108.808 781.915 495.156
2239 0 59.4981 12.2693 730 108.688 782.233 494.693
2240 0 59.4124 10.9405 650 112.934 782.095 492.362
2241 0 62.3734 12.8901 804 108.495 782.295 491.612
2242 0 62.2168 12.2314 761 111.996 782.427 490.807
2243 0 66.4063 12.6946 843 109.172 781.916 490.639
2244 0 67.5103 12.4574 841 110.694 782.038 488.562
2245 0 66.4161 10.8106 718 110.953 781.939 488.545
2246 0 70.2921 12.2204 859 108.01 782.162 489.803
2247 0 74.3422 12.7518 948 107.347 781.755 488.244
2248 0 76.5736 12.6937 972 110.058 781.944 485.673
2249 0 77.3495 12.4888 966 111.697 781.886 486.701
2250 0 81.2802 13.3612 1086 110.239 782.2 483.782
2251 0 84.3243 13.7801 1162 108.455 782.013 485.921
2252 0 86.3844 13.9493 1205 109.652 781.568 483.398
2253 0 90.3474 13.1824 1191 111.275 781.068 481.395
2254 1 51.0881 10.9027 557 108.442 783.228 500.287
2255 0 51.1666 10.5342 539 110.186 783.351 500.907
2256 0 53.0812 12.0758 641 105.22 782.555 499.245
2257 0 55.0542 13.6048 749 102.418 782.789 497.22
2258 0 57.1203 11.4145 652 111.322 782.221 499.408
2259 0 57.1202 12.8151 732 110.295 782.337 497.75
2260 0 60.3068 12.0219 725 111.848 782.538 498.31
2261 0 62.1456 11.8914 739 112.07 782.195 498.778
2262 0 60.1755 11.6493 701 114.642 781.979 499.143
2263 0 63.1561 12.1603 768 112.766 781.285 499.34
2264 0 64.0838 11.6098 744 114.973 780.56 498.501
2265 0 68.0892 12.7333 867 112.451 780.736 500.131
2266 0 68.1314 12.2264 833 115.07 780.287 499.519
2267 0 69.1349 13.2639 917 113.012 780.364 498.89
2268 0 71.0909 12.1816 866 116.165 779.761 498.878
2269 0 76.1025 12.5357 954 112.035 780.912 497.681
2270 0 77.1042 12.6452 975 112.287 780.663 495.881
2271 0 81.1258 13.3373 1082 108.766 780.477 497.034
2272 0 82.0982 13.1306 1078 108.742 779.955 496.029
2273 0 86.1259 12.7023 1094 109.183 779.668 495.296
2274 0 88.1496 12.0931 1066 110.867 779.88 491.839
2275 1 48.0971 9.87586 475 104.813 780.457 513.232
2276 0 48.007 11.2067 538 100.273 779.796 513.476
2277 0 48.0487 11.9878 576 99.5729 779.41 510.913
2278 0 48.0326 10.9509 526 106.673 779.981 509.209
2279 0 51.0566 10.9486 559 105.369 779.889 508.852
2280 0 51.0568 10.7919 551 107.103 779.067 508.249
2281 0 54.0153 12.5335 677 101.552 778.91 506.004
2282 0 54.0299 11.3086 611 104.902 778.714 506.041
2283 0 54.0711 12.4836 675 103.927 778.846 504.433
2284 0 57.0325 12.7822 729 102.733 778.933 503.892
2285 0 56.0573 11.0601 620 108.111 777.7 500.376
2286 0 59.0157 11.4376 675 107.124 777.911 499.599
2287 0 60.1947 11.8781 715 106.576 778.313 498.804
2288 0 63.0372 11.2315 708 108.199 777.624 499.359
2289 0 65.0837 14.151 921 100.78 776.848 500.701
2290 0 67.1612 13.1475 883 103.341 777.123 498.846
2291 0 70.0981 12.511 877 105.051 777.742 498.123
2292 0 73.1263 13.1963 965 103.293 777.753 498.763
2293 0 71.0646 12.5379 891 107.072 776.976 496.608
2294 0 74.0499 11.9784 887 107.422 778.312 493.587
2295 0 79.0819 12.544 992 105.815 777.921 495.936
2296 0 81.0981 12.5897 1021 105.645 778.152 496.062
2297 0 85.1115 10.6801 909 109.377 778.813 495.487
2298 0 84.2336 12.0379 1014 108.02 778.562 492.903
2299 0 87.1614 11.7254 1022 109.49 778.277 489.356
2300 0 91.1754 11.8563 1081 109.58 778.018 489.488
2301 1 48.1283 11.3862 548 104.024 778.677 507.172
2302 0 49.109 9.73345 478 107.215 778.63 507.381
2303 0 51.0708 10.7302 548 104.068 778.119 505.885
2304 0 54.1023 11.8849 643 99.9705 778.63 508.617
2305 0 56.0666 12.4317 697 99.2324 778.659 506.857
2306 0 57.0777 12.0362 687 100.902 778.162 507.383
2307 0 57.134 12.5144 715 100.636 778.21 507.274
2308 0 60.0744 12.2348 735 102.614 777.574 505.06
2309 0 62.0724 11.841 735 104.419 777.068 504.324
2310 0 62.1862 11.8515 737 105.345 777.855 503.423
2311 0 63.1328 11.3095 714 106.632 777.838 502.623
2312 0 63.1718 12.3156 778 105.276 777.695 502.835
2313 0 66.135 12.9432 856 104.859 777.737 498.132
2314 0 70.1732 13.5522 951 102.872 778.286 500.273
2315 0 71.3115 12.5365 894 105.988 777.606 496.72
2316 0 73.1917 12.6244 924 106.037 777.686 496.887
2317 0 74.3933 11.4661 853 108.504 777.83 496.026
2318 0 75.2769 12.3411 929 106.617 777.436 493.779
2319 0 76.271 11.7476 896 108.875 776.897 493.613
2320 0 81.3342 12.6515 1029 105.516 777.471 492.185
2321 0 81.1454 11.4363 928 108.034 777.932 492.143
2322 0 85.1723 12.7624 1087 105.397 777.956 489.604
2323 1 49.1404 11.3959 560 103.102 779.057 507.425
2324 0 49.1751 9.90339 487 105.148 778.604 508.199
2325 0 51.2116 10.193 522 105.418 775.209 509.149
2326 0 52.0804 11.0214 574 104.251 774.22 509.085
2327 0 53.2322 10.3697 552 106.27 774.543 506.525
2328 0 55.0574 11.2791 621 102.928 774.274 506.461
2329 0 56.1307 11.3663 638 102.666 774.293 503.619
2330 0 53.2111 10.6369 566 105.452 774.124 503.212
2331 0 57.1909 11.7851 674 102.064 774.131 504.374
2332 0 56.1625 11.075 622 105.072 774.395 503.185
2333 0 61.134 11.8265 723 100.751 773.921 501.817
2334 0 60.2692 11.0172 664 103.883 773.435 500.977
2335 0 63.1356 12.592 795 100.165 774.132 498.493
2336 0 66.1106 13.2354 875 98.3017 774.041 497.253
2337 0 64.1128 10.6531 683 106.848 774.401 496.82
2338 0 67.1117 12.4717 837 102.996 774.56 498.085
2339 0 67.1321 12.0956 812 105.516 774.516 493.903
2340 0 72.3186 12.3205 891 104.907 775.006 493.853
2341 0 73.1954 12.3095 901 106.913 774.895 493.929
2342 0 74.2529 11.9591 888 108.775 774.815 492.574
2343 0 78.2502 12.8818 1008 107.391 775.495 489.019
2344 0 82.2816 12.7975 1053 107.405 775.802 490.484
2345 0 81.1239 11.5379 936 113.231 775.769 486.661
2346 0 86.0682 13.0826 1126 108.667 775.802 486.767
2347 1 44.1071 11.1773 493 108.116 775.168 506.41
2348 0 46.1845 12.7749 590 104.544 775.976 505.62
2349 0 45.1788 11.4213 516 109.986 776.814 504.099
2350 0 47.1712 11.7445 554 108.48 776.357 505.002
2351 0 49.1499 13.2452 651 105.091 776.836 504.026
2352 0 49.2259 12.7575 628 108.885 777.47 501.707
2353 0 51.1216 12.4409 636 108.692 777.055 500.838
2354 0 55.2236 13.4001 740 105.264 777.341 500.789
2355 0 53.063 12.9657 688 108.83 777.19 499.56
2356 0 55.2704 12.9545 716 108.552 776.897 500.434
2357 0 55.0459 11.9173 656 111.633 776.816 500.032
2358 0 56.1341 13.1115 736 109.887 777.03 498.798
2359 0 58.1021 12.8222 745 110.744 777.103 497.678
2360 0 61.0371 12.1893 744 111.624 777.425 495.52
2361 0 60.0879 12.5316 753 113.143 777.418 493.882
2362 0 63.0607 13.0826 825 111.79 777.327 492.366
2363 0 64.122 13.1156 841 111.876 776.905 494.312
2364 0 67.0978 13.458 903 110.81 777.677 492.085
2365 0 70.1013 12.8386 900 112.749 778.153 489.763
2366 0 69.1795 12.8506 889 114.03 778.26 489.165
2367 0 72.0848 13.928 1004 112.371 777.719 489.329
2368 0 75.0896 13.7036 1029 112.331 777.528 487.047
2369 0 77.0731 14.0386 1082 111.607 777.496 486.722
2370 0 81.1554 12.704 1031 114.838 777.679 486.557
2371 0 83.0516 14.6415 1216 110.962 777.65 484.86
2372 0 82.0401 13.7494 1128 114.238 777.78 484.048
2373 0 86.0943 14.4144 1241 112.32 778.339 484.188
2374 0 88.0678 14.3412 1263 113.226 778.09 481.476
2375 0 91.1142 14.6519 1335 111.827 778.509 482.207
2376 0 93.1237 14.4217 1343 113.506 778.917 479.923
2377 0 93.0724 13.5379 1260 116.906 778.048 477.318
2378 1 51.0511 11.1653 570 116.896 778.488 498.735
2379 0 53.1791 12.5049 665 114.611 779.421 494.523
2380 0 56.2352 13.8525 779 110.418 779.499 493.664
2381 0 58.382 12.8464 750 112.444 779.719 493.212
2382 0 60.3525 12.8412 775 111.996 779.302 493.434
2383 0 62.2773 13.9537 869 109.877 779.7 491.818
2384 0 61.3177 12.5249 768 114.383 779.514 491.057
2385 0 67.2983 12.6006 848 112.98 779.616 490.679
2386 0 66.2477 12.9363 857 113.795 779.755 489.618
2387 0 69.1805 13.1685 911 114.294 779.231 486.529
2388 0 73.3151 14.3081 1049 110.34 779.192 487.397
2389 0 75.2979 13.5196 1018 113.138 779.406 485.559
2390 0 77.2297 13.2333 1022 114.225 779.917 485.506
2391 0 79.2727 13.4725 1068 113.065 780.162 485.526
2392 1 46.0545 11.6167 535 111.764 779.155 501.594
2393 0 49.2715 12.1977 601 109.913 780.171 502.032
2394 0 50.7302 11.3936 578 113.157 781.552 497.727
2395 0 51.4724 12.1813 627 113.542 780.568 497.483
2396 0 52.2102 11.6835 610 115.68 779.215 499.398
2397 0 54.1537 12.9077 699 112.961 778.835 497.694
2398 0 56.0778 12.2687 688 113.562 778.964 497.999
2399 0 57.0722 12.931 738 112.935 778.958 497.587
2400 0 59.1106 12.299 727 114.287 778.479 495.662
2401 0 60.1858 13.4749 811 111.736 778.451 496.059
2402 0 62.0422 13.2007 819 112.209 778.477 494.694
2403 0 64.0273 11.9793 767 116.197 778.664 493.137
2404 0 66.0296 13.0547 862 112.015 778.075 494.288
2405 0 68.1367 13.3555 910 112.158 778.695 491.411
2406 0 70.0482 12.7769 895 114.552 778.53 490.174
2407 0 71.1441 12.4114 883 114.89 778.407 491.461
2408 0 72.0352 12.8548 926 115.866 778.303 486.383
2409 0 73.0655 12.0577 881 118.258 778.378 485.481
2410 0 75.1021 13.0888 983 115.577 778.564 485.236
2411 0 78.0239 13.0088 1015 115.649 778.645 484.198
2412 0 81.112 13.8327 1122 113.307 778.536 483.832
2413 0 82.067 13.1722 1081 115.013 778.549 482.957
2414 0 85.1659 13.2447 1128 115.907 778.606 481.439
2415 0 87.1338 13.5309 1179 116.092 778.478 479.187
2416 0 88.15 13.3409 1176 118.293 778.224 478.24
2417 0 91.2156 13.0241 1188 120.222 778.407 476.106
2418 0 94.215 13.3631 1259 119.651 778.144 475.36
2419 0 97.1495 12.9903 1262 119.624 777.962 475.498
2420 0 100.17 13.0478 1307 118.875 778.192 475.894
2421 1 54.1224 9.38613 508 116.441 778.244 498.317
2422 0 57.1828 11.8043 675 111.702 777.939 494.935
2423 0 59.1922 11.9779 709 110.855 779.848 493.952
2424 0 59.1407 11.6502 689 112.325 782.228 495.344
2425 0 59.2524 11.4763 680 112.91 782.291 495.401
2426 0 63.1761 11.8241 747 111.325 782.545 494.288
2427 0 63.2157 11.1998 708 111.835 782.326 494.216
2428 0 67.3287 11.1542 751 111.136 782.86 492.015
2429 0 68.2495 12.1759 831 109.555 781.998 490.345
2430 0 70.3875 10.5701 744 113.176 782.415 488.848
2431 0 71.3087 11.8078 842 111.606 782.373 488.257
2432 0 72.2409 12.0984 874 110.68 782.723 487.513
2433 0 75.3034 11.4337 861 111.749 782.096 484.273
2434 0 78.3332 11.566 906 110.15 781.894 487.389
2435 0 82.4194 12.4971 1030 108.342 781.706 484.304
2436 0 82.485 11.9052 982 110.005 781.354 482.957
2437 0 85.4004 10.3864 887 112.785 782.31 481.557
2438 0 90.4274 12.1202 1096 108.607 781.832 480.658
2439 0 91.3243 10.7748 984 111.944 781.38 480.389
2440 0 97.3011 12.3329 1200 109.264 781.749 476.582
2441 1 51.1333 10.1695 520 116.663 782.715 495.029
2442 0 55.1939 12.1934 673 110.88 781.431 495.637
2443 0 56.0313 11.5828 649 114.582 782.504 493.706
2444 0 56.0618 11.2733 632 116.114 782.041 494.861
2445 0 57.0676 10.4963 599 119.997 782.332 493.369
2446 0 62.1604 12.4034 771 113.765 782.314 492.725
2447 0 60.1481 11.4218 687 118.093 782.314 490.854
2448 0 62.068 11.423 709 118.265 782.33 489.953
2449 0 67.1651 12.9829 872 113.167 782.135 488.997
2450 0 69.0617 12.4237 858 114.924 783.293 488.448
2451 0 68.0698 13.1483 895 113.703 784.136 487.188
2452 0 69.0995 11.2881 780 118.959 783.932 487.296
2453 0 73.0701 13.5623 991 112.726 783.842 485.477
2454 0 76.0798 12.3423 939 115.769 784.393 485.021
2455 0 78.0764 13.1794 1029 113.735 784.296 483.01
2456 0 77.0974 12.8539 991 116.45 784.088 481.794
2457 0 83.1383 13.7843 1146 113.134 784.021 480.317
2458 0 84.1263 13.7175 1154 113.608 783.804 479.719
2459 0 87.0862 13.1938 1149 112.934 783.531 479.823
2460 0 87.1252 12.2927 1071 116.536 783.744 479.097
2461 0 90.105 12.3412 1112 116.86 783.42 475.706
2462 0 95.3123 13.4925 1286 112.796 782.806 475.949
2463 0 95.2264 12.7801 1217 115.938 782.579 477.086
2464 1 54.1021 10.9792 594 114.468 783.379 496.884
2465 0 51.1455 9.9911 511 106.36 781.763 492.532
2466 0 53.3158 10.4847 559 107.549 781.336 489.53
2467 0 50.0669 10.8655 544 114.369 782.312 487.928
2468 0 53.0377 10.879 577 113.997 782.449 486.534
2469 0 56.1036 10.8727 610 112.743 782.797 487.057
2470 0 56.1019 11.9604 671 110.739 782.221 487.057
2471 0 57.1888 11.4358 654 112.694 781.697 485.376
2472 0 59.1611 10.6827 632 111.965 782.459 484.502
2473 0 62.1605 12.0655 750 108.661 781.955 483.149
2474 0 63.178 12.172 769 108.696 782.031 483.01
2475 0 66.1212 11.7663 778 108.889 781.946 481.192
2476 0 69.1303 11.6157 803 108.406 782.25 481.623
2477 0 74.2538 13.5481 1006 103.215 782.29 480.15
2478 0 74.1291 11.3586 842 109.039 782.379 478.561
2479 0 74.1683 11.5818 859 109.773 782.269 475.192
2480 0 76.1399 12.5296 954 107.488 782.438 477.388
2481 0 80.1122 11.434 916 109.531 781.904 475.96
2482 0 82.2495 11.611 955 110.515 781.794 473.404
2483 0 81.1613 12.814 1040 110.763 781.663 471.213
2484 0 85.2931 12.5684 1072 110.972 781.374 468.863
2485 0 90.1904 12.8839 1162 109.664 781.841 471.267
2486 0 95.2432 13.4708 1283 107.314 781.485 470.588
2487 0 94.1659 13.0408 1228 109.489 781.717 471.496
2488 0 100.149 14.0791 1410 108.081 781.309 466.494
2489 0 98.1255 11.9031 1168 115.521 781.279 467.169
2490 0 99.1402 12.8505 1274 115.905 780.709 462.282
2491 0 102.182 12.3113 1258 110.508 780.929 462.097
2492 0 107.255 12.5775 1349 114.074 781.587 460.821
2493 0 110.256 13.0514 1439 114.356 780.752 462.227
2494 1 53.0782 7.0462 374 115.586 780.163 488.735
2495 0 53.0586 8.7639 465 111.86 780.353 488.544
2496 0 56.0536 11.3106 634 105.249 779.492 488.552
2497 0 58.0594 11.6088 674 106.512 779.086 484.99
2498 0 59.0336 10.6041 626 108.88 779.208 484.313
2499 0 61.0926 11.7363 717 106.424 779.211 484.234
2500 0 60.026 12.0281 722 107.386 778.999 482.51
2501 0 64.0639 11.2076 718 109.553 779.313 480.483
2502 0 65.1114 10.7201 698 110.831 778.759 480.13
2503 0 69.063 10.8597 750 111.545 778.935 476.305
2504 0 70.0677 12.231 857 108.033 779.074 478.823
2505 0 71.0447 12.0628 857 108.782 779.231 477.536
2506 0 76.0509 12.0446 916 109.333 779.099 474.933
2507 0 77.0966 11.5829 893 111.574 778.852 473.139
2508 0 80.1604 13.4356 1077 106.558 779.333 473.701
2509 0 81.266 10.804 878 114.345 778.871 470.532
2510 0 82.1431 11.0174 905 113.723 779.252 470.389
2511 1 49.0425 9.66508 474 106.985 779.333 487.063
2512 0 51.06 10.3604 529 108.308 779.1 485.711
2513 0 51.0578 11.3401 579 108.423 779.264 482.585
2514 0 52.0382 9.99266 520 110.996 779.156 484.008
2515 0 54.0364 10.4559 565 111.685 779.135 483.759
2516 0 59.0401 10.4675 618 111.796 778.908 481.534
2517 0 59.0735 11.0879 655 110.481 779.171 482.244
2518 0 63.0979 11.3633 717 109.142 778.985 481.183
2519 0 62.0293 11.5913 719 107.352 779.353 482.65
2520 0 65.0623 10.9587 713 110.78 779.059 480.494
2521 0 65.0436 11.6999 761 109.601 779.109 479.629
2522 0 67.1259 10.6963 718 110.659 779.614 476.631
2523 0 71.0438 11.6407 827 108.051 779.568 475.735
2524 0 73.0322 12.1727 889 107.218 779.332 474.813
2525 0 72.0462 10.6598 768 112.638 779.036 472.178
2526 0 77.118 13.3432 1029 105.26 779.11 471.369
2527 0 80.0809 12.3875 992 106.426 779.412 471.549
2528 0 84.0841 12.2496 1030 106.278 779.793 469.812
2529 1 40.0401 9.24074 370 100.773 779.522 489.8
2530 0 43.0134 10.1829 438 99.968 780.007 488.82
2531 0 46.044 10.5334 485 105.303 779.528 487.858
2532 0 47.0425 11.0113 518 104.591 779.324 485.647
2533 0 54.0865 11.4816 621 105.771 783.435 491.754
2534 0 53.0564 10.8752 577 108.407 783.804 491.149
2535 0 53.0279 10.1456 538 111.043 784.08 488.602
2536 0 54.0496 11.1749 604 106.657 781.483 489.919
2537 0 56.0898 11.8203 663 104.552 781.87 490.342
2538 0 57.1354 10.0288 573 108.267 781.812 489.803
2539 0 58.0683 9.74714 566 107 780.825 492.735
2540 0 61.0273 11.8963 726 103.309 781.351 490.157
2541 0 61.1088 10.5877 647 105.422 780.167 489.32
2542 0 64.1632 11.9227 765 101.979 780.063 488.02
2543 0 65.1141 12.1633 792 102.381 780.061 485.288
2544 0 71.2315 12.9016 919 99.2307 780.724 485.741
2545 0 73.2141 12.5932 922 99.8937 780.732 484.565
2546 0 72.234 12.3488 892 101.67 781.025 482.943
2547 0 74.3945 11.3987 848 103.739 781.075 483.32
2548 0 76.2755 11.7862 899 102.731 780.874 481.83
2549 0 79.2779 11.8318 938 102.48 781.336 480.644
2550 0 82.4318 12.4466 1026 100.684 780.86 479.325
2551 0 86.4276 12.7506 1102 100.138 780.996 478.85
2552 0 87.6084 13.9713 1224 98.1552 782.315 474.347
2553 0 92.8316 12.2264 1135 99.8872 782.669 476.599
2554 0 95.86 12.5913 1207 99.8973 782.596 473.185
2555 1 52.0948 10.6729 556 101.473 781.365 495.165
2556 0 53.4624 12.6257 675 96.0667 784.407 491.656
2557 0 54.5482 12.2461 668 96.9416 783.195 489.991
2558 0 55.5586 12.4733 693 99.14 783.169 489.244
2559 0 57.5013 12.0171 691 99.7178 782.844 490.242
2560 0 59.5235 12.1129 721 100.269 782.634 487.398
2561 0 59.4009 12.4746 741 99.9906 783.221 487.8
2562 0 61.3956 12.7371 782 99.5307 783.926 487.377
2563 0 62.3564 12.9417 807 99.575 783.086 485.96
2564 0 65.4778 12.4928 818 99.8692 782.895 485.579
2565 0 65.285 11.7791 769 101.428 783.658 486.008
2566 0 69.3275 12.7222 882 98.6882 783.056 484.867
2567 0 70.5161 12.2809 866 100.957 782.965 483.868
2568 0 74.4732 12.34 919 100.757 783.26 482.789
2569 0 76.3039 12.6992 969 100.22 783.258 480.077
2570 0 78.3975 14.0566 1102 98.3838 782.479 478.163
2571 0 80.2897 12.8908 1035 100.648 782.836 477.91
2572 0 81.2696 12.2801 998 102.368 783.54 477.445
2573 0 86.2634 13.366 1153 100.23 782.621 474.853
2574 0 87.3077 11.8661 1036 103.634 782.631 474.255
2575 0 91.4348 13.1132 1199 99.3695 782.618 474.224
2576 0 90.3049 10.3427 934 104.509 782.509 471.117
2577 1 53.2614 11.1338 593 98.7032 783.823 490.624
2578 0 54.2899 11.0149 598 98.9933 783.018 491.4
2579 0 56.5125 11.6258 657 97.7382 782.268 491.209
2580 0 59.4956 11.6984 696 97.5417 782.73 489.102
2581 0 58.4716 11.5441 675 98.92 782.246 488.668
2582 0 60.3865 12.8671 777 97.0399 781.808 486.039
2583 0 59.5213 11.2061 667 101.19 782.429 486.195
2584 0 63.4073 11.8125 749 97.8932 782.559 486.79
2585 0 63.4314 12.6594 803 97.1731 781.229 486.022
2586 0 66.524 13.6041 905 95.5812 781.309 482.519
2587 0 66.359 12.1913 809 99.5142 780.785 482.398
2588 0 69.3751 13.6072 944 96.857 781.625 482.656
2589 0 72.4452 12.4784 904 99.7865 781.306 480.737
2590 0 72.4149 10.5641 765 104.863 781.058 480.46
2591 0 77.4358 13.7921 1068 97.8736 780.992 479.734
2592 0 79.5895 12.2504 975 100.69 780.677 478.466
2593 0 80.5614 13.1577 1060 100.773 780.601 475.375
2594 0 83.6996 11.828 990 103.325 781.222 475.832
2595 1 48.3891 11.5935 561 98.3993 782.38 494.688
2596 0 49.3802 10.9761 542 98.9742 781.707 492.838
2597 0 50.524 12.2912 621 96.3349 783.018 491.602
2598 0 53.6203 12.4393 667 101.22 781.832 490.72
2599 0 53.3972 10.8807 581 106.454 782.084 488.886
2600 0 56.4729 11.0318 623 106.222 781.581 488.717
2601 0 54.3658 12.4343 676 105.265 781.964 488.101
2602 0 57.4875 12.4549 716 105.518 782.208 486.737
2603 0 62.6753 12.7961 802 103.436 781.748 484.762
2604 0 63.7626 12.6406 806 103.485 782.326 486.3
2605 0 64.4805 12.2052 787 106.29 781.856 482.053
2606 0 65.4696 12.0972 792 106.851 781.888 484.367
2607 0 67.4496 13.7881 930 103.238 782.011 481.244
2608 0 69.3614 12.3123 854 106.119 782.213 481.559
2609 0 70.4801 12.273 865 105.809 782.15 481.335
2610 0 73.3606 11.3549 833 108.414 781.772 478.858
2611 0 75.4657 12.6813 957 105.108 782.042 478.362
2612 0 75.4465 12.1543 917 106.415 782.25 477.819
2613 0 80.3747 12.703 1021 105.148 782.215 478.615
2614 0 85.506 13.1804 1127 102.352 782.518 477.046
2615 0 86.3858 13.3355 1152 103.774 782.804 472.929
2616 0 87.4475 13.9855 1223 104.321 783.416 473.263
2617 1 52.2348 10.4911 548 102.752 784.518 495.942
2618 0 54.1554 11.744 636 100.31 784.621 495.478
2619 0 56.2718 11.8887 669 100.798 784.247 493.822
2620 0 58.1323 12.5232 728 99.2679 784.455 493.148
2621 0 60.1444 13.3845 805 97.3043 783.706 494.041
2622 0 58.0856 13.0153 756 100.048 783.91 492.685
2623 0 58.1231 11.8541 689 103.649 784.084 491.508
2624 0 62.1024 11.3522 705 104.862 783.518 489.739
2625 0 61.0794 12.4592 761 101.773 783.702 490.792
2626 0 66.1046 14.4468 955 95.8628 783.341 491.247
2627 0 65.0978 12.9497 843 99.8339 782.568 489.783
2628 0 68.1058 13.6112 927 98.0086 782.448 488.383
2629 0 68.2843 13.1509 898 99.98 782.336 486.876
2630 0 71.2748 13.5251 964 98.1598 782.947 485.902
2631 0 73.3451 12.8025 939 100.296 782.191 484.438
2632 0 76.4511 13.0802 1000 100.323 781.999 482.837
2633 0 76.3266 12.7741 975 101.702 782.608 483.47
2634 0 79.3893 13.4905 1071 100.88 781.776 482.337
2635 0 80.2233 13.076 1049 102.766 781.841 478.525
2636 0 83.3761 12.1618 1014 104.171 781.569 479.21
2637 0 89.3024 13.919 1243 99.9397 781.116 480.044
2638 0 91.5001 12.9836 1188 102.359 782.481 476.601
2639 0 90.1591 13.1767 1188 101.021 782.129 477.342
2640 0 95.2286 12.6643 1206 101.746 781.725 476.746
2641 1 51.0373 10.9528 559 99.9374 783.299 495.413
2642 0 52.0535 11.7571 612 97.8317 782.498 496.139
2643 0 54.1807 11.2955 612 96.7598 783.1 496.333
2644 0 53.1689 11.8114 628 98.258 783.213 491.188
2645 0 54.1239 12.379 670 97.2403 783.406 491.443
2646 0 54.0774 11.4096 617 100.439 782.963 490.989
2647 0 55.1732 11.9261 658 99.424 782.761 489.669
2648 0 58.274 11.0512 644 100.262 782.565 489.53
2649 0 60.1605 11.9015 716 99.1578 782.866 489.718
2650 0 62.1241 11.7507 730 99.4712 782.138 490.308
2651 0 65.1553 12.9537 844 97.3258 782.64 488.846
2652 0 65.1347 13.2495 863 98.3302 781.921 486.992
2653 0 67.2008 12.5445 843 100.261 782.051 486.056
2654 0 69.2135 12.0786 836 101.468 781.956 486.989
2655 0 69.2334 12.9995 900 100.393 781.274 484.394
2656 0 72.1157 12.4938 901 102.297 782.152 483.542
2657 0 74.2152 12.5042 928 102.461 781.816 481.336
2658 0 75.1961 13.139 988 101.334 781.243 482.691
2659 0 78.0905 12.4599 973 102.967 781.261 480.818
2660 0 81.2337 12.2979 999 103.822 781.699 478.351
2661 0 82.2962 13.5608 1116 101.602 781.502 476.653
2662 0 87.2763 14.013 1223 100.741 781.328 473.815
2663 0 90.3687 13.9097 1257 100.421 781.361 473.231
2664 0 90.3109 13.3871 1209 102.967 781.484 470.486
2665 0 90.1156 11.6073 1046 107.042 780.24 473.739
2666 0 93.2631 11.6659 1088 107.721 780.521 469.229
2667 0 97.2422 12.7105 1236 105.587 781.142 467.506
2668 0 101.212 12.8146 1297 105.191 780.493 466.133
2669 0 101.228 12.2891 1244 106.625 780.686 463.947
2670 0 102.174 12.2634 1253 106.541 780.851 466.062
2671 0 108.385 12.7877 1386 106.082 779.885 462.613
2672 0 110.13 11.4955 1266 108.394 778.321 460.6
2673 0 118.122 12.9612 1531 103.958 778.331 461.881
2674 0 120.114 12.7795 1535 106.162 778.434 458.858
2675 1 63.0483 9.75443 615 101.598 778.698 480.891
2676 0 68.0793 11.09 755 98.5258 778.698 480.421
2677 0 66.1853 11.0901 734 99.7956 778.956 480.655
2678 0 69.1339 11.4994 795 100.075 779.642 475.979
2679 0 74.236 11.8541 880 99.283 779.745 475.325
2680 0 76.2607 10.1101 771 104.342 779.056 473.1
2681 0 78.0975 11.6137 907 101.943 778.816 474.977
2682 0 82.1254 10.4353 857 103.845 779.123 472.201
2683 0 83.1397 11.631 967 103.217 779.055 473.249
2684 0 86.1079 11.8572 1021 103.482 778.803 470.743
2685 0 89.1335 12.3074 1097 103.682 778.612 468.468
2686 0 93.1415 12.7118 1184 103.295 778.269 469.292
2687 0 94.1107 12.921 1216 104.075 778.428 464.655
2688 0 100.205 12.8137 1284 103.266 778.173 468.579
2689 0 99.1986 12.8328 1273 105.244 777.734 465.096
2690 0 104.262 12.5358 1307 106.133 777.951 463.593
2691 0 106.259 12.5731 1336 106.759 778.059 464.991
2692 0 109.17 12.6683 1383 107.594 778.661 465.974
2693 0 111.218 13.2532 1474 106.721 777.92 466.043
2694 0 112.171 13.6399 1530 107.41 779.01 462.491
2695 0 115.25 11.6182 1339 110.014 779.712 462.867
2696 0 121.381 12.8438 1559 108.686 779.352 459.211
2697 0 123.204 12.3535 1522 109.927 780.407 460.685
2698 0 129.409 13.2371 1713 108.716 780.444 455.827
2699 0 130.544 12.6394 1650 109.535 780.708 457.705
2700 0 136.544 12.9409 1767 111.74 779.659 451.386
2701 0 138.472 12.7246 1762 112.764 779.602 449.781
2702 0 142.578 11.3201 1614 116.392 779.903 449.419
2703 0 148.383 13.263 1968 113.007 779.982 444.134
2704 0 155.53 13.0071 2023 113.085 779.645 441.633
2705 1 82.5102 10.6653 880 105.308 779.758 479.345
2706 0 83.6912 11.4707 960 103.408 779.626 475.43
2707 0 84.5429 12.1595 1028 102.629 779.68 475.466
2708 0 88.5924 11.5585 1024 102.57 779.554 475.445
2709 0 92.5543 11.0097 1019 104.463 779.986 475.387
2710 0 94.6515 11.9597 1132 103.347 779.252 472.36
2711 0 97.5482 11.5738 1129 104.134 779.853 469.748
2712 0 101.439 12.4903 1267 102.2 780.303 468.605
2713 0 104.691 11.3191 1185 105.591 779.674 469.156
2714 0 108.454 11.4887 1246 107.127 779.431 466.575
2715 0 108.788 10.6078 1154 111.767 779.019 463.595
2716 0 110.684 12.5854 1393 108.36 779.19 460.611
2717 0 115.754 12.6562 1465 107.024 779.755 462.293
2718 0 119.76 12.642 1514 106.69 779.391 462.151
2719 0 120.585 12.4311 1499 109.181 779.991 457.319
2720 0 125.645 12.2886 1544 107.319 779.913 458.238
2721 0 129.608 12.2601 1589 107.723 779.829 453.753
2722 0 131.73 12.2219 1610 111.609 779.971 450.884
2723 0 136.745 12.3003 1682 112.65 780.268 445.63
2724 0 141.72 12.814 1816 111.893 779.757 448.19
2725 0 143.674 12.1456 1745 115.16 780.272 441.528
2726 0 150.669 12.8826 1941 111.879 780.074 444.103
2727 1 59.3178 9.7947 581 104.831 780.404 487.768
2728 0 60.3445 11.1361 672 103.929 780.439 485.173
2729 0 61.3307 11.5114 706 102.399 780.494 488.198
2730 0 66.3897 12.5923 836 99.6794 780.848 485.286
2731 0 66.2666 12.4799 827 99.584 783.312 487.137
2732 0 67.1432 11.4234 767 104.202 783.138 485.258
2733 0 70.1201 11.9367 837 102.005 782.573 486.313
2734 0 70.1049 10.1562 712 106.397 783.041 486.316
2735 0 74.1874 11.8753 881 102.947 782.333 486.15
2736 0 75.3607 12.1283 914 102.487 782.118 483.135
2737 0 77.3722 10.9342 846 105.734 782.443 483.896
2738 0 81.2488 12.394 1007 103.33 781.757 480.818
2739 0 82.2833 11.8858 978 105.418 782.34 480.113
2740 0 84.2291 11.5162 970 103.043 782.674 480.425
2741 0 88.5191 10.8677 962 103.647 782.339 477.441
2742 0 86.6484 10.3868 900 108.896 780.246 474.903
2743 1 53.5513 11.1108 595 100.346 781.176 493.733
2744 0 52.5076 9.16059 481 114.008 781.57 488.669
2745 0 55.4788 10.869 603 108.677 781.1 492.952
2746 0 57.3144 13.3474 765 105.91 782.06 490.949
2747 0 56.2967 12.0966 681 110.025 782.15 488.06
2748 0 58.5143 13.0566 764 108.613 782.529 488.047
2749 0 61.3961 11.3362 696 111.203 782.323 488.898
2750 0 64.4915 12.8544 829 108.227 782.435 487.216
2751 0 64.4603 11.7592 758 111.383 782.369 487.805
2752 0 68.5317 12.87 882 108.603 783.202 487.502
2753 0 65.3448 11.9673 782 113.547 783.004 487.531
2754 0 68.558 12.1211 831 113.212 782.875 486.863
2755 0 71.4252 12.6846 906 112.401 782.968 484.553
2756 0 74.3242 13.2258 983 111.815 782.584 484.705
2757 0 76.3161 12.5924 961 113.421 782.33 483.616
2758 0 74.3652 11.6856 869 117.407 782.204 483.568
2759 0 79.3297 14.4712 1148 108.687 782.734 483.952
2760 0 81.3023 11.6356 946 115.375 782.335 483.41
2761 0 81.2209 12.8169 1041 116.192 782.079 477.68
2762 0 85.2436 13.35 1138 113.796 782.788 478.671
2763 0 86.3077 11.8993 1027 117.307 782.278 478.982
2764 0 90.3532 13.2148 1194 113.972 782.012 476.593
2765 0 93.306 13.8148 1289 112.373 782.23 476.258
2766 0 98.4562 14.0265 1381 110.251 782.232 474.982
2767 0 99.2877 13.2947 1320 112.594 781.948 472.118
2768 1 59.1287 10.8238 640 110.411 780.062 491.656
2769 0 59.0969 12.2003 721 107.144 779.796 493.34
2770 0 59.0759 11.663 689 108.938 780.048 490.882
2771 0 62.0914 11.4831 713 104.254 780.13 490.504
2772 0 66.0276 12.6008 832 103.837 779.081 491.612
2773 0 65.0564 12.1587 791 106.296 779.52 490.536
2774 0 67.1063 11.5637 776 107.668 779.349 489.727
2775 0 71.0347 12.5995 895 103.846 779.328 489.34
2776 0 69.0707 12.6682 875 105.506 778.736 488.606
2777 0 71.0468 12.6818 901 105.355 779.659 485.624
2778 0 76.1331 12.2286 931 104.329 778.668 487.358
2779 0 77.1721 13.5152 1043 100.965 778.889 485.846
2780 0 78.0779 12.1673 950 104.213 779.225 483.524
2781 0 80.1579 12.2009 978 103.177 779.242 484.757
2782 0 82.1037 13.4342 1103 101.027 779.413 482.748
2783 0 86.1634 12.9637 1117 101.938 778.778 481.345
2784 0 88.084 13.8958 1224 100.857 778.926 480.516
2785 0 86.0879 12.0691 1039 102.741 779.294 479.244
2786 0 91.1409 14.0222 1278 99.7582 779.275 476.606
2787 0 94.1441 13.8192 1301 98.7733 779.101 479.607
2788 0 96.2424 13.1439 1265 102.122 779.504 475.794
2789 0 100.341 14.4807 1453 100.198 779.797 474.382
2790 0 101.379 13.2078 1339 103.474 779.556 473.397
2791 0 105.272 12.6814 1335 105.658 778.745 470.631
2792 1 61.2253 11.1392 682 104.043 778.708 493.176
2793 0 62.0777 11.0829 688 104.705 778.76 490.337
2794 0 64.0899 12.0768 774 102.178 778.62 490.496
2795 0 65.3003 11.1944 731 105.454 778.702 490.488
2796 0 66.2347 12.4255 823 104.513 779.06 487.936
2797 0 65.2301 12.0343 785 106.401 778.638 488.973
2798 0 70.2749 13.5041 949 102.417 778.641 488.689
2799 0 69.2855 12.0949 838 106.241 779.014 487.558
2800 0 70.1633 12.6704 889 105.827 779.423 482.934
2801 0 73.2067 13.4277 983 104.986 779.326 482.496
2802 0 77.3448 12.4895 966 106.429 779.186 484.835
2803 0 79.3112 12.6968 1007 106.835 779.012 483.475
2804 0 81.1811 13.8702 1126 105.281 779.465 482.214
2805 0 81.2388 12.9372 1051 107.563 779.4 481.021
2806 0 83.2293 12.1712 1013 109.915 779.695 479.819
2807 0 87.2363 12.5177 1092 109.464 779.482 476.601
2808 0 89.3697 12.8119 1145 110.043 779.466 474.56
2809 0 92.2985 13.088 1208 109.057 780.034 475.166
2810 0 95.4601 12.7278 1215 109.692 779.267 475.093
2811 0 97.4727 14.0039 1365 107.899 780.316 470.573
2812 0 99.5173 15.5551 1548 104.674 780.391 470.061
2813 0 101.599 13.3269 1354 109.371 780.327 467.489
2814 1 59.8078 11.1189 665 107.066 780.021 489.311
2815 0 58.3965 11.4904 671 106.469 779.639 488.395
2816 0 55.3239 10.1222 560 103.748 778.896 483.368
2817 0 57.2897 11.5029 659 100.681 779.105 480.825
2818 0 58.3381 11.2791 658 101.555 779.348 482.131
2819 0 59.141 12.039 712 100.218 780.312 484.664
2820 0 67.088 12.5954 845 105.017 779.869 488.436
2821 0 69.2971 12.8577 891 98.2716 779.409 490.352
2822 0 71.1425 12.1727 866 99.6848 779.088 489.301
2823 0 72.1628 13.3725 965 98.9596 778.945 486.12
2824 0 76.1401 13.3176 1014 97.5582 779.138 486.493
2825 0 77.1293 12.693 979 99.8825 778.536 485.343
2826 0 78.2649 12.1383 950 100.128 778.676 487.209
2827 0 82.1703 13.6546 1122 96.9118 779.246 486.867
2828 0 81.2084 11.4028 926 103.608 779.22 481.841
2829 0 84.1691 12.3798 1042 100.733 779.38 482.283
2830 0 90.1511 13.91 1254 98.5159 779.954 479.025
2831 0 91.3362 14.255 1302 97.8702 780.167 475.414
2832 0 94.4907 13.758 1300 99.2854 779.422 475.035
2833 0 97.4103 14.3825 1401 98.2791 779.857 471.901
2834 0 100.346 13.8421 1389 99.6587 779.518 470.024
2835 0 104.37 13.9887 1460 99.0692 779.755 467.435
2836 0 109.331 14.2138 1554 98.2477 780.247 468.779
2837 1 57.3512 11.1593 640 100.497 780.081 490.291
2838 0 60.4553 11.86 717 96.2162 780.499 491.464
2839 0 62.3619 12.652 789 95.308 780.323 491.468
2840 0 65.3706 13.9512 912 93.1327 780.658 490.105
2841 0 65.3854 12.2657 802 96.51 780.131 488.704
2842 0 68.3817 13.0883 895 95.514 779.905 485.526
2843 0 70.2901 13.5581 953 95.4218 780.277 486.068
2844 0 73.2814 13.3595 979 95.5679 779.954 484.749
2845 0 75.1355 14.2276 1069 94.4107 778.676 484.56
2846 0 77.2217 13.2217 1021 95.8482 778.955 486.208
2847 0 77.2058 13.1726 1017 98.4405 779.011 483.536
2848 0 82.2736 14.6949 1209 94.6319 779.003 484.607
2849 0 84.2367 13.4502 1133 98.2648 779.166 480.533
2850 0 87.1946 13.2577 1156 98.4602 778.869 480.049
2851 0 87.1464 12.8175 1117 100.99 779.201 476.51
2852 0 93.2108 13.507 1259 98.6322 778.89 479.144
2853 0 94.2362 13.8057 1301 98.9623 778.807 476.224
2854 0 97.1706 14.0886 1369 98.5267 778.998 474.841
2855 0 98.2491 14.6566 1440 98.1257 778.908 474.194
2856 0 101.309 13.7007 1388 101.269 778.906 470.486
2857 1 55.0969 10.4543 576 100.422 778.269 495.38
2858 0 57.0663 11.3552 648 98.8627 778.261 494.83
2859 0 61.0865 12.1303 741 97.7018 778.567 493.588
2860 0 60.1144 13.5575 815 95.6687 778.691 490.86
2861 0 63.1035 12.3606 780 97.341 777.938 490.236
2862 0 64.0704 11.9712 767 98.3259 777.928 490.222
2863 0 63.0864 12.5542 792 99.0316 778.226 485.275
2864 0 68.1074 11.8196 805 99.0199 778.61 486.646
2865 0 70.1384 12.0191 843 99.1756 777.874 485.421
2866 0 70.1253 11.8787 833 96.0348 778.083 485.531
2867 0 73.1464 10.978 803 97.7173 778.137 486.798
2868 0 75.0646 13.2153 992 94.1159 778.798 485.838
2869 0 78.251 12.6388 989 94.2578 778.736 482.841
2870 0 78.1408 11.8632 927 96.9051 779.04 482.737
2871 0 82.1732 11.707 962 97.1622 778.532 483.315
2872 0 84.1526 11.5861 975 97.4277 778.156 482.598
2873 0 85.2002 12.5117 1066 96.4662 778.543 482.286
2874 0 89.2842 12.5442 1120 96.6946 778.785 480.766
2875 0 89.2381 12.4162 1108 97.8042 779.301 478.919
2876 0 94.0987 13.1777 1240 96.1911 779.203 477.069
2877 0 97.301 11.2126 1091 99.7131 779.708 479.549
2878 1 56.1232 11.0828 622 100.193 778.518 494.994
2879 0 58.0561 11.9712 695 98.023 777.729 493.647
2880 0 60.4853 11.0109 666 100.176 780.363 490.778
2881 0 62.4553 13.6097 850 95.1129 780.214 492.015
2882 0 63.5591 13.4363 854 97.0913 779.895 488.966
2883 0 67.1463 13.21 887 96.3529 777.706 491.973
2884 0 68.1798 14.1831 967 95.7704 778.222 490.661
2885 0 70.0791 13.0709 916 99.2445 777.916 489.902
2886 0 72.1829 13.4104 968 98.8068 778.515 489.934
2887 0 75.1198 13.4319 1009 99.7621 778.558 487.491
2888 0 76.1745 13.9023 1059 98.9972 778.697 488.795
2889 0 79.1153 13.019 1030 102.176 778.384 486.062
2890 0 81.2573 13.648 1109 102.054 778.287 484.377
2891 0 84.1817 13.6609 1150 102.967 778.87 482.817
2892 0 86.1909 14.5491 1254 101.106 779.043 481.648
2893 0 91.4324 14.2619 1304 101.378 778.87 480.925
2894 0 93.236 14.6724 1368 101.385 778.568 479.781
2895 0 94.3163 14.5468 1372 103.26 778.81 477.476
2896 0 97.3372 13.1091 1276 106.98 779.313 477.513
2897 0 99.3664 13.2942 1321 108.281 778.893 475.321
2898 0 105.43 14.1231 1489 106.627 779.255 474.936
2899 1 59.4661 11.2501 669 107.891 781.224 492.726
2900 0 61.4291 13.1045 805 105.475 779.955 493.089
2901 0 62.3613 12.8926 804 106.966 780.867 490.618
2902 0 63.5943 12.2652 780 108.714 781.468 490.986
2903 0 66.2752 12.3123 816 107.237 781.767 490.701
2904 0 67.4309 12.4572 840 107.735 782.074 489.871
2905 0 69.407 13.6009 944 105.279 781.694 488.854
2906 0 73.2922 12.9618 950 106.134 781.16 487.323
2907 0 74.2481 12.9835 964 105.523 781.497 488.595
2908 0 76.2791 13.2802 1013 106.496 781.907 484.206
2909 0 77.3434 13.7051 1060 107.058 781.179 481.661
2910 0 80.3214 12.4126 997 108.685 781.556 480.927
2911 0 81.3416 12.7241 1035 107.948 781.893 479.772
2912 0 85.3189 12.9397 1104 105.496 781.362 480.739
2913 0 86.4943 12.9604 1121 105.341 781.109 476.367
2914 0 87.2047 12.4993 1090 103.922 780.746 476.394
2915 0 91.2534 12.9968 1186 102.454 781.224 477.132
2916 0 94.4835 12.8065 1210 103.856 780.846 472.948
2917 0 96.3069 13.3739 1288 102.757 780.823 474.766
2918 1 53.1547 10.46 556 102.018 778.836 496.719
2919 0 55.1108 13.6997 755 96.8623 778.931 493.216
2920 0 58.119 11.6657 678 99.236 778.236 494.534
2921 0 57.0519 12.2169 697 100.41 778.211 491.511
2922 0 57.0963 11.5069 657 106.244 778.228 490.174
2923 0 60.0582 12.4879 750 103.763 778.137 490.172
2924 0 61.0859 12.9326 790 103.608 778.868 489.401
2925 0 62.0813 11.4849 713 107.081 779.14 486.773
2926 0 63.0889 10.9528 691 108.472 778.881 487.391
2927 0 68.0572 13.1801 897 103.748 778.476 484.87
2928 0 67.0881 12.4016 832 106.582 778.393 485.206
2929 0 71.0796 13.0699 929 104.712 778.832 484.196
2930 0 69.0899 10.9712 758 111.83 778.377 481.916
2931 0 73.0495 12.6216 922 107.933 778.587 482.085
2932 0 78.0983 13.8543 1082 104.474 778.527 481.21
2933 0 78.0609 13.7329 1072 106.329 778.414 480.465
2934 0 81.1524 12.6306 1025 109.607 778.331 479.98
2935 0 81.17 13.1329 1066 110.228 778.143 476.23
2936 0 84.177 12.5212 1054 111.729 778.361 478.212
2937 0 86.1612 12.1168 1044 112.967 777.974 477.486
2938 0 88.0961 13.4172 1182 110.843 778.314 475.885
2939 0 91.0949 12.8986 1175 112.088 777.988 474.402
2940 0 93.1663 12.4187 1157 114.366 778.116 470.936
2941 0 96.1753 13.7665 1324 110.999 777.74 474.899
2942 0 98.1994 12.7903 1256 114.272 778.254 471.092
2943 0 102.17 14.0453 1435 111.179 778.126 470.121
2944 0 103.154 12.8739 1328 114.685 778.359 468.367
2945 0 106.373 13.7159 1459 113.066 778.487 468.335
2946 0 109.304 12.9364 1414 114.665 778.837 465.207
2947 0 112.495 13.1384 1478 114.386 778.803 463.484
2948 0 117.39 12.7864 1501 115.032 778.855 462.445
2949 0 119.519 12.8599 1537 114.746 778.468 458.374
2950 1 70.3769 10.9979 774 112.264 779.607 484.535
2951 0 70.2201 10.5241 739 108.139 779.3 477.336
2952 0 71.0412 11.3455 806 102.837 780.985 479.644
2953 0 72.0877 9.96009 718 105.961 780.791 476.226
2954 0 75.0617 11.697 878 102.387 780.925 476.614
2955 0 78.0528 11.71 914 100.902 780.679 479.311
2956 0 83.1215 10.2621 853 102.624 780.673 477.884
2957 0 84.1489 12.1333 1021 99.7571 780.63 476.214
2958 0 86.1227 10.9147 940 102.294 780.227 475.726
2959 0 93.1826 11.9658 1115 99.1946 780.623 473.41
2960 0 95.1773 13.1649 1253 96.5403 780.561 471.666
2961 0 98.2093 11.7606 1155 98.9567 781.126 472.623
2962 0 100.107 11.198 1121 100.913 781.064 469.072
2963 0 105.195 11.5214 1212 100.075 781.097 469.099
2964 0 106.096 11.6687 1238 101.138 780.416 463.737
2965 0 112.373 10.7677 1210 101.788 780.16 466.902
2966 1 60.2467 10.4238 628 100.842 781.252 487.685
2967 0 66.2428 11.4729 760 102.604 781.301 486.654
2968 0 65.1038 12.1345 790 98.238 781.077 482.747
2969 0 70.1138 11.9948 841 97.2937 780.741 484.074
2970 0 70.1279 13.347 936 95.8259 780.683 483.775
2971 0 73.3482 11.6158 852 99.9061 781.291 482.227
2972 0 77.171 13.0749 1009 96.671 781.215 482.356
2973 0 78.0678 13.1809 1029 98.7979 781.825 479.837
2974 0 81.1269 14.0644 1141 103.713 781.879 480.082
2975 0 81.1012 12.9961 1054 107.643 781.339 478.154
2976 0 85.104 13.9359 1186 105.035 781.466 477.75
2977 0 89.1025 13.8492 1234 104.9 781.286 479.429
2978 0 90.0802 14.4649 1303 104.748 781.766 476.081
2979 0 91.4781 13.2163 1209 108.782 781.183 474.448
2980 0 95.4768 14.2129 1357 106.738 780.279 470.718
2981 0 98.5489 14.6831 1447 106.518 780.685 471.829
2982 0 99.5218 14.1577 1409 109.007 780.464 467.025
2983 0 101.388 13.6407 1383 111.391 780.003 466.901
2984 0 106.523 13.5652 1445 110.644 780.363 466.643
2985 0 107.313 14.7326 1581 107.74 780.436 465.209
2986 0 110.46 14.4034 1591 109.441 778.649 462.755
2987 1 61.1255 13.4968 825 110.079 780.343 487.72
2988 0 61.2625 11.867 727 113.388 780.083 488.977
2989 0 65.2122 12.1756 794 111.51 780.418 488.465
2990 0 67.0543 12.2736 823 111.067 777.434 487.516
2991 0 69.0578 13.1918 911 109.091 777.35 486.313
2992 0 72.152 13.3884 966 107.726 777.81 486.174
2993 0 72.1051 13.0088 938 110.267 777.555 484.191
2994 0 75.1314 14.9072 1120 105.364 776.989 483.959
2995 0 77.1002 12.9183 996 110.98 777.227 481.558
2996 0 77.156 11.8591 915 114.239 777.259 479.597
2997 0 82.051 12.4069 1018 111.484 777.593 479.83
2998 0 86.0933 12.893 1110 110.762 777.409 478.005
2999 0 87.2174 13.151 1147 110.708 777.64 476.178
3000 0 88.1992 13.4128 1183 110.696 777.996 475.245
3001 0 95.5384 14.9992 1433 105.274 778.218 473.408
3002 0 96.7132 13.6796 1323 108.094 778.062 471.88
3003 0 98.5833 14.9011 1469 105.757 777.918 469.043
3004 0 103.495 14.0683 1456 106.468 777.799 468.227
3005 0 104.86 13.4464 1410 107.211 778.162 470.199
3006 0 108.536 14.5389 1578 104.322 778.619 467.757
3007 1 61.2534 11.9667 733 104.925 778.364 490.237
3008 0 59.4255 12.2843 730 106.296 778.525 488.393
3009 0 63.0895 13.6156 859 102.541 776.979 487.146
3010 0 63.1859 13.4365 849 102.614 777.208 486.675
3011 0 67.1802 13.0991 880 98.8648 778.337 488.822
3012 0 69.2903 13.2775 920 101.092 777.728 486.223
3013 0 71.3864 12.7755 912 101.417 778.294 485.038
3014 0 73.2624 12.6668 928 101.591 778.105 481.506
3015 0 74.1123 12.4946 926 101.85 778.387 482.989
3016 0 78.5057 12.2539 962 101.112 778.737 482.395
3017 0 80.4876 12.8964 1038 100.071 779.081 479.584
3018 0 83.7278 13.2572 1110 99.2216 779.204 477.532
3019 0 86.6737 13.4181 1163 98.6113 779.436 478.169
3020 0 90.804 12.951 1176 98.9821 779.492 477.173
3021 0 95.5098 13.5483 1294 97.4389 779.335 475.008
3022 0 98.5851 15.8239 1560 92.7756 779.689 473.506
3023 0 98.6182 12.7258 1255 99.549 779.129 469.63
3024 0 102.635 13.1631 1351 97.8349 779.465 470.7
3025 0 104.919 12.6384 1326 98.7127 778.296 468.699
3026 1 58.6511 10.7074 628 97.2325 778.212 489.091
3027 0 59.2519 12.6072 747 97.6064 779.585 486.866
3028 0 60.3544 14.1829 856 94.6519 779.072 484.407
3029 0 62.371 14.5901 910 93.3758 778.352 484.607
3030 0 64.481 12.9806 837 97.4373 778.815 485.241
3031 0 66.5853 13.0659 870 98.0069 778.994 481.551
3032 0 69.4192 12.0428 836 94.4868 779.378 482.31
3033 0 70.3039 12.318 866 95.4353 779.226 482.555
3034 0 72.5404 13.3581 969 93.0681 779.765 481.445
3035 0 74.6114 12.0223 897 96.7659 779.598 477.954
3036 0 74.4969 10.7253 799 100.307 779.265 476.946
3037 0 77.7886 12.2769 955 98.2105 779.558 476.643
3038 0 81.5213 14.119 1151 94.5656 779.887 476.051
3039 0 84.7394 14.5859 1236 93.8099 779.49 475.786
3040 0 87.8345 12.8423 1128 97.1277 780.152 477.203
3041 0 90.7559 13.7402 1247 97.1331 779.791 474.278
3042 0 94.9584 13.4901 1281 97.1452 780.292 475.431
3043 0 97.994 13.3784 1311 98.6506 780.233 473.043
3044 0 100.787 12.3429 1244 100.503 780.191 475.414
3045 0 103.883 13.3419 1386 100.024 780.034 470.466
3046 0 110.76 14.861 1646 92.9933 779.878 467.357
3047 0 112.709 14.6395 1650 92.4812 780.082 469.317
3048 0 114.672 13.5343 1552 98.6398 780.543 466.624
3049 1 68.4383 10.988 752 97.2287 780.203 490.987
3050 0 67.6069 12.336 834 89.7146 780.138 488.333
3051 0 70.2075 13.4459 944 96.3337 781.62 488.515
3052 0 68.2923 13.0322 890 99.2371 780.385 486.746
3053 0 71.4091 13.1216 937 97.937 780.368 488.399
3054 0 72.5153 13.6385 989 97.8008 781.009 486.348
3055 0 75.4877 13.1412 992 98.5161 780.819 485.308
3056 0 77.502 14.2577 1105 94.9213 781.058 484.887
3057 0 79.5476 13.1871 1049 97.714 780.913 480.942
3058 0 83.7681 14.3611 1203 93.8869 780.796 481.322
3059 0 84.4262 13.4674 1137 96.2542 780.969 480.354
3060 0 88.7695 13.8561 1230 94.813 781.094 478.674
3061 0 88.7332 12.0924 1073 99.3299 780.678 475.88
3062 0 90.89 11.0023 1000 101.235 780.767 475.261
3063 0 94.5249 14.3137 1353 95.252 780.685 474.897
3064 0 99.6391 13.7295 1368 96.4554 780.838 474.042
3065 0 97.5207 11.1669 1089 103.194 780.286 471.571
3066 0 101.632 12.6338 1284 101.988 780.809 467.934
3067 1 56.3197 11.6478 656 93.4375 779.476 493.456
3068 0 57.5025 11.7038 673 93.4279 779.701 495.646
3069 0 57.0612 11.1985 639 96.6463 779.721 494.177
3070 0 59.4333 11.9125 708 95.6836 779.842 494.031
3071 0 62.5795 12.0806 756 97.4458 779.676 494.004
3072 0 61.5874 12.535 772 100.316 780.521 490.307
3073 0 63.7025 12.6683 807 101.178 779.955 486.546
3074 0 63.6541 12.0024 764 104.037 779.723 485.531
3075 0 64.6402 11.2469 727 107.711 780.188 482.835
3076 0 68.7041 12.9104 887 103.718 779.564 483.838
3077 0 69.7876 12.1941 851 106.568 779.412 483.039
3078 0 70.7743 13.4088 949 104.979 778.544 479.824
3079 0 72.8039 12.6642 922 106.909 778.729 479.614
3080 0 73.7734 12.5926 929 108.13 778.872 481.018
3081 0 74.8546 11.9164 892 111.015 779.166 478.322
3082 0 77.6077 13.5682 1053 107.294 778.934 479.607
3083 0 81.7714 13.4032 1096 107.89 778.547 477.264
3084 0 82.863 13.2629 1099 109.121 778.992 477.388
3085 0 83.7201 13.2107 1106 113.143 778.807 475.145
3086 0 85.8169 12.7481 1094 114.009 778.399 474.64
3087 0 88.6415 12.8721 1141 113.639 778.407 470.669
3088 0 89.6765 12.4001 1112 114.927 778.542 471.143
3089 0 93.7165 13.3594 1252 111.982 778.554 472.903
3090 0 95.7045 11.943 1143 114.376 779.258 470.908
3091 0 93.6882 11.2181 1051 118.73 779.288 464.76
3092 0 100.4 13.2869 1334 113.247 779.181 466.429
3093 0 102.698 12.5514 1289 115.106 778.747 467.915
3094 0 106.632 12.5385 1337 115.09 779.168 466.74
3095 0 111.572 12.0549 1345 117.001 778.738 462.895
3096 0 112.675 12.931 1457 115.292 778.94 461.368
3097 0 116.504 12.1455 1415 93.2438 779.85 457.3
3098 1 66.3325 10.1459 673 112.663 780.617 486.869
3099 0 68.3881 11.1715 764 110.44 780.808 487.384
3100 0 71.2554 12.1956 869 108.209 780.65 484.386
3101 0 73.2488 11.6179 851 109.793 780.533 485.108
3102 0 73.4569 10.9588 805 112.774 780.328 484.278
3103 0 80.4277 13.6396 1097 104.88 780.93 481.401
3104 0 80.4556 12.8767 1036 107.546 780.598 482.015
3105 0 83.3646 12.3913 1033 109.51 780.567 479.687
3106 0 86.2669 12.9598 1118 109.639 780.162 478.916
3107 0 90.512 13.744 1244 107.477 781.009 475.874
3108 0 89.4268 12.5018 1118 112.859 780.625 474.882
3109 0 92.5886 11.7509 1088 114.675 780.646 474.159
3110 0 95.387 13.1884 1258 111.524 780.335 472.906
3111 0 97.5655 12.7197 1241 113.343 780.119 468.262
3112 0 101.476 12.535 1272 113.193 780.098 468.579
3113 0 103.486 12.6587 1310 113.874 779.956 466.316
3114 0 105.654 11.5566 1221 116.934 779.469 465.469
3115 1 61.3642 11.8147 725 112.363 780.172 486.952
3116 0 64.5331 11.8079 762 107.867 780.009 484.483
3117 0 67.7132 11.6964 792 104.178 779.625 482.894
3118 0 67.6831 12.2483 829 114.311 780.575 487.08
3119 0 70.5499 11.8072 833 115.294 780.964 486.93
3120 0 69.4486 10.4394 725 120.189 781.057 485.378
3121 0 75.5651 13.1145 991 112.248 780.911 484.524
3122 0 76.6028 11.8142 905 115.422 780.282 484.936
3123 0 78.6627 12.4583 980 114.921 779.75 483.228
3124 0 80.5786 12.373 997 116.598 780.689 481.163
3125 0 82.5386 10.8919 899 119.385 780.627 481.159
3126 0 84.6433 13.4919 1142 113.881 780.285 477.867
3127 0 85.8851 11.5969 996 119.13 781.053 475.162
3128 0 89.7065 11.2478 1009 118.278 780.709 476.085
3129 0 91.6667 12.3054 1128 117.59 779.733 473.355
3130 0 93.6666 12.726 1192 117.106 780.409 469.199
3131 0 96.8639 11.5833 1122 118.237 779.885 468.674
3132 0 100.673 11.1251 1120 117.75 779.738 470.038
3133 0 103.711 11.397 1182 114.102 780.392 468.684
3134 0 103.574 9.21076 954 113.421 780.373 470.623
3135 0 107.686 9.88982 1065 111.784 779.638 464.105
3136 1 67.3128 11.6917 787 99.0102 779.292 486.821
3137 0 67.5036 10.4291 704 102.31 779.673 482.74
3138 0 68.2427 10.7557 734 102.332 780.125 484.421
3139 0 70.0803 11.8293 829 104.712 782.344 485.207
3140 0 73.0947 12.6138 922 101.927 782.198 486.087
3141 0 75.184 11.545 868 105.192 782.333 483.172
3142 0 78.0891 14.0353 1096 99.9106 782.399 483.419
3143 0 77.158 11.7551 907 105.72 782.581 482.109
3144 0 81.1535 13.5669 1101 101.878 782.886 480.599
3145 0 80.1829 11.4488 918 108.33 782.734 477.187
3146 0 82.1658 11.4281 939 110.719 782.826 476.261
3147 0 86.1485 12.3508 1064 107.88 782.852 475.74
3148 0 88.265 11.6921 1032 109.566 782.763 474.571
3149 0 91.1969 11.5026 1049 109.954 782.383 473.756
3150 0 95.1756 12.5978 1199 107.104 782.624 473.052
3151 0 96.2261 11.8159 1137 108.923 782.502 474.339
3152 0 97.1174 11.4295 1110 110.346 782.719 468.878
3153 1 55.1105 10.6513 587 111.397 783.024 493.589
3154 0 58.2346 11.1617 650 109.226 779.282 494.211
3155 0 59.335 10.4323 619 112.237 779.008 493.207
3156 0 62.108 11.5766 719 109.914 778.7 493.389
3157 0 64.185 11.794 757 108.333 777.934 495.824
3158 0 63.1199 11.9931 757 110.869 777.844 493.53
3159 0 64.0827 11.1731 716 113.946 777.163 490.133
3160 0 68.1174 11.9059 811 110.697 777.349 491.205
3161 0 69.1618 12.0442 833 110.378 777.709 491.261
3162 0 71.0363 13.0637 928 108.942 777.737 489.18
3163 0 73.0515 12.3201 900 111.193 777.96 489.163
3164 0 77.1133 12.9809 1001 109.997 777.511 488.424
3165 0 75.1226 12.4064 932 114.341 778.085 487.799
3166 0 77.0819 12.6229 973 114.347 777.651 483.837
3167 0 80.1294 12.8043 1026 113.656 777.873 486.108
3168 0 83.0469 12.8361 1066 114.151 778.158 483.553
3169 0 87.1831 13.443 1172 111.308 777.904 485.015
3170 0 87.3096 13.0341 1138 113.249 777.562 484.064
3171 0 91.0608 12.8705 1172 113.801 777.668 484.07
3172 0 93.1135 13.7467 1280 112.619 777.356 479.904
3173 0 98.2675 12.8425 1262 114.555 777.273 479.314
3174 0 99.1331 13.4264 1331 113.424 777.944 478.917
3175 0 102.28 13.9519 1427 112.931 777.354 476.842
3176 0 104.206 12.8112 1335 116.017 778.201 473.297
3177 0 106.465 13.1968 1405 114.373 778.327 474.881
3178 1 61.1688 11.4111 698 111.626 778.686 496.514
3179 0 62.1644 12.097 752 109.943 778.592 496.124
3180 0 62.2734 10.8714 677 113.653 778.433 495.188
3181 0 63.3828 11.3438 719 117.72 778.46 493.384
3182 0 66.4257 12.5102 831 115.197 778.605 491.917
3183 0 68.3525 13.2695 907 112.889 778.904 491.325
3184 0 70.4128 12.5829 886 114.808 778.889 490.96
3185 0 70.576 11.9729 845 116.566 778.947 491.224
3186 0 72.3711 12.5326 907 116.891 779.128 487.998
3187 0 74.3821 13.5113 1005 114.926 779.097 487.378
3188 0 78.4376 14.0366 1101 111.042 779.001 488.831
3189 0 77.4239 13.7684 1066 114.716 778.353 485.182
3190 0 82.4325 14.2056 1171 110.827 778.436 488.465
3191 0 82.4118 13.566 1118 115.464 779.066 483.86
3192 0 86.4814 13.3786 1157 115.156 779.278 483.573
3193 0 87.5209 12.8884 1128 116.652 779.066 482.343
3194 0 90.3001 13.887 1254 114.972 779.333 480.551
3195 0 91.5534 13.2273 1211 116.813 778.993 476.981
3196 0 95.4321 13.8737 1324 114.521 778.011 477.506
3197 0 97.644 12.5661 1227 117.565 778.645 477.721
3198 1 57.3654 11.6621 669 113.025 777.601 498.256
3199 0 57.3259 11.6876 670 112.915 777.603 497.328
3200 0 60.3356 13.2592 800 108.975 777.825 496.868
3201 0 62.6701 12.5897 789 111.501 778.643 491.271
3202 0 62.2996 12.1189 755 112.972 777.856 494.877
3203 0 64.4312 13.7045 883 109.219 777.945 494.02
3204 0 66.4051 13.7489 913 109.31 778.509 492.432
3205 0 66.3561 13.2316 878 112.106 778.191 489.556
3206 0 69.3506 12.4729 865 113.14 778.609 490.323
3207 0 70.2597 12.2545 861 113.528 778.265 491.085
3208 0 71.3494 12.8943 920 111.783 777.795 489.996
3209 0 71.3125 13.4619 960 112.793 777.897 485.807
3210 0 77.3452 12.9808 1004 111.616 778.527 486.602
3211 0 77.2938 12.7307 984 113.289 778.177 483.893
3212 0 80.5191 13.3385 1074 111.772 778.646 481.85
3213 0 82.4214 12.2784 1012 114.445 778.202 481.809
3214 0 85.3922 14.4861 1237 108.402 778.084 482.268
3215 0 87.4535 13.39 1171 111.316 777.903 479.061
3216 0 90.2567 13.2068 1192 111.418 777.746 478.293
3217 0 93.0977 11.547 1075 110.834 777.22 477.254
3218 1 54.0827 11.5934 627 106.847 776.404 498.233
3219 0 55.1096 12.2302 674 102.984 776.766 497.447
3220 0 56.1327 12.898 724 105.532 776.642 495.431
3221 0 57.0941 12.1203 692 107.665 776.773 495.188
3222 0 58.0692 12.5023 726 107.882 776.967 493.215
3223 0 60.0605 12.2377 735 109.537 776.838 493.537
3224 0 62.0895 11.8378 735 110.358 777.216 492.15
3225 0 64.0866 14.1215 905 104.188 777.206 490.915
3226 0 63.0837 12.8401 810 107.656 778.036 488.509
3227 0 69.0609 14.4365 997 101.975 777.632 489.725
3228 0 67.0589 12.2131 819 109.161 777.799 490.096
3229 0 71.0683 12.9031 917 107.348 777.878 488.095
3230 0 71.0854 14.56 1035 104.472 778.397 486.902
3231 0 73.2312 13.1774 965 107.83 777.664 487.684
3232 0 73.1159 13.2803 971 108.977 778.116 485.417
3233 0 75.2259 13.4129 1009 108.411 778.247 482.089
3234 0 78.2235 12.2214 956 110.071 778.595 483.846
3235 0 82.1591 14.1676 1164 105.201 778.267 480.625
3236 0 84.2344 12.7145 1071 107.319 778.645 480.852
3237 0 88.2659 13.6972 1209 105.498 778.665 476.021
3238 0 90.1646 13.1426 1185 105.657 778.641 477.232
3239 0 93.2068 13.4218 1251 106.348 778.806 474.56
3240 1 53.0447 9.48256 503 104.934 778.543 490.976
3241 0 52.1123 9.72899 507 104.229 778.968 489.947
3242 0 54.1015 9.42672 510 105.092 778.612 488.275
3243 0 56.0346 11.2074 628 103.976 778.325 487.439
3244 0 58.1161 12.4062 721 103.91 777.336 487.311
3245 0 58.0426 12.3013 714 106.326 778.074 484.985
3246 0 58.1173 11.4596 666 109.541 778.305 482.258
3247 0 63.0531 10.6735 673 109.492 778.174 482.429
3248 0 64.0644 10.9733 703 109.397 778.055 483.195
3249 0 66.0356 12.463 823 106.593 777.31 481.878
3250 0 64.0463 10.6954 685 113.547 777.87 480.606
3251 0 64.1154 9.982 640 115.556 777.061 478.53
3252 0 69.0745 11.0171 761 112.746 777.251 478.184
3253 0 68.0519 11.0063 749 113.876 777.521 474.981
3254 0 75.0441 11.7931 885 109.965 777.449 476.262
3255 0 74.0453 12.4788 924 109.675 777.978 471.528
3256 0 81.1325 10.8588 881 111.493 777.411 473.104
3257 0 83.1309 11.4879 955 116.93 777.838 478.005
3258 0 85.1501 11.65 992 111.58 779.556 479.238
3259 0 88.1186 12.6874 1118 109.486 780.04 476.427
3260 0 93.0768 11.238 1046 111.987 779.149 476.888
3261 1 53.0614 10.893 578 110.353 779.254 495.737
3262 0 56.0844 11.5005 645 110.074 778.546 492.878
3263 0 56.214 10.8158 608 112.229 778.053 493.457
3264 0 59.1505 11.5806 685 110.87 778.073 492.318
3265 0 58.1176 10.0314 583 108.295 779.003 491.566
3266 0 60.0239 10.9956 660 105.086 778.008 493.556
3267 0 63.0861 10.8423 684 104.484 777.654 493.18
3268 0 64.0305 11.6819 748 101.944 777.805 493.849
3269 0 63.0496 10.9596 691 106.453 777.551 489.276
3270 0 65.115 12.1785 793 104.917 778.067 487.905
3271 0 70.2023 11.1535 783 104.88 779.126 488.455
3272 0 71.1969 11.0539 787 104.686 778.492 486.424
3273 0 72.2505 11.3494 820 104.584 779.062 486.451
3274 0 71.2059 9.84468 701 108.019 779.04 486.853
3275 0 76.1104 10.2745 782 108.425 778.116 485.705
3276 0 79.1682 12.1766 964 104.892 778.816 485.652
3277 0 81.1642 11.9511 970 106.073 779.206 484.38
3278 0 83.1603 12.2655 1020 107.205 779.442 480.879
3279 0 85.1404 10.9936 936 110.142 778.232 480.396
3280 0 85.329 11.0279 941 110.319 778.598 480.234
3281 0 89.2364 11.1277 993 110.895 778.91 476.942
3282 0 94.2387 10.9085 1028 112.171 778.567 476.942
3283 0 96.1574 11.2004 1077 113.051 778.425 474.413
3284 0 97.1739 11.9168 1158 113.731 778.512 472.853
3285 0 101.187 11.2366 1137 116.663 778.907 472.166
3286 0 105.268 11.3805 1198 118.655 778.844 471.477
3287 1 65.0339 10.9328 711 116.233 778.027 489.703
3288 0 67.1305 11.5447 775 114.339 778.225 490.449
3289 0 69.2425 11.6403 806 114.933 779.03 488.305
3290 0 69.1332 10.9499 757 111.048 778.075 487.439
3291 0 72.2409 12.0015 867 110.084 777.919 488.781
3292 0 70.128 10.7375 753 113.854 778.23 487.425
3293 0 74.129 11.7633 872 109.63 778.322 487.469
3294 0 75.1332 12.1651 914 109.7 778.402 484.96
3295 0 77.1791 11.4409 883 113.285 778.386 482.121
3296 0 79.1123 11.1234 880 112.056 778.066 483.431
3297 0 82.1648 12.4506 1023 109.322 778.74 481.327
3298 0 85.2137 12.1929 1039 108.949 778.403 480.543
3299 0 88.1409 12.0149 1059 108.919 778.828 480.712
3300 0 91.1729 11.6482 1062 111.336 778.815 478.589
3301 0 93.2264 11.5096 1073 113.569 779.477 477.432
3302 0 95.204 11.0184 1049 114.892 779.936 475.65
3303 0 98.2255 10.0483 987 117.969 779.516 472.587
3304 1 53.1378 10.6704 567 110.31 778.769 494.404
3305 0 55.0834 10.9107 601 107.536 779.418 495.669
3306 0 56.0893 10.7864 605 107.349 779.4 492.706
3307 0 57.3192 9.57795 549 110.852 778.2 496.268
3308 0 59.0652 10.1583 600 110.255 778.523 494.497
3309 0 60.0506 11.1573 670 111.658 778.779 490.951
3310 0 61.1046 11.1612 682 111.33 779.028 491.38
3311 0 64.1316 11.1645 716 111.541 778.825 490.45
3312 0 65.0627 11.7425 764 110.382 778.598 490.279
3313 0 66.2851 10.3945 689 113.813 779.289 489.586
3314 0 68.199 10.8653 741 112.092 779.016 489.694
3315 0 65.1051 10.3525 674 115.74 779.092 485.042
3316 0 65.1051 10.3832 676 132.272 779.105 485.232
3317 0 71.1566 10.5964 754 112.655 780.191 487.308
3318 0 73.09 10.8086 790 113.595 780.332 485.296
3319 0 74.1113 9.98498 740 115.396 780.412 483.609
3320 0 75.1873 10.4007 782 115.454 780 479.394
3321 0 79.2429 10.7013 848 112.801 779.913 483.952
3322 0 82.1938 10.0981 830 114.169 779.339 482.137
3323 0 83.2547 10.9543 912 111.974 779.612 479.673
3324 0 89.3006 10.9854 981 111.083 779.634 477.225
3325 0 89.19 9.76567 871 113.7 779.418 477.728
3326 0 95.4687 11.5326 1101 110.478 779.595 473.869
3327 0 97.3802 10.382 1011 112.305 779.149 476.014
3328 1 54.1314 10.4745 567 108.713 778.369 496.381
3329 0 51.1214 9.36985 479 113.605 778.86 494.058
3330 0 56.3844 11.262 635 106.923 779.463 492.657
3331 0 57.2472 12.0006 687 105.061 778.622 492.252
3332 0 57.2845 11.1548 639 107.075 778.562 492.144
3333 0 57.3752 10.2135 586 109.329 778.51 490.669
3334 0 60.1573 10.3229 621 108.18 778.926 490.301
3335 0 62.4213 10.5733 660 107.33 778.502 488.521
3336 0 64.2027 11.4793 737 104.712 778.701 488.741
3337 0 66.2604 11.5001 762 104.303 779.507 488.899
3338 0 65.0852 10.4325 679 109.633 778.409 485.695
3339 0 63.173 10.3209 652 110.072 777.788 488.919
3340 0 70.2286 10.8218 760 108.249 777.464 485.743
3341 0 69.0809 10.9726 758 109.744 777.666 484.364
3342 0 72.0357 11.7442 846 109.283 777.61 481.683
3343 0 72.1098 11.3577 819 110.853 778.077 481.96
3344 0 75.1905 10.879 818 111.831 778.049 480.691
3345 0 75.1782 12.1844 916 110.5 778.4 480.34
3346 0 79.1088 12.0593 954 110.977 778.129 477.401
3347 0 78.1384 11.4156 892 114.149 777.891 477.152
3348 0 80.03 11.3457 908 114.7 777.515 476.521
3349 0 81.094 10.605 860 117.53 777.658 473.335
3350 0 87.2292 11.5558 1008 113.474 777.435 474.976
3351 0 87.0993 11.9519 1041 115.177 778.319 471.926
3352 0 91.1692 12.2848 1120 114.398 778.632 470.393
3353 0 93.1465 10.2419 954 119.629 778.217 469.328
3354 1 48.0511 9.69802 466 116.176 777.938 483.17
3355 0 52.0728 9.67877 504 114.002 778.704 483.306
3356 0 52.0223 10.5724 550 112.298 778.275 485.275
3357 0 53.0599 11.176 593 112.89 778.265 485.4
3358 0 56.02 12.3349 691 109.456 778.611 484.418
3359 0 58.064 11.7629 683 110.785 777.788 485.426
3360 0 59.0695 11.0209 651 113.276 778.174 484.29
3361 0 59.0649 11.1403 658 114.524 778.281 481.45
3362 0 62.0264 12.0433 747 112.015 778.589 479.62
3363 0 64.0784 12.4847 800 110.466 777.524 482.418
3364 0 67.042 11.5897 777 112.255 778.542 478.306
3365 0 68.0984 12.5407 854 111.37 778.563 478.297
3366 0 67.038 11.8291 793 115.119 777.947 474.165
3367 0 74.1097 13.1832 977 110.707 778.443 474.895
3368 0 74.1142 12.2649 909 113.439 777.956 473.482
3369 0 79.083 13.1634 1041 109.918 778.13 472.817
3370 0 83.1141 12.6573 1052 110.319 777.583 474.218
3371 0 84.1112 11.9366 1004 114.15 778.404 469.101
3372 0 86.1599 12.6625 1091 111.463 778.867 469.636
3373 0 88.1419 12.321 1086 113.936 778.703 466.304
3374 0 90.1472 12.9677 1169 112.76 778.165 466.785
3375 0 93.1855 12.4483 1160 113.649 777.89 467.306
3376 0 97.2079 11.6143 1129 114.497 777.673 467.837
3377 0 99.1549 11.598 1150 117.114 778.75 465.648
3378 0 103.277 13.0909 1352 112.268 778.262 463.541
3379 0 108.151 12.2791 1328 113.421 778.471 463.011
3380 0 109.547 11.721 1284 114.681 778.784 462.699
3381 1 61.0538 9.86015 602 107.993 778.654 484.628
3382 0 65.1751 11.4921 749 103.19 778.085 486.029
3383 0 66.2064 10.4824 694 104.597 778.509 485.816
3384 0 73.1633 12.2739 898 101.843 778.07 485.84
3385 0 74.1272 13.234 981 100.543 777.535 484.307
3386 0 77.0977 13.6969 1056 99.2727 778.355 484.347
3387 0 78.1673 12.3325 964 103.35 778.259 483.618
3388 0 77.2483 12.0779 933 106.055 777.994 480.806
3389 0 83.232 12.8316 1068 102.964 777.435 479.586
3390 0 85.208 13.0856 1115 102.638 777.683 479.441
3391 0 88.183 12.2132 1077 103.865 777.355 478.736
3392 0 91.2741 14.1113 1288 99.6172 777.634 479.021
3393 0 94.162 13.5617 1277 101.955 777.875 475.574
3394 0 96.2977 13.1986 1271 102.928 778.302 474.024
3395 0 100.27 13.2642 1330 103.229 778.719 472.255
3396 1 53.1611 9.98851 531 107.879 777.684 494.232
3397 0 50.035 8.45408 423 108.671 778.225 492.804
3398 0 56.0588 10.8636 609 101.665 778.353 493.81
3399 0 57.0667 10.3563 591 108.491 778.717 491.868
3400 0 58.0915 11.9639 695 104.814 778.768 490.121
3401 0 58.1284 11.1305 647 106.909 779.433 492.468
3402 0 60.1518 11.3879 685 107.231 778.689 488.769
3403 0 61.1832 10.869 665 107.758 779.045 490.268
3404 0 61.134 10.387 635 110.463 778.641 487.775
3405 0 67.1674 10.9577 736 108.167 778.825 487.936
3406 0 68.1278 12.3738 843 106.112 778.425 487.469
3407 0 68.0642 10.4901 714 111.417 778.751 482.342
3408 0 70.0891 11.4997 806 108.754 778.283 483.847
3409 0 74.1567 12.8512 953 105.903 779.265 483.705
3410 0 74.1081 12.5897 933 109.109 778.15 477.667
3411 0 77.1094 11.6977 902 111.598 778.504 475.324
3412 0 78.0786 12.6923 991 109.509 778.757 477.526
3413 0 84.107 12.7932 1076 108.36 778.655 477.334
3414 0 84.1137 12.5307 1054 110.172 778.305 476.58
3415 0 88.3292 12.7138 1123 110.201 778.846 474.362
3416 0 88.2751 12.2345 1080 112.791 778.815 470.047
3417 0 92.4409 12.5269 1158 111.802 778.157 472.192
3418 0 96.2184 13.6045 1309 109.066 778.574 470.296
3419 0 98.3579 14.0304 1380 108.72 778.537 469.192
3420 0 101.381 14.2433 1444 108.704 778.85 466.776
3421 0 100.217 12.2235 1225 114.546 778.941 465.86
3422 0 107.163 12.7936 1371 111.754 778.616 464.201
3423 0 107.267 13.1635 1412 112.259 778.544 463.489
3424 0 110.406 13.3235 1471 112.555 778.545 462.978
3425 0 114.38 13.9884 1600 110.659 777.955 461.792
3426 0 116.162 13.1197 1524 113.153 777.402 458.497
3427 0 121.253 13.6409 1654 111.353 778.225 460.198
3428 0 125.366 13.8236 1733 111.023 778.718 456.497
3429 0 127.466 12.929 1648 114.346 778.613 452.222
3430 1 76.2337 11.0843 845 103.266 778.773 481.883
3431 0 79.5463 12.6593 1007 100.328 779.565 478.074
3432 0 82.3305 11.381 937 100.671 781.159 482.7
3433 0 82.3797 12.5152 1031 100.463 781.066 478.877
3434 0 85.2746 13.1458 1121 98.2533 780.373 474.953
3435 0 85.3302 10.8402 925 104.131 780.634 476.043
3436 0 92.3066 13.3902 1236 97.3406 780.182 476.443
3437 0 95.3305 11.2136 1069 104.196 781.094 472.141
3438 0 96.501 10.9843 1060 105.836 780.492 470.62
3439 0 96.3754 10.1167 975 109.587 780.468 466.776
3440 0 104.427 11.8265 1235 104.202 780.779 470.618
3441 0 105.373 11.5684 1219 105.629 780.713 465.017
3442 0 109.412 11.443 1252 104.884 780.524 466.144
3443 0 106.281 9.54073 1014 110.974 779.767 460.255
3444 0 115.588 11.939 1380 104.412 779.176 463.91
3445 1 62.4354 9.83416 614 98.7769 779.425 488.008
3446 0 62.4281 9.2106 575 102.485 780.033 481.852
3447 0 65.3382 10.7288 701 98.4308 780.538 479.736
3448 0 67.2036 10.6839 718 96.3593 782.34 485.811
3449 0 67.183 8.87129 596 100.408 781.857 481.438
3450 0 72.0505 10.8951 785 95.2369 781.597 483.882
3451 0 73.1322 11.6091 849 93.7809 780.923 483.171
3452 0 74.139 11.0064 816 96.0221 781.087 477.884
3453 0 76.1389 11.479 874 95.2483 781.908 476.911
3454 0 81.0849 11.3091 917 95.2061 781.588 478.791
3455 0 83.1189 11.3813 946 96.0867 781.497 474.187
3456 0 86.1641 11.0951 956 95.8588 781.35 476.619
3457 0 88.1398 12.4461 1097 94.1787 781.506 473.738
3458 0 89.1318 9.83936 877 99.6385 781.678 473.33
3459 0 93.2331 13.2571 1236 93.0995 781.275 473.367
3460 0 95.2202 11.4997 1095 98.1059 780.843 472.496
3461 0 98.3165 11.0561 1087 99.7047 779.789 469.586
3462 0 102.36 11.5573 1183 97.5672 780.441 468.723
3463 0 105.207 11.6912 1230 97.7772 779.978 468.273
3464 1 58.0299 10.3395 600 97.9417 781.298 490.368
3465 0 62.0505 10.1853 632 95.4826 781.187 491.598
3466 0 62.1149 11.4304 710 93.9028 780.677 487.39
3467 0 66.1302 10.4188 689 95.3817 780.756 488.199
3468 0 65.0587 10.8979 709 95.6559 780.43 485.914
3469 0 68.0725 11.9725 815 93.9288 780.334 486.223
3470 0 72.0822 12.8464 926 92.1911 780.982 485.907
3471 0 69.2084 10.519 728 98.9505 780.034 483.044
3472 0 74.2945 12.2889 913 97.2815 781.21 482.398
3473 0 76.1024 12.9168 983 95.4822 781.31 482.185
3474 0 79.1064 12.9446 1024 94.6914 780.806 481.872
3475 0 78.0922 11.7297 916 99.191 781.294 480.003
3476 0 83.0931 12.8771 1070 96.0346 781.123 479.239
3477 0 84.0938 12.058 1014 98.6913 781.434 478.872
3478 0 87.0709 12.3003 1071 98.6256 781.429 478.458
3479 0 89.1205 13.1507 1172 98.0222 781.485 475.659
3480 0 87.1028 11.8021 1028 103.161 781.276 474.614
3481 0 90.1182 12.5058 1127 101.474 781.489 473.658
3482 0 92.0836 11.4678 1056 104.824 781.572 474.141
3483 0 93.3379 11.0138 1028 106.241 781.138 471.96
3484 0 95.2374 10.5001 1000 108.413 781.328 470.164
3485 0 94.1329 10.7295 1010 109.575 781.623 469.68
3486 0 101.348 12.7087 1288 104.085 781.729 467.97
3487 0 98.1799 11.265 1106 109.44 781.518 463.399
3488 0 102.155 11.0421 1128 109.104 780.601 464.341
3489 0 99.1977 12.1575 1206 108.652 780.303 454.03
3490 0 107.23 11.8437 1270 108.634 780.82 452.582
3491 0 110.473 11.3693 1256 110.253 779.99 452.303
3492 1 39.1147 8.05325 315 98.4127 779.511 486.063
3493 0 44.0645 9.71304 428 88.1332 781.264 489.145
3494 0 51.0372 9.20896 470 100.577 781.291 498.591
3495 0 52.0516 10.163 529 101.597 781.548 495.329
3496 0 55.0565 11.3157 623 99.0385 780.992 494.258
3497 0 54.0431 11.0837 599 101.434 781.631 494.149
3498 0 56.0614 10.7025 600 102.098 780.93 493.778
3499 0 54.0333 9.67921 523 107.751 780.975 489.591
3500 0 57.0378 9.44987 539 107.946 781.286 491.909
3501 0 58.0619 10.971 637 105.377 781.355 491.821
3502 0 60.0762 10.9694 659 107.232 781.546 489.038
3503 0 60.0872 10.4016 625 110.926 781.144 488.754
3504 0 62.065 9.92508 616 112.865 780.607 488.571
3505 0 65.0748 10.2805 669 112.342 780.942 487.112
3506 0 67.1299 11.4554 769 109.131 781.182 488.533
3507 0 71.0752 12.8174 911 106.509 782.833 486.673
3508 0 71.1913 11.6166 827 111.19 781.221 485.013
3509 0 73.104 11.4631 838 111.797 780.49 485.039
3510 0 72.0874 10.626 766 115.634 782.097 482.384
3511 0 78.1373 12.6188 986 108.386 781.816 484.021
3512 0 81.0969 12.7132 1031 108.409 781.772 482.878
3513 0 79.1292 12.1573 962 111.955 782.154 482.918
3514 0 83.1186 12.0671 1003 111.818 781.423 482.632
3515 0 86.1284 12.3653 1065 111.704 781.618 481.758
3516 1 51.1164 9.13602 467 113.218 781.343 496.375
3517 0 53.0484 9.80237 520 114.09 781.488 496.902
3518 0 54.0261 11.1798 604 114.093 782.151 494.402
3519 0 58.0423 10.9403 635 112.506 781.951 495.02
3520 0 59.5639 12.4404 741 112.354 780.152 490.283
3521 0 60.5761 11.4071 691 114.631 780.436 489.719
3522 0 60.0633 11.8708 713 114.327 777.562 493.56
3523 0 63.1126 12.2163 771 114.55 777.07 490.161
3524 0 66.0548 11.2482 743 117.876 777.681 489.758
3525 0 66.0956 12.4819 825 115.199 777.469 490.229
3526 0 66.1852 11.4225 756 119.841 777.406 488.611
3527 0 68.1433 12.0628 822 119.31 777.483 487.689
3528 0 69.118 11.7914 815 120.864 777.6 484.779
3529 0 72.0691 11.6 836 120.895 778.14 484.745
3530 0 72.1186 13.1034 945 118.485 778.269 485.043
3531 0 74.0467 12.1275 898 121.925 778.333 483.575
3532 0 76.1173 13.0062 990 119.906 778.197 482.607
3533 0 76.2272 11.2821 860 125.257 778.034 482.543
3534 0 79.2006 12.6767 1004 121.719 777.526 482.32
3535 0 81.1008 11.9111 966 123.446 777.41 482.672
3536 0 85.1295 11.3474 966 124.404 777.964 481.945
3537 0 85.1063 12.643 1076 123.194 778.14 477.734
3538 0 87.1069 12.3297 1074 124.725 777.679 475.792
3539 0 89.1328 12.8348 1144 122.603 778.3 476.894
3540 0 92.2333 12.013 1108 125.6 778.131 474.282
3541 0 92.3478 12.2364 1130 126.303 778.097 472.716
3542 0 98.3015 13.2348 1301 122.59 778.261 470.623
3543 0 99.2087 13.2347 1313 122.822 778.039 468.811
3544 0 102.225 13.1083 1340 122.818 778.358 466.851
3545 0 104.237 12.5675 1310 124.527 778.164 467.292
3546 0 108.466 13.1931 1431 122.929 778.654 465.823
3547 1 61.4018 10.0486 617 121.238 779.668 490.292
3548 0 64.6288 11.7904 762 118.215 779.732 485.587
3549 0 68.5923 12.2317 839 117.216 779.21 482.753
3550 0 69.1737 11.4928 795 117.786 777.169 487.306
3551 0 72.2757 12.5215 905 114.99 778.004 485.061
3552 0 70.1022 12.3534 866 117.293 777.418 482.443
3553 0 72.1669 11.2933 815 119.656 777.212 484.357
3554 0 76.1985 13.2286 1008 114.568 777.955 482.035
3555 0 78.1749 11.3847 890 117.875 777.427 480.807
3556 0 79.1639 11.6594 923 118.567 777.911 478.878
3557 0 82.1774 12.8867 1059 114.451 777.563 480.05
3558 0 83.1784 12.0945 1006 118.055 777.888 474.48
3559 0 86.147 12.8849 1110 115.012 778.9 474.67
3560 0 91.3483 14.0342 1282 110.615 778.314 476.658
3561 0 92.3373 13.3207 1230 113.332 778.42 473.607
3562 0 95.3933 13.9423 1330 111.72 778.789 471.279
3563 0 98.2684 12.0893 1188 117.231 778.71 469.787
3564 0 99.3344 12.9965 1291 115.278 778.587 469.323
3565 0 105.504 13.336 1407 113.034 778.803 467.316
3566 0 107.26 13.5651 1455 112.337 778.272 467.656
3567 1 58.3268 10.9041 636 115.693 778.535 489.417
3568 0 59.4646 9.98913 594 108.143 780.675 486.951
3569 0 61.4803 10.6213 653 113.585 780.959 488.207
3570 0 65.5177 12.5157 820 113.726 781.348 488.196
3571 0 63.4662 12.8888 818 115.388 780.521 486.048
3572 0 65.3446 11.7684 769 118.889 781.334 485.7
3573 0 69.5451 12.6824 882 115.349 781.378 486.387
3574 0 70.5458 12.7577 900 116.756 781.447 484.052
3575 0 73.6117 11.6829 860 119.91 782.27 485.206
3576 0 73.4377 12.868 945 118.556 781.377 484.407
3577 0 76.4037 13.2585 1013 118.259 781.381 483.545
3578 0 76.4604 13.2748 1015 120.437 781.168 482.138
3579 0 79.5584 12.8962 1026 122.212 781.39 480.88
3580 0 82.4918 13.8196 1140 120.055 780.94 479.079
3581 0 84.6775 13.1086 1110 122.016 780.081 477.603
3582 0 87.5046 12.9593 1134 123.728 780.664 474.922
3583 0 88.5987 13.2282 1172 124.805 781.018 471.328
3584 0 93.5274 13.5148 1264 123.385 779.952 470.492
3585 0 94.4362 12.0505 1138 123.56 780.772 473.011
3586 0 95.8245 11.2602 1079 127.025 780.381 467.67
3587 0 98.6955 12.4119 1225 124.481 780.224 461.742
3588 0 102.749 12.2727 1261 123.356 779.694 462.56
3589 0 106.609 12.2128 1302 124.852 779.915 460.373
3590 1 61.6255 9.62263 593 117.874 780.039 484.813
3591 0 65.5953 12.0283 789 115.677 780.928 482.951
3592 0 64.5993 11.254 727 119.226 780.739 485.432
3593 0 68.568 12.7319 873 121.06 781.417 487.446
3594 0 71.5121 13.2146 945 119.493 781.229 487.604
3595 0 72.3777 12.7525 923 122.379 781.179 484.259
3596 0 74.4871 13.3177 992 120.495 781.352 484.696
3597 0 73.3727 12.7704 937 123.407 780.208 481.676
3598 0 77.4074 12.8799 997 121.993 780.653 483.6
3599 0 79.4248 12.8801 1023 123.658 781.086 479.904
3600 0 82.5373 13.0365 1076 122.009 781.114 480.16
3601 0 82.4141 12.3887 1021 123.932 781.096 477.867
3602 0 85.5264 12.3354 1055 124.587 781.172 475.273
3603 0 88.5263 12.8888 1141 121.83 781.551 476.181
3604 0 89.58 12.38 1109 123.555 780.992 473.857
3605 0 93.4413 11.7828 1101 123.797 781.274 470.083
3606 0 92.7454 11.2782 1046 126.112 781.245 470.087
3607 0 96.6099 12.2348 1182 123.629 781.313 467.679
3608 0 100.519 13.9177 1399 118.549 781.563 466.35
3609 0 102.382 12.5901 1289 122.314 781.612 463.382
3610 0 105.582 12.4168 1311 122.059 781.751 465.739
3611 0 109.339 13.6548 1493 112.753 781.504 464.589
3612 1 59.1268 9.35279 553 115.479 782.899 488.15
3613 0 65.1978 12.5004 815 109.465 780.006 483.723
3614 0 66.1312 10.706 708 109.042 780.232 482.331
3615 0 68.1306 12.0944 824 105.455 780.007 484.518
3616 0 70.2409 11.9304 838 107.112 779.376 485
3617 0 72.1997 11.5651 835 107.648 779.687 484.308
3618 0 72.0659 11.2675 812 109.961 779.107 482.267
3619 0 71.1591 10.7646 766 111.607 779.641 481.106
3620 0 74.2486 11.677 867 109.332 779.266 480.765
3621 0 78.1706 12.332 964 108.411 779.505 479.285
3622 0 79.2332 12.6588 1003 107.786 779.82 480.435
3623 0 83.1643 12.6016 1048 108.255 779.995 478.288
3624 0 85.1268 13.6032 1158 107.193 779.467 478.944
3625 0 87.2876 13.1405 1147 108.816 780.009 474.437
3626 0 88.2359 11.4012 1006 114.038 780.065 474.387
3627 0 91.1251 12.9163 1177 111.183 780.562 474.223
3628 0 94.1563 14.391 1355 109.443 780.634 473.207
3629 0 94.226 12.8096 1207 113.928 780.193 473.077
3630 0 97.2136 12.5085 1216 113.275 780.324 473.801
3631 0 100.172 12.4287 1245 115.091 779.589 470.051
3632 0 104.181 12.939 1348 113.553 779.73 469.857
3633 0 107.205 12.9379 1387 113.283 779.115 465.779
3634 0 106.198 13.0228 1383 112.946 779.671 461.774
3635 1 44.0661 8.28302 365 100.868 779.011 489.781
3636 0 43.1407 9.43425 407 101.327 780.541 486.752
3637 0 48.0375 10.0338 482 103.5 783.583 493.488
3638 0 53.0924 11.5647 614 98.8094 783.244 495.834
3639 0 51.0424 9.63904 492 104.882 782.746 493.144
3640 0 53.026 12.6542 671 98.4292 783.525 494.699
3641 0 53.1718 10.4191 554 103.318 783.294 492.93
3642 0 55.081 10.185 561 105.157 783.599 491.909
3643 0 56.0851 11.8213 663 102.449 783.667 492.398
3644 0 58.0736 11.0894 644 104.356 782.694 491.957
3645 0 60.0399 10.3265 620 104.874 783.265 492.098
3646 0 62.1266 12.2975 764 102.228 782.77 490.305
3647 0 59.1014 10.6258 628 107.65 782.885 487.989
3648 0 64.1059 11.5746 742 105.257 782.867 488.925
3649 0 64.2021 11.5572 742 106.779 782.646 486.364
3650 0 67.0777 10.6444 714 107.906 782.916 486.385
3651 0 68.0557 11.7551 800 105.603 782.814 487.738
3652 0 71.1182 13.0487 928 102.454 782.719 485.922
3653 0 73.0369 12.9797 948 103.45 782.866 484.483
3654 0 74.2797 11.699 869 105.963 782.806 484.315
3655 0 75.1692 12.5051 940 101.99 782.623 483.182
3656 0 77.1493 11.0176 850 101.312 782.52 484.899
3657 0 80.2777 12.0581 968 99.0331 782.322 481.956
3658 0 83.282 12.3676 1030 97.5592 782.886 484.589
3659 0 84.2539 12.0707 1017 99.6037 782.927 481.484
3660 0 87.4071 13.4543 1176 96.8146 782.719 479.959
3661 0 88.2065 11.6091 1024 100.159 782.474 478.739
3662 0 91.5876 10.5473 966 100.428 781.334 480.879
3663 0 95.3742 11.3343 1081 98.7391 781.728 479.272
3664 0 96.2925 12.192 1174 98.138 781.142 474.917
3665 1 56.475 10.0575 568 99.4261 782.009 494.68
3666 0 54.2901 10.5728 574 100.885 781.207 493.202
3667 0 58.4449 10.0779 589 100.593 781.467 490.401
3668 0 59.1097 11.5886 685 96.7474 782.137 490.959
3669 0 62.1769 10.6631 663 98.6184 781.691 492.596
3670 0 64.1245 11.618 745 97.2725 782.536 491.207
3671 0 64.1278 10.713 687 101.373 782.514 490.287
3672 0 66.2018 13.3833 886 95.7449 781.865 490.544
3673 0 67.1285 12.2452 822 99.1168 782.046 490.579
3674 0 69.1398 12.3084 851 100.038 781.36 488.987
3675 0 71.2365 12.3111 877 101.125 780.928 487.597
3676 0 73.2639 13.7585 1008 98.2688 781.349 487.798
3677 0 74.4549 12.7997 953 102.238 780.54 483.187
3678 0 76.4246 12.7315 973 103.69 780.095 485.1
3679 0 77.3881 12.082 935 106.109 780.043 483.994
3680 0 79.322 10.8923 864 109.475 779.652 483.052
3681 0 82.3885 12.4289 1024 107.888 780.024 480.452
3682 0 86.4463 13.3956 1158 106.764 779.326 480.405
3683 0 88.2892 12.2665 1083 110.552 779.094 479.96
3684 0 87.496 12.3891 1084 112.49 779.504 476.957
3685 0 93.5533 13.4362 1257 110.237 779.021 476.126
3686 0 95.4332 12.5638 1199 112.895 778.802 475.691
3687 0 96.7405 12.394 1199 115.144 778.936 472.911
3688 0 97.3448 12.1321 1181 115.931 778.79 467.412
3689 0 98.3538 12.9532 1274 111.283 779.837 463.589
3690 0 104.265 13.1587 1372 110.735 779.125 461.781
3691 1 61.3783 11.0463 678 110.124 780.06 484.925
3692 0 64.4533 11.0002 709 109.501 779.526 484.422
3693 0 63.1317 9.44059 596 110.869 779.629 484.128
3694 0 62.211 10.2876 640 112.345 779.82 480.911
3695 0 64.1745 9.55209 613 114.405 779.726 481.181
3696 0 69.3209 11.6271 806 108.563 779.753 481.768
3697 0 70.3569 10.333 727 113.369 780.305 480.352
3698 0 70.1572 10.4622 734 114.98 780.072 476.2
3699 0 77.2234 10.7092 827 111.459 780.16 479.653
3700 0 77.2503 10.3818 802 114.231 780.019 477.878
3701 0 78.3122 12.0415 943 110.997 779.506 479.604
3702 0 81.275 11.7995 959 113.326 779.881 475.309
3703 0 87.2761 13.1651 1149 108.434 779.676 478.04
3704 0 86.2469 12.2439 1056 113.921 779.533 471.792
3705 0 88.2435 12.8281 1132 112.302 779.158 473.746
3706 0 88.2059 12.1874 1075 113.113 780.362 475.413
3707 0 93.1462 12.4428 1159 114.475 780.113 469.645
3708 0 98.3058 12.1153 1191 113.153 779.616 472.092
3709 0 99.4843 11.238 1118 117.484 780.233 468.668
3710 0 100.303 14.2667 1431 110.147 779.623 468.705
3711 1 59.1966 8.93633 529 113.319 778.794 487.456
3712 0 61.1291 10.1588 621 109.894 780.256 487.388
3713 0 64.1127 10.2944 660 109.297 780.341 487.095
3714 0 65.1165 10.796 703 110.172 779.683 484.908
3715 0 68.0866 10.3985 708 110.651 780.338 482.835
3716 0 66.1102 10.8455 717 111.149 780.082 481.247
3717 0 70.065 11.4751 804 108.92 779.703 482.026
3718 0 70.164 12.0005 842 109.105 779.413 479.474
3719 0 72.2102 11.245 812 112.355 779.605 477.43
3720 0 72.2166 11.3686 821 115.702 778.829 476.006
3721 0 79.2814 11.8187 937 112.22 778.619 476.677
3722 0 78.2379 11.4395 895 115.886 778.743 473.181
3723 0 80.1002 11.7478 941 114.154 778.761 475.766
3724 0 84.0734 13.2979 1118 109.986 778.02 475.647
3725 0 85.1222 11.7713 1002 114 779.429 474.911
3726 0 88.0897 12.6348 1113 113.081 777.431 470.55
3727 0 91.075 13.1211 1195 113.057 777.679 470.071
3728 0 93.1656 13.2989 1239 113.319 778.443 468.309
3729 0 97.1181 13.2519 1287 113.798 778.62 466.497
3730 0 98.0905 12.9268 1268 116.326 778.18 464.23
3731 0 103.31 14.0839 1455 113.491 778.487 462.652
3732 0 107.117 12.295 1317 116.129 778.017 464.5
3733 0 103.249 12.1938 1259 119.141 778.483 459.814
3734 0 112.199 12.6204 1416 116.564 778.694 458.35
3735 0 115.277 12.162 1402 117.418 779.505 456.969
3736 0 119.312 13.008 1552 116.481 779.499 454.852
3737 0 125.252 13.3171 1668 117.073 779.562 452.801
3738 0 128.25 12.538 1608 121.354 778.954 451.417
3739 0 130.321 12.8912 1680 115.504 779.095 450.217
3740 0 132.208 11.255 1488 121.067 778.97 445.578
3741 1 70.1386 11.406 800 114.418 778.394 477.184
3742 0 76.0956 12.1426 924 112.147 778.408 474.79
3743 0 75.0454 11.9794 899 113.222 778.304 473.236
3744 0 78.1633 11.2969 883 113.811 778.284 474.096
3745 0 81.1762 12.0971 982 112.277 778.503 470.358
3746 0 85.2123 13.1319 1119 111.007 778.441 470.521
3747 0 87.1783 13.2028 1151 110.6 778.116 471.239
3748 0 89.3074 12.4402 1111 114.139 778.662 466.802
3749 0 87.0964 12.6297 1100 115.884 778.515 464.268
3750 0 88.0814 13.4421 1184 114.296 778.615 465.699
3751 0 94.3413 12.158 1147 116.633 777.849 464.443
3752 0 95.2261 12.9586 1234 115.402 779.764 461.024
3753 0 100.257 13.7546 1379 112.067 779.557 461.363
3754 0 102.191 13.191 1348 114.35 779.693 459.783
3755 0 104.258 13.5721 1415 113.372 779.406 457.321
3756 0 107.199 12.1083 1298 117.415 779.309 453.544
3757 0 113.249 12.8566 1456 114.211 779.617 453.152
3758 1 60.0365 10.0772 605 112.2 779.231 478.54
3759 0 65.1361 12.0824 787 105.972 779.46 479.892
3760 0 67.0548 11.3937 764 108.224 779.372 476.288
3761 0 68.1025 10.1905 694 112.584 779.964 476.867
3762 0 71.0721 11.6642 829 109.616 780.347 475.503
3763 0 75.047 12.3256 925 108.214 780.11 476.671
3764 0 78.0829 12.7173 993 107.218 779.78 476.196
3765 0 79.0677 11.37 899 110.998 780.007 474.044
3766 0 83.1597 11.9409 993 109.731 780.065 473.217
3767 0 85.0975 11.904 1013 111.476 779.509 469.069
3768 0 87.1125 11.9501 1041 111.523 779.649 470.51
3769 0 83.2281 10.7536 895 117.826 779.631 467.468
3770 0 92.3296 12.163 1123 113.616 779.434 469.479
3771 0 92.1128 10.8345 998 118.406 779.656 466.365
3772 0 97.0928 12.3181 1196 114.098 779.532 468.223
3773 0 97.1886 12.7587 1240 114.515 779.302 466.681
3774 0 103.195 13.4503 1388 107.415 779.932 470.502
3775 0 105.191 13.1856 1387 107.676 780.009 468.262
3776 0 109.15 12.3775 1351 109.132 779.753 468.886
3777 0 113.186 14.1449 1601 106.483 779.419 465.271
3778 0 112.168 13.355 1498 109.47 779.193 464.943
3779 1 47.0733 9.55955 450 102.229 778.691 498.86
3780 0 48.1694 11.5841 558 98.1685 781.226 497.473
3781 0 47.2971 9.64117 456 104.765 782.046 492.917
3782 0 53.0705 12.6624 672 100.365 782.689 496.795
3783 0 54.0449 13.0447 705 100.254 783.638 495.779
3784 0 53.0644 11.797 626 104.542 783.49 494.034
3785 0 54.029 12.2342 661 104.238 783.359 494.064
3786 0 58.046 12.5935 731 103.316 783.874 494.3
3787 0 59.0613 14.3072 845 100.18 783.516 492.856
3788 0 60.1031 13.0775 786 103.514 783.108 491.471
3789 0 60.0751 12.1681 731 107.475 784.202 489.186
3790 0 63.0436 12.2296 771 106.171 783.336 491.008
3791 0 67.0993 12.489 838 105.566 783.353 489.416
3792 0 66.0259 12.6617 836 105.856 782.968 489.074
3793 0 66.0796 12.9692 857 107.565 779.607 491.113
3794 0 70.1907 14.0617 987 105.48 779.912 488.391
3795 0 70.0496 13.1907 924 107.567 778.922 485.852
3796 0 73.0576 13.0582 954 107.709 779.503 485.17
3797 0 71.0376 11.9092 846 111.415 779.18 484.271
3798 0 75.0564 12.2441 919 111.05 778.528 484.507
3799 0 78.1337 13.2977 1039 107.325 779.018 484.529
3800 0 80.1681 12.5486 1006 107.779 779.377 484.757
3801 0 82.0936 12.4248 1020 109.358 778.809 481.263
3802 0 83.0839 11.5666 961 111.003 778.759 479.832
3803 0 84.1267 11.6372 979 111.437 778.445 477.406
3804 0 89.2015 11.7151 1045 110.779 779.057 476.855
3805 1 49.0487 11.0095 540 103.843 778.93 496.041
3806 0 50.3221 11.486 578 102.055 779.915 494.358
3807 0 51.3765 9.75154 501 104.786 780.204 494.373
3808 0 55.4688 12.7279 706 104.224 780.113 494.674
3809 0 56.3738 11.5479 651 106.74 779.462 494.82
3810 0 57.3698 11.7484 674 107.703 779.533 493.837
3811 0 58.2604 10.8478 632 111.701 779.245 494.456
3812 0 59.1519 13.2202 782 108.857 779.789 492.432
3813 0 61.2056 12.4008 759 110.422 780.084 491.281
3814 0 62.3545 12.7337 794 110.736 779.788 490.879
3815 0 63.3182 12.682 803 111.793 779.868 490.042
3816 0 63.3049 12.7478 807 112.437 779.798 489.425
3817 0 66.2831 12.5371 831 112.911 779.586 487.835
3818 0 67.4715 12.3459 833 113.24 779.619 486.981
3819 0 69.3341 12.2739 851 113.7 779.452 485.57
3820 0 70.3092 12.4877 878 113.103 779.06 487.144
3821 0 71.4112 11.4688 819 115.853 779.635 485.046
3822 0 74.6669 12.1473 907 114.119 779.601 482.872
3823 0 75.7019 12.1265 918 113.664 780.008 481.021
3824 0 79.671 14.4595 1152 107.818 779.94 479.01
3825 0 81.7139 13.6207 1113 108.541 779.93 479.263
3826 0 83.3819 15.1951 1267 105.659 780.774 476.71
3827 0 83.7327 13.5192 1132 109.329 780.835 476.724
3828 0 89.6465 14.7357 1321 104.45 781.188 473.835
3829 0 88.7101 12.445 1104 107.966 780.835 472.002
3830 0 92.5367 13.1407 1216 106.209 781.362 473.37
3831 0 93.558 12.7728 1195 107.518 781.687 471.546
3832 0 96.5847 12.3726 1195 108.586 781.045 469.037
3833 0 98.8338 13.5581 1340 104.304 781.41 469.416
3834 0 99.4897 13.5089 1344 104.034 781.334 470.097
3835 0 102.58 12.3513 1267 107.765 780.802 465.834
3836 0 107.676 12.649 1362 106.133 779.835 465.059
3837 0 109.572 12.9413 1418 106.618 780.353 458.037
3838 0 113.646 13.1725 1497 106.643 780.419 460.131
3839 0 117.663 12.3234 1450 108.456 779.828 457.214
3840 0 123.674 12.541 1551 108.823 780.761 455.919
3841 0 125.722 13.8003 1735 107.661 779.914 453.535
3842 1 74.5532 11.7232 874 104.633 779.529 479.908
3843 0 75.4724 11.4876 867 104.007 779.79 475.234
3844 0 78.4274 11.8964 933 103.85 779.422 475.096
3845 0 80.5184 12.196 982 102.096 779.921 480.108
3846 0 82.4294 10.9548 903 105.071 779.967 473.505
3847 0 85.7752 12.3113 1056 101.552 779.531 475.371
3848 0 87.6935 13.4104 1176 99.392 779.701 472.805
3849 0 92.6099 13.3139 1233 99.2092 780.038 469.786
3850 0 95.8853 13.9125 1334 97.1814 779.624 470.77
3851 0 99.7636 14.0332 1400 96.5636 779.279 468.15
3852 0 98.8343 12.0505 1191 101.697 779.057 466.345
3853 0 104.867 13.5124 1417 98.2604 779.965 462.834
3854 0 107.717 13.4241 1446 97.7462 779.636 462.919
3855 1 58.4364 10.7296 627 97.9282 778.802 486.606
3856 0 58.6438 9.58329 562 93.3399 778.754 484.368
3857 0 61.1745 11.5571 707 95.7723 778.464 485.752
3858 0 64.2772 12.1505 781 94.831 777.965 489.143
3859 0 65.3888 11.1181 727 97.5791 779.061 488.479
3860 0 67.4447 11.3278 764 97.6086 779.042 485.94
3861 0 67.2475 10.7365 722 99.1247 779.035 485.456
3862 0 72.4655 12.4197 900 95.7778 779.047 483.606
3863 0 74.4774 11.4129 850 97.6165 779.102 485.175
3864 0 75.3267 11.1116 837 99.6619 778.773 481.086
3865 0 77.2625 11.9463 923 97.6522 778.783 481.986
3866 0 80.2852 14.025 1126 94.1208 779.009 480.308
3867 0 85.3157 12.2017 1041 96.0548 778.769 483.203
3868 0 83.1945 11.8638 987 99.0111 778.651 479.664
3869 0 88.3605 13.5355 1196 94.7776 778.615 481.226
3870 0 91.4239 12.5569 1148 97.4974 778.881 477.382
3871 0 92.2385 12.9772 1197 98.4511 778.488 473.382
3872 0 95.5222 13.9653 1334 96.434 779.342 470.01
3873 0 99.3607 13.2849 1320 96.9227 779.929 471.063
3874 1 42.1824 10.3361 436 92.0596 781.927 498.959
3875 0 42.2183 9.45087 399 90.995 781.752 497.534
3876 0 44.0888 10.3654 457 94.0131 781.904 496.527
3877 0 46.3452 9.96867 462 95.5152 780.957 493.175
3878 0 46.2945 11.2108 519 94.0655 781.15 493.42
3879 0 50.3692 11.5348 581 93.5904 781.003 495.485
3880 0 50.4168 10.1355 511 96.319 781.503 497.133
3881 0 51.4754 9.65509 497 98.2938 780.809 494.686
3882 0 52.468 9.01502 473 99.5603 781.436 494.755
3883 0 55.3807 12.7662 707 93.4526 780.451 491.808
3884 0 56.3993 12.7307 718 93.7549 780.29 492.794
3885 0 58.3832 12.9318 755 93.3285 781.442 492.404
3886 0 58.2606 11.6202 677 95.9616 781.449 491.04
3887 0 59.3012 10.9779 651 97.9171 781.488 490.654
3888 0 60.2569 11.368 685 97.5124 780.777 491.772
3889 0 64.3731 12.5518 808 95.2017 781 488.007
3890 0 66.3941 14.429 958 91.5605 780.445 489.064
3891 0 70.4224 13.5752 956 91.6538 780.172 490.416
3892 0 72.5008 13.4343 974 92.5832 780.06 488.124
3893 0 72.4125 12.4012 898 95.294 780.252 487.716
3894 0 72.3705 11.9386 864 96.5104 779.723 486.971
3895 0 76.4907 12.4983 956 96.0418 780.005 484.728
3896 0 78.6671 12.9279 1017 94.5054 779.832 485.397
3897 0 82.4039 12.378 1020 95.2588 779.291 483.484
3898 0 83.6637 13.0642 1093 94.3696 779.317 480.398
3899 0 85.3683 11.5968 990 96.6626 779.229 483.005
3900 0 88.4963 13.4921 1194 94.3317 779.777 479.389
3901 0 91.3568 12.8836 1177 95.2574 779.22 478.284
3902 0 94.3748 14.8133 1398 92.0258 779.582 478.114
3903 0 93.2481 10.9922 1025 100.252 779.762 475.383
3904 1 56.2007 11.5479 649 95.849 778.972 491.954
3905 0 57.1555 12.6322 722 93.7548 778.677 491.058
3906 0 60.1649 11.9671 720 94.5806 779.107 489.5
3907 0 62.3213 12.4035 773 91.7102 777.547 493.325
3908 0 62.317 12.0673 752 92.6423 777.914 494.553
3909 0 65.4144 13.4986 883 90.5889 778 491.787
3910 0 66.2627 14.2161 942 90.2909 777.837 491.699
3911 0 68.4068 12.8204 877 93.0673 777.75 490.092
3912 0 70.6649 13.3588 944 92.2701 777.784 490.72
3913 0 71.4301 13.0197 930 94.2151 777.774 489.765
3914 0 73.4694 12.9986 955 94.3424 778.287 488.327
3915 0 75.6402 12.9296 978 95.2577 778.188 485.49
3916 0 77.5502 13.5267 1049 95.6864 777.977 487.239
3917 0 79.6625 16.0176 1276 91.4749 778.542 483.693
3918 0 81.3777 13.038 1061 97.705 778.061 482.281
3919 0 83.5215 14.7267 1230 94.974 778.069 479.497
3920 0 85.6602 13.9505 1195 96.687 777.84 480.472
3921 0 88.7062 13.6067 1207 97.9097 778.347 480.341
3922 0 90.5684 12.9847 1176 100.258 777.741 475.019
3923 0 92.5279 13.7472 1272 98.5998 777.987 476.669
3924 0 95.6712 13.7868 1319 99.2456 777.899 472.434
3925 0 98.3974 13.7605 1354 99.0679 777.655 472.253
3926 0 101.346 14.0805 1427 98.2032 777.412 469.944
3927 0 104.525 14.9056 1558 97.2869 777.377 470.731
3928 0 109.5 14.5662 1595 97.8263 776.905 469.153
3929 0 110.573 14.1536 1565 99.1994 777.255 468.467
3930 1 58.4023 11.7461 686 104.593 777.573 492.407
3931 0 62.3718 13.0027 811 100.471 777.524 492.637
3932 0 62.6345 13.8422 867 102.016 777.547 490.068
3933 0 65.4599 13.5808 889 101.468 777.082 489.542
3934 0 67.7994 14.5134 984 98.2825 777.361 489.298
3935 0 66.4012 13.8401 919 101.454 777.262 487.188
3936 0 71.4818 14.4652 1034 100.034 777.24 486.608
3937 0 73.6427 14.2037 1046 99.479 777.787 488.053
3938 0 76.489 15.9369 1219 96.1116 777.485 485.743
3939 0 78.6743 13.3843 1053 101.689 777.217 485.991
3940 0 80.428 13.6644 1099 101.731 776.992 483.212
3941 0 83.5973 15.8019 1321 97.5503 776.941 482.444
3942 0 85.4366 15.4149 1317 98.8421 776.566 479.979
3943 0 86.2835 14.6146 1261 100.717 777.142 478.409
3944 0 89.4863 14.4044 1289 101.152 777.195 479.479
3945 0 91.5882 14.5215 1330 101.08 777.449 477.765
