time division length width area intensity CMx CMy
0 0 34.0909 11.7333 400 148.27 563.903 499.118
1 0 33.0352 11.7148 387 149.439 564.258 498.638
2 0 32.0619 10.9476 351 150.148 563.499 499.712
3 0 34.0164 11.612 395 147.456 563.575 498.957
4 0 36.0194 12.4933 450 143.816 563.724 498.76
5 0 36.041 12.5967 454 144.222 564.628 497.119
6 0 38.0383 11.5147 438 145.304 564.139 498.089
7 0 38.0247 11.887 452 143.071 563.695 498.796
8 0 41.0189 12.0676 495 140.804 564.085 497.451
9 0 42.0538 12.6504 532 139.278 563.746 497.553
10 0 42.0319 13.3232 560 138.904 563.552 496.277
11 0 42.0317 13.1329 552 139.246 563.663 496.92
12 0 43.0624 12.331 531 139.708 563.345 497.657
13 0 44.0276 13.1054 577 139.366 562.579 495.288
14 0 47.0295 12.8217 603 137.106 562.857 495.846
15 0 48.0812 12.874 619 136.06 562.554 495.924
16 0 49.0596 13.6568 670 132.815 562.136 495.294
17 0 51.0364 13.7745 703 131.707 562.115 495.437
18 0 49.0313 12.9101 633 136.003 562.488 495.259
19 0 52.112 12.6267 658 134.129 562.056 494.711
20 0 53.0577 12.8728 683 133.4 562.294 494.111
21 0 54.0565 12.3944 670 132.96 562.355 495.082
22 0 55.0855 12.1992 672 134.217 562.369 494.031
23 0 57.1199 11.4321 653 135.014 562.691 494.202
24 0 58.1201 12.3881 720 137.908 562.367 493.76
25 0 60.1314 11.8574 713 133.02 562.318 491.705
26 0 63.0657 12.6852 800 130.597 562.524 491.33
27 0 64.1873 12.0896 776 132.326 562.863 490.776
28 0 67.2732 11.8472 797 133.531 562.284 490.474
29 0 69.0778 11.7838 814 134.827 562.377 488.299
30 1 36.0326 11.6561 420 135.543 562.138 503.74
31 0 37.037 11.718 434 142.083 561.104 503.518
32 0 37.0624 11.5751 429 139.252 561.557 503.086
33 0 41.1077 12.8929 530 136.566 561.896 502.481
34 0 42.1117 12.823 540 134.409 561.383 503.565
35 0 41.1619 12.9246 532 137.492 561.622 502.055
36 0 42.0263 12.9681 545 129.123 560.895 503.048
37 0 43.0881 12.7181 548 128.943 560.536 503.1
38 0 45.0873 13.8176 623 124.884 560.111 502.034
39 0 45.0918 12.907 582 129.357 559.567 501.785
40 0 46.0379 12.5549 578 130.439 560.081 501.007
41 0 47.049 13.9004 654 126.682 559.688 500.928
42 0 50.0443 13.548 678 126 559.72 500.298
43 0 52.0321 13.434 699 125.901 560.428 499.801
44 0 54.0265 14.2523 770 123.155 560.699 500.232
45 0 55.0614 14.4384 795 125.519 560.17 496.64
46 0 58.1281 13.9519 811 124.423 559.874 497.332
47 0 59.0376 13.5168 798 127.995 560.49 495.614
48 0 61.085 14.6517 895 124.956 560.494 495.219
49 0 64.0543 14.9248 956 124.418 559.963 495.221
50 0 64.0629 15.1102 968 127.108 559.96 492.905
51 0 66.0909 14.7524 975 129.07 559.372 492.24
52 0 71.158 15.051 1071 126.884 559.076 491.498
53 0 71.0653 15.1832 1079 129.614 559.346 487.588
54 0 74.1235 14.7996 1097 131.573 558.97 488.339
55 0 77.0695 14.5583 1122 132.07 559.086 488.278
56 0 79.1188 15.4578 1223 130.892 558.555 485.65
57 0 82.1089 15.3942 1264 131.282 558.448 483.761
58 0 83.065 14.3261 1190 135.392 558.945 484.454
59 0 88.0925 15.1432 1334 132.278 559.367 483.446
60 0 89.1323 14.069 1254 135.94 559.348 482.687
61 0 93.1409 15.3209 1427 130.156 558.918 480.859
62 1 51.043 13.0282 665 130.635 558.194 502.108
63 0 53.1021 13.5023 717 129.459 558.268 500.456
64 0 52.122 14.6579 764 129.543 558.757 499.907
65 0 54.1755 13.2532 718 132.421 558.425 499.669
66 0 58.1071 14.4044 837 128.818 558.085 497.904
67 0 58.1071 14.9035 866 154.152 557.076 498.426
68 0 60.1063 14.3246 861 129.138 557.832 496.319
69 0 61.0912 13.6845 836 125.035 558.749 495.142
70 0 62.0313 13.2997 825 127.108 558.07 495.218
71 0 67.0554 14.242 955 124.559 558.436 492.982
72 0 69.1753 14.1235 977 124.316 558.578 490.723
73 0 72.0737 14.4713 1043 125.404 558.573 489.955
74 0 74.1712 15.0598 1117 124.526 559.252 489.202
75 0 77.1336 14.0665 1085 127.561 559.119 487.341
76 0 80.2314 14.7449 1183 125.468 559.329 485.644
77 0 80.1805 14.6918 1178 127.014 559.671 485.542
78 0 82.2309 14.0701 1157 129.621 559.749 482.616
79 0 87.3201 14.8076 1293 127.111 559.856 482.004
80 0 89.202 13.9795 1247 129.302 559.863 479.877
81 0 92.3212 14.6012 1348 127.751 559.82 479.052
82 0 96.2141 14.5925 1404 127.915 559.777 476.688
83 0 99.2135 14.9879 1487 126.04 560.068 474.391
84 1 50.1928 10.9577 550 125.789 560.845 499.858
85 0 52.1299 13.1978 688 119.259 560.792 496.525
86 0 55.0582 14.1487 779 117.089 559.281 498.1
87 0 56.1316 13.3615 750 121.212 558.829 497.437
88 0 59.0809 13.1007 774 122.972 558.49 496.748
89 0 60.0676 13.7012 823 121.773 557.819 496.872
90 0 65.0542 14.3265 932 118.987 557.93 495.281
91 0 65.0879 14.8107 964 121.716 557.889 493.549
92 0 68.0923 14.7447 1004 121.014 557.415 493.043
93 0 70.1313 14.6725 1029 122.26 557.545 492.731
94 0 73.156 14.8723 1088 122.479 557.391 491.455
95 0 73.1894 14.0321 1027 127.088 557.364 490.079
96 0 76.0734 15.0644 1146 125.499 557.076 489.289
97 0 79.2464 16.0764 1274 123.9 557.052 486.143
98 0 82.2093 15.3024 1258 127.196 556.86 484.64
99 0 84.1549 14.3188 1205 130.251 557.227 484.349
100 0 88.1425 16.7796 1479 124.429 557.163 481.788
101 0 88.1048 15.3567 1353 130.458 556.711 479.772
102 0 92.2173 15.3659 1417 129.332 557.248 480.596
103 0 96.2321 15.6185 1503 127.934 557.084 478.989
104 0 99.1991 14.9397 1482 129.984 557.231 476.309
105 1 51.0985 11.8203 604 128.642 556.95 499.727
106 0 52.2634 12.5709 657 120.012 557.619 495.588
107 0 54.1806 12.2922 666 121.383 556.895 491.937
108 0 57.0617 12.9334 738 118.963 557.957 500.26
109 0 59.0668 13.7641 813 117.606 557.817 499.242
110 0 62.0438 14.0546 872 115.747 557.444 497.986
111 0 64.0785 13.4054 859 118.012 557.524 495.385
112 0 66.0594 13.8814 917 117.369 557.217 495.527
113 0 70.0893 14.3816 1008 116.389 557.526 492.924
114 0 70.0451 13.4199 940 118.868 557.389 494.384
115 0 75.1857 14.9098 1121 114.839 556.847 490.938
116 0 76.1091 13.888 1057 118.704 556.785 491.611
117 0 80.1796 14.7419 1182 115.584 557.191 488.819
118 0 81.1255 14.607 1185 121.526 557.425 486.954
119 0 85.1729 14.4177 1228 121.812 556.818 483.948
120 0 87.2358 13.2171 1153 125.528 556.784 483.133
121 0 90.2722 14.279 1289 121.531 557.338 482.659
122 0 93.1474 14.0315 1307 119.691 556.673 480.074
123 0 97.1312 13.4148 1303 121.587 556.903 479.478
124 0 101.173 14.065 1423 121.008 557.722 477.087
125 1 51.1323 10.8346 554 115.209 557.829 500.892
126 0 51.2576 13.3639 685 110.428 556.785 499.19
127 0 54.1795 12.9569 702 111.225 557.36 499.323
128 0 55.1799 12.2871 678 112.133 557.212 499.674
129 0 58.0823 13.016 756 110.312 557.599 497.742
130 0 60.1615 12.6659 762 112.348 557.772 495.986
131 0 64.1045 12.776 819 110.731 557.476 494.902
132 0 67.0801 13.5659 910 109.673 557.677 493.11
133 0 69.2155 13.0751 905 110.473 557.734 493.421
134 0 69.243 12.1167 839 113.38 558.03 492.039
135 0 72.2516 14.1173 1020 110.48 558.216 487.501
136 0 74.2188 12.9212 959 113.6 557.575 487.71
137 0 78.3027 13.2435 1037 113.932 557.714 485.871
138 0 80.2478 14.6172 1173 111.061 557.81 485.128
139 0 83.2902 14.2634 1188 112.724 557.38 481.829
140 0 86.4296 14.5089 1254 111.395 557.543 479.884
141 0 88.2984 12.5144 1105 116.832 556.884 476.902
142 0 88.4397 12.4379 1100 117.846 557.029 475.763
143 0 94.4041 12.4041 1171 116.781 556.2 474.878
144 0 97.5425 12.5894 1228 115.901 556.941 471.919
145 1 54.4302 10.6191 578 111.576 557.279 494.652
146 0 56.3327 12.4617 702 108.839 557.417 492.932
147 0 56.4951 11.5939 655 112.331 557.25 492.044
148 0 60.3309 11.9176 719 108.064 557.697 496.284
149 0 61.1428 11.9556 731 106.655 558.15 494.295
150 0 62.1501 11.9227 741 107.161 557.853 493.937
151 0 67.1978 13.3189 895 102.714 558.308 491.171
152 0 69.2525 11.9851 830 105.431 557.871 492
153 0 70.1829 11.6838 820 105.991 558.573 490.554
154 0 73.2106 12.2796 899 105.257 558.476 487.657
155 0 76.4459 11.9169 911 105.889 558.435 483.923
156 0 79.2803 11.5918 919 105.733 558.413 482.701
157 0 80.2817 12.4686 1001 104.196 558.167 480.424
158 0 87.2073 13.0952 1142 104.25 557.256 481.325
159 0 89.2639 12.4686 1113 106.202 557.234 479.401
160 0 91.3849 11.6212 1062 105.684 557.566 480.467
161 0 95.1956 13.6036 1295 102.297 557.134 475.532
162 0 97.2676 12.2343 1190 104.808 557.761 474.817
163 0 102.267 12.5358 1282 103.459 557.69 474.03
164 0 104.217 11.8215 1232 103.984 557.694 473.213
165 0 110.38 12.8193 1415 103.179 557.482 470.056
166 0 112.34 13.8686 1558 101.87 556.933 468.805
167 0 114.423 12.3752 1416 105.281 556.609 462.766
168 0 120.417 12.5729 1514 104.579 556.785 461.601
169 0 124.433 12.0467 1499 107.313 556.792 459.498
170 1 64.0938 11.7952 756 99.5529 558.151 493.413
171 0 66.1869 12.1323 803 100.971 555.394 489.402
172 0 69.1255 12.8751 890 99.5775 555.039 489.348
173 0 71.0299 14.1208 1003 97.3739 555.219 488.838
174 0 73.0868 12.3552 903 101.388 555.063 486.866
175 0 75.157 12.8132 963 100.994 554.686 486.172
176 0 76.0334 12.4945 950 101.438 555.173 487.426
177 0 80.141 13.3889 1073 100.24 554.955 481.747
178 0 82.1087 12.8001 1051 102.277 554.955 479.634
179 0 86.0929 13.137 1131 100.799 555.195 479.676
180 0 89.1414 12.9569 1155 101.749 554.172 479.276
181 0 90.1455 12.2469 1104 103.08 555.187 479.068
182 0 91.253 11.3421 1035 105.547 555.517 476.612
183 0 96.2441 11.4812 1105 105.559 555.436 476.086
184 1 52.0771 11.1757 582 101.976 558.235 497.165
185 0 48.0941 8.87842 427 97.2927 557.803 489.623
186 0 55.0576 10.7161 590 103.627 558.268 495.095
187 0 55.0702 11.0949 611 105.255 558.789 495.272
188 0 59.1373 12.4118 734 103.563 558.356 494.628
189 0 63.1282 13.5914 858 100.235 558.353 492.415
190 0 65.0891 12.5213 815 103.529 557.661 491.925
191 0 67.1715 13.5772 912 101.854 558.246 490.677
192 0 67.1663 11.1961 752 108.82 557.988 489.854
193 0 70.0837 12.428 871 106.87 558.447 489.536
194 0 72.1404 13.0301 940 106.569 558.485 485.696
195 0 76.1572 13.2358 1008 105.746 558.415 485.919
196 0 78.2618 13.5315 1059 106.025 558.547 485.845
197 0 80.2036 12.78 1025 109.088 557.986 483.498
198 0 84.1085 12.6384 1063 109.168 558.686 482.187
199 0 84.0766 11.5133 968 113.145 558.502 482.175
200 0 86.1767 12.3699 1066 111.866 558.172 481.205
201 0 91.0948 12.6462 1152 112.049 557.799 478.702
202 0 95.0605 13.2021 1255 110.798 557.753 476.671
203 1 49.2517 10.8829 536 109.011 557.028 499.487
204 0 51.1672 10.7686 551 111.613 557.474 498.661
205 0 53.5488 13.5017 723 105.432 556.246 495.389
206 0 55.1115 11.9757 660 109.774 557.859 497.971
207 0 57.1247 12.2539 700 109.797 557.497 496.983
208 0 58.0409 11.6987 679 110 558.183 497.29
209 0 59.0579 13.3259 787 106.302 557.98 495.657
210 0 62.026 13.0107 807 106.942 557.517 494.187
211 0 64.0305 12.0568 772 107.978 558.424 494.518
212 0 67.0317 14.0978 945 102.708 558.695 493.789
213 0 66.0165 11.3911 752 110.125 558.354 493.235
214 0 69.0867 12.6652 875 106.69 558.715 491.131
215 0 71.0705 11.5378 820 109.035 558.151 490.946
216 0 72.1263 13.5041 974 104.591 558.104 489.337
217 0 75.0681 12.0291 903 107.712 558.001 486.829
218 0 80.0975 13.2838 1064 104.234 558.101 483.964
219 0 80.0855 12.2369 980 107.038 558.014 485.437
220 0 83.1077 12.6222 1049 106.905 558.246 485.054
221 0 87.0761 12.0354 1048 108.411 558.187 482.395
222 0 88.1096 11.6786 1029 110.435 557.088 482.465
223 0 93.0823 12.258 1141 108.2 558.216 480.619
224 1 49.0499 12.1917 598 104.289 558.314 501.717
225 0 49.1858 11.5887 570 104.86 558.53 500.165
226 0 52.0914 12.1325 632 106.799 558.831 500.274
227 0 53.0964 14.2571 757 102.6 558.17 498.934
228 0 55.037 13.1366 723 106.142 558.058 498.528
229 0 55.0511 12.9879 715 107.713 558.123 496.971
230 0 57.0366 12.641 721 108.66 558.202 495.749
231 0 59.048 13.9209 822 105.72 558.648 495.908
232 0 59.0638 12.8844 761 110.619 558.363 495.105
233 0 60.0424 12.1081 727 113.376 558.644 493.563
234 0 62.0309 12.9129 801 111.863 558.881 493.155
235 0 64.0607 12.3789 793 113.236 558.69 493.634
236 0 67.0597 13.0182 873 112.784 558.404 492.245
237 0 68.0391 12.8015 871 115.575 558.333 490.22
238 0 71.0817 12.5912 895 115.194 557.836 491.291
239 0 76.2137 13.3703 1019 113.289 557.579 489.446
240 0 77.0896 12.9589 999 115.402 557.805 487.341
241 0 79.1124 13.5377 1071 115.483 558.27 483.794
242 0 83.0609 13.3516 1109 114.31 558.139 483.806
243 0 86.1085 14.5166 1250 112.282 557.718 481.599
244 0 89.1872 12.8045 1142 115.102 558.174 482.615
245 1 43.013 10.1597 437 113.952 557.249 504.741
246 0 46.1053 11.6039 535 112.381 558.544 501.942
247 0 46.0561 12.1808 561 105.51 555.102 501.889
248 0 47.0902 12.9963 612 105.551 554.753 502.75
249 0 49.0604 12.719 624 106.909 554.824 501.054
250 0 51.089 12.6838 648 107.713 555.213 500.787
251 0 52.0402 13.3551 695 106.786 555.653 500.547
252 0 54.0707 12.6131 682 108.739 556.015 499.424
253 0 56.0301 13.7069 768 106.474 555.145 498.549
254 0 56.0322 12.8319 719 110.394 555.2 497.344
255 0 60.0798 13.7151 824 106.432 555.569 497.883
256 0 60.1023 14.1425 850 107.093 555.531 496.519
257 0 62.0566 12.4564 773 112.206 555.287 494.285
258 0 64.0602 13.3156 853 110.797 555.6 494.192
259 0 66.1431 13.5766 898 110.827 555.266 492.087
260 0 65.1147 13.1153 854 114.02 555.59 491.697
261 0 69.1496 14.0275 970 112.07 555.801 490.525
262 0 71.0921 14.3195 1018 112.854 555.827 490.53
263 0 73.1915 13.1846 965 115.597 555.544 489.009
264 0 75.1815 13.1149 986 116.485 555.644 488.767
265 0 77.0891 13.1406 1013 116.739 555.693 486.406
266 0 79.1236 13.3083 1053 116.471 555.302 486.33
267 0 85.1693 13.3499 1137 114.904 556 485.901
268 0 87.2083 14.689 1281 113.589 555.731 483.396
269 0 90.2209 14.2428 1285 113.564 555.899 482.075
270 0 93.1549 14.1163 1315 114.565 556.096 481.196
271 0 94.2471 12.7007 1197 118.762 555.903 479.642
272 1 54.0267 12.9195 698 115.986 554.64 500.241
273 0 54.076 12.9632 701 116.292 555.288 498.939
274 0 56.223 12.3437 694 116.173 556.682 497.849
275 0 59.0244 12.7066 750 117.88 559.028 497.111
276 0 61.05 13.3497 815 116.131 558.915 494.638
277 0 61.0593 13.0201 795 117.323 559.561 494.463
278 0 63.057 11.9733 755 119.95 559.388 492.673
279 0 66.0558 13.3675 883 116.858 558.911 492.745
280 0 66.0462 13.0969 865 119.272 558.121 490.401
281 0 69.0791 12.8259 886 119.343 558.456 490.072
282 0 70.0526 12.6476 886 121.029 558.229 489.532
283 0 74.1314 13.0309 966 120.239 558.473 488.098
284 0 76.0214 13.3252 1013 119.873 558.544 487.759
285 0 77.1419 13.8057 1065 121.195 558.202 485.432
286 0 79.0463 13.4478 1063 121.325 558.663 483.648
287 0 83.0796 13.6857 1137 120.992 558.474 482.397
288 0 84.0467 13.8375 1163 122.533 558.794 480.416
289 0 89.1369 14.416 1285 120.837 558.793 477.95
290 0 92.0817 14.6826 1352 119.951 558.426 477.687
291 0 92.0942 12.661 1166 126.64 558.468 476.864
292 0 96.1271 13.5862 1306 124.256 558.186 473.893
293 0 99.2578 13.6312 1353 123.806 558.166 473.171
294 0 104.222 14.1813 1478 122.209 558.018 471.833
295 1 52.0336 12.146 632 120.665 555.421 500.628
296 0 55.0568 12.587 693 116.737 555.814 498.968
297 0 57.0975 13.836 790 113.51 556.415 497.934
298 0 58.0781 13.3613 776 113.616 555.979 495.798
299 0 59.0722 13.1365 776 115.437 555.487 494.412
300 0 62.0821 13.4016 832 113.429 555.419 495.201
301 0 63.1123 13.3254 841 114.023 555.427 493.79
302 0 64.1495 13.4685 864 113.778 555.307 494.292
303 0 67.1472 13.4481 903 113.171 555.12 494.672
304 0 69.0993 13.8062 954 113.986 554.733 491.03
305 0 72.1 15.8669 1144 109.911 555.28 489.928
306 0 74.1703 14.5881 1082 112.842 555.268 489.891
307 0 75.2473 14.1002 1061 115.871 555.788 487.749
308 0 79.0907 13.9334 1102 115.356 555.376 488.54
309 0 82.1501 13.9866 1149 115.534 555.319 487.009
310 0 84.184 13.8269 1164 116.47 555.438 486.101
311 0 84.1421 13.3108 1120 121.081 555.567 482.469
312 0 87.1806 13.4548 1173 120.809 555.408 482.697
313 0 91.2003 14.7039 1341 117.377 555.528 480.995
314 0 96.1748 14.64 1408 116.832 556.521 483.028
315 0 95.1267 13.7396 1307 122.687 556.322 479.089
316 0 100.184 13.7747 1380 122.453 556.736 479.117
317 0 102.154 13.509 1380 123.672 556.043 475.672
318 1 53.0322 11.5213 611 124.908 556.011 500.45
319 0 54.0197 12.1067 654 119.625 557.087 499.446
320 0 57.0655 12.7222 726 115.018 557.853 497.741
321 0 60.0712 12.402 745 111.211 557.878 497.204
322 0 62.0608 13.7929 856 108.75 557.155 494.558
323 0 62.2136 12.666 788 112.42 557.424 494.595
324 0 66.1338 13.2912 879 109.718 557.746 492.904
325 0 67.151 14.1025 947 107.839 557.658 491.004
326 0 69.1683 12.4624 862 110.368 557.972 493.531
327 0 72.069 13.4871 972 108.816 558.091 491.037
328 0 75.1568 13.9176 1046 107.584 558.328 490.082
329 0 78.1808 13.0083 1017 109.161 558.064 490.166
330 0 79.1157 12.5765 995 111.328 557.762 487.751
331 0 80.0726 13.4753 1079 109.513 558.001 486.337
332 0 82.1168 11.5445 948 114.153 557.582 484.189
333 0 86.1442 13.0711 1126 114.318 555.606 486.052
334 0 86.1167 10.9038 939 118.253 555.964 484.367
335 1 48.0356 11.1376 535 113.254 555.282 502.222
336 0 51.0906 11.9004 608 110.039 557.026 502.413
337 0 52.0676 12.2917 640 106.322 554.958 501.105
338 0 53.1041 12.2966 653 106.979 555.098 500.119
339 0 55.1077 10.9422 603 108.483 555.456 500.386
340 0 58.0678 12.8643 747 103.876 555.585 497.663
341 0 59.0667 12.816 757 104.087 555.262 496.277
342 0 62.1861 12.3822 770 103.561 555.087 497.325
343 0 63.1183 12.4053 783 103.981 554.981 494.904
344 0 66.1938 11.6174 769 103.899 555.225 495.021
345 0 69.1782 13.1544 910 101.297 555.457 493.674
346 0 72.1178 12.438 897 102.973 555.534 490.614
347 0 74.1956 13.0062 965 102.766 556.183 488.155
348 0 77.127 12.7452 983 102.992 556.175 487.967
349 1 41.0721 10.0555 413 102.479 555.966 506.915
350 0 41.0287 9.52991 391 105.629 556.061 506.532
351 0 42.0473 10.0363 422 105.379 556.474 504.799
352 0 44.1428 12.0518 532 102.767 556.927 504.502
353 0 45.1015 11.0418 498 105.592 556.48 502.418
354 0 48.132 12.1956 587 101.474 555.736 502.45
355 0 49.0859 10.5937 520 105.013 556.481 502.477
356 0 46.0399 9.9479 458 102.544 558.197 502.62
357 0 50.0442 11.1502 558 100.084 559.523 501.238
358 0 53.1303 11.6318 618 99.1278 558.888 500.233
359 0 52.1502 10.5465 550 101.88 559.393 500.044
360 0 55.1276 11.0471 609 97.8161 559.12 501.089
361 0 57.1025 11.9434 682 96.1452 558.981 498.655
362 0 58.1374 11.8512 689 96.8128 558.925 497.48
363 0 58.1614 11.3993 663 98.1735 559.172 496.208
364 0 60.1282 10.594 637 100.333 558.801 495.171
365 0 63.1348 10.8181 683 99.1742 558.54 493.933
366 0 64.0987 9.8286 630 101.317 558.357 493.03
367 0 67.1065 11.6084 779 98.4904 557.596 492.054
368 0 70.1109 11.2108 786 100.553 559.318 492.346
369 0 70.145 10.8917 764 102.179 558.861 488.033
370 0 78.1575 13.831 1081 95.9149 559.287 488.135
371 0 78.1204 11.9815 936 99.4605 558.872 489.869
372 0 83.0911 11.5777 962 98.5977 558.929 489.067
373 1 44.1403 9.8776 436 99.5206 559.768 505.372
374 0 45.0354 11.391 513 96.3392 559.542 503.517
375 0 47.0398 10.7356 505 94.7505 559.57 503.699
376 0 47.171 10.3453 488 93.0697 559.717 505.5
377 0 50.0579 11.1271 557 92.1849 559.573 502.607
378 0 50.0238 10.7349 537 93.3929 555.838 503.484
379 0 50.0581 12.1659 609 92.2447 555.969 502.573
380 0 51.0678 10.9854 561 94.3351 556.148 502.768
381 0 52.0451 10.8175 563 94.865 556.034 501.94
382 0 54.0655 11.0976 600 94.0583 556.083 500.222
383 0 54.1417 9.93689 538 96.4684 556.18 501.361
384 0 55.0376 10.0113 551 97.1724 556.071 498.2
385 0 58.0929 10.1045 587 96.155 556.223 498.405
386 0 61.0441 11.8439 723 93.1065 556.483 496.615
387 0 64.2678 11.0164 708 93.2105 556.056 494.893
388 0 64.1272 10.7599 690 94.8174 556.464 494.251
389 0 67.1107 10.4007 698 94.2436 556.785 494.186
390 0 72.0927 11.402 822 92.6229 555.982 492.513
391 0 73.1565 12.6168 923 93.8126 556.739 490.82
392 0 77.1143 11.0745 854 96.9672 555.98 491.112
393 1 40.0559 10.9098 437 97.897 555.735 506.792
394 0 43.1563 10.6589 460 97.287 556.057 507.093
395 0 43.1215 11.6647 503 97.1928 556.368 504.586
396 0 44.1179 10.9253 482 100.257 556.913 506.624
397 0 48.0267 12.2015 586 97.2526 555.323 504.143
398 0 47.0707 11.8545 558 99.2043 555.075 502.516
399 0 50.0721 12.5819 630 97.6667 556.313 502.452
400 0 51.1615 12.4508 637 98.3516 556.487 501.876
401 0 50.1759 12.5558 630 99.6587 556.559 501.025
402 0 54.0757 11.5579 625 100.824 556.669 501.949
403 0 54.1506 12.2252 662 100.95 557.119 501.742
404 0 57.084 14.0495 802 97.3815 556.757 499.869
405 0 57.0324 12.0984 690 103.404 556.217 497.639
406 0 56.0571 11.6488 653 106.335 556.625 497.187
407 0 59.1069 12.6889 750 103.157 556.819 498.689
408 0 61.098 13.4865 824 102.43 557.193 497.331
409 0 63.1354 13.97 882 102.658 557.755 493.626
410 0 64.2169 11.9128 765 107.465 557.196 495.554
411 0 65.2332 12.9229 843 107.458 557.285 494.887
412 0 69.192 12.5448 868 108.516 556.997 494.302
413 0 73.2431 14.8 1084 104.857 556.905 491.425
414 0 75.227 13.2266 995 109.439 556.814 488.661
415 0 75.3219 12.7453 960 113.068 557.503 487.814
416 0 82.4808 14.4155 1189 107.951 556.593 488.66
417 0 81.2223 13.3461 1084 112.149 557.112 488.623
418 1 42.1265 10.5872 446 111.805 560.314 507.886
419 0 45.1592 11.382 514 106.992 559.152 507.161
420 0 46.0367 12.7507 587 106.475 559.322 505.131
421 0 46.1937 12.4476 575 105.489 559.483 504.807
422 0 45.244 12.6868 574 106.963 559.826 503.808
423 0 49.1192 13.2738 652 103.054 559.862 504.328
424 0 49.2185 13.4096 660 104.879 559.576 502.726
425 0 54.229 13.4061 727 102.724 559.461 502.994
426 0 52.3528 13.1607 689 106.289 560.273 501.888
427 0 54.1161 13.12 710 106.834 559.875 500.446
428 0 57.1711 13.241 757 106.487 559.513 499.246
429 0 60.2952 14.3958 868 103.393 559.59 499.654
430 0 61.1495 14.2438 871 104.619 559.382 498.997
431 0 61.3847 13.391 822 108.839 559.78 495.825
432 0 64.202 13.6444 876 109.115 559.256 495.605
433 0 66.1531 14.149 936 107.885 559.111 495.645
434 0 69.1847 14.7721 1022 105.296 559.745 494.254
435 0 69.1117 13.8037 954 110.304 559.357 493.01
436 0 71.0574 13.5524 963 111.402 559.015 492.383
437 0 73.1368 13.6046 995 112.186 558.765 492.105
438 0 75.1274 13.0711 982 114.135 559.107 487.446
439 0 79.1137 14.2959 1131 112.353 558.771 486.598
440 0 80.2138 12.4916 1002 116.613 559.418 487.64
441 0 83.2201 14.2514 1186 112.597 559.194 486.245
442 0 84.2108 13.585 1144 114.976 559.189 483.706
443 0 89.375 13.6615 1221 115.016 559.009 484.138
444 0 89.2876 12.1517 1085 120.114 559.114 481.541
445 0 92.189 11.8778 1095 120.277 557.095 481.412
446 0 97.2592 12.369 1203 117.152 556.765 480.328
447 0 101.247 13.5708 1374 115.836 557.038 477.524
448 1 53.1335 11.744 624 117.994 556.462 500.054
449 0 55.0574 12.2781 676 114.672 556.216 499.948
450 0 59.2676 12.8907 764 116.23 558.59 498.62
451 0 59.3565 11.6921 694 120.878 558.723 497.274
452 0 60.3993 12.5995 761 119.286 558.239 495.02
453 0 65.309 13.1529 859 115.891 558.596 494.813
454 0 65.3129 12.3712 808 118.681 558.877 493.248
455 0 68.2255 14.1736 967 114.743 558.049 491.444
456 0 70.2946 12.9171 908 116.882 558.497 490.461
457 0 71.2607 13.191 940 116.235 558.517 491.367
458 0 73.2759 13.3741 980 116.294 558.766 488.684
459 0 76.2225 12.1224 924 119.327 559.05 488.589
460 0 80.217 13.5632 1088 115.648 558.722 486.143
461 0 81.1979 11.7614 955 120.057 558.58 484.429
462 0 85.3352 13.1013 1118 116.666 558.818 483.275
463 0 88.3084 12.5696 1110 117.038 559.533 482.382
464 0 88.4029 11.6625 1031 118.979 559.246 480.97
465 0 93.1841 11.7617 1096 116.416 559.558 480.818
466 0 97.3644 13.0232 1268 110.185 559.317 479.308
467 0 99.2129 12.2363 1214 114.104 558.632 477.339
468 1 55.2353 11.2247 620 108.75 557.945 498.902
469 0 55.4315 12.0329 667 107.474 557.715 493.253
470 0 58.0287 12.3559 717 109.331 560.114 498.377
471 0 59.0969 11.7773 696 111.335 559.858 496.519
472 0 62.0499 13.6503 847 106.274 559.416 494.05
473 0 64.0789 13.7487 881 107.296 560.058 493.062
474 0 66.0859 11.7877 779 111.261 559.637 493.599
475 0 69.1404 13.1616 910 108.366 559.963 492.463
476 0 71.0666 11.7355 834 111.983 559.628 492.002
477 0 73.1693 12.6556 926 111.271 559.64 488.693
478 0 78.089 12.8315 1002 110.534 559.772 489.202
479 0 79.0836 12.9483 1024 111.221 559.682 486.598
480 0 83.1234 13.6664 1136 110.317 559.857 486.263
481 0 83.1516 12.6396 1051 113.958 559.322 484.677
482 0 86.0997 12.3113 1060 115.198 559.343 482.908
483 0 92.2943 14.2479 1315 110.284 559.797 480.912
484 0 96.097 14.2876 1373 111.442 560.166 480.17
485 1 50.0574 11.327 567 111.598 560.494 503.289
486 0 50.114 10.6557 534 114.601 560.195 501.85
487 0 53.1847 12.3344 656 112.096 560.104 499.102
488 0 54.053 12.1917 659 107.355 559.677 499.756
489 0 57.0382 11.7816 672 107.272 560.112 500.69
490 0 59.0469 12.6002 744 105.983 559.353 497.712
491 0 62.0624 13.4703 836 103.945 559.694 496.36
492 0 62.0676 11.4391 710 109.127 560.255 496.263
493 0 65.117 11.8556 772 107.826 559.613 495.611
494 0 67.1603 12.9839 872 105.024 560.029 493.705
495 0 69.1903 13.1666 911 104.748 559.852 492.865
496 0 71.0584 12.4686 886 106.731 559.552 493.842
497 0 73.0534 12.5388 916 108.091 560.117 489.004
498 0 77.1284 11.7596 907 109.33 559.964 487.115
499 0 78.2057 11.9556 935 110.707 559.861 488.141
500 0 78.0686 12.0279 939 114.059 559.929 486.937
501 0 80.2197 11.6306 933 116.861 559.687 485.928
502 0 85.341 11.8466 1011 117.537 559.562 484.212
503 0 87.1945 12.2714 1070 116.941 559.875 485.179
504 0 90.2408 12.4888 1127 117.126 560.335 482.781
505 0 90.2409 11.4804 1036 120.881 559.937 480.384
506 0 95.3523 12.2493 1168 119.455 559.932 478.842
507 0 99.3783 12.699 1262 117.481 559.898 478.815
508 1 50.5235 9.5797 484 112.986 558.068 496.721
509 0 48.3813 10.3966 503 104.402 559.171 491.793
510 0 54.0332 11.1043 600 99.6517 559.145 495.525
511 0 54.1172 10.4773 567 108.063 560.055 499.189
512 0 55.1141 12.2655 676 105.584 559.643 498.818
513 0 57.1688 10.8976 623 108.77 559.424 496.758
514 0 59.2488 10.9707 650 107.026 560.062 497.363
515 0 61.1662 11.7058 716 106.978 559.542 494.793
516 0 62.251 11.293 703 107.71 559.747 495.407
517 0 65.11 12.3944 807 105.89 559.377 495.253
518 0 68.2426 12.4116 847 105.567 559.357 493.131
519 0 68.1186 10.8634 740 110.022 559.422 491.3
520 0 73.1639 11.194 819 108.534 559.537 491.085
521 0 73.1327 11.7731 861 109.4 558.839 488.62
522 0 76.1316 12.3339 939 108.675 558.408 487.333
523 0 81.2404 13.0231 1058 106.836 558.403 486.572
524 0 81.1204 11.4891 932 111.485 559.055 485.561
525 0 86.2769 12.8771 1111 108.698 558.869 484.902
526 0 89.3579 12.836 1147 110.271 558.543 484.525
527 0 91.1614 12.615 1150 112.403 558.021 480.457
528 0 95.2119 12.1308 1155 114.596 558.045 477.747
529 0 98.1987 12.1692 1195 114.747 558.379 479.522
530 0 99.2551 12.4528 1236 116.073 558.708 476.061
531 0 104.211 12.35 1287 116.162 558.737 476.636
532 0 107.353 13.3671 1435 123.024 558.586 470.209
533 0 111.263 13.176 1466 124.622 558.58 468.524
534 1 61.0969 11.0153 673 115.779 557.523 497.138
535 0 62.0487 11.3137 702 114.399 559.296 498.632
536 0 61.1142 10.2758 628 120.053 559.683 491.865
537 0 65.0976 11.9359 777 119.245 559.283 492.214
538 0 67.0467 12.2899 824 117.751 559.743 491.903
539 0 72.1227 12.8115 924 115.249 559.646 491.37
540 0 72.103 12.6208 910 115.352 559.696 490.911
541 0 75.1924 12.5412 943 115.741 559.617 489.357
542 0 77.2055 11.3981 880 117.793 559.934 488.86
543 0 81.0429 12.8821 1044 113.488 560.671 488.56
544 0 83.1907 12.7659 1062 114.865 560.479 485.245
545 0 86.0754 12.094 1041 117.018 560.523 483.76
546 0 88.0862 12.5672 1107 117.01 560.952 481.246
547 0 93.0917 12.8583 1197 115.361 560.272 479.933
548 1 51.0278 9.91617 506 112.18 560.907 501.233
549 0 52.0459 11.2977 588 108.066 562.087 501.832
550 0 51.0654 10.3593 529 102.777 560.922 502.18
551 0 54.1017 11.1826 605 102.456 560.425 499.691
552 0 55.0837 11.419 629 102.343 561.127 500.887
553 0 59.0347 12.7552 753 98.3811 560.847 499.331
554 0 59.1035 11.0823 655 103.075 560.627 497.928
555 0 60.0944 10.4169 626 104.26 560.773 497.359
556 0 61.0955 11.3756 695 103.515 561.235 493.131
557 0 64.0906 11.8582 760 102.433 560.746 494.53
558 0 66.133 12.6865 839 100.851 561.13 492.959
559 0 68.2199 12.8262 875 100.361 561.035 491.351
560 0 72.1861 12.6617 914 99.8786 561.467 492.263
561 0 73.1903 12.9799 950 101.026 561.123 489.6
562 0 74.1482 12.0704 895 103.259 561.022 488.499
563 0 79.2714 12.2238 969 102.215 560.407 488.738
564 0 81.1322 12.9172 1048 101.225 560.292 485.735
565 0 83.2397 12.434 1035 103.056 560.304 485.39
566 0 84.1582 12.8924 1085 102.743 559.716 483.834
567 1 47.0623 10.2842 484 105.698 557.068 504.946
568 0 44.3853 10.7468 477 106.744 558.727 504.226
569 0 48.2137 12.9424 624 97.2308 558.518 503.878
570 0 49.1004 11.507 565 97.9451 557.214 501.74
571 0 49.0777 11.7976 579 98.4801 557.035 501.891
572 0 50.1023 11.6162 582 100.734 557.68 501.828
573 0 52.1511 11.4667 598 100.962 557.612 499.301
574 0 54.089 12.5904 681 99.2056 557.216 500.358
575 0 55.0388 12.4094 683 100.549 557.42 498.914
576 0 57.0738 11.5464 659 102.986 557.458 497.452
577 0 60.0411 12.1916 732 101.163 556.642 496.322
578 0 61.0729 12.657 773 100.987 556.69 495.391
579 0 62.0371 14.6042 906 97.6093 556.976 495.288
580 0 65.0873 12.6599 824 100.71 556.822 496.76
581 0 66.0784 13.3629 883 99.8924 556.666 493.337
582 0 68.0575 11.6225 791 103.378 557.032 493.9
583 0 71.1214 12.6122 897 101.779 557.066 492.329
584 0 72.096 14.1478 1020 98.5667 557.864 490.21
585 0 76.2858 13.0431 995 100.509 557.494 490.08
586 0 76.1149 13.1117 998 100.734 557.767 488.174
587 0 77.0739 12.4815 962 103.433 558.184 487.352
588 0 82.2366 12.5491 1032 102.139 558.349 487.098
589 0 86.2027 12.6446 1090 101.283 558.225 486.357
590 0 90.124 13.1485 1185 100.851 557.675 484.257
591 1 46.0355 11.6432 536 102.424 556.58 506.677
592 0 48.0188 11.0165 529 103.095 556.499 506.087
593 0 48.0616 11.9014 572 97.2343 556.706 505.886
594 0 50.0549 12.6062 631 97.5325 556.509 504.309
595 0 50.0525 11.7477 588 101.332 556.459 503.861
596 0 52.0491 12.0463 627 102.419 555.914 501.147
597 0 53.1386 12.665 673 101.82 556.499 501.383
598 0 54.0544 13.1719 712 101.072 556.93 502.306
599 0 58.1359 13.6405 793 98.9256 556.614 502.087
600 0 60.0846 13.0483 784 101.75 556.684 498.765
601 0 60.0762 12.6339 759 104.448 557.632 497.615
602 0 61.1057 13.0266 796 103.845 557.036 498.766
603 0 62.1032 12.7369 791 105.057 557.008 496.472
604 0 64.102 13.7281 880 103.372 556.642 497.459
605 0 68.282 14.1765 968 102.636 556.937 492.938
606 0 69.1647 12.7088 879 106.904 556.572 492.215
607 0 73.2262 13.9841 1024 103.172 557.066 493.168
608 0 72.1914 12.0513 870 109.989 557.268 491.467
609 0 76.0915 11.7884 897 109.818 557.476 490.812
610 0 77.0692 13.157 1014 108.776 556.906 492.059
611 0 80.139 12.7404 1021 111.434 557.413 486.646
612 0 82.2676 12.6052 1037 112.053 557.345 487.238
613 0 85.2435 12.2121 1041 112.663 557.706 486.379
614 0 90.2749 12.6503 1142 111.894 558.255 485.384
615 0 92.2641 12.7135 1173 113.036 558.024 484.488
616 1 53.0233 12.1645 645 111.862 557.611 502.623
617 0 54.1212 13.9686 756 106.93 556.806 502.028
618 0 56.1307 12.3462 693 103.408 557.121 501.691
619 0 55.201 11.3404 626 105.805 559.407 500.794
620 0 58.1327 12.1446 706 103.443 560.414 499.504
621 0 58.1864 13.7145 798 100.695 560.545 500.068
622 0 59.0788 13.4228 793 102.023 560.439 499.586
623 0 61.1563 13.0812 800 103.366 559.96 497.316
624 0 64.0769 12.9844 832 101.977 559.992 496.168
625 0 65.2667 12.6404 825 103.229 560.025 496.308
626 0 65.1816 11.1381 726 106.182 560.022 496.449
627 0 69.2253 13.7522 952 100.612 560.178 494.024
628 0 71.2915 13.003 927 102.566 560.508 491.012
629 0 72.0954 11.4293 824 107.142 560.083 491.45
630 0 76.2256 11.5053 877 105.787 560.193 489.977
631 0 79.4707 12.772 1015 103.353 559.926 487.721
632 0 80.3209 11.2798 906 107.316 559.343 488.587
633 1 40.0394 11.5636 463 105.529 560.46 505.518
634 0 43.0362 12.7567 549 104.04 560.195 505.67
635 0 44.0312 11.2875 497 105.728 560.404 505.155
636 0 45.1117 11.7929 532 104.722 560.588 503.346
637 0 47.077 10.2173 481 108.262 560.177 505.262
638 0 50.0317 13.8912 695 100.65 560.027 503.165
639 0 50.0344 12.4914 625 105.667 560.437 501.781
640 0 50.0557 11.2075 561 109.098 560.8 502.488
641 0 53.1567 13.6201 724 103.978 560.989 500.47
642 0 55.0724 12.4926 688 107.124 560.003 501.327
643 0 54.0399 12.3612 668 110.388 559.729 500.909
644 0 55.0365 12.9187 711 109.807 559.128 499.356
645 0 58.1694 12.3948 721 109.655 560.775 499.173
646 0 61.1626 12.0171 735 110.234 560.388 499.114
647 0 63.2034 12.8791 814 107.741 559.984 498.125
648 0 64.2783 12.2281 786 110.844 559.823 496.748
649 0 65.3258 13.1954 862 110.951 559.342 495.252
650 0 68.1769 14.037 957 109.039 559.655 494.811
651 0 71.1518 13.1971 939 111.652 559.677 493.963
652 0 73.142 13.9455 1020 110.112 559.892 492.916
653 0 75.1162 13.8186 1038 110.7 559.806 491.872
654 0 78.2177 12.7593 998 115.588 560.152 491.472
655 0 79.2128 13.47 1067 115.597 559.81 488.623
656 0 81.1395 12.8051 1039 117.533 559.71 489.652
657 0 83.109 13.5605 1127 118.323 558.245 485.744
658 0 88.18 13.3023 1173 119.57 557.7 485.706
659 0 90.3632 13.4347 1214 119.757 557.782 484.055
660 0 94.0758 14.9986 1411 116.306 557.95 481.513
661 1 54.017 12.4405 672 116.387 557.192 502.193
662 0 55.0867 12.3986 683 117.28 560.404 499.734
663 0 58.1964 14.3651 836 112.297 560.841 498.968
664 0 59.0844 12.863 760 119.684 561.261 500.3
665 0 59.1101 12.8066 757 119.446 561.642 499.147
666 0 61.0512 13.7589 840 117.008 561.248 499.044
667 0 64.0298 15.649 1002 111.894 561.159 496.886
668 0 64.036 13.2894 851 117.919 561.062 496.444
669 0 67.1291 13.7347 922 116.543 560.527 496.432
670 0 70.1098 14.9765 1050 113.794 559.873 494.83
671 0 72.1281 13.9335 1005 116.783 559.697 493.421
672 0 74.1438 13.6761 1014 117.646 559.81 492.304
673 0 77.1675 14.462 1116 115.616 559.263 491.625
674 0 79.1403 14.0005 1108 117.938 559.736 489.294
675 0 83.1165 13.8601 1152 117.959 559.836 489.564
676 0 84.0883 14.0091 1178 119.787 559.797 485.212
677 0 88.1339 15.1701 1337 115.949 559.927 483.03
678 0 90.1104 13.8497 1248 117.216 560.192 484.554
679 0 92.1712 14.1259 1302 117.119 559.868 482.245
680 0 97.0992 15.5923 1514 112.167 560.262 482.238
681 0 101.079 14.6223 1478 112.206 559.081 480.611
682 1 53.1301 12.1212 644 113.536 559.45 500.733
683 0 54.2905 11.4569 622 112.421 558.936 500.569
684 0 56.2007 12.1173 681 110.455 559.344 500.238
685 0 56.0384 11.8312 663 108.709 559.109 502.268
686 0 58.0471 12.955 752 106.793 559.259 499.725
687 0 61.1042 14.4998 886 102.796 558.765 498.252
688 0 63.1662 13.2824 839 103.103 559 497.112
689 0 65.2 12.6227 823 104.645 559.13 495.499
690 0 67.3762 13.4617 907 103.41 558.795 493.744
691 0 70.2596 12.1265 852 104.881 559.725 494.114
692 0 71.1336 12.6101 897 104.843 559.446 491.788
693 0 75.1977 12.4339 935 104.773 559.573 490.797
694 0 77.2116 14.0134 1082 102.619 559.217 488.879
695 0 80.2271 12.8385 1030 104.28 558.737 487.008
696 0 82.2066 12.4078 1020 106.117 558.678 486.935
697 0 85.1548 11.485 978 107.099 558.602 487.648
698 0 88.1884 12.9949 1146 105.567 558.366 481.942
699 0 93.1985 13.0367 1215 105.119 558.48 481.091
700 0 96.1631 13.0819 1258 105.808 558.541 479.453
701 0 98.2913 12.758 1254 105.708 558.603 477.47
702 0 104.305 13.9974 1460 103.272 558.037 477.243
703 0 105.29 13.1732 1387 105.585 557.22 473.58
704 0 108.117 11.691 1264 108.498 556.855 471.792
705 1 59.0617 11.4118 674 103.056 556.227 498.315
706 0 61.3073 12.6575 776 101.219 556.399 494.401
707 0 63.0981 12.3617 780 101.217 556.932 495.786
708 0 65.0913 13.5656 883 99.5764 556.2 492.883
709 0 67.0599 11.4674 769 102.631 556.203 494.07
710 0 71.0674 12.8892 916 99.6332 556.347 491.349
711 0 75.1071 12.7019 954 98.9665 556.996 491.241
712 0 76.0966 12.8258 976 99.6404 556.263 488.268
713 0 78.1179 13.3132 1040 98.9885 556.651 487.629
714 0 79.1842 13.1971 1045 99.0201 557.072 488.337
715 0 83.1551 14.2625 1186 96.2976 556.924 484.658
716 0 84.1409 12.0156 1011 100.213 557.005 485.007
717 0 86.1856 11.951 1030 101.87 557.483 485.242
718 0 90.2168 13.5341 1221 99.1351 557.921 483.926
719 0 91.1936 11.5688 1055 102.11 557.924 484.875
720 0 94.1795 12.0939 1139 101.143 557.213 477.855
721 0 98.1319 12.738 1250 99.7768 557.897 476.054
722 0 101.148 11.0729 1120 101.463 557.292 475.696
723 0 104.2 11.5163 1200 99.9567 557.506 475.15
724 0 108.213 12.8728 1393 98.9813 557.374 472.521
725 0 110.301 11.8403 1306 100.332 557.143 473.046
726 0 116.27 14.2083 1652 96.7845 557.084 470.475
727 0 119.164 14.0479 1674 99.1016 557.39 465.562
728 0 122.274 13.2653 1622 100.804 557.007 464.658
729 0 127.29 14.3531 1827 100.63 557.411 462.47
730 0 131.344 13.2172 1736 103.052 557.344 460.14
731 0 135.368 14.1688 1918 100.288 557.592 459.372
732 0 140.272 13.3669 1875 102.133 557.651 456.949
733 0 144.202 13.1135 1891 103.13 557.818 456.233
734 0 148.323 13.7066 2033 103.531 557.575 452.366
735 0 155.155 13.4382 2085 105.33 557.875 447.268
736 0 162.345 14.8819 2416 102.701 557.572 445.436
737 0 167.372 14.3573 2403 104.859 557.375 441.126
738 0 171.342 13.7619 2358 108.061 557.223 437.369
739 0 176.328 13.4465 2371 108.726 557.663 436.467
740 0 184.502 14.84 2738 106.332 557.459 429.675
741 0 188.397 13.4503 2534 111.339 557.447 429.929
742 0 195.464 12.7594 2494 112.837 558.161 430.179
743 0 203.334 14.5819 2965 112.308 558.028 423.08
744 1 102.264 10.0328 1026 110.822 558.451 472.559
745 0 108.317 10.7278 1162 109.9 558.526 472.859
746 0 113.344 12.2459 1388 107.795 558.162 468.663
747 0 117.264 13.2606 1555 105.705 558.141 467.506
748 0 121.357 12.8711 1562 106.941 557.713 465.672
749 0 124.339 11.3561 1412 110.681 557.792 459.89
750 0 131.337 13.8803 1823 106.575 557.906 458.383
751 0 136.302 12.9419 1764 107.783 557.92 458.224
752 0 143.313 13.6834 1961 106.18 557.96 457.123
753 1 81.1528 12.8893 1046 99.391 557.473 489.02
754 0 80.1013 12.1596 974 100.583 557.934 486.397
755 0 86.2335 13.1388 1133 99.4898 557.483 488.059
756 0 88.4287 12.5525 1110 101.395 557.86 484.037
757 0 90.2973 14.3304 1294 98.3764 557.957 483.175
758 0 94.3396 13.038 1230 101.531 557.766 483.869
759 0 95.1601 13.1042 1247 102.339 557.869 481.16
760 0 99.283 12.4895 1240 103.307 557.413 478.42
761 0 103.257 13.2679 1370 102.613 557.534 479.193
762 0 103.154 10.906 1125 107.51 557.515 480.136
763 0 106.255 13.4393 1428 104.034 557.356 477.508
764 0 111.242 12.7649 1420 105.015 557.601 473.364
765 0 112.357 11.9084 1338 109.381 557.96 472.558
766 0 118.36 13.3069 1575 106.2 558.636 472.715
767 0 120.235 13.3239 1602 108.736 559.53 470.875
768 0 125.292 12.5148 1568 113.138 559.197 465.711
769 0 132.288 12.4879 1652 110.249 559.298 461.835
770 1 72.1497 12.2939 887 104.109 561.258 490.15
771 0 77.1657 12.8943 995 101.202 561.168 490.145
772 0 73.1625 12.2467 896 107.493 561.219 491.142
773 0 80.0385 12.4565 997 108.235 560.985 489.189
774 0 83.0986 12.3227 1024 107.362 561.039 489.021
775 0 85.1077 12.7368 1084 107.621 560.446 485.55
776 0 89.0781 13.8979 1238 105.142 560.159 484.359
777 0 89.1419 11.2966 1007 112.293 560.216 482.714
778 0 92.1788 13.0833 1206 109.407 560.484 481.663
779 0 95.1075 12.8381 1221 110.799 560.271 479.351
780 0 99.1487 13.6563 1354 108.905 559.747 478.474
781 0 102.124 13.1506 1343 110.847 559.36 476.675
782 0 105.139 12.8401 1350 112.561 559.259 475.639
783 0 107.137 13.9448 1494 110.509 559.627 474.288
784 0 111.467 13.8427 1543 111.417 558.685 474.494
785 0 112.229 13.4457 1509 113.586 558.08 470.868
786 0 116.283 12.0568 1402 113.74 558.889 471.828
787 0 115.23 9.89329 1140 87.0202 558.449 471.11
788 1 65.2971 13.4309 877 104.089 557.696 490.438
789 0 68.335 12.7899 874 109.051 557.406 494.304
790 0 69.1153 12.8047 885 111.016 556.266 494.756
791 0 72.0516 13.296 958 109.313 556.352 493.149
792 0 75.1473 13.1076 985 109.387 555.857 493.192
793 0 77.119 14.0562 1084 107.458 556.125 490.327
794 0 79.1329 13.3194 1054 110.16 556.198 488.819
795 0 81.0361 13.6112 1103 109.487 556.221 489.335
796 0 84.06 12.5506 1055 110.741 555.978 483.998
797 0 89.1439 14.886 1327 105.075 556.253 483.992
798 0 91.1692 14.2153 1296 105.59 556.177 480.998
799 0 94.2171 13.2354 1247 109.516 556.357 480.369
800 0 96.1404 13.0018 1250 110.665 556.542 477.114
801 0 100.135 13.4817 1350 108.695 555.836 476.093
802 1 53.0334 10.8422 575 108.96 555.303 499.861
803 0 52.0784 8.83284 460 103.443 555.961 498.337
804 0 55.2147 12.4786 689 106.337 558.913 501.26
805 0 56.0382 11.742 658 110.315 558.903 499.266
806 0 58.0777 11.3469 659 111.19 559.554 499.493
807 0 59.0602 11.2428 664 112.252 559.548 499.955
808 0 61.1536 13.1963 807 108.309 559.55 496.753
809 0 62.1096 12.5584 780 110.24 559.673 497.147
810 0 64.1376 13.3931 859 109.224 559.137 495.669
811 0 68.1344 12.9156 880 109.875 560.103 494.238
812 0 69.1846 14.3529 993 107.941 559.179 493.921
813 0 71.1347 12.2725 873 113.312 559.425 492.589
814 0 75.1486 13.0009 977 112.424 559.084 492.434
815 0 77.2615 14.6774 1134 109.178 559.059 490.66
816 0 78.294 13.7814 1079 115.028 559.037 488.854
817 0 79.265 12.8051 1015 117.414 559.251 491.852
818 0 83.1968 12.5486 1044 119.146 558.465 487.658
819 0 84.3233 12.4639 1051 121.245 558.439 485.917
820 0 89.3045 12.8437 1147 119.564 558.833 484.257
821 0 91.466 13.5351 1238 118.737 558.165 483.028
822 0 95.3831 12.3083 1174 121.075 558.663 483.173
823 1 53.1781 11.3581 604 119.026 559.406 502.921
824 0 54.3637 11.6438 633 119.153 559.6 502.128
825 0 56.0643 12.7354 714 111.066 560.564 499.22
826 0 58.0863 12.6708 736 111.295 560.069 499.501
827 0 59.0466 12.38 731 113.093 560.052 499.436
828 0 59.04 12.6186 745 113.902 560.455 497.209
829 0 60.1069 11.6459 700 116.444 560.319 496.091
830 0 63.149 12.2092 771 114.004 559.608 495.913
831 0 64.0456 12.0695 773 114.561 559.223 496.507
832 0 68.0621 14.4427 983 107.383 559.464 492.485
833 0 68.1076 13.1997 899 112.079 559.64 491.868
834 0 72.0604 13.3222 960 111.134 559.644 491.656
835 0 73.0655 13.8232 1010 109.966 559.227 490.536
836 0 75.1184 13.299 999 110.401 558.587 487.449
837 0 78.1164 13.7743 1076 108.058 559.25 487.172
838 0 78.1158 12.7887 999 110.877 559.141 487.798
839 0 81.0828 12.6907 1029 111.933 559.362 484.638
840 0 82.1227 14.1739 1164 109.006 559.226 483.034
841 0 85.1549 13.2582 1129 110.663 559.475 481.57
842 0 90.1159 14.0042 1262 107.597 558.864 479.125
843 0 89.1288 13.0373 1162 110.299 559.165 482.84
844 0 93.1486 13.1618 1226 110.852 559.084 477.705
845 0 94.0959 11.669 1098 112.791 559.051 479.281
846 0 97.2007 11.7592 1143 113.146 558.818 473.134
847 1 52.1091 10.9578 571 108.377 559.254 494.627
848 0 55.1725 11.89 656 106.564 558.427 494.71
849 0 54.1405 9.97405 540 102.67 555.931 494.831
850 0 55.071 10.0597 554 102.588 557.034 493.108
851 0 57.1087 9.0179 515 104.798 555.953 491.623
852 0 61.1087 8.72217 533 105.623 556.914 488.006
853 0 63.0862 10.4936 662 101.474 557.193 491.912
854 0 66.0869 9.60856 635 103.461 557.049 489.104
855 0 67.1529 11.7344 788 100.76 557.077 487.623
856 0 67.1524 9.29229 624 106.332 556.878 485.968
857 0 70.2321 9.62523 676 105.357 556.854 487.407
858 0 75.0942 12.3711 929 101.119 556.958 487.081
859 0 77.1743 10.7549 830 104.093 556.851 487.314
860 0 80.1209 12.5061 1002 102.655 556.621 485.659
861 0 80.0942 11.2243 899 106.384 556.493 480.135
862 0 84.2657 11.8791 1001 106.946 557.191 480.555
863 0 87.4444 11.9161 1042 106.162 556.972 479.54
864 0 90.1007 11.5981 1045 107.062 557.328 476.803
865 0 93.2884 11.2018 1045 109.77 557.158 474.212
866 1 47.058 10.0089 471 105.178 559.597 501.93
867 0 49.3409 11.5118 568 106.19 558.014 500.495
868 0 51.1178 11.8745 607 108.044 560.234 502.056
869 0 53.2488 13.1646 701 105.006 560.629 501.479
870 0 55.0641 14.5649 802 102.5 560.094 501.037
871 0 57.0096 13.5942 775 105.39 560.209 499.797
872 0 59.0592 12.3435 729 109.243 560.199 498.014
873 0 60.0941 12.78 768 109.077 560.107 496.706
874 0 63.0472 13.593 857 108.453 559.617 496.309
875 0 65.1451 12.2649 799 111.094 560.583 495.778
876 0 68.1561 13.5424 923 108.221 559.719 492.852
877 0 69.1402 13.1038 906 109.143 559.6 493.874
878 0 69.0697 12.6828 876 112.154 559.995 492.768
879 0 73.1039 14.8966 1089 106.113 559.632 489.738
880 0 78.1154 14.3762 1123 106.043 559.581 490.712
881 0 80.1821 15.4897 1242 104.818 559.494 489.812
882 0 82.2554 13.4824 1109 109.992 558.994 488.196
883 0 84.2208 13.1796 1110 112.186 558.704 484.594
884 0 89.3113 14.5894 1303 105.249 558.204 484.47
885 0 93.3794 14.3608 1341 106.363 558.565 482.672
886 0 93.37 12.82 1197 110.393 558.587 483.168
887 0 99.2945 14.039 1394 107.32 558.772 480.215
888 0 100.441 13.2914 1335 110.469 558.055 477.04
889 1 53.259 12.5988 671 110.507 557.118 497.692
890 0 56.2332 14.3865 809 106.221 557.111 497.266
891 0 57.045 12.8144 731 116.774 560.248 498.681
892 0 57.0314 12.9227 737 116.465 559.638 499.455
893 0 63.0546 13.3059 839 113.479 559.844 498.622
894 0 63.1707 13.788 871 114.189 560.245 495.261
895 0 66.0831 13.4376 888 114.519 560.768 495.35
896 0 69.1719 14.0375 971 113.435 560.184 494.443
897 0 70.1209 13.7905 967 116.163 560.157 492.665
898 0 71.0591 13.7491 977 117.334 560.745 492.627
899 0 75.1 14.261 1071 115.189 559.88 491.838
900 0 77.099 14.0858 1086 115.694 560.084 490.861
901 0 80.1308 13.0661 1047 117.226 560.052 489.143
902 0 83.0533 13.6178 1131 116.343 559.773 488.625
903 0 85.298 13.3532 1139 117.49 559.413 486.981
904 0 89.2133 14.4373 1288 114.667 558.866 485.498
905 0 91.3845 13.7222 1254 116.224 559.345 483.314
906 0 93.3304 13.0075 1214 118.192 558.773 482.759
907 0 96.3492 13.4614 1297 118.257 558.853 477.401
908 1 51.0135 12.4085 633 114.927 560.512 501.351
909 0 53.0409 13.763 730 111.515 560.677 502.285
910 0 55.0768 12.2193 673 114.591 560.915 500.911
911 0 57.1859 12.9927 743 113.131 560.246 500.517
912 0 57.0709 13.492 770 113.553 559.865 497.726
913 0 61.1037 12.6506 773 112.462 559.986 499.039
914 0 63.069 14.1749 894 109.411 560.15 497.225
915 0 65.1778 12.7804 833 111.621 560.317 496.221
916 0 68.1074 13.42 914 109.354 560.271 495.819
917 0 70.1356 13.0461 915 110.408 559.886 494.654
918 0 69.0851 12.8392 887 113.441 559.6 491.871
919 0 75.1873 14.0848 1059 108.307 559.249 491.175
920 0 77.1151 14.6015 1126 108.216 560.037 489.316
921 0 77.4444 13.4548 1042 111.161 558.939 489.741
922 0 81.2304 13.5294 1099 110.432 558.92 487.198
923 0 84.2944 13.6308 1149 111.368 558.635 485.619
924 0 87.1385 13.6679 1191 111.095 559.57 483.258
925 0 90.3736 14.0417 1269 110.248 559.231 481.409
926 1 47.1315 11.9665 564 107.645 560.238 504.309
927 0 47.1033 12.3771 583 108.551 559.852 503.419
928 0 49.1179 13.3149 654 94.2859 557.012 499.896
929 0 50.0365 10.6122 531 99.5574 557.083 502.488
930 0 52.149 12.9245 674 94.3516 556.812 503.344
931 0 54.0968 12.2373 662 96.6208 557.403 502.284
932 0 56.049 12.6853 711 95.4895 557.006 501.34
933 0 56.1926 11.1758 628 98.0605 557.604 499.245
934 0 58.0408 11.9743 695 96.6849 557.734 500.281
935 0 61.0894 13.0792 799 94.7785 558.013 497.05
936 0 63.0965 13.1386 829 94.6068 558.345 496.608
937 0 64.108 14.0076 898 94.5535 558.182 494.317
938 0 63.0397 12.4842 787 98.6658 557.3 494.081
939 0 68.132 11.9034 811 99.0419 557.953 493.986
940 0 70.0677 12.6449 886 99.1433 558.324 491.941
941 0 73.2363 13.4496 985 101.491 557.877 491.527
942 0 74.1611 13.2145 980 103.546 558.279 490.832
943 0 78.2123 12.3638 967 105.134 557.575 490.916
944 0 79.1228 12.2341 968 106.518 558.243 487.884
945 0 81.1676 12.3941 1006 106.849 558.327 488.391
946 0 85.1694 13.526 1152 104.166 558.612 483.661
947 1 45.2769 11.4628 519 107.455 558.37 505.902
948 0 47.1805 10.9155 515 102.699 558.915 502.571
949 0 48.1077 11.9524 575 106.358 558.598 503.791
950 0 48.0831 11.5633 556 108.951 558.489 502.718
951 0 50.0375 13.31 666 106.111 558.305 500.937
952 0 53.1861 13.0861 696 105.474 557.894 500.31
953 0 55.0651 13.711 755 105.138 557.699 499.482
954 0 57.1636 13.3826 765 105.107 557.885 499.371
955 0 57.1037 12.9414 739 107.93 558.066 496.682
956 0 59.1036 12.8588 760 107.68 557.738 499.311
957 0 61.0965 13.405 819 106.807 558.618 495.969
958 0 64.1684 13.5581 870 104.595 558.602 496.029
959 0 66.2213 13.4096 888 104.628 558.209 495.407
960 0 68.3088 13.4097 916 105.251 558.303 493.93
961 0 71.2527 13.403 955 105.135 558.441 494.103
962 0 74.1815 13.6287 1011 105.241 558.64 491.422
963 0 75.1361 13.2426 995 106.992 559.023 491.011
964 0 78.2118 12.7602 998 108.218 558.426 488.691
965 0 80.1831 12.5588 1007 110.523 558.298 485.608
966 1 41.146 10.8637 447 110.872 557.072 507.747
967 0 42.1607 13.2588 559 108.701 558.952 507.063
968 0 44.3202 12.2517 543 113.357 559.468 504.867
969 0 45.0845 12.0219 542 112.758 556.921 507.079
970 0 48.0524 13.1315 631 112.363 557.401 505.513
971 0 48.0561 11.7987 567 114.023 556.642 503.861
972 0 48.0364 11.4497 550 116.769 556.536 503.431
973 0 52.066 14.3088 745 110.004 557.254 502.348
974 0 52.0439 12.3934 645 114.498 556.803 500.504
975 0 54.1518 12.8712 697 114.3 557.103 500.027
976 0 57.1114 12.0816 690 114.171 557.428 501.638
977 0 60.1124 14.4895 871 109.188 557.607 498.289
978 0 59.0645 13.6461 806 112.38 557.618 498.414
979 0 61.12 14.0707 860 111.694 557.884 497.366
980 0 63.0469 13.4027 845 113.064 557.337 497.541
981 0 66.0732 13.3791 884 114.075 557.242 495.483
982 0 67.1094 13.6047 913 114.898 557.422 494.277
983 0 67.1094 13.6494 916 143.222 557.418 494.036
984 0 71.0319 14.3316 1018 114.184 557.519 491.029
985 0 73.1495 14.7096 1076 113.205 557.323 491.064
986 0 75.0343 13.8337 1038 116.119 557.608 489.267
987 0 80.0532 14.2405 1140 113.565 557.964 489.159
988 0 81.0794 14.2206 1153 115.156 558.131 487.018
989 0 83.1299 13.8097 1148 115.445 558.139 486.307
990 0 86.0649 14.431 1242 115.278 558 483.759
991 0 89.1867 13.3652 1192 118.542 558.686 483.164
992 1 45.0523 11.5865 522 120.031 557.772 505.188
993 0 48.111 13.9677 672 115.17 558.558 502.089
994 0 48.1127 12.7825 615 118.317 557.813 502.22
995 0 51.1019 12.6414 646 113.285 557.833 503.212
996 0 53.0721 13.8868 737 110.845 558.562 502.312
997 0 53.1419 13.3981 712 111.841 558.645 502.289
998 0 54.0983 13.5864 735 112.08 559.072 500.86
999 0 57.0598 13.7049 782 111.331 559.318 500.197
1000 0 60.184 13.4753 811 111.687 559.417 498.205
1001 0 61.0547 13.4633 822 111.067 559.673 497.363
1002 0 62.1858 14.0707 875 109.587 559.854 497.227
1003 0 66.1279 14.5324 961 108.566 559.773 494.108
1004 0 68.0871 14.5843 993 108.262 559.969 494.915
1005 0 70.0798 13.5132 947 109.819 559.756 495.256
1006 0 72.1099 13.424 968 111.974 559.455 492.879
1007 0 74.1543 13.6202 1010 111.069 559.325 492.725
1008 0 78.0534 15.0794 1177 107.821 559.535 489.535
1009 0 78.1645 13.9322 1089 112.004 559.626 490.562
1010 0 81.0917 13.7869 1118 112.217 559.447 487.096
1011 0 85.1026 14.2299 1211 110.613 559.741 486.708
1012 0 87.0672 15.1607 1320 108.927 560.061 483.879
1013 0 91.1329 14.9672 1364 108.998 559.532 481.742
1014 0 94.1562 15.3468 1445 107.5 558.843 481.228
1015 0 98.1121 15.2275 1494 107.691 559.503 481.183
1016 0 100.085 13.8783 1389 111.896 559.047 478.08
1017 1 50.0318 12.8718 644 110.427 560.16 503.297
1018 0 52.0448 12.6622 659 108.734 560.061 503.768
1019 0 53.1174 13.6867 727 107.158 559.62 500.263
1020 0 54.1024 13.419 726 108.763 560.408 501.51
1021 0 59.1139 13.787 815 106.563 559.593 501.351
1022 0 58.0414 13.2492 769 110.27 560.462 498.982
1023 0 62.1085 13.4925 838 115.979 560.166 496.975
1024 0 64.0599 13.4249 860 117.116 559.778 497.485
1025 0 66.0645 13.4868 891 118.727 560.397 494.389
1026 0 68.0705 13.6917 932 118.577 559.588 494.351
1027 0 73.1179 13.9637 1021 117.484 558.916 494.731
1028 0 74.0551 14.4217 1068 117.665 559.287 492.334
1029 0 77.1445 14.3886 1110 118.13 559.725 489.914
1030 0 80.1546 14.9087 1195 117.651 559.48 489.688
1031 0 81.1962 15.2716 1240 118.09 559.855 487.306
1032 0 85.1679 14.0663 1198 121.886 559.775 487.599
1033 0 86.0913 14.9028 1283 121.302 560.696 487.388
1034 0 88.1051 13.2455 1167 126.987 560.382 482.636
1035 0 93.2504 14.6595 1367 121.296 559.926 482.395
1036 0 95.2179 14.4931 1380 121.87 559.612 480.329
1037 0 100.172 15.6231 1565 115.13 559.794 480.516
1038 0 102.187 13.8178 1412 117.871 559.789 478.305
1039 0 105.331 14.3547 1512 118.003 559.634 477.569
1040 1 52.0603 13.5036 703 110.616 559.888 505.659
1041 0 53.1869 12.3715 658 115.71 560.316 503.146
1042 0 56.0788 13.588 762 114.357 559.265 501.148
1043 0 56.1464 12.9483 727 115.944 559.765 501.036
1044 0 60.1461 13.3841 805 115.219 560.063 498.59
1045 0 62.0792 13.6116 845 115.037 560.134 497.804
1046 0 66.1429 13.2138 874 115.506 559.989 496.844
1047 0 66.0587 13.5486 895 115.218 559.695 497.441
1048 0 71.1014 15.1474 1077 112.979 559.798 494.247
1049 0 71.0984 13.0523 928 118.044 559.462 495.876
1050 0 74.1584 13.9431 1034 116.167 559.888 493.441
1051 0 75.2036 13.51 1016 118.063 559.488 492.9
1052 0 79.2429 14.7773 1171 115.761 559.094 490.436
1053 0 82.2335 14.9696 1231 115.689 559.288 488.766
1054 0 82.1901 14.1015 1159 119.149 559.217 487.718
1055 0 85.3281 14.0048 1195 119.772 558.874 486.736
1056 0 89.2695 14.0138 1251 119.082 559.395 486.125
1057 0 91.2089 14.253 1300 119.57 559.048 481.908
1058 0 96.3028 14.3402 1381 117.941 559.378 481.85
1059 0 99.3608 13.8787 1379 117.5 559.42 481.265
1060 0 103.194 14.0706 1452 117.832 560.004 480.291
1061 0 109.342 14.3952 1574 115.365 559.025 476.242
1062 1 51.0478 13.1837 673 113.828 559.507 502.672
1063 0 53.0757 14.3003 759 109.669 559.431 501.954
1064 0 54.2165 11.8599 643 116.202 559.638 503.09
1065 0 57.1147 14.8298 847 110.87 559.137 500.875
1066 0 59.1942 13.5993 805 114.145 559.142 499.806
1067 0 61.1847 12.9934 795 115.279 559.242 498.97
1068 0 63.2599 13.3418 844 116.14 559.268 497.514
1069 0 64.2398 12.5 803 118.115 559.224 498.701
1070 0 67.202 12.946 870 116.79 559.224 498.069
1071 0 68.1245 12.7267 867 118.232 559.875 497.554
1072 0 71.3106 13.1257 936 119.11 560.04 493.927
1073 0 74.1825 12.9545 961 119.834 559.74 493.662
1074 0 77.2396 13.2445 1023 118.232 559.925 494.441
1075 0 79.1113 13.8918 1099 118.241 559.819 491.316
1076 0 81.1039 13.3532 1083 121.067 560.096 490.718
1077 0 84.1686 13.069 1100 122.353 559.513 488.429
1078 0 87.1755 13.2491 1155 121.586 559.245 488.317
1079 0 89.2516 13.165 1175 121.022 559.57 487.63
1080 0 92.2122 13.6424 1258 121.044 558.955 486.369
1081 0 95.1381 12.0667 1148 123.293 560.056 485.784
1082 1 49.0131 12.7517 625 127.421 560.003 506.126
1083 0 50.1406 13.0234 653 128.328 559.034 503.051
1084 0 53.2847 13.4372 716 126.469 558.246 501.595
1085 0 56.2561 14.594 821 122.635 558.838 501.229
1086 0 56.1993 13.9148 782 126.373 558.504 500.354
1087 0 58.3321 12.9946 758 128.095 558.897 500.529
1088 0 60.1953 13.9878 842 125.677 558.36 500.664
1089 0 60.1351 13.0373 784 130.925 557.912 498.691
1090 0 66.2726 14.3347 950 125.146 558.603 497.406
1091 0 67.2004 14.2707 959 125.849 558.914 496.703
1092 0 68.2134 13.2819 906 129.381 558.492 495.235
1093 0 71.2026 14.2551 1015 126.813 558.568 494.29
1094 0 73.1372 13.4815 986 129.015 558.362 492.995
1095 0 76.1831 14.0189 1068 126.767 557.244 492.336
1096 0 79.2181 14.3401 1136 124.914 557.706 490.062
1097 0 80.265 13.6672 1097 125.13 557.613 490.802
1098 0 84.183 12.7698 1075 125.494 558.576 488.99
1099 1 44.1169 14.4389 637 117.978 559.363 508.846
1100 0 42.021 11.1611 469 127.518 559.292 509.693
1101 0 44.122 12.6694 559 123.717 559.492 508.485
1102 0 46.168 14.9238 689 122.001 559.662 505.679
1103 0 49.0869 15.9106 781 117.26 559.429 505.122
1104 0 51.2792 15.7179 806 125.402 558.643 503.756
1105 0 51.2565 14.7884 758 129.215 558.645 502.912
1106 0 54.3609 14.3118 778 128.35 558.144 503.4
1107 0 54.3718 15.1733 825 128.788 558.488 501.032
1108 0 57.3282 14.7571 846 127.188 558.678 502.383
1109 0 59.2562 14.4457 856 128.539 559.536 500.04
1110 0 61.1371 15.1136 924 127.081 559.499 499.049
1111 0 64.187 14.707 944 126.694 559.322 499.965
1112 0 67.0669 14.9403 1002 127.242 559.731 497.356
1113 0 68.0487 15.2391 1037 127.069 559.718 496.249
1114 0 71.0951 15.0362 1069 126.218 559.823 495.811
1115 0 74.214 15.4553 1147 126.588 560.288 493.896
1116 0 76.1591 15.6383 1191 127.362 559.783 491.721
1117 0 79.1522 15.7797 1249 124.739 559.687 491.335
1118 0 81.1391 14.962 1214 126.886 559.832 490.934
1119 1 36.0385 14.6232 527 126.951 559.33 510.235
1120 0 38.1008 14.1467 539 125.629 558.709 510.091
1121 0 40.1673 14.589 586 123.618 559.13 507.974
1122 0 41.1574 14.1409 582 125.478 559.172 507.299
1123 0 43.0316 15.477 666 126.038 558.878 505.752
1124 0 44.0662 14.1605 624 130.221 559.147 504.926
1125 0 43.0727 14.9747 645 129.998 559.724 504.474
1126 0 46.1531 15.9036 734 126.959 559.793 502.971
1127 0 48.1191 16.3137 785 126.47 559.954 501.842
1128 0 49.0907 15.4612 759 128.657 559.833 501.012
1129 0 50.21 14.6385 735 132.214 559.754 501.03
1130 0 51.1598 16.1846 828 128.795 559.686 500.928
1131 0 53.1844 16.2077 862 128.841 559.476 500.118
1132 0 59.3024 15.851 940 126.886 559.048 499.67
1133 0 57.3506 16.373 939 129.796 559.634 498.098
1134 0 59.1792 16.4416 973 131.373 559.515 496.186
1135 0 62.2999 16.5811 1033 131.23 558.816 494.992
1136 0 64.2104 16.4771 1058 131.456 558.161 494.633
1137 0 66.2434 17.1036 1133 130.876 559.291 491.822
1138 0 67.5751 16.3374 1104 133.685 558.781 492.389
1139 0 71.363 15.8486 1131 134.932 559.01 490.137
1140 0 73.4058 15.7889 1159 135.417 559.33 490.167
1141 0 77.4998 15.871 1230 133.879 559.66 488.28
1142 0 78.3252 15.5123 1215 136.748 559.007 486.514
1143 0 84.4051 16.8592 1423 129.313 558.874 486.502
1144 1 39.204 14.0292 550 135.082 559.164 503.833
1145 0 42.1893 15.7623 665 128.743 558.821 503.053
1146 0 44.4979 15.2816 680 132.015 558.353 502.153
1147 0 47.4737 16.2195 770 128.635 558.184 500.319
1148 0 49.2594 16.0782 792 128.804 557.915 498.633
1149 0 51.7103 15.5288 803 128.9 557.746 499.134
1150 0 53.8478 14.6896 791 130.401 557.206 499.941
1151 0 57.7528 15.3586 887 127.264 557.764 498.135
1152 0 56.3162 15.5195 874 129.588 557.247 496.719
1153 0 58.5537 14.9265 874 131.256 558.078 494.903
1154 0 62.4146 15.6854 979 128.379 557.52 494.15
1155 0 63.7109 15.0524 959 129.359 558.01 494.863
1156 0 66.563 15.3989 1025 129.166 558.222 492.546
1157 0 69.6636 15.3452 1069 129.002 557.812 490.662
1158 0 70.6259 14.7679 1043 130.919 557.431 489.541
1159 0 75.5644 14.6233 1105 130.294 557.786 488.225
1160 0 77.74 15.1917 1181 130.811 557.83 487.306
1161 0 78.8619 13.7709 1086 135.733 558.01 483.845
1162 0 80.6787 14.3284 1156 136.967 557.438 484.111
1163 1 42.4091 14.4309 612 129.477 557.809 502.902
1164 0 45.414 13.2999 604 129.692 558.167 503.432
1165 0 44.4416 13.2984 591 132.941 558.272 501.98
1166 0 45.8214 12.7451 584 134.92 559.224 499.392
1167 0 49.676 14.0712 699 131.169 558.383 497.886
1168 0 53.6116 15.4817 830 126.108 558.664 499.731
1169 0 54.6054 13.8265 755 132.016 558.199 497.629
1170 0 56.2379 15.2388 857 130.085 558.238 496.501
1171 0 57.5734 14.1559 815 133.855 558.436 496.573
1172 0 60.6036 15.1806 920 130.165 558.004 496.116
1173 0 60.401 14.619 883 134.044 558.002 494.998
1174 0 62.3675 13.7091 855 139.018 558.071 495.608
1175 0 65.1499 14.8887 970 136.607 558.363 494.649
1176 0 68.2817 14.8649 1015 137.999 557.416 492.658
1177 0 68.2317 14.6999 1003 140.992 558.099 491.83
1178 0 72.2661 15.3737 1111 138.167 557.639 492.269
1179 0 73.1043 15.5121 1134 140.456 558.25 491.515
1180 0 75.2108 15.0776 1134 145.488 558.449 489.178
1181 0 77.1962 14.8582 1147 147.247 558.554 488.641
1182 0 78.1222 15.2069 1188 148.249 558.607 487.503
1183 0 80.2484 15.0782 1210 150.245 558.514 486.883
1184 0 84.1838 15.7394 1325 148.523 557.961 484.607
1185 0 85.3575 15.4761 1321 152.258 558.556 483.412
1186 0 90.2351 15.0163 1355 151.697 558.512 483.015
1187 0 91.354 14.7339 1346 155.634 559.314 479.914
1188 0 96.2472 15.8031 1521 151.177 558.9 478.677
1189 0 100.29 16.8113 1686 146.981 559.068 477.563
1190 0 101.291 15.1939 1539 153.555 558.808 475.259
1191 0 105.494 14.5127 1531 154.149 559.327 473.349
1192 0 109.342 15.9773 1747 149.563 559.44 472.753
1193 0 114.608 15.8715 1819 149.085 559.415 471.1
1194 0 119.354 15.6928 1873 150.3 559.622 468.025
1195 0 122.616 15.3977 1888 151.683 559.599 466.135
1196 0 126.597 15.2848 1935 153.376 558.97 465.298
1197 0 133.588 15.5927 2083 151.827 559.469 461.876
1198 0 137.79 16.4236 2263 150.566 558.809 458.496
1199 0 142.419 16.1074 2294 150.816 558.704 457.465
1200 1 74.3412 12.3619 919 153.321 559.134 486.518
1201 0 77.3906 11.8231 915 153.121 559.318 487.141
1202 0 81.2484 13.5141 1098 149.257 559.739 485.243
1203 0 82.3661 13.2579 1092 152.18 559.162 483.654
1204 0 85.4528 12.8258 1096 153.585 559.37 482.237
1205 0 89.5469 13.7917 1235 151.883 558.781 477.997
1206 0 93.6695 14.8287 1389 148.309 558.996 475.288
1207 0 97.7373 13.6898 1338 151.407 559.371 474.105
1208 0 101.432 15.3206 1554 145.968 559.357 471.766
1209 0 105.406 14.6007 1539 146.832 559.504 469.121
1210 0 107.787 12.7567 1375 153.673 558.336 466.479
1211 0 113.49 13.64 1548 149.61 558.623 465.943
1212 1 68.3529 10.1678 695 133.327 560.279 492.435
1213 0 67.3009 7.94938 535 140.108 560.533 493.789
1214 0 69.4445 10.296 715 137.558 559.648 491.379
1215 0 71.4002 10.3641 740 135.568 559.607 490.757
1216 0 70.5312 7.8405 553 137.118 559.835 490.036
1217 0 73.2767 7.83332 574 134.042 559.467 488.415
1218 0 77.3621 9.04836 700 128.889 559.393 487.137
1219 0 83.467 10.1357 846 125.058 559.007 485.22
1220 0 87.2493 5.1691 451 132.563 558.741 487.805
1221 0 87.374 9.38494 820 127.157 559.157 481.954
1222 0 89.3888 8.66999 775 127.467 559.031 481.547
1223 0 93.405 6.31658 590 130.066 558.368 484.036
1224 0 94.4242 8.46181 799 127.924 558.274 477.582
1225 0 101.643 9.66128 982 124.128 558.786 474.895
1226 0 99.3755 9.17731 912 125.367 558.633 471.807
1227 0 100.393 9.40308 944 126.773 559.472 475.923
1228 0 101.605 8.21809 835 129.14 559.974 476.869
1229 0 106.604 9.96206 1062 123.898 559.641 470.282
1230 0 110.423 10.7948 1192 121.284 559.423 469.574
1231 0 112.739 9.91672 1118 123.152 559.32 465.521
1232 0 115.51 9.15936 1058 123.344 559.19 466.076
1233 0 117.697 10.2127 1202 120.544 558.974 468.394
1234 0 123.577 11.855 1465 118.965 559.397 461.484
1235 0 130.398 10.2225 1333 121.713 558.586 458.383
1236 0 131.139 9.30313 1220 123.67 559.216 459.078
1237 0 141.277 6.68191 944 125.327 558.874 461.834
1238 1 19.0438 8.08663 154 105.071 560.279 515.247
1239 0 20.2123 6.82752 138 103.543 559.558 516.79
1240 0 20.003 3.49948 70 110.343 559.314 516.914
1241 0 20.0563 6.28231 126 105.73 559.984 515.262
1242 1 44.209 9.50033 420 108.812 560.393 502.66
1243 0 44.2274 8.88589 393 109.211 560.527 502.211
1244 0 43.1135 7.58463 327 111.303 559.263 500.755
1245 0 33.0867 3.92907 130 106.531 556.485 512.054
1246 0 34.0393 5.05298 172 102.756 556.076 513.395
1247 0 34.1811 6.90441 236 103.411 555.695 507.555
1248 0 35.0894 7.55215 265 101.555 555.543 509.657
1249 0 34.0781 8.45118 288 100.566 556.292 508.163
1250 0 32.0623 5.67645 182 103.835 555.637 510.824
1251 0 39.0915 6.54873 256 102.965 555.227 504.684
1252 1 103.225 7.8954 815 112.831 556.058 472.402
1253 0 111.445 11.1715 1245 106.051 556.34 469.648
1254 0 114.394 10.4201 1192 108.447 556.57 467.284
1255 0 119.779 11.5546 1384 106.585 556.885 464.913
1256 0 122.46 10.2646 1257 109.091 557.31 464.212
1257 0 127.568 10.7315 1369 108.939 557.107 460.093
1258 0 129.745 9.51867 1235 111.398 556.758 456.448
1259 0 135.544 10.1296 1373 111.894 557.424 457.369
1260 0 140.674 11.7293 1650 108.95 557.33 457.392
1261 0 142.884 10.2671 1467 114.389 557.359 451.948
1262 0 148.995 11.1614 1663 113.216 557.734 451.12
1263 1 79.2702 9.08286 720 102.463 557.24 490.494
1264 0 81.2265 9.73821 791 103.067 557.946 484.942
1265 0 86.2666 10.5951 914 105.188 557.781 484.954
1266 0 85.8551 11.2515 966 110.953 557.233 485.01
1267 1 45.2048 11.5032 520 99.5058 556.712 507.877
1268 0 43.0425 8.10826 349 106.295 557.229 507.642
1269 0 45.1429 10.3449 467 102.349 557.488 506.655
1270 0 46.097 10.0657 464 104.237 556.565 505.459
1271 0 48.171 10.0475 484 104.764 556.804 504.362
1272 0 50.1043 11.1767 560 103.882 557.166 503.679
1273 0 50.1374 10.8901 546 105.974 557.923 502.788
1274 0 54.1666 11.5569 626 104.244 557.53 500.681
1275 0 54.1247 11.0486 598 105.747 557.734 500.968
1276 0 54.3215 11.3767 618 107.61 557.235 498.206
1277 0 57.262 13.1501 753 104.821 557.625 498.041
1278 0 58.2473 10.6443 620 110.524 557.673 498.966
1279 0 60.1143 11.6445 700 109.257 557.807 496.093
1280 0 60.1338 10.3602 623 112.979 557.61 496.75
1281 0 65.3048 12.8781 841 107.566 557.583 493.459
1282 0 67.2276 12.7031 854 109.644 557.786 492.299
1283 0 71.3208 12.8995 920 108.858 557.478 490.674
1284 0 71.2423 11.6925 833 113.514 557.483 491.161
1285 0 77.3434 12.6449 978 113.392 557.625 488.635
1286 0 76.318 11.439 873 118.216 557.695 488.38
1287 0 81.2823 11.9214 969 117.303 557.78 483.321
1288 1 41.1999 10.6796 440 113.827 558.341 505.85
1289 0 42.2576 9.91538 419 115.036 558.599 506.329
1290 0 42.1287 10.3492 436 114.67 557.14 506.741
1291 0 44.2077 11.2424 497 113.819 557.575 504.298
1292 0 44.0911 10.2288 451 116.741 557.086 504.627
1293 0 48.0671 11.8376 569 112.053 557.492 502.872
1294 0 49.2125 12.0701 594 111.379 557.626 503.019
1295 0 50.1136 11.2544 564 113.762 557.835 502.316
1296 0 52.0654 11.4472 596 114.227 557.565 500.456
1297 0 54.0307 11.6415 629 114.087 558.017 499.771
1298 0 54.0443 12.1752 658 114.158 557.681 499.331
1299 0 56.044 11.7408 658 114.444 558.026 499.574
1300 0 57.0841 12.0174 686 116.223 558.082 497.636
1301 0 62.1978 11.785 733 113.568 558.513 498.192
1302 0 62.1399 11.8281 735 115.248 558.234 496.924
1303 0 64.0458 13.7245 879 111.288 558.327 495.78
1304 0 65.048 12.437 809 115.316 558.724 494.881
1305 0 69.0551 12.8738 889 114.522 558.746 493.45
1306 0 68.0499 12.1235 825 117.604 558.001 492.423
1307 0 71.1159 11.8258 841 118.111 558.005 492.4
1308 0 73.1738 11.9168 872 118.929 558.157 491.428
1309 0 79.2032 13.0171 1031 114.881 558.147 489.622
1310 0 82.2266 13.3655 1099 113.98 558.815 488.973
1311 0 83.1703 12.7089 1057 116.689 558.728 488.049
1312 1 47.0551 11.2634 530 114.226 559.038 507.015
1313 0 46.0476 11.8139 544 115.256 559.211 505.627
1314 0 48.0447 13.5915 653 108.299 559.136 504.369
1315 0 50.0611 12.7644 639 111.603 558.928 504.164
1316 0 51.0192 11.6231 593 113.285 559.226 504.535
1317 0 52.0283 12.6854 660 111.279 559.109 501.508
1318 0 55.0391 12.1187 667 112.225 558.762 501.792
1319 0 56.0536 12.9519 726 110.398 558.656 501.563
1320 0 55.1016 11.7057 645 115.333 558.986 499.792
1321 0 57.1157 13.2013 754 112.631 558.34 498.883
1322 0 60.0916 14.3448 862 107.959 558.041 500.833
1323 0 58.0614 13.2101 767 114.808 558.233 498.529
1324 0 62.0682 13.3241 827 113.175 557.891 497.146
1325 0 61.0244 12.4704 761 118.188 558.13 497.11
1326 0 64.0753 12.5633 805 117.088 558.114 496.194
1327 0 66.165 12.1363 803 117.247 557.337 495.12
1328 0 69.0695 11.264 778 118.658 557.126 495.617
1329 0 70.0794 12.3146 863 117.067 557.211 493.589
1330 0 72.1056 12.87 928 116.422 557.599 490.525
1331 0 74.0608 10.937 810 119.365 557.719 493.299
1332 0 80.0574 12.0289 963 117.386 557.957 490.015
1333 1 41.0333 11.6491 478 114.211 557.596 508.856
1334 0 41.1912 11.7986 486 114.152 557.504 507.163
1335 0 43.1869 11.5313 498 113.295 557.707 507.398
1336 0 44.0796 12.9538 571 111.506 557.405 507.112
1337 0 44.1048 11.6994 516 114.692 557.764 508.8
1338 0 46.0518 12.3991 571 114.525 557.809 504.998
1339 0 47.1173 11.5669 545 114.956 557.339 504.695
1340 0 50.1584 12.8593 645 110.005 557.234 504.016
1341 0 49.0951 11.6509 572 113.472 557.456 503.92
1342 0 52.0771 10.7533 560 113.752 557.132 504.559
1343 0 54.0821 12.8878 697 108.92 557.245 502.326
1344 0 56.1014 11.9783 672 110.868 557.525 501.607
1345 0 56.0615 11.5587 648 113.461 558.235 500.466
1346 0 59.0955 11.8283 699 110.322 557.492 501.381
1347 0 63.1052 12.8674 812 108.978 557.688 496.746
1348 0 65.1126 12.1021 788 109.798 557.39 496.942
1349 0 66.3294 11.8198 784 111.287 557.351 497.001
1350 0 68.0974 11.3514 773 112.576 557.246 493.462
1351 0 73.1307 12.84 939 109.063 557.497 492.521
1352 0 75.0737 12.894 968 108.671 557.276 490.849
1353 0 78.0869 12.8062 1000 109.177 557.319 491.618
1354 0 80.0852 11.9248 955 113.297 557.121 489.422
1355 1 42.0671 11.339 477 111.264 557.639 507.803
1356 0 43.1545 11.679 504 111.704 557.516 506.121
1357 0 45.0753 11.2035 505 110.404 557.463 506.723
1358 0 46.0582 12.5059 576 107.658 557.632 503.17
1359 0 50.1035 12.7336 638 105.845 557.588 502.74
1360 0 51.0966 13.3668 683 104.281 557.7 502.201
1361 0 53.1192 12.5567 667 105.427 558.051 501.675
1362 0 53.1592 12.9799 690 105.417 557.262 500.655
1363 0 56.0772 12.9286 725 104.41 557.207 501.211
1364 0 56.0924 12.5685 705 105.567 557.682 502.099
1365 0 59.1773 13.1131 776 104.241 557.327 499.015
1366 0 60.1669 12.9141 777 103.371 558.004 498.16
1367 0 64.0532 14.3943 922 100.046 557.9 497.49
1368 0 64.1775 13.6964 879 103.94 558.074 495.406
1369 0 64.2365 12.2516 787 107.522 557.752 494.753
1370 0 69.1519 13.9982 968 103.645 557.677 493.924
1371 0 71.1332 14.2549 1014 103.024 558.247 493.41
1372 0 74.2749 13.7328 1020 104.274 558.231 491.521
1373 0 74.1573 13.0938 971 107.019 558.63 490.358
1374 0 79.1815 14.9783 1186 103.02 558.768 488.884
1375 0 80.3665 13.762 1106 107.072 558.357 488.602
1376 0 81.2391 13.2202 1074 109.093 558.364 487.062
1377 0 87.1667 14.3862 1254 105.833 558.626 486.041
1378 0 88.1862 13.8344 1220 107.709 558.378 485.059
1379 0 91.329 13.424 1226 105.773 558.27 482.771
1380 0 92.5666 12.0562 1116 111.432 558.699 479.876
1381 0 96.3472 12.3512 1190 113.116 558.333 477.952
1382 1 48.2061 12.0524 581 117.248 558.764 503.325
1383 0 52.0679 13.0983 682 114.274 558.238 503.573
1384 0 55.0782 13.3991 738 111.381 558.332 501.234
1385 0 55.0884 13.4511 741 110.049 558.113 501.209
1386 0 56.0393 12.4198 696 112.57 559.134 499.42
1387 0 58.1295 13.7452 799 109.431 558.317 498.678
1388 0 59.1494 12.3416 730 112.316 558.756 499.445
1389 0 60.0761 12.1512 730 111.51 558.551 497.63
1390 0 65.1041 12.457 811 107.182 557.8 496.083
1391 0 67.1475 13.9543 937 102.995 558.644 493.942
1392 0 68.0686 11.8116 804 110.413 558.205 494.665
1393 0 71.0632 13.678 972 107.294 558.124 491.454
1394 0 75.1419 13.4279 1009 106.581 558.016 492.499
1395 0 77.0525 12.8354 989 108.403 558.177 490.476
1396 0 79.065 12.8628 1017 108.242 557.804 487.566
1397 0 84.2267 13.1431 1107 107.009 557.752 485.132
1398 0 86.1174 14.4454 1244 104.417 556.82 483.957
1399 0 88.1088 12.2576 1080 108.576 557.606 483.872
1400 0 89.1326 12.1617 1084 108.168 557.699 480.229
1401 0 92.1044 11.943 1100 107.694 558.135 477.596
1402 0 99.2208 12.8904 1279 104.189 557.496 475.661
1403 1 51.143 9.95248 509 107.676 557.762 500.297
1404 0 54.0567 12.3759 669 107.845 557.717 498.572
1405 0 57.0997 13.0649 746 106.948 557.206 498.928
1406 0 57.1034 13.2917 759 107.837 557.149 497.391
1407 0 61.0666 13.0513 797 106.23 557.001 496.985
1408 0 63.0743 12.509 789 105.36 556.816 494.786
1409 0 64.0428 12.0388 771 106.603 557.206 494.361
1410 0 65.1218 11.1944 729 108.841 557.016 491.376
1411 0 69.1347 13.6834 946 103.814 556.727 489.934
1412 0 72.0783 13.5824 979 103.812 557.425 490.352
1413 0 73.0369 12.4731 911 107.436 557.111 488.207
1414 0 75.0593 12.5501 942 108.573 557.07 485.182
1415 0 78.0968 12.5229 978 108.357 557.609 484.67
1416 0 81.1696 12.3692 1004 108.115 557.319 483.049
1417 0 84.0921 12.9739 1091 106.604 557.176 480.726
1418 0 87.1511 11.635 1014 108.721 557.37 481.616
1419 0 87.0634 11.1758 973 111.827 557.258 478.654
1420 0 91.1484 12.0573 1099 109.841 557.199 473.934
1421 1 48.034 11.9707 575 109.082 556.659 496.697
1422 0 50.0553 11.6072 581 108.978 557.077 496.435
1423 0 51.1055 11.9165 609 105.964 556.371 494.88
1424 0 48.0379 10.0129 481 106.663 555.988 493.175
1425 0 54.1866 12.254 664 102.479 556.158 492.274
1426 0 55.0563 11.3883 627 103.577 556.632 491.978
1427 0 57.0959 10.964 626 102.762 556.783 491.289
1428 0 60.0935 11.6319 699 102.478 557.851 490.233
1429 0 60.0775 10.8194 650 105.558 557.065 487.623
1430 0 64.0691 12.7675 818 101.291 557.689 485.082
1431 0 67.0534 12.3036 825 103.125 557.233 487.821
1432 0 70.0632 13.3023 932 100.673 557.391 484.311
1433 0 72.0675 13.3764 964 101.806 556.606 483.428
1434 0 74.1159 12.3725 917 105.486 555.556 480.658
1435 0 78.0963 12.0236 939 106.155 556.485 479.972
1436 0 81.0379 12.5127 1014 104.005 556.212 480.07
1437 0 82.2505 13.2279 1088 104.866 556.167 479.142
1438 0 86.1758 13.6117 1173 105.517 555.962 477.066
1439 0 89.2125 13.6528 1218 106.773 556.222 476.229
1440 0 91.1286 13.3328 1215 108.793 556.221 475.144
1441 0 95.2682 12.8374 1223 109.96 556.502 472.783
1442 0 98.2465 14.6672 1441 106.105 557.103 470.52
1443 0 102.245 13.7317 1404 108.244 557.265 468.833
1444 1 55.2905 10.4177 576 111.727 556.788 493.175
1445 0 58.1116 12.889 749 109.782 556.975 491.359
1446 0 60.2023 11.9597 720 108.022 557.199 493.631
1447 0 62.1367 13.4703 837 104.337 557.266 490.705
1448 0 62.3154 12.6453 788 105.751 556.919 490.371
1449 0 63.0984 12.33 778 106.766 557.093 489.373
1450 0 66.1276 12.3851 819 105.393 556.847 489.346
1451 0 68.1264 12.3007 838 106.558 557.282 489.523
1452 0 72.2757 14.7076 1063 101.301 556.788 488.539
1453 0 72.2184 12.9053 932 107.074 557.711 487.77
1454 0 73.4099 12.4779 916 108.186 557.447 483.475
1455 0 78.2754 14.4234 1129 103.59 557.017 483.188
1456 0 77.2003 11.9559 923 109.803 557.33 483.259
1457 0 80.2676 12.5704 1009 111.644 556.768 484.314
1458 0 83.2804 12.62 1051 109.786 557.188 484.706
1459 0 87.088 13.1476 1145 109.28 557.097 480.784
1460 0 89.2534 12.4141 1108 111.407 556.596 479.607
1461 0 90.1018 13.174 1187 112.78 556.367 477.356
1462 0 95.2426 12.0954 1152 112.916 556.475 476.732
1463 0 99.239 12.2029 1211 112.788 556.773 473.635
1464 1 51.1849 10.3937 532 107.045 556.72 499.271
1465 0 54.2603 12.4769 677 103.9 557.23 496.746
1466 0 55.0611 12.6223 695 103.142 556.447 494.883
1467 0 57.1315 12.795 731 109.365 556.337 496.328
1468 0 60.1383 13.8182 831 106.764 557.354 495.915
1469 0 59.1232 12.2287 723 111.502 556.92 496.657
1470 0 62.0465 13.7639 854 107.518 556.91 494.865
1471 0 63.0608 12.7179 802 110.682 557.173 492.815
1472 0 66.0554 14.4878 957 106.238 557.166 492.557
1473 0 67.1497 13.0306 875 109.496 556.967 492.407
1474 0 68.1006 13.5828 925 109.566 556.743 490.955
1475 0 70.1115 13.2789 931 110.05 556.749 490.617
1476 0 72.0555 12.9622 934 111.956 556.668 488.107
1477 0 76.0673 12.7782 972 110.134 556.809 488.747
1478 0 76.1196 12.5066 952 107.307 556.664 487.28
1479 0 78.1162 11.4829 897 108.697 556.55 488.014
1480 0 82.1673 12.6328 1038 106.252 557.156 484.99
1481 0 83.184 12.3221 1025 107.669 556.961 485.992
1482 0 86.3479 12.9824 1121 107.526 557.347 484.032
1483 0 90.1583 13.9532 1258 107.351 557.307 481.677
1484 0 93.3598 12.8963 1204 108.765 557.439 478.651
1485 0 97.3276 13.6035 1324 106.522 557.634 476.965
1486 0 100.302 12.2928 1233 108.608 557.361 478.063
1487 1 55.0498 11.753 647 104.509 557.164 501.076
1488 0 57.1449 13.5445 774 101.991 556.36 497.651
1489 0 58.1255 11.8021 686 106.112 556.278 495.945
1490 0 59.21 12.0588 714 105.846 556.028 496.132
1491 0 63.2322 12.4936 790 104.515 556.22 496.681
1492 0 65.3229 12.7367 832 103.183 556.215 493.782
1493 0 66.1917 13.0228 862 105.01 555.816 492.995
1494 0 68.0945 13.4078 913 104.905 556.138 491.83
1495 0 70.1493 12.0457 845 109.218 556.059 491.205
1496 0 73.0756 12.8634 940 107.268 556.012 491.355
1497 0 74.4447 13.0298 970 109.238 556.275 486.549
1498 0 79.3434 13.7378 1090 106.732 556.692 487.226
1499 0 81.2575 13.1803 1071 108.62 556.307 486.658
1500 0 82.2398 13.5458 1114 109.382 556.543 483.952
1501 0 85.2232 12.6961 1082 109.808 555.641 486.727
1502 0 88.1139 13.2215 1165 108.337 556.066 486.042
1503 0 90.1688 12.033 1085 111.894 555.35 480.803
1504 0 92.3374 13.7431 1269 99.2427 556.974 476.522
1505 0 94.1858 12.3055 1159 103.118 557.222 476.722
1506 0 96.4025 13.6303 1314 101.486 556.929 475.027
1507 1 49.1171 11.5846 569 107.641 556.712 499.402
1508 0 51.1424 13.6091 696 105.751 556.986 497.925
1509 0 51.072 12.5901 643 104.991 556.309 500.888
1510 0 52.0219 11.1107 578 110.197 556.453 500.49
1511 0 54.0901 12.3867 670 105.533 556.821 499.275
1512 0 56.0122 12.7294 713 103.614 556.784 499.359
1513 0 57.1073 12.3977 708 104.859 556.274 501.189
1514 0 55.0807 12.0914 666 107.033 556.228 499.468
1515 0 60.1501 12.5353 754 104.814 556.691 496.887
1516 0 60.1816 12.0801 727 104.069 555.839 498.398
1517 0 63.1893 12.2489 774 103.605 556.766 497.801
1518 0 63.1235 11.6122 733 106.735 556.25 495.898
1519 0 67.144 13.5232 908 102.253 556.284 494.291
1520 0 69.3702 12.6423 877 103.698 556.381 495.05
1521 0 71.1036 11.9403 849 106.949 556.74 493.277
1522 0 72.3056 12.8344 928 106.143 555.891 490.172
1523 0 75.2133 12.0856 909 107.854 556.381 491.498
1524 0 75.2094 12.9372 973 108.859 556.525 488.083
1525 0 78.197 12.8138 1002 109.679 556.72 490.568
1526 0 81.2555 12.3192 1001 112.94 556.886 487.524
1527 1 41.2179 10.3111 425 117.736 556.671 505.12
1528 0 43.1569 12.6978 548 113.281 556.745 502.007
1529 0 48.0749 13.7702 662 112.449 556.846 502.276
1530 0 47.1484 14.6983 693 112.68 556.361 505.378
1531 0 45.0969 12.6395 570 119.226 556.435 505.675
1532 0 47.1265 12.8166 604 120.099 556.695 505.707
1533 0 48.0472 12.9664 623 122.881 556.645 504.095
1534 0 52.1027 14.8361 773 121.713 556.4 504.388
1535 0 51.2383 12.7639 654 123.755 555.691 504.286
1536 0 53.1751 14.7061 782 119.413 556.332 504.652
1537 0 54.3213 14.3222 778 121.744 556.379 502.114
1538 0 56.3436 15.1747 855 120.581 556.082 501.698
1539 0 58.2647 14.6229 852 122.705 556.628 501.09
1540 0 60.2456 14.889 897 123.472 556.236 501.207
1541 0 60.183 14.0571 846 128.045 556.277 497.904
1542 0 62.2626 13.7803 858 129.497 555.825 498.014
1543 0 66.2083 16.4028 1086 120.533 555.739 494.198
1544 0 67.1884 13.2761 892 127.205 556.371 493.552
1545 0 68.1559 13.205 900 128.86 555.956 491.498
1546 0 71.3248 13.9222 993 126.783 555.502 489.511
1547 0 75.3162 14.9105 1123 123.263 555.98 486.539
1548 0 77.1762 13.6312 1052 126.472 555.056 484.97
1549 0 81.1608 14.3789 1167 124.36 555.471 482.28
1550 0 82.3106 13.6313 1122 126.643 555.317 480.961
1551 0 89.3466 13.6995 1224 123.389 555.307 481.068
1552 1 43.0736 11.9563 515 123.466 554.637 499.252
1553 0 47.1434 12.8756 607 124.387 555.969 502.43
1554 0 49.0816 11.4503 562 118.367 556.11 497.612
1555 0 50.1094 14.5681 730 112.188 556.503 497.486
1556 0 53.2098 14.5086 772 110.982 556.114 499.229
1557 0 53.1476 14.0552 747 113.403 555.558 500.242
1558 0 54.2563 13.6205 739 122.338 555.349 500.352
1559 0 57.2984 14.1889 813 119.839 555.615 499.95
1560 0 61.1903 13.793 844 119.508 555.476 498.782
1561 0 62.4546 14.7307 920 117.209 556.252 497.272
1562 0 65.297 14.7786 965 117.123 555.465 494.664
1563 0 67.6171 15.1293 1023 115.849 555.578 494.554
1564 0 71.5252 14.75 1055 114.693 556.002 492.328
1565 0 71.2565 14.3005 1019 115.496 555.943 491.553
1566 0 76.4019 14.8687 1136 119.485 556.113 490.871
1567 0 77.4217 14.2596 1104 120.428 555.988 489.254
1568 0 80.5787 13.9863 1127 117.094 556.341 489.13
1569 0 82.2346 13.7655 1132 116.939 556.596 486.068
1570 0 86.2887 13.3737 1154 115.244 556.62 486.011
1571 1 42.3787 11.8928 504 115.734 555.899 504.542
1572 0 45.359 11.42 518 116.641 555.353 503.054
1573 0 45.3957 12.2038 554 115.677 555.877 502.375
1574 0 47.3525 14.0647 666 109.532 555.835 503.548
1575 0 49.3754 13.4885 666 110.245 555.664 502.598
1576 0 50.1787 13.0334 654 110.794 556.162 503.821
1577 0 52.1141 13.5088 704 110.888 555.594 501.869
1578 0 54.207 12.9135 700 111.707 555.411 502.374
1579 0 56.212 14.3386 806 109.502 555.888 499.845
1580 0 57.2518 12.2441 701 114.23 555.391 500.83
1581 0 60.2792 13.8522 835 111.988 555.929 497.467
1582 0 62.3767 13.691 854 112.761 555.792 497
1583 0 64.3139 14.4448 929 111.038 556.321 493.474
1584 0 67.2583 14.2585 959 110.989 554.992 493.519
1585 0 69.1457 13.8693 959 112.977 555.551 492.917
1586 0 71.3443 14.0165 1000 112.119 555.944 491.494
1587 0 73.3636 14.1351 1037 112.712 556.09 491.693
1588 0 77.3252 16.2302 1255 108.859 556.239 490.361
1589 0 79.4245 15.1213 1201 112.502 555.495 488.676
1590 0 81.4759 13.8691 1130 116.106 555.473 488.631
1591 0 81.113 12.9202 1048 119.932 555.517 485.579
1592 0 85.376 14.0438 1199 117.381 555.706 484.776
1593 0 90.2753 15.3752 1388 114.285 555.867 482.016
1594 0 93.3434 13.5842 1268 118.699 556.11 480.882
1595 1 48.2033 13.0074 627 114.675 556.431 501.48
1596 0 50.2259 12.1252 609 112.805 557.146 503.895
1597 0 52.357 13.4653 705 111.437 556.023 502.811
1598 0 53.1912 13.6489 726 113.252 555.674 500.851
1599 0 55.1912 13.2449 731 112.601 556.508 499.55
1600 0 58.1835 13.6465 794 111.592 556.995 498.511
1601 0 59.254 13.4337 796 112.742 556.497 498.794
1602 0 60.0614 13.6361 819 113.548 557.14 497.723
1603 0 63.1281 14.5894 921 111.767 556.623 495.485
1604 0 65.2364 15.2522 995 110.89 556.342 495.098
1605 0 68.1805 15.4883 1056 110.52 556.099 492.961
1606 0 71.214 14.6741 1045 113.039 556.581 492.026
1607 0 72.2127 15.1912 1097 112.893 557.27 488.878
1608 0 76.2557 14.3858 1097 113.98 556.64 490.51
1609 0 78.1991 14.8211 1159 113.719 556.679 487.388
1610 0 81.1957 14.151 1149 117.142 556.433 488.037
1611 0 82.1299 14.4284 1185 118.005 556.153 485.966
1612 0 87.1968 14.8859 1298 118.291 556.884 482.667
1613 0 90.2351 13.9081 1255 121.198 556.273 482.079
1614 0 91.288 13.9011 1269 121.452 556.117 479.806
1615 0 98.1866 14.9002 1463 116.71 556.555 480.948
1616 0 102.244 14.3089 1463 119.182 555.891 478.238
1617 0 105.275 15.3978 1621 117.611 556.793 474.999
1618 1 54.2147 12.3767 671 111.547 556.918 500.004
1619 0 58.1688 12.8763 749 109.017 555.64 499.483
1620 0 60.2286 14.0963 849 107.171 555.854 497.975
1621 0 62.1723 13.7039 852 110.161 556.435 496.34
1622 0 64.2015 14.5168 932 108.427 556.424 494.834
1623 0 66.0925 13.3147 880 109.955 556.485 492.867
1624 0 70.1687 13.0543 916 108.838 555.864 493.894
1625 0 71.2311 12.7894 911 110.293 555.341 491.83
1626 0 74.1535 13.472 999 110.051 555.254 488.626
1627 0 77.1716 13.7875 1064 109.373 556.123 488.863
1628 0 80.1185 12.6313 1012 111.727 556.144 486.656
1629 0 82.091 12.6932 1042 110.703 555.754 485.645
1630 0 85.127 11.9821 1020 112.679 555.852 485.806
1631 0 89.1572 13.0444 1163 110.896 555.204 482.267
1632 0 93.3288 14.2507 1330 107.783 555.454 481.892
1633 0 94.3524 12.7077 1199 112.103 555.209 478.378
1634 0 99.6463 12.5745 1253 110.559 555.049 478.749
1635 0 102.387 13.4881 1381 108.587 555.933 479.123
1636 0 106.353 14.5083 1543 109.112 556.091 472.308
1637 1 56.0907 11.1605 626 110.688 556.508 498.12
1638 0 57.1658 10.7932 617 111.797 557.318 496.88
1639 0 60.0777 11.6349 699 111.642 557.066 497.186
1640 0 64.027 12.0886 774 111.487 557.132 495.24
1641 0 66.0749 11.2902 746 112.253 557.063 496.296
1642 0 68.1258 12.6531 862 110.935 557.3 492.543
1643 0 68.0528 11.8144 804 113.239 556.796 492.221
1644 0 70.251 12.6119 886 111.427 555.953 490.267
1645 0 73.3051 13.4916 989 109.86 555.353 488.241
1646 0 74.4671 11.7233 873 116.359 555.056 491.798
1647 0 78.4142 12.7145 997 100.34 555.537 486.403
1648 0 80.8367 11.7397 949 113.874 555.333 487.042
1649 0 84.589 12.6021 1066 113.475 555.573 481.862
1650 0 88.8814 13.6024 1209 110.571 555.607 480.931
1651 0 89.6273 12.5297 1123 113.8 555.573 479.757
1652 0 92.7716 12.9997 1206 114.066 555.095 474.42
1653 0 95.8539 13.3954 1284 113.281 554.755 475.477
1654 0 99.7667 13.1407 1311 114.321 555.114 473.72
1655 0 101.71 12.9289 1315 115.623 554.64 470.976
1656 0 106.748 13.1806 1407 114.64 555.62 470.858
1657 0 109.99 13.6558 1502 114.273 554.909 468.105
1658 0 112.732 12.7115 1433 117.163 555.23 468.234
1659 0 115.925 11.4729 1330 121.736 554.838 463.606
1660 1 63.5946 11.4003 725 109.521 555.884 492.324
1661 0 67.092 13.4144 900 104.463 555.947 492.182
1662 0 68.3781 13.4985 923 104.87 554.809 490.65
1663 0 68.3962 11.4334 782 109.682 555.246 491.632
1664 0 71.7713 11.5088 826 109.277 554.622 490.176
1665 0 75.7041 11.9941 908 109.056 554.574 489.612
1666 0 76.6817 11.9324 915 111.302 554.896 485.255
1667 0 79.7193 11.3774 907 111.83 555.388 484.475
1668 0 83.7831 12.2936 1030 109.83 554.822 482.081
1669 0 86.7299 12.5793 1091 109.764 555.195 480.58
1670 0 90.6667 13.9963 1269 107.381 555.504 479.47
1671 0 93.7554 11.0074 1032 113.963 554.839 478.149
1672 1 48.482 11.5919 562 109.11 556.05 499.53
1673 0 50.2106 13.0251 654 107.914 556.239 498.463
1674 0 53.4331 13.1754 704 109.429 556.685 498.146
1675 0 55.4348 13.782 764 112.007 556.573 500.698
1676 0 55.551 12.781 710 115.135 556.073 499.7
1677 0 57.3808 13.4017 769 114.645 556.618 498.146
1678 0 60.3601 13.6183 822 113.887 556.286 497.38
1679 0 61.4844 13.8409 851 112.737 555.851 497.94
1680 0 62.5228 13.0512 816 114.515 556.712 495.48
1681 0 65.3449 13.0844 855 103.02 556.198 496.735
1682 0 67.3677 12.9142 870 103.926 556.1 495.759
1683 0 67.3813 12.7632 860 107.117 555.9 493.972
1684 0 70.6905 12.3496 873 108.092 555.73 493.883
1685 0 73.4114 12.9544 951 107.954 555.781 493.748
1686 0 75.4443 13.8513 1045 106.631 555.851 490.759
1687 0 78.4249 13.3503 1047 107.366 555.953 490.557
1688 0 81.5214 13.7755 1123 106.72 555.89 487.47
1689 0 81.7994 12.5307 1025 111.072 555.844 486.151
1690 0 84.5945 12.1994 1032 111.686 555.28 482.912
1691 0 87.824 12.0354 1057 112.471 555.693 481.288
1692 0 93.7595 14.0999 1322 107.427 555.694 478.713
1693 1 48.3382 11.3989 551 107.546 554.991 501.12
1694 0 50.1521 12.2228 613 108.093 555.715 501.083
1695 0 53.2212 13.6412 726 106.612 555.77 500.251
1696 0 52.1778 11.9399 623 110.077 555.807 499.798
1697 0 56.3511 12.1737 686 107.378 555.283 499.401
1698 0 55.2341 11.7138 647 110.306 555.694 499.685
1699 0 57.3007 11.9545 685 110.931 556.073 499.095
1700 0 61.1478 13.2793 812 107.232 556.004 498.05
1701 0 62.3013 12.584 784 111.335 555.798 496.3
1702 0 63.3 13.6809 866 111.082 555.691 495.855
1703 0 65.3257 12.6596 827 112.711 555.603 494.302
1704 0 69.5233 13.9809 972 109.321 554.351 493.228
1705 0 71.7566 14.2983 1026 106.281 554.726 489.577
1706 0 74.7124 12.5548 938 109.337 554.682 488.609
1707 0 77.482 13.2418 1026 107.095 554.964 486.829
1708 0 77.6069 12.7179 987 110.061 554.77 485.243
1709 0 81.8111 12.5289 1025 108.546 554.207 486.266
1710 0 84.9088 12.3544 1049 109.947 554.204 484.973
1711 1 42.427 10.9836 466 108.159 554.378 505.118
1712 0 44.4326 12.1082 538 108.071 554.301 502.758
1713 0 46.2887 12.0764 559 108.982 555.023 503.594
1714 0 49.0699 12.6554 621 107.24 553.554 501.174
1715 0 49.1569 12.3686 608 108.533 554.059 502.113
1716 0 50.1787 12.1366 609 111.547 553.918 500.062
1717 0 51.1923 12.3847 634 110.033 554.274 502.672
1718 0 55.3209 12.5631 695 109.183 554.299 500.488
1719 0 55.1371 13.1672 726 111.117 553.92 499.596
1720 0 56.222 12.8064 720 112.421 554.665 499.054
1721 0 59.2701 13.2276 784 111.449 554.314 496.902
1722 0 61.6822 13.2129 815 111.999 554.647 495.271
1723 0 61.477 12.3786 761 115.127 554.578 492.493
1724 0 65.514 14.6991 963 109.464 554.48 492.533
1725 0 68.6988 14.1487 972 110.632 554.347 490.33
1726 0 70.6412 13.8588 979 111.352 554.058 489.521
1727 0 73.6016 13.8856 1022 111.506 554.178 488.139
1728 0 73.4812 13.4048 985 115.057 554.422 486.307
1729 0 77.6065 13.7746 1069 112.519 554.839 486.394
1730 0 78.6843 13.2555 1043 115.009 554.718 484.347
1731 0 82.7479 12.2662 1015 115.563 555.145 484.196
1732 1 42.3473 11.0042 466 114.204 554.59 502.676
1733 0 44.357 12.6023 559 111.322 554.687 500.436
1734 0 46.2432 13.5371 626 105.749 553.925 501.361
1735 0 48.2542 12.0818 583 109.185 554.985 500.158
1736 0 49.3923 12.6133 623 108.388 554.042 500.997
1737 0 51.1694 12.5856 644 108.571 553.995 500.489
1738 0 52.2016 12.2602 640 110.019 553.925 499.098
1739 0 54.1034 14.731 797 104.652 553.734 498.312
1740 0 55.1845 12.5035 690 109.157 554.077 500.351
1741 0 59.1744 12.8434 760 108.471 554.013 499.461
1742 0 59.1647 11.4426 677 112.174 555.421 498.95
1743 0 60.246 12.1336 731 112.222 555.302 495.395
1744 0 64.156 13.1398 843 111.243 554.958 494.307
1745 0 67.2427 13.4141 902 109.657 554.669 492.993
1746 0 68.3561 13.4882 922 110.392 554.131 491.847
1747 0 71.1473 13.1699 937 111.213 554.316 490.973
1748 0 74.2234 13.5402 1005 111.596 554.36 490.814
1749 0 76.1804 13.5074 1029 112.994 554.314 488.808
1750 0 79.1989 13.2325 1048 114.316 555.117 487.386
1751 0 82.269 14.1609 1165 113.805 554.301 485.022
1752 0 86.2249 15.1464 1306 112.766 554.301 485.755
1753 0 89.236 12.8312 1145 118.347 554.03 485.527
1754 1 47.2768 11.8028 558 114.78 554.912 502.686
1755 0 49.3709 12.3352 609 111.32 554.888 500.112
1756 0 48.26 12.2047 589 113.961 554.55 498.029
1757 0 50.2086 13.7228 689 111.194 554.097 497.842
1758 0 52.3294 12.708 665 113.529 554.817 497.967
1759 0 54.315 13.0351 708 115.03 554.616 496.953
1760 0 55.2623 13.0469 721 117.829 553.799 498.682
1761 0 58.1858 12.6148 734 120.034 553.973 498.131
1762 0 58.1394 13.6912 796 120.276 554.068 494.825
1763 0 61.184 13.6474 835 119.418 554.457 495.46
1764 0 63.4782 13.3904 850 120.424 554.081 492.882
1765 0 64.3442 14.3913 926 118.329 554.071 490.852
1766 0 67.499 13.052 881 121.045 553.824 490.192
1767 0 71.4293 14.9379 1067 116.856 554.246 487.52
1768 0 71.3551 13.9724 997 121.417 554.292 485.873
1769 0 71.4432 13.7592 983 123.389 554.152 484.357
1770 0 74.4273 14.793 1101 121.133 554.849 482.328
1771 0 77.4953 13.8331 1072 123.327 554.279 482.801
1772 0 80.4433 14.2833 1149 120.756 554.568 483.674
1773 0 82.479 13.7247 1132 123.818 554.318 479.946
1774 0 83.3613 14.755 1230 122.295 554.428 479.946
1775 0 88.4899 14.9848 1326 121.577 553.962 476.149
1776 0 91.3659 14.8195 1354 121.041 554.128 476.914
1777 0 94.51 16.2099 1532 118.21 553.747 473.657
1778 0 99.3672 16.0013 1590 117.958 553.339 472.634
1779 0 101.37 14.0279 1422 123.752 553.752 471.167
1780 0 105.536 15.8714 1675 119.455 553.927 468.072
1781 1 55.3089 11.8787 657 119.009 553.705 494.586
1782 0 57.2355 12.5621 719 118.612 554.862 493.69
1783 0 58.202 12.4394 724 119.713 554.011 492.644
1784 0 61.1901 14.4141 882 115.98 554.192 492.567
1785 0 63.1006 14.0569 887 116.43 554.378 491.498
1786 0 64.0836 13.8413 887 116.965 554.663 491.2
1787 0 67.083 14.2957 959 115.485 554.571 489.065
1788 0 68.0821 12.4115 845 120.118 553.922 487.804
1789 0 70.2732 14.3867 1011 116.252 553.524 486.611
1790 0 76.2323 14.0098 1068 114.156 554.381 485.431
1791 0 76.2486 13.4166 1023 118.198 554.206 483.927
1792 0 79.1308 13.5093 1069 119.619 553.654 481.581
1793 0 81.2596 14.386 1169 117.554 553.804 482.117
1794 0 82.2974 13.4998 1111 121.808 553.491 480.109
1795 0 86.3744 14.5529 1257 119.212 553.846 477.953
1796 0 88.1709 13.3831 1180 122.822 554.192 477.56
1797 0 91.1581 14.3268 1306 121.763 554.804 474.709
1798 0 97.196 15.4122 1498 117.508 554.298 474.256
1799 0 98.4002 13.252 1304 124.719 553.8 470.279
1800 0 102.236 14.0362 1435 122.897 553.762 468.671
1801 0 107.184 14.2186 1524 121.748 554.081 469.637
1802 0 109.205 14.7247 1608 122.453 554.07 467.21
1803 0 113.343 14.5135 1645 125.094 554.41 464.867
1804 0 118.28 14.5418 1720 125.238 554.791 461.07
1805 1 66.0766 11.2748 745 118.929 556.486 492.252
1806 0 66.0707 11.5331 762 117.609 557.203 488.975
1807 0 69.1032 13.2845 918 112.542 556.024 485.912
1808 0 70.0359 12.1081 848 112.393 556.142 489.6
1809 0 75.0836 13.9311 1046 106.865 555.97 488.75
1810 0 75.0875 12.0393 904 110.275 556.373 487.487
1811 0 78.0422 11.4169 891 111.128 556.182 484.878
1812 0 81.1169 12.4758 1012 108.831 555.478 482.691
1813 0 83.1723 11.5303 959 110.655 555.491 481.948
1814 0 88.1378 11.9472 1053 108.633 555.707 481.636
1815 0 90.0535 11.6708 1051 109.401 555.625 479.861
1816 0 93.1224 13.5843 1265 106.533 555.471 476.992
1817 0 96.1208 12.2554 1178 108.846 555.772 477.283
1818 0 100.127 13.1434 1316 106.232 555.426 477.252
1819 0 104.098 13.1319 1367 107.178 554.812 472.584
1820 0 106.086 11.6603 1237 109.881 555.17 473.089
1821 0 110.356 13.6559 1507 106.986 554.576 468.08
1822 0 114.339 12.6466 1446 109.143 554.769 467.484
1823 0 117.204 11.1771 1310 111.339 554.956 467.353
1824 0 122.261 13.0623 1597 108.473 554.715 459.773
1825 1 68.2837 9.57769 654 103.177 555.104 487.223
1826 0 72.2627 9.82526 710 103.328 555.43 484.056
1827 0 71.0471 10.1482 721 101.581 555.46 490.147
1828 0 76.0939 10.3031 784 101.48 556.032 487.605
1829 0 78.049 10.8009 843 101.269 556.227 486.3
1830 0 80.1463 12.028 964 100.21 555.884 483.299
1831 0 84.0671 12.4543 1047 97.9102 553.947 479.673
1832 0 86.0839 11.1054 956 101.177 555.116 480.062
1833 0 89.1074 10.9755 978 101.357 554.593 481.172
1834 0 90.0626 10.8591 978 103.326 554.983 478.372
1835 0 93.1757 10.7861 1005 103.729 553.943 478.802
1836 0 97.1757 11.7828 1145 102.123 554.567 477.035
1837 0 100.205 10.768 1079 103.656 554.192 473.968
1838 1 54.1305 9.18151 497 106.014 554.093 498.384
1839 0 56.1286 11.0461 620 103.718 554.445 496.477
1840 0 56.1223 10.7444 603 105.559 553.816 495.683
1841 0 58.2642 10.1263 590 107.059 553.792 493.437
1842 0 61.2427 10.3686 635 107.213 553.866 494.019
1843 0 62.2067 10.5616 657 107.589 554.105 494.674
1844 0 64.2415 11.9082 765 105.116 554.144 492.231
1845 0 66.2432 11.4578 759 105.644 553.613 491.697
1846 0 69.2196 11.6152 804 105.498 554.205 489.364
1847 0 71.0811 13.2665 943 102.011 553.74 487.365
1848 0 72.0874 11.5693 834 106.253 553.614 486.512
1849 0 76.0562 11.6624 887 105.115 553.426 483.844
1850 0 78.0851 11.052 863 106.19 553.13 482.892
1851 0 84.1367 11.7071 985 104.55 554.2 481.814
1852 0 84.0879 11.1074 934 106.302 553.032 482.043
1853 0 89.0838 12.303 1096 103.181 553.932 479.445
1854 0 88.1693 10.219 901 104.222 553.434 472.698
1855 0 92.0947 9.84856 907 103.832 553.716 472.287
1856 0 94.1991 9.44808 890 103.59 553.51 470.192
1857 1 48.0447 9.05407 435 87.3264 554.211 496.12
1858 0 49.0633 10.2317 502 86.7669 554.084 494.966
1859 0 55.0477 9.70068 534 113.659 553.215 444.755
1860 0 51.0747 9.59379 490 90.5959 554.659 494.382
1861 0 55.1167 11.5754 638 93.5298 554.069 497.448
1862 0 56.0756 9.73686 546 98.2015 555.194 498.11
1863 0 57.1013 9.84215 562 97.8292 554.642 495.932
1864 0 59.1083 10.4215 616 97.1218 555.703 497.511
1865 0 58.1474 9.44153 549 99.7541 555.532 497.337
1866 0 64.183 11.4205 733 93.6685 555.941 495.349
1867 0 66.1558 11.1101 735 94.4463 555.735 492.731
1868 0 67.2489 10.6173 714 96.8389 555.389 494.448
1869 0 71.0413 11.9367 848 93.7866 555.922 490.637
1870 0 73.0291 11.7898 861 93.7352 556.045 488.933
1871 0 74.1752 10.4482 775 95.6155 556.022 490.606
1872 0 76.2885 9.59516 732 93.2842 555.698 485.168
1873 0 78.1856 9.96348 779 93.0616 556.082 486.647
1874 0 82.2403 9.69111 797 93.803 555.038 487.161
1875 1 40.1976 9.65233 388 96.4304 555.714 504.374
1876 0 43.1241 10.4814 452 94.354 555.254 503.451
1877 0 46.0933 11.0211 508 86.752 553.409 501.354
1878 0 43.1305 9.32054 402 90.9055 555.097 500.756
1879 0 46.1011 8.82843 407 94.8722 556.902 502.978
1880 0 48.115 10.6204 511 94.09 555.528 501.147
1881 0 51.0764 12.7064 649 90.1125 556.042 499.724
1882 0 53.1239 12.3109 654 91.0581 556.524 498.446
1883 0 53.1034 12.2968 653 91.3446 556.219 500.525
1884 0 54.0432 11.2317 607 93.916 555.743 499.736
1885 0 57.1848 12.7656 730 91.3589 555.749 496.736
1886 0 58.1207 11.5449 671 93.7645 555.529 498.198
1887 0 62.3183 13.3669 833 88.413 555.531 496.377
1888 0 63.2018 12.9427 818 90.1406 555.714 494.742
1889 0 65.0731 12.3092 801 91.0037 555.66 497.345
1890 0 67.1759 12.1621 817 92.1738 555.849 494.537
1891 0 69.1081 14.745 1019 87.9676 555.399 492.967
1892 0 71.102 11.9969 853 94.8675 555.285 493.58
1893 0 73.1299 13.6743 1000 93.051 555.576 490.337
1894 0 73.1169 13.157 962 95.7827 555.733 491.54
1895 0 78.2735 12.4946 978 99.1176 554.62 487.392
1896 0 80.3627 12.7422 1024 99.5166 554.904 486.662
1897 0 83.0876 11.2893 938 104.732 553.877 485.774
1898 0 86.2839 12.795 1104 103.995 554.535 481.392
1899 0 89.1914 11.6715 1041 106.36 553.547 481.52
1900 1 42.2151 11.702 494 101.613 554.569 503.676
1901 0 43.2799 12.0841 523 101.698 554.352 500.346
1902 0 45.6221 12.1652 555 102.53 554.755 498.452
1903 0 47.379 13.0649 619 100.225 554 499.653
1904 0 46.2337 11.55 534 104.612 554.193 500.949
1905 0 49.0631 12.2292 600 102.612 554.447 500.21
1906 0 51.2675 12.386 635 101.258 554.534 499.236
1907 0 52.1495 12.119 632 102.097 554.894 497.682
1908 0 54.1977 12.7312 690 101.016 555.629 498.178
1909 0 55.0854 12.5986 694 101.362 554.023 497.673
1910 0 55.0805 13.1081 722 100.227 554.123 495.524
1911 0 60.0477 12.1237 728 100.172 554.621 496.485
1912 0 64.14 12.2544 786 99.0331 555.048 495.622
1913 0 63.1666 12.934 817 98.8849 555.277 495.033
1914 0 65.1567 12.7078 828 98.8261 555.293 494.225
1915 0 68.2628 14.0194 957 96.8067 555.546 491.579
1916 0 71.2662 13.4987 962 98.0644 555.446 490.273
1917 0 72.317 12.3484 893 100.989 555.348 489.399
1918 0 74.1673 12.4988 927 101.252 555.436 487.264
1919 0 78.2439 13.4579 1053 98.7768 555.584 487.07
1920 0 79.1588 11.7864 933 102.588 555.213 485.257
1921 0 82.4903 12.5712 1037 100.866 555.24 483.434
1922 0 86.2337 12.0486 1039 102.162 555.158 482.329
1923 0 89.4227 12.5024 1118 101.903 555.534 481.708
1924 1 45.061 11.7175 528 96.892 556.153 503.339
1925 0 47.1116 11.8654 559 97.034 555.726 502.113
1926 0 49.142 12.6368 621 94.8567 555.755 501.063
1927 0 49.1085 11.9939 589 95.5959 555.533 501.267
1928 0 50.0969 12.1165 607 95.9769 555.534 499.975
1929 0 52.1219 12.2022 636 95.5991 556.288 499.579
1930 0 52.1268 11.3569 592 97.2939 556.174 498.899
1931 0 55.1111 11.5948 639 97.3568 556.504 498.457
1932 0 59.223 11.8704 703 96.3784 555.199 495.174
1933 0 60.2344 11.8371 713 99.2553 555.541 494.676
1934 0 62.1188 11.9449 742 99.5499 555.327 493.732
1935 0 63.2449 12.5386 793 97.913 555.449 493.158
1936 0 67.1227 12.2313 821 98.2887 555.509 492.987
1937 0 67.1278 10.2789 690 101.913 555.574 493.352
1938 0 71.1853 11.8564 844 100.05 555.518 489.751
1939 0 74.2029 12.1289 900 99.0378 555.73 490.442
1940 0 75.1359 11.2995 849 101.114 555.662 490.713
1941 0 79.2385 12.027 953 99.8416 555.542 489.217
1942 0 81.141 11.1534 905 102.179 555.896 489.325
1943 0 82.1126 12.2393 1005 102.737 556.118 485.653
1944 0 85.2143 12.6739 1080 103.119 555.751 483.224
1945 0 87.1215 10.6059 924 108.155 556.321 481.924
1946 0 91.1227 11.1827 1019 107.588 556.335 479.149
1947 0 93.191 11.1491 1039 107.555 555.763 480.155
1948 1 51.115 12.7164 650 100.129 556.032 499.786
1949 0 51.2146 12.2035 625 102.734 556.454 498.531
1950 0 52.0671 11.8885 619 102.533 556.456 499.426
1951 0 54.1958 12.3626 670 99.3358 555.734 499.173
1952 0 53.0765 11.6813 620 101.831 556.037 498.139
1953 0 56.1905 12.3864 696 101.974 555.641 496.549
1954 0 58.1104 11.1684 649 104.963 555.644 495.137
1955 0 59.3163 12.4418 738 102.289 555.352 495.226
1956 0 60.2223 11.8561 714 104.569 555.311 495.036
1957 0 62.1886 12.1405 755 104.514 555.513 492.991
1958 0 66.1774 13.086 866 101.361 555.532 491.081
1959 0 69.1343 14.3055 989 98.5167 556.661 490.171
1960 0 71.1164 12.36 879 102.735 555.962 489.049
1961 0 73.0952 12.0801 883 103.172 555.139 485.818
1962 0 76.0988 12.4312 946 102.559 555.959 485.239
1963 0 79.2732 13.0435 1034 101.353 555.283 484.221
1964 0 82.1192 13.0785 1074 101.816 555.828 483.802
1965 0 87.1959 13.0396 1137 101.908 556.014 480.722
1966 1 41.0753 10.8094 444 108.306 554.59 501.043
1967 0 42.1686 10.8375 457 102.906 554.107 502.269
1968 0 44.1213 11.2417 496 103.476 556.724 501.938
1969 0 46.109 11.3861 525 102.341 556.269 502.813
1970 0 49.1271 12.8035 629 100.164 555.52 501.294
1971 0 49.0621 11.5364 566 104.7 555.521 501.604
1972 0 51.1671 11.7654 602 102.875 555.073 503.196
1973 0 51.1187 12.0895 618 106.426 554.735 498.61
1974 0 52.0741 11.2532 586 108.677 555.352 500.23
1975 0 53.1312 12.3468 656 107.633 555.846 497.108
1976 0 54.0919 11.9611 647 109.048 555.896 496.558
1977 0 55.0647 11.205 617 111.596 555.674 496.29
1978 0 60.0725 12.3018 739 109.319 556.279 494.838
1979 0 63.0541 13.0206 821 108.43 555.933 493.017
1980 0 62.1116 12.2843 763 111.582 555.316 492.885
1981 0 69.1026 12.59 870 110.162 555.632 493.051
1982 0 68.1483 12.15 828 114.092 555.058 490.547
1983 0 71.0437 12.5979 895 113.17 554.945 490.337
1984 0 73.166 12.7518 933 112.867 554.827 488.103
1985 0 75.0367 12.8604 965 113.465 554.433 487.208
1986 0 77.094 13.1009 1010 114.212 554.152 486.586
1987 0 80.037 12.7441 1020 114.78 554.022 486.315
1988 0 84.068 13.2869 1117 113.66 553.794 482.659
1989 0 85.1212 12.1944 1038 116.452 554.642 483.939
1990 0 88.1289 12.4023 1093 116.357 554.502 479.738
1991 0 92.1567 13.477 1242 112.729 554.346 478.135
1992 1 50.1165 11.6129 582 110.845 553.916 499.229
1993 0 50.2017 11.4139 573 113.426 553.782 494.675
1994 0 51.1466 11.2422 575 113.226 551.998 497.176
1995 0 53.1628 11.8128 628 112.968 552.871 495.911
1996 0 54.0654 12.2814 664 111.569 553.116 496.502
1997 0 54.0589 11.321 612 115.319 553.322 494.993
1998 0 57.0468 11.2189 640 114.447 553.348 493.733
1999 0 60.0281 11.4446 687 112.183 553.358 496.288
2000 0 62.0409 12.3306 765 110.622 553.511 494.552
2001 0 64.0872 12.7795 819 110.04 553.508 491.918
2002 0 64.1071 12.2451 785 113.93 553.238 490.131
2003 0 67.1304 13.0045 873 111.863 553.678 490.575
2004 0 68.1382 13.4139 914 112.137 553.256 488.209
2005 0 69.2805 12.7164 881 113.561 553.185 488.633
2006 0 75.4089 12.903 973 111.977 553.872 486.584
2007 0 75.0967 10.8127 812 116.567 553.607 487.433
2008 0 78.0967 12.5614 981 114.458 553.776 484.166
2009 0 80.1558 11.4277 916 116.571 553.798 484.301
2010 0 82.1687 11.878 976 116.015 553.993 481.488
2011 1 44.0663 10.643 469 114.977 553.501 501.889
2012 0 46.0637 11.0282 508 114.161 553.585 501.593
2013 0 48.4835 11.4678 556 111.486 554.378 498.586
2014 0 48.0651 12.1294 583 109.29 553.022 499.319
2015 0 49.1038 11.9746 588 110.595 553.043 499.833
2016 0 52.1135 11.5901 604 111.811 552.826 498.414
2017 0 50.0386 12.4904 625 112.445 553.051 496.41
2018 0 52.0567 11.6219 605 113.383 553.306 496.693
2019 0 54.143 13.335 722 109.219 553.929 497.011
2020 0 58.1866 12.7349 741 109.372 553.762 493.259
2021 0 60.2975 13.4831 813 107.927 553.831 494.073
2022 0 60.3429 11.9152 719 112.719 553.551 494.577
2023 0 64.2227 11.9895 770 112.313 554.078 494.439
2024 0 65.1913 13.5294 882 110.345 553.305 491.568
2025 0 67.2217 13.1208 882 111.217 553.692 492.466
2026 0 69.0536 13.294 918 111.463 554.28 489.645
2027 0 74.2325 13.5116 1003 108.963 554.126 488.59
2028 0 75.4273 13.0324 983 110.808 554.597 488.651
2029 0 76.1546 12.1857 928 115.487 553.903 488.288
2030 0 77.2365 12.6236 975 115.822 554.004 486.662
2031 0 81.3507 12.6858 1032 116.104 554.719 484.579
2032 1 43.2098 9.74315 421 120.584 554.542 500.067
2033 0 45.4243 11.4916 522 112.485 555.172 496.479
2034 0 47.1036 12.377 583 114.396 553.595 501.443
2035 0 47.1479 11.3473 535 112.929 553.224 501.963
2036 0 49.0217 12.3619 606 111.317 553.3 500.436
2037 0 50.0616 12.8642 644 110.554 553.668 498.984
2038 0 51.186 11.7415 601 111.614 553.408 500.083
2039 0 53.0868 12.376 657 112.187 553.968 497.935
2040 0 54.1254 12.6928 687 114.824 553.323 496.408
2041 0 58.0679 13.1742 765 112.59 553.791 497.441
2042 0 59.2397 12.8967 764 113.398 553.335 497.921
2043 0 60.1514 12.4685 750 115.688 554.06 496.465
2044 0 60.1868 11.9794 721 118.08 553.795 493.779
2045 0 64.0824 12.8741 825 115.316 554.041 494.661
2046 0 66.1051 12.2532 810 117.342 554.59 492.1
2047 0 68.2757 12.8743 879 116.685 554.213 490.547
2048 0 70.2534 11.9994 843 118.725 554.874 490.938
2049 0 73.2185 12.1144 887 119.22 554.939 488.021
2050 0 75.2549 13.2483 997 117.356 555.004 485.308
2051 0 77.313 13.3613 1033 116.815 555.394 485.012
2052 0 81.4589 12.9881 1058 117.631 555.154 482.665
2053 0 80.4556 13.2371 1065 119.959 555.09 480.874
2054 0 85.2976 13.8925 1185 118.394 555.1 478.999
2055 1 48.083 12.1873 586 118.573 555.585 498.225
2056 0 49.1642 12.3667 608 118.263 556.309 498.377
2057 0 48.375 10.8114 523 113.088 555.66 494.052
2058 0 50.1413 11.7269 588 104.082 555.701 493.991
2059 0 54.2242 12.4114 673 102.103 556.169 495.296
2060 0 54.1138 12.4737 675 103.6 556.705 494.468
2061 0 54.0919 12.4418 673 122.816 556.727 494.467
2062 0 56.0722 11.0393 619 107.654 556.468 494.79
2063 0 60.0563 11.9887 720 105.739 556.538 494.607
2064 0 61.0789 12.05 736 106.738 556.14 494.417
2065 0 63.0756 11.7478 741 107.084 556.445 493.345
2066 0 64.1058 11.8398 759 108.916 556.448 492.183
2067 0 66.1301 12.2032 807 107.143 556.45 490.099
2068 0 70.092 11.171 783 109.455 556.613 489.513
2069 0 74.1091 12.9269 958 106.661 555.876 486.52
2070 0 75.0472 14.2843 1072 104.91 555.086 485.027
2071 0 78.1377 13.0411 1019 118.63 554.342 485.945
2072 0 79.0812 13.2143 1045 119.749 555.041 484.747
2073 0 84.0335 13.1019 1101 118.931 554.044 484.583
2074 1 45.0606 12.6274 569 118.283 553.844 501.837
2075 0 46.0725 13.0664 602 115.35 553.422 501.814
2076 0 48.0442 13.0088 625 115.158 553.896 500.718
2077 0 49.0417 14.3347 703 109.253 553.797 500.104
2078 0 49.0212 11.9744 587 118.256 553.939 500.237
2079 0 52.0846 13.5357 705 112.484 553.753 499.948
2080 0 53.0491 13.8739 736 113.188 554.302 498.997
2081 0 56.0453 14.1493 793 111.014 553.936 497.416
2082 0 57.0545 13.4783 769 113.974 553.772 496.373
2083 0 58.1517 12.605 733 116.651 553.325 497.22
2084 0 61.0504 12.7108 776 115.954 553.854 494.805
2085 0 62.0573 13.7937 856 113.287 553.979 494.641
2086 0 65.0632 12.68 825 116.602 554.632 491.896
2087 0 66.0646 12.7602 843 117.196 554.439 490.95
2088 0 68.0548 13.5479 922 115.746 554.586 491.013
2089 0 73.0849 13.5322 989 114.619 555.067 489.919
2090 0 74.0364 13.75 1018 116.986 554.439 487.557
2091 0 77.1303 14.4561 1115 115.3 554.139 487.923
2092 0 77.0583 13.0551 1006 120.107 554.109 487.192
2093 0 82.1135 14.1511 1162 116.904 554.626 484.517
2094 0 85.0895 14.7022 1251 116.087 554.08 482.031
2095 0 88.1088 15.3106 1349 114.584 554.294 481.56
2096 0 91.0398 14.7079 1339 117.147 554.192 480.34
2097 0 92.1134 14.3085 1318 118.707 553.685 479.542
2098 0 97.1108 13.9428 1354 119.87 554.23 476.614
2099 0 99.22 13.979 1387 120.372 553.915 476.172
2100 1 54.075 11.7614 636 123.151 554.079 498.281
2101 0 51.3137 12.5113 642 118.026 554.889 491.953
2102 0 55.4114 10.8101 599 109.96 555.746 492.309
2103 0 56.0938 11.4095 640 109.936 556.714 494.105
2104 0 59.1782 11.2204 664 111.148 556.342 492.194
2105 0 60.217 11.8405 713 110.805 556.358 491.966
2106 0 61.1855 12.0944 740 110.023 554.918 490.622
2107 0 64.4298 11.8423 763 111.773 555.178 490.404
2108 0 67.1184 12.9771 871 109.455 555.429 489.224
2109 0 70.1942 12.209 857 111.246 555.144 488.201
2110 0 71.3074 12.8177 914 110.955 555.264 488.268
2111 0 74.3114 11.7748 875 114.067 555.872 485.041
2112 0 77.2368 12.2869 949 113.394 555.347 485.464
2113 0 80.1876 13.3687 1072 111.806 555.187 483.109
2114 0 82.3888 12.5867 1037 114.699 555.208 480.249
2115 0 84.142 12.4551 1048 115.125 555.633 479.923
2116 0 85.2214 12.8372 1094 117.325 555.426 478.3
2117 0 90.3133 13.5307 1222 117.8 555.242 477.057
2118 0 92.3517 12.5715 1161 125.172 554.803 473.562
2119 0 94.509 12.4433 1176 128.939 554.802 474.605
2120 0 99.4911 13.4987 1343 127.627 554.614 472.035
2121 0 103.608 13.9178 1442 126.122 554.225 470.687
2122 1 56.1256 12.4542 699 127.661 554.296 496.685
2123 0 57.0532 12.3919 707 110.27 555.031 494.342
2124 0 58.0637 12.3657 718 125.997 554.994 491.87
2125 0 61.0625 11.5947 708 111.623 555.253 490.266
2126 0 62.0368 12.4442 772 110.175 555.345 488.753
2127 0 64.124 12.0392 772 110.85 554.961 488.956
2128 0 65.1417 12.1274 790 123.939 554.843 490.696
2129 0 69.0969 12.316 851 121.91 554.123 491.179
2130 0 71.148 12.973 923 120.402 553.634 489.529
2131 0 72.1031 12.3712 892 122.744 553.805 489.226
2132 0 74.218 11.5605 858 125.112 553.635 488.54
2133 0 79.1958 12.589 997 122.55 553.311 486.07
2134 0 79.288 11.6537 924 124.735 553.657 484.272
2135 0 82.1177 11.9584 982 124.346 553.534 483.345
2136 0 83.2075 11.5615 962 125.579 553.568 483.043
2137 0 88.2538 13.2459 1169 121.12 553.62 479.104
2138 0 90.3277 12.1779 1100 125.014 553.759 479.342
2139 0 94.2623 12.9956 1225 123.503 553.064 478.166
2140 0 95.2019 12.9724 1235 124.099 554.21 474.7
2141 0 99.3621 12.1475 1207 124.369 553.733 470.688
2142 0 99.4531 11.8347 1177 122.863 554.129 469.622
2143 0 101.182 12.0674 1221 120.767 554.456 464.219
2144 0 107.252 11.515 1235 124.221 554.581 468.577
2145 1 58.2316 11.2482 655 112.724 555.313 489.812
2146 0 62.0984 10.6283 660 112.436 555.086 488.448
2147 0 66.2134 11.7197 776 104.267 555.177 485.925
2148 0 68.1113 10.659 726 106.274 554.423 486.632
2149 0 68.1613 10.7686 734 106.744 554.251 485.51
2150 0 70.1428 11.2485 789 106.545 554.674 483.496
2151 0 74.2563 11.7566 873 105.746 554.255 482.414
2152 0 77.2879 12.861 994 103.283 554.234 482.141
2153 0 78.0854 11.782 920 106.936 554.749 481.921
2154 0 80.2594 12.1107 972 107.38 554.325 479.632
2155 0 83.2169 11.7284 976 108.994 554.964 479.132
2156 0 87.2585 13.1219 1145 105.772 555.029 478.296
2157 0 88.1362 12.8665 1134 107.562 554.259 476.511
2158 0 90.1541 12.2235 1102 109.119 554.504 474.206
2159 0 94.3515 11.9341 1126 110.407 554.322 473.601
2160 0 97.2669 12.5531 1221 107.953 554.677 470.508
2161 0 99.2103 12.539 1244 109.658 553.887 466.885
2162 0 103.654 12.9952 1347 114.747 554.368 468.024
2163 1 56.3852 11.9535 674 115.301 554.659 495.724
2164 0 58.1712 11.9475 695 109.81 554.99 495.871
2165 0 58.1927 12.3899 721 113.976 555.05 496.083
2166 0 63.3144 14.3253 907 106.245 554.662 494.497
2167 0 64.1454 13.0329 836 109.055 554.286 492.322
2168 0 66.2817 12.6128 836 110.053 555.057 491.617
2169 0 67.2145 12.899 867 110.98 554.625 489.993
2170 0 72.2543 14.2275 1028 106.222 553.926 488.848
2171 0 74.3011 13.5933 1010 107.387 554.178 488.337
2172 0 75.3667 12.7908 964 110.816 554.047 486.595
2173 0 77.4969 13.0715 1013 109.93 553.684 486.146
2174 0 81.3607 13.0776 1064 110.207 553.949 483.919
2175 0 84.385 12.7748 1078 110.776 553.633 483.008
2176 0 88.292 13.546 1196 109.487 553.421 482.919
2177 0 88.2614 12.3723 1092 113.527 553.405 481.527
2178 0 90.5935 12.1973 1105 111.31 553.61 477.294
2179 1 50.1076 11.4753 575 109.525 553.897 497.562
2180 0 49.0737 9.21063 452 112.646 553.277 498.124
2181 0 53.0849 12.188 647 106.124 553.219 495.759
2182 0 54.1251 13.4503 728 111.628 553.434 497.88
2183 0 54.147 14.6268 792 108.576 553.352 497.466
2184 0 57.0874 12.5772 718 113.323 553.618 496.106
2185 0 58.0636 13.4852 783 111.369 553.407 494.777
2186 0 61.1124 12.7961 782 112.412 553.651 494.937
2187 0 65.1926 13.8206 901 109.703 553.421 493.585
2188 0 67.1405 13.7026 920 110.963 554.553 490.012
2189 0 70.1564 14.3251 1005 108.736 553.8 489.736
2190 0 74.2789 14.661 1089 107.304 553.814 489.738
2191 0 75.3207 14.6706 1105 108.744 554.004 489.426
2192 0 76.201 14.9998 1143 110.255 554.069 486.944
2193 0 79.4456 13.5061 1073 113.551 553.669 485.63
2194 0 82.3595 13.7082 1129 113.029 553.151 483.325
2195 0 85.4337 14.4088 1231 111.632 554.315 482.978
2196 0 86.3508 13.202 1140 114.598 554.233 482.053
2197 0 90.5051 13.5241 1224 113.949 554.025 479.292
2198 0 92.3501 14.2068 1312 111.902 554.308 479.969
2199 0 96.3823 14.152 1364 112.793 553.897 476.408
2200 0 99.5262 13.6045 1354 113.557 554.443 475.826
2201 0 100.434 12.7546 1281 116.435 553.858 473.319
2202 0 103.34 12.7346 1316 115.65 553.199 471.932
2203 0 106.445 12.3914 1319 117.304 553.816 472.338
2204 0 108.455 12.4476 1350 119.22 553.895 465.945
2205 0 113.352 13.7536 1559 115.841 553.904 466.069
2206 0 119.75 13.0104 1558 116.726 554.055 459.449
2207 0 125.254 12.4387 1558 116.671 554.291 463.852
2208 1 64.3045 12.7052 817 113.635 553.088 491.634
2209 0 68.2032 13.3425 910 112.22 552.729 490.234
2210 0 69.4162 11.8416 822 116.045 553.088 490.681
2211 0 71.2805 13.9028 991 111.73 552.885 489.045
2212 0 75.5787 12.5432 948 115.365 553.345 487.422
2213 0 75.7332 14.287 1082 112.678 554.027 486.868
2214 0 80.5423 13.0615 1052 115.261 553.808 484.374
2215 0 82.6476 13.2127 1092 115.63 553.775 482.068
2216 0 82.5379 12.9516 1069 117.005 553.634 480.204
2217 0 86.3329 13.4016 1157 116.03 553.68 478.329
2218 0 88.589 11.796 1045 120.416 553.363 477.115
2219 0 93.63 14.4185 1350 114.178 554.004 475.106
2220 0 94.4243 13.3546 1261 117.835 553.944 472.875
2221 0 95.4367 12.4061 1184 119.893 553.751 472.412
2222 0 98.4453 12.4333 1224 119.962 553.962 468.983
2223 0 101.37 13.2386 1342 118.537 553.855 469.086
2224 0 106.749 13.1055 1399 122.302 554.37 466.199
2225 0 109.677 12.4183 1362 122.93 554.01 465.744
2226 0 114.492 13.3896 1533 119.774 554.618 463.247
2227 0 113.373 11.5107 1305 122.507 554.673 460.39
2228 0 120.735 10.8419 1309 122.542 554.587 458.262
2229 1 62.435 9.9143 619 121.96 553.614 484.742
2230 0 66.4668 10.8475 721 119.913 553.436 482.537
2231 0 71.2472 12.8707 917 113.415 552.9 485.766
2232 0 73.4436 13.3163 978 113.656 554.079 484.978
2233 0 76.4152 14.0155 1071 112.153 554.044 485.556
2234 0 79.4099 13.2477 1052 113.068 553.99 484.413
2235 0 81.3206 14.0309 1141 110.629 553.963 481.082
2236 0 80.2807 11.6965 939 117.338 554.145 479.624
2237 0 84.5439 12.6561 1070 116.136 553.416 477.234
2238 0 89.5796 14.4118 1291 112.794 553.749 472.686
2239 0 90.4095 13.1845 1192 116.54 553.689 468.428
2240 0 94.5895 12.8238 1213 117.769 553.65 467.692
2241 0 98.6164 13.4156 1323 115.989 553.862 467.407
2242 0 98.4811 12.0734 1189 121.179 553.923 464.026
2243 0 105.582 12.7389 1345 117.587 553.497 463.613
2244 0 107.382 12.9352 1389 118.513 553.624 458
2245 1 59.4193 9.69383 576 118.587 554.024 487.927
2246 0 64.273 12.5403 806 116.411 554.34 490.995
2247 0 67.285 11.7411 790 120.904 553.438 491.972
2248 0 66.1359 11.7485 777 122.664 553.598 489.777
2249 0 70.2743 12.9208 908 118.899 553.798 490.778
2250 0 73.23 12.6314 925 119.551 554.035 488.849
2251 0 75.1694 12.6381 950 119.027 553.8 488.771
2252 0 76.1416 12.2666 934 121.738 553.408 486.972
2253 0 81.0802 14.4672 1173 113.798 552.802 486.925
2254 0 82.2787 14.4509 1189 111.62 553.493 485.412
2255 0 85.101 13.9599 1188 114.104 553.949 483.229
2256 0 88.1332 14.8071 1305 112.529 553.246 480.878
2257 0 90.2105 14.3775 1297 114.666 553.668 480.305
2258 0 95.0709 14.1263 1343 114.87 553.466 482.007
2259 0 95.1382 12.7289 1211 121.773 552.855 479.88
2260 1 53.0843 11.2086 595 121.454 554.64 502.669
2261 0 54.0793 10.4846 567 122.635 554.612 504.014
2262 0 56.0711 10.4332 585 106.126 556.123 502.87
2263 0 56.0606 11.0238 618 101.621 553.269 500.175
2264 0 60.0492 12.1234 728 99.5989 552.692 500.192
2265 0 60.1463 11.7547 707 101.929 553.806 502.187
2266 0 61.1682 11.4929 703 103.275 553.202 502.804
2267 0 64.136 11.3509 728 104.194 553.018 502.706
2268 0 64.2016 11.4172 733 103.786 552.902 504.01
2269 0 66.1063 13.3875 885 100.49 552.6 501.851
2270 0 69.1276 12.0357 832 103.052 552.352 500.306
2271 0 71.0979 10.1691 723 105.647 552.113 499.386
2272 0 74.1291 12.0331 892 101.835 551.711 499.536
2273 0 77.2316 11.5108 889 105.31 551.685 498.594
2274 0 77.1343 10.9031 841 111.599 552.143 500.992
2275 0 79.1452 12.2054 966 111.756 551.714 498.444
2276 0 80.1914 11.51 923 113.277 551.197 497.729
2277 0 83.1493 11.305 940 113.38 550.755 499.26
2278 0 88.1167 13.1076 1155 109.758 551.095 495.246
2279 0 90.2568 11.6556 1052 113.145 550.994 495.46
2280 0 91.1291 11.6977 1066 116.623 550.141 489.613
2281 0 93.1757 12.2028 1137 114.544 550.417 491.914
2282 0 98.1239 12.1887 1196 115.285 550.094 488.054
2283 0 100.184 11.7284 1175 115.272 550.193 486.529
2284 0 105.273 13.5553 1427 111.964 550.004 482.912
2285 0 106.246 11.6051 1233 115.801 549.063 484.636
2286 0 112.287 12.3077 1382 114.569 549.198 480.45
2287 0 117.267 12.4246 1457 116.095 549.373 479.441
2288 0 120.35 12.5052 1505 116.369 548.715 476.617
2289 0 124.214 11.9149 1480 110.027 547.734 471.993
2290 1 66.309 9.878 655 109.566 548.484 500.05
2291 0 73.3413 12.5168 918 105.598 548.712 499.498
2292 0 76.3732 12.5306 957 103.133 549.143 501.192
2293 0 79.2877 12.9654 1028 102.393 548.225 495.233
2294 0 80.3025 11.7306 942 103.738 549.337 497.355
2295 0 82.2935 11.3982 938 105.549 549.016 495.23
2296 0 85.2899 11.6075 990 105.873 549.177 492.898
2297 0 91.2359 13.4158 1224 102.146 549.823 491.562
2298 0 93.15 11.2829 1051 107.682 549.599 492.777
2299 0 96.3339 11.865 1143 107.492 549.182 489.833
2300 0 100.242 12.4599 1249 107.498 548.948 487.925
2301 0 102.259 12.2532 1253 109.477 549.063 484.427
2302 0 107.281 12.0339 1291 109.913 548.874 483.187
2303 0 109.258 12.0082 1312 110.865 548.803 478.645
2304 0 112.279 12.9142 1450 105.946 549.405 479.843
2305 0 118.442 11.0856 1313 105.53 549.565 481.029
2306 1 62.1777 11.3385 705 99.9206 549.343 506.262
2307 0 64.0745 11.6115 744 104.673 549.858 503.832
2308 0 68.1388 12.4599 849 97.2709 548.353 504.439
2309 0 69.1731 12.2591 848 99.309 549.191 500.748
2310 0 69.122 12.355 854 100.126 548.941 500.975
2311 0 76.3477 13.2944 1015 97.3084 549.037 502.634
2312 0 77.3661 14.2181 1100 97.3673 549.021 500.803
2313 0 81.1572 14.244 1156 96.6358 548.799 498.466
2314 0 81.1386 12.3739 1004 100.962 549.417 499.39
2315 0 85.089 12.8454 1093 101.753 549.089 495.168
2316 0 86.231 12.0606 1040 102.43 549.036 494.541
2317 0 90.2025 12.1394 1095 101.555 549.18 493.311
2318 0 93.3339 13.2856 1240 99.6927 548.862 490.735
2319 0 97.2203 14.0094 1362 98.2981 548.319 487.588
2320 0 99.2512 11.6573 1157 103.131 548.95 487.801
2321 0 104.462 13.1819 1377 100.006 549.442 485.082
2322 1 54.1451 13.2053 715 96.3133 549.46 508.531
2323 0 54.0707 11.5404 624 100.873 550.046 509.053
2324 0 56.2222 12.504 703 99.0043 549.309 508.791
2325 0 61.4362 12.5333 770 97.8312 550.092 508.827
2326 0 60.1366 12.0226 723 101.856 548.967 504.99
2327 0 63.4047 12.5858 798 100.609 549.405 506.36
2328 0 64.4064 12.918 832 102.148 548.886 502.554
2329 0 67.257 13.218 889 101.88 549.082 500.207
2330 0 70.3523 13.3898 942 99.8588 548.768 502.127
2331 0 72.6248 12.4062 901 102.972 548.619 497.705
2332 0 74.5036 11.5028 857 104.293 549.029 497.027
2333 0 76.5592 13.2316 1013 100.222 548.306 496.317
2334 0 80.7989 13.317 1076 101.533 547.818 490.232
2335 0 81.7404 12.6498 1034 102.207 548.317 487.992
2336 0 84.8285 12.6844 1076 102.549 548.111 488.388
2337 0 88.7602 13.2379 1175 104.177 548.653 485.922
2338 0 89.6719 12.0551 1081 106.704 548.654 485.331
2339 0 93.0029 12.6448 1176 106.014 548.44 483.503
2340 0 97.8365 13.9212 1362 105.023 548.766 478.322
2341 0 100.737 13.8281 1393 106.38 548.798 477.628
2342 1 55.5163 11.7263 651 103.201 548.817 500.263
2343 0 58.1913 12.5448 730 104.407 547.922 499.259
2344 0 60.2187 13.7665 829 101.848 548.375 497.926
2345 0 62.4178 11.9677 747 106.723 548.771 497.139
2346 0 64.4625 12.8757 830 104.446 549.086 496.39
2347 0 67.5847 13.2278 894 103.619 548.744 494.727
2348 0 67.4316 12.813 864 105.317 549.328 491.734
2349 0 67.6996 11.0193 746 111.228 550.169 488.866
2350 0 71.8892 12.1854 876 108.132 549.708 490.313
2351 0 74.806 12.7663 955 107.415 550.156 486.964
2352 0 78.6168 13.3432 1049 106.283 550.802 486.73
2353 0 80.5948 12.9661 1045 107.838 550.824 484.5
2354 0 83.553 12.5669 1050 109.007 551.012 482.675
2355 0 85.8109 12.2479 1051 110.423 550.874 482.356
2356 0 90.5038 13.7342 1243 107.847 550.424 478.87
2357 0 93.4976 13.2624 1240 108.219 550.437 478.928
2358 0 95.5484 13.1033 1252 109.923 550.605 477.406
2359 0 97.4689 12.8554 1253 111.025 550.649 475.828
2360 0 102.601 13.265 1361 109.966 551.052 473.651
2361 0 105.594 13.3815 1413 111.742 551.112 469.849
2362 1 59.4556 12.5808 748 107.981 550.948 492.178
2363 0 60.3412 13.1917 796 108.675 550.43 493.19
2364 0 61.3105 12.6895 778 110.722 550.907 491.779
2365 0 62.3438 13.0085 811 111.545 551.709 489.253
2366 0 66.1036 12.7376 842 110.901 551.9 490.139
2367 0 67.1305 13.6898 919 109.893 551.515 490.874
2368 0 66.1127 12.5846 832 144.464 550.653 488.976
2369 0 72.1551 13.2631 957 111.153 552.76 487.809
2370 0 76.1354 13.3447 1016 109.825 553.18 488.688
2371 0 79.2232 13.1401 1041 109.99 552.879 488.012
2372 0 81.1915 12.0579 979 113.233 552.913 485.722
2373 0 82.1118 12.4586 1023 113.422 553.307 482.551
2374 0 86.1774 13.2285 1140 111.282 552.995 481.733
2375 0 88.0723 12.6714 1116 113.307 553.554 480.7
2376 0 91.2815 13.1352 1199 111.433 554.075 479.977
2377 0 95.2299 12.5591 1196 113.159 552.972 476.863
2378 0 98.2507 14.2493 1400 109.384 553.569 475.021
2379 0 99.3336 11.9597 1188 115.196 553.848 472.714
2380 0 104.362 12.6196 1317 113.843 553.256 472.561
2381 1 54.1354 12.4687 675 100.868 554.19 492.019
2382 0 55.1931 11.5594 638 103.077 553.726 490.715
2383 0 57.1253 11.396 651 110.902 552.186 493.207
2384 0 63.0568 12.0843 762 107.157 552.902 493.386
2385 0 64.0968 12.3407 791 106.909 553.153 493.067
2386 0 66.1026 12.2234 808 106.675 553.781 490.09
2387 0 71.1333 13.0881 931 102.881 553.063 491.357
2388 0 71.1669 14.2763 1016 101.367 553.734 488.07
2389 0 71.1556 11.6365 828 106.861 553.761 489.773
2390 0 74.1576 11.7183 869 107.255 554.007 484.301
2391 0 77.0715 12.8063 987 103.259 553.961 487.751
2392 0 81.1411 13.076 1061 103.451 553.648 483.926
2393 0 83.21 13.2196 1100 103.996 553.469 482.588
2394 0 84.1643 14.1153 1188 102.663 553.548 481.082
2395 0 88.3052 13.3627 1180 103.206 553.218 480.604
2396 0 90.07 13.1675 1186 104.809 552.837 478.24
2397 0 94.0853 12.9138 1215 105.494 552.788 476.634
2398 0 95.0824 12.9151 1228 105.852 552.866 475.162
2399 0 98.2073 12.6976 1247 106.342 552.868 475.425
2400 0 100.318 13.1781 1322 101.101 552.738 470.145
2401 0 103.084 11.5343 1189 103.197 552.707 466.996
2402 0 105.185 11.5226 1212 105.399 552.509 465.393
2403 1 54.0509 9.19503 497 97.9779 553.127 488.714
2404 0 56.0548 10.454 586 96.1604 553.068 490.261
2405 0 62.0683 11.5035 714 103.143 553.141 489.873
2406 0 61.0536 11.5309 704 99.0014 553.305 487.247
2407 0 62.2183 11.2668 701 96.0043 553.722 486.097
2408 0 62.2224 11.5071 716 97.1034 553.992 482.57
2409 0 65.0923 10.5235 685 98.9445 554.067 482.571
2410 0 66.121 11.2672 745 98.4819 554.126 479.889
2411 0 72.2354 12.833 927 94.3657 554.085 480.648
2412 0 70.1231 11.4228 801 98.7179 553.965 477.242
2413 0 76.1406 12.3981 944 96.5106 553.908 478.817
2414 0 74.0753 11.7043 867 99.9181 553.614 475.095
2415 0 78.1963 11.7653 920 100.475 553.928 475.636
2416 0 81.123 11.5873 940 103.054 553.657 471.351
2417 0 83.1162 12.0795 1004 102.884 553.834 470.948
2418 0 83.1273 11.7049 973 105.151 553.515 471.813
2419 0 89.1081 12.6139 1124 102.294 553.367 469.859
2420 0 90.1405 10.6389 959 107.014 553.523 466.818
2421 0 98.2603 11.9784 1177 110.678 553.849 472.213
2422 0 100.215 12.0242 1205 110.584 551.915 467.754
2423 0 100.127 11.2657 1128 113.348 553.256 466.063
2424 0 108.108 12.5707 1359 110.372 551.684 463.088
2425 1 59.0554 9.60115 567 110.067 552.007 490.083
2426 0 62.0486 11.0397 685 107.315 551.409 486.039
2427 0 59.0675 10.4287 616 105.295 551.334 481.576
2428 0 65.0594 12.7268 828 102.14 551.899 481.941
2429 0 66.1055 12.7826 845 101.606 551.034 482.634
2430 0 69.063 10.7438 742 106.487 551.655 481.111
2431 0 70.0773 11.7442 823 105.86 551.606 478.283
2432 0 72.0838 11.1814 806 107.49 552.128 480.458
2433 0 78.0496 11.0827 865 108.509 551.508 483.119
2434 0 81.1419 12.4227 1008 106.113 551.321 480.21
2435 0 82.0646 11.5884 951 108.188 551.413 481.058
2436 0 86.1118 13.8541 1193 103.459 551.201 480.173
2437 0 87.078 12.5175 1090 106.982 552.257 474.413
2438 0 90.1671 13.0535 1177 104.857 551.857 477.274
2439 0 95.1326 13.8964 1322 102.638 551.372 477.657
2440 0 94.2617 11.606 1094 109.009 551.937 476.41
2441 0 97.1561 12.0322 1169 108.92 551.429 473.162
2442 0 102.181 13.476 1377 105.665 551.227 472.404
2443 0 103.247 13.1723 1360 107.846 551.527 469.749
2444 0 104.181 11.5376 1202 111.178 551.215 469.279
2445 0 109.204 13.9647 1525 107.213 551.624 469.296
2446 0 112.133 12.1018 1357 111.665 551.326 468.601
2447 0 117.231 11.7461 1377 112.004 551.694 466.497
2448 0 122.232 12.9998 1589 109.096 551.936 462.427
2449 0 125.273 12.9557 1623 108.926 552.763 458.522
2450 0 130.421 14.4685 1887 103.343 553.477 459.152
2451 1 71.1665 9.66747 688 96.9041 553.811 485.503
2452 0 75.176 11.4132 858 99.0629 553.106 486.777
2453 0 78.1318 12.4789 975 95.2933 552.961 485.418
2454 0 79.1036 11.7188 927 97.4315 553.795 482.315
2455 0 82.0695 10.6739 876 98.6347 553.795 483.982
2456 0 86.1431 11.6202 1001 96.6124 553.921 480.41
2457 0 89.1474 11.9465 1065 95.7906 553.378 478.989
2458 0 92.161 12.2937 1133 94.9329 553.35 477.328
2459 0 93.1403 11.3699 1059 97.0368 553.121 477.499
2460 0 98.079 12.2044 1197 96.284 553.47 475.388
2461 0 102.113 12.8289 1310 95.2771 553.095 474.734
2462 0 103.147 11.4787 1184 98.3083 552.903 473.883
2463 0 109.1 11.4665 1251 99.2166 552.721 469.089
2464 0 114.258 13.9421 1593 98.7112 553.159 468.467
2465 1 62.0896 9.55071 593 99.3693 552.53 494.329
2466 0 62.1126 10.3039 640 98.55 552.359 491.417
2467 0 65.135 11.2075 730 98.774 552.175 490.711
2468 0 69.1499 11.2798 780 97.5949 552.155 490.885
2469 0 71.0543 12.399 881 95.5778 552.824 487.655
2470 0 72.144 11.9899 865 94.3468 552.483 488.292
2471 0 72.2258 11.1041 802 89.7681 553.273 487.678
2472 0 73.2065 10.0674 737 89.9199 553.886 488.388
2473 0 77.0624 10.8094 833 89.1957 553.293 487.133
2474 0 79.1704 9.72586 770 90.5805 553.413 483.653
2475 0 82.0882 10.7567 883 89.5334 553.452 479.388
2476 0 86.2264 10.1477 875 88.896 553.818 485.238
2477 0 87.1243 9.40036 819 89.5836 554.037 483.525
2478 0 92.0985 10.8797 1002 88.4172 554.404 479.649
2479 0 92.1332 9.96383 918 90.122 554.282 476.739
2480 0 98.1585 10.6664 1047 89.3047 554.553 474.513
2481 0 101.201 10.3358 1046 89.5507 554.146 473.522
2482 0 105.223 10.2924 1083 91.6103 553.957 468.198
2483 1 56.0345 11.9569 670 84.697 553.016 494.372
2484 0 59.0335 11.197 661 85.9622 553.015 492.688
2485 0 61.113 11.8305 723 84.917 552.974 494.306
2486 0 63.1102 11.5829 731 84.8208 552.878 490.317
2487 0 65.2096 11.6087 757 85.2589 552.945 489.779
2488 0 66.1884 10.5305 697 87.1836 552.801 488.617
2489 0 68.0859 11.9849 816 85.799 552.761 485.782
2490 0 69.1594 10.8445 750 87.8707 552.227 486.809
2491 0 73.1808 12.5579 919 86.4701 552.743 483.605
2492 0 76.1568 12.2248 931 88.073 552.786 486.309
2493 0 78.124 11.8785 928 89.8728 552.938 482.943
2494 0 81.3707 11.4292 930 91.7753 552.529 481.624
2495 0 84.3737 13.6417 1151 89.0721 552.332 481.188
2496 0 87.181 12.7092 1108 91.6823 553.439 476.809
2497 0 88.2587 13.0412 1151 93.2537 553.042 477.368
2498 0 90.2012 11.685 1054 96.2135 553.475 478.906
2499 0 93.1731 12.3533 1151 96.2407 553.433 473.571
2500 0 96.2374 11.8873 1144 99.6267 552.686 475.004
2501 0 99.1369 12.3365 1223 97.7899 553.141 471.845
2502 0 102.304 12.9028 1320 98.2629 552.63 469.592
2503 1 56.064 10.6485 597 99.1273 552.065 497.06
2504 0 57.0585 11.8475 676 97.1287 552.155 496.572
2505 0 61.2006 14.5097 888 92.8266 553.398 494.229
2506 0 60.0393 11.9922 720 93.6458 552.807 490.708
2507 0 62.1301 12.8118 796 94.7085 552.922 489.531
2508 0 64.1397 12.8158 822 95.2202 553.106 491.339
2509 0 65.1008 13.1335 855 97.6702 552.419 490.977
2510 0 67.25 11.6431 783 102.709 552.645 491.747
2511 0 67.1077 12.6364 848 102.274 552.713 490.126
2512 0 71.1198 13.3999 953 100.294 552.824 489.389
2513 0 73.2001 11.9125 872 104.331 553.227 487.71
2514 0 75.3314 14.0181 1056 100.598 552.92 487.338
2515 0 76.0948 12.9838 988 103.537 553.487 487.356
2516 0 80.2304 15.6051 1252 99.0607 553.274 485.137
2517 0 80.1273 14.2024 1138 103.739 553.558 485.008
2518 0 84.1348 15.0592 1267 102.39 553.504 482.228
2519 0 86.1938 14.0149 1208 104.272 553.88 481.522
2520 0 87.0588 13.9101 1211 107.382 553.673 480.618
2521 0 90.2356 14.8279 1338 105.633 553.707 480.348
2522 0 92.1948 12.9942 1198 109.463 554.174 477.675
2523 0 96.2752 14.0535 1353 107.65 554.316 475.087
2524 0 99.3538 14.9868 1489 107.382 553.817 474.797
2525 0 102.305 15.1899 1554 108.626 553.464 473.429
2526 0 105.126 15.1153 1589 108.807 553.638 471.761
2527 0 109.188 14.6079 1595 109.456 553.955 472.438
2528 0 111.246 13.6544 1519 112.223 554.356 465.937
2529 1 60.275 12.8577 775 108.33 553.752 494.721
2530 0 62.1572 12.9832 807 108.657 554.327 492.399
2531 0 64.1658 12.7171 816 110.115 554.433 490.995
2532 0 65.1002 13.5791 884 109.144 553.939 488.844
2533 0 68.159 14.2461 971 107.353 554.276 487.296
2534 0 71.0744 14.2105 1010 107.308 554.488 487.042
2535 0 73.2669 13.2256 969 109.34 554.991 488.018
2536 0 75.2241 13.4132 1009 110.28 554.162 484.844
2537 0 77.1339 13.5219 1043 110.879 554.646 482.095
2538 0 80.1512 13.0753 1048 110.985 554.8 482.903
2539 0 83.1875 14.5815 1213 108.323 554.613 480.339
2540 0 85.1996 12.9578 1104 111.597 554.782 480.451
2541 0 88.2755 13.809 1219 111.037 554.862 478.303
2542 0 91.1765 14.1594 1291 109.742 554.77 476.889
2543 0 92.1094 13.9942 1289 110.841 554.822 476.816
2544 0 96.1877 14.9395 1437 111.272 555.469 473.897
2545 0 99.0901 14.29 1416 113.984 555.26 473.061
2546 0 101.187 13.7171 1388 114.885 555.574 472.898
2547 0 104.156 13.1437 1369 116.375 555.847 469.611
2548 0 108.409 13.6336 1478 116.826 555.689 463.874
2549 1 60.3067 12.6188 761 110.57 556.497 488.466
2550 0 63.2103 13.1941 834 108.65 556.085 487.625
2551 0 64.1747 13.2607 851 108.89 556.007 485.374
2552 0 68.1059 14.1544 964 106.318 556.502 484.51
2553 0 71.136 13.5234 962 107.306 556.935 485.651
2554 0 72.1153 12.7712 921 109.75 556.176 483.983
2555 0 75.0403 13.3262 1000 108.644 555.657 482.321
2556 0 78.1214 13.1462 1027 109.112 555.944 481.845
2557 0 82.2305 13.5594 1115 107.61 554.83 481.663
2558 0 82.1113 13.7253 1127 109.989 555.405 477.438
2559 0 85.1818 12.2914 1047 113.889 554.882 477.988
2560 0 89.1236 14.4855 1291 110.157 554.471 476.357
2561 0 90.1386 13.4349 1211 114.361 554.622 475.557
2562 0 95.1759 15.235 1450 111.261 555.387 471.956
2563 0 98.1197 12.2707 1204 117.628 554.866 470.748
2564 0 100.226 13.8687 1390 114.96 554.527 469.76
2565 0 103.189 13.6255 1406 121.026 554.826 468.083
2566 0 107.357 14.2143 1526 120.324 554.017 466.917
2567 0 110.277 14.0737 1552 121.35 553.885 465.134
2568 0 114.223 13.9726 1596 122.948 554.41 462.799
2569 0 120.221 14.6563 1762 121.343 554.365 460.614
2570 0 123.294 14.583 1798 121.189 554.176 457.6
2571 0 126.402 13.1248 1659 125.391 554.658 455.373
2572 0 131.395 12.5576 1650 121.763 555.608 449.942
2573 0 136.3 12.8026 1745 120.463 555.205 447.647
2574 1 75.1789 11.1866 841 113.73 555.683 482.002
2575 0 80.149 11.7656 943 113.161 553.797 480.333
2576 0 81.2281 12.3233 1001 108.974 553.764 477.978
2577 0 85.1328 11.8286 1007 108.637 553.809 479.24
2578 0 86.1477 11.7124 1009 110.452 553.311 476.443
2579 0 89.2003 13.0717 1166 108.055 553.862 475.694
2580 0 92.116 12.5928 1160 108.147 554.573 477.109
2581 0 94.0765 12.1284 1141 107.407 554.874 472.932
2582 0 95.1594 11.465 1091 109.335 554.469 469.415
2583 0 99.1038 11.5334 1143 109.36 555.001 469.394
2584 0 104.133 12.3208 1283 109.609 554.903 466.429
2585 0 107.365 12.4995 1342 110.119 553.672 464.344
2586 0 111.262 13.0503 1452 111.965 554.195 461.631
2587 0 116.253 13.8319 1608 110.852 553.82 461.507
2588 0 118.413 12.6506 1498 116.297 554.591 460.383
2589 0 123.604 14.239 1760 115.82 554.649 454.919
2590 1 69.2515 10.1947 706 109.28 554.996 483.445
2591 0 72.2973 10.1664 735 109.456 554.793 480.637
2592 0 74.0915 11.9177 883 101.078 554.806 483.368
2593 0 76.133 11.9528 910 102.726 554.848 483.819
2594 0 77.0426 10.5137 810 106.685 555.216 480.949
2595 0 80.2744 11.9714 961 106.335 555.029 479.329
2596 0 83.2326 11.0894 923 107.863 554.607 479.289
2597 0 88.3024 11.8683 1048 106.143 555.537 478.869
2598 0 90.2324 12.1686 1098 107.276 554.879 474.536
2599 0 92.2158 10.6056 978 109.86 555.463 477.827
2600 0 97.4475 13.0327 1270 106.555 554.771 474.079
2601 0 97.2536 12.0407 1171 109.791 555.084 472.319
2602 0 101.338 11.4271 1158 111.902 555.15 470.84
2603 0 106.35 11.8947 1265 111.003 554.904 470.805
2604 0 111.442 13.1369 1464 109.723 554.752 468.544
2605 0 114.43 13.4492 1539 110.16 554.454 463.426
2606 0 116.305 11.6418 1354 118.036 554.29 463.976
2607 1 64.1257 10.8225 694 111.128 555.418 489.575
2608 0 69.2532 11.1619 773 109.413 554.853 488.468
2609 0 71.3576 11.3513 810 108.947 555.223 487.212
2610 0 71.2056 11.4738 817 110.401 555.536 483.486
2611 0 72.2297 12.0726 872 110.375 555.58 484.764
2612 0 75.2075 11.076 833 111.493 555.547 484.444
2613 0 78.301 12.4647 976 107.921 555.321 485.755
2614 0 82.3083 12.2223 1006 109.224 555.491 482.102
2615 0 82.1513 11.9292 980 111.428 555.933 481.592
2616 0 87.1851 12.4104 1082 110.603 556.612 479.117
2617 0 91.2622 11.7792 1075 112.47 555.618 478.292
2618 0 92.1635 12.5646 1158 112.048 555.858 476.696
2619 0 96.4482 12.2968 1186 112.304 555.629 476.705
2620 0 98.1957 12.1492 1193 113.501 555.349 472.473
2621 0 102.312 12.5596 1285 112.254 554.351 469.724
2622 1 57.0977 10.2631 586 112.312 555.265 494.735
2623 0 56.0666 10.1486 569 115.436 555.501 496.615
2624 0 59.211 11.6195 688 110.904 552.885 490.759
2625 0 62.0497 12.7478 791 105.068 553.202 493.456
2626 0 63.1112 13.0246 822 104.655 552.83 491.063
2627 0 64.1406 12.3479 792 105.806 552.369 491.168
2628 0 65.039 11.7468 764 107.505 552.914 492.245
2629 0 69.111 13.254 916 104.849 553.812 491.17
2630 0 69.1019 12.648 874 106.628 554.365 489.205
2631 0 69.2305 11.1656 773 110.471 553.836 487.369
2632 0 74.0782 12.5948 933 106.206 553.659 488.941
2633 0 76.0922 11.8672 903 107.869 554.224 488.915
2634 0 78.1151 13.1857 1030 106.272 553.699 486.921
2635 0 81.2205 12.5953 1023 108.048 553.94 483.871
2636 0 85.1805 13.8764 1182 105.267 553.652 484.755
2637 0 87.0958 13.8927 1210 106.655 553.202 483.373
2638 0 90.2127 13.7564 1241 107.549 554.592 480.856
2639 0 92.2011 12.7656 1177 108.228 554.5 478.752
2640 0 94.1084 12.2412 1152 104.853 554.345 475.869
2641 0 97.1164 13.9832 1358 101.974 554.926 474.906
2642 0 98.1552 12.8979 1266 105.164 554.814 473.289
2643 0 102.218 12.219 1249 106.264 554.696 473.309
2644 0 105.166 13.0271 1370 104.387 554.582 469.565
2645 0 107.534 12.1357 1305 107.592 554.536 469.72
2646 0 110.453 12.5573 1387 106.857 554.172 469.014
2647 0 115.249 13.666 1575 104.837 553.825 463.243
2648 0 116.355 13.6307 1586 111.497 553.12 461.779
2649 0 120.323 12.9651 1560 112.006 553.375 460.229
2650 0 125.314 13.8373 1734 109.957 552.572 460.247
2651 0 128.377 12.6269 1621 112.934 552.835 457.645
2652 0 130.478 11.1437 1454 116.555 552.425 455.125
2653 0 136.328 12.9467 1765 113.112 552.384 449.427
2654 0 142.343 13.7766 1961 110.396 552.603 448.988
2655 0 144.3 13.0423 1882 112.413 552.202 444.865
2656 0 152.399 13.6681 2083 109.471 553.239 445.169
2657 0 155.374 14.0306 2180 108.28 552.791 439.8
2658 0 162.3 14.4793 2350 106.383 552.28 437.734
2659 0 166.325 13.9726 2324 107.566 552.426 433.656
2660 1 93.3083 12.3354 1151 101.751 553.361 477.727
2661 0 96.2193 11.7648 1132 100.168 553.654 478.537
2662 0 99.316 11.7504 1167 100.405 553.301 477.17
2663 0 104.397 11.5137 1202 100.072 553.337 473.112
2664 0 108.432 12.4594 1351 98.6092 553.596 472.095
2665 0 107.344 10.2753 1103 101.212 552.427 468.306
2666 0 112.374 11.6041 1304 99.7638 552.39 468.558
2667 0 117.239 11.7537 1378 101.718 552.927 467.34
2668 0 120.405 12.0593 1452 108.937 552.393 464.06
2669 0 126.474 13.062 1652 104.53 552.676 462.74
2670 0 128.424 11.026 1416 104.668 552.499 452.197
2671 0 133.498 10.9365 1460 103.968 552.429 454.864
2672 0 138.412 12.5856 1742 101.979 552.069 451.356
2673 0 145.492 12.7842 1860 101.526 551.768 450.608
2674 0 147.646 11.2973 1668 105.667 551.489 447.71
2675 0 155.422 13.9298 2165 100.285 552.291 447.65
2676 0 159.398 12.3465 1968 104.706 552.133 440.92
2677 0 166.505 14.45 2406 99.468 551.384 440.444
2678 1 96.1865 12.0391 1158 95.253 552.041 476.497
2679 0 98.1376 12.8493 1261 94.1657 552.212 472.935
2680 0 102.189 15.1288 1546 90.5485 552.403 473.417
2681 0 104.194 13.8492 1443 94.1448 552.285 470.404
2682 0 108.158 12.8608 1391 94.8807 552.993 472.694
2683 0 109.305 11.381 1244 98.4108 553.18 471.461
2684 0 115.126 14.1324 1627 93.7935 553.264 470.495
2685 0 119.16 12.5714 1498 96.6555 553.544 468.734
2686 0 121.272 12.1463 1473 99.9212 553.066 467.089
2687 0 127.343 13.1535 1675 100.259 553.172 468.076
2688 0 129.235 12.9687 1676 103.223 552.851 460.876
2689 0 134.554 13.0357 1754 102.123 552.711 461.974
2690 0 140.405 13.518 1898 100.924 553.183 457.713
2691 0 143.429 11.8665 1702 104.373 553.346 456.513
2692 1 78.2001 11.2788 882 98.6814 553.416 490.212
2693 0 81.1594 13.4673 1093 95.3943 552.427 485.774
2694 0 83.0793 13.6616 1135 94.2458 553.661 483.49
2695 0 85.2413 12.2124 1041 93.1057 554.297 480.062
2696 0 87.1772 11.9985 1046 93.8136 553.674 480.416
2697 0 90.1643 12.1778 1098 94.4945 553.912 477.376
2698 0 93.4144 11.4543 1070 96.2056 554.04 476.821
2699 0 97.1301 14.1357 1373 92.0546 554.35 473.811
2700 0 98.1092 13.0976 1285 95.5245 553.953 471.533
2701 0 100.236 12.7699 1280 96.3461 553.566 472.853
2702 0 105.289 12.6509 1332 98.1299 553.421 472.109
2703 0 108.386 12.8799 1396 98.783 553.32 468.512
2704 0 111.177 14.1487 1573 97.2359 553.086 465.12
2705 0 114.339 12.6554 1447 100.972 553.122 465.349
2706 0 119.362 13.0528 1558 98.8973 553.049 464.619
2707 1 67.1808 12.2952 826 106.082 553.393 490.656
2708 0 70.2652 12.2963 864 105.459 552.817 488.093
2709 0 72.0956 12.6499 912 103.492 553.695 491.391
2710 0 73.1417 13.2346 968 104.961 553.584 487.474
2711 0 76.136 12.1099 922 106.806 553.995 487.601
2712 0 80.1955 13.7913 1106 103.746 554.868 484.902
2713 0 82.1836 12.9101 1061 107.064 554.327 483.95
2714 0 83.1976 12.885 1072 108.152 554.094 484.107
2715 0 88.2014 13.7299 1211 107.457 553.644 481.252
2716 0 87.1171 14.073 1226 108.964 554.017 478.776
2717 0 91.1479 13.9115 1268 109.465 554.463 477.289
2718 0 92.1902 12.7888 1179 112.486 554.127 478.578
2719 0 95.2057 12.1947 1161 113.953 554.512 475.323
2720 0 99.2477 13.6729 1357 106.013 553.237 476.059
2721 0 104.266 15.5755 1624 101.81 552.733 474.028
2722 0 106.139 14.5659 1546 106.691 552.925 471.191
2723 0 110.25 14.7937 1631 105.409 553.239 471.512
2724 0 113.188 13.915 1575 108.334 552.363 470.277
2725 0 117.263 14.2842 1675 107.777 552.624 466.259
2726 0 121.358 15.4914 1880 104.536 552.607 464.974
2727 0 124.219 15.4002 1913 104.991 552.818 460.227
2728 1 68.1425 12.8114 873 111.153 553.352 486.747
2729 0 72.0477 13.033 939 110.072 552.338 487.979
2730 0 72.0436 14.4357 1040 106.48 552.237 488.69
2731 0 75.1357 14.0413 1055 106.307 553.118 488.651
2732 0 78.1108 14.0057 1094 106.276 553.209 487.996
2733 0 81.2517 15.5935 1267 104.436 553.099 485.086
2734 0 83.4122 14.9978 1251 105.159 553.524 486.991
2735 0 87.2535 15.3003 1335 105.352 553.13 484.034
2736 0 88.4973 14.7575 1306 107.02 552.942 482.366
2737 0 92.2302 15.0927 1392 105.434 553.202 483.055
2738 0 94.2189 15.3472 1446 106.6 552.958 479.253
2739 0 97.3423 16.745 1630 103.399 553.191 479.409
2740 0 99.3001 14.8741 1477 108.928 553.461 478.496
2741 0 102.256 16.4782 1685 105.633 553.644 476.338
2742 0 104.264 15.4992 1616 108.387 553.731 476.132
2743 0 111.456 16.1319 1798 105.915 553.697 473.686
2744 0 111.515 15.2984 1706 108.698 553.576 472.101
2745 0 114.43 15.8786 1817 108.237 553.561 469.433
2746 1 60.1856 13.1094 789 116.293 553.717 496.7
2747 0 62.3984 14.5517 908 111.851 553.494 489.307
2748 0 64.3298 13.2598 853 116.433 554.158 490.946
2749 0 67.3264 13.843 932 114.712 553.354 489.356
2750 0 69.2961 14.3731 996 113.499 553.468 486.794
2751 0 72.2353 14.7435 1065 112.109 553.055 491.213
2752 0 74.3076 14.7495 1096 111.839 553.772 488.249
2753 0 75.4015 14.4825 1092 112.777 553.712 489.166
2754 0 78.2531 15.2582 1194 111.301 553.69 487.499
2755 0 79.2045 14.633 1159 113.028 553.972 487.279
2756 0 83.188 14.353 1194 113.751 553.605 486.728
2757 0 85.3419 15.1508 1293 111.865 553.185 484.903
2758 0 87.3274 14.2223 1242 113.941 553.126 482.076
2759 0 90.2307 14.0418 1267 112.047 553.639 483.526
2760 0 94.1714 15.6098 1470 108.505 553.269 481.024
2761 0 96.2889 14.9654 1441 110.026 553.389 478.437
2762 0 97.3044 13.4835 1312 111.187 554.106 479.753
2763 0 100.213 13.7806 1381 111.313 553.637 477.397
2764 0 106.283 16.3808 1741 104.818 554.073 474.835
2765 0 109.333 15.0001 1640 108.416 554.236 471.644
2766 0 114.493 15.5818 1784 107.216 554.34 469.776
2767 0 118.591 14.5963 1731 108.823 554.362 467.501
2768 1 64.3408 14.6253 941 107.447 554.26 493.069
2769 0 66.2765 15.8427 1050 107.267 554.482 490.873
2770 0 69.3095 15.6833 1087 106.983 555.838 490.538
2771 0 69.2243 15.1825 1051 108.359 555.607 490.508
2772 0 71.1882 14.9463 1064 109.797 555.168 489.006
2773 0 73.3388 15.8443 1162 108.162 555.637 487.678
2774 0 77.2285 15.0851 1165 109.936 555.331 484.934
2775 0 79.2833 15.2365 1208 109.546 555.258 485.408
2776 0 81.3406 16.1912 1317 108.696 554.721 483.13
2777 0 83.2623 14.6165 1217 113.118 555.591 481.077
2778 0 88.4465 16.9029 1495 107.054 554.781 481.063
2779 0 89.3709 15.0944 1349 112.148 554.894 477.495
2780 0 94.3381 16.0593 1515 107.98 555.184 479.643
2781 0 96.5486 16.2198 1566 108.639 555.206 476.695
2782 0 100.495 14.7469 1482 112.072 555.246 475.938
2783 0 106.664 17.5223 1869 105.197 554.597 476.197
2784 0 108.499 16.7836 1821 107.504 554.694 474.968
2785 0 111.348 15.3752 1712 111.195 554.859 470.653
2786 0 116.444 15.5697 1813 112.031 554.809 467.939
2787 0 120.749 15.644 1889 107.032 554.53 468.604
2788 1 66.5591 14.5735 970 111.484 555.089 492.289
2789 0 69.5202 16.5132 1148 108.875 555.313 490.097
2790 0 72.3681 16.0706 1163 109.84 554.905 489.066
2791 0 74.7671 15.0334 1124 113.147 554.31 487.306
2792 0 77.4984 15.4971 1201 112.391 554.905 486.251
2793 0 80.4307 14.8451 1194 114.182 555.099 484.469
2794 0 85.2507 16.1406 1376 110.61 554.832 482.643
2795 0 87.3987 16.9797 1484 108.332 554.895 483.305
2796 0 90.3378 14.8664 1343 113.778 555.379 482.699
2797 0 94.3546 16.9679 1601 109.948 554.607 479.327
2798 0 95.4246 15.7297 1501 113.746 554.075 478.827
2799 0 99.5296 15.4627 1539 114.97 554.303 477.027
2800 0 102.501 15.717 1611 113.916 554.812 475.832
2801 0 105.558 13.888 1466 119.109 554.576 472.954
2802 0 110.433 15.566 1719 115.596 554.439 472.994
2803 0 114.458 15.4205 1765 115.728 554.232 468.703
2804 1 63.7703 14.0661 897 120.23 555.353 494.63
2805 0 64.3713 15.0378 968 119.247 555.084 494.185
2806 0 68.5396 16.8807 1157 114.478 555.483 492.094
2807 0 70.3589 15.9042 1119 117.683 555.25 492.532
2808 0 71.4332 14.951 1068 122.367 555.07 489.764
2809 0 74.2586 14.7323 1094 123.581 555.581 489.31
2810 0 77.3573 15.3702 1189 122.076 554.489 487.738
2811 0 80.4251 15.7165 1264 121.628 555.543 487.269
2812 0 83.41 15.6936 1309 122.39 554.991 486.59
2813 0 85.4317 16.3991 1401 121.895 554.734 483.665
2814 0 84.5169 16.6002 1403 123.677 553.949 484.981
2815 0 88.5773 17.1601 1520 122.187 553.653 481.834
2816 0 90.6558 15.5313 1408 127.372 553.434 481.675
2817 0 93.338 16.1778 1510 126.829 553.479 478.248
2818 0 95.3874 16.5536 1579 126.325 553.609 479.33
2819 0 99.3371 16.0665 1596 126.454 554.174 477.713
2820 0 101.475 14.4074 1462 132.161 553.441 476.892
2821 0 105.584 16.0062 1690 128.996 554.275 474.882
2822 0 109.698 15.8617 1740 130.405 553.887 472.807
2823 1 62.4683 15.4959 968 129.855 554.162 496.457
2824 0 63.3908 16.0907 1020 130.388 554.305 494.262
2825 0 63.2997 14.7552 934 136.151 553.376 492.172
2826 0 69.461 14.8285 1030 132.508 553.825 493.013
2827 0 71.4704 14.4815 1035 134.898 554.201 491.529
2828 0 72.3086 15.5721 1126 132.764 553.993 489.558
2829 0 73.3233 16.3795 1201 132.479 554.115 488.21
2830 0 76.4578 15.0802 1153 137.782 554.095 487.727
2831 0 77.5393 16.0048 1241 136.351 553.501 486.902
2832 0 80.3018 16.3384 1312 137.47 552.727 483.511
2833 0 80.2851 15.146 1216 140.928 553.332 484.438
2834 0 84.2514 16.4745 1388 137.427 553.03 481.321
2835 0 88.2899 16.0154 1414 137.943 553.423 481.76
2836 0 91.3423 16.3013 1489 137.733 553.699 479.833
2837 0 95.3534 16.8007 1602 134.812 553.17 480.562
2838 0 95.3153 16.1779 1542 138.146 553.685 478.933
2839 0 101.492 16.2279 1647 137.5 553.208 475.053
2840 0 106.511 15.9514 1699 137.768 553.55 473.835
2841 0 110.314 15.8185 1745 137.331 553.315 471.211
2842 1 55.3012 12.7664 706 136.297 554.082 496.057
2843 0 58.4609 13.4107 784 134.987 554.205 495.599
2844 0 58.3812 13.3262 778 136.456 553.895 494.787
2845 0 62.2239 13.0818 814 136.57 554.082 494.407
2846 0 65.4465 14.8365 971 131.969 554.261 492.501
2847 0 63.2186 14.0465 888 136.461 554.34 491.627
2848 0 68.444 14.216 973 133.873 554.347 491.57
2849 0 70.271 14.9991 1054 133.24 554.411 489.105
2850 0 69.437 13.379 929 140.045 554.069 489.078
2851 1 83.1081 17.1584 1426 144.769 553.118 355.912
2852 0 85.0899 16.7705 1427 145.785 552.836 366.261
2853 0 88.0719 15.5555 1370 144.803 552.422 368.409
2854 0 92.179 16.4571 1517 140.679 552.611 361.674
2855 0 96.193 16.0303 1542 139.916 552.581 355.39
2856 1 54.047 13.2107 714 151.737 552.199 367.09
2857 0 56.0361 14.8833 834 148.992 552.079 365.229
2858 0 59.131 16.1337 954 149.216 551.943 370.73
2859 0 62.0949 16.9257 1051 146.46 552.041 374.264
2860 0 66.1551 16.3555 1082 145.107 552.299 376.322
2861 0 66.0792 16.3743 1082 148.837 551.506 367.774
2862 0 72.0583 15.5707 1122 148.971 551.706 362.448
2863 0 75.1361 15.6383 1175 148.994 552.02 360.211
2864 0 77.113 16.6768 1286 146.298 552.114 356.423
2865 0 78.1114 15.6187 1220 153.216 551.522 348.225
2866 0 82.0691 17.2294 1414 147.462 551.46 347.76
2867 0 85.2543 16.4918 1406 150.991 551.563 346.871
2868 0 87.2532 16.7214 1459 151.28 551.929 346.65
2869 0 92.2536 16.2053 1495 151.528 551.596 348.99
2870 0 94.3478 16.6724 1573 151.234 552.076 348.488
2871 0 97.1967 16.3483 1589 153.075 551.298 350.241
2872 0 100.264 15.3097 1535 156.203 550.859 351.253
2873 0 104.216 16.3699 1706 152.802 551.002 349.632
2874 0 108.218 16.5314 1789 151.975 551.283 352.873
2875 0 111.192 15.9094 1769 154.322 551.787 346.7
2876 0 115.227 16.3851 1888 152.288 551.709 341.953
2877 0 122.139 15.9409 1947 155.934 552.184 338.798
2878 1 62.0992 14.6862 912 150.921 551.274 358.998
2879 0 64.0515 14.4415 925 152.494 552.549 346.597
2880 0 65.0818 14.4741 942 154.773 552.844 352.044
2881 0 67.0521 15.6147 1047 152.817 552.312 334.975
2882 0 72.0628 14.9314 1076 152.122 552.414 325.085
2883 0 74.096 15.318 1135 151.045 552.522 321.159
2884 0 78.0802 15.0102 1172 150.596 552.991 321.299
2885 0 81.0999 15.5117 1258 147.498 552.682 322.446
2886 0 83.0784 16.1775 1344 146.092 553.121 320.795
2887 0 84.132 14.1801 1193 152.967 553.333 322.618
2888 0 88.2065 14.2053 1253 151.306 553.286 323.389
2889 0 91.083 14.8546 1353 148.775 552.973 329.551
2890 0 96.1102 16.221 1559 142.677 552.804 329.695
2891 0 99.2604 15.5047 1539 144.687 553.27 330.99
2892 0 101.122 15.2884 1546 145.191 553.431 325.88
2893 0 107.163 16.377 1755 139.707 553.148 324.59
2894 0 108.179 14.9012 1612 143.161 552.057 328.943
2895 0 116.463 14.8545 1730 140.876 552.423 331.938
2896 0 118.256 14.6715 1735 146.334 552.933 333.931
2897 1 59.1348 14.1034 834 134.089 552.194 374.6
2898 0 59.132 13.157 778 135.103 551.636 377.851
2899 0 64.082 14.497 929 126.158 551.938 381.61
2900 0 67.1342 14.8509 997 124.701 551.432 380.522
2901 0 67.1259 13.1842 885 129.276 551.544 377.833
2902 0 71.1047 12.9949 924 127.719 552.034 376.834
2903 0 74.1449 14.9707 1110 120.543 551.586 375.41
2904 0 77.1527 13.6871 1056 123.331 552.068 377.078
2905 0 78.1741 14.2247 1112 121.222 551.662 377.458
2906 0 83.1657 14.405 1198 120.323 551.282 376.144
2907 0 85.1913 15.2833 1302 118.826 551.604 373.422
2908 0 85.0782 14.6689 1248 122.537 552.284 370.144
2909 0 89.1614 14.4233 1286 127.698 551.583 366.43
2910 0 92.2137 14.6507 1351 127.215 552.224 365.686
2911 0 95.4242 13.8749 1324 127.114 553.424 366.405
2912 0 100.209 16.0364 1607 120.584 552.782 364.755
2913 0 105.257 14.9254 1571 117.194 552.369 361.258
2914 1 55.0676 12.8388 707 122.719 551.272 380.639
2915 0 57.0886 14.5038 828 119.89 551.822 381.854
2916 0 59.1502 14.218 841 119.748 553.711 383.237
2917 0 60.1227 13.4558 809 124.811 554.297 352.786
2918 0 63.1866 13.563 857 123.065 554.337 358.748
2919 0 64.2729 14.8896 957 119.907 553.782 363.444
2920 0 66.263 15.0008 994 119.388 553.3 365.731
2921 0 71.2008 15.379 1095 118.182 553.338 368.481
2922 0 71.5352 13.7834 986 122.973 553.494 373.638
2923 0 76.2798 15.6529 1194 119.764 553.168 353.024
2924 0 77.6551 14.2167 1104 123.532 553.86 357.438
2925 0 80.1031 15.118 1211 121.986 554.015 357.581
2926 0 81.2449 14.4747 1176 124.135 553.774 365.197
2927 0 83.4026 14.1482 1180 126.234 553.198 369.518
2928 0 88.4015 14.8414 1312 124.007 553.213 363.25
2929 0 91.2335 15.1699 1384 123.656 553.715 365.294
2930 0 92.2113 15.291 1410 128.021 553.217 329.403
2931 0 98.3299 16.2107 1594 124.243 553.323 332.573
2932 0 100.285 15.0173 1506 126.406 552.788 337.539
2933 0 104.366 14.2575 1488 127.478 552.508 342.494
2934 0 107.263 14.8979 1598 122.866 552.578 340.81
2935 1 58.0402 10.889 632 120.473 551.446 352.668
2936 0 60.1368 13.0203 783 116.49 552.234 354.013
2937 0 60.1227 12.3248 741 117.587 551.987 350.062
2938 0 63.1106 13.31 840 115.795 552.026 354.92
2939 0 64.1135 12.5403 804 117.516 551.959 359.861
2940 0 68.1133 12.626 860 117.162 552.084 348.217
2941 0 68.1091 11.8486 807 120.223 551.753 344.886
2942 0 72.1383 12.7394 919 117.965 552.367 343.373
2943 0 76.1005 12.7857 973 117.168 552.118 345.415
2944 0 78.2253 12.4768 976 119.086 552.545 332.231
2945 0 81.1372 12.4357 1009 120.449 552.562 337.845
2946 0 83.1234 12.8965 1072 118.83 552.299 344.917
2947 0 87.1397 14.5514 1268 115.606 552.264 348.475
2948 0 90.2023 13.3145 1201 121.056 551.652 318.66
2949 0 92.1959 13.8726 1279 122.745 551.277 306.407
2950 0 93.2028 12.7464 1188 126.901 551.237 305.477
2951 0 96.2498 12.1974 1174 129.737 551.101 298.157
2952 0 99.3123 13.4022 1331 131.309 551.159 292.644
2953 0 102.412 12.8208 1313 131.659 550.85 304.266
2954 0 110.454 17.3738 1919 120.804 551.011 283.244
2955 1 62.3528 12.9585 808 125.509 550.376 309.781
2956 0 63.3224 11.9389 756 128.951 550.597 306.811
2957 0 66.3847 13.5121 897 122.911 550.487 307.048
2958 0 66.1069 12.51 827 127.325 549.394 309.415
2959 0 69.2256 13.3765 926 127.163 549.991 307.735
2960 0 73.2006 12.4589 912 127.478 550.096 308.378
2961 0 75.2174 13.3081 1001 127.343 551.027 305.836
2962 0 78.259 12.6759 992 128.713 550.901 307.02
2963 0 81.2527 13.698 1113 127.617 551.021 306.473
2964 0 83.3765 13.1092 1093 129.557 550.87 310.997
2965 0 86.2819 12.8069 1105 130.224 550.967 312.209
2966 0 89.27 13.6216 1216 131.924 550.877 313.309
2967 0 92.2798 13.5132 1247 133.716 550.893 312.84
2968 0 95.2104 13.633 1298 132.512 550.995 310.455
2969 0 101.235 14.491 1467 129.251 550.846 310.008
2970 0 102.242 13.292 1359 131.706 551.095 309.904
2971 0 106.181 14.8238 1574 127.865 551.718 309.128
2972 0 108.247 14.2729 1545 129.99 552.051 309.926
2973 0 108.247 14.3098 1549 151.488 551.059 309.964
2974 1 60.1101 12.8597 773 130.018 554.225 330.3
2975 0 62.0696 13.4043 832 124.953 553.742 334.005
2976 0 63.1552 13.0631 825 127.847 553.453 313.31
2977 0 66.1282 14.0182 927 124.992 553.65 297.871
2978 0 68.1739 12.2627 836 130.109 553.825 291.182
2979 0 68.0934 11.3814 775 133.755 553.983 291.752
2980 0 73.1484 13.7939 1009 126.229 553.314 289.707
2981 0 74.1036 13.3192 987 128.394 553.818 289.054
2982 0 77.2082 13.3924 1034 127.642 553.286 288.543
2983 0 80.0819 14.7349 1180 123.709 553.407 291.293
2984 0 83.1259 14.4119 1198 125.055 553.457 288.512
2985 0 84.0975 13.9957 1177 126.734 553.681 290.082
2986 0 87.1653 13.7096 1195 126.592 553.062 294.459
2987 0 89.1257 14.3281 1277 125.916 553.006 294.092
2988 0 93.1365 14.6989 1369 123.542 552.145 303.252
2989 0 95.1352 14.1062 1342 125.215 552.306 309.931
2990 0 96.2461 14.6084 1406 127.117 552.411 307.904
2991 0 101.179 13.5502 1371 127.217 551.998 313.066
2992 0 104.276 14.2507 1486 125.462 552.513 316.652
2993 0 107.26 13.7889 1479 125.84 551.865 316.325
2994 1 53.2227 11.6304 619 127.134 549.444 340.283
2995 0 55.0886 11.1275 613 129.003 549.685 345.827
2996 0 58.1049 12.5979 732 116.596 549.87 353.627
2997 0 60.0735 13.3004 799 115.014 550.437 360.464
2998 0 60.1821 13.4259 808 116.245 549.573 365.422
2999 0 63.2115 12.8932 815 117.352 549.909 360.099
3000 0 66.2131 14.3476 950 113.528 549.749 355.902
3001 0 67.2176 15.1002 1015 111.561 549.787 357.791
3002 0 68.2598 13.2435 904 118.022 549.959 358.039
3003 0 71.1724 13.5305 963 116.587 549.65 361.034
3004 0 74.2396 14.6553 1088 113.087 549.575 363.932
3005 0 75.2441 14.3799 1082 114.915 550.182 358.483
3006 0 77.2433 14.0854 1088 115.818 550.415 351.937
3007 0 79.1756 14.07 1114 115.495 550.43 357.856
3008 0 83.169 14.4765 1204 114.124 550.519 349.267
3009 0 84.2994 13.4165 1131 117.317 549.641 341.605
3010 0 90.1694 14.3397 1293 114.221 549.801 329.019
3011 0 91.2653 15.4056 1406 112.415 550.546 329.193
3012 0 91.1792 13.8299 1261 117.544 550.473 326.358
3013 0 94.2286 13.4673 1269 118.595 550.945 325.688
3014 0 99.3545 13.95 1386 115.712 551.064 323.232
3015 0 102.4 15.9766 1636 112.029 551.062 313.06
3016 0 104.281 14.7774 1541 116.89 550.69 279.498
3017 0 108.455 15.2506 1654 116.043 550.84 265.968
3018 1 57.1298 12.4103 709 117.104 549.952 288.214
3019 0 62.0773 14.0953 875 111.465 550.518 285.435
3020 0 60.1083 13.9249 837 113.851 550.323 286.675
3021 0 63.1839 13.6744 864 112.318 550 295.315
3022 0 63.1563 13.8229 873 112.405 550.284 297.11
3023 0 67.1417 14.5066 974 108.852 550.119 296.521
3024 0 67.1021 12.8163 860 114.138 550.369 299.138
3025 0 71.1309 13.9602 993 110.177 549.525 300.772
3026 0 72.1114 14.1309 1019 110.171 549.82 302.448
3027 0 74.2127 14.3776 1067 109.366 550.109 308.078
3028 0 76.2829 13.332 1017 111.251 550.166 309.519
3029 0 77.1603 13.5562 1046 110.418 549.717 312.534
3030 0 81.219 14.6641 1191 108.243 550.051 311.48
3031 0 83.1228 13.5222 1124 110.573 550.097 309.755
3032 0 87.2498 14.1318 1233 108.912 549.898 308.462
3033 0 86.1123 13.2269 1139 112.512 550.017 308.918
3034 0 90.2639 13.7597 1242 110.341 550.557 310.867
3035 0 93.2491 13.287 1239 111.131 550.819 308.849
3036 0 96.2376 14.6824 1413 108.645 550.501 310.037
3037 0 98.3267 13.0687 1285 111.301 550.795 317.735
3038 1 51.1017 10.8607 555 108.279 550.802 344.515
3039 0 56.1094 12.2083 685 103.982 550.236 340.853
3040 0 59.1983 14.5275 860 99.5291 550.903 340.829
3041 0 57.068 11.3549 648 106.548 550.463 344.093
3042 0 59.0405 12.754 753 102.117 551.206 355.348
3043 0 62.123 11.7831 732 104.309 551.122 354.712
3044 0 66.0698 12.8954 852 101.795 550.978 341.634
3045 0 68.1215 13.153 896 100.312 550.989 340.502
3046 0 69.0737 11.1475 770 95.5481 551.943 341.59
3047 0 71.0537 10.7947 767 95.9009 552.442 355.824
3048 0 75.1211 12.3401 927 96.0809 552.859 360.046
3049 0 75.1852 13.2207 994 97.5573 552.638 358.732
3050 0 76.082 13.3277 1014 91.1105 552.658 359.864
3051 0 77.1995 11.956 923 100.089 553.427 359.938
3052 0 78.2586 11.3853 891 101.531 552.403 359.969
3053 0 82.1691 12.1822 1001 99.3716 552.312 360.533
3054 0 85.2928 11.736 1001 98.6324 552.83 358.275
3055 0 86.2437 11.5139 993 98.279 552.67 357.141
3056 0 92.2388 12.5544 1158 99.2418 553.157 349.8
3057 1 50.179 11.2597 565 88.3062 552.763 374.667
3058 0 51.1421 11.9275 610 88.0082 553.831 357.072
3059 0 50.116 11.7328 588 86.1446 553.087 362.49
3060 0 51.2854 10.1588 521 89.1075 553.002 364.232
3061 0 53.1188 9.39404 499 87.99 552.703 365.866
3062 0 54.1046 10.11 547 87.5137 552.784 367.846
3063 0 57.0644 11.2154 640 86.6344 552.347 368.825
3064 0 57.1656 11.8603 678 88.0044 552.456 369.81
3065 0 60.2079 11.6098 699 89.2775 552.182 368.549
3066 0 60.1783 10.984 661 91.5522 552.826 370.511
3067 0 60.2421 9.36222 564 95.2748 551.833 372.438
3068 0 65.2622 11.0937 724 93.6478 552.137 371.925
3069 0 65.3849 12.3117 805 93.754 552.293 368.657
3070 0 67.2669 10.7482 723 95.675 552.349 371.365
3071 0 70.318 12.4435 875 94.9326 551.914 371.64
3072 0 71.3268 10.6131 757 99.4954 553.347 374.551
3073 0 72.1805 9.65634 697 102.498 552.915 373.349
3074 0 76.2664 11.3025 862 101.28 552.416 371.669
3075 0 78.2782 10.501 822 105.445 552.849 367.438
3076 1 42.0779 9.95773 419 98.2673 553.508 388.632
3077 0 41.1084 9.75471 401 98.6633 552.254 387.973
3078 0 44.5115 10.7613 479 98.7223 552.524 389.885
3079 0 46.1489 12.0696 557 97.4829 552.49 388.276
3080 0 47.5016 12.9469 615 96.678 552.47 387.18
3081 0 47.232 9.90855 468 103.927 551.432 372.932
3082 0 48.0938 10.0845 485 102.907 551.907 364.513
3083 0 50.0578 11.3669 569 101.893 551.599 364.315
3084 0 51.0998 10.5284 538 105.143 551.989 367.678
3085 0 54.1106 11.495 622 104.185 551.805 368.805
3086 0 55.1979 10.9243 603 106.509 551.514 367.214
3087 0 55.0624 13.5119 744 101.82 551.472 365.313
3088 0 58.0622 11.4877 667 105.895 551.516 365.742
3089 0 60.1349 12.4054 746 105.527 551.192 344.165
3090 0 61.1336 11.5485 706 106.788 551.707 342.993
3091 0 63.0899 11.6976 738 107.569 551.736 339.851
3092 0 64.1739 11.687 750 108.437 551.653 341.468
3093 0 67.1129 13.0377 875 106.087 551.199 339.721
3094 0 68.1179 12.5811 857 106.814 551.708 343.805
3095 0 72.0729 13.1811 950 106.357 551.348 337.527
3096 0 73.1958 13.2931 973 106.578 551.932 331.58
3097 0 77.3772 14.0222 1085 84.6682 552.569 336.824
3098 0 79.2896 12.2589 972 108.064 552.559 339.08
3099 0 81.3649 12.659 1030 107.315 552.315 348.988
3100 0 84.1996 13.1711 1109 105.867 552.142 351.956
3101 0 87.1716 13.2153 1152 105.46 552.161 357.449
3102 0 90.4954 12.1443 1099 107.478 551.802 349.753
3103 0 92.3479 12.4313 1148 109.547 552.679 333.49
3104 1 51.3684 10.9211 561 107.496 552.501 347.094
3105 0 52.3756 10.5965 555 107.928 552.465 342.395
3106 0 55.134 11.3904 628 113.527 553.268 343.543
3107 0 57.2321 11.9863 686 111.49 554.131 345.315
3108 0 57.1382 11.761 672 113.35 553.628 339.915
3109 0 59.1577 12.1201 717 112.205 553.802 341.293
3110 0 59.2509 13.08 775 112.279 553.23 343.772
3111 0 62.3029 12.375 771 112.545 552.944 352.226
3112 0 66.2236 13.9829 926 107.36 553.001 343.356
3113 0 67.1821 13.0838 879 110.456 552.919 338.62
3114 0 68.3752 12.914 883 110.84 552.586 335.677
3115 0 70.2218 13.8846 975 109.128 552.702 338.179
3116 0 72.2751 12.992 939 111.346 552.864 337.308
3117 0 76.1511 13.9591 1063 109.248 552.667 332.542
3118 0 76.1459 12.8438 978 113.142 552.528 331.937
3119 0 80.2642 14.4274 1158 108.059 552.934 335.876
3120 0 82.2263 13.098 1077 111.156 552.871 338.933
3121 0 86.2779 14.036 1211 109.744 553.204 309.025
3122 0 87.273 13.0625 1140 111.728 552.432 309.514
3123 0 91.2455 13.0527 1191 112.284 551.867 304.508
3124 0 96.4167 14.344 1383 113.118 552.454 304.325
3125 0 97.2807 13.4148 1305 115.313 552.396 302.205
3126 0 102.155 13.969 1427 113.486 553.409 288.849
3127 1 116.621 18.1872 2121 98.7765 552.623 249.885
3128 0 107.32 16.6791 1790 105.499 552.461 255.52
3129 1 61.2445 12.3603 757 105.297 553.02 282.815
3130 0 63.2461 13.6609 864 102.416 553.792 287.034
3131 0 63.3006 13.9809 885 108.756 552.779 281.441
3132 0 66.484 13.3867 890 113.144 552.122 283.296
3133 0 68.2356 15.212 1038 107.689 554.599 286.224
3134 0 69.2213 14.7209 1019 109.85 553.812 283.415
3135 0 72.1686 14.3414 1035 109.985 553.75 279.096
3136 0 72.3196 13.3297 964 112.215 553.703 282.199
3137 0 75.2413 13.357 1005 111.824 553.863 281.94
3138 0 80.3412 14.8492 1193 107.517 554.074 281.391
3139 0 79.3092 13.3906 1062 112.4 553.804 279.333
3140 0 84.3626 14.3073 1207 109.531 553.579 278.608
3141 0 87.3806 14.6943 1284 107.442 553.238 275.085
3142 0 89.251 14.2631 1273 110.676 552.997 267.565
3143 0 93.4066 14.1104 1318 110.501 553.192 270.82
3144 0 94.2999 15.228 1436 109.609 553.384 272.977
3145 0 96.1286 13.9085 1337 105.26 553.877 279.803
3146 0 101.212 13.8718 1404 105.526 554.039 285.447
3147 0 103.17 14.0835 1453 106.614 554.437 286.587
3148 0 106.084 14.4602 1534 105.681 554.431 291.632
3149 1 59.0516 12.9378 764 103.096 554.758 323.897
3150 0 60.0673 11.6869 702 103.644 554.809 331.343
3151 0 60.1799 11.8977 716 104.58 554.3 335.546
3152 0 64.105 12.6355 810 102.906 555.038 343.936
3153 0 66.1239 14.246 942 99.811 554.715 349.076
3154 0 66.1939 12.3123 815 104.963 554.469 353.787
3155 0 69.1689 12.9538 896 103.115 554.282 359.53
3156 0 71.1819 13.9642 994 102.657 554.306 337.811
3157 0 73.0958 13.4755 985 106.007 554.49 302.879
3158 0 75.1446 12.3495 928 109.361 554.27 304.409
3159 0 77.1148 14.031 1082 106.932 553.815 305.502
3160 0 80.2135 13.1275 1053 110.744 553.896 302.325
3161 0 82.1696 13.533 1112 110.321 554.064 303.775
3162 0 84.1 13.5077 1136 111.812 553.915 302.437
3163 0 88.1562 13.2832 1171 113.178 554.272 303.305
3164 0 91.2345 14.8957 1359 110.803 553.577 304.032
3165 0 94.3116 13.1691 1242 115.201 554.242 305.931
3166 0 96.2135 13.0127 1252 120.397 553.476 297.887
3167 1 54.2213 11.8772 644 119.096 554.284 317.502
3168 0 56.1186 12.0459 676 120.08 554.917 327.102
3169 0 58.173 13.0645 760 116.376 554.729 330.711
3170 0 60.0684 14.1838 852 113.676 554.277 337.515
3171 0 61.0647 12.8716 786 117.676 554.359 341.623
3172 0 62.0685 12.3573 767 119.897 554.081 349.451
3173 0 66.0962 14.8874 984 112.011 553.758 355.006
3174 0 67.108 14.0967 946 114.621 554.428 358.87
3175 0 69.0704 13.4645 930 116.584 553.801 343.974
3176 0 72.1005 12.8987 930 117.486 554.615 341.071
3177 0 74.1452 13.9186 1032 114.025 554.316 344.092
3178 0 74.0823 13.7955 1022 115.079 554.527 343.242
3179 0 80.0937 13.684 1096 114.22 554.297 332.861
3180 0 79.1551 13.3914 1060 115.607 553.506 316.782
3181 0 84.1135 14.0406 1181 112.088 553.378 315.71
3182 0 83.1884 13.223 1100 114.498 553.308 314.937
3183 0 86.1288 13.3985 1154 113.854 553.512 312.889
3184 0 90.3052 14.8275 1339 110.409 553.319 312.425
3185 0 95.2336 13.5246 1288 113.485 553.547 312.847
3186 0 95.2946 14.2191 1355 112.244 553.607 310.103
3187 0 100.298 13.759 1380 114.128 553.23 306.559
3188 1 55.3393 11.4204 632 113.752 552.736 328.793
3189 0 57.4946 12.3142 708 109.963 552.179 321.915
3190 0 59.0591 12.987 767 113.572 553.651 286.763
3191 0 61.0921 13.0786 799 112.886 554.299 285.156
3192 0 64.0589 14.6428 938 109.114 554.385 287.528
3193 0 63.3058 13.8692 878 112.062 552.746 285.404
3194 0 67.2931 14.2659 960 110.252 552.971 284.984
3195 0 69.3211 14.9161 1034 108.932 552.713 283.426
3196 0 70.3241 15.713 1105 106.905 551.833 288.305
3197 0 72.3666 13.252 959 113.508 552.429 285.676
3198 0 75.3422 14.2284 1072 110.757 551.868 285.618
3199 0 77.3196 14.1749 1096 110.945 551.922 285.137
3200 0 79.3876 13.7805 1094 112.595 552.212 282.457
3201 0 82.2823 15.301 1259 109.243 551.963 281.457
3202 0 84.3875 17.1471 1447 104.182 551.981 250.059
3203 0 84.3308 17.2298 1453 105.796 551.654 236.072
3204 0 89.3403 18.2337 1629 101.804 552.279 236.806
3205 0 92.2996 18.7325 1729 101.3 551.447 232.802
3206 0 96.3281 19.8696 1914 97.9629 551.773 239.686
3207 0 97.4656 16.8675 1644 105.137 551.537 237.316
3208 0 101.221 17.0617 1727 103.645 552.076 236.555
3209 1 54.1716 12.9404 701 108.407 552.411 263.16
3210 0 55.3661 13.6726 757 104.905 552.288 268.192
3211 0 56.3743 13.9425 786 100.744 552.695 279.62
3212 0 57.3399 13.5857 779 104.772 552.877 276.551
3213 0 59.3873 14.0603 835 103.577 552.42 277.56
3214 0 59.2769 13.3948 794 106.759 551.872 275.715
3215 0 63.3427 12.9928 823 105.202 551.956 276.966
3216 0 64.2132 14.0158 900 99.7556 552.484 277.909
3217 0 65.231 15.1615 989 100.488 552.625 290.684
3218 0 66.1731 14.5679 964 101.224 552.248 292.397
3219 0 67.1759 13.9782 939 102.957 552.706 293.033
3220 0 69.1848 14.0349 971 104.37 552.352 289.924
3221 0 71.1214 13.7511 978 105.531 552.813 292.017
3222 0 73.2108 13.3587 978 106.867 552.697 296.876
3223 0 75.1175 14.4573 1086 105.596 552.316 297.524
3224 0 79.0852 13.5171 1069 106.802 553.008 303.687
3225 0 80.1023 13.9197 1115 107.449 552.674 303.106
3226 0 81.0833 14.4543 1172 106.447 553.601 307.19
3227 0 84.0373 13.5059 1135 108.677 553.199 307.623
3228 0 86.0671 13.4546 1158 110.106 553.424 308.596
3229 0 89.0725 15.6951 1398 105.648 553.237 304.31
3230 0 92.0988 14.7776 1361 107.927 554.014 295.067
3231 0 96.0837 15.7363 1512 105.521 553.263 291.811
3232 0 97.1537 15.3983 1496 107.557 553.301 305.621
3233 0 99.2254 13.5751 1347 112.835 553.197 309.138
3234 1 52.0455 12.0087 625 112.162 554.262 340.456
3235 0 55.331 11.2957 625 113.141 551.451 342.973
3236 0 57.3495 14.7865 848 100.754 551.618 329.88
3237 0 58.2184 12.6764 738 108.252 550.851 308.73
3238 0 61.2011 13.6599 836 105.923 551.035 309.944
3239 0 62.1726 13.173 819 107.487 551.012 311.77
3240 0 64.0859 13.1074 840 109.376 550.942 311.425
3241 0 66.2976 13.7411 911 108.246 550.842 312.195
3242 0 69.1384 14.5505 1006 107.063 550.84 312.491
3243 0 70.1379 13.2596 930 109.472 550.981 309.287
3244 0 74.2164 13.4606 999 111.007 549.882 313.552
3245 0 76.1696 15.2817 1164 109.881 550.63 310.93
3246 0 79.1169 14.4343 1142 111.028 550.937 310.532
3247 0 82.1129 16.0024 1314 106.179 551.164 310.43
3248 0 84.1389 13.9293 1172 111.867 550.865 313.629
3249 0 86.1061 15.0164 1293 109.471 550.015 313.329
3250 0 90.1385 13.6457 1230 114.505 551.001 317.724
3251 0 93.1359 15.4398 1438 109.024 549.946 317.988
3252 0 94.1822 13.7924 1299 113.369 550.632 317.241
3253 0 98.2305 14.4863 1423 110.367 550.991 318.481
3254 0 103.18 14.528 1499 109.376 550.46 321.419
3255 1 58.0935 12.3938 720 110.799 550.208 343.046
3256 0 57.0534 11.9187 680 110.353 548.962 343.209
3257 0 61.1943 12.9914 795 106.525 550.195 337.631
3258 0 63.1591 14.2656 901 101.205 549.994 345.526
3259 0 65.1513 13.8907 905 101.61 550.238 353.128
3260 0 65.0931 13.5345 881 104.429 550.201 348.156
3261 0 68.235 13.5414 924 103.87 551.227 345.181
3262 0 71.2264 13.3377 950 104.243 551.008 348.691
3263 0 74.2031 13.207 980 103.7 550.132 352.009
3264 0 76.2536 13.1797 1005 104.667 550.039 352.761
3265 0 79.1882 14.9391 1183 101.738 550.478 350.954
3266 0 82.1455 15.3143 1258 101.321 550.59 347.169
3267 0 84.2716 14.5719 1228 102.991 550.36 348.503
3268 0 86.1951 14.0611 1212 103.853 550.177 349.986
3269 0 91.093 14.0735 1282 104.002 550.224 347.43
3270 0 90.1725 12.9751 1170 106.931 549.752 349.177
3271 1 47.0342 11.1408 524 104.076 550.349 373.893
3272 0 49.0318 11.4415 561 101.371 550.194 376.59
3273 0 50.1621 12.8184 643 97.4277 551.397 379.35
3274 0 52.1666 11.7892 615 99.5577 551.476 381.945
3275 0 54.4207 12.2564 667 99.7691 550.819 384.261
3276 0 58.1536 13.1376 764 96.5497 551.903 373.832
3277 0 57.1853 10.9819 628 103.803 551.669 363.303
3278 0 58.2151 12.1274 706 103.045 551.763 362.52
3279 0 62.221 12.986 808 99.9332 551.194 363.351
3280 0 65.3336 14.4336 943 97.0106 551.533 364.192
3281 0 66.1887 14.1565 937 98.809 551.869 354.162
3282 0 69.2052 12.8025 886 101.719 551.682 347.199
3283 0 71.2474 12.8847 918 102.84 551.58 345.251
3284 0 71.1238 12.2463 871 103.464 551.874 347.731
3285 0 76.1457 13.3297 1015 101.23 552.293 347.71
3286 0 77.1988 11.9043 919 101.441 552.358 345.545
3287 0 82.1525 13.9862 1149 96.2272 552.446 345.605
3288 0 83.1512 11.7256 975 102.462 551.655 338.539
3289 0 86.2211 13.0478 1125 98.6987 551.896 343.599
3290 0 88.2147 11.9028 1050 99.3905 552.311 350.49
3291 1 47.1303 8.86903 418 92.0215 551.239 368.431
3292 0 46.0347 10.3835 478 90.387 551.634 367.872
3293 0 50.0623 11.8852 595 93.1983 550.943 360.35
3294 0 52.1516 11.8692 619 88.4023 552.504 357.365
3295 0 53.234 10.4632 557 92.0808 552.11 361.086
3296 0 52.2074 11.0904 579 92.2763 552.15 361.927
3297 0 55.1357 12.0793 666 90.2072 552.694 364.878
3298 0 57.174 12.9779 742 88.6995 552.015 368.679
3299 0 59.2346 10.8551 643 92.3344 552.65 368.715
3300 0 61.2086 11.5343 706 93.0028 552.598 362.908
3301 0 63.1463 12.4948 789 94.3143 553.517 365.156
3302 0 66.2261 12.9254 856 93.5269 553.727 367.956
3303 0 66.2344 12.3803 820 95.2695 553.17 365.53
3304 0 68.19 12.7585 870 95.4793 553.48 362.926
3305 0 71.2374 12.325 878 96.9886 553.942 363.79
3306 0 72.2409 13.1504 950 95.6642 553.759 362.632
3307 0 74.2194 11.8433 879 97.9374 552.953 362.887
3308 0 76.1518 11.5033 876 99.2237 553.429 363.293
3309 0 80.2192 12.229 981 98.4862 553.73 360.076
3310 0 83.1439 11.7748 979 99.0061 553.76 359.324
3311 0 87.1182 12.2363 1066 96.0497 553.094 359.954
3312 0 89.1784 13.2656 1183 94.6348 553.014 364.969
3313 0 92.2618 12.5404 1157 97.9672 553.851 345.955
3314 0 94.39 12.5225 1182 98.4103 553.294 345.003
3315 0 97.2774 11.791 1147 100.827 553.884 332.456
3316 0 97.2774 11.8424 1152 137.766 553.894 332.528
3317 1 53.0693 12.2104 648 100.519 553.139 353.386
3318 0 56.0395 11.4562 642 102.227 552.455 355.634
3319 0 55.1064 11.9405 658 102.251 552.64 358.608
3320 0 56.0393 11.9916 672 103.339 552.037 360.927
3321 0 57.1123 11.9414 682 102.617 552.048 364.405
3322 0 59.097 12.691 750 102.055 551.281 366.44
3323 0 62.0807 11.4045 708 104.016 551.253 365.542
3324 0 64.1179 11.1357 714 103.846 551.179 367.732
3325 0 66.2588 12.9492 858 101.91 552.289 363.393
3326 0 69.1345 12.5986 871 102.734 552.409 365.034
3327 0 67.2194 11.6187 781 107.476 552.204 362.224
3328 0 68.1232 11.9636 815 106.124 551.56 353.709
3329 0 73.132 11.5408 844 106.233 552.289 355.085
3330 0 77.176 11.558 892 106.324 552.249 351.766
3331 0 81.1431 13.3714 1085 104.335 551.396 345.37
3332 0 83.3413 13.5347 1128 108.637 552.284 326.463
3333 0 84.2487 12.1782 1026 112.284 552.192 329.617
3334 0 88.3301 13.6307 1204 110.772 552.702 328.842
3335 0 90.2063 12.3716 1116 113.887 552.208 331.585
3336 0 93.2786 12.5431 1170 115.763 552.003 329.424
3337 0 94.1542 11.7998 1111 118.914 552.952 323.511
3338 0 96.1584 12.1778 1171 119.5 552.202 321.272
3339 0 99.3281 12.947 1286 118.286 551.837 326.971
3340 0 102.194 13.3668 1366 117.919 551.452 327.534
3341 0 106.125 13.5312 1436 117.504 551.301 320.194
3342 0 109.291 12.7275 1391 123.119 551.639 312.912
3343 0 111.213 11.8061 1313 124.286 551.83 319.171
3344 0 116.421 13.7776 1604 115.214 551.935 322.706
3345 0 120.27 12.6549 1522 120.013 551.756 329.963
3346 0 125.264 13.0844 1639 118.365 552.027 335.677
3347 0 127.283 12.6725 1613 118.83 551.852 327.221
3348 0 132.315 12.2586 1622 123.654 551.277 315.999
3349 0 136.297 12.4581 1698 125.161 551.293 312.259
3350 0 142.261 13.7635 1958 121.616 550.974 308.865
3351 0 147.326 12.5572 1850 123.911 551.876 297.938
3352 0 152.427 13.1998 2012 118.924 552.485 303.134
3353 0 158.395 12.5698 1991 121.291 552.125 309.039
3354 1 87.4336 11.5059 1006 110.08 551.898 351.969
3355 0 90.2886 11.8287 1068 106.459 552.444 361.283
3356 0 92.2323 12.7721 1178 105.041 552.792 364.871
3357 0 96.3027 12.6165 1215 106.853 552.699 341.315
3358 0 99.2194 12.0541 1196 108.314 553.246 334.156
3359 0 104.281 14.1157 1472 103.255 552.227 339.284
3360 0 106.178 13.9576 1482 104.222 552.607 335.165
3361 0 109.182 11.8793 1297 108.674 552.772 333.234
3362 0 112.222 11.602 1302 110.186 553.042 333.663
3363 0 117.195 13.9085 1630 106.449 551.988 330.726
3364 0 121.35 13.0779 1587 110.561 553.153 329.711
3365 1 67.1135 11.2347 754 112.935 553.711 330.605
3366 0 68.0933 13.5256 921 103.597 552.32 298.936
3367 0 68.1505 11.9148 812 107.656 552.724 297.203
3368 0 70.137 10.893 764 110.78 552.275 296.17
3369 0 73.2006 13.6611 1000 104.701 552.38 296.692
3370 0 77.282 13.3408 1031 105.253 551.823 295.667
3371 0 77.1488 11.7565 907 109.573 552.421 297.61
3372 0 79.2484 11.71 928 111.567 552.887 296.316
3373 0 83.2422 12.6018 1049 110.656 552.515 298.276
3374 0 86.2366 13.0339 1124 110.813 552.182 300.915
3375 0 89.1305 12.4536 1110 117.22 552.623 275.606
3376 0 91.162 13.5583 1236 115.906 552.197 280.524
3377 0 94.0794 13.7543 1294 116.947 553.019 283.91
3378 0 97.262 13.623 1325 115.489 551.326 287.786
3379 0 101.379 14.4508 1465 116.91 551.605 293.851
3380 1 54.2873 11.7707 639 113.85 551.246 316.579
3381 0 55.0907 12.9968 716 114.291 551.117 300.872
3382 0 55.2876 11.7567 650 118.052 550.595 288.715
3383 0 55.143 12.3678 682 108.701 552.098 296.195
3384 0 59.1341 13.444 795 113.506 551.426 292.892
3385 0 60.19 12.2446 737 113.246 550.917 297.833
3386 0 62.2036 13.488 839 115.778 551.434 295.44
3387 0 65.2428 12.5531 819 117.518 551.634 298.349
3388 0 67.257 11.9393 803 118.598 552.029 299.691
3389 0 70.3356 12.611 887 119.308 550.79 299.707
3390 0 70.2153 12.8035 899 119.315 551.059 310.862
3391 0 74.2502 13.0101 966 118.441 550.741 308.154
3392 0 76.137 13.7253 1045 117.578 550.687 310.756
3393 0 76.3088 11.8859 907 122.892 550.937 312.383
3394 0 82.309 15.0287 1237 113.302 551.605 318.361
3395 0 81.3015 12.1277 986 122.395 551.741 310.723
3396 0 87.5611 13.442 1177 118.389 551.615 311.98
3397 0 88.243 13.3835 1181 118.71 551.987 310.977
3398 0 93.377 14.8002 1382 113.548 551.85 320.661
3399 1 46.3504 12.1898 565 108.48 553.267 341.435
3400 0 47.1098 10.9531 516 106.124 552.971 352.492
3401 0 50.0927 13.1556 659 102.718 553.316 355.822
3402 0 52.074 11.9253 621 103.428 552.657 366.28
3403 0 53.0196 11.8447 628 104.148 553.097 368.791
3404 0 53.1761 10.7567 572 106.589 552.815 371.26
3405 0 55.0995 11.4883 633 105.523 552.927 371.128
3406 0 58.1355 12.9353 752 100.731 552.84 373.693
3407 0 60.1028 11.7299 705 104.026 553.223 371.845
3408 0 62.0566 13.3749 830 101.236 552.769 370.442
3409 0 64.1036 12.3082 789 103.364 553.612 371.575
3410 0 65.1947 12.1329 791 105.145 553.046 371.458
3411 0 68.0685 12.3258 839 103.902 553.331 378.13
3412 0 69.2214 13.334 923 103.529 553.431 366.498
3413 0 71.132 11.6544 829 108.723 553.034 361.683
3414 0 74.1632 11.7983 875 107.978 552.182 361.239
3415 0 76.2232 13.3818 1020 106.63 552.565 360.152
3416 0 80.1537 14.048 1126 105.903 552.467 351.248
3417 0 82.2047 13.1014 1077 109.036 551.654 357.581
3418 0 84.1128 13.3155 1120 109.22 552.029 357.324
3419 0 85.1776 12.2333 1042 112.518 552.202 361.88
3420 0 89.1852 12.8721 1148 110.229 552.676 366.498
3421 0 95.4565 14.0483 1341 110.037 553.226 337.801
3422 1 49.43 11.7944 583 111.611 552.16 359.741
3423 0 50.3484 11.9567 602 111.786 551.922 358.164
3424 0 52.2768 12.9503 677 110.756 552.05 357.244
3425 0 52.2275 13.2306 691 111.822 551.103 356.156
3426 0 54.2128 12.8198 695 112.435 550.456 353.45
3427 0 54.2052 12.9508 702 114.177 551.067 349.899
3428 0 55.1576 12.6546 698 116.325 551.385 353.758
3429 0 58.1551 12.4667 725 116.433 551.119 357.492
3430 0 60.1996 14.0532 846 112.632 551.928 363.46
3431 0 62.2732 14.324 892 112.742 551.723 357.137
3432 0 64.3354 12.9789 835 117.025 551.722 357.558
3433 0 66.2007 13.444 890 117.429 551.733 352.696
3434 0 70.1585 13.7546 965 116.235 551.432 349.692
3435 0 71.1898 13.5975 968 117.561 551.929 350.656
3436 0 74.4667 13.872 1033 116.1 551.698 352.603
3437 0 78.2756 14.2701 1117 113.655 552.469 353.278
3438 0 81.2759 15.2444 1239 111.773 551.956 355.193
3439 0 81.266 14.5202 1180 114.872 551.874 355.269
3440 0 83.4162 13.7144 1144 116.801 551.93 356.247
3441 0 87.2968 13.2193 1154 117.07 551.98 356.856
3442 0 90.32 15.0022 1355 113.408 551.959 358.03
3443 0 91.3983 14.1141 1290 116.594 551.722 357.871
3444 0 94.437 13.0987 1237 118.667 551.388 357.557
3445 0 98.3942 12.9682 1276 117.038 552.06 359.675
3446 1 53.2006 9.56757 509 108.674 552.297 379.012
3447 0 56.1663 11.1811 628 102.15 552.82 370.575
3448 0 58.1631 10.4877 610 102.89 552.697 374.907
3449 0 62.3459 11.773 734 98.9809 552.417 377.433
3450 0 63.2177 11.4683 725 100.69 552.148 374.97
3451 0 63.1237 11.7864 744 101.821 551.433 374.403
3452 0 66.2267 11.4606 759 101.83 551.905 375.286
3453 0 69.1742 11.9409 826 101.316 552.709 374.66
3454 0 69.1279 11.7174 810 104.472 551.906 373.438
3455 0 71.1212 11.8108 840 110.838 553.318 373.479
3456 0 74.1113 11.901 882 110.666 553.13 373.484
3457 0 76.1625 10.5695 805 113.534 553.588 372.293
3458 0 78.2532 11.105 869 114.461 553.646 369.858
3459 0 82.2142 11.3727 935 117.108 552.659 372.319
3460 0 82.2229 11.3837 936 118.873 552.184 370.624
3461 0 86.1833 11.9861 1033 118.482 551.586 368.951
3462 0 90.2631 11.5994 1047 118.08 552.069 370.589
3463 1 47.1827 9.87649 466 105.642 551.773 388.526
3464 0 48.1155 10.5787 509 108.963 550.591 388.88
3465 0 54.0229 11.5877 626 114.647 549.006 388.692
3466 0 53.1344 13.1365 698 114.635 548.702 386
3467 0 55.0779 12.7819 704 114.558 548.901 386.747
3468 0 57.077 12.2116 697 116.702 548.438 385.858
3469 0 59.0463 12.3462 729 116.427 548.198 384.549
3470 0 57.0353 12.7465 727 118.699 548.788 383.84
3471 0 62.0377 13.3306 827 116.851 548.243 381.73
3472 0 64.0636 13.0183 834 117.664 549.146 380.311
3473 0 65.1134 13.1617 857 117.728 549.487 380.565
3474 0 66.1286 12.5967 833 120.367 548.88 380.366
3475 0 70.1559 12.572 882 120.472 549.602 378.918
3476 0 70.1776 12.5396 880 122.952 549.544 377.347
3477 0 74.1983 13.2752 985 120.625 549.961 371.575
3478 0 76.221 13.2772 1012 121.346 549.94 369.17
3479 0 79.3876 13.8687 1101 119.895 550.181 369.336
3480 1 43.0538 10.243 441 123.54 550.29 391.946
3481 0 45.3349 11.2937 512 120.236 550.803 391.473
3482 0 45.2242 12.4933 565 119.025 551.975 390.706
3483 0 47.3466 12.4824 591 120.393 551.848 390.53
3484 0 49.2783 11.8713 585 122.834 552.219 389.626
3485 0 48.368 12.2602 593 124.336 552.479 388.378
3486 1 128.691 9.44899 1216 126.045 552.525 355.487
3487 0 128.932 10.2302 1319 122.989 552.245 359.202
3488 0 129.856 10.4269 1354 127.345 551.615 352.468
3489 0 125.674 9.67582 1216 133.613 551.602 354.932
3490 0 127.803 10.837 1385 130.141 552.305 355.341
3491 0 130.676 11.1574 1458 129.614 551.785 354.514
3492 0 134.705 11.0538 1489 130.667 551.635 352.265
3493 0 132.731 11.3614 1508 132.132 551.255 351.174
3494 0 144.793 10.8223 1567 131.553 551.371 347.239
3495 0 152.639 10.3578 1581 133.003 551.727 344.14
3496 0 147.515 10.8193 1596 134.938 551.125 335.313
3497 1 75.3749 17.5125 1320 111.015 552.566 355.976
3498 0 70.2777 14.1581 995 127.262 551.252 350.868
3499 0 73.2984 12.7834 937 130.329 551.127 348.138
3500 0 75.2334 13.9167 1047 127.135 551.561 348.164
3501 0 78.317 13.2666 1039 130.112 551.94 329.474
3502 0 78.3436 13.8365 1084 128.647 552.232 332.266
3503 0 83.3205 13.8981 1158 127.572 551.426 316.53
3504 0 84.4482 14.0915 1190 128.403 551.129 309.518
3505 0 86.3336 13.2046 1140 131.391 551.384 303.716
3506 0 88.2816 13.9553 1232 129.253 552.019 300.099
3507 0 91.2331 12.638 1153 131.135 552.524 303.448
3508 1 49.2292 11.7207 577 124.21 550.255 327.518
3509 0 51.4693 13.2312 681 120.468 551.043 330.781
3510 0 52.3636 12.4896 654 121.783 551.393 332.216
3511 0 54.4293 12.3463 672 121.415 551.074 333.125
3512 0 55.3954 13.6654 757 119.362 551.115 333.201
3513 0 56.3919 12.2713 692 123.046 551.65 334.36
3514 0 58.3847 12.469 728 122.819 551.141 334.883
3515 0 58.3117 12.2445 714 124.111 551.416 335.129
3516 0 61.3828 13.7172 842 118.597 551.416 337.596
3517 0 63.3218 13.4867 854 121.918 551.192 338.075
3518 0 64.2507 14.5057 932 120.807 551.723 336.192
3519 0 66.3721 13.8612 920 121.609 550.907 339.405
3520 0 68.3949 14.3432 981 122.586 551.068 340.206
3521 0 70.3197 13.9221 979 124.33 551.469 339.836
3522 0 72.2599 15.5826 1126 120.421 551.636 341.249
3523 0 74.315 15.6227 1161 121.907 551.171 340.109
3524 0 77.2448 14.5382 1123 124.98 551.332 334.452
3525 0 78.2269 13.7676 1077 128.173 551.623 333.098
3526 0 83.246 14.4391 1202 124.492 551.837 340.876
3527 0 82.2589 12.8618 1058 130.634 551.737 344.355
3528 0 87.286 13.977 1220 126.54 551.567 350.099
3529 0 90.1638 13.9413 1257 125.741 551.206 360.086
3530 0 95.2523 13.9104 1325 124.619 551.367 364.844
3531 0 96.2598 13.3805 1288 127.565 551.54 358.663
3532 1 53.0171 12.2413 649 121.017 550.565 367.311
3533 0 54.1274 13.4313 727 119.836 550.994 366.286
3534 0 55.1986 12.7539 704 123.607 553.359 358.197
3535 0 59.4286 12.637 751 122.872 552.834 356.136
3536 0 59.3326 13.7867 818 122.27 553.187 347.669
3537 0 62.452 13.7225 857 120.575 553.512 351.593
3538 0 62.42 13.281 829 122.938 552.938 354.235
3539 0 64.3296 12.7002 817 123.694 553.477 360.158
3540 0 67.3422 12.6518 852 121.638 553.257 369.938
3541 0 68.3172 12.3541 844 123.84 553.043 363.201
3542 0 73.3052 14.1327 1036 116.628 553.045 367.317
3543 0 73.3605 14.531 1066 116.569 552.537 374.219
3544 0 75.3196 13.5025 1017 121.424 552.893 348.927
3545 0 80.2317 14.1964 1139 117.867 552.468 350.248
3546 0 82.3125 14.3356 1180 116.997 552.735 350.188
3547 0 83.3404 14.0388 1170 117.854 552.901 351.247
3548 0 85.2963 14.3148 1221 117.316 552.641 353.615
3549 0 88.2967 13.1828 1164 118.873 552.399 359.082
3550 0 90.3443 14.1791 1281 116.443 552.047 360.283
3551 0 94.3689 14.1254 1333 117.011 552.485 352.916
3552 0 95.3805 14.2692 1361 118.272 552.477 342.237
3553 0 98.5062 14.4661 1425 118.365 551.94 331.406
3554 0 102.468 14.5411 1490 116.793 552.499 334.605
3555 0 104.508 13.2621 1386 120.732 552.279 332.9
3556 0 107.464 12.9904 1396 120.759 552.8 334.218
3557 0 111.404 14.8828 1658 116.349 552.315 330.54
3558 0 115.489 13.0662 1509 119.584 552.43 330.191
3559 0 120.644 15.2018 1834 113.298 553.062 326.842
3560 0 122.379 11.8075 1445 116.869 552.206 327.543
3561 0 128.336 12.9738 1665 112.258 551.513 327.556
3562 0 132.43 12.7388 1687 111.731 551.916 326.709
3563 1 71.2417 11.2715 803 105.163 551.382 349.461
3564 0 74.3032 10.6456 791 108.501 552.238 343.382
3565 0 78.1097 12.8793 1006 107.446 551.344 346.391
3566 0 81.2004 13.3497 1084 106.507 551.009 347.841
3567 0 83.3054 13.9727 1164 106.484 553.186 335.686
3568 0 86.2123 13.0724 1127 107.482 552.926 341.535
3569 0 88.1271 13.2763 1170 107.522 552.931 347.703
3570 0 89.2934 12.4869 1115 108.711 553.417 353.422
3571 0 96.2961 13.4896 1299 104.768 552.676 360.102
3572 0 96.3092 12.003 1156 109.035 553.359 358.72
3573 0 101.419 14.6916 1490 102.034 553.187 347.032
3574 0 104.186 14.0518 1464 106.867 553.275 320.249
3575 0 107.294 14.1481 1518 106.851 554.069 319.553
3576 0 112.355 14.3652 1614 106.537 553.165 305.864
3577 0 117.418 16.3604 1921 105.034 553.993 281.229
3578 0 123.358 19.2123 2370 99.7819 553.742 262.211
3579 0 128.444 19.1757 2463 99.8234 553.802 262.061
3580 1 71.2871 13.0458 930 108.312 554.146 299.124
3581 0 72.3053 12.6823 917 102.936 552.692 298.874
3582 0 74.3049 12.4891 928 107.578 553.954 298.907
3583 0 79.443 14.4128 1145 102.578 554.358 298.137
3584 0 81.4473 14.4879 1180 103.334 553.319 298.331
3585 0 81.3882 13.7121 1116 107.282 554.187 297.713
3586 0 85.2695 15.1989 1296 102.3 553.956 301.9
3587 0 87.3346 13.454 1175 106.871 554.013 298.343
3588 0 92.397 14.5784 1347 104.154 553.543 297.055
3589 0 93.4465 13.6549 1276 107.695 553.678 298.984
3590 0 97.466 14.4768 1411 105.035 553.094 311.752
3591 0 99.5064 13.4464 1338 108.429 553.475 311.045
3592 0 103.384 14.8959 1540 105.299 553.173 306.999
3593 0 107.488 13.6574 1468 108.296 553.279 307.886
3594 0 109.465 12.954 1418 110.182 553.143 308.234
3595 0 114.379 14.6094 1671 106.465 553.372 300.654
3596 1 61.2137 11.272 690 106.604 551.949 332.097
3597 0 65.0586 13.7261 893 100.56 549.757 340.278
3598 0 64.3648 11.8077 760 107.395 552.311 344.096
3599 0 69.316 13.7775 955 103.315 552.69 349.737
3600 0 69.3706 12.9161 896 106.817 552.888 354.997
3601 0 70.2765 14.0303 986 104.546 553.145 361.55
3602 0 73.296 13.5342 992 105.696 553.266 367.307
3603 0 76.2383 13.0774 997 106.127 553.57 367.267
3604 0 77.2093 12.6798 979 107.125 553.038 374.33
3605 0 80.2715 13.3921 1075 106.032 553.631 373.232
3606 0 84.2843 15.0681 1270 105.183 553.285 324.933
3607 0 86.2363 13.6833 1180 107.798 553.233 320.037
3608 0 90.2771 14.9429 1349 104.265 553.446 321.529
3609 0 92.2053 15.1401 1396 104.572 552.067 317.004
3610 0 95.149 14.1252 1344 107.926 552.186 315.591
3611 0 99.0665 15.4038 1526 104.979 551.744 314.344
3612 0 101.109 14.7168 1488 108.466 552.068 311.552
3613 0 102.201 14.0018 1431 111.37 551.742 310.425
3614 0 109.204 16.1074 1759 100.728 552.061 298.213
3615 0 109.184 14.1046 1540 106.312 552.475 302.964
3616 1 59.0905 12.8616 760 101.742 551.425 336.112
3617 0 61.0578 12.1524 742 103.639 551.542 341.846
3618 0 62.0648 13.5987 844 101.985 551.216 345.544
3619 0 64.069 14.6873 941 101.254 551.794 350.918
3620 0 66.0521 13.2622 876 104.575 551.273 356.462
3621 0 66.0438 12.5523 829 107.27 551.52 363.899
3622 0 67.0659 13.1363 881 106.313 551.922 370.043
3623 0 70.0795 13.4276 941 105.266 552.101 377.3
3624 0 73.1197 14.278 1044 103.519 551.396 371.323
3625 0 76.0366 13.4014 1019 107.031 551.863 351.987
3626 0 78.0709 14.8455 1159 103.521 551.766 327.086
3627 0 80.1345 14.563 1167 106.322 552.506 306.274
3628 0 82.1895 14.5517 1196 106.492 552.523 304.362
3629 0 85.1103 15.6033 1328 102.293 551.999 305.358
3630 0 88.119 13.8222 1218 105.537 552.33 303.049
3631 0 92.2376 14.3542 1324 103.534 551.881 304.997
3632 0 93.1383 13.8504 1290 104.595 552.098 307.999
3633 0 98.2373 13.8949 1365 101.968 551.661 308.689
3634 0 100.271 14.3512 1439 101.119 552.25 304.211
3635 0 102.225 14.1159 1443 102.593 551.945 294.911
3636 0 104.221 14.2965 1490 101.36 552.819 298.726
3637 0 108.31 15.0863 1634 99.3966 553.149 297.398
3638 0 112.428 14.7828 1662 102.969 552.921 299.247
3639 0 123.474 18.1577 2242 90.2752 551.841 268.875
3640 1 64.2669 14.113 907 98.0849 552.471 302.153
3641 0 66.1566 13.4529 890 95.1056 551.592 297.882
3642 0 68.1255 13.2256 901 97.0488 551.913 301.161
3643 0 71.0585 14.5795 1036 98.9701 551.85 301.402
3644 0 75.143 13.2814 998 100.201 550.867 305.827
3645 0 75.0839 13.7446 1032 100.14 551.471 299.551
3646 0 78.2055 15.0373 1176 98.1811 551.017 299.919
3647 0 79.2335 14.0723 1115 101.709 551.363 301.326
3648 0 84.2045 14.2629 1201 100.197 551.388 299.639
3649 0 88.1691 14.3361 1264 100.484 551.394 301.625
3650 0 89.3769 14.8696 1329 101.482 553.221 297.828
3651 0 91.2807 14.3733 1312 103.081 553.281 298.555
3652 0 96.2792 14.9046 1435 101.162 553.129 300.242
3653 0 98.2723 15.1925 1493 101.72 553.305 295.691
3654 0 103.401 14.4872 1498 103.7 553.412 291.507
3655 0 105.328 14.4406 1521 103.124 552.212 289.026
3656 0 108.263 15.1484 1640 102.558 553.234 292.501
3657 0 113.408 14.946 1695 102.188 552.894 299.416
3658 1 62.2343 13.3688 832 100.891 553.359 329.555
3659 0 62.3144 13.3677 833 103.924 553.475 337.157
3660 0 65.3669 13.9367 911 102.019 553.239 341.798
3661 0 65.1938 12.9153 842 102.537 552.023 349.158
3662 0 67.1154 13.6332 915 100.666 551.897 358.134
3663 0 73.2176 15.3105 1121 95.1231 551.577 362.798
3664 0 72.1691 12.928 933 100.233 552.129 370.617
3665 0 75.1813 13.0618 982 100.32 552.283 372.28
3666 0 78.4007 13.9922 1097 98.7958 551.703 378.665
3667 0 80.3422 14.5254 1167 97.6932 552.187 373.955
3668 0 85.3862 14.9087 1273 95.348 552.277 376.045
3669 0 85.2283 14.7956 1261 98.1768 551.902 372.11
3670 0 88.2193 13.5798 1198 100.518 552.639 372.924
3671 0 92.2204 13.728 1266 100.593 552.295 371.998
3672 0 95.3431 14.5265 1385 99.9047 552.087 369.137
3673 0 95.258 13.0698 1245 105.922 552.189 340.952
3674 0 99.407 14.2948 1421 104.546 551.758 328.898
3675 0 102.37 15.2095 1557 104.59 551.283 319.543
3676 0 105.291 14.1893 1494 106.522 551.893 305.936
3677 1 57.2233 13.3687 765 107.654 550.426 332.31
3678 0 60.1162 13.0913 787 106.961 549.638 340.587
3679 0 61.2489 12.7186 779 104.738 550.703 342.388
3680 0 64.0901 13.6839 877 100.779 549.87 349.781
3681 0 65.1952 13.1298 856 103.227 550.445 354.77
3682 0 67.158 13.5352 909 102.639 549.668 360.114
3683 0 68.2693 13.52 923 103.729 549.938 366.126
3684 0 69.2593 13.8754 961 103.96 550.26 351.979
3685 0 74.1966 14.8794 1104 101.736 550.266 344.111
3686 0 76.1886 13.9653 1064 103.964 550.119 346.793
3687 0 77.2125 13.7672 1063 105.285 550.466 347.79
3688 0 80.1176 12.6938 1017 107.676 550.19 341.825
3689 0 80.2192 13.0268 1045 107.894 550.877 343.235
3690 0 83.1957 12.4646 1037 108.851 550.428 322.643
3691 0 87.1536 14.2966 1246 104.917 550.908 323.693
3692 0 90.1546 14.7968 1334 104.648 550.418 318.049
3693 0 90.3365 14.7117 1329 105.172 550.526 319.244
3694 0 94.241 14.5372 1370 105.589 550.896 321.206
3695 0 95.3521 14.3259 1366 106.812 550.905 321.247
3696 0 99.3091 13.2515 1316 107.789 551.761 320.577
3697 0 101.191 14.1021 1427 106.746 552.406 323.219
3698 0 110.194 17.0608 1880 98.9479 552.471 307.59
3699 0 111.091 14.7717 1641 104.484 552.764 308.085
3700 1 62.0526 12.715 789 103.545 553.288 338.276
3701 0 63.2071 11.929 754 99.3263 551.932 331.095
3702 0 67.3481 13.8237 931 102.314 552.632 321.494
3703 0 69.3003 13.4776 934 103.021 552.411 319.769
3704 0 73.1325 13.3867 979 101.197 553.035 322.654
3705 0 72.062 12.8778 928 103.79 553.005 323.406
3706 0 74.1119 13.6146 1009 103.13 553.305 322.694
3707 0 77.2378 14.6431 1131 101.178 553.073 322.708
3708 0 79.099 13.9825 1106 102.876 553.169 327.614
3709 0 82.1466 14.3402 1178 102.255 553.629 329.389
3710 0 86.1135 15.0964 1300 100.386 553.188 331.325
3711 0 84.0557 13.5505 1139 104.918 552.521 330.563
3712 0 89.1753 13.8379 1234 103.145 553.09 331.268
3713 0 90.1625 13.5866 1225 101.727 552.951 334.256
3714 0 93.1045 13.9091 1295 102.89 552.245 330.253
3715 0 98.0571 13.6145 1335 103.593 552.91 333.069
3716 0 100.114 14.6533 1467 101.544 552.389 334.12
3717 0 103.146 13.8347 1427 105.109 552.166 331.562
3718 0 107.225 13.84 1484 104.396 552.185 329.297
3719 0 111.295 14.5739 1622 103.843 552.056 326.281
3720 0 115.202 14.9997 1728 103.687 551.496 328.439
3721 0 119.153 14.1163 1682 103.467 551.621 329.974
3722 1 66.0802 12.2578 810 104.783 552.327 352.719
3723 0 68.0925 13.3642 910 100.329 552.027 349.402
3724 0 70.187 13.2931 933 94.8617 550.802 360.281
3725 0 69.0895 10.8844 752 99.262 552.271 366.743
3726 0 75.1543 13.0132 978 94.6728 551.228 372.943
3727 0 76.1675 12.5513 956 97.4153 551.276 370.388
3728 0 81.0802 12.5185 1015 96.7025 551.887 368.458
3729 0 82.1934 12.4706 1025 99.6107 552.248 361.318
3730 0 85.2223 12.1799 1038 100.864 551.721 359.456
3731 0 90.3002 12.536 1132 100.664 551.716 359.323
3732 0 91.3515 13.1251 1199 102.029 551.118 348.796
3733 0 92.155 13.282 1224 101.953 551.417 352.721
3734 0 98.2207 12.0036 1179 103.036 551.712 358.654
3735 0 100.148 13.4501 1347 100.616 552.499 358.252
3736 0 102.25 12.3814 1266 104.254 552.466 355.321
3737 0 106.299 13.7066 1457 100.889 552.699 355.848
3738 0 111.325 13.8873 1546 100.712 552.019 347.937
3739 0 114.279 13.3708 1528 99.286 552.94 351.943
3740 0 120.254 13.2636 1595 101.534 552.742 342.99
3741 0 124.241 13.6912 1701 101.988 553.391 340.465
3742 1 67.2651 12.9934 874 94.3844 553.388 375.102
3743 0 66.1779 12.3606 818 96.8692 553.474 378.214
3744 0 68.1989 13.3433 910 95.2264 553.487 377.875
3745 0 71.1728 13.2213 941 95.8395 553.472 373.953
3746 0 73.1687 12.8607 941 96.1222 552.695 362.211
3747 0 75.2114 13.3889 1007 95.6236 552.355 360.463
3748 0 78.2247 12.4002 970 98.3773 553.297 359.12
3749 0 81.1004 11.5906 940 100.339 553.129 358.295
3750 0 82.2399 13.6065 1119 97.1126 553.034 360.238
3751 0 85.1391 12.8261 1092 99.5101 552.429 358.321
3752 0 86.167 13.1721 1135 104.135 554.632 351.304
3753 0 90.2785 12.5057 1129 102.685 554.304 358.707
3754 0 93.2294 12.5926 1174 105.033 554.558 356.603
3755 0 96.0775 13.5412 1301 103.499 554.113 348.433
3756 0 99.2206 14.0193 1391 102.697 553.763 334.708
3757 0 99.2836 12.3888 1230 108.488 554.055 333.418
3758 0 105.092 14.0067 1472 105.162 554.16 331.251
3759 0 104.196 12.9756 1352 106.012 554.136 330.073
3760 0 110.107 13.0328 1435 105.538 553.974 328.932
3761 1 64.2634 7.78048 500 111.412 553.928 305.244
3762 0 62.1465 12.0361 748 103.705 555.059 296.176
3763 0 65.2482 11.8317 772 102.667 555.006 307.994
3764 0 67.1072 12.6514 849 102.968 554.717 301.36
3765 0 68.0775 12.9117 879 103.664 554.535 302.958
3766 0 72.0892 13.7052 988 101.018 554.803 309.302
3767 0 73.2385 11.7015 857 105.481 554.146 311.789
3768 0 76.1265 14.0687 1071 100.962 554.445 307.295
3769 0 79.1768 12.9331 1024 104.036 554.517 308.446
3770 0 83.1819 14.0535 1169 102.439 554.671 310.726
3771 0 84.1288 13.5388 1139 104.797 554.874 312.356
3772 0 87.1759 14.6715 1279 104.694 554.946 312.717
3773 0 91.0598 13.244 1206 108.425 554.836 318.728
3774 0 92.1582 13.8024 1272 107.866 555.094 319.134
3775 0 95.1466 14.6826 1397 105.839 554.821 323.807
3776 0 97.2408 13.3072 1294 109.666 554.639 321.393
3777 0 100.41 13.9229 1398 109.044 553.81 330.558
3778 0 101.317 13.3344 1351 111.275 553.568 328.207
3779 0 105.481 14.9506 1577 108.951 553.321 328.653
3780 0 107.332 13.6493 1465 112.415 553.3 326.836
3781 0 114.422 14.1494 1619 110.012 553.125 329.294
3782 1 65.3578 11.3529 742 108.136 552.933 355.403
3783 0 67.1331 13.8531 930 104.202 554.012 355.634
3784 0 67.0638 12.8385 861 102.254 553.696 365.466
3785 0 70.1048 13.1945 925 102.252 553.693 365.585
3786 0 73.1886 13.1988 966 101.98 554.046 366.009
3787 0 74.2217 12.813 951 102.948 553.81 372.509
3788 0 77.1255 12.8622 992 103.493 553.601 363.929
3789 0 81.1996 13.7808 1119 103.603 554.461 354.166
3790 0 83.1246 13.6662 1136 106.003 553.879 328.415
3791 0 86.1768 12.7296 1097 107.892 553.883 327.507
3792 0 88.2299 12.7054 1121 108.509 553.376 327.438
3793 0 89.2062 13.6986 1222 106.25 553.648 328.564
3794 0 94.1719 13.6665 1287 106.172 553.349 329.487
3795 0 95.1817 13.9207 1325 108.157 553.575 324.626
3796 0 96.1997 13.4408 1293 108.96 554.015 325.347
3797 0 99.1023 12.583 1247 110.165 553.623 326.289
3798 0 103.375 13.3978 1385 110.05 553.408 329.014
3799 0 108.35 13.7609 1491 109.144 553.787 326.767
3800 0 111.247 13.897 1546 109.295 554.127 325.342
3801 0 116.131 14.7506 1713 105.946 553.389 328.096
3802 1 62.1414 13.7107 852 103.002 552.974 361.509
3803 0 65.1435 14.5218 946 110.358 551.792 367.609
3804 0 66.2075 14.8322 982 112.151 553.473 340.737
3805 0 70.1762 15.5893 1094 109.845 553.343 339.581
3806 0 72.2523 14.1726 1024 112.436 553.425 341.063
3807 0 74.2618 13.991 1039 113.591 553.709 340.55
3808 0 76.2831 15.4294 1177 109.935 553.634 341.849
3809 0 78.1561 14.8933 1164 112.692 552.899 339.166
3810 0 81.2672 14.68 1193 112.827 553.044 340.028
3811 0 83.4312 13.7598 1148 115.662 552.761 340.711
3812 0 86.2724 13.5733 1171 115.838 553.021 331.035
3813 0 90.3501 16.1926 1463 109.392 553.443 331.645
3814 0 93.5561 14.2481 1333 114.195 552.91 328.635
3815 0 97.3648 16.4844 1605 108.536 553.155 328.365
3816 0 100.376 15.3025 1536 110.871 553.233 325.19
3817 0 103.453 15.6786 1622 110.84 552.858 324.615
3818 0 106.355 14.2542 1516 112.643 552.918 322.234
3819 0 110.232 15.6398 1724 109.158 552.607 321.28
3820 1 61.1547 12.2967 752 111.87 552.253 346.055
3821 0 64.1394 14.8583 953 105.909 552.858 349.459
3822 0 65.3259 13.6393 891 107.219 552.685 355.666
3823 0 70.2349 15.0068 1054 103.024 553.351 346.194
3824 0 69.0426 13.3686 923 109.101 553.947 340.416
3825 0 72.0891 14.6208 1054 105.85 553.846 338.431
3826 0 77.0657 15.1299 1166 102.65 554.73 343.979
3827 0 77.2099 14.6613 1132 105.322 554.547 340.347
3828 0 81.2068 15.282 1241 102.931 554.473 342.492
3829 0 83.3451 14.6379 1220 106.705 553.833 335.953
3830 0 83.1366 14.5905 1213 105.596 554.693 342.355
3831 0 88.174 15.5261 1369 103.986 555.095 346.337
3832 0 90.1866 14.2704 1287 108.294 554.011 335.505
3833 0 93.1742 15.0364 1401 105.463 554.409 336.74
3834 0 95.3142 14.5414 1386 105.751 554.098 337.402
3835 0 99.4254 14.0709 1399 106.961 553.605 336.874
3836 0 102.253 15.178 1552 104.959 552.874 326.875
3837 0 106.25 15.7835 1677 103.044 553.367 322.552
3838 0 108.477 14.0399 1523 107.353 553.441 324.727
3839 0 112.187 15.1265 1697 105.731 553.101 313.651
3840 0 115.318 14.6031 1684 106.342 553.869 317.062
3841 0 118.213 14.2878 1689 102.125 553.604 319.829
3842 0 123.308 14.038 1731 101.223 553.125 334.605
3843 0 128.429 12.2013 1567 104.271 553.156 333.346
3844 1 68.1041 12.5837 857 100.639 553.016 363.721
3845 0 72.1691 13.4822 973 100.665 553.519 352.457
3846 0 75.1203 13.272 997 100.54 553.614 355.817
3847 0 76.1598 12.29 936 103.222 552.875 356.765
3848 0 79.2685 12.3126 976 104.24 552.823 359.207
3849 0 81.1511 13.7275 1114 102.855 553.293 356.788
3850 0 83.1994 12.5602 1045 104.892 552.75 354.012
3851 0 87.1651 13.4687 1174 103.961 552.167 350.474
3852 0 91.1137 14.2459 1298 101.99 552.136 359.686
3853 0 93.2908 15.4356 1440 97.1014 552.508 367.483
3854 0 96.1153 14.7947 1422 98.8699 552.175 365.323
3855 0 100.226 15.096 1513 98.805 552.047 363.969
3856 0 101.232 14.2544 1443 101.992 551.443 362.852
3857 0 106.239 14.5332 1544 101.904 552.016 361.54
3858 0 108.238 14.7268 1594 103.818 551.692 353.76
3859 0 112.352 14.6771 1649 102.645 551.824 351.416
3860 0 116.388 14.151 1647 104.373 551.78 350.564
3861 0 118.317 14.7401 1744 103.747 551.88 353.944
3862 0 121.31 13.7252 1665 106.895 551.819 351.405
3863 0 126.428 14.3481 1814 105.155 551.964 351.728
3864 0 131.473 14.8548 1953 105.046 551.58 348.172
3865 0 135.43 14.6939 1990 106.794 551.75 343.074
3866 0 139.292 14.466 2015 107.763 551.786 343.768
3867 0 144.338 14.9025 2151 106.67 551.761 340.277
3868 0 148.177 14.3275 2123 109.057 551.675 336.964
3869 0 155.392 16.5581 2573 105.389 551.654 333.076
3870 0 160.329 14.6886 2355 109.664 551.895 332.84
3871 1 86.1883 12.7976 1103 105.318 552.179 371.393
3872 0 88.1524 12.8981 1137 106.927 552.377 368.743
3873 0 92.3301 15.4229 1424 103.35 552.865 366.079
3874 0 96.1784 15.0138 1444 104.738 553.237 364.12
3875 0 101.158 15.1544 1533 102.874 552.724 358.409
3876 0 103.169 14.4811 1494 105.11 551.67 355.61
3877 0 105.176 14.2618 1500 107.969 552.227 351.398
3878 0 110.143 14.7263 1622 105.877 552.123 351.745
3879 0 113.128 14.3023 1618 107.899 551.873 351.111
3880 0 119.182 14.8428 1769 106.911 552.049 350.821
3881 0 121.184 14.3253 1736 109.836 552.009 348.01
3882 0 127.367 14.4386 1839 106.953 552.923 344.869
3883 1 61.1555 11.9368 730 106.155 552.822 377.223
3884 0 64.0594 12.4728 799 104.116 551.872 369.33
3885 0 68.0878 13.1301 894 104.035 553.305 349.649
3886 0 70.0754 12.2725 860 107.205 552.788 342.829
3887 0 71.1368 13.1296 934 106.355 552.968 344.88
3888 0 77.1385 13.6248 1051 103.243 552.349 350.792
3889 0 80.0542 13.7407 1100 103.839 552.894 349.875
3890 0 80.1002 13.4082 1074 105.597 552.236 348.313
3891 0 81.2017 13.4234 1090 107.983 552.224 347.017
3892 0 86.0961 13.8566 1193 106.068 552.239 343.167
3893 0 90.1532 15.1298 1364 105.716 552.319 342.707
3894 0 89.0953 13.8728 1236 110.54 551.829 345.176
3895 0 92.1454 14.9438 1377 108.8 552.212 345.932
3896 0 96.2237 15.5575 1497 108.387 552.063 347.421
3897 0 99.1303 14.718 1459 110.487 551.633 349.029
3898 0 101.076 15.0778 1524 108.96 551.723 348.98
3899 0 103.194 14.9137 1539 110.704 551.339 348.798
3900 0 106.156 14.1301 1500 113.681 551.885 351.099
3901 0 110.088 16.4867 1815 111.885 551.401 351.864
3902 0 112.18 14.6996 1649 117.629 551.867 336.367
3903 0 116.332 15.3612 1787 115.782 551.98 340.142
3904 0 122.268 16.3167 1995 113.527 551.954 329.101
3905 0 125.272 16.2686 2038 114.639 551.808 327.901
3906 0 126.202 14.8492 1874 119.623 552.134 334.215
3907 0 133.442 16.0894 2147 116.056 551.678 340.299
3908 0 135.309 15.8453 2144 117.768 551.862 339.4
3909 0 141.327 15.7366 2224 117.293 551.821 343.596
3910 0 148.218 16.3003 2416 116.011 551.731 345.353
3911 0 153.332 16.2393 2490 117.272 551.802 341.188
3912 1 78.1934 13.7352 1074 118.388 551.731 377.533
3913 0 82.1235 14.6 1199 118.079 551.962 376.351
3914 0 85.2593 14.9309 1273 117.379 552.262 352.644
3915 0 86.1357 13.6529 1176 121.19 552.134 343.983
3916 0 90.2106 16.1068 1453 115.088 551.667 344.677
3917 0 93.3148 15.3459 1432 119.223 551.865 336.442
3918 0 94.1809 14.9606 1409 119.677 551.172 336.59
3919 0 97.2639 15.4528 1503 117.963 551.432 334.591
3920 0 100.373 14.217 1427 119.374 551.179 334.954
3921 0 103.416 14.4466 1494 119.839 551.258 332.547
3922 0 109.373 14.6197 1599 118.208 550.919 334.725
3923 1 58.3148 13.4443 784 118.878 551.672 363.709
3924 0 62.0842 13.9166 864 117.558 551.267 353.611
3925 0 66.1017 15.219 1006 109.15 551.274 360.487
3926 0 65.0833 15.5186 1010 110.209 550.904 359.499
3927 0 68.3009 15.2267 1040 110.893 550.878 360.278
3928 0 71.0451 15.1031 1073 111.316 549.291 360.642
3929 0 71.1182 15.5235 1104 111.085 549.697 361.657
3930 0 75.1694 16.2965 1225 108.809 550.52 360.624
3931 0 78.1949 15.9345 1246 109.013 550.246 364.638
3932 0 79.0833 15.7303 1244 111.402 550.078 362.967
3933 0 81.0728 16.775 1360 110.605 549.904 361.774
3934 0 82.2029 15.4861 1273 114.925 549.917 362.002
3935 0 87.107 16.6347 1449 111.422 549.769 360.251
3936 0 90.3401 16.2608 1469 113.924 549.778 358.866
3937 0 93.1667 16.4329 1531 112.924 550.434 358.352
3938 0 97.2249 16.7138 1625 112.152 550.077 358.575
3939 0 97.1024 15.0357 1460 118.749 550.06 357.912
3940 0 102.091 15.9955 1633 116.379 549.959 356.715
3941 0 104.284 15.1989 1585 118.368 549.811 355.105
3942 1 57.2762 15.015 860 118.214 549.084 376.607
3943 0 59.2064 14.7112 871 119.908 549.75 374.688
3944 0 62.1871 14.8584 924 120.304 550.054 367.149
3945 0 64.0951 15.5394 996 117.997 549.984 365.252
