time division length width area intensity CMx CMy
0 0 43.0306 14.4781 623 137.665 49.2006 480.573
1 0 45.0102 14.1746 638 137.197 49.9107 480.461
2 0 45.0775 14.2643 643 138.117 48.8849 481.796
3 0 47.0822 14.1667 667 138.759 49.5307 480.408
4 0 49.0919 14.3608 705 136.61 49.678 481.382
5 0 50.094 14.2332 713 136.748 49.5259 480.802
6 0 49.055 14.5959 716 138.126 49.4413 480.23
7 0 50.062 14.8816 745 136.246 49.7074 480.075
8 0 53.1683 15.4227 820 133.478 49.6659 478.99
9 0 52.0824 14.669 764 136.906 49.3194 479.318
10 0 55.1977 15.1455 836 134.951 49.1256 478.514
11 0 56.0653 14.6258 820 135.866 49.2695 478.32
12 0 58.085 14.7026 854 135.226 49.0644 477.789
13 0 59.0881 14.7576 872 133.732 49.0229 478.513
14 0 60.1114 14.8557 893 135.331 48.4211 477.406
15 0 62.0329 15.7336 976 133.293 49.1076 474.888
16 0 65.0792 15.8115 1029 130.187 48.0962 476.405
17 0 67.1867 15.2411 1024 132.913 48.3379 474.899
18 0 69.103 15.3828 1063 132.832 48.6124 474.211
19 0 69.107 15.0491 1040 130.677 47.9471 474.209
20 0 70.0678 14.3432 1005 131.898 47.9274 473.861
21 0 74.205 14.9855 1112 132.934 48.3498 470.185
22 0 77.21 14.2857 1103 133.309 48.0127 471.753
23 0 83.1427 16.5258 1374 124.19 47.6419 470.863
24 1 40.0936 12.0468 483 134.17 49.0435 489.6
25 0 42.0279 14.1097 593 130.064 48.3659 489.175
26 0 42.0308 14.3466 603 126.249 48.3449 489.471
27 0 42.0344 12.466 524 136.435 48.0363 488.775
28 0 42.1636 13.8271 583 133.93 48.1029 487.856
29 0 46.1243 15.3281 707 126.692 48.0269 487.318
30 0 48.12 14.6924 707 124.578 48.1188 487.061
31 0 46.0777 14.1717 653 128.925 47.66 485.632
32 0 49.0849 14.4851 711 127.738 47.7426 484.374
33 0 51.2074 14.6659 751 125.775 47.8748 485.129
34 0 53.173 14.97 796 123.42 47.7374 485.254
35 0 55.097 14.7195 811 126.143 47.2725 484.018
36 0 57.1012 14.7633 843 126.058 47.1079 481.848
37 0 59.1079 14.4312 853 132.823 47.2052 480.44
38 0 63.0611 15.1599 956 125.768 47.0293 480.548
39 0 65.1409 15.4895 1009 126.261 46.8256 477.824
40 0 67.0638 16.6856 1119 122.85 46.1671 478.038
41 0 70.134 14.8715 1043 126.751 46.5503 477.19
42 0 72.194 15.1121 1091 126.68 46.5646 475.989
43 0 73.1526 15.5565 1138 126.715 46.2821 474.739
44 0 77.1664 15.6286 1206 123.693 46.0498 474.084
45 0 78.1316 15.0643 1177 126.363 46.6296 472.762
46 0 80.1237 14.852 1190 124.797 46.2933 470.706
47 1 42.0342 14.6785 617 121.7 45.6451 487.023
48 0 45.1028 13.0147 587 122.853 44.8279 488.889
49 0 48.1126 15.2559 734 117.561 45.1267 485.421
50 0 49.0532 13.5159 663 120.448 45.3439 486.739
51 0 48.028 14.0959 677 121.517 46.6263 486.684
52 0 51.0594 16.7648 856 79.1682 46.5888 485.721
53 0 51.1369 12.2612 627 122.92 46.2632 485.021
54 0 53.0527 14.4385 766 119.83 45.3198 483.832
55 0 56.1118 14.1681 795 118.109 44.6239 484.576
56 0 58.1279 14.795 860 115.467 45.5116 484.03
57 0 60.0547 13.9872 840 116.332 45.1917 482.749
58 0 62.0704 14.8702 923 113.087 45.1213 481.59
59 0 63.0816 13.6331 860 113.726 45.5419 481.817
60 0 68.0486 15.8563 1079 107.205 45.9351 479.289
61 0 70.0567 15.7016 1100 107.855 45.3827 478.045
62 0 71.1566 14.2784 1016 111.381 45.6821 476.669
63 0 75.1702 15.5647 1170 106.411 45.7957 475.868
64 0 76.1318 12.6623 964 111.628 45.4793 475.339
65 0 78.1021 13.5976 1062 109.974 45.0019 473.458
66 0 82.1234 13.5406 1112 109.777 46.0054 471.336
67 0 85.1354 14.0952 1200 112.099 44.8767 469.279
68 1 46.0472 12.8347 591 112.022 46.0998 489.431
69 0 48.0623 12.7751 614 112.347 45.6254 488.805
70 0 47.0845 12.6368 595 108.025 44.8084 488.798
71 0 50.0361 13.6901 685 105.854 44.435 487.993
72 0 51.0676 13.7661 703 104.91 44.0669 487.108
73 0 54.0801 14.0532 760 105.93 44.0263 485.608
74 0 53.0431 13.1026 695 107.473 44.2863 487.807
75 0 57.0172 15.5041 884 103.963 44.4446 485.695
76 0 56.062 15.2331 854 107.89 43.8443 482.342
77 0 60.0667 14.7669 887 106.114 45.0417 484.61
78 0 60.0511 13.2887 798 110.885 44.5927 482.263
79 0 64.0841 12.8737 825 111.761 44.9321 482.136
80 0 66.1133 15.3222 1013 106.882 44.5508 481.823
81 0 67.0635 13.5245 907 112.778 43.3219 477.604
82 0 70.1266 14.2599 1000 111.007 43.13 477.769
83 0 74.2043 14.8374 1101 109.229 44.4514 477.851
84 0 76.0909 14.8507 1130 109.494 44.1876 476.89
85 0 77.1223 13.2776 1024 112.048 44.4482 477.691
86 0 81.1471 15.6876 1273 108.372 44.2922 473.463
87 0 84.0595 14.0853 1184 113.893 44.1647 471.336
88 0 88.1363 14.4776 1276 112.424 44.3433 470.491
89 0 91.0682 15.0327 1369 111.287 44.0146 468.847
90 0 94.2196 14.498 1366 114.885 44.0366 467.417
91 1 47.0828 11.2143 528 102.767 44.3939 486.434
92 0 49.0594 12.2912 603 104.539 43.5025 484.567
93 0 50.0738 11.3632 569 111.844 42.7909 490.148
94 0 50.0414 13.5488 678 109.872 43.3378 487.699
95 0 54.085 13.0166 704 109.104 42.7415 487.726
96 0 53.0386 11.3314 601 112.752 42.8869 489.486
97 0 54.0932 12.5154 677 111.888 43.5746 485.892
98 0 58.1077 12.6489 735 111.454 43.6503 484.414
99 0 60.0381 13.4082 805 108.847 43.5379 484.75
100 0 63.0897 13.568 856 109.048 43.5654 484.529
101 0 64.114 13.242 849 114.118 43.596 482.286
102 0 66.1948 12.6143 835 114.087 43.7258 482.858
103 0 69.169 15.4694 1070 108.602 43.7598 478.542
104 0 71.1083 14.4287 1026 111.938 43.962 479.951
105 0 72.1191 13.6857 987 114.068 43.7974 481.11
106 0 76.1144 13.3877 1019 115.79 43.8773 477.805
107 0 79.069 14.7466 1166 114.443 43.2539 471.782
108 0 83.0845 14.3709 1194 113.581 44.1951 476.02
109 0 85.2213 13.6468 1163 115.839 44.1823 475.798
110 1 47.0835 12.8283 604 120.103 44.0993 490.955
111 0 49.0515 11.9466 586 117.788 44.5239 491.082
112 0 50.0654 13.4025 671 118.194 45.0581 488.326
113 0 50.0323 13.3514 668 120.985 42.1976 488.252
114 0 53.06 12.0807 641 123.179 42.7551 488.384
115 0 56.1123 14.3462 805 117.763 42.5627 486.698
116 0 56.0366 12.6346 708 124.346 43.0438 485.829
117 0 56.1048 13.047 732 125.672 43.0055 484.996
118 0 60.1176 14.1389 850 120.878 44.0741 484.102
119 0 61.1252 11.91 728 129.53 43.0179 483.227
120 0 62.1407 12.3269 766 127.164 42.5026 482.52
121 0 67.1982 13.6462 917 122.135 43.6183 479.809
122 0 68.195 13.5494 924 124.922 42.8344 478.51
123 0 72.2916 13.5286 978 123.465 43.6391 478.379
124 0 72.1908 14.4478 1043 123.445 43.976 476.507
125 0 76.243 13.9292 1062 124.056 43.7947 476.173
126 0 78.2484 13.7255 1074 123.961 43.4516 475.188
127 0 83.1473 15.1418 1259 118.208 43.1223 470.087
128 0 84.1778 15.3722 1294 109.911 43.5216 470.954
129 0 85.1336 14.8003 1260 113.195 44.3889 469.91
130 1 47.0425 13.6472 642 113.221 43.9798 490.224
131 0 48.0529 12.2573 589 116.883 43.7334 489.54
132 0 50.0864 13.7163 687 112.607 43.048 488.863
133 0 51.0553 13.3189 680 111.606 43.7456 489.951
134 0 54.0791 14.2199 769 109.339 43.5657 487.979
135 0 52.0803 13.652 711 112.592 43.5302 488.031
136 0 54.0601 14.2804 772 111.214 44.1075 488.231
137 0 55.06 12.6589 697 115.828 43.4921 487.033
138 0 57.1165 12.7459 728 114.702 43.4176 485.258
139 0 61.0374 14.7778 902 109.367 44.4191 484.534
140 0 61.094 13.6347 833 113.675 43.8283 483.534
141 0 61.1229 14.1518 865 112.756 43.6023 482.909
142 0 62.0761 12.4686 774 116.974 43.3333 483.235
143 0 65.0641 13.1409 855 114.485 43.8211 480.466
144 0 69.1678 13.0263 901 112.951 44.6826 479.996
145 0 67.1214 12.3955 832 120.056 43.8197 478.403
146 0 70.1153 13.0499 915 119.456 44.4393 477.094
147 0 75.1078 13.7402 1032 117.619 44.0174 478.399
148 0 77.2401 14.3837 1111 113.826 44.0837 477.342
149 0 81.113 14.2887 1159 115.1 44.365 473.023
150 0 82.2507 14.9178 1227 115.367 43.8264 472.069
151 1 41.0901 11.0489 454 119.791 43.5198 491.879
152 0 44.1635 13.1104 579 112.884 43.8808 491.801
153 0 46.0538 12.3334 568 113.414 43.6778 491.03
154 0 46.0253 12.7973 589 113.435 44.3073 491.224
155 0 45.0711 12.5579 566 108.996 43.8551 491.242
156 0 48.026 11.1398 535 112.793 43.7963 489.379
157 0 49.1509 12.0445 592 111.25 43.4932 488.965
158 0 50.0697 13.5811 680 108.479 44.2294 488.249
159 0 51.0863 12.7431 651 110.014 44.3671 487.08
160 0 52.0652 12.1194 631 112.135 44.0222 486.284
161 0 56.1866 13.4552 756 108 43.7791 485.964
162 0 57.0992 11.9266 681 111.048 43.7372 486.115
163 0 58.1544 14.3411 834 106.697 43.4544 484.216
164 0 59.1028 11.793 697 112.763 43.6628 484.476
165 0 62.1613 13.8672 862 108.055 43.5476 481.89
166 0 64.1458 15.2777 980 104.858 43.7429 479.629
167 0 65.116 13.7908 898 107.653 43.7873 478.175
168 0 68.133 13.4736 918 107.847 44.5621 478.828
169 0 71.1088 13.7114 975 107.083 44.0359 478.157
170 0 73.1161 14.306 1046 108.861 44.2696 477.486
171 0 74.2129 14.0542 1043 112.367 43.4794 473.625
172 0 76.2247 13.9063 1060 114.242 42.6028 471.428
173 0 79.1769 14.1077 1117 113.158 43.4978 471.976
174 0 82.0656 15.3048 1256 112.022 44.1831 470.221
175 0 86.268 15.1389 1306 111.65 43.2887 470.665
176 0 87.1106 14.2463 1241 115.431 42.9251 466.792
177 1 43.0398 10.8737 468 115.459 45.0214 488.857
178 0 44.097 10.681 471 106.204 44.3355 486.771
179 0 43.0739 10.7722 464 109.571 44.1724 484.797
180 0 47.1319 13.2607 625 110.878 43.872 488.68
181 0 49.0889 13.7709 676 108.602 44.5547 488.417
182 0 49.0749 14.1213 693 108.118 44.3074 487.547
183 0 52.0297 13.2809 691 109.773 43.6107 488.103
184 0 52.0494 14.5631 758 109.532 43.843 487.045
185 0 52.0611 12.4661 649 115.784 43.9753 485.176
186 0 56.0403 12.8479 720 113.204 43.2653 485.712
187 0 56.0841 14.0503 788 111.798 44.5393 483.929
188 0 57.039 12.921 737 115.115 43.9525 484.232
189 0 60.0544 12.2056 733 116.885 43.6357 483.143
190 0 62.0882 13.8835 862 113.579 43.4617 481.832
191 0 63.0367 13.7698 868 114.547 43.5737 481.715
192 0 65.0684 13.847 901 113.103 44.0222 482.024
193 0 68.086 13.6005 926 114.736 43.0886 479.988
194 0 68.0476 13.3436 908 116.924 43.0683 480.11
195 0 72.0657 14.3897 1037 114.45 42.7126 477.247
196 0 74.1331 14.3391 1063 113.42 43.7639 475.922
197 0 76.0554 14.0687 1070 114.82 43.115 474.92
198 0 77.0928 13.4643 1038 115.956 43.7659 474.703
199 0 79.0523 13.9528 1103 115.604 43.4016 473.845
200 0 81.0932 13.281 1077 117.019 43.3426 472.119
201 0 84.1164 15.2051 1279 111.703 43.1009 471.449
202 0 88.1192 15.5131 1367 111.168 42.8859 468.634
203 0 91.12 13.8499 1262 112.829 42.6181 468.146
204 1 47.133 11.6691 550 112.087 43.0945 488.695
205 0 47.0891 12.6781 597 110.367 44.0268 488.126
206 0 48.1712 12.3518 595 106.371 44.042 489.106
207 0 50.0282 12.1532 608 106.266 42.4128 490.058
208 0 51.0393 11.5009 587 106.704 42.8603 488.313
209 0 52.029 12.7429 663 103.973 42.7481 486.219
210 0 56.0667 13.8228 775 100.868 43.6271 484.218
211 0 55.0221 12.1588 669 104.806 43.0703 485.65
212 0 59.0532 12.8528 759 102.66 43.5059 482.921
213 0 61.0439 12.5811 768 102.169 42.7344 482.63
214 0 62.0252 13.6719 848 101.007 42.3597 480.892
215 0 66.1877 13.5221 895 100.01 43.3352 479.461
216 0 67.0689 13.3296 894 101.534 42.8501 478.272
217 0 69.091 13.5184 934 99.9829 43.2762 479.427
218 0 72.2042 13.351 964 100.745 42.9824 475.44
219 0 75.0601 12.51 939 101.749 43.8488 474.905
220 1 40.0671 12.0049 481 99.842 42.6674 491.753
221 0 40.0889 12.0482 483 100.865 42.8075 492.609
222 0 42.0524 11.2479 473 100.915 43.2622 491.983
223 0 44.0208 12.5395 552 97.4294 43.1449 492.268
224 0 43.0125 12.136 522 101.017 43.3429 491.651
225 0 45.1996 12.2346 553 100.222 45.7215 489.365
226 0 44.103 10.9063 481 104.713 45.0249 489.127
227 0 48.0568 13.1511 632 100.013 43.807 489.158
228 0 48.1046 11.7868 567 104.302 44.1728 489.873
229 0 50.0675 14.1808 710 99.9014 43.5408 487.592
230 0 51.1796 12.9153 661 103.909 43.7806 485.484
231 0 52.0077 12.8058 666 105.129 43.1772 486.051
232 0 53.0496 13.6288 723 104.598 43.4786 484.206
233 0 54.0488 12.6182 682 107.742 43.1965 483.333
234 0 57.1465 13.0892 748 106.344 43.0348 484.68
235 0 60.1701 14.1266 850 103.916 42.8 479.579
236 0 59.1539 12.4252 735 108.235 42.8476 480.415
237 0 63.2038 13.9074 879 105.926 42.4107 478.71
238 0 65.1352 14.3548 935 104.24 43.8449 480.444
239 0 64.1005 13.51 866 108.308 44.0242 479.748
240 0 68.0765 14.1312 962 108.036 43.9543 477.362
241 0 69.2049 12.9904 899 111.917 43.9333 477.077
242 0 72.2538 13.3557 965 111.006 43.4321 474.868
243 0 75.2705 14.2553 1073 107.174 42.6831 473.974
244 0 78.1538 14.2923 1117 107.77 43.6786 473.825
245 0 79.2116 12.6749 1004 111.668 43.489 474.09
246 0 82.096 13.3015 1092 110.874 43.3104 471.336
247 1 46.1138 11.8619 547 111.42 43.9086 488.826
248 0 43.0736 10.0526 433 103.254 44.4711 484.03
249 0 51.0979 13.2686 678 109.152 44.4499 486.373
250 0 51.0481 12.7919 653 111.167 44.2006 485.959
251 0 53.0228 13.051 692 111.738 44.0564 484.452
252 0 52.0606 12.4086 646 114.605 44.6378 484.101
253 0 56.0977 12.5852 706 112.317 44.8725 484.449
254 0 59.0236 13.7911 814 109.552 44.6167 482.647
255 0 60.0944 13.4622 809 108.952 45.0902 482.409
256 0 60.0602 13.603 817 111.248 44.5141 480.262
257 0 62.0983 13.8973 863 109.911 44.226 481.285
258 0 64.064 13.9236 892 109.716 43.9933 479.332
259 0 66.2317 13.3622 885 111.211 43.7797 478.876
260 0 68.1594 14.6421 998 108.538 43.6984 475.898
261 0 71.1547 13.9415 992 109.285 44.1542 476.085
262 0 72.1243 12.5616 906 114.058 44.0066 477.066
263 0 74.0979 13.8466 1026 111.258 43.6715 475.182
264 0 77.1362 14.2734 1101 109.509 43.4087 474.388
265 0 79.1822 13.6773 1083 100.408 42.0693 468.435
266 0 80.3092 12.9499 1040 102.656 42.4731 468.512
267 0 84.1609 12.5593 1057 108.759 43.5535 472.165
268 0 86.1239 12.9 1111 108.237 44.1323 470.579
269 0 91.1836 13.9718 1274 105.454 43.6429 467.759
270 0 94.2273 15.4414 1455 100.932 44.5505 466.359
271 0 95.0773 13.1367 1249 106.239 43.257 464.716
272 0 101.146 15.0772 1525 101.386 43.1987 463.089
273 1 50.0329 10.9528 548 102.976 43.6223 487.763
274 0 53.158 12.6416 672 102.609 42.3244 484.693
275 0 55.05 13.0609 719 99.0528 44.1961 486.331
276 0 57.1051 12.7134 726 101.175 43.8375 484.452
277 0 57.019 12.8729 734 106.488 42.9183 485.484
278 0 58.0272 13.5109 784 105.565 43.2449 483.305
279 0 59.0662 12.9177 763 107.886 42.9581 482.332
280 0 64.0813 14.1539 907 103.579 42.8677 481.768
281 0 67.1314 13.3321 895 105.18 42.2101 480.015
282 0 66.2525 13.9768 926 106.253 42.2635 478.295
283 0 67.1555 11.9573 803 110.95 42.2702 477.501
284 0 72.1516 13.6657 986 106.446 43.211 477.655
285 0 72.0945 13.0662 942 109.545 43.1847 475.736
286 0 79.1137 14.2074 1124 104.538 42.8105 476.73
287 0 80.1148 13.8301 1108 107.104 42.6814 473.595
288 0 82.0874 14.9231 1225 106.691 42.8743 472.336
289 0 84.1084 14.8974 1253 107.811 42.6137 470.827
290 0 87.2553 13.8674 1210 110.212 42.8041 470.094
291 0 90.3229 13.8946 1255 109.89 44.9028 466.906
292 1 48.1231 11.5329 555 108.706 45.773 487.879
293 0 50.3473 11.4008 574 103.427 44.6812 485.765
294 0 51.1057 13.3253 681 107.827 43.4273 485.925
295 0 52.0626 13.5414 705 101.204 44.0298 487.024
296 0 53.0415 12.7259 675 104.541 43.4074 485.397
297 0 54.0835 12.9245 699 104.489 44.1774 485.9
298 0 56.0481 12.2573 687 104.914 43.9199 485.994
299 0 58.0646 12.7961 743 103.882 43.7187 484.232
300 0 59.1132 11.2834 667 107.199 42.6986 484.777
301 0 61.1439 13.2147 808 103.764 42.9171 483.293
302 0 65.0908 12.859 837 105.208 41.8925 481.688
303 0 68.182 13.508 921 104.915 41.6363 478.186
304 0 70.0609 12.3321 864 107.608 41.5637 477.708
305 0 72.1564 12.8055 924 105.378 42.3344 476.584
306 0 74.1149 12.4806 925 105.314 43.2454 474.533
307 0 77.1958 13.252 1023 104.715 42.219 473.051
308 0 77.1937 11.646 899 108.122 42.574 473.304
309 1 42.1007 11.9713 504 105.177 42.3135 490.796
310 0 43.1095 12.3407 532 101.226 41.8233 491.81
311 0 42.0594 11.2698 474 101.384 41.7954 491.536
312 0 42.1005 11.235 473 102.317 41.9894 492.093
313 0 45.02 12.7055 572 100.334 42.3496 489.872
314 0 46.0479 12.6607 583 103.331 41.4202 487.885
315 0 48.1073 11.3288 545 105.91 41.6128 488.53
316 0 48.048 12.1337 583 106.257 41.5986 487.136
317 0 52.0656 12.5035 651 104.442 41.8126 485.668
318 0 53.1221 11.8595 630 105.156 41.6064 487.321
319 0 53.1096 12.7284 676 104.371 42 485.368
320 0 55.1639 13.197 728 102.008 42.114 485.894
321 0 56.1041 12.4946 701 104.492 42.1369 485.746
322 0 58.0587 12.6251 733 106.396 41.8377 481.868
323 0 61.0839 12.5892 769 106.416 41.4343 481.13
324 0 62.0695 11.7449 729 109.398 41.1084 481.237
325 0 67.2858 12.1125 815 105.26 42.0233 479.112
326 0 68.1367 13.8839 946 102.704 43.4979 477.331
327 0 69.1873 13.6008 941 104.258 42.5048 476.804
328 0 72.1775 13.356 964 103.496 43.1349 477.213
329 0 74.1884 12.8861 956 104.573 42.8044 474.867
330 0 77.1384 11.434 882 98.7857 42.805 470.579
331 1 36.1085 8.47445 306 90.1863 42.7484 492.523
332 0 36.0232 9.99357 360 100.808 43.2694 494.925
333 0 38.0695 9.11491 347 102.712 43.562 496.256
334 0 38.0435 10.6194 404 100.064 43.5693 495.042
335 0 39.0353 10.9901 429 100.42 42.9604 493.522
336 0 42.1842 11.592 489 99.8609 42.9264 491.753
337 0 43.0587 11.3798 490 98.4184 43.1531 493.322
338 0 45.0224 12.5493 565 97.3912 43.3469 491.749
339 0 44.077 10.6178 468 101.184 42.9979 491.25
340 0 48.1522 11.9205 574 98.162 42.8066 490.634
341 0 49.0168 12.4651 611 97.5352 43.1686 490.221
342 0 51.1842 13.9301 713 95.676 42.9215 488.164
343 0 52.1607 12.1739 635 98.2961 43.7559 489.428
344 0 54.1002 12.6062 682 98.6144 43.5044 487.296
345 0 57.0457 12.8844 735 98.0803 43.6354 486.517
346 0 56.073 11.5742 649 101.305 43.6749 487.074
347 0 59.0794 12.2378 723 99.4246 42.3098 481.82
348 0 61.1494 14.4891 886 97.535 43.149 482.628
349 0 63.1075 11.9954 757 101.995 43.4663 484.985
350 0 65.0592 14.1256 919 99.7334 43.4026 480.948
351 0 66.0684 11.7908 779 104.856 44.0847 481.906
352 0 66.0684 11.7757 778 141.598 45.0913 482.15
353 0 71.0783 11.1567 793 107.458 44.1311 480.494
354 0 73.1167 13.1297 960 104.714 43.5854 477.892
355 0 78.296 12.6443 990 105.129 44.2596 478.499
356 0 80.1372 13.3271 1068 103.416 44.5833 473.174
357 0 85.1143 15.1561 1290 99.0016 44.5822 472.478
358 0 86.16 12.442 1072 105.54 44.1604 473.573
359 0 88.1717 13.6665 1205 110.096 43.2764 471.446
360 0 91.1365 13.1012 1194 110.778 43.0662 468.272
361 1 46.0192 11.5821 533 109.55 43.8612 492.827
362 0 45.0715 11.5816 522 112.724 44 491.006
363 0 47.1153 11.1004 523 113.067 44.3289 490.992
364 0 47.0836 12.1274 571 104.405 44.8091 490.625
365 0 50.0326 13.2314 662 100.63 44.9184 490.154
366 0 50.0627 11.3857 570 104.725 45.3404 489.93
367 0 51.1709 11.3736 582 107.28 45.4175 487.947
368 0 53.0914 11.9417 634 103.29 45.1009 487.913
369 0 56.1842 12.014 675 100.594 45.2519 487.687
370 0 60.0892 13.2137 794 96.1549 45.165 485.155
371 0 62.1576 12.6292 785 95.856 44.7592 483.434
372 0 63.105 12.3287 778 95.7172 44.8046 483.625
373 0 63.1569 11.9069 752 97.0971 45.4096 483.952
374 0 65.1218 12.4075 808 96.6572 45.1324 482.485
375 0 68.1737 13.8323 943 94.0679 44.7975 480.078
376 0 71.3275 13.2768 947 94.85 44.7075 480.428
377 0 74.1171 13.735 1018 92.4057 44.3173 478.059
378 0 77.1885 13.0719 1009 92.6829 43.4083 477.902
379 0 79.0954 13.705 1084 91.7878 43.7592 477.484
380 0 80.1044 12.4463 997 93.8947 44.2778 476.687
381 0 83.0519 13.341 1108 91.9865 43.5487 474.425
382 0 85.0824 12.2234 1040 94.6077 43.6106 471.03
383 0 92.2552 14.655 1352 88.2655 43.7833 468.604
384 0 92.1641 13.183 1215 92.4296 43.7934 467.137
385 1 47.1177 10.5056 495 93.3556 42.8727 489.806
386 0 50.1613 10.7852 541 93.976 43.3845 489.451
387 0 53.2065 13.2878 707 90.2518 42.9859 488.321
388 0 54.1157 11.4939 622 92.6334 43.6141 488.215
389 0 57.1562 12.947 740 90.2905 43.3365 487.192
390 0 57.1559 12.8246 733 94.0682 43.4352 485.093
391 0 58.196 10.9458 637 96.3721 43.3658 487.551
392 0 62.1178 13.3939 832 92.6803 43.4135 485.315
393 0 65.1086 14.5296 946 91.3393 43.5486 482.404
394 0 69.1485 14.2736 987 92.4924 42.9564 482.483
395 0 70.1478 13.5001 947 95.5206 43.642 479.791
396 0 72.2909 12.9477 936 102.162 43.1806 478.701
397 0 73.1771 13.9525 1021 100.711 43.2165 477.687
398 0 77.1602 13.8284 1067 98.9784 43.7245 478.09
399 0 82.1943 13.8331 1137 99.5664 44.4301 475.317
400 0 83.1431 14.7938 1230 98.0764 44.1439 473.559
401 0 85.0742 14.5637 1239 98.109 44.2962 472.945
402 0 88.1429 12.684 1118 100.047 43.5054 472.894
403 0 89.1771 13.4227 1197 101.263 43.858 468.685
404 0 94.2353 14.2091 1339 97.7991 44.7633 469.499
405 1 48.1349 10.8653 523 99.8623 43.0478 490.075
406 0 52.1029 12.341 643 98.5848 42.9098 489.086
407 0 53.0316 10.3523 549 104.226 46.1293 487.924
408 0 54.0633 12.9293 699 99.2904 45.5908 487.804
409 0 54.0564 10.1006 546 99.8095 44.7491 488.441
410 0 56.0762 13.5887 762 92.937 44.105 486.854
411 0 58.1608 13.3939 779 94.2182 44.3633 485.517
412 0 57.07 12.3533 705 97.6837 44.4411 485.871
413 0 57.1477 11.759 672 99.0938 44.5208 486.359
414 0 62.0416 11.8952 738 97.5163 43.9905 484.614
415 0 64.1724 12.2482 786 96.5891 45.3104 482.788
416 0 66.2126 11.75 778 98.0784 44.8856 481.764
417 0 69.132 11.7312 811 98.2429 44.6584 480.903
418 0 71.1251 13.4411 956 97.4059 42.7249 479.021
419 0 73.1239 15.4122 1127 94.4916 43.331 479.61
420 0 74.1669 12.2292 907 100.126 43.0882 480.841
421 0 78.2587 13.532 1059 99.9792 43.6185 477.137
422 0 80.244 14.4684 1161 98.4677 43.7743 475.389
423 0 84.2304 13.8786 1169 99.6826 43.5586 473.899
424 0 85.2986 14.1151 1204 99.686 43.5365 472.556
425 0 87.2109 12.9227 1127 101.909 43.8288 470.54
426 0 92.2493 13.8863 1281 100.271 43.8977 468.854
427 0 95.2048 12.5519 1195 103.285 44.0653 466.131
428 0 99.0489 13.7609 1363 100.826 43.7212 465.986
429 0 101.155 12.1497 1229 106.183 43.7543 464.098
430 0 107.343 13.9274 1495 101.858 43.3967 461.503
431 0 110.281 12.713 1402 104.123 42.9544 460.199
432 1 61.0383 12.3693 755 98.5483 43.9616 485.952
433 0 62.1006 12.4475 773 101.304 43.4217 484.607
434 0 64.162 12.4996 802 104.759 42.697 484.636
435 0 66.0625 13.1088 866 104.113 42.8395 480.397
436 0 67.1294 14.0028 940 102.097 43.4021 479.931
437 0 70.1234 14.0039 982 102.067 43.4196 481.587
438 0 73.1666 13.0387 954 104.105 43.6426 479.891
439 0 74.0791 13.5126 1001 103.853 43.8382 476.357
440 0 77.1906 14.5484 1123 101.39 44.4809 477.537
441 0 77.0698 12.7028 979 106.597 43.6701 477.21
442 0 81.1644 13.602 1104 105.484 43.6295 473.159
443 0 83.1745 14.151 1177 104.766 43.4732 472.16
444 0 85.3159 14.3936 1228 105.05 43.7923 472.467
445 0 89.2685 14.9437 1334 103.319 44.3051 470.762
446 0 90.405 13.5833 1228 105.987 45.3135 468.695
447 0 94.4954 13.8631 1310 106.211 44.9023 462.734
448 0 99.5538 14.6554 1459 104.448 44.8101 461.372
449 1 52.4872 10.5549 554 110.987 46.1264 484.152
450 0 56.0924 10.8571 609 110.342 44.3153 486.343
451 0 55.0719 11.8391 652 101.262 44.4233 486.474
452 0 57.0864 11.3337 647 100.45 44.7682 487.587
453 0 57.0546 9.70999 554 102.928 44.2726 487.924
454 0 60.0958 12.6465 760 98.2908 44.3395 486.301
455 0 61.0444 11.3851 695 102.142 44.4561 484.268
456 0 64.1691 11.0957 712 99.6517 43.5253 481.76
457 0 68.15 13.4556 917 95.9891 43.9237 478.912
458 0 70.0468 13.491 945 97.9936 43.3481 479.656
459 0 70.0765 12.6005 883 105.152 44.0838 480.069
460 0 72.1475 12.6685 914 105.082 43.6018 480.95
461 0 76.0732 13.6053 1035 104.357 42.7478 477.256
462 0 76.125 12.3218 938 107.219 42.8849 476.932
463 0 80.1686 13.2097 1059 104.396 42.9263 474.601
464 0 81.1908 12.7477 1035 107.698 42.8058 473.394
465 0 85.2896 12.9793 1107 106.756 43.7949 473.012
466 0 87.1976 12.4315 1084 108.435 43.3266 473.53
467 0 90.3399 13.9916 1264 105.786 43.5578 470.903
468 0 95.3396 15.2193 1451 102.99 43.5665 467.456
469 0 100.276 14.4901 1453 102.454 44.0716 466.347
470 0 104.119 15.2038 1583 101.526 43.7656 463.662
471 0 105.133 13.8396 1455 106.116 43.1278 463.136
472 1 59.0897 11.2541 665 105.995 42.3684 485.743
473 0 61.2555 11.9663 733 100.723 43.5157 480.879
474 0 61.1973 13.3666 818 101.386 43.2421 485.356
475 0 63.1426 13.2399 836 102.163 42.9605 484.701
476 0 68.1343 12.9744 884 101.626 43.8812 483.102
477 0 67.3831 13.03 878 103.273 44.2392 480.882
478 0 71.1478 14.9267 1062 100.073 44.3569 480.301
479 0 69.1765 11.4779 794 107.913 43.3363 483.186
480 0 75.1645 13.0381 980 105.184 43.7857 477.734
481 0 77.284 14.5438 1124 102.56 44.6886 477.101
482 0 78.4017 13.4691 1056 107.293 43.839 474.779
483 0 83.3751 16.3478 1363 100.238 43.799 475.279
484 0 83.6808 12.9659 1085 108.078 44.4691 471.588
485 0 89.5424 14.5406 1302 106.018 44.8464 470.212
486 0 88.3358 13.8562 1224 105.868 44.2835 467.703
487 0 88.2863 12.9352 1142 108.796 43.9282 465.998
488 0 92.2696 13.1571 1214 108.761 44.3649 464.988
489 0 99.4818 13.8116 1374 106.812 44.0706 461.646
490 0 100.396 15.0703 1513 104.384 44.649 460.03
491 0 103.435 15.3719 1590 103.181 44.2654 455.292
492 0 104.437 13.5871 1419 109.159 43.9415 451.154
493 0 110.507 13.8182 1527 109.029 43.2155 453.107
494 1 58.0976 12.5651 730 102.978 44.5384 480.671
495 0 60.0951 12.4303 747 103.032 44.4792 481.446
496 0 62.1539 12.7104 790 112.99 44.1899 482.796
497 0 64.1858 11.3421 728 115.891 44.3558 483.703
498 0 68.175 12.7613 870 112.764 44.3724 482.314
499 0 70.2351 13.7253 964 110.144 43.1857 478.823
500 0 71.1458 14.0275 998 113.541 43.6523 477.171
501 0 74.1876 13.358 991 114.182 43.5711 478.747
502 0 75.1871 12.9145 971 118.987 43.8713 475.81
503 0 77.1286 12.6931 979 118.774 44.4791 477.255
504 0 80.1313 13.5777 1088 118.358 44.4476 474.353
505 0 83.2628 13.2953 1107 117.349 43.7877 474.042
506 0 84.118 13.493 1135 118.844 43.696 473.418
507 0 86.0689 12.9431 1114 119.643 43.8932 472.186
508 0 87.1767 13.0769 1140 120.303 43.3509 471.541
509 0 89.064 13.4285 1196 117.093 43.2224 469.971
510 0 92.1816 13.2348 1220 114.266 43.3484 467.61
511 0 96.1396 13.4596 1294 116.65 43.0479 465.927
512 0 99.3838 13.4529 1337 116.331 42.5176 465.01
513 0 102.167 14.0162 1432 125.575 42.3219 464.41
514 0 105.32 13.3023 1401 121.166 42.8394 461.794
515 1 57.1204 12.7275 727 114.765 42.7015 485.008
516 0 59.1194 12.5847 744 105.145 44.6263 485.589
517 0 60.1069 12.0951 727 108.045 45.2779 484.634
518 0 61.1048 12.3885 757 108.404 44.8415 484.494
519 0 62.0678 12.2608 761 107.363 44.5335 485.849
520 0 63.0595 13.2415 835 107.757 44.5138 482.437
521 0 68.1323 12.2849 837 108.122 45.7515 481.36
522 0 70.1412 13.259 930 106.4 44.7602 479.291
523 0 70.1499 12.5303 879 108.928 44.7179 478.01
524 0 73.133 13.3319 975 105.907 44.8174 477.375
525 0 75.1277 11.953 898 107.161 44.1091 478.345
526 0 78.2113 13.016 1018 103.684 44.2033 477.967
527 0 79.1305 12.5615 994 105.519 43.6177 476.94
528 0 82.188 13.5056 1110 104.635 43.291 475.579
529 0 84.1416 13.0613 1099 106.156 43.4377 471.389
530 0 88.2844 13.2186 1167 104.52 44.2759 471.1
531 0 91.3617 12.456 1138 105.446 43.4218 469.72
532 0 93.1063 12.4374 1158 105.793 43.532 468.458
533 1 50.2195 12.067 606 101.917 41.9406 486.99
534 0 53.0761 13.2828 705 98.0114 42.0071 486.823
535 0 55.1372 12.6231 696 98.6925 44.3463 488.355
536 0 55.102 13.3207 734 98.9591 44.9796 486.643
537 0 53.0668 11.0427 586 105.092 45.2491 488.37
538 0 56.0757 12.8933 723 101.066 44.5878 487.109
539 0 56.0932 12.0157 674 102.95 44.7522 487.788
540 0 60.0765 12.4341 747 101.364 44.4485 487.11
541 0 61.0931 12.3582 755 101.26 44.9536 484.042
542 0 63.063 12.7016 801 100.438 43.8951 483.075
543 0 66.1847 12.3442 817 99.9718 44.8433 481.058
544 0 67.2744 12.9024 868 99.3502 44.477 481.684
545 0 69.1744 12.8227 887 100.539 45.1567 479.552
546 0 71.1638 12.3377 878 100.874 44.8292 480.459
547 0 73.1343 13.0582 955 100.517 44.4565 478.464
548 0 77.1129 13.383 1032 99.2955 44.6046 475.742
549 0 82.2223 15.4581 1271 93.4264 44.7648 470.963
550 0 83.1432 14.1563 1177 97.7859 44.9974 471.656
551 0 85.1246 13.4039 1141 99.9834 44.1507 472.569
552 0 87.059 11.7392 1022 105.208 43.5851 472.036
553 0 90.2064 11.2963 1019 106.274 43.6742 473.365
554 0 93.1205 12.0811 1125 107.073 43.2249 469.333
555 1 52.0453 13.2193 688 101.64 42.7776 490.362
556 0 51.0901 13.1728 673 103.156 43.3834 489.187
557 0 53.0869 13.0541 693 104.863 42.495 486.742
558 0 55.2362 12.3832 684 106.997 42.8655 486.237
559 0 57.0696 12.7038 725 105.954 43.5559 485.63
560 0 59.1288 12.9886 768 106.311 43.5273 486.932
561 0 61.1039 13.9435 852 103.915 44.1009 486.751
562 0 61.2479 13.0127 797 106.581 44.8507 484.812
563 0 61.1839 13.6147 833 99.6843 45.6351 484.461
564 0 64.2321 12.0345 773 102.514 45.7865 485.41
565 0 66.2184 14.0595 931 99.2406 45.782 483.636
566 0 68.1443 11.8719 809 99.6687 45.6527 481.488
567 0 68.2036 11.4217 779 100.643 45.8524 481.453
568 0 71.2172 13.1429 936 98.907 46.0395 480.319
569 0 73.134 13.6872 1001 98.2877 45.4236 479.625
570 0 75.2769 11.9027 896 101.79 45.2299 477.756
571 0 81.1619 13.011 1056 95.6544 45.4905 471.44
572 0 81.1102 12.6865 1029 99.0739 44.7706 478.369
573 0 82.1782 11.4994 945 102.511 44.9905 475.276
574 0 85.0999 11.3279 964 102.673 44.2863 473.975
575 0 89.1753 11.4606 1022 101.061 44.316 474.911
576 0 93.2195 12.8728 1200 99.4967 44.2642 469.678
577 0 95.1059 13.0802 1244 99.6133 44.2203 468.929
578 0 99.2049 12.6203 1252 100.861 44.7748 466.816
579 0 101.243 12.0503 1220 102.835 44.5943 465.111
580 1 55.0598 13.0222 717 100.717 45.4254 489.478
581 0 55.0566 11.4246 629 101.693 43.8649 489.188
582 0 55.0426 13.1535 724 99.2597 43.9627 486.916
583 0 57.0398 11.115 634 102.268 44.0205 489.423
584 0 60.0802 13.482 810 98.4123 44.1469 486.59
585 0 63.1081 13.6432 861 96.8084 43.6411 483.618
586 0 65.1747 13.0112 848 98.2111 43.4245 480.547
587 0 65.0629 11.8193 769 101.56 44.0962 482.354
588 0 68.1023 14.0377 956 97.4456 44.5209 480.156
589 0 70.0514 13.0761 916 99.4138 44.3341 480.299
590 0 72.1016 11.5393 832 102.601 44.5661 480.924
591 0 76.1776 12.7203 969 100.673 44.2714 478.228
592 0 78.208 13.4513 1052 98.9297 43.9924 479.203
593 0 82.2019 13.2965 1093 100.141 43.3907 469.324
594 0 85.1817 11.9274 1016 103.358 43.7185 473.518
595 0 86.1875 13.2154 1139 103.333 44.3608 471.865
596 0 90.0772 14.0657 1267 102.417 44.2092 469.499
597 0 92.1342 13.3501 1230 103.854 44.1146 470.955
598 0 97.1234 14.7853 1436 102.322 44.452 467.882
599 0 102.148 13.1182 1340 105.326 43.5239 463.319
600 0 104.17 13.8139 1439 105.017 42.9708 460.324
601 1 52.1753 11.6914 610 101.107 42.7426 485.138
602 0 54.0855 12.6836 686 98.6064 42.8061 487.708
603 0 57.0915 13.2769 758 98.5607 44.277 486.65
604 0 58.1584 13.2053 768 99.7643 43.7396 487.928
605 0 60.0625 12.2539 736 101.617 43.7595 485.465
606 0 62.1197 11.9125 740 101.882 43.7068 484.985
607 0 66.1778 14.9295 988 93.1518 43.7095 482.943
608 0 67.1723 12.6242 848 97.9222 44.0153 480.496
609 0 69.146 13.0449 902 98.5554 44.1563 480.17
610 0 72.2189 13.2375 956 100.141 44.5241 481.312
611 0 75.0616 13.2025 991 109.85 44.4844 477.027
612 0 77.0297 11.8785 915 112.744 44.3781 476.697
613 0 81.0508 15.0276 1218 105.274 44.5115 475.704
614 0 82.0612 13.9896 1148 100.64 43.7483 473.52
615 0 84.1639 13.5806 1143 107.927 42.9624 470.249
616 0 87.1682 12.6766 1105 103.148 42.5864 471.919
617 0 89.1707 12.549 1119 104.091 43.445 468.939
618 0 92.1649 12.9333 1192 105.08 43.0067 467.107
619 0 97.1803 14.1181 1372 102.734 43.6735 467.258
620 0 98.1707 12.407 1218 107.328 43.6938 463.248
621 0 103.088 12.2808 1266 107.944 43.9613 464.657
622 0 106.216 12.0415 1279 108.379 44.4339 463.112
623 1 54.0926 13.6433 738 100.263 45.3618 484.211
624 0 55.0181 13.2684 730 99.7932 43.9123 486.862
625 0 58.1533 14.1179 821 99.5493 43.4994 487.752
626 0 59.0409 13.0418 770 104.483 43.6091 487.718
627 0 58.0462 12.5245 727 108.099 43.2985 485.015
628 0 63.1198 13.4189 847 104.168 42.9858 485.122
629 0 66.1964 14.5929 966 102.924 42.8716 481.972
630 0 65.1661 12.2303 797 108.641 43.0276 483.798
631 0 67.2041 12.6778 852 108.16 43.3052 481.392
632 0 70.1625 13.5115 948 105.976 43.1445 479.834
633 0 74.1649 12.9172 958 106.674 43.3653 480.606
634 0 76.1856 13.9528 1063 106.32 43.3471 477.888
635 0 79.0848 13.3654 1057 108.413 42.9394 477.046
636 0 80.2744 13.0428 1047 109.855 42.6342 475.041
637 0 84.2077 14.2624 1201 106.938 43.3564 473.42
638 0 88.2993 14.9378 1319 104.105 43.0902 472.539
639 0 89.107 13.4557 1199 105.79 42.8424 470.966
640 0 92.276 12.9828 1198 107.316 42.5367 469.872
641 0 96.123 14.1485 1360 106.908 43.3184 465.798
642 1 52.0699 13.0978 682 103.205 43.522 488.535
643 0 54.0219 12.3468 667 106.304 42.9295 489.664
644 0 56.1479 12.6808 712 110.513 43.1124 488.358
645 0 58.1228 14.4866 842 99.4679 43.4667 488.743
646 0 57.0369 14.1838 809 102.68 43.7577 488.953
647 0 58.099 13.9417 810 103.646 44.3025 487.917
648 0 60.0608 11.6549 700 107.139 44.1214 488.65
649 0 64.1011 13.3071 853 103.991 42.8277 483.592
650 0 65.0432 13.5756 883 104.035 44.2831 482.391
651 0 68.1321 13.0482 889 104.908 44.1282 482.02
652 0 71.1691 14.3321 1020 102.59 44.5588 479.952
653 0 72.1326 13.6415 984 105.397 43.813 479.938
654 0 73.0546 11.8405 865 109.171 43.3965 481.289
655 0 76.0732 12.9349 984 108.871 43.5203 478.623
656 0 78.2212 12.6948 993 108.821 43.8761 478.07
657 0 84.1729 13.793 1161 106.676 44.8854 476.235
658 0 85.1082 12.537 1067 111.091 43.4536 474.941
659 0 90.2287 13.0003 1173 108.095 43.4118 473.543
660 0 91.2012 13.4538 1227 108.567 43.8321 472.694
661 0 95.1767 12.8183 1220 110.509 43.8762 468.937
662 0 98.2295 13.3259 1309 107.883 44.1047 468.374
663 1 55.1719 12.5245 691 105.117 44.6353 488.851
664 0 57.0528 14.7232 840 98.9179 44.2869 487.079
665 0 58.1082 13.4921 784 98.7028 44.4579 487.051
666 0 60.1539 13.2992 800 98.4325 44.01 487.161
667 0 62.1046 12.9781 806 95.5347 44.7556 485.586
668 0 63.2261 12.0204 760 99.8316 42.8118 485.226
669 0 63.1148 13.1506 830 96.9699 42.7494 482.848
670 0 68.0418 12.6099 858 105.594 44.2261 483.417
671 0 69.0652 13.0601 902 105.836 44.367 479.988
672 0 73.1154 13.2257 967 104.837 44.3723 480.182
673 0 77.0615 14.4819 1116 101.628 43.69 477.318
674 0 78.1448 13.2574 1036 104.106 44.1458 479.353
675 0 81.0549 13.4353 1089 103.553 43.8375 477.305
676 0 84.0672 13.6795 1150 102.162 44.2948 476.324
677 0 83.2831 13.6642 1138 97.8787 43.2724 474.209
678 0 87.3756 12.6122 1102 97.2241 44.2015 472.896
679 0 91.2747 12.3912 1131 99.6048 43.3563 470.454
680 0 94.4297 14.0951 1331 101.651 43.7122 468.864
681 0 98.3957 14.1775 1395 100.186 44.1986 469.661
682 1 53.3441 11.154 595 98.3311 43.5445 490.519
683 0 55.4439 13.437 745 96.5718 43.0201 487.415
684 0 57.1683 12.9442 740 100.508 43.6568 487.764
685 0 59.212 12.9534 767 93.6102 44.7927 488.445
686 0 60.2802 13.7193 827 93.1463 44.8186 486.571
687 0 61.1407 13.1173 802 94.5686 44.2032 486.446
688 0 64.0605 12.9877 832 93.3185 43.774 487.802
689 0 64.1237 12.5695 806 95.5012 43.9218 484.354
690 0 65.084 12.4916 813 96.3432 44.2362 484.554
691 0 69.1506 13.4778 932 93.2264 44.397 480.649
692 0 73.077 14.1221 1032 90.5174 44.4099 481.41
693 0 73.1289 12.0062 878 96.3713 44.4226 479.921
694 0 78.1127 12.5076 977 94.087 43.9539 481.388
695 0 79.2903 13.0659 1036 99.0965 43.7201 477.074
696 0 82.1876 11.6928 961 100.623 43.3195 478.056
697 0 84.1553 12.0492 1014 99.8471 43.9921 476.223
698 0 86.1111 12.96 1116 98.6873 43.1953 474.082
699 0 90.2854 12.3719 1117 99.5542 43.9284 471.913
700 0 93.3535 11.3975 1064 102.985 43.5846 469.298
701 0 98.4006 13.1808 1297 99.485 43.3608 467.813
702 1 51.2286 10.5995 543 97.14 44.418 488.851
703 0 55.1511 13.6171 751 94.4501 43.8469 487.791
704 0 55.1434 12.2771 677 97.7061 43.774 487.313
705 0 62.1812 13.2837 826 101.762 43.2119 485.533
706 0 60.2944 12.7209 767 103.471 43.1525 486.555
707 0 62.181 13.2838 826 101.61 43.247 486.914
708 0 63.2645 13.3092 842 102.425 43.1615 485.791
709 0 66.167 11.8337 783 104.415 42.9681 482.953
710 0 68.1232 12.5948 858 101.227 43.2284 484.237
711 0 71.3778 12.4969 892 101.844 43.1928 480.596
712 0 73.3586 12.5957 924 102.885 42.4913 478.262
713 0 77.4584 14.2141 1101 99.446 42.4314 476.82
714 0 77.2593 12.0115 928 104.065 42.6282 478.178
715 0 80.2284 11.6667 936 104.671 42.6175 476.279
716 0 84.191 12.6498 1065 103.217 42.9352 473.631
717 0 88.2111 15.6443 1380 97.5551 43.0855 469.129
718 0 90.2263 12.3135 1111 104.035 43.3285 473.401
719 0 94.2716 13.5778 1280 102.802 43.3625 468.734
720 0 96.6145 12.9691 1253 103.523 43.0391 466.99
721 1 49.3714 12.4971 617 104.392 43.6451 488.679
722 0 51.3805 13.4487 691 103.415 43.7959 487.012
723 0 54.5467 13.1264 716 102.603 43.8645 485.899
724 0 55.348 12.4304 688 101.812 43.3837 484.965
725 0 55.1324 11.8079 651 104.029 44.49 487.776
726 0 58.2049 12.4903 727 103.38 44.2971 487.776
727 0 58.241 12.0705 703 104.321 44.2091 488.238
728 0 62.105 12.2856 763 103.595 44.7104 488.014
729 0 64.1263 13.2395 849 102.516 44.0106 485.256
730 0 65.1633 12.6298 823 102.849 44.2697 485.406
731 0 70.199 13.7751 967 100.783 44.0879 476.973
732 0 73.1275 14.9328 1092 98.6016 43.5742 480.844
733 0 74.2356 13.6727 1015 101.532 43.7704 481.289
734 0 74.0752 13.4728 998 102.703 43.1994 479.991
735 0 79.1474 14.0497 1112 102.173 43.4802 478.043
736 0 82.0945 13.3261 1094 102.516 43.9762 477.123
737 0 86.1194 13.6322 1174 100.928 43.5537 471.973
738 0 89.0336 14.882 1325 101.215 43.6566 472.264
739 0 93.3298 13.5327 1263 102.072 43.7142 472.997
740 0 95.1518 13.9882 1331 101.995 43.1488 472.509
741 1 53.1105 11.4478 608 102.923 42.6398 493.191
742 0 55.1267 14.4939 799 98.7334 44.6245 488.906
743 0 56.1027 14.3843 807 100.309 44.254 488.649
744 0 59.0233 15.4176 910 95.4198 42.9604 489.457
745 0 60.0536 14.4538 868 98.3122 43.2108 488.058
746 0 61.0781 13.2617 810 102.154 42.9494 485.53
747 0 61.0937 13.5038 825 105.411 43.6461 486.925
748 0 64.2176 13.9058 893 104.259 44.1445 484.885
749 0 73.0559 17.3018 1264 95.75 44.7595 477.688
750 0 71.1126 15.4262 1097 104.138 44.4549 479.722
751 0 72.1097 13.8955 1002 107.922 44.8273 481.596
752 0 74.1096 14.3031 1060 108.193 44.1708 480.461
753 0 77.1076 13.773 1062 110.489 44.1177 479.465
754 0 80.1475 14.4109 1155 109.604 43.5074 477.084
755 0 80.1849 13.3317 1069 113.709 43.6165 478.686
756 0 85.052 14.0149 1192 111.07 43.4069 479.013
757 0 86.1042 13.7043 1180 111.185 44.1924 473.007
758 0 90.1706 13.0087 1173 109.233 44.1202 471.111
759 0 96.1748 14.0265 1349 104.479 43.3336 463.122
760 0 97.1582 13.2053 1283 106.559 43.3882 464.995
761 1 53.0394 10.9353 580 98.2155 43.3069 488.069
762 0 54.1783 12.9572 702 94.2122 43.6994 488.811
763 0 56.1335 14.3586 806 93.4516 44.5012 489.489
764 0 57.0945 11.6824 667 99.3838 44.8501 490.027
765 0 58.2268 13.0181 758 101.79 44.8892 488.447
766 0 62.1199 12.991 807 100.802 44.6989 488.765
767 0 61.0859 14.4387 882 100.531 44.6961 485.405
768 0 64.0687 13.5948 871 102.053 44.7784 486.033
769 0 70.151 14.9249 1047 95.9943 44.5263 483.737
770 0 71.1388 14.0149 997 100.296 44.1755 482.077
771 0 74.0868 15.1984 1126 95.3366 44.3037 482.342
772 0 75.1154 13.1398 987 103.663 43.8744 480.619
773 0 79.0725 14.7333 1165 100.317 42.9365 479.554
774 0 80.046 13.9795 1119 102.872 43.6542 479.201
775 0 84.1438 13.774 1159 102.174 42.8387 474.041
776 0 86.0848 16.0307 1380 98.8377 43.0594 474.099
777 0 90.1418 14.9653 1349 100.948 42.6583 474.488
778 0 93.0729 14.8271 1380 107 42.971 474.02
779 0 95.0855 13.9979 1331 104.383 43.5432 471.791
780 0 98.1551 16.4739 1617 100.577 43.201 466.813
781 0 103.329 14.391 1487 105.235 43.1822 468.085
782 0 105.297 13.4097 1412 107.492 43.6912 464.846
783 1 53.1483 11.7784 626 103.653 44.0479 490.78
784 0 58.0968 12.7718 742 99.779 43.5256 489.109
785 0 57.2196 13.1773 754 103.573 43.1711 486.763
786 0 60.1086 12.8101 770 109.26 43.7481 488.916
787 0 62.1308 13.7452 854 108.525 44.103 487.471
788 0 62.0564 12.9721 805 110.79 43.4981 488.748
789 0 66.113 14.0668 930 109.034 42.8914 486.173
790 0 68.1527 14.042 957 108.814 44.0836 484.784
791 0 71.1877 14.0755 1002 109.502 43.5579 483.25
792 0 73.1255 15.5486 1137 106.713 44.0616 482.512
793 0 75.0953 14.1154 1060 109.514 43.9 482.369
794 0 76.0858 14.5362 1106 110.222 43.7505 480.119
795 0 81.2572 15.3586 1248 109.172 43.754 477.482
796 0 83.1585 14.8632 1236 108.971 43.2395 478.308
797 0 86.2323 13.9391 1202 111.735 43.5857 476.918
798 0 86.4236 13.0983 1132 115.057 43.5194 475.391
799 0 91.2126 14.8115 1351 111.206 43.319 472.559
800 0 96.3208 15.4484 1488 108.904 42.7204 469.631
801 1 49.0815 11.8986 584 107.639 43.5223 496.094
802 0 48.2557 12.7861 617 115.125 43.0859 489.737
803 0 52.2965 14.5325 760 109.789 43.3263 486.834
804 0 53.0571 13.9661 741 113.814 43.9217 487.294
805 0 54.0164 13.1627 711 113.806 44.5471 488.405
806 0 55.0806 13.1807 726 114.247 44.6667 487.2
807 0 59.0979 13.8922 821 110.853 44.2375 486.585
808 0 62.0712 13.6295 846 109.309 44.9397 485.973
809 0 61.0535 12.9067 788 112.775 44.5698 484.462
810 0 66.0359 15.4007 1017 105.545 44.3176 482.964
811 0 66.0224 14.1467 934 109.591 44.0589 481.458
812 0 68.0483 14.7395 1003 107.312 44.5274 482.356
813 0 73.0619 14.2756 1043 107.927 43.744 481.718
814 0 74.1572 13.3635 991 110.766 43.2533 480.827
815 0 78.0615 13.8352 1080 108.44 43.462 480.181
816 0 80.2925 14.1607 1137 110.281 42.6332 474.303
817 0 82.091 13.9358 1144 107.7 43.6163 476.472
818 0 86.2164 13.7793 1188 105.662 43.7601 476.671
819 0 88.1724 13.6778 1206 107.014 43.2852 474.478
820 0 90.1913 12.7507 1150 103.126 43.5539 471.106
821 0 93.2084 14.1618 1320 101.178 43.0311 469.952
822 0 97.2396 13.8421 1346 101.941 43.549 468.118
823 1 48.1916 12.0561 581 98.1876 42.58 492.448
824 0 49.0778 12.307 604 98.8758 42.7533 492.57
825 0 49.0866 11.8566 582 99.9656 42.6392 492.23
826 0 53.0977 14.2944 759 96.357 42.4677 490.52
827 0 53.2239 12.8702 685 97.1635 42.5328 492.193
828 0 57.0496 14.7766 843 94.0166 42.6014 488.282
829 0 58.1648 12.9116 751 95.6644 42.8788 489.884
830 0 61.1205 13.7924 843 92.3511 42.4614 485.762
831 0 62.0918 14.849 922 90.5445 42.7137 484.56
832 0 64.3085 19.9196 1281 61.6643 43.2802 484.404
833 0 65.2029 13.4196 875 93.7623 42.824 484.518
834 0 65.1303 12.8972 840 106.411 43.4345 483.507
835 0 72.1372 14.8051 1068 100.287 42.9981 482.36
836 0 71.1718 13.5868 967 101.448 42.2503 481.42
837 0 74.1839 13.844 1027 100.291 43.1957 479.906
838 0 74.193 14.0984 1046 95.5832 42.6874 476.605
839 0 79.099 13.9193 1101 101.879 42.7484 477.324
840 0 82.3314 14.053 1157 98.8963 42.3016 478.751
841 0 83.2167 13.3267 1109 100.28 42.2326 476.683
842 0 88.3227 15.4886 1368 98.606 42.3757 466.758
843 0 91.3486 13.6948 1251 103.16 42.0959 468.068
844 0 94.5799 14.4957 1371 103.444 41.9504 466.492
845 0 97.5597 14.7807 1442 100.934 42.5853 467.071
846 0 98.3442 13.5443 1332 104.373 42.5248 464.498
847 0 103.454 14.1996 1469 102.318 42.4459 462.861
848 1 48.2651 11.9548 577 97.9133 41.6482 487.683
849 0 50.4014 11.8846 599 98.9466 41.9633 485.083
850 0 53.3152 12.8294 684 97.4547 41.3699 485.276
851 0 57.2776 14.6654 840 92.8476 42.1798 485.367
852 0 59.2599 11.8967 705 98.4823 41.7858 485.421
853 0 61.1478 13.1158 802 95.0661 41.9264 485.771
854 0 62.1126 13.6526 848 95.5118 43.4752 482.638
855 0 67.084 14.698 986 92.5101 43.0112 484.149
856 0 67.1273 12.4242 834 97.0228 43.1894 482.128
857 0 70.1679 12.5983 884 97.2093 43.1222 481.527
858 0 69.1518 11.4097 789 103.731 42.7389 482.323
859 0 75.0582 14.3622 1078 96.4026 43.2263 479.852
860 0 77.0913 13.3219 1027 95.3184 42.4869 476.102
861 0 79.1314 13.7872 1091 99.1201 42.5967 475.197
862 0 82.2522 14.0179 1153 98.3955 43.0538 477.339
863 0 85.1585 13.5395 1153 99.418 43.0442 475.245
864 0 84.0712 11.9304 1003 103.232 43.1117 474.825
865 0 88.1525 13.3292 1175 100.774 42.3881 466.224
866 0 92.2688 13.4498 1241 100.632 42.531 466.512
867 0 94.592 13.5212 1279 99.9281 42.846 468.131
868 0 98.4433 13.0532 1285 102.294 43.3043 462.826
869 0 101.641 13.1344 1335 100.8 42.0891 460.96
870 1 53.3147 10.3161 550 93.8927 41.0582 487.685
871 0 54.1103 11.0145 596 94.0805 42.0705 489.705
872 0 56.1733 11.3221 636 94.1399 43.1022 489.09
873 0 55.0693 11.3493 625 95.3568 43.2912 488.587
874 0 58.1176 10.7885 627 97.445 42.5072 487.99
875 0 61.2154 13.0359 798 94.3697 43.2256 482.766
876 0 63.1756 10.7478 679 98.7113 43.7555 482.437
877 0 66.1274 10.9183 722 99.0194 43.9529 480.81
878 0 67.1013 11.2069 752 98.516 43.2287 482.64
879 0 70.1228 11.7793 826 98.6465 43.3136 480.384
880 0 72.1278 13.5593 978 96.2198 43.1432 479.289
881 0 77.1832 11.6865 902 99.6585 43.0011 479.442
882 0 79.136 12.9271 1023 99.1124 43.2014 477.247
883 0 81.1342 12.4855 1013 99.6614 41.7957 471.924
884 0 85.3535 12.0557 1029 112.58 42.5656 471.935
885 1 45.1033 10.3318 466 112.292 41.7189 494.122
886 0 46.0903 11.3256 522 110.824 43.7931 492.954
887 0 45.226 11.2767 510 101.484 43.8765 492.733
888 0 50.2173 14.3377 720 106.064 42.0306 489.792
889 0 51.0475 13.6344 696 106.912 41.9167 490.789
890 0 50.0629 12.3445 618 110.73 41.678 491.139
891 0 53.2059 12.8933 686 108.168 41.9257 491.506
892 0 52.1181 12.1647 634 111.65 42.4006 489.842
893 0 55.0508 12.7337 701 109.225 42.0913 489.679
894 0 55.1974 11.3411 626 113.319 41.8786 488.045
895 0 58.1742 12.4797 726 109.868 41.8926 486.667
896 0 59.1603 11.7139 693 112.202 42.2843 486.449
897 0 60.1374 12.8206 771 109.643 42.5564 486.76
898 0 64.1494 13.6712 877 106.502 41.8518 484.456
899 0 65.1164 12.301 801 108.11 41.4232 482.879
900 0 67.2898 12.7508 858 108.093 41.9242 483.987
901 0 67.1778 13.3228 895 107.815 41.7642 482.23
902 0 71.1153 13.3023 946 108.211 41.6395 480.709
903 0 73.1699 13.4482 984 107.547 41.5528 478.976
904 0 75.1656 12.8516 966 108.968 41.5838 479.381
905 0 77.1156 12.8379 990 109.463 41.9586 477.927
906 0 80.0404 12.6436 1012 109.756 40.7895 475.338
907 1 41.0677 11.3715 467 104.27 41.4197 496.126
908 0 41.0857 11.0257 453 104.146 42.7815 496.916
909 0 43.0841 11.698 504 102.567 43.6825 494.329
910 0 44.2548 11.2078 496 91.1593 43.0504 488.131
911 0 43.0309 11.2245 483 94.2795 43.2112 486.257
912 0 47.0562 13.7283 646 99.7864 43.692 492.508
913 0 47.2157 12.517 591 103.144 43.5279 491.912
914 0 50.1999 13.267 666 100.26 43.2778 492.084
915 0 50.122 13.3275 668 100.503 43.0778 491.139
916 0 51.1155 12.2468 626 103.511 43.0399 491.725
917 0 54.1942 13.0641 708 100.154 42.9746 490.524
918 0 55.0675 15.0361 828 95.2669 43.1969 488.94
919 0 55.1121 13.2639 731 102.343 41.7127 488.744
920 0 57.1881 14.2512 815 100.348 41.8491 487.481
921 0 59.0731 12.7131 751 102.553 41.5526 487.007
922 0 60.1405 12.9031 776 100.74 41.5296 486.997
923 0 62.1264 13.7784 856 99.9287 42.3785 485.792
924 0 65.1065 13.4395 875 99.7097 42.4914 484.866
925 0 65.0722 13.462 876 103.672 42.6142 482.974
926 0 68.0824 13.4984 919 102.598 42.1219 482.213
927 0 72.1074 14.4091 1039 99.5842 41.3263 480.099
928 0 74.2897 13.9319 1035 100.681 41.9256 479.195
929 0 76.1562 13.0653 995 102.493 42.2523 478.075
930 0 79.1398 16.553 1310 95.6473 42.3573 476.11
931 0 80.2154 14.0746 1129 101.329 42.4517 474.418
932 1 47.0896 12.954 610 101.597 42.8082 493.689
933 0 46.0986 11.5839 534 106.303 42.7734 492.983
934 0 48.0235 11.6401 559 108.018 41.9213 491.181
935 0 50.193 12.5117 628 105.078 42.4729 489.763
936 0 51.0684 12.2385 625 106.738 42.0048 490.085
937 0 51.1877 13.5775 695 104.881 42.0446 487.868
938 0 55.1925 14.3317 791 100.57 42.6789 489.269
939 0 54.1138 12.9542 701 106.01 42.6961 487.01
940 0 56.3127 12.3951 698 106.99 42.9628 485.54
941 0 58.2724 13.8144 805 103.163 43.0012 484.768
942 0 59.2299 13.8613 821 102.674 43.2631 484.954
943 0 59.1742 13.3842 792 105.112 42.0328 484.475
944 0 61.1286 14.3632 878 102.197 42.3622 484.134
945 0 64.1369 13.3776 858 103.717 42.8951 481.927
946 0 66.1889 14.2169 941 102.287 42.8789 480.504
947 0 68.2251 13.8072 942 103.722 42.1667 479.837
948 0 70.3762 14.6214 1029 102.449 43.1312 478.593
949 0 71.1904 13.7097 976 105.167 42.7766 479.096
950 0 75.1752 14.0472 1056 104.114 43.2273 478.443
951 0 75.1552 13.3457 1003 107.389 42.7866 475.973
952 0 79.1557 13.3913 1060 106.948 42.1358 474.592
953 0 86.3423 18.0329 1557 94.0347 42.7816 471.389
954 0 84.2103 13.8819 1169 106.141 42.8306 472.688
955 0 83.0354 13.3437 1108 103.812 42.7572 473.865
956 1 45.0324 12.7464 574 104.822 42.1742 491.93
957 0 47.0156 13.9954 658 98.0593 42.4043 490.777
958 0 49.1243 12.5803 618 98.7816 43.0922 491.816
959 0 50.1133 11.8332 593 100.707 41.6037 491.553
960 0 51.0327 12.9133 659 100.634 41.4522 489.231
961 0 51.1439 12.7875 654 102.069 41.9572 488.237
962 0 54.0673 14.7964 800 97.9725 42.2812 487.149
963 0 56.1772 12.0689 678 102.428 41.9808 488.289
964 0 58.0518 13.9531 810 99.8086 41.8605 484.969
965 0 57.0768 11.8787 678 104.854 42.9587 485.854
966 0 62.0673 13.9365 865 99.4 42.9272 485.45
967 0 62.0709 13.5974 844 101.385 42.673 485.682
968 0 65.1656 13.458 877 101.965 43.5382 482.64
969 0 68.1416 13.7214 935 101.451 43.8738 482.261
970 0 70.0866 13.4548 943 102.801 43.6649 482.099
971 0 70.1153 14.5189 1018 102.251 43.9705 478.501
972 0 73.1435 14.6561 1072 102.722 43.1595 477.482
973 0 75.1758 12.943 973 106.126 42.372 478.336
974 0 82.3312 15.4619 1273 98.2757 42.7431 474.411
975 0 82.1172 14.7838 1214 102.472 42.0675 472.713
976 0 82.1744 13.5444 1113 105.51 41.858 474.22
977 1 46.12 13.4649 621 102.043 43.0982 492.395
978 0 44.1198 12.2847 542 102.963 43 493.168
979 0 47.2761 13.326 630 101.394 43.3508 489.938
980 0 49.1532 14.1395 695 99.4576 44.0863 489.37
981 0 51.0458 14.3009 730 98.4356 43.7849 490.964
982 0 50.0936 14.3731 720 100.85 43.3278 488.378
983 0 51.0571 13.1422 671 103.662 44.0358 490.308
984 0 54.0475 13.2291 715 103.319 43.8014 487.887
985 0 55.1835 14.7327 813 101.23 42.7614 486.567
986 0 56.0353 13.8841 778 103.94 43.1183 487.28
987 0 57.026 13.3448 761 105.108 43.5703 486.944
988 0 58.0614 13.7096 796 105.285 43.755 485.748
989 0 61.1962 14.5924 893 103.384 43.9821 484.421
990 0 64.1667 15.974 1025 101.279 43.001 483.42
991 0 66.2143 13.7584 911 106.944 42.9144 482.544
992 0 68.2081 14.8516 1013 105.843 42.7384 481.093
993 0 69.0785 13.9696 965 110.018 43.5834 479.001
994 0 72.087 16.1749 1166 105.378 43.1012 479.365
995 0 71.1147 14.6383 1041 111.108 43.0029 478.429
996 0 74.0713 14.5266 1076 111.205 43.1245 477.758
997 0 82.0724 16.7535 1375 103.628 42.9069 471.403
998 0 79.1372 13.7862 1091 113.252 42.5344 476.231
999 0 79.1499 13.6955 1084 116.807 42.1808 473.375
1000 0 85.272 14.917 1272 112.024 43.0267 471.06
1001 0 88.1866 14.6054 1288 112.026 42.4697 471.254
1002 0 91.1009 14.5553 1326 112.382 42.4834 466.832
1003 0 96.13 15.1358 1455 109.891 42.8777 466.878
1004 0 99.2455 15.0032 1489 108.269 43.2861 464.345
1005 0 101.164 14.6594 1483 105.95 43.1146 457.157
1006 1 50.1054 10.6176 532 102.534 43.4342 483.741
1007 0 53.0383 12.9717 688 102.16 43.3735 486.587
1008 0 57.1452 13.3345 762 99.8963 43.4383 486.896
1009 0 60.0684 13.0518 784 99.889 43.2972 485.38
1010 0 61.0315 12.7147 776 99.6327 43.4497 485.885
1011 0 63.0392 13.6423 860 99.1267 43.6954 482.422
1012 0 66.1586 13.6339 902 98.429 43.0188 478.38
1013 0 67.0436 13.8716 930 98.5161 43.2753 480.961
1014 0 70.0724 13.4718 944 97.7415 43.6049 481.982
1015 0 72.0391 12.1878 878 100.592 42.8759 479.491
1016 0 73.1412 11.6624 853 102.165 43.0293 479.743
1017 0 76.1136 14.8462 1130 97.2611 42.6478 477.97
1018 0 76.1795 13.2056 1006 96.3191 42.9056 465.818
1019 0 80.1436 12.7396 1021 106.165 43.1606 470.857
1020 0 84.2766 13.9659 1177 105.822 43.045 472.912
1021 0 85.2878 12.8975 1100 108.24 43.0145 471.992
1022 0 88.3402 13.8782 1226 105.96 42.7781 470.06
1023 0 95.4917 16.326 1559 99.8159 42.5844 466.507
1024 0 97.4157 15.2542 1486 103.664 42.7241 463.666
1025 0 99.2495 13.1588 1306 101.632 42.193 462.805
1026 0 104.229 13.2497 1381 103.083 42.656 461.119
1027 0 108.177 14.2359 1540 101.162 42.5695 462.213
1028 1 61.1214 13.5141 826 100.074 43.1792 485.438
1029 0 59.132 13.4276 794 97.8212 43.5781 484.603
1030 0 60.1465 10.9233 657 103.601 43.8174 485.892
1031 0 62.1395 12.0213 747 103.153 43.7042 482.058
1032 0 66.1035 14.6437 968 100.349 43.5899 482.555
1033 0 67.1076 12.9046 866 105.161 44.5589 479.4
1034 0 70.0946 12.9682 909 106.004 44.3278 477.392
1035 0 72.0681 13.3901 965 105.934 43.801 479.29
1036 0 73.0531 13.9077 1016 106.543 43.7569 478.204
1037 0 76.1629 13.4186 1022 108.73 43.1507 477.7
1038 0 78.2097 12.313 963 110.708 43.9564 477.917
1039 0 86.1678 16.2938 1404 101.179 43.735 467.451
1040 0 84.3828 14.0313 1184 109.565 43.6334 470.378
1041 0 87.2474 14.5334 1268 109.317 43.2547 470.178
1042 0 90.1341 13.8238 1246 111.669 43.7753 470.065
1043 0 93.1177 14.4656 1347 109.577 43.6993 468.145
1044 0 95.1899 12.8165 1220 114.339 44.2598 465.634
1045 0 99.1755 14.9634 1484 108.634 44.093 460.331
1046 1 53.1604 10.0827 536 111.976 43.347 483.868
1047 0 54.2436 10.2501 556 107.205 44.4766 479.344
1048 0 56.0417 11.2773 632 112.027 44.2294 482.559
1049 0 59.0888 11.6097 686 99.6778 43.9023 487.108
1050 0 59.0545 10.2448 605 103.749 44.0132 483.902
1051 0 62.1533 10.3776 645 101.777 44.4558 485.833
1052 0 66.1278 13.2773 878 96.6241 44.0592 483.043
1053 0 67.0453 11.7383 787 98.615 45.1283 482.868
1054 0 67.1 11.2817 757 101.095 45.107 480.034
1055 0 73.0898 13.887 1015 95.0778 44.534 478.765
1056 0 75.146 13.5869 1021 96.6415 44.2311 476.372
1057 0 76.1267 11.6648 888 100.404 44.527 477.037
1058 0 79.1233 12.6132 998 98.8878 44.4469 474.706
1059 0 82.0805 11.8908 976 99.9744 44.3811 474.874
1060 0 84.2683 11.8194 996 100.339 43.4227 473.149
1061 0 86.1479 12.4785 1075 100.538 43.8233 470.339
1062 0 89.2096 11.7252 1046 101.394 43.8069 470.594
1063 1 50.0896 11.2398 563 97.6377 43.9858 490.298
1064 0 50.1319 13.1453 659 93.742 43.4795 489.173
1065 0 50.1475 10.8081 542 96.4539 43.6162 491.151
1066 0 51.1152 11.9338 610 96.0393 43.3934 489.961
1067 0 51.134 10.1694 520 99.4731 44.0096 488.073
1068 0 54.1542 12.0028 650 96.1631 43.7554 487.246
1069 0 55.1481 12.4392 686 95.1764 43.6749 487.878
1070 0 58.2766 10.6904 623 97.2472 43.7592 488.254
1071 0 58.1816 12.1344 706 96.585 43.289 486.276
1072 0 61.141 13.4443 822 94.2883 43.7652 485.652
1073 0 62.1715 12.369 769 96.6099 43.4109 484.819
1074 0 63.2239 11.2457 711 97.9789 43.775 484.955
1075 0 65.1152 13.0692 851 95.5417 43.6745 482.878
1076 0 67.3194 12.0768 813 97.5166 42.5879 479.936
1077 0 71.3556 12.0803 862 96.9234 42.652 479.527
1078 0 73.3053 13.587 996 94.5542 42.8062 480.434
1079 0 77.1125 12.605 972 96.4311 43.6307 478.512
1080 0 78.1843 13.8647 1084 95.6042 42.7629 476.223
1081 0 80.1909 12.2582 983 99.6144 42.7955 474.695
1082 0 83.274 12.681 1056 99.5672 44.0521 470.89
1083 0 86.2414 12.6969 1095 101.067 43.3233 470.337
1084 0 89.2418 12.4605 1112 102.57 42.6349 470.937
1085 0 92.3516 13.676 1263 102.693 42.9082 467.182
1086 1 48.1305 11.3442 546 102.359 43.1978 490.793
1087 0 49.0988 14.5217 713 96.8864 42.9748 483.92
1088 0 49.0936 11.7327 576 100.92 45.191 489.366
1089 0 51.0585 11.5358 589 102.358 41.7929 489.27
1090 0 53.103 12.9371 687 104.125 41.936 487.69
1091 0 54.0975 12.5884 681 104.104 41.6579 489.047
1092 0 55.027 12.2667 675 107.298 42.4207 487.034
1093 0 58.1509 13.5853 790 104.37 42.3367 485.361
1094 0 59.0888 13.6066 804 105.274 41.9726 484.988
1095 0 62.184 13.4279 835 105.293 41.6407 483.897
1096 0 64.1349 13.2065 847 105.968 41.3719 484.651
1097 0 63.0747 13.6663 862 106.251 41.6601 483.394
1098 0 67.1117 13.4999 906 106.404 41.1843 481.295
1099 0 68.1625 14.128 963 105.641 41.4413 482.396
1100 0 71.1176 13.5972 967 106.165 41.575 479.542
1101 0 73.113 13.9237 1018 107.179 41.3772 479.877
1102 0 73.2878 13.0172 954 110.597 41.5818 478.971
1103 0 76.153 12.1203 923 111.933 42.4442 477.375
1104 0 80.2244 13.4498 1079 108.016 41.8285 470.112
1105 0 83.0728 13.0368 1083 109.922 41.6334 473.748
1106 0 86.1579 12.8253 1105 111.828 41.495 472.804
1107 0 87.3155 12.4033 1083 113.14 41.8356 472.672
1108 0 90.2461 13.0199 1175 111.455 42.0153 471.261
1109 0 96.6366 13.6284 1317 107.803 43.2597 465.094
1110 0 97.3406 13.6017 1324 109.753 43.3014 466.393
1111 1 53.1865 13.1424 699 107.731 42.8913 487.202
1112 0 56.3159 12.6074 710 107.759 43.0254 487.713
1113 0 59.2259 14.0648 833 106.613 42.6375 487.052
1114 0 60.227 13.3329 803 110.067 42.2939 485.767
1115 0 60.1248 13.5219 813 110.92 42.5129 484.45
1116 0 62.0953 13.1411 816 111.256 42.826 483.71
1117 0 65.1995 13.0983 854 111.9 42.5691 481.89
1118 0 68.1547 12.9852 885 111.417 42.9141 482.322
1119 0 70.2158 13.8288 971 110.418 43.449 476.825
1120 0 71.1878 13.654 972 111.701 42.7551 479.841
1121 0 74.2017 14.5414 1079 110.603 42.9527 478.061
1122 0 77.2727 14.1188 1091 111.545 42.7644 478.505
1123 0 78.1691 14.9675 1170 112.015 42.3325 474.639
1124 0 82.2238 13.9862 1150 114.729 42.473 473.723
1125 0 85.1999 13.2747 1131 113.918 43.1574 474.943
1126 0 88.2291 13.805 1218 113.782 43.3432 471.434
1127 0 89.2649 13.8352 1235 114.265 42.9231 471.273
1128 0 92.2397 12.9229 1192 113.971 43.1342 468.528
1129 0 98.1645 15.148 1487 110.712 43.3806 469.178
1130 0 101.215 14.6717 1485 111.451 43.3212 466.974
1131 0 103.173 13.1527 1357 110.064 42.6581 452.444
1132 0 106.108 13.5052 1433 109.116 42.3294 454.717
1133 0 111.261 14.7132 1637 106.335 44.0452 461.145
1134 1 56.0194 11.621 651 99.8172 43.3702 486.445
1135 0 59.2021 14.9319 884 97.2364 44.2455 487.456
1136 0 61.0808 15.193 928 96.7565 43.6767 485.256
1137 0 61.1195 12.4183 759 102.966 44.1752 485.657
1138 0 64.1511 13.7644 883 99.8992 44.393 485.011
1139 0 67.1249 13.6462 916 99.6081 43.7696 483.098
1140 0 66.1908 13.1136 868 101.969 43.4493 483.012
1141 0 70.2931 13.8705 975 100.767 42.8923 482.117
1142 0 72.1563 13.2629 957 99.9237 43.3135 483.391
1143 0 74.2078 14.931 1108 97.9991 43.528 478.883
1144 0 77.0873 15.45 1191 98.2267 42.5474 477.605
1145 0 78.1497 15.0352 1175 100.3 43.4528 475.309
1146 0 81.0539 13.8426 1122 102.473 42.6078 475.87
1147 0 84.1796 13.198 1111 105.219 42.0198 470.489
1148 0 87.0903 14.2611 1242 103.119 41.5507 471.854
1149 0 90.3001 14.2857 1290 104.729 40.8132 472.792
1150 0 94.3444 14.5955 1377 109.89 41.6434 469.846
1151 0 97.2314 14.8512 1444 108.159 41.5381 468.243
1152 1 49.022 12.8922 632 104.047 41.3972 490.772
1153 0 51.144 12.3377 631 102.74 42.3439 490.7
1154 0 53.0822 13.1683 699 101.034 41.9428 488.106
1155 0 55.1565 14.1235 779 101.798 42 486.691
1156 0 56.4813 13.084 739 102.019 42.2963 488.48
1157 0 58.3058 12.4344 725 104.959 42.0621 487.986
1158 0 61.3863 13.0322 800 110.972 41.5775 484.949
1159 0 62.2498 12.9157 804 110.932 41.908 483.157
1160 0 64.384 13.5593 873 110.526 41.8202 482.875
1161 0 67.2773 13.7342 924 107.532 41.7305 482.658
1162 0 69.3015 14.3864 997 107.938 41.6891 478.727
1163 0 69.4053 12.708 882 111.902 42.3107 477.333
1164 0 74.403 12.7145 946 111.236 42.2632 475.608
1165 0 78.2775 13.0433 1021 109.284 42.6268 475.753
1166 0 81.1943 12.3408 1002 108.384 42.5928 475.246
1167 0 83.3215 13.2979 1108 104.312 42.018 474.457
1168 0 87.1519 13.1724 1148 102.853 41.9077 471.895
1169 1 45.1029 11.7731 531 98.8267 43.904 490.305
1170 0 47.1105 10.7407 506 98.9368 42.9763 491.966
1171 0 48.2034 10.3935 501 101.361 41.8523 490.87
1172 0 48.2798 11.1641 539 100.2 41.1818 483.05
1173 0 49.5275 10.3175 511 100.896 41.9178 485.992
1174 0 53.1383 12.0817 642 97.9034 42.7305 488.908
1175 0 54.0914 11.7579 636 98.6871 43.478 488.049
1176 0 56.161 12.9627 728 98.9396 43.0907 488.343
1177 0 56.1137 13.2944 746 100.724 43.1166 485.696
1178 0 60.1803 12.3462 743 101.992 43.7779 485.982
1179 0 63.0964 12.9643 818 101.949 43.3337 483.884
1180 0 63.1082 12.7717 806 104.098 42.9169 484.698
1181 0 67.1327 14.3447 963 101.173 43.108 481.015
1182 0 68.146 14.6304 997 101.335 42.5607 481.343
1183 0 69.0999 13.1983 912 105.976 42.5066 481.293
1184 0 70.1245 13.8468 971 105.339 42.8888 477.179
1185 0 73.0952 13.9954 1023 106.312 43.259 477.177
1186 0 78.0536 15.1178 1180 105.697 42.0881 476.686
1187 0 79.1493 14.2768 1130 109.451 42.9416 476.081
1188 0 83.2202 13.5184 1125 110.94 40.8018 472.476
1189 0 84.0646 12.9424 1088 114.133 40.239 470.367
1190 0 88.0347 14.3125 1260 107.674 41.5548 470.214
1191 1 44.0328 12.4453 548 105.788 41.2664 491.093
1192 0 45.1188 12.4117 560 104.234 41.9393 491.97
1193 0 48.1314 11.5933 558 102.375 44.4427 491.4
1194 0 48.0548 12.1528 584 102.57 44.0668 490.935
1195 0 51.215 13.1211 672 98.7872 43.8408 489.381
1196 0 52.1453 12.3885 646 100.147 44.1517 489.159
1197 0 54.1338 13.0418 706 99.1246 43.2224 488.234
1198 0 54.1323 12.6726 686 100.394 43.6706 486.708
1199 0 56.1221 12.5797 706 99.9249 43.7635 486.755
1200 0 56.0368 11.9029 667 101.685 43.6777 485.996
1201 0 58.0766 13.465 782 98.5934 43.9092 484.971
1202 0 62.1876 12.607 784 98.8265 43.9133 484.858
1203 0 63.0655 11.8448 747 100.091 43.4766 484.147
1204 0 65.2175 13.6926 893 96.9362 43.0515 481.758
1205 0 65.1285 10.1645 662 104.224 43.4154 481.088
1206 0 69.0888 12.9399 894 99.2975 43.7394 480.536
1207 0 72.0967 13.1213 946 106.368 43.148 479.098
1208 0 71.1903 13.1619 937 102.007 42.0277 479.203
1209 0 71.3216 11.7356 837 105.811 42.4779 479.834
1210 0 77.4401 11.9189 923 104.66 42.7194 477.96
1211 0 79.3852 12.0929 960 107.325 42.5656 475.771
1212 0 83.5969 13.2302 1106 105.175 42.5841 476.628
1213 0 83.4202 11.496 959 110.284 42.7383 475.268
1214 0 87.3206 12.6316 1103 107.245 43.2892 471.04
1215 1 48.1199 12.261 590 107.753 43.461 490.941
1216 0 50.1007 12.1355 608 109.931 44.6069 489.893
1217 0 51.0936 13.2502 677 100.375 44.0044 490.61
1218 0 51.1479 11.2224 574 105.469 43.5261 490.807
1219 0 51.0962 12.8972 659 104.106 44.5372 488.293
1220 0 55.0815 12.5995 694 102.938 43.232 490.241
1221 0 56.0558 11.7918 661 106.649 43.6702 487.077
1222 0 57.0675 12.4765 712 106.192 42.3455 488.622
1223 0 59.1741 12.5055 740 106.634 42.0243 486.581
1224 0 59.0703 12.1381 717 108.969 42.2566 485.809
1225 0 60.1379 11.2907 679 110.031 42.3211 487.551
1226 0 57.0985 12.1895 696 110.596 43.6738 482.885
1227 0 66.0967 12.0732 798 108.55 43.3684 482.139
1228 0 68.0929 12.248 834 108.424 43.0755 484.446
1229 0 72.0897 13.0532 941 106.828 43.1073 481.416
1230 0 73.1431 13.125 960 108.628 42.4677 479.856
1231 0 74.1737 12.8482 953 108.981 42.149 479.348
1232 0 75.1374 12.4439 935 109.926 42.2845 478.82
1233 0 78.0963 12.6126 985 110.241 42.8447 479.031
1234 0 82.1901 13.0551 1073 110.671 42.7465 473.864
1235 0 84.1018 13.3291 1121 110.712 42.7226 474.498
1236 0 87.1332 13.3703 1165 111.807 42.8807 473.985
1237 0 89.206 13.5753 1211 111.847 42.9967 475.883
1238 0 93.1253 12.9396 1205 112.892 43.0473 470.376
1239 0 95.2416 12.463 1187 113.521 43.1264 471.501
1240 1 52.1448 11.9475 623 118.737 43.0995 488.61
1241 0 56.0864 12.5699 705 117.606 42.4808 485.684
1242 0 58.156 15.2865 889 109.373 42.7852 488.494
1243 0 59.1007 14.3992 851 112.68 43.275 486.075
1244 0 60.0883 13.0808 786 116.341 42.3473 486.603
1245 0 63.1166 13.6256 860 114.709 42.4546 485.228
1246 0 65.1318 13.4497 876 113.103 42.6393 485.878
1247 0 66.1436 14.0452 929 113.052 42.6545 482.495
1248 0 70.1196 12.7211 892 114.936 42.8285 482.307
1249 0 71.241 13.8123 984 112.743 42.6504 479.859
1250 0 75.1593 13.2252 994 112.433 42.66 479.838
1251 0 78.1596 12.9223 1010 112.609 42.9713 477.462
1252 0 80.1026 14.2068 1138 108.844 42.1494 475.59
1253 0 82.0608 14.0993 1157 105.392 41.9205 474.56
1254 0 83.1053 13.7055 1139 98.885 41.1528 474.411
1255 0 86.0875 12.6035 1085 99.9502 41.6286 473.98
1256 0 90.1383 13.3905 1207 97.5054 41.9072 471.363
1257 0 95.1398 12.4659 1186 99.5928 41.8718 470.942
1258 1 49.2372 12.2875 605 97.2331 41.4595 491.959
1259 0 50.1498 14.7358 739 93.4993 42.1326 491.148
1260 0 50.1637 11.0638 555 100.829 42.636 491.436
1261 0 53.1294 12.4601 662 100.098 41.8988 489.935
1262 0 52.2262 11.7565 614 100.65 42.3453 490.443
1263 0 55.1258 11.8456 653 100.954 41.5467 488.135
1264 0 58.0653 13.0715 759 98.1897 41.8182 488.244
1265 0 60.2772 12.6416 762 100.623 41.853 485.875
1266 0 62.1449 12.8892 801 99.9363 41.8177 486.549
1267 0 64.2926 13.0653 840 101.195 41.9798 483.552
1268 0 66.3875 13.9183 924 98.9632 42.1645 477.609
1269 0 69.3298 12.9959 901 100.748 42.495 481.221
1270 0 68.4782 12.3835 848 104.755 41.875 480.458
1271 0 71.2762 12.9777 925 103.208 42.6357 477.267
1272 0 76.3934 13.4567 1028 102.718 42.463 479.412
1273 0 76.162 13.7733 1049 106.105 42.0677 477.024
1274 0 81.1168 13.8319 1122 104.938 41.7121 475.448
1275 0 83.3947 13.9937 1167 105.229 42.7729 465.826
1276 0 87.5179 14.0885 1233 104.886 42.8378 470.413
1277 0 88.391 12.2298 1081 108.636 43.0194 470.199
1278 0 92.4743 15.0853 1395 102.927 43.2968 466.26
1279 0 95.4972 15.6444 1494 103.203 42.6961 463.827
1280 0 97.5373 13.4718 1314 108.431 43.4323 461.845
1281 0 100.503 13.9498 1402 108.133 43.2896 458.831
1282 0 106.598 15.0472 1604 104.994 43.23 461.148
1283 0 107.369 14.2965 1535 109.061 42.2697 457.18
1284 1 58.3512 13.5901 793 101.509 43.43 484.656
1285 0 58.2482 12.4467 725 107.237 43.3559 482.665
1286 0 59.2751 12.248 726 106.029 43.4408 485.904
1287 0 60.0906 12.5477 754 107.893 42.9523 484.61
1288 0 63.2223 12.3058 778 108.524 42.5925 484.419
1289 0 64.1805 12.8855 827 108.306 42.3603 483.699
1290 0 69.1791 12.7061 879 108.067 41.9488 481.97
1291 0 71.3201 13.7128 978 106.519 42.6268 479.334
1292 0 72.1766 13.7579 993 108.641 42.85 476.65
1293 0 74.1861 13.4796 1000 110.03 42.979 476.751
1294 0 76.0504 13.4122 1020 110.971 42.7039 476.954
1295 0 78.1305 12.8247 1002 111.153 42.4281 478.216
1296 0 80.1733 12.7848 1025 113.764 42.6195 474.192
1297 0 83.2957 13.8182 1151 108.968 41.9939 469.725
1298 0 86.3019 13.5918 1173 113.278 43.0742 470.956
1299 0 89.299 12.8333 1146 114.458 42.911 471.558
1300 0 89.2718 12.9828 1159 116.327 42.3434 469.06
1301 0 93.3585 12.2538 1144 116.707 41.9152 467.289
1302 0 98.4731 13.5164 1331 114.038 42.7986 460.72
1303 0 101.433 12.984 1317 114.147 42.5482 461.475
1304 0 105.472 13.4348 1417 112.818 41.3705 459.958
1305 1 53.2159 12.1392 646 108.167 41.0882 484.481
1306 0 54.1182 11.3455 614 108.443 40.7997 485.453
1307 0 57.1205 11.397 651 108.645 43.1628 485.551
1308 0 59.0291 12.5193 739 107.425 42.7212 486.004
1309 0 58.0728 12.2605 712 109.046 43.1025 483.868
1310 0 62.1529 12.2118 759 107.733 43.7945 484.46
1311 0 63.0436 12.0393 759 108.959 43.5099 482.225
1312 0 67.2443 12.4472 837 107.075 43.1111 477.921
1313 0 69.1224 12.2826 849 106.177 42.9282 478.972
1314 0 71.1976 12.5707 895 105.453 42.4961 477.61
1315 0 72.1879 11.8164 853 107.979 42.7327 477.932
1316 0 75.1181 11.9944 901 106.582 42.4051 478.845
1317 0 76.1717 11.1853 852 108.399 42.8615 473.569
1318 0 82.2534 13.2274 1088 105.006 42.7491 470.831
1319 0 84.1681 12.7245 1071 106.138 42.324 469.976
1320 0 87.3039 13.7336 1199 103.927 41.2352 468.53
1321 0 89.5238 11.617 1040 109.501 41.0163 464.07
1322 0 94.3514 13.3225 1257 104.315 41.2864 464.912
1323 0 96.1836 12.2786 1181 107.092 40.9153 463.436
1324 0 100.238 12.2808 1231 106.169 42.4037 463.499
1325 0 104.194 13.1677 1372 104.045 42.7099 460.691
1326 0 106.146 12.7467 1353 105.064 42.5972 460.376
1327 1 59.0515 11.5831 684 102.931 42.6754 486.12
1328 0 60.0495 11.0242 662 102.947 42.293 485.394
1329 0 63.2561 12.1095 766 102.99 40.5744 479.154
1330 0 64.1427 12.7061 815 98.6221 40.7779 480.513
1331 0 65.1364 12.0823 787 100.762 41.2656 480.159
1332 0 70.0797 12.5286 878 97.9613 43.1595 479.506
1333 0 71.0376 13.2747 943 97.4539 42.9724 478.128
1334 0 74.0541 13.5847 1006 95.8082 43.6461 477.986
1335 0 75.1375 12.6967 954 97.7044 42.9686 479.805
1336 0 77.1703 11.831 913 99.2508 43.5367 478.277
1337 0 80.1738 12.1486 974 100.322 43.271 474.414
1338 0 82.1703 13.1313 1079 98.0834 43.2817 470.553
1339 0 86.0475 13.3182 1146 97.0681 42.3019 469.127
1340 0 89.1249 13.2847 1184 97.9071 42.087 471.851
1341 0 91.0855 12.6914 1156 98.6773 42.6877 471.472
1342 0 95.1398 12.2977 1170 99.5145 43.4316 467.058
1343 0 98.26 12.1005 1189 99.8032 43.2666 463.932
1344 0 101.341 11.634 1179 101.249 43.2926 459.941
1345 1 53.1524 11.6269 618 100.769 43.9757 484.977
1346 0 57.1272 12.1658 695 98.4648 40.2388 485.165
1347 0 59.1378 14.0012 828 94.3478 40.8768 483.239
1348 0 59.0505 13.0228 769 95.6307 40.9883 485.085
1349 0 61.3139 15.5103 951 90.9159 41.1609 483.544
1350 0 62.1366 13.3416 829 95.9107 40.9867 483.655
1351 0 64.1506 13.9515 895 95.0548 40.9788 482.977
1352 0 67.0951 13.4883 905 95.3657 41.3503 482.546
1353 0 68.2107 14.8364 1012 93.7016 41.6482 480.805
1354 0 71.2178 14.2942 1018 95.2888 41.1454 479.323
1355 0 73.2186 13.1524 963 98.0571 41.081 477.71
1356 0 75.0962 14.1818 1065 96.3746 41.2488 476.015
1357 0 78.2585 15.1421 1185 94.3612 41.2835 473.311
1358 0 81.1098 15.4605 1254 93.3636 41.8812 473.178
1359 0 82.1972 12.5673 1033 99.5828 40.7677 473.518
1360 0 86.187 13.0878 1128 98.5692 41.1658 470.429
1361 0 89.1639 12.3817 1104 91.4964 41.0951 469.449
1362 0 91.1768 12.8322 1170 92.4162 41.0291 469.068
1363 0 96.2298 14.3095 1377 92.1728 42.4778 469.813
1364 0 99.1846 14.347 1423 93.0394 42.6142 465.706
1365 0 101.167 13.3146 1347 90.2843 42.0104 462.085
1366 0 104.148 12.7126 1324 91.5876 41.7666 461.944
1367 0 108.234 13.3507 1445 91.8443 41.8471 458.882
1368 1 59.0665 12.4944 738 90.0745 40.2222 487.705
1369 0 59.2217 11.9382 707 92.6252 40.3663 484.137
1370 0 61.1244 13.2189 808 90.7364 42.4369 485.631
1371 0 64.2627 12.9157 830 91.8506 42.8012 484.849
1372 0 62.1428 12.0046 746 94.2359 43.0509 482.708
1373 0 69.3435 12.2146 847 91.9882 42.7651 482.643
1374 0 68.1644 12.3378 841 92.4804 43.3769 481.735
1375 0 71.1719 12.6314 899 92.5317 43.2269 482.146
1376 0 73.1847 13.951 1021 91.809 42.95 478.646
1377 0 74.1425 11.4509 849 96.6078 43.0895 477.748
1378 0 78.1399 12.58 983 94.94 42.8718 478.5
1379 0 78.2156 13.0537 1021 96.1156 42.9765 473.841
1380 0 83.2556 12.6238 1051 97.2731 43.647 473.343
1381 0 86.2292 12.9654 1118 97.3202 42.7737 474.334
1382 0 90.2382 14.0849 1271 97.5374 42.3603 472.77
1383 0 91.3825 13.5803 1241 99.079 42.5085 469.133
1384 0 95.2403 13.9647 1330 98.4023 42.7729 468.984
1385 0 97.197 12.9428 1258 101.267 43.5262 467.064
1386 0 102.175 12.8896 1317 102.684 43.186 454.466
1387 0 105.273 14.6002 1537 99.7872 42.6435 463.239
1388 0 107.29 13.8597 1487 101.967 42.5064 463.364
1389 1 54.1498 12.5762 681 105.863 43.5463 486.176
1390 0 53.2593 11.2093 597 93.2094 42.005 483.315
1391 0 55.0933 11.653 642 90.7882 43.0857 483.562
1392 0 57.1136 12.3263 704 92.1165 42.2188 485.425
1393 0 59.1096 11.724 693 100.987 41.4603 487.094
1394 0 61.1051 12.6831 775 100.168 40.64 466.662
1395 0 64.0701 13.3291 854 98.4988 41.1101 472.77
1396 0 66.2247 14.5716 965 96.7513 40.8301 474.511
1397 0 67.1285 12.7666 857 101.026 40.7106 478.828
1398 0 69.2734 12.8043 887 100.31 40.6573 481.681
1399 0 71.1069 13.4586 957 99.3375 41.3699 483.835
1400 0 72.1001 13.3564 963 100.456 41.7279 482.212
1401 0 73.078 13.6156 995 101.049 41.2523 481.779
1402 0 77.0925 14.5669 1123 100.532 41.488 477.761
1403 0 80.1569 14.1223 1132 102.295 42.2942 474.827
1404 0 82.1138 14.005 1150 103.251 42.1843 473.12
1405 0 85.0367 12.6769 1078 106.587 41.2727 472.458
1406 0 87.123 13.6588 1190 104.151 40.8849 471.23
1407 0 92.1641 14.9624 1379 100.826 42.0442 468.509
1408 1 49.0323 12.3592 606 106.596 42.1799 488.721
1409 0 54.0353 13.047 705 103.04 42.6936 480.681
1410 0 53.1306 12.4787 663 107.694 42.2624 486.745
1411 0 56.0298 13.8141 774 108.911 42.6731 487.292
1412 0 57.2751 13.2518 759 109.439 42.5415 486.54
1413 0 59.0324 13.3317 787 109.718 42.953 485.313
1414 0 59.0442 13.2274 781 111.108 42.6901 483.287
1415 0 63.1356 13.178 832 110.608 42.5709 482.186
1416 0 63.1153 13.911 878 109.125 42.5262 480.707
1417 0 67.1885 13.5886 913 109.095 42.391 481.182
1418 0 68.2059 12.5942 859 113.591 42.5308 477.055
1419 0 68.1186 12.9774 884 112.758 43.1029 477.888
1420 0 75.2112 13.0965 985 110.109 43.1005 477.765
1421 0 75.215 13.734 1033 104.983 43.0165 476.682
1422 0 74.181 11.8224 877 102.989 42.9373 478.965
1423 0 79.162 14.5398 1151 97.8314 42.1199 474.849
1424 0 80.056 10.3802 831 103.653 43.0325 475.128
1425 1 41.0471 10.7194 440 99.8295 40.8909 490.011
1426 0 42.0274 11.3021 475 99.3916 41.8337 491.577
1427 0 45.0471 12.0319 542 97.0443 42.9613 492.266
1428 0 44.1262 12.5549 554 101.578 42.4477 492.108
1429 0 46.0742 12.393 571 100.005 42.6567 490.713
1430 0 44.0683 10.8468 478 106.063 42.1381 490.013
1431 0 48.1591 12.3341 594 101.17 41.7525 488.399
1432 0 48.1998 12.6142 608 102.347 42.4095 485.26
1433 0 51.1399 12.5929 644 103.151 42.0838 487.329
1434 0 53.1007 13.239 703 102.065 41.8521 485.825
1435 0 54.1514 13.3145 721 101.688 41.7379 485.147
1436 0 55.1373 12.1152 668 103.457 41.0763 487.216
1437 0 56.2076 12.7563 717 104.644 41.6304 483.762
1438 0 58.1185 12.2336 711 106.278 41.3024 483.277
1439 0 60.1739 12.6301 760 106.749 41.3645 482.164
1440 0 61.1696 12.2446 749 107.753 41.8304 479.947
1441 0 63.0917 12.4898 788 106.501 41.6256 482.35
1442 0 67.0667 13.8519 929 103.75 42.0065 479.709
1443 0 67.1745 13.2193 888 107.2 41.839 476.015
1444 0 69.1325 13.5681 938 106.558 42.0768 474.098
1445 0 70.096 11.5841 812 111.228 41.8879 476.411
1446 0 73.0655 12.8925 942 108.068 42.7463 475.757
1447 0 77.1809 13.721 1059 105.695 43.0293 474.408
1448 0 78.1711 12.7797 999 108.095 43.4625 465.013
1449 0 80.154 13.9232 1116 105.338 42.8817 472.076
1450 0 84.2091 12.1602 1024 108.462 42.8408 472.061
1451 0 86.3151 12.9757 1120 107.118 43.192 469.108
1452 0 89.527 13.1916 1181 106.926 42.8975 465.244
1453 1 47.3614 12.2674 581 106.095 43.0602 485.611
1454 0 49.4746 13.1583 651 103.773 42.9186 484.853
1455 0 49.331 13.5817 670 103.787 42.8269 483.555
1456 0 53.2907 12.46 664 102.727 42.6401 482.886
1457 0 53.1877 12.6909 675 103.286 43.5259 484.707
1458 0 55.1156 14.9141 822 98.4696 42.753 487.573
1459 0 58.1392 13.4333 781 101.935 42.1639 484.529
1460 0 60.1306 14.5184 873 99.9863 43.0241 483.954
1461 0 60.1306 14.5683 876 132.832 44.0388 483.912
1462 0 63.1713 12.9489 818 103.164 42.9633 482.517
1463 0 65.2209 12.2507 799 105.125 42.8198 480.626
1464 0 67.2311 13.0743 879 103.787 43.3504 478.916
1465 0 70.1329 13.9735 980 107.254 43.6235 479.1
1466 0 73.2393 13.6266 998 108.738 43.2796 476.455
1467 0 74.2571 14.2209 1056 107.667 43.8059 477.445
1468 0 77.2917 13.973 1080 109.273 42.9454 475.581
1469 0 79.3041 13.2276 1049 110.351 44.2612 476.176
1470 0 82.2955 13.5123 1112 110.334 43.4631 471.627
1471 0 85.3079 12.8945 1100 111.41 43.1864 473.595
1472 0 88.0948 13.9282 1227 109.901 42.6047 472.078
1473 1 46.0993 12.8418 592 107.755 42.5997 491.833
1474 0 49.0866 12.1622 597 109.496 42.1441 491.31
1475 0 49.0854 12.7533 626 109.364 41.8802 489.848
1476 0 51.1388 13.3754 684 107.896 42.7032 488.269
1477 0 53.1636 13.7312 730 106.801 43.4671 485.952
1478 0 57.2764 12.8849 738 107.98 43.0163 485.302
1479 0 56.1673 14.1898 797 108.269 42.6386 487.651
1480 0 58.0411 12.784 742 112.898 43.062 486.168
1481 0 61.0689 13.3128 813 112.402 42.417 485.625
1482 0 63.0932 13.9159 878 112.264 42.1549 483.438
1483 0 64.1674 13.1063 841 114.492 42.742 483.084
1484 0 68.1321 13.9729 952 111.085 42.6933 481.232
1485 0 69.249 13.6464 945 112.222 42.8836 480.996
1486 0 73.2395 14.3365 1050 111.043 42.4886 469.565
1487 0 73.4076 13.8678 1018 113.447 42.5167 469.436
1488 0 77.2573 14.4582 1117 111.028 43.0009 472.07
1489 0 78.2432 14.5316 1137 111.746 42.5435 475.364
1490 0 80.3571 14.0498 1129 112.034 42.667 475.847
1491 0 83.3288 15.1448 1262 109.428 42.5349 474.403
1492 0 83.3686 14.25 1188 113.157 42.6574 472.67
1493 0 87.3675 14.708 1285 113.876 42.4848 470.127
1494 0 91.2605 15.0339 1372 113.937 42.4534 470.262
1495 0 94.2355 14.9307 1407 113.848 42.0519 469.747
1496 0 98.2915 15.1285 1487 113.948 42.2145 467.319
1497 0 100.207 13.9411 1397 117.949 42.3608 465.63
1498 1 54.0784 12.5374 678 116.653 43.0236 488.31
1499 0 57.0995 13.5027 771 113.874 42.7198 487.246
1500 0 58.1563 14.5126 844 109.79 42.8045 487.526
1501 0 60.0555 13.4209 806 112.675 42.3598 487.428
1502 0 58.0603 13.3999 778 115.003 42.6992 485.907
1503 0 63.1127 13.9433 880 111.483 41.858 484.681
1504 0 63.1945 13.5297 855 106.28 41.9181 483.69
1505 0 67.1022 13.3677 897 107.333 42.7213 483.671
1506 0 67.199 14.2562 958 109.15 42.7557 482.552
1507 0 66.0626 14.4257 953 111.434 42.7503 482.018
1508 0 67.1605 12.9987 873 115.994 41.9782 474.081
1509 0 69.1128 15.5832 1077 110.541 42.1773 477.586
1510 0 70.2518 14.3626 1009 115.345 41.5847 480.728
1511 0 71.1512 13.1691 937 118.388 41.0192 478.219
1512 0 76.0794 15.0106 1142 113.528 42.6392 477.557
1513 0 78.1705 14.5451 1137 116.178 42.2155 477.024
1514 0 80.0543 13.7157 1098 118.269 42.2013 475.483
1515 0 81.1652 13.183 1070 118.795 42.3009 475.207
1516 0 85.1206 14.92 1270 114.176 42.9047 472.21
1517 0 86.1373 14.5117 1250 115.571 43.152 471.418
1518 0 88.0635 13.672 1204 115.646 42.3513 470.346
1519 0 91.1725 13.3154 1214 119.502 42.6145 467.077
1520 0 94.0805 14.6364 1377 116.285 41.8729 466.274
1521 0 98.1379 14.2758 1401 116.542 42.2662 467.395
1522 0 101.271 13.3108 1348 117.318 41.7908 456.841
1523 0 104.234 14.9088 1554 111.751 42.0515 464.981
1524 0 105.282 15.2923 1610 106.428 41.3373 458.072
1525 1 57.1713 9.76014 558 107.903 41.1702 482.581
1526 0 61.13 13.1196 802 102.875 40.8741 488.015
1527 0 59.0169 12.8946 761 104.664 41.5926 488.314
1528 0 61.0801 12.2298 747 107.099 42.4163 487.095
1529 0 63.0901 11.8878 750 107.612 42.192 487.147
1530 0 63.0305 11.0264 695 109.191 42.4561 486.846
1531 0 66.137 10.7504 711 110.457 42.4037 485.956
1532 0 69.0612 13.2781 917 107.728 42.3697 481.361
1533 0 71.1366 14.5073 1032 105.94 41.9128 481.868
1534 0 73.1252 12.0068 878 111.13 41.8998 482.179
1535 0 74.0878 11.8913 881 112.991 41.4801 479.167
1536 0 78.1665 12.6269 987 110.942 41.1378 480.408
1537 0 79.1324 11.7651 931 114.51 41.3953 477.889
1538 0 83.3484 12.3458 1029 112.232 41.5151 478.269
1539 0 86.4948 12.6597 1095 113.042 41.3251 471.927
1540 0 88.1246 12.7433 1123 114.407 40.8673 472.787
1541 0 93.0838 13.5362 1260 113.001 41.1556 471.164
1542 0 94.1203 11.4322 1076 118.094 42.027 471.889
1543 0 98.2622 12.9348 1271 116.385 41.6546 468.746
1544 0 103.368 12.8376 1327 116.837 41.153 466.725
1545 0 107.304 13.569 1456 116.22 41.0007 462.898
1546 1 58.2327 12.3642 720 106.414 42.25 487.254
1547 0 58.0396 12.4053 720 106.193 41.5306 490.611
1548 0 58.0239 10.5474 612 110.018 40.5997 490.186
1549 0 60.1765 11.4496 689 107.517 40.3512 489.522
1550 0 63.0873 12.0785 762 106.711 40.643 487.112
1551 0 64.0398 10.634 681 108.953 40.4214 485.978
1552 0 66.1128 11.1325 736 107.062 40.0897 483.924
1553 0 71.2475 12.1688 867 103.469 39.9839 484.426
1554 0 75.0923 13.0906 983 102.125 39.7681 480.587
1555 0 76.1788 12.7201 969 102.686 39.6739 481.324
1556 0 78.1394 12.3881 968 104.125 39.8719 479.309
1557 0 81.1792 12.9959 1055 104.799 39.9877 475.05
1558 0 85.2042 13.6143 1160 104.461 39.6216 473.603
1559 0 90.1791 14.0166 1264 103.699 39.9296 474.019
1560 0 92.1844 13.4296 1238 106.933 39.8546 473.118
1561 0 94.2124 12.8539 1211 110.679 39.6433 466.787
1562 0 98.2458 13.1303 1290 109.827 39.2457 466.854
1563 0 102.293 12.4154 1270 110.523 39.0449 464.505
1564 0 106.29 13.1997 1403 108.27 39.4768 462.889
1565 1 54.1855 10.8332 587 104.445 39.5349 483.152
1566 0 57.3896 11.5526 663 101.353 39.3529 485.572
1567 0 58.1821 14.2312 828 97.1667 39.2089 487.896
1568 0 61.1425 13.5258 827 98.6433 39.4595 487.279
1569 0 62.1179 13.1846 819 99.4383 39.1209 486.123
1570 0 63.3233 12.1124 767 102.344 39.0952 485.684
1571 0 66.2068 11.449 758 102.521 38.9169 485.406
1572 0 67.1444 11.9742 804 103.172 38.9415 480.465
1573 0 71.1654 12.8012 911 101.003 38.0483 482.947
1574 0 73.1298 13.77 1007 99.2552 38.7607 480.644
1575 0 76.2687 13.0066 992 100.648 39.2581 479.653
1576 0 77.1637 13.0502 1007 100.706 39.5065 481.184
1577 0 82.1097 12.9705 1065 104.423 39.7277 475.812
1578 0 86.1783 15.0966 1301 98.0169 39.2283 472.662
1579 0 87.1864 12.7199 1109 104.227 39.3634 474.568
1580 0 91.2389 12.6371 1153 104.071 39.2342 473.859
1581 0 98.2872 11.9751 1177 104.517 39.3381 472.22
1582 1 48.3249 12.5194 605 100.977 39.3901 490.926
1583 0 50.2525 12.7158 639 101.136 39.3286 488.535
1584 0 52.3589 12.7199 666 97.0766 39.7177 485.414
1585 0 54.2059 13.5963 737 98.4573 39.9729 487.537
1586 0 56.3374 12.9221 728 96.169 40.4615 483.174
1587 0 56.2025 12.7574 717 98.3863 39.7992 485.139
1588 0 60.1622 13.0979 788 97.1929 40.7449 483.548
1589 0 61.0644 12.4459 760 99.3224 40.025 485.395
1590 0 63.1024 13.4226 847 100.927 40.0142 484.463
1591 0 65.1052 13.8238 900 99.9078 39.5167 483.744
1592 0 66.1907 12.8568 851 98.9318 39.282 481.786
1593 0 69.1327 13.0184 900 100.341 38.9044 481.359
1594 0 70.2281 13.271 932 100.196 39.2715 480.039
1595 0 73.0658 13.6042 994 100.146 39.3903 479.977
1596 0 75.0658 13.9877 1050 99.6667 39.9029 479.27
1597 0 80.1435 13.5133 1083 109.783 38.8837 478.958
1598 0 81.1738 13.2432 1075 105.508 39.5544 469.473
1599 0 85.1936 13.217 1126 105.909 39.7895 468.839
1600 0 86.1977 13.4574 1160 105.56 40.1569 472.36
1601 0 89.1605 13.2121 1178 105.469 39.539 473.086
1602 0 91.2861 13.2331 1208 105.619 39.0025 469.963
1603 0 95.191 14.3186 1363 104.824 39.2428 469.25
1604 0 95.271 13.0575 1244 106.016 39.6069 467.637
1605 1 50.0619 13.3235 667 98.901 39.2774 490.595
1606 0 51.3354 13.1293 674 97.4866 39.7285 488.847
1607 0 53.1109 13.5377 719 97.1099 39.5744 488.214
1608 0 54.107 13.0112 704 98.7443 39.5355 488.197
1609 0 56.1025 13.5466 760 97.4553 39.8039 487.822
1610 0 56.2301 13.6404 767 97.9896 40.1695 485.645
1611 0 59.2117 14.1019 835 97.4647 39.8671 484.381
1612 0 60.1758 13.0451 785 98.8611 40.5274 484.057
1613 0 62.2709 13.6822 852 96.4049 41.0986 483.872
1614 0 67.2217 13.2844 893 97.3393 40.4479 481.576
1615 0 67.168 14.3521 964 96.2417 39.6048 482.037
1616 0 69.2223 14.4895 1003 97.014 39.5623 480.041
1617 0 71.3047 13.3091 949 99.1834 39.9199 479.316
1618 0 76.1187 15.6992 1195 94.5908 39.754 477.947
1619 0 78.1132 14.7862 1155 98.1714 40.1351 476.223
1620 0 81.3069 13.6889 1113 100.625 40.0916 474.357
1621 0 83.2147 13.8557 1153 100.512 40.2741 472.851
1622 0 86.2818 15.4841 1336 97.2388 39.9229 470.263
1623 0 90.5747 15.225 1379 97.8078 40.0428 471.352
1624 0 92.498 15.1355 1400 98.3486 39.9807 470.578
1625 0 94.4306 14.4657 1366 99.7255 40.4253 468.572
1626 0 97.5683 14.4514 1410 100.46 40.1461 466.209
1627 0 101.342 14.9395 1514 99.1281 40.9604 464.054
1628 0 104.464 14.7994 1546 99.6048 40.8538 461.92
1629 0 107.326 14.4606 1552 100.889 40.5689 459.28
1630 0 111.48 15.3301 1709 99.3915 40.4359 457.084
1631 0 115.444 15.0895 1742 100.964 40.0471 455.994
1632 1 60.1867 11.0988 668 100.641 40.1138 485.108
1633 0 64.1227 12.5696 806 98.1576 38.9392 480.258
1634 0 66.1232 14.3822 951 95.8139 38.5668 480.323
1635 0 68.0783 14.028 955 96.4722 38.8576 480.201
1636 0 69.1919 13.5999 941 98.966 38.9203 478.434
1637 0 73.2827 13.482 988 98.8006 38.663 476.57
1638 0 75.235 12.4543 937 102.988 39.1174 478.518
1639 0 78.1096 14.6077 1141 100.319 38.9027 475.608
1640 0 81.196 13.8677 1126 101.077 38.5879 467.726
1641 0 84.2512 14.5042 1222 101.155 38.1285 471.587
1642 0 85.2871 14.2694 1217 103.71 38.2827 468.875
1643 0 88.3975 14.1294 1249 103.466 37.6005 469.632
1644 0 89.2123 13.8546 1236 104.619 38.335 467.298
1645 0 95.2076 14.4946 1380 102.703 37.8775 465.216
1646 0 95.2132 13.7481 1309 104.749 38.5913 464.944
1647 0 100.301 14.1275 1417 102.881 38.0071 465.668
1648 0 101.275 14.1496 1433 104.662 37.9588 461.476
1649 0 105.293 13.6381 1436 105.749 38.0084 460.329
1650 0 110.422 14.3359 1583 104.02 38.0682 459.359
1651 0 114.296 15.2674 1745 103.073 38.7971 454.083
1652 1 61.2974 14.4541 886 99.93 38.8499 481.906
1653 0 63.4083 12.4905 792 109.124 39 480.616
1654 0 65.2455 14.0853 919 102.234 38.3297 484.177
1655 0 66.2334 13.7393 910 104.66 38.2571 480.531
1656 0 71.206 14.9285 1063 100.634 39.0282 480.682
1657 0 72.2944 13.611 984 104.449 38.1311 480.848
1658 0 73.1287 13.7976 1009 105.569 37.5382 477.275
1659 0 76.5171 14.1406 1082 102.144 38.8937 476.229
1660 0 79.3684 12.9901 1031 106.208 39.0136 477.172
1661 0 81.2562 13.6236 1107 105.688 38.7525 475.188
1662 0 81.3806 12.2388 996 107.756 38.255 465.819
1663 0 85.3962 14.3449 1225 104.505 38.5053 471.167
1664 0 87.3422 12.8689 1124 107.354 39.3363 470.542
1665 0 89.3938 12.4953 1117 108.376 38.5076 468.999
1666 0 93.4419 13.6448 1275 107.101 38.8439 468.091
1667 0 94.3845 12.6398 1193 107.728 38.8399 462.487
1668 0 98.6163 12.645 1247 106.994 39.2735 463.23
1669 0 109.428 18.3591 2009 92.5366 39.1916 455.377
1670 0 108.395 13.9398 1511 103.222 39.6003 461.921
1671 1 60.2111 9.88189 595 102.531 39.0992 481.795
1672 0 64.4907 13.0872 844 94.6694 39.6386 477.621
1673 0 65.3587 13.2041 863 92.4844 40.3778 475.862
1674 0 65.2189 12.1897 795 95.6717 39.8138 480.209
1675 0 70.2936 14.0127 985 94.0051 39.6914 478.751
1676 0 73.1058 13.5694 992 97.619 39.5151 480.159
1677 0 71.1258 11.8663 844 103.35 39.1564 477.506
1678 0 76.2562 12.1826 929 102.474 39.6975 475.839
1679 0 77.1617 12.2859 948 103.235 39.1635 473.89
1680 0 77.1621 10.1086 780 108.218 39.6064 472.333
1681 0 81.1639 13.3311 1082 101.864 39.3983 469.791
1682 0 83.3011 12.4728 1039 104.159 39.9942 462.978
1683 0 87.5261 13.9158 1218 100.986 39.647 466.729
1684 0 89.2153 13.2376 1181 102.589 39.6554 466.813
1685 0 91.2146 12.9036 1177 103.536 39.4231 465.831
1686 0 93.3749 13.6653 1276 103.102 39.6426 458.133
1687 0 99.3994 13.7023 1362 102.635 39.4956 459.784
1688 0 100.409 12.7977 1285 104.672 39.9595 457.786
1689 0 105.626 14.1537 1495 102.369 39.5425 454.752
1690 0 107.71 12.6821 1366 105.03 39.7482 453.373
1691 1 58.3783 8.97594 524 102.933 39.9466 479.886
1692 0 60.2478 13.0793 788 98.0685 39.9873 482.7
1693 0 62.3553 11.659 727 99.9615 40.696 479.69
1694 0 64.3559 11.2033 721 102.447 40.0125 477.637
1695 0 66.5495 12.1263 807 101.551 39.5118 475.204
1696 0 68.44 12.5804 861 100.901 40.338 473.821
1697 0 70.5721 11.7469 829 101.375 39.9011 474.644
1698 0 73.5636 12.2071 898 101.173 40.3096 472.714
1699 0 74.5776 12.3093 918 102.014 40.4052 471.314
1700 0 78.4672 13.5598 1064 99.4135 40.5893 469.534
1701 0 80.5653 14.1252 1138 98.5352 40.4745 469.845
1702 0 83.3109 10.6109 884 105.016 39.7975 468.281
1703 0 88.2185 12.6051 1112 101.078 40.1061 470.022
1704 0 91.524 13.7669 1260 98.9222 40.6262 464.041
1705 0 93.5539 13.5002 1263 97.9786 40.2605 460.181
1706 0 94.7078 13.7687 1304 97.3773 40.1702 460.16
1707 0 99.5715 13.1162 1306 98.5268 39.879 459.472
1708 0 100.556 13.2065 1328 99.622 40.0038 457.489
1709 0 104.532 14.3592 1501 96.4244 40.2585 458.712
1710 0 108.593 13.5736 1474 99.0773 39.6981 453.87
1711 0 110.674 12.9027 1428 100.406 39.4692 454.908
1712 0 114.713 13.9391 1599 99.5466 39.6185 452.428
1713 0 117.581 12.2809 1444 103.162 40.2271 448.642
1714 0 123.501 13.4412 1660 100.892 39.844 451.263
1715 1 66.4757 9.71784 646 97.8994 39.9644 481.042
1716 0 67.3241 10.9025 734 97.109 38.9918 478.23
1717 0 71.6859 11.4248 819 98.4176 39.1929 473.298
1718 0 73.7149 12.2363 902 96.4268 39.2361 473.814
1719 0 75.6254 12.4958 945 96.5386 39.3397 472.254
1720 0 76.6349 11.0785 849 98.391 39.0766 472.219
1721 0 80.6799 11.7006 944 96.3697 39.2553 472.228
1722 0 81.4491 9.50286 774 101.964 39.0245 473.921
1723 0 86.6752 13.3948 1161 96.0904 39.2782 467.9
1724 0 88.5098 12.5523 1111 97.5635 39.2052 468.248
1725 0 89.5657 13.0407 1168 98.3322 39.1318 464.365
1726 0 92.4892 11.8176 1093 100.582 38.8454 464.976
1727 0 96.4945 11.9281 1151 99.7168 39.2398 464.786
1728 0 98.7789 12.5229 1237 101.466 38.4818 460.314
1729 0 102.472 14.0234 1437 99.2248 39.0779 457.588
1730 0 105.702 13.2542 1401 99.2648 38.8615 457.846
1731 0 108.533 13.1296 1425 97.899 38.654 459.284
1732 0 111.492 13.4001 1494 98.6399 39.2015 452.62
1733 0 113.453 12.904 1464 99.9474 39.5963 451.264
1734 0 118.651 12.2207 1450 101.01 39.0476 450.666
1735 0 123.488 13.1511 1624 99.3424 39.2605 447.403
1736 0 125.678 11.8319 1487 103.171 38.996 445.397
1737 0 128.498 11.3387 1457 105.37 39.1091 443.77
1738 0 133.563 13.1773 1760 104.315 38.3835 442.114
1739 0 141.672 12.7901 1812 104.475 38.3797 440.433
1740 0 145.554 14.0291 2042 105.223 38.5206 439.529
1741 0 148.574 12.4046 1843 108.769 38.7032 440.66
1742 1 83.4422 11.2533 939 102.42 40.1608 472.961
1743 0 85.2532 10.9908 937 99.1238 40.3831 467.973
1744 0 87.3237 11.9784 1046 97.9971 39.5153 470.048
1745 0 89.3603 10.508 939 101.005 39.5985 469.692
1746 0 93.4988 12.7381 1191 99.1024 39.9379 465.704
1747 0 95.6129 11.0759 1059 105.729 39.5543 465.914
1748 0 98.3944 10.8543 1068 105.741 39.4082 464.128
1749 0 103.465 13.2798 1374 99.5269 39.5458 462.793
1750 0 106.784 12.3145 1315 99.8433 39.4281 451.587
1751 0 108.592 12.3305 1339 101.149 39.4145 455.624
1752 0 111.534 10.9384 1220 103.828 39.2582 458.436
1753 0 112.472 10.0736 1133 106.802 39.7255 450.692
1754 0 118.373 11.6834 1383 103.35 39.4808 450.857
1755 0 122.162 12.598 1539 101.582 39.3379 452.999
1756 0 126.394 13.2206 1671 101.73 38.9791 451.35
1757 0 130.361 13.9689 1821 100.346 39.1549 447.512
1758 0 136.154 14.0502 1913 99.4062 38.8547 443.031
1759 0 140.305 12.2519 1719 102.112 38.4491 443.219
1760 0 143.574 11.6664 1675 104.128 38.7857 438.14
1761 1 83.1542 10.4144 866 91.2621 40.2309 474.273
1762 0 86.2564 11.8484 1022 89.0421 39.8268 472.206
1763 0 87.0374 10.731 934 92.2313 38.5578 469.911
1764 0 91.2274 11.8934 1085 91.6258 39.3355 467.529
1765 0 95.5522 10.9992 1051 92.9153 39.2084 458.713
1766 0 98.6154 9.97816 984 94.4898 39.0051 460.045
1767 0 100.524 9.73892 979 95.7467 38.7896 457.774
1768 0 102.489 10.5865 1085 96.3124 38.6544 456.415
1769 0 107.426 11.9617 1285 95.1354 38.3416 456.611
1770 0 108.679 11.4189 1241 95.7728 38.7188 452.195
1771 0 114.694 12.6336 1449 95.5776 38.7702 451.133
1772 0 118.654 12.0181 1426 96.7952 38.7013 449.31
1773 0 120.764 13.9279 1682 93.9322 38.0262 448.603
1774 1 68.643 9.17792 630 88.9016 38.3794 480.275
1775 0 68.5556 10.0357 688 92.8663 38.4084 472.515
1776 0 71.3806 11.5858 827 90.8222 38.584 474.177
1777 0 73.3633 9.6097 705 95.2482 38.8695 478.197
1778 0 75.3332 10.2478 772 95.4832 38.6554 475.023
1779 0 76.3536 11.0407 843 95.6168 38.9609 471.998
1780 0 81.3523 11.4195 929 94.958 39.2777 469.471
1781 0 83.2155 11.0676 921 95.6645 38.9186 471.001
1782 0 85.2312 12.4837 1064 93.6523 39.8506 470.512
1783 0 87.2396 11.7034 1021 95.7062 39.0039 470.562
1784 0 88.3862 11.7779 1041 97.2085 39.3689 465.968
1785 0 92.4266 12.3125 1138 96.6661 40.0975 465.776
1786 0 96.4408 11.5408 1113 98.5265 39.4924 465.65
1787 0 96.5986 12.3294 1191 98.6398 40.2024 459.474
1788 0 99.6221 11.8046 1176 100.192 39.8937 460.355
1789 0 102.589 12.8377 1317 98.5611 39.9491 459.053
1790 0 107.626 12.9615 1395 97.4502 40.2817 458.551
1791 0 108.508 14.0727 1527 97.6293 40.1807 452.053
1792 0 111.554 13.0341 1454 99.5282 40.0055 452.252
1793 0 113.468 12.2061 1385 100.924 39.8282 450.23
1794 0 119.435 13.5722 1621 98.8192 40.0247 447.38
1795 0 121.443 13.2243 1606 100.191 39.4857 444.946
1796 0 123.636 12.5772 1555 101.771 39.3775 443.447
1797 0 124.389 10.5958 1318 105.362 39.9575 442.98
1798 0 132.487 14.3561 1902 97.164 39.5494 444.396
1799 0 136.388 13.6742 1865 99.3716 39.8509 440.734
1800 0 138.366 12.3658 1711 102.297 39.9527 437.082
1801 0 144.376 14.0467 2028 99.2041 40.3674 432.32
1802 1 82.2255 11.1523 917 91.6947 40.3915 470.845
1803 0 83.0893 13.1666 1094 90.8583 39.2971 472.237
1804 0 84.0925 11.8679 998 92.7224 39.6924 471.191
1805 0 88.2276 12.9665 1144 91.3724 39.6713 465.679
1806 0 90.2846 12.8372 1159 93.2882 39.1657 461.475
1807 0 94.2321 13.1166 1236 91.6416 39.0736 465.196
1808 0 96.2835 12.8163 1234 92.9222 39.7731 464.565
1809 0 98.2549 12.2335 1202 95.6123 39.9235 461.343
1810 0 101.161 11.9809 1212 96.7962 39.7706 459.949
1811 0 105.168 12.4943 1314 95.2778 39.3836 459.855
1812 0 108.327 12.4899 1353 96.646 39.2609 452.831
1813 0 111.451 12.2565 1366 97.4085 39.6881 451.277
1814 0 115.605 12.1275 1402 98.0078 39.2446 448.527
1815 0 119.498 13.3726 1598 96.2015 39.3016 445.847
1816 0 122.393 12.7703 1563 96.7735 39.428 450.528
1817 0 124.321 11.5186 1432 97.655 40.3024 449.203
1818 1 69.2453 10.8022 748 88.8623 40.0949 479.291
1819 0 69.1454 11.7578 813 88.0418 39.2964 480.209
1820 0 71.2157 12.0339 857 87.3361 39.049 479.895
1821 0 75.205 11.5285 867 87.9527 38.925 472.549
1822 0 75.2705 11.5716 871 90.2331 39.5741 471.312
1823 0 78.2499 12.0256 941 89.0563 39.6174 474.304
1824 0 78.1433 10.6471 832 91.5661 39.857 474.577
1825 0 83.1043 11.1065 923 91.2373 39.3694 472.496
1826 0 84.3457 11.9982 1012 90.3538 40.5069 466.59
1827 0 88.3359 11.1733 987 91.4833 41.0922 469.846
1828 0 91.3064 11.894 1086 90.9153 40.1731 467.147
1829 0 93.3136 10.245 956 93.4644 39.8964 466.896
1830 0 98.2482 13.3743 1314 88.8995 40.2998 465.575
1831 0 99.198 11.9962 1190 92.4328 40.1437 463.238
1832 0 104.345 12.2383 1277 91.9554 39.9005 462.892
1833 0 105.502 10.0662 1062 95.1648 41.3249 462.11
1834 0 108.556 10.9253 1186 95.333 40.9089 459.056
1835 0 114.25 12.2013 1394 95.2704 40.8486 456.991
1836 0 117.379 10.4448 1226 100.02 40.4062 453.56
1837 0 122.136 11.7492 1435 96.1972 40.5645 455.73
1838 0 126.078 12.1432 1531 95.8883 39.371 450.975
1839 1 73.1668 12.0546 882 91.6032 37.9898 470.053
1840 0 74.2292 12.906 958 90.7484 37.904 472.424
1841 0 76.1599 14.0494 1070 89.172 37.9159 470.849
1842 0 79.2824 13.2564 1051 90.1066 38.0514 472.38
1843 0 79.1536 11.9262 944 93.9163 37.8761 472.648
1844 0 82.1923 13.0913 1076 91.6506 38.5697 468.704
1845 0 87.295 12.727 1111 91.8065 38.5509 470.278
1846 0 89.3159 13.7937 1232 91.2963 38.28 468.269
1847 0 92.1696 14.9073 1374 89.4949 38.2795 463.721
1848 0 96.1576 14.3618 1381 91.2064 38.5532 467.148
1849 0 96.1265 12.4315 1195 96.3649 39.5088 465.861
1850 0 99.1688 12.5947 1249 96.7686 37.8343 461.548
1851 0 104.246 12.4609 1299 97.3872 37.4965 461.816
1852 0 106.349 13.277 1412 100.994 37.255 456.938
1853 0 110.179 13.6323 1502 98.9514 37.7996 453.417
1854 0 114.178 13.8381 1580 97.4443 37.8405 452.263
1855 0 113.449 11.9789 1359 100.395 39.6203 448.379
1856 1 63.1149 11.1384 703 97.5718 41.1508 477.974
1857 0 67.1592 12.8203 861 101.261 40.9257 481.115
1858 0 69.0963 12.7793 883 101.615 40.5255 478.695
1859 0 71.1376 12.1033 861 100.797 40.2962 477.47
1860 0 72.1651 11.1273 803 100.438 40.2217 469.783
1861 0 76.2655 12.9679 989 101.989 39.3721 472.651
1862 0 80.3124 13.5347 1087 99.6191 39.4591 467.472
1863 0 81.3638 12.6838 1032 101.737 39.155 467.954
1864 0 84.2572 12.355 1041 102.577 39.5889 467.181
1865 0 86.3432 13.4232 1159 99.6635 39.6126 466.587
1866 0 88.4204 12.5989 1114 101.217 39.4354 466.262
1867 0 90.1956 10.3442 933 91.1222 39.2562 465.328
1868 0 94.149 11.4287 1076 90.6905 39.2481 464.795
1869 0 96.1909 11.0198 1060 92.8726 38.9481 463.262
1870 0 100.192 11.3582 1138 93.7636 38.5422 463.668
1871 1 56.1697 11.6255 653 91.4946 38.1424 485.006
1872 0 57.1855 11.0168 630 91.1159 38.9825 484.543
1873 0 59.1327 13.1569 778 87.8509 38.7532 482.288
1874 0 60.1805 11.183 673 89.4606 39.0223 481.23
1875 0 61.2053 11.4369 700 89.21 39.0786 481.29
1876 0 63.3714 12.3715 784 88.0829 39.162 480.114
1877 0 65.1346 12.2669 799 88.1039 39.4531 479.156
1878 0 67.1779 10.8964 732 89.2801 40.1926 478.821
1879 0 67.1996 11.0417 742 90.7102 39.1334 480.156
1880 0 70.2414 13.2401 930 87.9677 38.5946 477.874
1881 0 72.4597 12.8347 930 88.4054 38.8215 475.526
1882 0 74.149 13.0683 969 88.2972 38.5046 474.431
1883 0 77.2911 13.9084 1075 86.8558 38.2874 474.393
1884 0 80.3509 11.7983 948 90.7257 38.4757 474.911
1885 0 81.3305 13.8693 1128 88.6596 38.8112 470.32
1886 0 82.2599 12.5334 1031 91.1833 38.322 472.239
1887 0 86.5101 15.4086 1333 87.0195 38.7592 466.782
1888 0 90.6338 14.2883 1295 88.6394 39.1266 465.011
1889 0 93.5078 12.7155 1189 91.6341 38.5627 464.513
1890 0 94.5754 12.572 1189 92.7477 38.9622 463.774
1891 0 98.6597 13.7746 1359 94.6637 39.8021 459.864
1892 0 101.799 13.4187 1366 95.7518 40.2401 459.394
1893 0 103.243 12.059 1245 94.3486 39.7703 452.764
1894 0 108.29 14.1749 1535 90.9661 39.9681 455.913
1895 0 110.223 13.0826 1442 93.3128 39.6179 456.844
1896 0 114.224 15.566 1778 88.8633 40.1046 455.384
1897 0 118.361 12.9519 1533 93.5206 40.3372 454.323
1898 0 120.472 12.783 1540 94.5857 40.2929 449.175
1899 0 125.416 13.4193 1683 93.997 39.7796 449.636
1900 0 127.401 12.8649 1639 95.8591 39.5192 446.439
1901 1 72.222 11.077 800 90.1238 40.3775 478.712
1902 0 76.396 13.4693 1029 87.3256 40.6307 476.081
1903 0 79.2853 12.4866 990 89.1182 39.8929 472.579
1904 0 80.3684 11.945 960 88.6167 40.2312 475.719
1905 0 82.0648 12.3926 1017 89.0354 40.6558 474.207
1906 0 87.2142 13.5758 1184 87.7601 40.3041 461.485
1907 0 90.3359 13.3834 1209 87.6344 39.7122 465.79
1908 0 91.5072 11.5073 1053 91.4777 39.282 464.61
1909 0 97.3307 13.4593 1310 88.074 39.5435 468.251
1910 0 98.5293 13.732 1353 89.6223 40.187 464.072
1911 0 102.638 13.8837 1425 90.9768 39.4505 463.642
1912 0 105.413 12.8542 1355 93.5993 39.7137 461.904
1913 0 106.483 13.7392 1463 94.1798 39.3247 457.772
1914 0 111.725 13.5064 1509 95.6262 40.2207 459.45
1915 0 112.58 11.7694 1325 99.1592 40.2038 458.361
1916 0 118.561 12.871 1526 95.1186 39.7955 457.661
1917 1 63.1852 12.7403 805 90.6447 40.7888 482.119
1918 0 63.3224 12.6338 800 91.5825 40.6175 479.01
1919 0 67.3857 13.7418 926 89.0108 40.8758 480.083
1920 0 69.4129 13.2828 922 91.8102 40.2462 477.35
1921 0 71.1956 13.0766 931 93.3029 40.6864 477.489
1922 0 74.5819 14.3466 1070 93.1421 40.2346 475.966
1923 0 76.3472 12.9278 987 96.7578 40.0618 473.357
1924 0 77.443 13.2614 1027 97.3554 40.6475 474.151
1925 0 81.3759 13.7387 1118 96.3372 40.4123 473.283
1926 0 83.4936 14.4921 1210 96.643 39.9595 471.779
1927 0 84.3382 13.5644 1144 99.6687 40.2089 469.701
1928 0 87.5336 12.9436 1133 101.424 40.1721 468.26
1929 0 90.305 14.6504 1323 98.6168 40.0053 469.484
1930 0 93.4351 14.6091 1365 99.4989 39.9143 467.67
1931 0 94.4555 12.8314 1212 105.147 39.5462 465.054
1932 0 98.4032 14.1662 1394 103.39 39.7834 465.937
1933 0 100.194 14.6316 1466 105.363 39.9011 464.714
1934 0 103.368 13.7857 1425 108.687 39.7411 463.028
1935 0 105.365 14.1034 1486 109.393 39.8768 461.476
1936 0 110.271 14.7183 1623 109.132 39.5416 457.992
1937 0 112.207 14.2059 1594 110.088 39.4567 458.713
1938 0 117.236 14.5092 1701 110.785 40.05 455.877
1939 0 119.339 14.0189 1673 112.515 40.2684 455.419
1940 0 124.249 16.1933 2012 108.638 39.909 451.77
1941 0 129.275 14.4189 1864 113.538 39.6035 451.186
1942 0 134.184 15.6949 2106 112.062 39.292 446.503
1943 1 72.1057 11.2474 811 110.621 39.6967 478.961
1944 0 75.1757 12.1316 912 109.075 39.4463 478.569
1945 0 79.1502 13.746 1088 106.609 39.0037 475.256
1946 0 81.126 13.177 1069 110.004 39.5547 471.776
1947 0 83.1193 13.1137 1090 110.556 40.1064 473.806
1948 0 85.1125 12.7948 1089 113.597 40.09 470.142
1949 0 87.1693 13.5828 1184 112.36 39.9544 469.228
1950 0 93.2986 14.9841 1398 107.634 39.2833 468.938
1951 0 94.166 12.6691 1193 114.039 39.2087 468.428
1952 0 99.1948 14.5068 1439 109.862 40.2106 465.486
1953 0 101.348 14.5736 1477 111.517 39.3636 463.146
1954 0 104.312 13.8623 1446 114.168 39.5609 461.156
1955 0 106.692 13.6281 1454 115.861 39.3707 456.428
1956 0 110.57 12.526 1385 117.141 39.2383 459.021
1957 1 64.4687 13.3088 858 108.223 39.3508 477.001
1958 0 66.2587 12.7983 848 107.468 38.8868 479.037
1959 0 67.0454 14.7065 986 103.967 39.5467 480.043
1960 0 72.0707 13.8336 997 104.444 39.7202 479.811
1961 0 71.0666 13.2692 943 107.368 39.2397 476.752
1962 0 73.0565 12.415 907 107.922 40.0088 477.264
1963 0 76.3475 13.3207 1017 106.868 40.0659 473.259
1964 0 80.1851 12.5086 1003 107.432 40.0299 475.281
1965 0 83.1467 13.9031 1156 106.454 39.5683 472.059
1966 0 85.1709 13.5962 1158 107.896 39.6511 472.213
1967 0 87.2924 13.5751 1185 108.425 39.9072 471.235
1968 0 90.2751 13.913 1256 108.811 39.2619 470.09
1969 0 93.2812 13.7219 1280 112.289 39.3828 464.431
1970 0 97.3623 13.3317 1298 112.748 39.6549 467.23
1971 0 99.4962 13.1462 1308 113.65 39.4534 465.093
1972 0 102.314 12.2759 1256 115.254 39.5135 465.614
1973 0 107.458 14.508 1559 111.964 39.2771 461.685
1974 0 110.685 13.6603 1512 113.819 39.8538 460.58
1975 1 61.2956 12.66 776 109.885 40.1379 483.772
1976 0 63.2707 12.9128 817 112.717 39.8127 482.081
1977 0 63.3458 12.0766 765 120.148 39.4784 481.997
1978 0 68.3309 12.8785 880 116.141 39.9409 481.278
1979 0 68.3608 13.341 912 116.188 39.6414 479.433
1980 0 72.2165 13.3626 965 114.68 38.9617 477.798
1981 0 74.3159 13.2946 988 113.945 39.0354 475.998
1982 0 77.1904 13.4473 1038 113.901 39.3526 475.916
1983 0 79.3346 13.0082 1032 114.018 39.3837 475.16
1984 0 81.3898 14.019 1141 111.127 39.1052 473.493
1985 0 84.2174 13.1802 1110 112.577 38.6297 472.166
1986 0 86.193 13.7018 1181 110.249 38.9077 469.209
1987 0 90.2548 14.0824 1271 108.517 38.8639 463.814
1988 0 92.2848 12.7757 1179 109.383 38.7006 468.136
1989 0 96.238 14.3291 1379 104.903 38.57 467.766
1990 0 98.1443 13.5922 1334 106.863 39.027 462.895
1991 0 100.085 13.1788 1319 106.783 37.8939 462.296
1992 0 106.203 12.6174 1340 107.466 37.6284 451.21
1993 0 107.535 13.1678 1416 106.85 37.6674 451.229
1994 0 113.5 13.7269 1558 104.978 38.251 456.711
1995 0 114.57 13.1273 1504 107.614 38.2081 452.426
1996 1 61.3092 11.6948 717 98.8801 38.5718 482.166
1997 0 63.1179 12.4529 786 98.1514 39.1959 482.501
1998 0 65.1824 12.979 846 93.5024 38.8629 475.337
1999 0 67.254 13.5754 913 94.2946 38.7076 470.857
2000 0 69.1634 11.4078 789 97.4347 39.9392 471.587
2001 0 69.0792 12.4929 863 97.3175 39.2433 469.169
2002 0 70.1388 13.345 936 95.6603 39.547 470.279
2003 0 76.2045 13.805 1052 99.4354 40.1065 472.3
2004 0 78.1813 14.2106 1111 106.827 40.0846 476.017
2005 0 80.3143 13.1732 1058 110.971 39.7202 475
2006 0 84.2604 13.8381 1166 110.652 39.4262 474.299
2007 0 87.419 14.2418 1245 113.417 39.6088 465.11
2008 0 87.3549 13.9775 1221 115.533 39.5332 470.74
2009 0 91.3312 13.796 1260 116.134 39.3746 467.71
2010 0 94.4891 14.8589 1404 113.342 39.1702 468.788
2011 0 94.4688 13.867 1310 117.129 39.684 467.665
2012 0 98.4767 13.9322 1372 117.62 38.9264 463.88
2013 0 101.204 15.5132 1570 113.456 38.8701 464.523
2014 0 104.338 14.7693 1541 115.483 38.4023 460.967
2015 0 107.304 14.5195 1558 116.232 37.8999 454.642
2016 0 108.294 14.4237 1562 116.78 38.2081 455.777
2017 0 110.284 14.1725 1563 114.845 38.7876 458.29
2018 0 115.204 14.8953 1716 104.303 38.6824 450.444
2019 1 62.1718 11.6773 726 103.41 38.8292 479.632
2020 0 63.1536 10.8941 688 107.679 38.5451 478.789
2021 0 65.1089 10.8895 709 109.35 39.0621 476.42
2022 0 68.2235 12.5763 858 104.348 38.8974 472.847
2023 0 68.1263 11.2879 769 107.384 38.8583 471.739
2024 0 70.1713 12.6547 888 106.214 38.5169 469.878
2025 0 72.2183 12.3237 890 106.988 38.3843 468.927
2026 0 74.1236 11.5483 856 109.256 38.3329 467.813
2027 0 81.0868 13.1341 1065 103.562 39.0131 471.305
2028 0 84.1883 14.0875 1186 105.739 39.3128 471.408
2029 0 86.089 13.73 1182 102.222 39.2064 469.914
2030 0 87.1561 12.5522 1094 105.598 39.3638 470.041
2031 0 92.1396 14.1524 1304 102.567 39.684 467.793
2032 0 94.1671 12.6371 1190 106.11 39.4227 467.222
2033 0 97.5184 13.1873 1286 107.148 38.311 462.33
2034 0 99.2546 11.9591 1187 109.512 39.1306 464.782
2035 0 104.197 14.1654 1476 105.203 39.643 459.457
2036 0 106.249 12.8754 1368 108.571 39.2054 461.1
2037 1 56.0433 10.8309 607 101.105 38.8699 484.409
2038 0 59.3165 12.1383 720 98.9278 38.1097 481.799
2039 0 60.1182 11.8932 715 99.7678 39.1902 483.628
2040 0 61.1361 12.2514 749 101.031 39.713 484.001
2041 0 65.2014 12.6991 828 100.326 39.7476 481.99
2042 0 67.3178 12.181 820 96.4976 38.1354 476.715
2043 0 69.0777 11.668 806 100.11 39.7593 479.252
2044 0 70.1933 12.5653 882 95.898 38.7211 476.24
2045 0 72.1115 11.4822 828 98.6184 38.2657 475.029
2046 0 75.1196 12.9394 972 97.9311 39.4126 476.013
2047 0 77.1847 12.7746 986 98.6237 38.8753 474.409
2048 0 79.2613 11.0647 877 101.156 39.3364 475.83
2049 0 84.2036 12.0541 1015 101.109 39.3773 473.701
2050 0 86.3985 12.9748 1121 108.131 39.4773 469.608
2051 0 90.4965 14.9288 1351 105.205 39.2087 468.894
2052 0 92.273 12.6472 1167 107.776 38.4105 467.596
2053 0 100.443 15.7801 1585 101.881 38.9047 459.507
2054 0 101.445 15.7722 1600 104.763 38.4469 458.909
2055 0 100.411 14.2613 1432 109.772 38.3163 457.367
2056 0 105.291 12.6412 1331 102.932 38.1104 457.514
2057 0 107.324 12.2806 1318 103.606 37.8672 458.113
2058 1 58.5278 10.6616 624 100.835 37.5946 480.534
2059 0 62.3117 11.8116 736 98.2405 38.6698 481.924
2060 0 63.1179 11.9459 754 108.893 37.6379 479.605
2061 0 65.1904 12.7319 830 106.766 37.5398 479.052
2062 0 68.0916 12.7182 866 106.725 38.2656 480.083
2063 0 69.144 12.7126 879 107.348 39.0375 477.163
2064 0 71.1725 12.6453 900 106.407 38.4544 476.972
2065 0 74.2421 11.9609 888 107.84 38.8108 475.179
2066 0 78.2559 14.0948 1103 102.296 38.7634 468.28
2067 0 79.2422 13.5786 1076 103.373 38.763 473.842
2068 0 83.1994 13.1011 1090 103.262 38.2798 473.577
2069 0 83.1658 12.6013 1048 104.479 38.3979 471.346
2070 0 85.4121 11.2279 959 106.437 38.2461 470.919
2071 0 90.3488 11.5109 1040 105.42 38.2087 468.762
2072 0 91.2572 12.9853 1185 101.887 38.4068 466.678
2073 0 95.319 11.7605 1121 103.259 38.033 469.534
2074 1 52.0805 11.0598 576 98.7587 38.7292 486.885
2075 0 52.3548 9.95133 521 101.069 38.9021 484.779
2076 0 54.375 12.0644 656 99.1524 38.4268 480.523
2077 0 57.2776 12.518 717 104.195 38.0195 480.418
2078 0 60.1839 13.8741 835 101.352 38.5186 483.181
2079 0 60.1118 13.1422 790 102.899 40.2278 485.386
2080 0 62.0897 12.7396 791 104.381 40.1555 482.26
2081 0 64.122 13.4431 862 102.393 40.3097 481.68
2082 0 67.0733 13.0603 876 101.864 39.7911 483.36
2083 0 67.085 12.9537 869 104.067 39.8665 480.398
2084 0 71.0928 14.685 1044 99.5393 39.4358 478.34
2085 0 73.1198 13.43 982 102.527 39.6365 476.296
2086 0 75.2043 14.1481 1064 101.508 39.3271 474.2
2087 0 77.1417 12.3539 953 105.003 39.8216 476.01
2088 0 80.1614 14.2712 1144 101.788 39.4012 473.101
2089 0 83.3757 14.3447 1196 101.658 39.107 472.963
2090 0 84.4616 14.1129 1192 104.373 38.7651 470.449
2091 0 86.419 12.9138 1116 109.02 39.3369 469.77
2092 0 90.6028 12.8362 1163 109.117 38.9243 465.349
2093 0 91.6213 11.493 1053 112.174 38.1719 466.2
2094 0 93.2487 11.1422 1039 103.627 36.9009 463.376
2095 0 96.1988 11.6114 1117 102.997 37.744 465.87
2096 0 101.215 13.1009 1326 100.424 37.733 463.083
2097 0 103.286 13.0027 1343 101.996 37.5436 462.833
2098 0 107.52 12.8348 1380 103.348 37.4601 459.722
2099 0 110.251 12.6348 1393 103.842 37.6138 458.27
2100 0 111.473 11.1955 1248 108.173 37.9046 454.039
2101 0 117.453 12.4646 1464 105.783 37.8982 455.745
2102 0 122.481 14.6798 1798 102.071 37.96 448.456
2103 1 64.2458 10.6777 686 99.8732 37.8907 478.768
2104 0 68.1336 11.7123 798 95.3772 40.1053 482.708
2105 0 69.1792 10.5089 727 95.8514 38.2641 473.409
2106 0 70.387 11.5646 814 95.355 37.6708 473.117
2107 0 73.1204 11.5973 848 97.5826 37.2288 476.532
2108 0 75.2741 11.9164 897 97.3188 37.5875 474.362
2109 0 78.1229 12.5571 981 97.7655 37.8084 475.064
2110 0 80.3634 12.1075 973 97.9743 38.0062 477.298
2111 0 82.2907 12.8082 1054 98.1698 38.3975 472.945
2112 0 85.1471 11.8971 1013 99.4373 37.1046 471.033
2113 0 89.513 12.9367 1158 97.3117 37.1028 468.126
2114 0 90.4552 11.7959 1067 100.512 37.493 463.171
2115 0 93.4051 13.8536 1294 96.9606 37.4312 461.548
2116 0 98.4082 13.0578 1285 98.4008 37.27 461.66
2117 0 101.297 12.9322 1310 99.2244 38.0878 462.947
2118 0 103.475 13.1143 1357 99.4915 38.5232 463.476
2119 0 104.146 11.9832 1248 102.511 38.4663 462.142
2120 0 108.283 12.3288 1335 103.509 37.8966 458.773
2121 0 114.329 12.7614 1459 102.796 38.5175 454.167
2122 0 117.303 13.6313 1599 101.375 38.7436 456.543
2123 0 121.471 11.83 1437 105.768 38.3285 452.542
2124 1 74.3172 13.0253 968 97.1085 38.0413 467.818
2125 0 75.5117 13.5873 1026 97.5039 38.7057 469.629
2126 0 76.3201 13.4041 1023 97.5142 37.9892 472.64
2127 0 78.2384 12.5258 980 100.015 38.2745 471.763
2128 0 82.1921 13.1278 1079 101.185 39.0741 471.482
2129 0 85.2957 12.3922 1057 103.927 38.8297 471.025
2130 0 86.282 12.7373 1099 104.016 38.7989 470.567
2131 0 89.3389 13.4432 1201 103.24 38.6778 464.982
2132 0 93.5265 13.13 1228 103.548 38.7647 464.944
2133 0 97.5316 13.0932 1277 103.043 38.5247 465.677
2134 0 98.5268 13.5699 1337 102.487 39.439 465.792
2135 0 103.694 13.0577 1354 104.016 39.127 462.758
2136 0 105.445 13.0115 1372 104.311 39.0816 459.705
2137 0 107.45 14.3136 1538 102.443 39.3316 457.778
2138 0 111.337 13.7691 1533 103.537 38.9315 457.992
2139 0 113.516 12.6502 1436 106.708 38.4373 457.263
2140 0 119.24 14.064 1677 107.095 37.4878 454.667
2141 1 65.0613 10.9435 712 96.7317 37.8048 479.972
2142 0 64.1098 10.326 662 98.1601 39.2432 480.476
2143 0 70.2472 12.0859 849 96.5901 39.6349 480.856
2144 0 71.2901 12.2738 875 97.1063 38.3589 480.105
2145 0 69.3886 11.6446 808 100.064 38.7129 476.521
2146 0 74.1397 11.9504 886 99.3442 39.272 476.796
2147 0 73.2267 10.6655 781 102.881 37.8988 477.568
2148 0 78.3932 11.6081 910 99.3209 38.589 467.314
2149 0 81.1857 12.2312 993 99.6475 38.2054 472.312
2150 0 81.2021 12.1425 986 100.365 39.0274 472.18
2151 0 85.1349 11.9575 1018 101.004 38.6149 469.785
2152 0 90.1227 11.8394 1067 101.423 38.343 469.879
2153 0 94.3227 12.9237 1219 100.377 38.1386 467.088
2154 1 51.0986 11.7616 601 97.9451 39.3927 488.907
2155 0 57.2068 11.6595 667 97.5652 39.021 486.219
2156 0 56.0836 11.893 667 97.7946 39.2414 485.357
2157 0 57.1006 12.7144 726 94.865 37.5427 483.405
2158 0 60.0727 12.3351 741 93.448 38.0904 481.277
2159 0 61.1481 12.2653 750 95.7 39.2227 483.8
2160 0 64.0555 12.8014 820 95.1037 39.1659 483.456
2161 0 66.0448 14.8384 980 92.0704 38.5959 482.373
2162 0 66.0474 12.8241 847 96.7733 39.4746 480.564
2163 0 69.1049 13.4867 932 95.8702 40.029 479.298
2164 0 70.2296 13.0429 916 96.6103 38.6528 466.398
2165 0 72.1976 12.0226 868 99.0841 38.2454 474.835
2166 0 74.2494 12.7813 949 99.0464 37.687 471.804
2167 0 78.1938 12.0854 945 101.128 37.2582 471.001
2168 0 80.2238 14.0731 1129 97.4048 38.1408 471.446
2169 0 81.1827 13.1432 1067 98.8172 39.0122 473.142
2170 0 84.1418 12.5859 1059 104.086 39.5798 473.021
2171 0 88.1037 14.4262 1271 103.542 39.2581 470.39
2172 0 93.1286 13.6048 1267 103.946 38.8248 468.639
2173 0 90.1512 13.2777 1197 107.231 38.8989 466.526
2174 0 96.12 13.6496 1312 105.338 38.8544 466.688
2175 0 98.2448 13.2628 1303 101.594 38.8312 461.313
2176 0 101.243 13.4626 1363 101.023 38.9061 464.548
2177 0 103.249 13.2302 1366 104.317 38.746 463.376
2178 0 108.196 13.2353 1432 103.603 38.5866 462.21
2179 0 107.244 12.383 1328 113.782 38.4172 457.053
2180 0 110.247 11.3291 1249 108.015 38.7838 456.239
2181 1 62.1222 13.1354 816 101.521 39.0564 480.641
2182 0 63.085 11.3498 716 100.908 38.4651 482.7
2183 0 66.0402 13.3404 881 98.1646 39.0227 479.789
2184 0 66.0441 11.9617 790 102.332 38.8886 479.863
2185 0 69.1633 12.5934 871 100.086 39.5304 479.745
2186 0 70.0911 11.856 831 102.046 39.296 479.159
2187 0 74.1184 12.4935 926 99.8272 39.6836 477.27
2188 0 77.081 12.8177 988 99.4595 38.7358 474.777
2189 0 79.0646 12.8502 1016 100.1 38.8573 471.543
2190 0 84.1294 12.7066 1069 99.6202 39.0037 471.783
2191 0 86.0713 13.7909 1187 99.1365 37.722 471.459
2192 0 88.114 12.5633 1107 99.9693 37.0126 469.388
2193 0 91.2127 14.373 1311 97.0015 37.5843 465.426
2194 0 93.202 12.1135 1129 100.131 37.1213 468.903
2195 0 96.1592 11.6993 1125 103.855 37.8871 467.484
2196 0 101.163 13.8885 1405 100.019 37.2641 464.711
2197 0 102.098 12.5271 1279 102.227 36.6435 460.686
2198 1 58.0843 12.413 721 102.988 37.0707 481.197
2199 0 63.1294 13.2268 835 98.0575 36.8994 480.275
2200 0 63.1441 13.1445 830 95.2157 37.2241 481.323
2201 0 64.1075 12.7598 818 98.3839 37.7787 480.778
2202 0 64.1861 11.342 728 101.753 37.8146 479.927
2203 0 66.0648 12.2153 807 101.613 37.1512 478.335
2204 0 70.0568 12.3614 866 100.786 37.7333 478.306
2205 0 74.0879 13.9024 1030 98.1311 37.699 476.803
2206 0 74.0562 12.9496 959 102.313 37.1867 470.828
2207 0 76.0807 13.1177 998 101.569 37.6804 472.997
2208 0 78.0486 13.3122 1039 102.46 37.7757 470.998
2209 0 82.1857 14.4672 1189 99.3827 37.7704 472.352
2210 0 84.11 12.9711 1091 99.9157 38.4519 471.184
2211 0 84.0694 12.4064 1043 102.418 39.0038 469.696
2212 0 90.0818 13.0215 1173 100.334 38.318 468.111
2213 0 93.16 14.1584 1319 99.4572 38.5898 467.433
2214 0 97.1953 14.9801 1456 98.1841 38.1683 468.762
2215 0 98.0945 13.7215 1346 102.767 37.7682 463.698
2216 0 103.321 13.85 1431 102.392 37.5989 462.801
2217 0 105.196 14.0974 1483 102.722 38.0695 463.584
2218 0 110.121 14.1209 1555 103.941 38.8315 458.942
2219 1 57.1264 10.328 590 107.715 40.1271 484.975
2220 0 60.1185 12.4255 747 104.091 39.9518 484.327
2221 0 63.1244 14.0675 888 102.303 36.598 480.258
2222 0 65.1194 14.174 923 96.1343 40.0347 483.717
2223 0 66.0512 13.0656 863 101.333 38.0672 481.027
2224 0 67.1238 12.7079 853 103.753 38.5709 479.995
2225 0 69.144 13.3345 922 102.491 38.1822 478.78
2226 0 71.0368 13.3452 948 103.147 38.5475 479.059
2227 0 76.0926 14.4035 1096 100.588 38.5931 476.724
2228 0 76.1309 12.8069 975 104.547 38.9467 476.869
2229 0 77.1226 12.8367 990 109.416 37.9788 476.021
2230 0 80.0458 14.0045 1121 107.686 38.1231 474.779
2231 0 82.1368 13.2827 1091 111.636 37.2255 472.082
2232 0 84.1338 13.8826 1168 112.013 37.4949 469.474
2233 0 87.192 15.311 1335 108.115 38.209 469.43
2234 0 90.1352 13.6684 1232 111.275 39.0406 469.532
2235 0 92.1949 13.7426 1267 111.865 39.3923 468.658
2236 0 95.2504 15.181 1446 109.001 39.334 465.903
2237 0 95.2115 13.0131 1239 115.616 37.9839 465.86
2238 0 98.221 13.602 1336 114.356 38.9416 464.422
2239 0 103.233 12.9029 1332 115.643 39.2703 461.818
2240 0 104.238 13.3157 1388 115.375 38.8566 459.375
2241 0 106.331 13.6742 1454 114.73 38.2283 459.88
2242 0 112.262 13.3883 1503 113.528 38.9009 460.321
2243 0 114.306 14.8374 1696 111.658 39.3638 454.664
2244 0 119.332 14.2375 1699 111.944 38.9252 455.26
2245 0 122.298 13.1891 1613 115.157 38.0099 451.634
2246 0 126.651 14.6623 1857 111.774 38.1492 447.148
2247 0 129.218 13.543 1750 114.224 38.7309 443.924
2248 0 130.241 12.9453 1686 115.773 39.1993 442.556
2249 0 135.179 13.3527 1805 113.652 38.9939 441.13
2250 0 138.109 14.2134 1963 111.693 39.2129 435.114
2251 1 81.0676 12.064 978 107.773 37.3538 463.382
2252 0 82.2656 11.706 963 113.393 37.5379 467.477
2253 0 88.4958 13.5487 1199 103.193 37.9716 467.31
2254 0 92.7722 14.7889 1372 101.359 37.7646 466.763
2255 0 94.4011 13.5592 1280 109.253 37.707 464.345
2256 0 95.3779 12.0468 1149 113.35 37.1062 465.457
2257 0 98.5692 13.0162 1283 111.226 38.2089 461.161
2258 0 99.3837 12.7184 1264 112.799 37.1559 459.712
2259 0 104.575 12.852 1344 108.754 37.3631 461.097
2260 0 107.431 11.7005 1257 111.399 37.8544 459.677
2261 0 108.514 13.3255 1446 109.295 37.5692 458.812
2262 0 116.5 14.3347 1670 107.82 37.7359 457.485
2263 0 120.442 14.3056 1723 106.146 36.6001 459.239
2264 0 122.461 14.9191 1827 105.847 36.5079 457.128
2265 0 123.493 14.268 1762 110.26 35.6657 451.703
2266 0 125.298 13.0728 1638 114.099 35.547 452.413
2267 1 69.1284 11.3412 784 108.2 34.9987 484.584
2268 0 73.2812 12.8955 945 104.225 35.2074 484.081
2269 0 69.3273 9.85182 683 97.3865 35.1889 482.55
2270 0 75.2909 10.2536 772 96.8627 35.6723 483.972
2271 0 82.1342 14.7563 1212 95.5 35.0677 487.387
2272 0 82.2747 13.6008 1119 99.8624 36.3378 483.522
2273 0 84.1326 12.9439 1089 102.171 36.225 484.675
2274 0 88.348 12.8469 1135 103.374 35.6855 477.095
2275 0 89.2619 13.1411 1173 103.555 35.9974 479.454
2276 0 91.2329 13.0655 1192 103.232 35.5134 482.503
2277 0 94.2558 12.4979 1178 106.841 35.3014 477.582
2278 0 98.1969 12.5971 1237 106.664 35.0372 477.342
2279 0 99.1915 12.7531 1265 110.2 34.4941 475.201
2280 0 101.187 12.6697 1282 107.306 34.7028 474.256
2281 0 104.264 13.0342 1359 106.439 34.1339 470.196
2282 0 109.197 13.2513 1447 105.706 33.4527 469.504
2283 0 113.191 13.1105 1484 108.974 33.1752 468.084
2284 0 114.318 12.7977 1463 109.431 33.1353 464.739
2285 0 118.332 13.2255 1565 108.891 32.8339 464.512
2286 0 121.339 13.4087 1627 109.931 32.7486 460.127
2287 0 124.29 13.4283 1669 111.217 33.2337 459.027
2288 0 127.72 14.7901 1889 108.867 32.6051 458.646
2289 0 131.355 13.7947 1812 111.465 31.8532 455.876
2290 0 137.405 13.2892 1826 111.783 32.5898 454.453
2291 0 139.581 14.2999 1996 110.419 33.3717 451.158
2292 0 142.663 13.9069 1984 111.906 33.2056 447.263
2293 0 147.577 13.7555 2030 111.311 32.9409 450.218
2294 0 151.676 13.0937 1986 114.063 33.0987 445.173
2295 0 158.637 15.7088 2492 106.951 33.3949 438.621
2296 0 163.386 14.4259 2357 109.263 33.6945 442.965
2297 0 169.523 13.9568 2366 110.238 33.8411 439.218
2298 0 170.506 14.2048 2422 109.659 33.3642 433.246
2299 0 175.48 16.4406 2885 104.426 32.8236 429.765
2300 1 100.387 10.2105 1025 106.025 33.8429 464.325
2301 0 102.249 9.88759 1011 105.85 34.0504 464.011
2302 0 102.251 10.4449 1068 100.279 31.7631 455.066
2303 0 109.472 11.6925 1280 96.5883 31.8266 457.066
2304 0 110.254 12.4531 1373 95.9235 31.6562 462.798
2305 0 116.287 11.0073 1280 100.163 31.7336 460.412
2306 0 121.245 13.0398 1581 94.9254 31.9981 461.601
2307 0 125.14 13.5449 1695 96.8035 31.4684 464.13
2308 0 128.198 11.5758 1484 97.9643 31.6233 460.86
2309 0 133.443 11.8552 1582 97.5044 31.7193 457.548
2310 0 138.306 13.3328 1844 96.5201 31.3422 448.689
2311 0 140.384 10.9628 1539 103.914 30.8564 451.494
2312 0 144.501 13.2456 1914 101.134 31.1599 449.379
2313 0 147.292 13.1915 1943 99.404 31.6984 451.307
2314 0 151.324 11.0029 1665 102.624 31.3315 451.685
2315 0 157.568 10.6938 1685 103.962 31.546 447.525
2316 1 88.2169 10.0321 885 102.45 31.9401 477.776
2317 0 91.2978 12.9686 1184 101.281 31.9299 479.777
2318 0 93.2618 12.1486 1133 102.624 32.2401 476.994
2319 0 98.2218 12.3394 1212 106.984 31.6246 472.898
2320 0 100.329 11.861 1190 107.827 31.7824 472.054
2321 0 102.211 12.4644 1274 107.125 32.5856 467.367
2322 0 106.252 13.1762 1400 105.347 32.5057 469.561
2323 0 108.219 12.7149 1376 107.028 32.9564 469.189
2324 0 111.28 12.5629 1398 108.53 32.5722 466.403
2325 0 116.196 14.4239 1676 103.78 33.0919 467.335
2326 0 118.253 13.767 1628 104.948 33.2826 468.163
2327 0 121.172 12.7339 1543 109.507 33.1866 461.454
2328 0 123.329 12.7869 1577 102.032 32.8928 461.725
2329 0 125.339 12.0075 1505 101.814 33.2106 461.25
2330 0 130.404 12.5073 1631 101.443 33.2784 459.54
2331 0 139.329 14.4047 2007 99.3797 33.8954 450.172
2332 0 142.307 14.0611 2001 101.895 33.7726 454.179
2333 1 79.3562 12.0848 959 105.178 34.0344 482.791
2334 0 82.2436 11.1133 914 100.513 34.0635 481.465
2335 0 86.2345 12.0717 1041 99.5322 33.342 477.917
2336 0 89.4893 13.4206 1201 98.4246 34.1507 477.735
2337 0 90.3742 12.8908 1165 102.815 33.4807 474.807
2338 0 95.3126 12.5272 1194 107.025 33.2705 474.056
2339 0 98.3608 13.359 1314 106.713 33.328 474.03
2340 0 100.293 12.3538 1239 110.878 33.2526 469.52
2341 0 102.218 13.1777 1347 109.238 33.6214 469.246
2342 0 105.37 13.6092 1434 109.37 34.1123 466.581
2343 0 107.354 13.6279 1463 109.256 34.1565 464.87
2344 0 111.393 14.3097 1594 107.311 33.8563 465.245
2345 0 113.443 14.8445 1684 109.438 33.3403 459.705
2346 0 116.542 14.1838 1653 112.154 33.5039 457.175
2347 0 119.686 14.6049 1748 112.71 33.29 451.74
2348 0 122.468 14.3139 1753 114.321 34.425 450.816
2349 0 121.249 13.4846 1635 114.825 34.2135 447.142
2350 0 126.238 12.6903 1602 115.146 34.2129 447.655
2351 0 130.208 14.4615 1883 112.269 34.0101 442.885
2352 1 74.1964 11.8335 878 113.542 34.4886 468.344
2353 0 77.0404 11.7601 906 114.425 35.6258 468.129
2354 0 77.3109 12.0682 933 116.056 34.1254 469.863
2355 0 82.1878 12.9825 1067 113.401 34.0815 470.229
2356 0 86.2803 13.0853 1129 114.503 34.3313 470.384
2357 0 89.2961 12.9009 1152 113.854 34.1562 468.703
2358 0 91.1637 12.4172 1132 118.899 34.7217 465.569
2359 0 96.1302 13.4401 1292 113.663 35.2794 465.834
2360 0 97.1525 13.3501 1297 114.682 35.3562 460.426
2361 0 99.1517 12.1632 1206 118.31 35.0879 461.765
2362 0 103.102 12.9386 1334 115.138 35.0915 458.418
2363 0 107.168 13.4461 1441 111.25 35.347 461.622
2364 0 107.123 12.2382 1311 116.323 35.5118 456.114
2365 0 114.2 13.9755 1596 112.959 35.8033 453.057
2366 0 118.173 12.1009 1430 109.836 36.5622 452.738
2367 0 121.142 13.1251 1590 107.375 36.7352 448.453
2368 0 124.158 12.2264 1518 113.785 36.5481 448.439
2369 0 130.506 12.2676 1601 109.534 36.7639 447.044
2370 1 75.0955 11.1591 838 103.337 38.2661 473.573
2371 0 74.193 11.4162 847 113.374 38.7733 470.654
2372 0 79.0643 12.9515 1024 108.854 35.8965 473.845
2373 0 83.1453 12.6044 1048 108.826 36.1489 472.745
2374 0 82.157 11.0033 904 104.683 37.0675 474.045
2375 0 86.1465 12.0841 1041 103.194 37.3516 470.845
2376 0 88.1391 13.1043 1155 101.163 36.858 470.873
2377 0 89.1837 11.6501 1039 106.02 36.82 466.196
2378 0 92.1964 11.7575 1084 105.488 36.2408 466.783
2379 0 96.1505 13.1252 1262 102.193 36.6466 466.7
2380 0 98.1326 11.7087 1149 105.55 36.0653 465.933
2381 0 101.227 12.4473 1260 104.799 35.9127 461.79
2382 0 105.247 12.7415 1341 103.506 36.3274 462.136
2383 0 106.207 12.485 1326 105.342 36.3281 457.155
2384 0 109.138 13.9731 1525 103.474 36.7213 456.76
2385 0 114.204 13.8174 1578 104.174 35.737 458.445
2386 0 119.289 15.5337 1853 101.15 36.2294 456.058
2387 0 119.385 13.9046 1660 107.363 36.2265 448.555
2388 0 125.273 14.6321 1833 104.154 36.5297 450.077
2389 0 130.534 13.6746 1785 105.073 36.7076 447.544
2390 1 75.289 12.2461 922 82.8503 38.5401 473.615
2391 0 77.2633 12.4898 965 91.0943 38.2052 472.372
2392 0 78.2498 11.54 903 92.3322 38.1406 471.669
2393 0 81.2558 10.9161 887 93.3044 38.0271 472.919
2394 0 86.1835 13.1232 1131 90.7065 37.977 469.762
2395 0 89.188 13.1296 1171 92.304 37.9633 469.436
2396 0 92.3167 12.6304 1166 93.4348 37.94 468.557
2397 0 96.4259 12.2892 1185 101.83 37.0515 468.404
2398 0 96.4853 12.6962 1225 102.56 37.3869 467.379
2399 0 100.482 13.7935 1386 101.589 36.9084 462.668
2400 0 103.368 12.5765 1300 103.95 36.9831 462.951
2401 0 105.448 12.4422 1312 104.193 37.112 462.929
2402 0 108.33 13.385 1450 102.81 36.5172 458.09
2403 0 111.801 13.3183 1489 102.892 36.1578 448.898
2404 0 116.481 13.616 1586 101.589 36.4962 454.442
2405 0 119.812 13.9969 1677 100.286 36.5581 454.417
2406 0 122.755 12.6512 1553 103.53 36.9569 452.673
2407 0 123.555 12.3589 1527 105.12 36.4224 451.79
2408 0 126.258 13.805 1743 94.8032 37.253 449.707
2409 1 66.1261 9.66335 639 91.4601 38.964 481.71
2410 0 68.1507 10.9903 749 88.494 39.498 476.549
2411 0 68.255 11.1494 761 88.6189 39.3574 476.581
2412 0 71.281 11.0969 791 89.1492 39.3755 474.986
2413 0 75.0831 11.6538 875 87.28 39.6023 476.975
2414 0 75.0813 11.3743 854 94.9134 37.3501 476.361
2415 0 76.1426 12.8181 976 93.1332 37.2152 476.139
2416 0 78.1595 11.8604 927 93.3668 37.4315 477.283
2417 0 79.192 11.9457 946 94.777 36.389 471.905
2418 0 83.2719 12.6213 1051 90.9658 36.9096 469.049
2419 0 85.1004 12.6321 1075 90.5526 37.1693 471.747
2420 0 90.1358 12.2482 1104 91.0399 37.4103 467.178
2421 0 91.2194 13.473 1229 89.2075 37.0041 468.194
2422 0 94.1692 11.9147 1122 91.0936 36.8485 467.654
2423 0 96.223 13.0218 1253 90.0918 36.8643 464.256
2424 0 99.1475 11.4476 1135 92.8432 37.1154 461.989
2425 0 99.1101 12.2288 1212 92.868 37.2607 459
2426 0 103.171 12.3194 1271 93.4194 37.4776 447.751
2427 0 108.119 13.9753 1511 90.2171 37.4626 455.946
2428 0 111.108 12.2403 1360 93.4118 37.2066 457.138
2429 0 115.3 13.5385 1561 94.0115 36.5439 456.499
2430 0 118.376 14.5637 1724 92.7796 37.3921 452.508
2431 0 121.414 13.6146 1653 95.121 37.8082 452.265
2432 0 124.63 13.8571 1727 94.6045 37.747 444.767
2433 0 129.535 13.4944 1748 95.4474 37.4531 444.122
2434 0 132.588 12.9725 1720 95.9314 37.7645 445.241
2435 0 138.407 14.0094 1939 94.3079 37.5678 442.021
2436 1 79.1206 12.2471 969 89.4706 38.4799 473.347
2437 0 84.1284 13.8241 1163 86.0722 37.8994 474.506
2438 0 85.184 12.4671 1062 98.7345 36.3776 470.259
2439 0 87.1032 11.0214 960 100.448 37.05 468.341
2440 0 90.0446 12.727 1146 97.7766 36.2225 467.498
2441 0 91.1143 12.4349 1133 100.771 36.4563 464.273
2442 0 92.1351 11.2444 1036 102.377 36.64 467.337
2443 0 96.1685 11.1471 1072 103.234 37.0942 458.688
2444 0 101.364 13.5157 1370 95.8336 37.2489 457.187
2445 0 103.194 12.1325 1252 99.5607 37.4728 459.216
2446 0 106.181 12.6106 1339 100.122 38.0732 459.784
2447 0 109.236 11.9008 1300 102.698 38.7077 445.702
2448 0 112.421 13.0759 1470 101.289 38.4061 447.507
2449 0 114.266 11.8933 1359 103.887 38.2862 450.605
2450 0 117.395 11.9936 1408 103.626 38.3665 451.636
2451 0 122.39 12.7135 1556 102.204 38.1652 449.463
2452 0 126.175 12.5619 1585 100.648 38.1987 447.84
2453 1 73.1755 12.4359 910 100.02 39.0132 474.999
2454 0 76.0652 13.6725 1040 97.9231 38.1567 473.546
2455 0 77.1656 13.6071 1050 99.6857 37.2238 476.382
2456 0 78.1589 12.6537 989 103.902 37.3569 472.121
2457 0 81.119 11.2058 909 106.66 36.9857 472.713
2458 0 82.0894 11.8895 976 106.623 36.9846 471.626
2459 0 87.1678 13.583 1184 103.65 37.3176 469.043
2460 0 87.0685 13.0931 1140 104.694 37.1474 468.448
2461 0 91.231 12.419 1133 104.726 36.7917 468.028
2462 0 93.145 12.1316 1130 105.176 37.2071 467.747
2463 0 96.2646 12.9954 1251 101.097 37.5068 466.436
2464 0 102.163 14.6432 1496 97.4271 37.113 464.553
2465 0 105.18 13.5672 1427 100.114 36.2341 460.7
2466 0 109.404 13.3908 1465 99.6089 36.3413 458.408
2467 0 112.192 12.9332 1451 101.48 36.8298 457.498
2468 0 116.342 12.9704 1509 101.788 36.9377 455.335
2469 1 66.2017 10.4982 695 100.14 38.0619 481.833
2470 0 67.3153 10.4731 705 97.8539 39.0156 479.827
2471 0 71.1471 12.1157 862 96.4234 38.522 477.546
2472 0 76.3215 13.168 1005 92.5065 38.7512 477.817
2473 0 76.1233 11.8755 904 96.3363 38.4834 475.091
2474 0 77.1335 13.1331 1013 94.2892 38.1145 474.761
2475 0 81.2096 13.225 1074 93.4553 38.1127 473.738
2476 0 83.2518 13.3571 1112 93.2509 38.5135 468.199
2477 0 86.1771 13.1125 1130 93.5398 38.1522 471.58
2478 0 89.2172 13.1701 1175 93.9898 38.4911 469.454
2479 0 90.2527 13.7946 1245 94.2964 37.9044 464.884
2480 0 93.287 11.9738 1117 96.4423 38.9606 466.8
2481 0 98.228 15.067 1480 91.8885 38.3027 463.148
2482 0 99.2195 12.9309 1283 96.2759 38.9657 465.328
2483 0 100.223 12.552 1258 97.3728 38.31 461.538
2484 0 106.264 14.4452 1535 93.0169 38.4489 458.743
2485 0 108.305 14.0806 1525 94.0715 38.722 458.702
2486 0 111.139 12.9658 1441 96.186 38.1915 456.983
2487 0 113.307 12.497 1416 97.8383 37.7966 448.372
2488 0 119.373 15.0788 1800 91.2561 37.9072 451.987
2489 0 121.401 13.509 1640 98.8159 37.539 451.065
2490 0 126.234 13.4195 1694 106.768 38.3678 449.712
2491 0 126.327 11.6602 1473 101.893 37.9016 447.348
2492 0 133.364 13.2269 1764 99.8169 37.6502 443.267
2493 1 72.1934 10.7628 777 102.201 38.816 475.87
2494 0 77.3531 12.165 941 99.5824 38.1467 472.994
2495 0 79.3003 11.9293 946 95.1945 39.0624 471.484
2496 0 83.2286 11.907 991 94.5086 38.9465 471.652
2497 0 83.3472 12.5739 1048 94.9876 38.583 468.406
2498 0 87.1389 12.394 1080 94.5843 38.5463 465.951
2499 0 92.1649 12.7597 1176 92.5408 39.1403 464.781
2500 0 93.3686 12.2525 1144 93.9021 39.6661 463.062
2501 0 95.3027 11.6051 1106 96.1944 39.0705 460.81
2502 0 99.1816 12.0486 1195 96.4569 39.3339 458.742
2503 0 102.21 13.0711 1336 96.5142 38.8376 458.466
2504 0 105.223 11.9271 1255 98.8207 39.3092 456.276
2505 0 109.401 12.2394 1339 98.9186 38.587 457.412
2506 0 112.39 12.4566 1400 100.573 38.3821 455.194
2507 0 115.256 12.3725 1426 101.846 38.0463 451.28
2508 0 120.25 12.815 1541 100.966 38.926 449.761
2509 0 124.246 13.0547 1622 101.663 38.3927 451.217
2510 0 126.603 13.4831 1707 104.315 37.8278 449.078
2511 0 130.378 12.3487 1610 106.812 37.6099 447.461
2512 1 58.3648 12.6103 736 96.1019 36.8315 479.428
2513 0 59.1794 11.3891 674 101.067 36.5697 479.212
2514 0 60.2702 11.2991 681 100.559 35.6593 476.937
2515 0 62.1441 11.3446 705 105.779 35.8454 477.719
2516 0 66.1126 11.0569 731 106.114 36.0192 477.569
2517 0 66.1553 12.3044 814 105.285 35.8464 476.182
2518 0 69.1408 10.7317 742 109.534 36.9838 476.947
2519 0 70.3083 13.4266 944 105.141 37.4576 475.968
2520 0 72.1871 12.5784 908 107.599 35.3844 473.139
2521 0 74.1529 11.5977 860 110.458 36.1442 473.027
2522 0 77.1338 12.3033 949 108.263 35.7745 473.422
2523 0 76.1529 11.3325 863 112.889 36.6871 470.173
2524 0 79.0998 12.4779 987 109.566 35.8156 472.136
2525 0 79.1881 12.464 987 111.19 36.2989 468.651
2526 0 82.0802 12.5 1026 111.285 36.345 467.435
2527 0 86.1401 13.1878 1136 108.335 36.3829 468.114
2528 0 87.1906 13.201 1151 109.29 36.9757 465.516
2529 0 88.072 12.6715 1116 110.47 36.9265 467.129
2530 0 90.1482 12.5904 1135 110.517 37.1022 465.235
2531 0 91.0984 11.8004 1075 110.02 37.6279 466.24
2532 0 93.1166 12.4468 1159 109.673 38.195 463.506
2533 0 96.1785 13.7557 1323 109.221 37.1119 458.912
2534 0 99.0886 12.5443 1243 110.473 37.5994 461.283
2535 0 100.204 11.6961 1172 112.869 37.6758 455.719
2536 0 106.268 13.8424 1471 106.799 38.119 458.494
2537 0 109.309 14.052 1536 107.331 37.4473 451.361
2538 0 112.284 13.6173 1529 109.689 37.6534 449.584
2539 0 116.262 13.4352 1562 109.93 37.8137 450.423
2540 0 118.296 12.9506 1532 111.352 37.9876 448.274
2541 0 121.353 12.6655 1537 112.634 37.9323 444.829
2542 1 66.0402 9.79707 647 112.185 37.3632 474.544
2543 0 73.2587 12.0805 885 106.42 38.1458 473.882
2544 0 70.1882 11.9536 839 111.687 38.2467 472.044
2545 0 72.0942 11.1521 804 105.174 38.8445 473.994
2546 0 73.3285 11.7826 864 104.91 38.0752 465.462
2547 0 78.1682 11.7311 917 104.449 37.7568 462.949
2548 0 78.2825 11.6501 912 106.047 37.5855 467.785
2549 0 82.0879 12.3526 1014 103.26 39.8235 468.537
2550 0 85.097 13.2202 1125 103.512 40.2427 463.072
2551 0 87.2301 11.613 1013 107.937 39.4334 449.017
2552 0 90.0981 12.6307 1138 107.243 39.9376 453.11
2553 0 93.1717 12.5038 1165 108.676 40.1047 456.904
2554 0 97.1397 14.474 1406 104.423 40.3172 444.425
2555 0 100.175 13.9455 1397 106.423 39.5698 450.54
2556 0 102.142 12.8938 1317 110.222 39.492 457.362
2557 0 106.178 14.3061 1519 107.544 39.4358 454.386
2558 0 107.254 12.8759 1381 112.98 39.1035 438.306
2559 0 111.174 13.1775 1465 112.979 39.3768 441.042
2560 0 115.239 13.6152 1569 112.553 38.8349 445.971
2561 0 117.187 14.6092 1712 110.182 39.9299 450.947
2562 0 118.185 13.0558 1543 115.347 39.2897 451.241
2563 0 124.28 14.8133 1841 111.352 39.2368 447.888
2564 0 127.24 12.559 1598 115.569 39.4969 442.269
2565 0 133.272 13.9939 1865 110.965 39.0434 441.843
2566 0 138.343 13.8135 1911 111.098 38.6353 438.178
2567 1 71.1639 11.7897 839 113.143 38.6246 471.26
2568 0 75.135 13.9349 1047 105.638 39.234 473.378
2569 0 73.0416 11.5687 845 113.795 38.9314 472.065
2570 0 77.0467 12.7845 985 111.051 39.0497 471.029
2571 0 78.164 11.1304 870 116.066 39.846 468.464
2572 0 81.0734 12.5442 1017 112.385 40.0039 470.002
2573 0 85.0856 12.3993 1055 112.61 40.2455 469.701
2574 0 89.1802 13.4671 1201 110.05 40.3072 464.057
2575 0 89.1924 13.3532 1191 112.918 39.1998 465.992
2576 0 91.2359 12.3636 1128 114.362 39.4246 464.135
2577 0 95.2707 13.9812 1332 110.233 40.3739 461.638
2578 0 95.0879 13.0406 1240 113.266 40.5952 455.619
2579 0 100.09 13.0982 1311 111.42 40.7574 456.441
2580 0 102.114 13.5534 1384 112.563 39.6106 455.776
2581 0 104.244 13.0752 1363 113.34 39.6104 458.839
2582 0 103.178 12.2313 1262 116.349 40.065 448.858
2583 0 104.412 12.1634 1270 116.691 40.0213 444.239
2584 0 109.443 12.9382 1416 114.023 39.4795 443.524
2585 0 116.421 13.8549 1613 109.959 39.38 444.84
2586 0 121.296 13.7349 1666 109.667 39.1152 443.258
2587 1 74.1388 12.1124 898 115.482 40.4354 469.712
2588 0 76.1892 12.5477 956 110.722 40.7479 467.956
2589 0 77.2492 12.7121 982 115.608 40.9165 468.129
2590 0 80.0802 13.5114 1082 113.956 40.9473 466.892
2591 0 83.0568 13.5931 1129 114.446 40.5022 465.726
2592 0 86.0785 14.0105 1206 112.636 40.7927 465.476
2593 0 87.1123 12.8111 1116 116.279 40.8826 463.663
2594 0 89.0603 13.2944 1184 115.167 40.0338 462.742
2595 0 92.1209 12.7441 1174 117.412 40.3969 460.829
2596 0 95.102 13.7011 1303 115.012 39.9371 459.582
2597 0 98.1644 13.3959 1315 116.675 39.9392 441.166
2598 0 102.188 13.8764 1418 113.764 40.0677 448.297
2599 0 102.147 12.3058 1257 117.152 39.646 452.484
2600 0 108.201 14.2882 1546 103.921 39.3092 454.423
2601 0 112.314 13.5067 1517 106.36 39.9684 452.42
2602 0 115.308 14.1273 1629 107.657 38.9091 448.351
2603 0 119.431 14.7366 1760 110.993 39.1631 447.648
2604 1 71.3873 12.159 868 109.536 39.1555 471.615
2605 0 73.3909 13.6802 1004 106.49 39.6145 468.175
2606 0 73.0928 14.0096 1024 105.396 37.6768 473.334
2607 0 75.1315 13.696 1029 107.328 37.7998 471.332
2608 0 77.2011 13.0957 1011 109.42 37.7577 469.15
2609 0 77.1927 13.5635 1047 108.88 38.3582 467.743
2610 0 80.1448 13.0888 1049 109.421 38.2688 465.22
2611 0 82.1776 14.3226 1177 106.739 38.0042 468.284
2612 0 84.1261 14.0147 1179 106.945 38.4979 467.994
2613 0 88.1725 14.018 1236 106.644 38.7832 466.938
2614 0 90.1739 14.6162 1318 105.94 38.3938 464.819
2615 0 92.1302 13.4592 1240 109.181 38.4048 464.027
2616 0 93.1736 14.2315 1326 107.939 38.9548 463.842
2617 0 96.21 13.325 1282 109.604 39.7184 463.258
2618 0 100.403 13.6749 1373 108.992 39.2447 461.134
2619 0 102.321 13.6628 1398 110.043 38.7217 456.654
2620 0 103.231 13.0484 1347 106.519 39.2836 460.906
2621 0 106.219 12.2766 1304 109.433 39.7837 457.904
2622 0 111.261 11.9989 1335 110.034 39.7768 458.225
2623 0 114.299 14.3046 1635 107.673 39.2917 453.914
2624 0 118.398 14.0205 1660 106.991 39.1211 451.047
2625 1 69.1456 10.8901 753 100.572 38.8964 479.716
2626 0 70.1959 11.2115 787 96.5451 39.352 477.438
2627 0 77.2197 12.6781 979 103.435 39.1307 476.828
2628 0 76.2652 12.4696 951 104.801 39.1304 473.221
2629 0 82.4658 12.4051 1023 105.031 38.9404 474.079
2630 0 83.5893 13.7936 1153 102.678 37.9809 468.671
2631 0 83.3971 12.2306 1020 108.147 37.8637 468.679
2632 0 88.4021 12.33 1090 102.289 38.3523 470.715
2633 0 89.3044 12.0375 1075 102.361 38.4958 471.044
2634 0 92.2872 11.7134 1081 102.955 37.2997 467.031
2635 0 95.2811 13.329 1270 99.7961 37.4102 465.999
2636 0 97.3999 12.0329 1172 104.567 37.7167 465.272
2637 0 101.323 13.6692 1385 101.308 37.0657 462.746
2638 0 103.192 11.3866 1175 105.216 36.9311 462.582
2639 0 107.114 12.6501 1355 99.4362 37.0362 454.887
2640 0 108.327 11.7145 1269 102.652 36.866 455.449
2641 1 62.1324 10.8317 673 95.2793 36.4785 481.78
2642 0 66.3215 12.56 833 91.5138 36.3625 480.498
2643 0 66.2654 10.5032 696 95.3319 35.931 481.149
2644 0 69.0606 13.2637 916 92.5852 36.9651 481.123
2645 0 70.1487 11.832 830 97.094 37.1602 480.24
2646 0 72.1722 11.0569 798 99.2105 37.401 478.773
2647 0 77.1255 13.8605 1069 94.9457 37.16 477.568
2648 0 79.2184 12.4087 983 97.4517 36.2024 472.212
2649 0 82.2743 12.9688 1067 98.5052 36.3102 473.743
2650 0 84.2617 13.731 1157 99.4857 36.3371 474.478
2651 0 85.4034 12.1072 1034 105.013 36.4778 471.716
2652 0 88.1584 12.8972 1137 102.225 36.5734 474.888
2653 0 90.296 13.0238 1176 104.754 36.0255 470.258
2654 0 91.2116 11.2266 1024 109.324 35.5215 468.384
2655 0 96.2781 12.6924 1222 106.838 35.6612 466.242
2656 0 99.262 11.787 1170 108.344 36.0094 465.645
2657 0 103.451 12.9433 1339 108.817 35.7095 457.938
2658 0 107.327 13.4263 1441 107.584 36.1076 453.909
2659 0 110.641 11.6412 1288 110.452 35.3276 455.812
2660 0 110.626 12.0948 1338 109.895 35.5366 454.975
2661 0 117.657 13.5393 1593 107.121 35.8876 451.774
2662 0 121.5 13.5227 1643 106.602 35.8965 450.052
2663 0 126.34 13.2895 1679 105.532 36.4068 452.046
2664 0 129.256 13.6086 1759 105.713 36.4537 449.893
2665 0 133.278 12.8453 1712 106.563 36.1589 449.355
2666 0 137.433 12.5661 1727 107.002 36.2496 447.046
2667 0 144.304 13.8527 1999 104.459 36.5022 440.71
2668 0 147.283 13.6879 2016 104.956 36.7173 439.276
2669 1 85.0783 11.9537 1017 96.9135 37.1721 474.254
2670 0 85.3176 12.096 1032 102.313 36.8081 471.428
2671 0 87.1661 14.4437 1259 95.3542 36.726 471.612
2672 0 88.1402 11.1073 979 102.051 36.4566 470.968
2673 0 91.1774 10.9128 995 102.918 36.9698 469.723
2674 0 95.1211 12.0058 1142 102.086 36.8091 467.11
2675 0 102.31 12.6577 1295 100.683 37.2463 463.107
2676 0 103.276 12.8491 1327 101.684 37.3459 461.901
2677 0 106.2 12.1657 1292 102.894 37.6029 463.105
2678 0 109.346 13.2698 1451 101.732 37.2274 461.004
2679 0 110.208 13.4201 1479 103.688 36.8087 457.907
2680 0 115.381 13.8844 1602 103.635 36.8995 456.517
2681 0 117.424 13.8984 1632 104.284 37.4571 455.542
2682 0 122.199 13.9608 1706 104.71 37.4554 453.491
2683 0 123.217 12.7418 1570 109.71 37.058 451.324
2684 0 128.164 14.2708 1829 108.232 36.4019 452.437
2685 0 129.17 13.2693 1714 110.61 35.8261 447.499
2686 0 136.262 14.4208 1965 106.337 37.0545 445.954
2687 0 140.196 14.2943 2004 105.181 36.8219 437.666
2688 0 143.23 13.8728 1987 108.126 36.7021 441.728
2689 0 147.211 13.6607 2011 108.326 36.8816 438.532
2690 0 152.239 14.5363 2213 106.825 36.8906 438.216
2691 0 155.27 12.9001 2003 112.105 36.646 435.497
2692 0 164.264 16.4308 2699 101.956 37.6028 425.099
2693 0 166.252 14.448 2402 107.969 37.2581 428.557
2694 0 172.358 14.3596 2475 107.982 36.975 424.53
2695 0 177.25 14.031 2487 110.107 36.7829 421.576
2696 0 182.324 14.9514 2726 85.5143 37.4725 422.109
2697 0 187.343 13.841 2593 111.7 36.978 416.683
2698 0 196.42 14.0108 2752 113.561 37.294 411.963
2699 1 112.16 11.1627 1252 103.931 37.4912 450.903
2700 0 116.126 11.0742 1286 103.497 36.2115 452.76
2701 0 119.258 12.234 1459 103.583 35.9287 444.035
2702 0 123.174 12.8518 1583 101.058 36.4321 447.173
2703 0 125.315 11.4272 1432 107.894 36.2689 449.288
2704 0 131.281 13.6806 1796 101.427 36.2305 446.374
2705 0 134.195 11.9229 1600 102.596 37.2588 446.267
2706 0 139.266 11.1011 1546 102.87 37.3564 444.94
2707 0 142.216 13.2545 1885 99.9273 37.5873 440.326
2708 0 145.258 10.9805 1595 103.936 37.5461 437.511
2709 0 151.212 11.8509 1792 102.604 37.0575 435.985
2710 0 156.28 12.708 1986 101.852 36.6868 431.325
2711 0 160.33 11.7258 1880 104.689 36.5612 431.278
2712 0 166.244 13.017 2164 102.732 36.4542 425.393
2713 0 172.351 12.1264 2090 104.588 35.7459 422.588
2714 0 177.181 12.5916 2231 104.16 35.6782 419.205
2715 0 182.359 12.9799 2367 103.927 35.8961 412.763
2716 0 188.386 13.0742 2463 104.198 36.108 410.222
2717 0 193.405 14.1258 2732 102.555 35.6783 408.397
2718 0 198.226 12.7329 2524 105.648 35.9536 401.876
2719 0 206.241 13.4066 2765 104.219 36.5248 405.542
2720 0 212.426 14.0284 2980 103.971 36.0537 401.405
2721 0 221.291 13.2767 2938 104.714 37.1984 399.22
2722 0 226.438 12.7496 2887 108.339 36.6145 387.518
2723 0 233.368 13.8322 3228 105.377 36.596 394.942
2724 0 244.651 15.05 3682 102.584 36.6893 388.724
2725 0 249.427 14.0442 3503 106.542 36.825 377.87
2726 1 65.1509 10.8517 707 94.4356 36.7935 480.252
2727 0 66.4691 11.5843 770 93.4727 38.7156 476.227
2728 0 69.164 11.2197 776 94.8518 36.4858 476.925
2729 0 69.2055 11.2419 778 95.2365 36.5681 478.626
2730 0 72.2554 13.2724 959 92.9802 36.7007 475.312
2731 0 74.206 12.654 939 95.8094 37.2439 476.691
2732 0 76.2895 13.3439 1018 96.2024 37.2701 472.581
2733 0 78.1871 12.355 966 98.236 36.5642 472.879
2734 0 80.1244 14.0032 1122 95.3717 36.7496 469.843
2735 0 81.1321 13.1637 1068 99.8989 35.5459 465.776
2736 0 82.0816 11.6957 960 104.249 35.6302 469.036
2737 0 84.158 12.0369 1013 105.682 35.461 464.907
2738 0 85.1342 11.7344 999 97.2442 36.7087 468.915
2739 0 88.0971 12.123 1068 94.7275 37.1049 467.701
2740 0 91.2028 12.5983 1149 98.2472 36.8407 466.566
2741 0 90.2028 11.4631 1034 93.2476 38.2592 461.912
2742 0 95.1601 12.4947 1189 97.9815 37.8806 466.571
2743 0 98.2023 12.9732 1274 111.312 37.1342 463.929
2744 0 102.113 14.4741 1478 108.019 39.115 463.298
2745 0 105.108 13.4242 1411 110.106 39.5089 460.695
2746 0 105.169 13.426 1412 111.612 39.5885 457.094
2747 0 110.077 12.6184 1389 113.886 39.5788 457.654
2748 0 115.114 12.9176 1487 112.185 39.5555 455.843
2749 0 117.171 12.4946 1464 109.845 39.7527 452.767
2750 1 69.3071 10.2298 709 95.8223 38.8336 461.221
2751 0 71.2314 10.4027 741 102.08 40.0513 473.548
2752 0 73.1012 12.3527 903 99.0986 38.2625 473.744
2753 0 75.1284 11.7133 880 101.498 39.8852 475.715
2754 0 81.1825 13.1679 1069 98.2021 40.0094 454.148
2755 0 82.1375 13.8183 1135 96.9656 39.4529 456.292
2756 0 84.1231 14.0746 1184 97.4865 39.3049 453.321
2757 0 87.1342 13.1636 1147 97.6957 39.6521 460.436
2758 0 89.198 14.9331 1332 96.2282 39.7267 457.065
2759 0 93.1637 12.6337 1177 101.201 39.3815 460.928
2760 0 95.1292 13.7918 1312 100.059 38.8316 460.122
2761 0 97.103 13.4908 1310 102.555 39.4687 458.944
2762 0 99.2704 13.9417 1384 101.499 39.3945 463.905
2763 0 100.171 12.4387 1246 105.984 39.2223 463.503
2764 0 105.139 13.0969 1377 106.982 39.3914 461.184
2765 0 108.181 14.5127 1570 106.85 39.2879 457.007
2766 0 110.095 13.7154 1510 110.223 39.3278 457.129
2767 0 115.199 14.3404 1652 108.071 38.8269 457.008
2768 0 116.265 12.8586 1495 112.262 38.4769 454.2
2769 0 122.491 14.2622 1747 108.158 37.9554 450.466
2770 1 70.2268 9.29844 653 103.037 38.5314 467.04
2771 0 73.2436 9.69368 710 102.614 37.9155 468.144
2772 0 73.1866 11.5868 848 94.8149 38.4623 474.874
2773 0 76.1108 11.7723 896 100.576 39.4051 476.531
2774 0 80.0665 11.8277 947 97.7466 39.5734 477.413
2775 0 83.0959 12.9128 1073 97.6272 39.2637 468.882
2776 0 83.1487 13.3977 1114 99.2451 39.0512 471.002
2777 0 85.108 12.6545 1077 98.7725 38.6407 474.333
2778 0 89.1328 13.5416 1207 98.3132 38.3024 469.252
2779 0 92.1916 13.9384 1285 96.3121 38.7121 469.662
2780 0 94.1042 11.7954 1110 99.8459 38.7486 470.444
2781 0 95.1767 11.5574 1100 101.668 38.6318 466.982
2782 0 99.1564 12.8484 1274 98.9388 38.6091 465.038
2783 0 102.174 12.4689 1274 100.166 38.3414 456.72
2784 0 105.149 13.0767 1375 98.1942 38.7455 463.295
2785 0 107.212 12.5732 1348 100.751 38.6929 458.824
2786 0 110.254 13.7319 1514 97.9498 38.5462 458.813
2787 0 113.213 12.1188 1372 101.195 38.6808 458.029
2788 0 116.223 12.0028 1395 101.486 38.5018 455.028
2789 0 120.209 12.9358 1555 99.6553 38.7846 454.278
2790 0 122.284 12.8226 1568 99.8999 38.4534 452.452
2791 0 125.282 12.859 1611 100.855 38.2744 450.284
2792 0 127.289 13.4183 1708 99.9813 37.9532 449.738
2793 0 133.387 12.505 1668 101.085 38.7236 445.87
2794 0 136.212 12.9431 1763 100.488 37.9376 443.254
2795 0 141.263 12.8767 1819 100.796 37.757 446.698
2796 1 84.1523 11.5861 975 98.9456 38.559 464.3
2797 0 85.0923 11.3171 963 99.8515 38.649 471.409
2798 0 87.1541 12.1394 1058 99.7854 38.6474 470.795
2799 0 92.14 13.7291 1265 95.0364 39.1708 467.628
2800 0 94.1976 12.7073 1197 99.0718 39.6332 464.571
2801 0 96.1758 12.4148 1194 100.657 38.7102 464.93
2802 0 101.141 13.8322 1399 96.7412 39.1623 462.462
2803 0 101.224 11.6968 1184 102.398 39.234 459.413
2804 0 107.113 13.2758 1422 97.891 39.3368 460.645
2805 0 109.136 12.3241 1345 101.187 39.1048 455.303
2806 0 112.19 12.7551 1431 99.2879 39.4647 457.108
2807 0 116.144 13.9223 1617 96.2276 39.0822 454.649
2808 0 119.388 13.5189 1614 97.4901 38.8358 449.926
2809 0 123.093 12.0397 1482 94.7274 38.7206 446.928
2810 0 128.223 12.2754 1574 92.4193 39.0464 445.882
2811 1 75.1784 10.8542 816 87.5 39.1716 478.169
2812 0 75.1421 11.4184 858 88.5012 39.1154 475.101
2813 0 80.1548 13.162 1055 84.6929 39.2834 475.628
2814 0 81.1395 13.0023 1055 86.1109 38.6597 472.691
2815 0 84.1319 11.6365 979 88.6721 38.6619 472.92
2816 0 85.2426 13.3971 1142 87.9799 38.2469 471.637
2817 0 86.1613 13.8809 1196 88.6555 37.2366 469.699
2818 0 90.1883 12.5959 1136 90.8248 37.9947 470.374
2819 0 95.2467 13.3023 1267 89.502 37.7332 467.526
2820 0 96.1081 13.3183 1280 91.4188 38.1688 465.737
2821 0 99.166 12.474 1237 93.7728 38.2385 467.752
2822 0 104.19 14.6175 1523 91.2488 38.4156 465.199
2823 0 103.182 13.3066 1373 95.2717 37.8034 463.184
2824 0 109.356 13.7167 1500 95.0947 37.5473 462.033
2825 0 112.339 14.2604 1602 95.2828 38.3115 459.165
2826 0 116.371 15.2702 1777 94.6393 38.4012 455.496
2827 0 119.445 13.052 1559 100.244 38.2053 456.269
2828 0 121.254 14.1357 1714 99.4912 38.2643 453.132
2829 0 126.378 14.8681 1879 98.5716 38.5737 451.09
2830 0 131.434 13.8625 1822 99.9473 38.9539 451.509
2831 1 74.1635 11.569 858 103.164 39.0385 476.647
2832 0 76.14 12.9892 989 102.356 38.546 472.005
2833 0 79.0357 14.0569 1111 101.424 37.8569 473.87
2834 0 82.0577 14.9285 1225 100.37 38.5388 455.589
2835 0 85.1583 14.2441 1213 102.393 37.9802 456.843
2836 0 88.2038 14.3078 1262 102.584 38.225 455.065
2837 0 88.0786 14.0102 1234 103.006 37.3177 454.035
2838 0 90.1504 13.4109 1209 102.237 36.33 458.591
2839 0 94.166 14.9417 1407 97.9751 37.4996 457.816
2840 0 96.1257 13.8257 1329 101.078 36.769 458.599
2841 0 98.1407 14.8053 1453 99.1198 36.9842 458.031
2842 0 101.192 11.6116 1175 106.093 36.1379 457.946
2843 0 104.121 12.2262 1273 102.505 36.8052 459.467
2844 0 109.182 14.5537 1589 103.043 36.8578 459.241
2845 0 112.201 13.5026 1515 109.269 37.0852 459.951
2846 0 113.272 13.4455 1523 109.358 37.3926 458.336
2847 0 119.287 14.3603 1713 103.623 37.0899 458.26
2848 0 124.145 14.6442 1818 101.331 37.2294 456.483
2849 0 127.24 13.8793 1766 106.162 37.654 454.369
2850 0 130.332 14.4554 1884 106.418 37.4798 452.39
2851 0 135.422 14.0302 1900 104.412 37.4895 448.66
2852 1 75.2198 12.962 975 103.563 37.7241 476.02
2853 0 78.2284 12.553 982 90.7322 37.7026 473.125
2854 0 82.1168 13.0059 1068 89.2341 37.5234 475.035
2855 0 83.1543 13.2404 1101 89.0663 37.5313 475.912
2856 0 85.1284 13.0861 1114 92.5664 37.6104 474.681
2857 0 87.1617 12.2187 1065 95.3258 37.5042 473.17
2858 0 91.2228 12.7052 1159 94.8706 37.1752 472.655
2859 0 94.1508 13.574 1278 94.1894 37.1338 469.567
2860 0 97.2576 13.4797 1311 94.5194 37.1251 468.178
2861 0 97.3096 11.7666 1145 98.0035 37.1703 467.449
2862 0 101.235 13.1674 1333 95.4606 37.2686 466.212
2863 0 106.362 13.5105 1437 95.842 36.9026 463.455
2864 0 108.514 13.0398 1415 97.7293 36.8495 459.794
2865 0 112.379 14.104 1585 95.5994 36.889 461.211
2866 0 115.353 14.0785 1624 96.3528 36.8892 458.347
2867 0 118.407 15.5228 1838 93.6262 37.0838 455.839
2868 0 122.477 13.7331 1682 97.8811 37.2961 455.433
2869 0 127.6 13.6599 1743 99.4263 37.2725 452.592
2870 0 130.377 14.7495 1923 98.5185 37.8034 453.124
2871 0 133.622 12.4531 1664 98.485 37.3131 449.882
2872 0 138.382 11.7718 1629 103.645 37.8956 445.027
2873 1 80.3919 12.2525 985 92.3249 36.9543 472.176
2874 0 83.2277 13.1687 1096 97.886 36.7363 473.509
2875 0 83.1003 11.2033 931 96.0204 37.5263 477.008
2876 0 87.2082 13.1983 1151 92.6073 38.2094 476.431
2877 0 90.3 11.794 1065 97.9587 37.3887 473.911
2878 0 92.2282 13.3365 1230 97.4211 36.5756 469.571
2879 0 94.1728 11.7019 1102 100.249 37.2114 469.311
2880 0 99.3748 12.2365 1216 98.6727 37.5831 468.658
2881 0 100.149 12.9207 1294 99.6507 36.9474 462.916
2882 0 104.276 13.9534 1455 99.268 36.9045 462.246
2883 0 109.243 13.9139 1520 99.7368 36.3322 460.879
2884 0 112.531 14.2272 1601 99.5122 36.8957 459.828
2885 0 115.196 13.3511 1538 100.94 36.8849 457.134
2886 0 118.646 12.7607 1514 102.117 37.4848 454.582
2887 0 122.278 12.0382 1472 101.557 36.9762 456.354
2888 1 66.0397 12.1745 804 99.1791 37.0721 482.412
2889 0 69.1001 12.3878 856 106.012 37.764 480.332
2890 0 71.1108 12.5579 893 106.002 37.3091 479.525
2891 0 73.0456 14.5115 1060 97.5745 37.4302 468.799
2892 0 74.109 13.3317 988 100.825 37.0405 468.466
2893 0 76.1984 12.3887 944 102.501 37.4449 474.159
2894 0 80.0797 13.8737 1111 99.1701 38.3078 471.386
2895 0 81.1044 13.2792 1077 103.881 37.5348 475.521
2896 0 85.2012 13.3566 1138 103.216 37.1661 475.057
2897 0 85.1415 13.272 1130 104.545 37.4991 472.97
2898 0 88.0704 12.9442 1140 105.002 37.2193 471.788
2899 0 91.1878 14.0699 1283 103.476 37.1535 469.327
2900 0 94.2364 13.5723 1279 105.172 37.2197 470.018
2901 0 97.4391 14.2345 1387 104.448 37.982 466.78
2902 0 100.28 16.1448 1619 101.485 36.819 464.198
2903 0 103.3 15.3147 1582 100.791 37.5386 464.997
2904 0 105.422 14.6554 1545 103.714 37.6162 461.143
2905 0 107.329 14.6093 1568 104.476 37.1709 460.121
2906 0 112.436 14.7995 1664 103.356 37.0932 458.875
2907 0 114.438 14.1212 1616 106.157 37.2884 455.871
2908 0 117.232 13.9382 1634 106.402 37.4871 455.029
2909 0 122.313 13.6944 1675 106.946 37.3678 453.451
2910 0 127.599 13.5581 1730 107.357 38.0318 450.809
2911 1 72.1284 13.9196 1004 104.42 38.4592 476.762
2912 0 75.1234 13.1916 991 106.074 38.5308 477.108
2913 0 78.1277 14.5275 1135 105.448 38.1639 473.648
2914 0 81.1908 14.3243 1163 105.783 38.3302 474.747
2915 0 84.2059 13.6807 1152 107.845 37.6554 472.839
2916 0 87.2842 14.2867 1247 106.743 38.8557 472.933
2917 0 87.2951 14.0443 1226 109.644 37.4364 470.487
2918 0 89.5202 14.5107 1299 109.936 38.0023 468.681
2919 0 92.3572 15.0719 1392 110.476 37.0682 466.407
2920 0 95.2313 13.798 1314 114.333 37.4863 467.273
2921 0 100.168 15.8933 1592 110.02 37.3744 464.621
2922 0 102.334 14.6286 1497 114.286 37.9158 463.454
2923 0 104.442 14.0557 1468 116.831 37.2718 463.116
2924 0 107.222 14.9969 1608 115.936 37.9179 459.897
2925 0 110.52 15.228 1683 116.083 37.8289 457.411
2926 0 114.293 15.8715 1814 116.006 37.4057 456.619
2927 0 118.416 14.9473 1770 118.047 37.4944 454.368
2928 0 122.327 15.6384 1913 116.901 37.4109 453.611
2929 0 125.365 15.5786 1953 117.816 37.0394 452.163
2930 0 128.554 16.2422 2088 117.429 37.546 450.026
2931 0 134.458 16.3992 2205 116.729 37.0073 447.851
2932 0 137.399 14.7672 2029 121.49 36.8935 445.31
2933 0 142.476 16.3957 2336 116.173 36.7247 444.184
2934 0 147.253 15.6058 2298 118.859 36.691 441.421
2935 0 152.477 15.845 2416 118.539 37.2235 436.493
2936 0 158.584 16.269 2580 116.789 36.9457 432.701
2937 0 161.379 15.1507 2445 119.402 36.9861 433.315
2938 0 165.282 14.8595 2456 118.159 35.9125 425.429
2939 0 174.699 16.6916 2916 110.855 36.5384 427.074
2940 1 92.4578 13.9631 1291 119.084 36.079 464.95
2941 0 96.324 14.7108 1417 118.34 35.88 461.631
2942 0 98.6154 13.8112 1362 119.689 35.6454 462.322
2943 0 102.419 14.7922 1515 118.081 35.4878 458.574
2944 0 107.406 15.055 1617 114.929 36.1453 459.831
2945 0 111.461 14.6509 1633 116.149 35.9516 456.994
2946 0 115.577 15.5394 1796 113.757 36.5262 452.413
2947 0 121.56 15.2846 1858 113.005 35.7508 452.5
2948 0 122.363 14.9882 1834 115.405 36.0393 446.151
2949 0 127.423 15.1307 1928 114.586 36.5405 447.602
2950 0 129.492 13.4526 1742 118.825 36.1693 446.302
2951 0 134.596 14.2649 1920 116.448 35.6776 445.03
2952 0 141.703 14.608 2070 115.011 35.4435 443.121
2953 0 146.372 16.3214 2389 112.273 36.4445 437.223
2954 0 149.487 15.3994 2302 115.212 36.301 435.014
2955 0 155.569 14.9451 2325 116.772 36.5432 432.305
2956 0 158.516 14.9511 2370 117.035 36.3464 433.622
2957 0 167.477 16.0918 2695 114.413 36.4898 430.76
2958 0 171.666 15.9612 2740 116.541 36.0285 428.625
2959 0 177.533 15.0169 2666 121.778 35.8635 423.346
2960 0 181.706 15.1288 2749 121.297 36.136 420.688
2961 1 104.284 13.9715 1457 123.839 36.0412 458.964
2962 0 107.208 13.8516 1485 124.259 35.9987 458.199
2963 0 113.529 17.9778 2041 113.7 35.4963 452.187
2964 0 115.353 15.3962 1776 122.442 35.1667 451.377
2965 0 117.203 13.8648 1625 127.447 35.6098 450.91
2966 0 122.284 14.7525 1804 126.137 35.5754 448.485
2967 0 124.467 14.7589 1837 127.304 35.9194 446.918
2968 0 128.231 15.7528 2020 125.84 35.3569 445.475
2969 0 132.339 15.0825 1996 129.367 35.1779 442.253
2970 0 137.198 15.146 2078 130.356 34.3845 439.269
2971 0 140.15 14.9054 2089 130.994 35.573 438.22
2972 0 145.271 15.3988 2237 129.239 35.5132 435.548
2973 0 149.302 14.8826 2222 131.64 35.3758 431.961
2974 0 153.153 15.5792 2386 129.798 35.4396 430.782
2975 0 158.487 15.0296 2382 130.784 35.4416 427.739
2976 0 163.259 14.529 2372 133.089 35.4321 423.346
2977 0 169.296 14.1941 2403 134.777 35.2031 419.292
2978 1 95.0982 12.1138 1152 128.227 36.1094 458.633
2979 0 103.094 14.7536 1521 126.758 36.7436 461.3
2980 0 106.169 14.1944 1507 125.399 36.2986 461.159
2981 0 107.128 12.4523 1334 129.96 36.7804 459.847
2982 0 109.157 12.2576 1338 131.621 35.87 459.498
2983 0 115.123 13.4986 1554 127.403 35.9421 454.636
2984 0 118.235 12.5006 1478 127.461 35.9263 452.568
2985 0 122.137 12.5023 1527 127.081 36.4676 451.555
2986 0 125.202 13.7617 1723 124.898 35.7342 449.64
2987 0 130.268 13.1114 1708 126.553 35.9614 447.168
2988 0 132.193 12.0051 1587 129.88 35.4423 443.88
2989 0 136.108 12.2623 1669 130.099 35.3889 441.562
2990 0 143.191 13.0036 1862 127.129 35.3947 443.059
2991 0 145.142 12.6359 1834 129.547 35.2846 436.637
2992 0 151.316 12.7283 1926 129.248 35.4668 437.103
2993 0 156.254 11.8205 1847 132.245 35.4905 431.769
2994 0 159.334 10.8702 1732 134.163 35.4296 429.753
2995 0 164.446 11.9614 1967 132.815 35.3854 425.869
2996 0 172.29 13.9184 2398 124.351 35.9641 429.647
2997 0 175.401 12.3489 2166 129.571 36.0577 422.702
2998 0 178.288 11.9357 2128 131.973 36.2458 414.43
2999 0 185.504 12.5065 2320 129.39 36.5095 414.926
3000 1 200.459 17.2255 3453 115.26 36.2027 401.133
3001 0 202.478 14.3521 2906 123.737 35.5045 402.078
3002 0 206.342 12.7216 2625 126.638 35.7432 406.192
3003 0 211.596 12.1836 2578 128.302 35.7521 403.278
3004 0 218.37 11.0546 2414 128.971 36.2183 400.768
3005 0 224.296 12.6618 2840 126.318 36.2884 395.451
3006 0 233.448 11.54 2694 127.835 35.9024 392.462
3007 0 242.372 11.7217 2841 126.247 35.2042 392.756
3008 0 251.407 11.9328 3000 125.438 35.143 388.621
3009 0 259.676 11.807 3066 126.476 35.2841 378.974
3010 0 269.69 12.4068 3346 122.898 35.6578 385.662
3011 0 279.497 12.1719 3402 123.872 35.592 375.104
3012 0 286.743 10.6785 3062 126.549 34.8187 374.389
3013 1 232.433 11.827 2749 124.84 34.5198 388.893
3014 0 242.582 13.8015 3348 120.216 35.1995 389.783
3015 0 248.744 12.5511 3122 125.7 34.9375 384.447
3016 0 255.608 13.998 3578 123.208 34.9844 378.542
3017 1 266.659 13.9504 3720 122.135 35.168 379.439
3018 0 276.688 14.5651 4030 121.284 35.6335 374.592
3019 0 282.501 15.3911 4348 120.295 35.385 369.46
3020 0 289.442 14.3898 4165 122.67 35.3277 366.493
3021 0 298.455 14.6756 4380 120.994 34.3989 360.464
3022 0 306.619 14.262 4373 121.383 34.9801 354.225
3023 0 314.87 14.5838 4592 121.671 35.5124 348.346
3024 0 326.706 15.2339 4977 119.549 35.5644 350.074
3025 0 335.565 17.6121 5910 111.572 34.9976 337.032
3026 0 346.496 16.8689 5845 113.064 34.9461 329.521
3027 0 356.984 19.2418 6869 107.616 35.5183 329.002
3028 0 368.628 17.6655 6512 111.767 35.8477 314.57
3029 0 378.866 16.9954 6439 114.412 35.7524 316.837
3030 0 390.074 16.5994 6475 116.826 34.71 309.14
3031 0 405.205 17.8058 7215 114.098 35.5695 294.441
3032 0 417.253 17.493 7299 115.483 35.9122 289.724
3033 0 429.495 15.8512 6808 119.978 36.516 283.963
3034 0 390.964 16.6691 6517 113.802 36.3715 298.991
3035 0 394.666 17.0676 6736 113.563 35.9768 301.862
3036 0 402.03 17.3544 6977 113.856 37.0463 299.917
3037 0 407.187 16.086 6550 117.232 36.6278 294.929
3038 0 421.042 16.6634 7016 116.911 36.89 281.074
3039 0 431.97 16.0034 6913 119.059 36.6206 279.168
3040 0 423.939 8.79371 3728 124.125 37.4069 355.579
3041 0 429.398 13.9777 6002 120.014 37.5493 309.84
3042 0 428.621 17.799 7629 111.988 37.8999 292.228
3043 0 417.917 16.9914 7101 115.289 37.4071 290.709
3044 0 413.869 15.7441 6516 118.446 37.1234 297.527
3045 0 413.418 17.6432 7294 112.774 37.3027 296.201
3046 0 437.355 16.5655 7245 111.423 37.242 284.829
3047 0 431.009 11.4104 4918 121.757 36.2832 304.901
3048 0 433.962 11.766 5106 122.754 36.1396 321.269
3049 0 432.839 11.1196 4813 130 35.432 313.134
3050 0 434.438 15.9655 6936 112.111 35.9562 283.523
3051 1 59.133 10.4003 615 93.4504 38.4504 484.774
3052 0 59.1125 10.8268 640 93.7719 37.975 483.523
3053 0 61.0375 12.9756 792 88.5379 36.8384 481.58
3054 0 57.0297 10.7312 612 95.348 37.3121 484.263
3055 0 60.067 11.7036 703 92.4196 37.8151 483.314
3056 0 59.071 10.4112 615 95.7805 38.2602 486.424
3057 0 61.084 11.5087 703 94.155 38.1849 483.11
3058 0 62.0315 12.0262 746 93.3928 37.7748 482.98
3059 0 61.128 11.4187 698 95.6246 37.9355 483.593
3060 0 62.0943 13.6727 849 90.9022 37.8481 482.737
3061 0 62.0496 12.7317 790 93.7013 37.2709 481.527
3062 0 61.1369 11.4006 697 97.9067 37.3171 483.182
3063 0 63.116 11.6135 733 108.936 37.5784 481.866
3064 0 60.127 11.3759 684 111.208 38.1564 482.187
3065 0 64.1562 11.6435 747 108.921 38.5556 482.395
3066 0 65.0919 10.4621 681 111.612 38.2878 481.687
3067 0 62.0653 10.3762 644 113.509 37.604 483.382
3068 0 63.0808 11.0493 697 112.709 37.6255 481.73
3069 0 63.0957 11.4905 725 111.407 37.5131 482.411
3070 0 63.0517 12.0377 759 110.306 38.4717 481.661
3071 0 62.0639 11.601 720 112.107 37.8819 482.104
3072 0 64.094 11.92 764 110.009 37.9555 480.771
3073 0 63.0738 10.9396 690 112.528 37.9565 482.401
3074 0 63.0755 11.2246 708 112.819 37.5071 481.516
3075 0 64.1268 10.9159 700 112.556 38.0357 481.206
3076 0 64.1017 11.3882 730 111.352 38.0808 481.067
3077 0 64.1522 10.818 694 113.49 37.8228 479.522
3078 0 63.1313 10.6445 672 114.022 37.4702 481.667
3079 0 63.0538 10.9272 689 114.361 37.7315 479.316
3080 0 63.0962 9.88966 624 116.279 38.0849 479.582
3081 0 65.0804 11.6164 756 110.165 38.1111 480.155
3082 0 65.1773 11.2769 735 110.514 37.9551 480.615
3083 0 64.0937 10.235 656 113.046 38.4924 480.503
3084 0 65.0602 10.3596 674 112.013 38.4674 479.435
3085 0 65.0497 11.5604 752 110.384 38.4761 477.449
3086 0 66.0509 11.1732 738 110.157 38.1883 479.182
3087 0 65.1115 10.3361 673 112.62 38.5542 477.565
3088 0 65.0913 11.6145 756 109.628 37.8003 478.835
3089 0 65.1227 10.2115 665 112.426 38.8105 478.926
3090 0 66.0357 11.6604 770 108.492 38.3273 477.461
3091 0 65.1816 10.3097 672 112.324 38.433 477.336
3092 0 67.0789 10.5995 711 110.841 38.3277 477.533
3093 0 67.1696 11.0764 744 110.888 37.9247 475.477
3094 0 69.1072 11.1276 769 109.441 38.3134 477.518
3095 0 68.093 10.8088 736 110.238 38.6495 476.974
3096 0 66.1417 10.417 689 112.673 37.926 476.173
3097 0 69.0768 10.8285 748 110.164 38.0187 476.475
3098 0 69.1012 11.3891 787 108.853 38.3088 475.972
3099 0 67.1567 10.7361 721 111.083 37.7074 476.258
3100 0 69.115 10.2872 711 111.513 38.0858 475.561
3101 0 67.1336 10.3525 695 110.114 38.1856 476.295
3102 0 67.1706 10.8232 727 109.96 38.3095 475.982
3103 0 68.1403 11.6231 792 107.069 37.8624 474.035
3104 0 68.2224 9.80616 669 111.078 37.9148 475.233
3105 0 70.0949 9.61554 674 110.576 38.2893 477.12
3106 0 68.1157 10.2766 700 109.379 38.8 477.699
3107 0 68.0848 10.81 736 108.208 38.1698 477.7
3108 0 69.2331 11.3674 787 106.967 38.4219 475.01
3109 0 68.1217 11.5235 785 106.29 39.0318 476.196
3110 0 70.1366 12.0194 843 104.115 38.6643 477.093
3111 0 67.2415 10.2615 690 109.38 38.2319 476.519
3112 0 71.2091 11.5575 823 105.38 37.6112 474.397
3113 0 70.2203 10.6379 747 106.232 38.4833 477.355
3114 0 71.0884 12.0976 860 102.745 38.3012 474.743
3115 0 72.0964 12.6775 914 99.2856 37.6214 473.909
3116 0 70.105 12.2816 861 101.67 38.029 474.696
3117 0 70.1332 11.7206 822 106.545 36.899 474.754
3118 0 71.1329 11.9635 851 105.474 36.5958 473.873
3119 0 70.415 12.2133 860 104.571 36.5977 476.737
3120 0 70.2532 12.2841 863 104.205 37.1263 473.979
3121 0 69.4368 11.9677 831 104.321 36.491 476.153
3122 0 76.4343 15.7521 1204 87.9244 37.2458 466.354
3123 0 76.54 15.652 1198 89.1327 38.2412 468.178
