time division length width area intensity CMx CMy
0 0 44.046 12.8275 565 126.598 579.251 479.214
1 0 48.0197 13.0363 626 124.379 579.601 478.577
2 0 50.1481 15.7135 788 115.779 578.904 479.603
3 0 50.0408 14.3283 717 121.286 579.431 479.158
4 0 53.0725 14.6969 780 120.696 579.603 478.492
5 0 52.233 14.3587 750 124.059 579.569 476.967
6 0 54.0819 13.9418 754 125.126 579.159 476.867
7 0 55.1273 15.1468 835 123.516 579.39 476.429
8 0 57.1153 15.6876 896 120.183 579.3 476.614
9 0 58.1699 14.6467 852 123.623 579.373 476.136
10 0 59.1943 15.069 892 124.336 579.1 474.924
11 0 62.1412 16.1085 1001 121.544 579.177 474.065
12 0 64.1049 16.2546 1042 120.574 578.716 475.427
13 0 66.157 17.5492 1161 118.486 578.468 473.08
14 0 68.1403 16.0551 1094 121.888 578.05 472.67
15 0 68.14 14.4262 983 128.075 578.713 469.298
16 0 70.2058 15.9389 1119 123.273 577.816 472.298
17 0 74.0435 15.9636 1182 122.042 578.153 472.174
18 0 75.1424 15.7834 1186 125.028 578.294 469.884
19 0 80.0678 16.0239 1283 122.774 577.655 467.741
20 0 81.1432 15.294 1241 125.623 577.589 464.488
21 0 85.3784 16.9949 1451 120.101 577.877 466.269
22 0 86.372 16.3942 1416 123.26 577.339 466.331
23 0 90.422 16.3898 1482 122.794 577.179 465.262
24 0 92.1593 16.5908 1529 123.491 577.911 462.257
25 0 95.3987 16.0275 1529 124.554 577.586 460.479
26 0 98.3562 16.7046 1643 122.573 577.56 459.391
27 0 102.148 16.0747 1642 121.311 576.852 459.384
28 0 104.296 15.3314 1599 123.817 577.058 457.199
29 0 107.191 14.9826 1606 123.323 577.333 455.757
30 0 113.266 16.0949 1823 118.309 577.427 450.88
31 0 116.581 15.397 1795 123.193 576.967 446.848
32 1 58.1285 11.2853 656 121.602 577.322 479.28
33 0 60.2539 12.3146 742 114.416 577.383 478.815
34 0 65.2789 13.3427 871 117.222 576.951 478.294
35 0 66.2185 12.3681 819 116.314 576.763 478.426
36 0 68.2902 14.3945 983 110.743 576.472 475.041
37 0 69.1485 11.9019 823 115.834 576.807 475.17
38 0 72.1658 12.7623 921 117.731 577.193 472.77
39 0 75.0531 13.8968 1043 113.777 576.726 473.172
40 0 79.2192 13.8098 1094 113.126 575.873 472.161
41 0 80.2594 13.9672 1121 113.167 576.092 471.891
42 0 84.2908 14.3669 1211 112.648 576.045 468.778
43 0 88.3356 14.8638 1313 110.74 575.8 468.366
44 0 89.4182 13.3865 1197 113.134 576.114 467.007
45 0 93.2951 14.3309 1337 112.381 576.101 465.449
46 0 93.2988 13.0763 1220 116.308 575.859 462.446
47 0 99.5332 14.9196 1485 110.746 575.502 462.173
48 0 102.73 13.6766 1405 114.498 574.82 460.073
49 0 107.716 14.9188 1607 112.844 574.974 457.155
50 0 111.297 14.8432 1652 113.581 575.123 456.846
51 0 114.328 14.266 1631 112.847 575.296 455.256
52 0 125.497 23.14 2904 76.2462 574.676 457.531
53 1 65.3389 13.759 899 107.267 574.973 479.043
54 0 68.1732 14.2431 971 111.547 574.669 477.199
55 0 69.3612 14.475 1004 112.042 574 475.373
56 0 73.2069 13.5506 992 113.318 574.422 474.469
57 0 74.34 14.1108 1049 113.012 574.009 473.976
58 0 77.2761 14.2347 1100 113.103 574.189 471.475
59 0 80.3348 14.8628 1194 113.013 574.405 470.367
60 0 81.3472 13.4977 1098 116.104 574.553 470.718
61 0 84.5356 13.9941 1183 115.201 574.138 470.433
62 0 86.3622 13.7213 1185 116.565 574.533 469.087
63 0 90.3517 13.9123 1257 115.543 574.475 468.611
64 0 95.4819 15.5527 1485 113.59 574.031 462.582
65 0 97.4381 14.8197 1444 114.945 573.635 462.064
66 0 100.474 12.9983 1306 117.975 574.362 461.905
67 0 104.35 14.643 1528 114.662 574.31 461.048
68 0 107.468 14.0693 1512 117.021 574.302 457.302
69 0 112.448 15.0914 1697 114.729 574.069 454.442
70 0 116.351 14.886 1732 115.248 573.791 451.375
71 0 120.268 15.5154 1866 114.038 573.691 451.043
72 1 66.138 13.2299 875 109.733 573.687 475.92
73 0 69.1442 12.5246 866 110.404 573.535 476.674
74 0 72.1768 14.4091 1040 107.117 573.804 474.725
75 0 75.0618 14.0418 1054 107.509 574.517 477.102
76 0 75.2806 12.1147 912 113.421 573.968 475.681
77 0 79.1545 13.0252 1031 109.712 574.846 474.623
78 0 82.1563 12.7562 1048 110.77 574.321 471.403
79 0 86.176 13.5885 1171 109.032 574.844 470.44
80 0 88.1283 12.8789 1135 109.889 574.442 469.698
81 0 91.2009 14.342 1308 108.27 573.847 466.794
82 0 94.3108 13.9433 1315 106.466 573.608 465.054
83 0 98.2193 12.859 1263 107.015 574.549 465.68
84 0 102.226 13.9006 1421 107.639 574.228 462.38
85 0 105.213 13.9621 1469 110.801 574.586 460.4
86 0 109.112 14.0681 1535 111.154 574.524 457.494
87 1 57.0922 12.1207 692 103.292 574.506 485.082
88 0 57.0255 11.7491 670 106.309 573.888 483.099
89 0 60.1984 13.0236 784 103.105 574.422 484.981
90 0 62.1031 10.6919 664 107.895 574.566 484.842
91 0 63.1917 12.7232 804 106.718 574.15 481.993
92 0 66.1784 13.4183 888 105.607 573.61 482.134
93 0 66.1823 12.2238 809 110.789 573.184 478.466
94 0 71.269 12.1792 868 109.618 573.661 479.086
95 0 72.1675 12.8313 926 111.898 573.055 477.715
96 0 77.2109 13.4048 1035 109.85 573.345 475.642
97 0 79.1997 12.9799 1028 110.282 573.57 474.782
98 0 81.2796 12.4509 1012 112.724 572.967 472.586
99 0 83.3652 11.8515 988 114.077 572.68 471.076
100 0 85.2315 12.9882 1107 113.842 572.592 468.874
101 0 88.2676 12.7453 1125 113.844 572.684 468.038
102 0 93.3142 15.0031 1400 108.231 573.029 466.688
103 0 97.2777 14.0114 1363 110.977 572.812 464.318
104 0 97.4144 13.3861 1304 112.969 572.91 458.622
105 0 101.276 14.0408 1422 111.575 572.641 460.622
106 0 102.35 13.0631 1337 113.984 572.857 458.178
107 0 106.166 12.7254 1351 113.136 572.725 459.868
108 0 111.163 13.1519 1462 113.127 572.869 455.562
109 1 60.1685 12.8306 772 108.259 573.429 482.969
110 0 61.0755 12.591 769 114.113 572.823 482.443
111 0 64.0358 13.5705 869 112.914 573.609 481.219
112 0 64.0906 13.2001 846 114.599 572.784 481.54
113 0 67.1505 14.0133 941 112.609 572.391 479.021
114 0 69.0426 13.832 955 112.404 572.795 478.881
115 0 69.0322 13.7472 949 149.148 573.804 478.885
116 0 73.1645 15.0893 1104 110.065 573 475.404
117 0 77.0524 12.7965 986 114.17 571.999 475.575
118 0 79.1354 13.3948 1060 113.669 573.238 471.514
119 0 80.1399 13.2394 1061 114.9 572.316 472.644
120 0 84.156 13.6889 1152 113.839 571.846 468.375
121 0 88.1585 13.0787 1153 111.664 572.434 469.356
122 0 89.1979 12.6348 1127 107.649 571.59 465.151
123 0 91.211 12.937 1180 112.329 572.786 466.332
124 0 95.1658 11.5062 1095 112.902 573.579 465.105
125 0 100.225 15.0062 1504 111.078 573.404 458.733
126 1 53.0666 12.5691 667 107.685 573.67 484.522
127 0 54.0403 11.5099 622 102.887 573.37 484.608
128 0 55.031 13.1017 721 105.759 573.331 484.086
129 0 58.0711 12.2608 712 107.558 573.838 484.327
130 0 59.0633 11.9702 707 107.327 574.091 484.013
131 0 60.0935 12.2809 738 108.041 574.431 481.831
132 0 62.1046 12.8171 796 108.552 574.054 480.293
133 0 65.1539 13.0614 851 106.236 574.118 480.309
134 0 67.1193 14.3923 966 105.502 573.906 477.447
135 0 70.1817 13.5933 954 106.934 573.988 477.198
136 0 72.143 14.0554 1014 107.832 574.334 475.731
137 0 73.0617 11.7709 860 114.336 574.341 473.497
138 0 77.1136 12.9938 1002 111.574 574.157 474.274
139 0 77.1171 12.7339 982 114.004 574.556 470.984
140 0 80.0984 13.7581 1102 112.385 574.004 467.644
141 0 80.0984 13.7456 1101 129.796 574 467.612
142 0 84.0811 10.8942 916 120.243 573.587 465.442
143 1 45.1814 11.1329 503 111.75 573.837 486.008
144 0 48.0271 10.5565 507 117.254 573.641 486.613
145 0 48.0766 11.7937 567 107.09 574.049 489.464
146 0 48.0349 12.824 616 107.409 574.56 487.83
147 0 48.0389 11.6364 559 111.347 573.792 487.451
148 0 50.0645 11.0857 555 111.932 573.115 487.38
149 0 51.0616 11.5742 591 111.56 573.305 485.805
150 0 55.0623 12.8219 706 107.394 572.785 484.681
151 0 57.0612 12.4603 711 108.406 572.381 484.388
152 0 58.054 12.075 701 109.15 572.718 484.959
153 0 59.0709 11.901 703 110.432 572.771 484.945
154 0 61.0422 12.1391 741 110.27 573.304 482.595
155 0 65.0828 12.7222 828 108.006 572.207 481.96
156 0 66.1468 12.5025 827 111.586 573.676 478.285
157 0 66.1712 12.7699 845 111.297 572.973 477.907
158 0 69.1788 11.8533 820 111.293 573.479 480.496
159 0 70.1637 11.6299 816 112.616 573.496 476.14
160 0 75.1545 13.3325 1002 107.885 572.96 475.52
161 0 77.1442 13.8183 1066 108.09 572.66 474.644
162 0 79.0888 13.036 1031 110.043 572.918 473.281
163 0 81.1966 14.2494 1157 108.347 572.808 471.832
164 0 84.1682 13.0691 1100 108.803 572.703 473.142
165 0 85.0852 11.1888 952 112.218 572.664 473.212
166 0 88.2198 11.5507 1019 111.71 573.053 469.195
167 0 92.0886 12.0102 1106 111.098 573.545 467.532
168 0 95.3136 12.59 1200 110.441 573.97 463.141
169 0 97.2629 11.7825 1146 112.365 573.002 461.725
170 1 53.3103 12.5117 667 108.739 573.96 482.624
171 0 57.1707 14.6579 838 98.7971 574.352 480.502
172 0 58.0307 12.3038 714 111.58 573.95 482.461
173 0 62.0447 12.9906 806 108.339 574.825 480.581
174 0 63.0907 13.4727 850 107.835 574.685 480.309
175 0 66.1543 13.0906 866 107.994 573.796 478.684
176 0 67.0542 13.1983 885 108.33 573.409 476.781
177 0 69.0775 12.5801 869 110.254 574.026 476.68
178 0 72.0889 12.9285 932 108.288 573.87 475.509
179 0 73.1031 13.0501 954 110.955 573.937 474.444
180 0 76.1417 13.3304 1015 110.755 573.408 473.733
181 0 78.1588 13.2295 1034 111.995 573.527 470.692
182 0 79.0701 12.6723 1002 114.311 574.066 471.248
183 0 84.0332 13.4471 1130 111.886 573.747 470.858
184 0 87.127 13.6123 1186 112.169 574.257 467.902
185 0 88.1036 13.3479 1176 113.872 574.332 466.918
186 0 90.1064 13.8392 1247 113.354 573.778 465.929
187 0 94.1075 13.1445 1237 114.943 574.257 465.015
188 0 98.1315 15.1226 1484 110.85 573.658 463.737
189 0 100.164 12.9688 1299 115.716 573.351 462.068
190 0 103.167 13.1147 1353 116.832 573.056 460.931
191 0 108.19 14.3267 1550 113.614 573.151 458.067
192 0 113.223 14.3787 1628 112.554 573.948 456.888
193 0 115.191 15.3224 1765 111.416 572.928 454.445
194 1 61.1204 10.8965 666 115.701 573.489 480.853
195 0 65.1143 11.38 741 113.026 573.159 479.769
196 0 65.2176 11.868 774 104.747 573.492 479.401
197 0 67.0905 11.5963 778 102.536 573.179 479.878
198 0 71.1175 11.8958 846 101.757 573.639 475.998
199 0 75.1622 12.6659 952 99.8151 573.262 476.22
200 0 77.1563 12.9866 1002 99.8852 572.981 472.681
201 0 79.1261 12.5749 995 100.972 572.861 471.046
202 0 83.1288 12.6791 1054 101.598 572.872 471.052
203 0 86.1052 14.0177 1207 99.2916 572.399 469.349
204 0 86.1052 13.9829 1204 120.442 572.407 469.353
205 0 90.1578 13.0771 1179 102.611 572.393 463.45
206 0 90.1575 13.0882 1180 128.797 572.385 463.355
207 0 98.1485 12.2773 1205 108.039 571.929 462.734
208 0 100.196 11.8767 1190 106.955 572.313 461.516
209 0 106.174 13.3931 1422 102.707 572.094 456.838
210 0 109.376 11.9679 1309 107.341 572.057 454.052
211 0 113.173 10.7711 1219 105.901 572.385 456.29
212 0 118.394 12.7372 1508 103.92 572.694 450.996
213 1 59.1315 11.3138 669 96.3378 572.188 483.179
214 0 61.3366 10.8581 666 99.8964 571.719 480.863
215 0 62.1359 10.9438 680 95.7235 572.994 480.638
216 0 66.1361 10.3725 686 96.3863 572.02 478.069
217 0 70.0317 12.5229 877 92.8198 572.696 476.379
218 0 72.1056 12.981 936 96.9957 572.312 474.338
219 0 76.202 12.585 959 96.5141 573.394 472.404
220 0 77.1168 12.6043 972 93.9907 573.576 476.412
221 0 80.2917 13.8246 1110 94.0225 573.212 470.181
222 0 80.2917 13.7748 1106 127.196 573.211 470.185
223 0 86.3237 11.9782 1034 97.8665 573.643 467.206
224 0 86.3171 11.9212 1029 131.263 573.64 467.117
225 0 86.3227 11.874 1025 130.967 573.632 467.074
226 0 94.8361 11.8942 1128 100.104 573.674 461.024
227 0 93.6959 10.7155 1004 103.227 573.157 459.192
228 0 100.494 11.5032 1156 101.996 573.532 457.826
229 0 103.741 10.7575 1116 103.769 573.338 456.025
230 0 106.405 11.616 1236 102.644 573.635 454.158
231 0 112.392 11.3086 1271 102.851 572.964 453.362
232 0 112.562 10.5719 1190 106.076 573.369 450.441
233 0 120.499 11.4358 1378 103.079 572.944 453.202
234 0 123.317 12.326 1520 103.098 572.914 448.982
235 0 126.407 12.0642 1525 104.27 573.804 444.49
236 0 130.457 11.5517 1507 107.042 573.971 440.633
237 0 137.432 13.2429 1820 102.882 573.435 441.168
238 1 70.2956 12.6893 892 92.9899 573.75 476.499
239 0 70.2194 12.0195 844 97.2713 573.287 474.306
240 0 72.2327 11.8783 858 98.5245 573.146 474.913
241 0 75.1157 11.9416 897 98.4392 573.028 473.514
242 0 78.1704 12.0506 942 98.1561 572.561 472.358
243 0 83.1964 11.3226 942 98.4862 572.158 471.346
244 0 84.376 11.2591 950 99.3147 572.215 469.117
245 0 86.2426 12.1981 1052 98.9506 572.255 467.028
246 0 89.4623 11.2114 1003 101.974 571.349 464.449
247 0 92.3423 13.5149 1248 98.5288 571.736 456.085
248 0 98.3719 12.3003 1210 100.263 572.845 456.536
249 0 99.3274 12.7256 1264 100.748 572.436 455.903
250 0 99.3425 12.6733 1259 130.953 572.414 455.871
251 0 99.3455 12.6629 1258 130.492 572.42 455.834
252 0 100.625 8.45716 851 106.099 572.478 462.485
253 1 113.468 11.4129 1295 104.672 572.917 449.849
254 0 113.468 11.4657 1301 144.997 572.922 449.81
255 1 59.2256 10.7555 637 102.593 574.184 479.507
256 0 64.205 11.7904 757 101.54 574.705 478.551
257 0 64.0713 10.7068 686 95.4679 574.163 481.426
258 0 67.2162 10.7415 722 94.849 574.068 478.637
259 0 68.0884 11.5732 788 94.868 573.594 477.766
260 0 70.2656 11.0865 779 95.0347 574.267 476.807
261 0 73.2434 11.728 859 94.2293 574.717 475.114
262 0 75.132 12.0055 902 101.745 573.885 472.553
263 0 77.0907 12.6734 977 98.9642 573.104 472.982
264 0 81.0755 12.3589 1002 98.8892 572.512 471.97
265 0 81.1256 11.5377 936 100.621 571.975 471.267
266 0 81.1235 11.538 936 138.566 570.978 471.221
267 0 84.0738 13.2027 1110 94.2045 572.704 466.5
268 0 88.2687 13.7308 1212 92.9662 573.333 465.564
269 0 90.2673 11.2998 1020 98.6578 573.378 465.548
270 0 92.2356 11.5682 1067 97.1406 574.074 463.047
271 0 95.3616 13.1814 1257 95.4471 573.352 461.364
272 0 95.3405 13.3416 1272 123.07 573.377 461.444
273 0 100.27 11.9976 1203 98.4131 573.72 456.151
274 0 102.393 10.1764 1042 102.208 572.917 454.631
275 0 102.393 10.1862 1043 134.121 572.922 454.301
276 0 111.456 11.7446 1309 99.0947 573.455 453.931
277 1 60.2979 9.25406 558 93.4229 573.403 480.694
278 0 60.2979 9.12138 550 127.198 572.4 480.695
279 0 63.2523 11.0668 700 94.0786 573.33 478.947
280 0 68.2004 11.4955 784 91.5153 573.592 480.874
281 0 68.2506 10.9889 750 94.3627 573.648 480.073
282 0 71.2553 12.6306 900 92.7867 573.111 476.283
283 0 72.2755 11.8989 860 94.0384 573.258 476.892
284 0 75.2321 11.3648 855 95.7216 573.529 475.482
285 0 78.1988 12.1741 952 95.1849 573.524 475.013
286 0 79.1302 11.7654 931 97.6584 573.347 473.542
287 0 81.1704 11.1987 909 99.4818 573.259 469.939
288 0 85.1451 10.899 928 104.49 573.923 469.873
289 0 90.1454 12.8015 1154 100.919 573.519 467.053
290 0 90.0589 12.3586 1113 102.077 573.476 465.022
291 1 47.2137 10.5054 496 97.0403 573.77 488.185
292 0 47.2137 10.5478 498 130.361 574.727 488.359
293 0 51.0812 11.1391 569 94.1757 574.701 484.937
294 0 53.2151 11.5757 616 93.3961 574.846 484.492
295 0 54.0998 11.7376 635 93.885 575.061 486.69
296 0 57.1257 13.8117 789 90.0393 574.165 484.508
297 0 56.0618 12.2543 687 95.0422 575 484.416
298 0 58.1572 12.8445 747 94.676 574.622 483.707
299 0 57.1123 9.78774 559 99.7138 574.504 486.2
300 0 61.173 13.2902 813 94.8069 573.338 482.13
301 0 61.173 13.2738 812 131.224 572.304 482.064
302 0 65.2395 12.3698 807 96.2565 572.897 479.103
303 0 68.1914 12.1716 830 95.6145 572.535 479.645
304 0 69.3252 11.7418 814 96.5885 572.625 480.055
305 0 70.1389 12.1331 851 96.9976 572.848 475.778
306 0 73.1268 11.9382 873 96.4433 573.614 473.897
307 0 73.1268 11.8971 870 113.944 574.622 473.908
308 0 73.1268 11.8698 868 113.465 575.634 473.975
309 0 79.1525 11.5852 917 99.2803 572.665 471.372
310 0 83.2449 11.6884 973 98.554 572.075 470.179
311 0 84.2747 11.1896 943 101.35 571.596 466.678
312 0 90.2031 11.0639 998 98.6914 571.732 468.826
313 0 91.1501 11.322 1032 100.785 571.419 461.633
314 0 93.3538 10.7334 1002 101.346 571.838 463.739
315 0 97.3222 10.0183 975 103.89 571.987 459.976
316 1 48.2075 9.54208 460 100.73 572.546 484.324
317 0 53.2359 10.7071 570 98.2404 571.926 482.786
318 0 54.1403 13.8714 751 94.7284 571.98 482.848
319 0 57.126 11.851 677 93.808 572.431 483.928
320 0 58.1004 11.876 690 94.5812 572.397 481.38
321 0 61.0623 12.348 754 92.7188 572.318 481.533
322 0 62.076 10.9543 680 96.2574 571.694 480.766
323 0 65.0794 11.2632 733 96.6658 571.031 479.813
324 0 68.1338 13.2533 903 94.3344 571.021 476.316
325 0 68.0724 11.2233 764 98.4424 571.66 476.691
326 0 71.1562 12.2828 874 96.6819 572.111 476.728
327 0 73.1688 13.4757 986 95.7931 571.625 475.26
328 0 76.2445 11.9615 912 104.959 572.144 471.55
329 0 80.2134 13.7633 1104 100.13 571.698 473.182
330 0 82.1687 13.4358 1104 102.879 571.795 470.528
331 0 85.3717 13.1425 1122 103.638 571.841 469.541
332 0 87.1463 13.4257 1170 103.677 572.509 468.074
333 0 87.1463 13.4372 1171 143.307 573.513 468.141
334 0 89.1999 12.4215 1108 107.547 572.39 466.425
335 0 95.1765 13.3962 1275 105.653 572.064 464.464
336 0 97.1204 11.7071 1137 107.939 572.591 465.442
337 0 101.237 14.0067 1418 102.746 572.382 463.202
338 0 103.222 13.3983 1383 144.384 571.378 463.846
339 1 53.0492 12.4978 663 97.9487 572.131 484.537
340 0 57.1827 12.8186 733 99.3015 572.456 485.184
341 0 58.0762 12.1048 703 97.1266 571.69 486.031
342 0 58.1163 12.6987 738 96.9431 571.489 485.692
343 0 59.0669 12.3758 731 98.6689 572.141 484.156
344 0 61.1172 11.3061 691 100.796 571.915 480.712
345 0 64.1258 12.2104 783 98.258 572.057 482.282
346 0 65.1211 12.5766 819 98.1758 572.144 480.849
347 0 68.1057 14.1251 962 96.0572 571.441 478.509
348 0 70.2951 13.3864 941 97.1945 571.739 478.679
349 0 73.0664 14.2747 1043 96.4688 572.179 476.227
350 0 75.1165 14.5241 1091 95.5261 572.211 476.441
351 0 76.1403 13.6196 1037 97.3626 572.896 475.579
352 0 79.1442 14.5683 1153 96.5924 573.165 475.05
353 0 81.0835 14.4666 1173 97.8389 572.892 472.49
354 0 83.0715 13.6148 1131 98.8824 572.336 469.79
355 0 86.0759 14.1155 1215 98.2798 572.866 471.256
356 0 87.1768 13.2604 1156 102.185 572.192 468.721
357 0 88.0937 13.0883 1153 102.771 572.243 468.33
358 0 89.1744 12.212 1089 105.083 571.76 468.666
359 0 93.1808 11.9982 1118 104.706 572.456 470.14
360 0 96.084 11.7918 1133 106.53 572.078 464.044
361 0 100.256 13.8346 1387 102.071 572.696 463.668
362 0 101.254 12.1082 1226 105.4 573.008 463.197
363 0 106.178 13.9106 1477 101.26 573.259 460.397
364 0 110.248 13.651 1505 103.389 572.695 456.626
365 0 112.317 12.8831 1447 103.977 572.961 456.903
366 0 119.26 14.0115 1671 99.3872 573.251 454.309
367 1 64.0849 11.1103 712 102.704 572.937 483.875
368 0 63.1325 11.8798 750 104.139 572.737 478.381
369 0 71.0658 12.6925 902 101.429 572.97 478.997
370 0 73.1272 12.3894 906 103.125 572.905 476.177
371 0 74.0761 11.4747 850 104.864 572.533 478.036
372 0 75.1587 12.4669 937 104.243 572.793 474.662
373 0 80.1578 12.8996 1034 102.346 573.237 473.103
374 0 81.1267 11.8826 964 104.918 573.137 471.959
375 0 86.1705 12.835 1106 103.446 572.953 469.781
376 0 87.1307 12.1542 1059 107.036 572.904 468.983
377 0 90.292 13.855 1251 104.47 572.484 466.226
378 0 92.189 14.1991 1309 103.332 572.39 465.862
379 0 96.2341 13.2593 1276 104.69 572.475 463.791
380 0 98.1992 13.717 1347 104.114 572.906 464.111
381 0 104.254 14.2153 1482 102.268 572.256 460.703
382 0 103.181 12.8512 1326 102.452 571.825 462.412
383 0 105.081 13.6942 1439 102.075 572.339 459.388
384 0 107.151 12.2071 1308 104.226 572.308 461.474
385 0 113.139 12.4803 1412 102.542 571.94 458.001
386 1 64.1633 11.2681 723 100.021 572.663 481.981
387 0 64.0787 12.1725 780 92.6692 572.195 480.274
388 0 68.0223 12.4518 847 91.0047 572.881 481.824
389 0 68.1817 13.2294 902 93.3304 572.064 478.239
390 0 70.07 12.5303 878 95.1822 572.249 476.317
391 0 74.067 14.0413 1040 93.2875 572.206 476.086
392 0 74.1094 11.4156 846 97.3877 572.202 476.663
393 0 76.083 12.2629 933 97.4255 572.27 477.497
394 0 79.2972 12.0559 956 102.024 571.786 475.168
395 0 81.1216 12.66 1027 102.476 572.397 472.28
396 0 88.1536 14.3159 1262 95.4485 572.421 472.521
397 0 88.2743 13.3561 1179 99.4088 572.413 469.818
398 0 89.2288 13.74 1226 99.4274 572.342 468.795
399 0 92.3471 13.8716 1281 99.5722 572.991 466.879
400 0 95.2569 13.9098 1325 100.287 573.246 465.518
401 0 99.2871 13.5969 1350 100.909 573.616 465.777
402 1 52.1936 11.4765 599 102.295 572.225 486.741
403 0 54.0555 12.1357 656 101.192 572.538 485.62
404 0 53.0802 11.1529 592 97.576 574.346 487.53
405 0 54.0524 10.8228 585 99.7709 573.019 485.976
406 0 55.0649 10.4785 577 101.319 572.951 485.3
407 0 60.0905 13.047 784 94.662 573.153 484.383
408 0 60.0905 13.1135 788 131.659 572.15 484.331
409 0 61.1205 12.6962 776 96.3634 572.776 482.946
410 0 63.1105 12.2801 775 98.4955 572.742 481.742
411 0 65.0731 13.9382 907 95.4057 573.034 480.075
412 0 68.1143 14.0646 958 95.1117 572.519 480.019
413 0 69.1176 12.0375 832 99.8906 572.395 479.079
414 0 72.1076 13.3689 964 97.4149 571.918 478.317
415 0 75.1505 13.7591 1034 96.4749 572.2 477.936
416 0 77.1132 11.6193 896 100.8 572.01 478.484
417 0 77.1152 11.995 925 103.156 572.308 474.608
418 0 83.1183 15.4358 1283 94.6235 572.165 474.964
419 0 85.1075 13.4771 1147 99.8718 572.38 472.357
420 0 88.1153 12.4723 1099 101.704 572.367 472.561
421 0 91.0706 13.2425 1206 99.9983 572.339 468.795
422 0 93.1477 12.0239 1120 103.541 573.182 466.546
423 1 47.0252 10.5263 495 97.7232 572.463 492.889
424 0 47.2062 9.8504 465 97.5204 572.858 492.74
425 0 50.0205 12.8347 642 93.4704 572.637 490.103
426 0 49.0448 12.1318 595 97.9613 571.78 488.43
427 0 49.0448 12.2949 603 131.731 570.803 488.337
428 0 53.1244 13.026 692 94.4523 572.062 487.698
429 0 54.1173 13.0827 708 120.168 573.102 487.398
430 0 53.0554 11.4597 608 98.4803 572.362 486.648
431 0 56.1214 12.9719 728 95.4478 572.379 486.232
432 0 58.0655 12.1242 704 97.4162 572.639 484.686
433 0 61.1085 13.2224 808 95.8243 571.827 482.23
434 0 63.1266 12.5145 790 96.9101 571.266 483.139
435 0 64.129 12.5216 803 97.2914 572.524 480.843
436 0 66.1048 13.0702 864 95.6574 572.816 481.975
437 0 65.1036 11.3051 736 100.701 572.234 480.298
438 0 68.1768 10.7661 734 100.334 572.482 480.349
439 0 70.1176 10.4681 734 100.643 572.482 479.293
440 0 73.1979 11.9949 878 98.2221 573.229 476.694
441 0 75.1607 12.8791 968 97.2831 572.998 475.909
442 0 78.186 11.818 924 98.408 572.827 474.594
443 0 80.2579 11.6624 936 99.1998 572.786 474.163
444 0 83.1943 10.6017 882 93.6361 572.754 474.385
445 1 46.0215 10.7341 494 91.2753 572.929 492.656
446 0 46.046 12.1183 558 88.5914 574.72 490.297
447 0 48.1397 12.1521 585 89.1128 573.598 488.694
448 0 50.1964 13.487 677 86.4742 573.942 489.613
449 0 52.096 11.1333 580 89.469 574.103 490.831
450 0 53.0679 12.5877 668 87.979 573.81 488.214
451 0 52.0255 10.7447 559 92.034 573.9 487.213
452 0 55.0296 12.6659 697 88.1349 573.31 485.28
453 0 57.0541 11.2525 642 89.9673 572.636 485.12
454 0 59.0954 11.456 677 88.9424 572.804 485.52
455 0 60.2586 12.6289 761 88.5335 573.142 481.871
456 0 62.0449 13.0712 811 88.1763 573.44 481.175
457 0 64.0649 14.5009 929 85.4564 573.728 479.482
458 0 66.0452 12.0221 794 89.0718 573.026 478.372
459 0 67.1103 14.0366 942 85.4756 573.724 476.389
460 0 70.1015 12.8956 904 86.4215 573.298 476.049
461 0 71.1431 10.7108 762 91.3937 572.513 476.984
462 0 76.1535 12.6586 964 85.251 573.124 476.38
463 0 80.1876 12.2463 982 93.2149 574.536 473.471
464 1 40.0177 10.0706 403 92.9231 574.839 491.543
465 0 42.0246 9.97035 419 90.2291 574.811 492.072
466 0 44.1096 11.9928 529 85.5558 573.25 490.561
467 0 45.046 12.4539 561 85.4456 573.872 492.84
468 0 46.0472 10.6413 490 88.598 573.002 491.355
469 0 48.0859 13.4551 647 84.524 573.303 487.437
470 0 51.1016 12.0348 615 86.0927 573.621 488.52
471 0 52.1346 11.432 596 88.4262 573.409 486.549
472 0 53.2493 11.3429 604 89.0911 572.093 487.081
473 0 54.1284 11.3988 617 88.8331 572.692 487.718
474 0 56.1028 11.8533 665 88.182 572.576 486.039
475 0 58.0452 11.336 658 88.7644 572.526 485.565
476 0 57.1138 10.5929 605 90.1107 573.304 484.296
477 0 63.154 11.4799 725 88.6717 573.719 483.957
478 0 64.0516 11.6469 746 88.7976 573.52 484.013
479 0 66.1062 10.8764 719 91.4353 572.648 480.999
480 0 69.1259 13.1065 906 87.7428 573.119 481.077
481 0 72.1683 12.6787 915 96.6689 573.936 477.845
482 0 74.1621 12.4187 921 97.4517 573.555 476.246
483 0 77.3078 11.5383 892 99.2399 572.781 475.184
484 0 83.2531 13.3208 1109 95.7024 573.109 474.253
485 0 85.4069 13.8513 1183 94.8014 573.515 474.531
486 1 42.0357 10.8955 458 98.3886 572.998 491.688
487 0 44.1334 11.5105 508 96.4724 572.752 492.85
488 0 45.1053 11.329 511 93.8102 573.284 491.585
489 0 48.092 13.0167 626 90.3482 572.76 490.612
490 0 49.0497 12.6402 620 89.4742 573.208 489.4
491 0 50.1075 12.4133 622 89.5161 573.523 490.32
492 0 52.0672 13.5018 703 87.5036 573.213 488.576
493 0 53.0264 13.2198 701 88.5578 572.224 488.787
494 0 53.0971 11.6579 619 91.3489 573.213 489.659
495 0 57.1164 14.3391 819 87.7082 572.701 486.302
496 0 56.0908 11.3566 637 92.978 572.573 487.312
497 0 59.2759 12.1297 719 91.8428 572.994 486.356
498 0 62.0699 13.0015 807 91.2379 573.143 484.577
499 0 62.043 13.3778 830 91.8807 572.889 481.294
500 0 66.0518 14.2767 943 93.5705 572.856 480.221
501 0 69.0694 14.4058 995 93.604 572.812 480.876
502 0 69.052 12.5413 866 99.2875 572.94 481.289
503 0 72.1021 13.5918 980 98.0316 573.118 480.048
504 0 73.0923 13.8866 1015 98.4217 573.149 475.879
505 0 76.1127 12.8231 976 99.915 573.553 475.765
506 0 79.0815 11.9118 942 103.46 572.523 476.783
507 0 82.0684 13.4156 1101 100.889 572.798 474.282
508 0 86.0838 14.3929 1239 99.2865 572.491 471.599
509 0 85.0894 12.9393 1101 102.246 574.013 471.643
510 0 88.1021 11.5434 1017 105.084 573.16 470.991
511 1 47.0895 11.4251 538 106.069 572.836 489.95
512 0 51.1384 13.4732 689 103.257 573.248 489.62
513 0 52.1034 13.5308 705 112.563 573.691 488.162
514 0 52.0144 13.477 701 99.5777 573.171 490.039
515 0 53.0261 13.0879 694 101.929 572.553 488.28
516 0 56.0779 13.3208 747 100.664 572.556 487.874
517 0 56.0365 11.7959 661 103.791 572.956 488.882
518 0 57.2458 12.4376 712 103.579 573.153 486.654
519 0 61.121 14.6267 894 99.5515 572.866 484.97
520 0 62.0507 12.1514 754 103.346 572.285 485.902
521 0 65.1105 12.4404 810 104.419 573.612 482.854
522 0 64.0453 12.054 772 106.026 572.784 483.891
523 0 66.085 11.8938 786 106.939 572.985 482.481
524 0 71.0632 13.3825 951 101.33 573.262 482.45
525 0 74.144 13.9324 1033 100.412 573.68 479.573
526 0 75.1139 12.6075 947 104.208 573.857 476.517
527 0 78.0798 14.5236 1134 100.711 573.465 477.068
528 0 79.1451 10.525 833 109.501 573.035 477.827
529 0 84.1601 12.5475 1056 105.886 573.175 474.49
530 0 87.2073 12.4646 1087 105.769 573.834 473.081
531 0 90.101 13.3073 1199 104.875 573.153 470.549
532 0 92.1915 13.9492 1286 104.733 573.189 469.953
533 0 96.1375 13.3767 1286 105.137 572.972 467.568
534 1 50.0776 12.6005 631 101.629 572.547 491.151
535 0 52.1157 11.935 622 103.264 572.1 489.524
536 0 53.0639 12.3625 656 102.335 572.672 488.559
537 0 57.0595 14.0555 802 100.368 573.027 487.196
538 0 57.0898 13.5226 772 101.358 572.837 485.165
539 0 60.1218 12.8739 774 101.73 572.897 486.269
540 0 61.1646 14.2076 869 100.781 572.736 484.045
541 0 62.2586 12.9621 807 104.864 573.16 481.497
542 0 67.2071 13.5551 911 102.307 572.259 482.209
543 0 67.1039 11.6536 782 109.692 572.679 481.747
544 0 70.2663 13.8616 974 106.695 572.526 477.156
545 0 74.2572 12.9684 963 107.32 573.021 478.586
546 0 75.064 13.3086 999 108.865 573.159 476.423
547 0 77.1928 13.68 1056 108.292 572.917 477.138
548 0 82.1445 13.3058 1093 108.814 573.372 475.412
549 0 85.171 15.463 1317 104.964 572.959 472.867
550 0 86.1329 14.7563 1271 107.696 573.003 469.182
551 0 91.0483 13.751 1252 109.046 573.445 471.885
552 0 93.1389 14.8273 1381 107.407 573.013 467.701
553 0 98.1527 14.3552 1409 107.818 573.329 468.969
554 0 101.093 14.3531 1451 107.688 573.405 465.023
555 0 104.118 13.2446 1379 110.43 572.942 462.4
556 0 109.172 14.9947 1637 106.276 573.362 460.249
557 0 113.19 15.5402 1759 105.717 572.96 460.234
558 1 62.0904 14.1407 878 100.566 572.833 485.431
559 0 63.0369 13.3573 842 99.5986 573.482 486.417
560 0 65.0371 13.5769 883 98.1631 572.935 482.901
561 0 67.1556 14.1314 949 98.8936 572.899 480.751
562 0 70.1724 14.0654 987 98.5086 573.695 480.736
563 0 73.2641 13.076 958 97.5825 573.124 479.573
564 0 74.1076 11.9961 889 100.523 573.591 476.301
565 0 78.0665 12.6431 987 99.3728 573.633 478.071
566 0 79.0561 11.7385 928 102.804 573.239 476.265
567 0 83.1425 13.3987 1114 99.6382 573.566 476.868
568 0 87.1092 13.4659 1173 101.273 573.885 473.837
569 0 89.1025 14.1298 1259 101.961 573.384 472.892
570 0 92.2155 13.8805 1280 103.9 573.25 471.698
571 0 95.1072 14.8043 1408 107.922 573.585 469.486
572 0 97.1137 13.3864 1300 112.628 572.598 469.419
573 0 101.193 14.8034 1498 110.865 572.892 466.573
574 0 105.114 14.5176 1526 112.554 572.438 464.592
575 0 108.306 14.8929 1613 112.365 572.766 462.986
576 0 113.272 13.7721 1560 113.399 572.842 461.502
577 1 57.1277 13.8812 793 105.039 572.919 487.122
578 0 58.1215 13.6438 793 104.586 573.235 489.039
579 0 61.0527 13.7095 837 101.767 573.245 486.09
580 0 62.1512 14.883 925 99.4378 573.506 485.518
581 0 65.1636 15.6069 1017 98.6441 573.239 484.62
582 0 67.2735 13.0512 878 103.495 573.183 483.804
583 0 68.2175 14.2192 970 101.931 573.389 481.422
584 0 70.0997 12.9815 910 104.692 573.362 481.4
585 0 74.2289 13.3775 993 104.342 573.12 480.293
586 0 78.3284 15.5754 1220 100.103 573.243 478.325
587 0 78.1348 13.7839 1077 105.768 573.461 476.955
588 0 80.1566 11.6896 937 109.382 573.689 477.277
589 0 83.2324 13.3722 1113 106.822 573.526 472.875
590 0 89.1278 14.8438 1323 104.322 573.821 472.008
591 0 91.2922 13.3965 1223 109.215 573.437 472.348
592 0 96.4799 14.6041 1409 111.638 573.194 469.374
593 0 99.184 15.7888 1566 110.427 572.833 467.499
594 1 50.1919 11.3763 571 110.65 573.18 489.2
595 0 52.1445 12.9448 675 107.53 573.013 487.347
596 0 54.1203 12.3244 667 109.751 573.754 491.124
597 0 55.0857 12.3989 683 118.13 573.678 487.546
598 0 58.1874 13.5768 790 113.496 574.047 486.523
599 0 59.1601 12.6944 751 116.132 573.897 486.36
600 0 61.1532 12.5096 765 115.184 573.384 484.541
601 0 63.1585 12.4607 787 114.837 573.151 484.907
602 0 66.15 13.8171 914 110.969 573.274 484.489
603 0 68.0747 13.4411 915 112.703 573.929 482.564
604 0 70.1214 13.3198 934 114.001 573.623 481.27
605 0 72.1718 14.3962 1039 112.688 572.845 478.512
606 0 75.2832 13.8942 1046 113.797 572.756 477.342
607 0 78.1414 13.7187 1072 113.104 573.189 475.618
608 0 80.3798 14.3444 1153 112.578 573.492 473.598
609 0 82.2941 14.5697 1199 113.193 573.374 473.26
610 0 84.3053 14.5661 1228 114.006 573.751 472.891
611 0 86.5463 13.3339 1154 117.821 572.864 472.412
612 0 89.1495 14.3355 1278 115.888 572.555 467.943
613 0 91.3899 13.6558 1248 118.015 572.905 465.7
614 0 94.5058 14.3907 1360 115.903 573.347 466.835
615 0 99.4551 13.5941 1352 118.762 572.484 463.15
616 0 102.556 13.8754 1423 118.613 572.297 461.408
617 0 105.492 14.5224 1532 116.698 572.979 461.477
618 1 55.345 12.4853 691 114.234 572.398 483.631
619 0 59.1834 13.4835 798 112.011 573.058 482.429
620 0 60.3745 14.8076 894 112.385 572.923 482.944
621 0 62.2034 14.0828 876 114.879 572.909 481.424
622 0 64.2451 12.966 833 116.31 572.754 480.712
623 0 69.2976 13.9687 968 112.352 572.586 478.165
624 0 69.2313 12.8121 887 115.25 572.306 476.517
625 0 72.3459 13.4631 974 113.591 572.353 476.004
626 0 73.3975 13.6108 999 113.481 572.431 474.897
627 0 77.3411 13.3176 1030 113.467 572.468 473.936
628 0 78.2293 14.1124 1104 112.527 572.159 471.929
629 0 83.4411 13.6024 1135 112.922 572.315 470.588
630 0 86.381 14.2855 1234 112.197 572.216 469.022
631 0 89.2204 13.6068 1214 112.745 572.457 469.647
632 0 91.3083 14.3361 1309 111.907 572.177 467.646
633 0 94.1881 14.4498 1361 112.828 572.428 464.425
634 0 96.4573 13.4256 1295 114.823 572.263 466.156
635 0 101.39 15.0114 1522 112.515 572.468 460.704
636 1 52.2874 11.628 608 110.87 572.507 489.87
637 0 53.106 13.2 701 108.001 574.031 488.792
638 0 55.089 12.2711 676 110.836 573.63 487.152
639 0 58.1216 12.7319 740 109.916 573.797 485.538
640 0 60.1065 13.8421 832 108.607 573.472 483.555
641 0 61.1773 13.0768 800 110.284 574.026 483.827
642 0 64.0893 13.6684 876 108.487 574.858 483.152
643 0 67.2729 13.1554 885 108.598 574.124 483.757
644 0 69.1935 14.6112 1011 107.867 573.524 479.764
645 0 71.188 13.4011 954 110.58 573.583 480.038
646 0 73.2479 13.4202 983 111.78 573.566 477.181
647 0 76.2816 13.0175 993 111.446 573.915 477.945
648 0 78.2075 14.9986 1173 108.001 573.835 475.217
649 0 81.3196 13.2071 1074 111.034 573.725 476.349
650 0 82.2326 13.2429 1089 112.32 573.577 471.868
651 0 87.3746 14.3634 1255 109.376 573.029 471.21
652 0 88.5436 13.5075 1196 112.181 573.267 466.717
653 0 91.4497 13.3516 1221 113.284 572.278 463.241
654 0 94.5569 13.6743 1293 111.01 572.081 465.346
655 1 50.2883 11.5136 579 109.026 571.924 487.076
656 0 49.26 10.678 526 107.677 572.57 487.738
657 0 52.3294 10.5103 550 106.485 572.969 487.344
658 0 53.1954 10.9784 584 105.642 572.613 485.437
659 0 58.1638 12.3273 717 102.003 572.494 484.939
660 0 57.2322 11.5145 659 104.554 572.835 484.36
661 0 61.1191 12.2057 746 103.924 572.881 484.13
662 0 63.1502 12.0823 763 103.058 573.191 482.835
663 0 65.1827 10.6163 692 105.053 573.447 483.149
664 0 68.1663 10.9878 749 104.306 573.144 480.777
665 0 72.3606 13.2945 962 99.895 573.615 479.39
666 0 73.1054 11.0799 810 103.807 573.184 478.252
667 0 77.1383 12.86 992 101.626 573.411 475.985
668 0 76.1334 11.2303 855 106.68 572.76 474.027
669 0 79.1342 11.0066 871 106.675 572.405 474.798
670 0 83.1108 12.4412 1034 103.896 572.263 474.095
671 0 84.1697 11.156 939 106.296 572.327 473.739
672 0 89.0885 12.3024 1096 102.71 572.09 470.947
673 0 92.1772 13.55 1249 100.96 571.895 469.456
674 0 95.0918 12.7666 1214 102.759 572.447 467.558
675 0 98.1883 12.9751 1274 102.922 572.415 466.173
676 1 50.087 11.2005 561 105.881 573.449 488.688
677 0 53.1963 12.3881 659 102.748 573.237 486.155
678 0 56.0977 12.4069 696 104.129 573.415 486.026
679 0 58.1797 13.2864 773 104.388 572.719 485.902
680 0 59.1098 14.0924 833 104.13 573.2 482.424
681 0 63.0964 14.4382 911 101.47 573.345 483.821
682 0 64.1768 14.1952 911 102.501 572.271 483.675
683 0 66.0976 12.8749 851 106.264 571.526 481.996
684 0 66.1032 13.4335 888 106.837 571.447 480.242
685 0 67.0258 13.9946 938 103.577 572.64 480.145
686 0 71.1108 14.0204 997 103.762 572.721 479.279
687 0 73.1201 12.4316 909 107.052 572.485 481.111
688 0 73.0817 11.9318 872 109.905 572.05 481.432
689 0 76.1587 14.1809 1080 106.966 572.443 474.772
690 0 76.0944 12.4188 945 112.18 572.66 476.107
691 0 82.2774 13.5274 1113 109.914 572.076 473.685
692 0 85.2532 12.8793 1098 111.524 572.087 472.992
693 0 87.2377 13.5607 1183 112.641 572.267 471.005
694 0 92.3936 13.5074 1248 114.833 571.847 469.036
695 0 94.2429 13.1999 1244 116.171 572.389 467.34
696 0 97.1899 13.6434 1326 115.849 572.05 467.351
697 0 99.1997 14.3347 1422 115.245 572.607 463.969
698 1 52.1128 10.957 571 114.567 571.371 487.748
699 0 55.0808 12.2002 672 104.717 574.604 487.478
700 0 55.0677 12.4937 688 101.337 572.217 488.038
701 0 57.0357 12.1678 694 101.932 571.585 485.916
702 0 60.1217 11.5765 696 102.642 571.697 486.678
703 0 62.1277 12.6836 788 101.198 572.142 484.471
704 0 63.0525 11.1177 701 103.859 572.193 483.164
705 0 65.1702 12.3676 806 101.084 572.017 479.417
706 0 67.1429 11.2149 753 103.283 572.073 481.052
707 0 69.1799 12.5325 867 101.67 573.389 478.742
708 0 72.1959 12.8678 929 101.808 573.273 478.614
709 0 72.0982 11.4982 829 105.554 573.226 477.152
710 0 78.2004 12.0971 946 110.908 571.767 474.882
711 0 79.0812 12.6452 1000 111.92 571.86 473.477
712 0 82.2778 11.4004 938 116.57 571.579 472.887
713 0 86.2413 11.607 1001 116.283 571.806 470.077
714 1 45.0432 10.4122 469 108.802 570.701 491.356
715 0 45.051 10.8766 490 111.008 571.492 490.902
716 0 45.1201 10.7712 486 101.323 573.502 491.547
717 0 46.0659 9.37787 432 104.6 573.734 490.875
718 0 47.0431 9.37439 441 104.317 574.082 492.329
719 0 50.0406 11.111 556 101.919 574.664 488.813
720 0 51.0872 10.7855 551 102.459 574.152 488.599
721 0 52.1191 11.4545 597 101.146 575.114 489.531
722 0 51.07 11.1024 567 102.857 573.903 490.127
723 0 54.2015 10.0735 546 105.711 575.092 486.782
724 0 55.0962 10.5452 581 105.759 574.516 486.675
725 0 57.1583 12.2292 699 102.577 574.652 485.207
726 0 59.0622 10.1926 602 106.656 573.553 485.787
727 0 61.1159 10.6846 653 106.645 573.89 483.311
728 0 63.2559 11.0504 699 106.391 574.873 483.793
729 0 64.134 9.96352 639 108.509 573.155 482.8
730 0 67.1238 10.4732 703 107.578 574.602 481.383
731 0 68.1411 10.5223 717 110.808 573.933 480.167
732 0 71.1398 11.4423 814 109.516 574.151 477.225
733 0 75.0861 11.64 874 108.561 574.105 478.145
734 0 75.1649 10.8961 819 111.061 573.4 476.027
735 0 80.1818 12.1723 976 107.938 573.539 475.592
736 0 80.0769 11.4515 917 109.241 573.954 475.995
737 0 85.2287 12.8595 1096 106.36 573.743 472.439
738 0 87.1484 12.7828 1114 106.815 573.354 471.829
739 0 89.0931 11.7293 1045 109.615 573.822 473.004
740 0 92.2004 11.1062 1024 109.023 573.045 468.067
741 1 48.087 10.689 514 106.047 572.706 490.745
742 0 51.0711 10.6322 543 104.477 574.575 492.387
743 0 51.1973 9.76613 500 108.568 574.494 491.56
744 0 51.0699 11.1612 570 108.874 573.584 490.211
745 0 53.0637 11.5522 613 106.659 573.843 490.594
746 0 54.053 10.7302 580 109.833 573.548 487.388
747 0 58.0736 11.5887 673 106.559 573.802 486.994
748 0 57.1057 11.3474 648 106.372 574.298 488.216
749 0 60.1065 11.7292 705 108.19 573.838 486.072
750 0 60.1472 12.0704 726 108.807 573.581 483.76
751 0 64.1812 13.9605 896 102.119 573.941 481.836
752 0 65.1857 11.5363 752 108.129 573.523 483.803
753 0 66.0928 12.2252 808 110.459 573.353 482.696
754 0 69.2033 11.8347 819 110.098 573.369 483.525
755 0 69.2629 11.9545 828 111.965 573.219 479.686
756 0 71.1723 12.9826 924 110.864 573.212 478.763
757 0 76.265 13.2957 1014 109.76 573.941 476.304
758 0 79.1334 12.5105 990 111.159 573.668 475.918
759 0 80.1451 11.8535 950 112.722 573.518 475.88
760 0 83.1409 12.0879 1005 111.458 573.85 473.906
761 0 86.0707 12.5014 1076 111.892 574.081 468.243
762 1 45.0916 11.5543 521 110.449 574.783 490.645
763 0 46.0965 11.5844 534 111.549 574.994 488.526
764 0 48.0616 12.9209 621 109.483 575.211 487.686
765 0 51.0372 12.5203 639 111.189 574.801 488.842
766 0 54.0991 11.3865 616 112.877 574.193 488.922
767 0 54.083 12.6657 685 111.212 574.555 488.044
768 0 58.0606 13.2448 769 107.94 574.718 487.784
769 0 59.0552 12.5137 739 110.405 574.662 485.805
770 0 59.1062 12.5029 739 111.07 574.275 486.095
771 0 63.0485 12.53 790 109.42 574.675 484.638
772 0 65.112 12.9776 845 109.625 574.057 483.602
773 0 64.0529 11.8496 759 113.979 573.468 481.858
774 0 68.1128 13.3749 911 109.924 574.11 481.52
775 0 68.1849 12.3781 844 112.219 573.781 479.98
776 0 71.2158 12.6376 900 110.918 573.743 478.51
777 0 75.1835 11.8643 892 112.119 573.225 478.312
778 0 77.2539 13.2679 1025 108.765 573.843 476.226
779 0 79.384 14.1086 1120 108.145 573.804 473.422
780 0 81.2474 12.345 1003 111.545 573.501 472.78
781 0 85.2029 12.347 1052 110.517 573.629 472.566
782 0 87.196 12.2139 1065 110.545 573.759 470.55
783 1 48.061 12.0888 581 105.043 574.678 491.351
784 0 48.1457 12.2129 588 99.7262 571.895 490.607
785 0 49.0762 12.287 603 97.7993 572.731 491.655
786 0 50.1194 11.6721 585 99.1641 574.094 489.499
787 0 51.0316 11.9338 609 99.2529 573.742 490.66
788 0 53.0763 12.7929 679 97.2091 572.57 488.739
789 0 53.0328 11.5966 615 101.306 573.22 488.563
790 0 52.1216 11.6458 607 102.39 574.222 485.886
791 0 56.1333 11.8824 667 101.345 573.568 487.081
792 0 57.1785 11.9451 683 100.876 574.302 487.608
793 0 60.1588 12.334 742 99.9852 573.894 485.724
794 0 61.1808 11.5723 708 102.449 573.802 483.138
795 0 61.2204 12.0221 736 103.125 573.641 481.833
796 0 64.1599 12.0636 774 102.722 573.186 481.842
797 0 67.1806 12.3696 831 102.039 573.62 481.094
798 0 69.1184 11.3284 783 103.447 573.663 481.708
799 0 72.2542 12.1515 878 103.391 573.302 478.524
800 0 74.1534 12.9731 962 102.658 573.046 476.383
801 0 78.281 11.9569 936 105.283 573.024 474.689
802 0 81.3246 11.8168 961 104.694 573.267 472.907
803 0 83.3813 12.257 1022 105.281 573.422 471.867
804 0 87.1248 12.5223 1091 105.741 572.095 471.963
805 1 45.0414 10.3904 468 106.547 574.06 490.957
806 0 49.1556 11.2093 551 105.065 573.06 491.566
807 0 50.0577 11.5267 577 103.792 573.258 491.614
808 0 51.0537 12.0461 615 100.945 572.647 489.106
809 0 53.1146 12.9155 686 99.3017 572.169 487.682
810 0 55.0331 12.4834 687 100.153 571.939 488.341
811 0 56.0417 10.5993 594 105.438 571.249 487.202
812 0 58.0364 13.1297 762 100.777 571.837 485.833
813 0 59.0474 12.7017 750 102.803 571.311 484.585
814 0 60.0286 12.6273 758 102.609 570.766 486.6
815 0 59.0554 12.1411 717 105.441 571.378 483.364
816 0 62.0524 10.7006 664 107.348 570.956 486.685
817 0 64.1135 11.4796 736 105.567 571.51 483.234
818 0 68.0823 11.868 808 104.512 572.496 481.963
819 0 68.0897 12.1751 829 105.468 572.089 481.752
820 0 72.1035 11.3309 817 106.931 573.634 481.275
821 0 73.0794 12.0828 883 107.723 572.849 479.123
822 0 77.1494 13.1304 1013 106.736 573.329 475.913
823 0 80.1098 12.745 1021 108.051 573.012 475.93
824 0 83.1598 11.9529 994 107.414 573.314 474.67
825 1 45.0308 12.3249 555 105.768 573.054 491.937
826 0 47.0493 12.0299 566 105.442 573.588 492.375
827 0 50.0361 12.8108 641 103.172 573.644 492.073
828 0 51.072 13.6474 697 101.034 573.453 490.461
829 0 52.1136 12.9333 674 103.685 574.134 490.165
830 0 51.099 12.7987 654 106.95 573.486 488.41
831 0 53.0709 12.097 642 108.349 573.659 489.24
832 0 54.1789 14.4706 784 72.4528 573.751 494.969
833 0 57.2318 12.3358 706 107.293 573.159 489.16
834 0 58.1605 13.3768 778 106.468 573.586 486.405
835 0 57.1135 12.9566 740 107.518 573.138 485.765
836 0 61.1494 12.1015 740 108.649 572.174 484.393
837 0 63.1344 13.1149 828 106.514 572.952 484.847
838 0 67.2451 14.0382 944 104.946 572.66 481.89
839 0 67.1612 14.1153 948 106.491 572.46 479.864
840 0 70.1077 13.4222 941 106.849 572.403 480.308
841 0 73.0932 12.313 900 108.72 572.553 480.372
842 0 75.0962 12.5705 944 107.559 572.77 480.363
843 0 76.3065 11.8732 906 111.308 572.702 478.491
844 0 78.15 12.9878 1015 110.783 572.527 476.209
845 0 84.1489 13.6306 1147 107.388 573.336 474.536
846 0 87.2561 13.3286 1163 107.67 573.13 473.347
847 0 88.1913 12.2234 1078 109.756 573.147 469.454
848 0 94.1646 14.0074 1319 105.583 572.785 469.718
849 1 51.0293 12.1891 622 99.672 570.756 491.76
850 0 51.0608 13.3175 680 95.6721 570.906 489.826
851 0 53.0455 13.5732 720 94.9167 571.743 490.14
852 0 52.0858 12.9978 677 98.2733 571.174 487.784
853 0 55.2214 11.0827 612 101.083 571.108 488.185
854 0 55.1026 12.2136 673 102.418 571.082 488.666
855 0 58.058 12.8148 744 99.7339 570.948 488.179
856 0 57.1198 11.7472 671 103.744 570.94 486.396
857 0 59.0317 11.6548 688 104.211 571.02 485.779
858 0 60.1997 12.5582 756 103.423 571.536 485.149
859 0 63.0679 11.2577 710 103.773 571.042 482.349
860 0 64.064 11.3324 726 104.625 570.51 482.124
861 0 69.2587 12.8071 887 102.133 570.487 481.37
862 0 71.0971 13.362 950 101.906 571.113 481.067
863 0 73.2698 15.0949 1106 101.837 571.268 479.926
864 0 75.1921 12.9668 975 106.285 571.197 479.947
865 0 78.3307 12.9834 1017 107.093 571.1 477.206
866 0 80.1948 11.9708 960 102.759 572.186 477.59
867 0 83.3534 10.8094 901 103.737 572.705 475.33
868 0 86.1859 11.9741 1032 103.728 572.899 471.869
869 0 89.1415 13.6076 1213 101.87 572.225 469.862
870 0 91.1031 10.9656 999 105.045 572.003 471.776
871 1 50.0615 11.5258 577 100.804 572.752 492.007
872 0 51.0597 12.5539 641 101.156 572.332 489.922
873 0 50.0676 12.0637 604 103.793 572.379 489.126
874 0 54.0489 12.3777 669 103.031 571.707 487.768
875 0 54.0312 12.7149 687 104.035 571.737 489.61
876 0 57.084 12.2626 700 105.027 573.141 486.157
877 0 59.0721 12.6625 748 105.106 572.36 486.953
878 0 59.0989 13.2659 784 104.96 572.999 484.872
879 0 60.1663 12.6649 762 106.478 572.836 485.091
880 0 62.1266 12.9091 802 106.921 573.084 482.022
881 0 66.187 13.069 865 105.642 572.923 482.079
882 0 65.2409 12.6914 828 106.605 573.156 483.877
883 0 67.1129 13.4251 901 107.129 573.032 479.697
884 0 71.1427 13.6205 969 104.489 573.448 479.756
885 0 71.1306 13.0324 927 107.072 573.272 478.37
886 0 74.1042 13.2516 982 106.257 573.836 477.886
887 0 77.1344 13.12 1012 106.565 573.557 475.347
888 0 79.1983 11.5785 917 109.568 573.461 475.228
889 0 81.1015 13.6989 1111 106.367 573.405 472.202
890 0 85.0767 12.953 1102 108.537 572.719 473.647
891 0 87.1344 13.7604 1199 108.857 572.012 469.482
892 0 90.1363 13.1468 1185 109.716 572.355 469.154
893 0 92.2714 14.1539 1306 109.286 572.609 465.178
894 0 95.1201 12.7418 1212 111.933 572.954 464.521
895 0 98.1169 13.4126 1316 111.54 572.555 462.461
896 0 106.108 14.9376 1585 107.059 572.881 464.17
897 1 56.1696 11.2516 632 110.957 573.726 485.269
898 0 58.3457 12.7516 744 100.657 572.19 475.289
899 0 59.1778 11.8457 701 99.4465 573.375 482.847
900 0 62.1046 13.751 854 100.32 571.383 483.742
901 0 64.0496 12.3186 789 102.465 571.136 483.819
902 0 67.0421 12.9172 866 101.887 571.107 482.423
903 0 70.048 12.8055 897 102.699 571.079 480.615
904 0 71.0833 12.4642 886 103.747 570.974 480.442
905 0 75.1508 13.3997 1007 101.825 571.402 477.926
906 0 78.0715 13.4748 1052 100.756 571.185 479.485
907 0 79.1139 11.7426 929 105.927 570.845 475.242
908 0 82.0989 13.094 1075 103.993 571.196 473.341
909 0 85.1083 13.4417 1144 104.71 571.427 472.03
910 0 89.2247 14.3682 1282 103.535 571.353 469.977
911 0 92.1692 14.5385 1340 104.438 571.261 467.393
912 0 95.3681 13.7572 1312 106.543 571.753 465.928
913 0 98.2013 13.3807 1314 105.384 571.493 466.175
914 0 100.151 12.1517 1217 110.682 571.058 466.229
915 1 54.3689 12.0841 657 107.447 572.189 486.192
916 0 54.1865 12.2724 665 108.34 570.731 487.099
917 0 57.1199 12.2024 697 107.968 570.981 486.392
918 0 58.1692 13.2544 771 106.371 571.244 483.354
919 0 60.1482 12.3528 743 107.147 571.412 485.98
920 0 63.3282 12.9168 818 106.621 571.248 482.685
921 0 65.2306 11.7123 764 107.266 570.954 482.482
922 0 67.4144 12.5641 847 104.835 571.21 482.574
923 0 67.1374 12.2584 823 106.696 571.87 479.734
924 0 72.1966 14.3636 1037 102.71 572.26 475.861
925 0 74.2746 13.7328 1020 103.126 572.451 477.083
926 0 76.2603 12.4049 946 104.775 571.808 476.68
927 0 80.5178 13.9969 1127 100.626 571.518 474.076
928 0 80.3625 13.128 1055 103.862 572.005 471.603
929 0 83.491 15.1992 1269 99.182 572.286 468.085
930 0 85.3072 13.4221 1145 102.647 572.135 466.024
931 0 89.3632 13.9655 1248 101.181 572.307 465.597
932 0 93.3804 13.4182 1253 101.921 572.571 464.441
933 1 45.247 10.4095 471 100.682 572.403 484.306
934 0 48.2237 12.5872 607 99.5552 572.331 486.957
935 0 51.0618 12.1813 622 100.185 571.632 488.502
936 0 49.0992 11.1 545 98.9835 573.004 491.015
937 0 51.1435 12.377 633 96.5055 572.866 488.66
938 0 52.0583 11.6408 606 97.863 573.259 489.523
939 0 53.0098 12.243 649 97.9183 573.21 486.133
940 0 56.0812 11.9291 669 97.3587 572.981 487.266
941 0 59.2619 12.1157 718 94.4387 573.245 485.265
942 0 61.1309 11.4508 700 95.8886 573.566 484.594
943 0 62.1366 14.1623 880 95.1966 572.657 484.464
944 0 63.324 12.9967 823 99.1021 572.91 482.481
945 0 67.1527 12.6131 847 99.2243 573.802 482.896
946 0 68.3036 13.4693 920 99.9815 573.748 479.708
947 0 71.1077 12.8819 916 102.984 572.816 478.289
948 0 71.1291 12.2594 872 105.971 573.428 476.672
949 0 73.2715 12.3786 907 106.609 572.902 475.784
950 0 78.0722 13.5772 1060 103.483 571.75 477.15
951 0 80.0644 14.1386 1132 104.06 571.516 471.957
952 0 79.217 11.8661 940 110.85 571.112 472.396
953 0 86.18 13.7387 1184 107.746 571.383 469.194
954 0 89.2109 14.5274 1296 106.441 571.724 468.5
955 0 93.1911 13.9069 1296 108.327 571.871 466.593
956 0 95.4347 13.8629 1323 110.117 571.884 466.404
957 0 97.3805 13.2059 1286 112.12 571.863 464.231
958 0 103.389 13.9377 1441 110.945 572.131 460.932
959 1 52.2269 11.5649 604 113.086 573.002 486.846
960 0 53.0578 12.3262 654 99.2064 570.879 477.749
961 0 58.0467 14.006 813 98.4932 571.541 485.573
962 0 58.054 12.5573 729 106.248 571.613 486.878
963 0 59.1423 12.2924 727 107.871 570.889 486.516
964 0 61.1314 13.7409 840 106.436 571.079 484.687
965 0 60.0956 12.114 728 111.592 571.246 483.57
966 0 63.2199 12.6542 800 111.364 571.419 481.129
967 0 69.0362 13.703 946 107.808 571.103 481.04
968 0 68.1476 11.5044 784 113.168 571.441 482.798
969 0 71.161 14.4461 1028 107.298 571.851 479.576
970 0 73.0623 13.1395 960 110.311 571.86 479.826
971 0 76.205 12.5976 960 111.827 572.228 478.387
972 0 78.2835 14.2687 1117 109.087 572.614 475.924
973 0 79.2581 12.882 1021 113.463 571.573 475.943
974 0 82.1558 12.9388 1063 112.587 572.242 473.983
975 0 85.3069 12.9884 1108 111.368 571.825 474.444
976 0 89.3021 12.7769 1141 109.961 571.784 473.306
977 0 91.398 13.3154 1217 109.536 572.201 471.136
978 0 94.2954 13.9668 1317 109.272 571.757 466.737
979 0 96.2842 12.6916 1222 110.327 571.635 470.674
980 0 101.276 13.9618 1414 108.685 572.559 464.17
981 0 105.219 12.9444 1362 107.627 571.648 463.548
982 0 108.127 13.2159 1429 108.863 571.274 460.714
983 0 112.272 12.1847 1368 109.873 571.733 459.17
984 1 61.1051 12.143 742 105.363 571.457 484.888
985 0 64.1321 12.4742 800 101.221 570.734 482.195
986 0 64.0736 11.5648 741 105.552 572.031 484.719
987 0 65.1046 12.0114 782 105.515 571.939 480.412
988 0 67.2962 11.3528 764 105.538 573.982 480.885
989 0 71.1415 12.7352 906 103.043 573.845 481.849
990 0 73.3079 11.6631 855 105.904 573.425 480.606
991 0 76.0675 12.6598 963 105.491 573.036 476.975
992 0 79.0751 14.4293 1141 102.677 572.654 475.647
993 0 78.0656 12.4126 969 109.007 572.773 474.018
994 0 83.1201 13.5226 1124 106.69 572.08 471.68
995 0 87.1144 14.062 1225 105.147 572.048 472.1
996 0 90.1477 14.5206 1309 105.42 572.267 469.699
997 1 47.0209 11.3141 532 105.457 572.09 492.434
998 0 47.1783 12.5905 594 103.976 573.557 488.854
999 0 48.1013 12.0371 579 104.798 571.472 490.668
1000 0 50.0766 12.4609 624 103.527 571.699 487.582
1001 0 53.1191 12.2555 651 103.35 571.037 487.123
1002 0 56.0519 12.2565 687 102.15 571.179 487.485
1003 0 55.0553 11.5884 638 105.334 571.553 487.611
1004 0 57.0676 13.668 780 101.25 572.504 486.06
1005 0 60.0461 14.9219 896 99.1964 571.599 484.377
1006 0 59.0834 12.4231 734 105.497 573.49 482.221
1007 0 64.2189 14.544 934 101.229 573.562 482.086
1008 0 65.304 13.5367 884 107.291 573.921 483.102
1009 0 67.1404 14.1346 949 107.03 573.746 479.83
1010 0 69.3254 14.3526 995 106.342 573.709 479.316
1011 0 71.2401 12.1842 868 111.6 574.158 480.644
1012 0 76.1304 14.4226 1098 109.895 573.917 476.353
1013 0 77.2107 12.5371 968 114.725 573.488 477.065
1014 0 80.2276 13.1002 1051 114.069 573.649 474.667
1015 0 83.2578 14.365 1196 111.538 572.783 472.852
1016 0 87.2146 12.796 1116 115.446 572.57 470.872
1017 1 48.1677 10.5672 509 115.265 571.754 490.138
1018 0 51.1085 12.7572 652 112.836 573.537 487.546
1019 0 52.1327 13.8493 722 105.377 570.64 487.319
1020 0 54.1581 12.7035 688 111.015 570.493 485.672
1021 0 54.0398 11.6396 629 113.892 570.967 486.499
1022 0 57.2263 12.2496 701 113.325 571.933 483.854
1023 0 57.464 11.6769 671 115.218 572.63 483.711
1024 0 59.3353 13.0614 775 112.111 572.543 483.203
1025 0 62.2581 13.701 853 109.749 572.249 482.438
1026 0 62.2263 12.6956 790 113.844 572.414 480.19
1027 0 64.3201 12.7021 817 114.121 572.247 479.507
1028 0 68.365 13.5011 923 111.784 572.007 477.975
1029 0 68.3985 13.0705 894 113.298 572.46 477.314
1030 0 70.2277 13.385 940 111.35 572.681 478.027
1031 0 73.1556 14.0796 1030 107.845 572.721 476.991
1032 0 75.1372 14.4669 1087 108.637 572.416 475.581
1033 0 77.305 13.8801 1073 109.304 573.239 474.398
1034 0 81.1758 14.4994 1177 107.472 573.099 472.714
1035 0 84.3211 13.4842 1137 109.604 572.719 470.28
1036 0 88.416 12.1358 1073 112.092 572.796 468.982
1037 1 43.1564 11.4236 493 114.473 573.365 489.065
1038 0 42.053 11.5331 485 102.61 573.295 482.274
1039 0 46.2093 11.5128 532 113.227 573.917 490.929
1040 0 48.0918 12.4346 598 101.47 573.413 492.56
1041 0 50.1737 12.3172 618 101.209 573.257 491.324
1042 0 51.1196 12.4219 635 98.3197 573.935 490.369
1043 0 52.282 11.3232 592 104.986 573.677 489.765
1044 0 51.0671 10.9855 561 103.285 574.276 490.012
1045 0 55.126 12.3354 680 103.637 573.756 488.266
1046 0 54.253 11.6123 630 106.746 573.778 487.54
1047 0 59.0418 12.2117 721 101.076 574.078 487.835
1048 0 60.1167 12.6088 758 101.434 574.289 486.018
1049 0 63.1214 13.2918 839 99.7509 574.002 484.992
1050 0 62.1655 10.8742 676 104.543 574.067 483.914
1051 0 65.2068 12.514 816 102.536 574.325 481.746
1052 0 68.4084 11.6652 798 103.712 574.253 482.328
1053 0 70.2094 12.0639 847 102.009 574.488 482.994
1054 0 72.1465 11.3242 817 106.226 574.584 480.453
1055 0 76.1711 12.8658 980 104.143 573.991 478.419
1056 0 78.3534 12.8648 1008 103.823 573.816 475.04
1057 0 82.2872 13.8418 1139 101.565 573.926 472.535
1058 0 84.1038 12.5559 1056 103.323 572.95 474.984
1059 0 86.1515 12.745 1098 104.326 572.042 470.48
1060 0 90.1043 13.3956 1207 103.447 571.231 468.203
1061 0 94.1477 14.2542 1342 100.697 572.01 468.417
1062 1 48.0559 10.4462 502 102.145 571.452 490.209
1063 0 49.0755 11.085 544 99.921 571.426 488.436
1064 0 51.0514 11.459 585 99.9316 572.515 490.819
1065 0 54.1646 12.3328 668 98.5599 573.654 487.996
1066 0 55.0664 12.6756 698 98.7192 571.476 487.98
1067 0 56.0786 13.6416 765 97.5046 573.485 485.169
1068 0 58.1948 12.5097 728 99.2376 573.61 486.331
1069 0 59.1957 13.4976 799 98.1577 573.364 483.528
1070 0 59.1355 13.2239 782 99.1777 573.575 484.446
1071 0 64.1436 14.5455 933 95.3162 573.242 483.412
1072 0 62.3821 11.8143 737 102.501 573.746 481.51
1073 0 66.1437 12.9566 857 99.6079 573.186 481.053
1074 0 71.1679 13.9389 992 96.1411 573.476 480.447
1075 0 70.3057 13.5551 953 98.8017 573.647 478.749
1076 0 71.1622 12.6472 900 100.653 573.222 479.056
1077 0 73.1378 12.1551 889 102.711 573.056 477.207
1078 0 79.1935 13.8648 1098 98.4326 573.083 478.597
1079 0 81.1947 13.1166 1065 100.992 573.442 474.452
1080 0 83.1777 14.5832 1213 98.7255 572.402 473.088
1081 0 85.1907 14.2739 1216 99.889 572.217 472.595
1082 0 87.2835 12.7172 1110 103.11 572.986 472.489
1083 0 91.3063 12.9893 1186 104.616 572.99 467.796
1084 0 93.1967 14.0456 1309 103.695 572.796 466.732
1085 0 95.405 12.7457 1216 105.617 573.218 465.933
1086 0 98.2556 11.5515 1135 109.079 572.84 465.041
1087 1 50.0726 12.5418 628 105.342 573.25 487.293
1088 0 52.1491 11.7931 615 106.224 574.333 487.449
1089 0 56.2037 14.6609 824 101.933 573.426 484.262
1090 0 57.0987 12.925 738 105.169 573.459 486.469
1091 0 60.1163 14.605 878 102.409 573.352 483.26
1092 0 60.1853 12.7938 770 107.469 574.029 482.942
1093 0 64.1044 13.9928 897 104.493 573.643 482.254
1094 0 66.0715 14.9232 986 103.313 573.06 481.011
1095 0 67.1123 14.4087 967 104.452 572.77 480.69
1096 0 70.0855 14.1113 989 104.834 572.441 480.301
1097 0 73.0671 15.1231 1105 102.719 572.783 477.643
1098 0 74.113 14.2755 1058 104.147 572.333 477.93
1099 0 78.143 14.1023 1102 104.951 571.282 474.337
1100 0 79.1933 13.2966 1053 106.619 571.546 474.451
1101 0 82.1717 13.6908 1125 105.932 570.923 473.471
1102 0 85.1587 15.0073 1278 105.081 571.145 469.816
1103 0 88.095 15.1995 1339 104.854 571.872 468.659
1104 0 90.1821 14.7258 1328 105.886 572.45 468.283
1105 0 93.0976 14.748 1373 105.768 571.599 466.299
1106 0 97.1425 14.8442 1442 105.196 571.437 464.234
1107 0 100.214 13.8404 1387 107.071 571.669 463.471
1108 0 106.348 15.1389 1610 102.82 571.686 463.906
1109 1 56.2509 12.7465 717 108.686 571.706 485.124
1110 0 59.0841 12.6091 745 105.707 573.046 486.556
1111 0 61.1945 13.2365 810 97.6062 574.001 486.342
1112 0 63.1886 13.3885 846 98.5024 573.624 484.448
1113 0 64.1829 13.072 839 99.1871 573.443 483.414
1114 0 66.116 13.3704 884 99.3111 573.045 481.288
1115 0 68.1363 12.974 884 100.235 573.235 480.002
1116 0 72.2465 13.2048 954 99.2285 573.457 478.771
1117 0 75.2461 13.715 1032 98.0048 573.221 479.586
1118 0 74.1874 12.4415 923 102.519 573.219 476.943
1119 0 77.2187 13.4423 1038 101.682 573.264 475.908
1120 0 79.2314 13.896 1101 100.248 572.462 475.705
1121 0 81.1398 12.8051 1039 102.83 572.949 474.689
1122 0 85.177 13.4191 1143 102.051 573.094 472.231
1123 0 87.399 13.9018 1215 102.484 572.725 469.244
1124 0 90.3673 13.091 1183 105.843 572.682 467.238
1125 0 94.1961 14.1195 1330 104.158 573.023 468.343
1126 0 97.1868 13.366 1299 105.209 573.446 468.445
1127 0 100.282 12.8537 1289 106.642 572.984 465.702
1128 0 103.272 14.67 1515 104.096 573.211 462.791
1129 0 106.241 13.2341 1406 107.555 573.255 461.663
1130 0 111.183 14.2558 1585 104.71 573.106 459.918
1131 1 60.1201 14.837 892 100.62 573.922 484.48
1132 0 61.0659 13.4281 820 106.099 573.81 484.657
1133 0 65.2682 13.6207 889 106.721 573.069 481.877
1134 0 67.3266 13.9024 936 105.827 573.172 481.631
1135 0 69.2533 14.8007 1025 105.086 573.028 480.215
1136 0 71.3066 13.4069 956 107.655 572.643 480.646
1137 0 74.2835 14.0947 1047 106.9 572.884 477.453
1138 0 77.257 14.1994 1097 106.682 573.164 477.537
1139 0 78.3767 14.3538 1125 108.838 572.519 474.068
1140 0 78.1538 14.3691 1123 106.59 571.657 477.896
1141 0 82.1767 14.3228 1177 106.766 571.243 476.586
1142 0 83.2365 12.3744 1030 111.23 571.694 477.08
1143 0 89.246 14.7345 1315 107.051 572.201 472.135
1144 0 90.4448 15.0036 1357 108.343 571.334 469.046
1145 0 95.4641 14.2043 1356 108.698 572.251 467.714
1146 1 50.2538 13.591 683 108.994 572.094 488.646
1147 0 51.2864 13.9023 713 110.544 570.369 487.502
1148 0 54.0487 14.2464 770 100.114 570.171 489.856
1149 0 52.2338 12.2718 641 107.12 570.309 489.312
1150 0 53.1112 13.1987 701 106.011 570.9 488.328
1151 0 57.1064 14.0615 803 104.081 570.796 486.01
1152 0 58.1033 12.7015 738 106.495 570.667 487.138
1153 0 62.0975 13.5593 842 104.317 571.126 484.9
1154 0 63.0394 13.5788 856 104.856 570.884 485.076
1155 0 64.0633 12.9715 831 107.477 571.172 481.073
1156 0 68.0876 12.8511 875 105.48 571.555 480.139
1157 0 68.0939 12.3653 842 108.042 570.88 482.21
1158 0 71.1275 13.4969 960 105.283 571.453 480.992
1159 0 73.1873 13.0077 952 107.874 571.702 477.104
1160 0 75.2078 12.8311 965 110.573 571.584 476.552
1161 0 80.1579 13.8976 1114 107.793 571.33 475.303
1162 0 81.1041 13.3655 1084 111.156 571.447 475.157
1163 0 84.1979 13.9671 1176 109.929 571.91 474.49
1164 0 85.111 12.8421 1093 113.07 572.028 474.475
1165 1 47.0951 11.9758 564 111.452 572.965 491.89
1166 0 47.0741 12.9371 609 109.995 572.864 493.115
1167 0 49.2217 14.1401 696 109.511 572.195 488.682
1168 0 50.1223 12.669 635 112.309 572.156 488.674
1169 0 52.1322 13.6192 710 110.204 573.311 488.275
1170 0 54.1612 13.6629 740 110.377 572.55 489.255
1171 0 54.0643 12.7071 687 114.393 572.376 488.105
1172 0 57.1813 14.2354 814 110.451 572.16 486.881
1173 0 59.122 14.3432 848 110.105 572.821 485.973
1174 0 60.1225 12.8238 771 115.663 572.387 485.169
1175 0 62.2605 15.5958 971 108.878 572.614 484.062
1176 0 64.209 13.9077 893 114.357 572.354 482.449
1177 0 66.15 13.4392 889 113.431 572.564 483.219
1178 0 70.1396 12.8316 900 114.707 572.859 481.974
1179 0 72.1656 13.7462 992 114.127 572.553 479.986
1180 0 74.1313 14.852 1101 112.215 572.182 476.761
1181 0 77.1178 14.7177 1135 113.043 572.298 473.968
1182 0 79.0765 14.075 1113 115.376 571.915 476.455
1183 0 81.1412 14.2837 1159 114.781 571.82 473.7
1184 0 83.1412 14.301 1189 116.717 572.175 472.152
1185 0 85.1742 12.9969 1107 121.355 572.762 471.524
1186 0 88.1704 13.9843 1233 120.3 572.172 469.794
1187 0 92.2949 15.0496 1389 118.323 572.67 471.335
1188 1 52.0626 10.7371 559 124.299 572.696 489.623
1189 0 54.026 13.4009 724 120.256 572.035 486.667
1190 0 56.0528 12.5774 705 122.749 573.376 485.488
1191 0 57.0736 14.3149 817 119.106 572.993 484.879
1192 0 60.0805 13.7149 824 120.649 573.154 483.758
1193 0 59.0479 12.7016 750 124.019 573.32 483.371
1194 0 61.0351 13.8281 844 121.096 572.931 480.929
1195 0 64.0682 12.6584 811 122.349 573.112 482.305
1196 0 67.1162 13.6778 918 120.886 573.059 478.109
1197 0 69.0919 14.2274 983 119.829 572.642 477.516
1198 0 73.1072 13.8153 1010 119.529 572.585 477.134
1199 0 73.0858 13.9015 1016 118.9 572.736 476.759
1200 0 75.0766 12.6671 951 122.079 572.558 475.033
1201 0 78.1234 13.8115 1079 118.839 572.604 474.766
1202 0 82.0465 13.5777 1114 118.32 572.672 473.381
1203 0 85.1039 13.1251 1117 119.491 572.425 472.507
1204 0 88.1923 13.9695 1232 119.196 571.9 468.004
1205 0 90.1408 13.5011 1217 122.749 572.025 464.048
1206 0 93.2133 13.4852 1257 123.056 572.477 463.823
1207 0 96.1358 13.2833 1277 123.056 572.554 463.18
1208 0 100.208 12.9431 1297 124.084 571.837 459.654
1209 0 103.204 11.8115 1219 126.466 571.974 461.194
1210 1 53.0467 12.3476 655 118.05 572.244 484.916
1211 0 56.0438 12.7043 712 114.945 570.785 485.32
1212 0 59.0531 13.3778 790 113.313 571.087 484.039
1213 0 58.0229 11.978 695 118.754 572.823 483.219
1214 0 60.0414 12.1749 731 118.327 572.902 481.17
1215 0 64.0476 12.7405 816 115.879 572.925 480.57
1216 0 66.1015 12.9044 853 114.694 572.817 479.372
1217 0 66.0779 10.7752 712 120.506 572.888 478.802
1218 0 71.0468 13.3574 949 113.161 572.519 477.934
1219 0 72.2191 13.5283 977 112.992 572.889 475.69
1220 0 74.1629 12.9445 960 116.444 570.681 474.515
1221 0 77.1201 13.68 1055 114.373 571.006 472.75
1222 0 79.2333 14.3626 1138 113.462 569.797 469.969
1223 0 81.1402 14.0621 1141 113.649 569.812 469.117
1224 0 84.2054 12.5526 1057 116.359 570.518 468.289
1225 0 86.193 11.6715 1006 117.929 570.375 467.274
1226 0 91.1891 13.6968 1249 112.519 571.498 465.021
1227 0 94.2434 12.7224 1199 114.914 571.071 464.129
1228 0 95.249 12.5356 1194 115.853 570.765 462.386
1229 0 97.1469 11.1172 1080 110.909 571.135 463.296
1230 0 104.097 13.6316 1419 107.365 570.872 459.125
1231 1 55.114 10.07 555 108.993 569.928 485.402
1232 0 55.1169 11.14 614 107.106 571.347 479.603
1233 0 57.0283 12.3447 704 100.554 570.663 485.726
1234 0 61.049 13.1861 805 98.8559 570.424 482.431
1235 0 63.0984 12.1239 765 100.454 570.565 481.371
1236 0 66.1016 13.9028 919 97.3504 570.473 480.557
1237 0 66.0735 12.2591 810 97.2765 570.617 478.754
1238 0 69.1211 12.6879 877 103.068 570.454 479.104
1239 0 71.1403 12.8619 915 102.167 570.577 479.268
1240 0 71.2364 12.0444 858 106.134 570.378 476.587
1241 0 76.204 11.5611 881 112.002 570.068 474.3
1242 0 79.3276 13.9674 1108 106.653 570.597 472.809
1243 0 84.301 13.1908 1112 106.645 571.097 474.011
1244 0 87.4028 12.6998 1110 109.12 570.57 470.207
1245 0 90.3928 13.7622 1244 106.633 570.615 469.09
1246 0 93.4405 13.3026 1243 107.745 570.867 466.868
1247 0 95.3329 13.0175 1241 101.008 571.79 465.034
1248 1 51.2315 12.3362 632 96.807 571.736 486.582
1249 0 53.2332 13.3187 709 96.402 571.283 486.53
1250 0 53.0767 13 690 98.2942 570.258 489.238
1251 0 52.0724 11.9833 624 99.6074 570.798 487.885
1252 0 55.1212 13.0259 718 96.2535 570.088 487.9
1253 0 57.3279 10.6231 609 98.6831 569.888 487.864
1254 0 60.1462 11.9043 716 96.8855 569.983 484.272
1255 0 63.1831 12.7566 806 94.3164 570.768 485.679
1256 0 63.0659 10.386 655 98.3573 570.986 484.898
1257 0 65.1136 13.2538 863 94.7358 570.772 482.251
1258 0 69.2036 11.6901 809 97.1755 570.548 482.954
1259 0 70.2084 12.705 892 95.593 570.985 481.707
1260 0 71.2112 12.1329 864 96.1933 571.587 482.811
1261 0 76.2978 13.4735 1028 99.1518 570.334 478.165
1262 0 78.2251 12.9754 1015 100.341 570.846 477.381
1263 0 80.1525 12.576 1008 101.945 569.759 472.885
1264 0 84.3056 11.6718 984 102.683 570.146 475.374
1265 0 86.1614 13.0105 1121 100.98 570.239 474.103
1266 0 91.5378 12.585 1152 100.847 570.234 471.828
1267 1 47.2751 11.3379 536 106.53 571.019 487.853
1268 0 50.1493 13.0809 656 100.678 569.938 488.591
1269 0 51.1273 12.2635 627 102.038 570.388 490.254
1270 0 54.0687 13.1684 712 103.692 571.51 487.917
1271 0 56.057 12.6835 711 105.083 571.968 487.489
1272 0 57.369 12.6026 723 106.354 571.759 485.899
1273 0 58.257 13.4576 784 104.181 570.999 485.429
1274 0 61.223 13.9653 855 103.187 570.571 483.994
1275 0 62.1799 14.9566 930 101.68 570.867 483.812
1276 0 64.1984 13.7698 884 105.096 570.995 483.005
1277 0 65.1485 13.6304 888 105.118 571.294 481.333
1278 0 69.0768 14.5346 1004 102.397 571.522 481.243
1279 0 71.2065 15.4902 1103 101.552 571.067 479.709
1280 0 70.1225 13.1627 923 108.078 571.778 480.26
1281 0 73.1677 13.6536 999 106.232 571.725 478.854
1282 0 75.1459 13.5603 1019 108.18 571.699 477.591
1283 0 77.21 13.7547 1062 108.079 570.761 476.51
1284 0 80.2328 14.7944 1187 106.18 571.85 473.35
1285 0 85.1708 14.4768 1233 106.797 571.985 472.789
1286 1 43.0118 12.2525 527 109.626 571.116 493.71
1287 0 43.0315 12.9208 556 109.112 571.394 491.198
1288 0 44.1061 12.6967 560 103.293 571.457 492.659
1289 0 47.0727 13.0437 614 102.611 571.171 492.09
1290 0 48.0361 12.9486 622 102.752 570.559 492.455
1291 0 50.1 13.1337 658 102.96 570.769 491.003
1292 0 51.1396 14.5484 744 100.739 571.324 488.267
1293 0 52.0795 13.825 720 102.015 571.379 489.018
1294 0 54.176 14.5267 787 100.286 571.855 488.794
1295 0 56.1457 13.8034 775 109.489 572.463 489.2
1296 0 57.2863 13.7031 785 113.592 571.572 485.769
1297 0 59.0591 12.6314 746 113.37 572.842 486.587
1298 0 61.0365 13.9261 850 110.945 573.284 484.616
1299 0 64.0976 13.4014 859 110.555 573.052 484.476
1300 0 63.0539 13.8453 873 111.651 572.504 482.439
1301 0 67.0959 13.4434 902 113.744 571.69 482.191
1302 0 68.2313 15.1837 1036 110.128 572.578 479.758
1303 0 70.1855 13.1081 920 114.352 572.223 481.974
1304 0 71.151 13.6751 973 115.672 570.94 478.01
1305 0 73.2027 13.5787 994 116.682 571.095 476.519
1306 0 77.2136 14.842 1146 111.222 570.489 478.136
1307 0 78.2843 13.336 1044 115.741 570.477 475.037
1308 0 80.3728 12.5291 1007 115.049 570.682 475.384
1309 0 85.1714 14.5706 1241 111.695 571.215 472.844
1310 0 86.1791 13.8201 1191 113.814 571.698 472.043
1311 0 89.0763 14.482 1290 112.971 571.516 470.244
1312 1 50.055 13.8248 692 112.474 570.897 488.091
1313 0 50.0798 12.7596 639 106.742 570.911 487.224
1314 0 53.0702 14.0192 744 103.577 571.011 487.917
1315 0 53.0918 13.1847 700 107.4 571.354 486.361
1316 0 53.0618 12.3064 653 110.712 570.939 486.026
1317 0 58.137 12.2125 710 109.03 570.949 485.751
1318 0 57.012 11.5239 657 112.088 570.925 484.335
1319 0 62.0786 13.3379 828 107.359 571.336 483.275
1320 0 63.039 14.6259 922 106.104 571.002 481.767
1321 0 68.0455 13.0795 890 109.21 570.8 481.637
1322 0 69.1007 13.9072 961 109.315 571.21 478.535
1323 0 72.06 14.5434 1048 107.963 570.453 477.001
1324 0 75.0666 13.4814 1012 109.853 570.721 475.23
1325 0 77.1462 12.4958 964 111.582 570.967 476.75
1326 0 79.0957 13.0096 1029 113.14 571.027 473.094
1327 0 85.1404 13.6011 1158 112.074 570.855 471.517
1328 0 86.1231 14.2703 1229 109.106 570.926 470.571
1329 1 48.2169 14.7044 709 104.475 571.027 487.77
1330 0 49.1398 14.4079 708 99.5198 571.438 484.425
1331 0 48.1481 13.0015 626 103.495 571.478 486.2
1332 0 52.1731 14.0877 735 102.335 571.642 487.48
1333 0 53.3365 14.8304 791 101.466 571.996 486.072
1334 0 57.2335 13.4711 771 102.433 572.8 487.401
1335 0 56.212 13.5914 764 103.598 571.458 487.263
1336 0 59.2033 12.9554 767 104.068 571.159 484.581
1337 0 61.2026 13.5452 829 103.017 571.429 485.723
1338 0 64.3039 14.1049 907 102.493 571.514 483.254
1339 0 66.3286 13.9759 927 102.669 571.575 483.536
1340 0 67.1517 15.0852 1013 101.54 571.713 482.254
1341 0 70.2494 13.9645 981 109.568 572.045 480.62
1342 0 72.1961 13.6988 989 109.125 572.676 481.15
1343 0 75.2238 13.9717 1051 110.268 571.872 477.924
1344 0 77.3131 13.9562 1079 110.269 572.485 474.751
1345 0 80.3129 13.5844 1091 110.446 572.323 474.709
1346 0 83.3912 15.6012 1301 106.829 571.398 471.962
1347 0 88.4189 14.7706 1306 107.423 571.878 472.329
1348 0 89.5276 14.0069 1254 110.147 571.898 470.195
1349 0 94.3945 15.2339 1438 107.962 571.927 469.236
1350 0 95.3265 14.8962 1420 112.555 571.87 464.723
1351 0 100.608 15.3368 1543 114.198 571.932 465.103
1352 1 54.3899 13.9916 761 113.878 573.259 488.097
1353 0 55.3204 15.7266 870 110.52 573.424 486.641
1354 0 55.602 14.2801 794 116.713 572.948 484.895
1355 0 58.4093 15.1517 885 114.04 572.704 484.519
1356 0 58.2854 14.8236 864 116.997 572.753 482.412
1357 0 59.3078 13.6744 811 119.48 572.618 482.308
1358 0 64.5858 14.4923 936 115.712 573.173 481.466
1359 0 66.5528 15.4013 1025 113.976 572.26 480.304
1360 0 68.5578 14.3528 984 117.45 572.352 479.068
1361 0 70.434 14.6662 1033 117.045 571.948 477.509
1362 0 72.4696 14.6268 1060 116.493 572.049 477.105
1363 0 76.3695 14.9274 1140 115.556 572.537 476.685
1364 0 79.4228 15.5371 1234 114.481 572.572 475.073
1365 0 82.4438 15.3559 1266 115.207 572.574 472.696
1366 0 83.6187 14.016 1172 118.391 572.286 471.783
1367 0 87.5191 15.2424 1334 114.807 572.652 472.889
1368 0 88.4812 14.4211 1276 119.216 571.868 470.226
1369 0 92.3119 14.1694 1308 119.044 571.979 468.33
1370 0 96.3858 14.8777 1434 118.168 571.711 467.017
1371 0 98.4217 15.4641 1522 117.097 572.161 465.184
1372 0 103.385 15.8341 1637 115.307 572.335 463.447
1373 0 106.652 16.7648 1788 112.743 571.845 462.545
1374 0 109.386 15.2213 1665 117.736 572.432 460.219
1375 0 112.6 15.2575 1718 118.615 572.281 455.81
1376 0 117.465 15.9112 1869 116.386 572.33 455.799
1377 0 123.503 15.5542 1921 116.552 572.191 455.207
1378 1 62.1845 13.3313 829 121.752 572.507 481.869
1379 0 63.3173 13.0296 825 122.674 572.502 481.381
1380 0 67.1246 13.4973 906 122.095 573.222 479.575
1381 0 71.1731 15.5396 1106 117.437 572.742 476.248
1382 0 74.0953 15.3991 1141 117.41 572.706 477.921
1383 0 76.1206 14.4508 1100 120.619 572.529 477.589
1384 0 77.14 15.0765 1163 122.182 572.265 473.818
1385 0 77.135 14.7663 1139 124.56 572.979 473.539
1386 0 80.2737 15.3101 1229 123.913 572.739 471.146
1387 0 82.1337 14.6225 1201 126.295 572.102 471.833
1388 0 87.1398 16.2727 1418 121.394 572.003 470.522
1389 0 89.1193 15.7766 1406 123.228 571.783 470.846
1390 0 91.1529 15.2381 1389 125.828 572.006 468.686
1391 0 92.1838 14.8616 1370 126.868 572.876 468.65
1392 0 96.1445 15.976 1536 125.28 571.891 464.893
1393 0 97.0724 15.1949 1475 127.079 571.327 464.008
1394 0 102.306 15.4634 1582 125.599 571.03 460.591
1395 0 107.145 15.3157 1641 123.839 571.406 460.597
1396 0 109.146 15.7221 1716 123.975 570.889 455.14
1397 1 57.0971 11.4892 656 118.95 570.79 483.78
1398 0 58.2145 13.7938 803 117.26 570.826 480.684
1399 0 62.0591 14.9535 928 113.973 571.019 483.178
1400 0 63.0413 12.1508 766 120.076 570.783 483.762
1401 0 67.2558 14.5712 980 115.429 570.345 479.759
1402 0 68.1048 13.538 922 118.126 570.623 479.169
1403 0 68.1975 13.0503 890 121.1 570.385 477.47
1404 0 74.1795 12.7933 949 120.027 570.511 477.032
1405 0 75.1463 13.0013 977 118.112 570.489 477.212
1406 0 77.394 12.6754 981 119.268 570.02 475.085
1407 0 80.1491 13.3376 1069 117.811 570.681 471.375
1408 0 83.2554 12.9841 1081 119.584 569.905 468.955
1409 0 86.364 12.9568 1119 117.453 570.651 471.542
1410 0 89.1473 12.6196 1125 119.271 570.203 468.225
1411 0 94.1864 12.1886 1148 116.254 570.198 467.357
1412 0 97.2277 12.8564 1250 114.553 570.189 464.05
1413 1 51.1352 11.6358 595 107.037 571.257 484.595
1414 0 53.0426 12.0469 639 107.928 569.958 484.549
1415 0 53.0731 12.2284 649 106.857 570.137 486.062
1416 0 56.1445 11.2389 631 108.994 569.918 483.509
1417 0 58.1161 11.8728 690 107.825 569.765 482.381
1418 0 60.1202 12.0425 724 108.278 569.92 480.659
1419 0 62.0509 13.5373 840 105.606 570.671 479.517
1420 0 63.1589 11.574 731 108.707 570.651 480.944
1421 0 65.1763 11.2464 733 110.055 570.663 478.175
1422 0 68.3206 11.285 771 110.031 570.829 475.664
1423 0 70.0943 13.0967 918 107.606 570.484 474.721
1424 0 73.2831 13.0044 953 106.095 571.464 473.293
1425 0 75.1222 12.047 905 108.253 571.389 472.577
1426 0 78.3329 11.3618 890 107.376 571.772 472.861
1427 0 79.2414 11.7489 931 107.372 572.679 469.872
1428 0 82.12 11.0935 911 107.81 572.075 468.416
1429 0 84.1027 11.9735 1007 106.901 572.523 466.321
1430 0 87.0722 11.4158 994 107.364 571.965 468.193
1431 0 91.1287 12.5976 1148 105.796 571.537 465.566
1432 0 93.0887 10.3127 960 109.987 572.074 462.364
1433 0 96.187 11.2593 1083 113.257 572.163 458.818
1434 0 103.204 12.6061 1301 111.925 571.929 455.823
1435 0 105.19 12.2065 1284 113.678 571.798 455.318
1436 0 110.295 12.8745 1420 112.675 571.452 450.952
1437 0 115.337 13.4735 1554 111.024 571.828 449.325
1438 0 119.312 12.2285 1459 113.133 571.271 450.17
1439 0 123.37 13.2852 1639 114.397 570.95 447.828
1440 1 65.1456 11.8657 773 109.072 571.999 475.827
1441 0 67.1794 11.4172 767 107.533 570.973 475.455
1442 0 69.1033 11.9676 827 108.486 570.55 473.911
1443 0 72.1845 11.9001 859 108.272 571.105 472.624
1444 0 75.3545 11.8639 894 104.685 572.195 466.652
1445 0 79.1498 11.8004 934 106.421 570.824 472.496
1446 0 80.1371 13.8013 1106 103.086 571.409 468.509
1447 0 84.0921 11.2377 945 107.678 571.531 466.984
1448 0 87.1759 12.9049 1125 104.96 571.566 465.355
1449 0 91.3422 13.641 1246 102.749 571.404 464.631
1450 0 93.2658 12.2124 1139 105.406 571.881 461.428
1451 0 97.4572 13.6265 1328 102.325 571.955 459.645
1452 0 100.507 11.8101 1187 105.16 572.057 459.282
1453 0 104.436 14.2671 1490 101.068 571.867 456.091
1454 1 58.497 11.4536 670 96.0104 572.472 482.572
1455 0 60.253 13.5263 815 92.8908 572.465 482.191
1456 0 59.1433 12.8502 760 94.4197 572.603 481.164
1457 0 62.3762 11.11 693 96.7561 572.928 480.289
1458 0 64.2455 11.8608 762 96.1089 572.804 478.001
1459 0 66.151 10.1435 671 99.07 572.21 477.918
1460 0 67.1984 12.2622 824 96.4357 573.098 477.642
1461 0 70.2286 12.6302 887 96.2063 572.883 476.494
1462 0 73.1235 13.3473 976 95.6332 572.261 476.037
1463 0 75.096 12.7703 959 96.8092 572.318 474.209
1464 0 76.2273 12.2266 932 98.8455 572.712 473.389
1465 0 80.2157 12.5537 1007 98.1639 573.218 474.202
1466 0 82.2087 12.8697 1058 97.1134 572.807 472.74
1467 0 83.1583 12.831 1067 98.1368 573.258 469.023
1468 0 86.1949 13.5043 1164 97.073 572.395 470.443
1469 0 88.186 12.7458 1124 98.9484 573.593 467.978
1470 0 90.3002 13.5216 1221 98.4193 572.476 467.552
1471 0 92.1671 11.5877 1068 99.5365 572.195 464.964
1472 1 51.1524 10.6153 543 95.6906 572.416 488.061
1473 0 54.0621 12.5041 676 93.7234 572.911 486.493
1474 0 54.1884 11.7737 638 95.3699 572.44 486.658
1475 0 52.3232 11.5436 604 98.2169 572.311 486.417
1476 0 54.0681 12.1144 655 97.0885 572.133 486.351
1477 0 58.0603 12.2459 711 95.789 572.719 485.045
1478 0 57.2014 10.8214 619 96.8384 572.162 483.677
1479 0 65.1448 13.9689 910 90.2099 572.234 482.882
1480 0 62.1357 12.5693 781 94.2791 572.392 481.088
1481 0 65.3151 13.8712 906 91.4625 571.695 479.164
1482 0 68.063 11.5481 786 94.1845 571.514 479.604
1483 0 71.1426 13.0583 929 92.042 572.097 479.492
1484 0 73.1764 13.5699 993 90.3323 571.732 478.355
1485 0 75.1978 13.5642 1020 91.1147 571.812 476.805
1486 0 77.1243 11.0601 853 95.2169 571.39 477.145
1487 0 78.1919 10.9858 859 95.6624 571.362 475.197
1488 0 80.1081 12.8327 1028 93.1411 571.671 475.029
1489 0 83.1149 12.1759 1012 94.7836 571.023 472.789
1490 0 86.2059 11.5885 999 95.9299 571.234 472.767
1491 0 89.2548 12.0554 1076 95.9554 571.158 471.085
1492 0 94.1687 14.0068 1319 92.5792 571.427 470.195
1493 0 96.3328 13.007 1253 97.1453 571.223 469.366
1494 0 99.2859 12.7309 1264 99.379 571.139 466.441
1495 1 54.1099 13.602 736 99.3207 570.727 487.986
1496 0 56.2212 13.8204 777 99.9846 570.807 485.499
1497 0 55.1448 13.9088 767 103.953 571.515 483.034
1498 0 61.172 13.1596 805 106.866 571.063 485.757
1499 0 61.2404 12.704 778 100.153 571.216 484.369
1500 0 64.1846 14.5674 935 97.5594 571.295 484.379
1501 0 65.0956 12.4432 810 108.953 572.305 482.358
1502 0 69.0583 13.1773 910 106.729 572.037 480.877
1503 0 70.0851 12.8986 904 107.89 571.655 478.663
1504 0 74.2643 13.5597 1007 99.6326 571.524 479.418
1505 0 74.0947 13.8472 1026 102.274 572.546 476.211
1506 0 76.1715 13.207 1006 105.567 572.574 477.21
1507 0 74.1085 13.6152 1009 107.638 572.887 476.759
1508 0 75.1016 12.8359 964 110.404 572.027 476.974
1509 0 77.1089 12.7223 981 112.124 572.397 477.692
1510 0 77.2001 13.5881 1049 113.417 572.031 475.704
1511 0 79.3769 12.4973 992 114.265 571.838 475.194
1512 0 86.2169 13.8604 1195 109.327 571.707 473.874
1513 0 88.2764 14.4093 1272 108.437 571.334 470.796
1514 0 91.1827 14.5532 1327 106.519 571.365 470.222
1515 1 46.1053 13.1872 608 106.737 571.406 492.615
1516 0 47.0468 13.731 646 105.96 571.872 491.396
1517 0 49.0588 13.2494 650 107.554 572.066 491.189
1518 0 51.1113 13.6565 698 109.884 571.264 488.338
1519 0 52.1291 14.7518 769 109.009 571.728 487.778
1520 0 54.1335 13.8177 748 110.802 571.194 487.611
1521 0 55.1192 13.9697 770 112.558 571.453 486.738
1522 0 58.2509 14.9697 872 111.141 571.295 485.721
1523 0 57.0742 13.8767 792 115.461 571.571 485.966
1524 0 60.149 13.7492 827 116.629 571.388 486.531
1525 0 61.0898 14.4869 885 117.496 571.141 484.682
1526 0 62.1676 14.6379 910 119.473 571.605 483.989
1527 0 64.2705 14.8746 956 119.899 571.365 484.692
1528 0 65.3713 15.0066 981 121.929 571.981 483.311
1529 0 67.2504 14.8252 997 124.613 571.807 481.117
1530 0 69.2458 14.629 1013 127.654 571.935 479.817
1531 0 70.3565 15.4072 1084 127.982 571.813 478.279
1532 0 72.4575 14.0772 1020 132.662 571.664 477.647
1533 0 75.4191 16.1498 1218 128.939 571.384 476.661
1534 0 76.325 14.7527 1126 134.049 571.21 477.187
1535 0 80.4098 15.3464 1234 133.513 571.267 475.457
1536 0 83.5317 15.7545 1316 134.033 570.866 474.558
1537 0 85.412 14.8925 1272 137.422 570.847 471.932
1538 0 89.4307 15.6658 1401 134.61 570.926 472.334
1539 0 92.3295 15.0331 1388 137.808 571.385 470.357
1540 0 94.1956 15.0432 1417 138.355 570.516 468.833
1541 0 96.2174 15.7976 1520 133.871 571.052 467.507
1542 1 50.148 13.2209 663 145.112 572.094 489.029
1543 0 54.1164 14.4503 782 139.74 571.748 488.309
1544 0 53.0514 14.0995 748 143.705 571.302 486.348
1545 0 56.0735 15.3727 862 139.617 570.74 486.401
1546 0 60.5304 14.7364 892 137.482 571.703 486.175
1547 0 63.2888 15.6268 989 135.453 571.37 483.967
1548 0 63.2108 15.4246 975 137.874 571.066 482.172
1549 0 64.3087 14.1971 913 142.945 570.844 481.67
1550 0 66.2273 14.4653 958 142.752 570.97 480.922
1551 0 69.3744 15.9569 1107 139.363 570.834 477.524
1552 0 73.2954 14.694 1077 142.357 570.867 477.633
1553 0 75.4389 16.3974 1237 137.961 570.597 476.894
1554 0 77.2131 15.8911 1227 140.905 570.266 475.566
1555 0 78.4761 16.0558 1260 142.282 569.9 473.234
1556 0 81.2199 16.0921 1307 142.785 569.887 472.906
1557 0 83.4875 15.9904 1335 143.929 569.951 471.78
1558 0 85.5039 15.3326 1311 146.803 569.663 471.285
1559 0 88.519 16.166 1431 144.642 569.993 469.458
1560 0 89.5204 15.2368 1364 148.897 569.691 469.12
1561 0 93.2685 15.8038 1474 147.476 569.782 468.958
1562 0 96.3698 16.2707 1568 146.392 569.315 466.062
1563 0 101.085 16.2734 1645 145.195 569.444 464.267
1564 0 102.29 16.0818 1645 146.072 569.404 463.493
1565 0 106.123 16.7636 1779 143.228 569.714 460.564
1566 0 107.22 14.5122 1556 151.122 569.287 458.874
1567 0 113.376 15.4177 1748 146.505 569.254 456.118
1568 0 115.3 15.5507 1793 145.76 569.185 456.281
1569 0 121.22 15.839 1920 142.883 569.11 453.163
1570 0 125.302 16.0173 2007 141.411 568.822 451.727
1571 1 65.1393 12.0818 787 138.473 568.128 480.008
1572 0 67.0744 12.7918 858 138.094 567.994 477.847
1573 0 67.0692 12.3902 831 139.356 567.207 475.955
1574 0 72.1118 14.2279 1026 131.281 567.839 476.177
1575 0 76.1041 13.0216 991 132.861 568.18 474.698
1576 0 77.1164 13.7455 1060 131.281 568.172 471.823
1577 0 81.1004 13.6991 1111 130.723 568.234 470.119
1578 0 84.096 13.5797 1142 129.288 567.609 471.719
1579 0 86.2102 13.1655 1135 129.603 567.793 469.711
1580 0 90.1072 13.4728 1214 129.154 568.13 466.722
1581 0 92.1602 12.0876 1114 130.771 568.626 466.604
1582 0 93.2332 12.5492 1170 130.918 568.98 461.477
1583 0 95.1911 13.5622 1291 128.891 568.969 455.744
1584 0 101.17 12.5433 1269 128.671 569.081 454.283
1585 0 100.259 12.1485 1218 128.078 569.69 450.28
1586 1 53.0404 8.14474 432 115.87 568.785 471.657
1587 0 63.0536 12.0215 758 112.823 567.786 477.413
1588 0 63.1879 11.1414 704 111.264 569.276 478.622
1589 0 67.1926 10.0606 676 113.052 568.765 478.754
1590 0 68.2208 11.111 758 111.959 568.698 474.624
1591 0 72.2293 11.6988 845 109.554 568.213 476.079
1592 0 73.1551 10.9357 800 111.93 568.153 472.651
1593 0 75.1438 10.8991 819 112.72 567.941 472.816
1594 0 78.2651 10.0683 788 112.151 568.303 471.919
1595 0 81.2288 11.6092 943 110.806 568.213 467.59
1596 0 83.165 12.0002 998 110.073 568.504 467.79
1597 0 87.2794 12.0303 1050 109.817 568.299 467.11
1598 0 90.2064 11.0746 999 112.062 568.328 466.229
1599 0 91.3408 11.0137 1006 111.265 568.771 464.916
1600 0 95.1174 11.1651 1062 111.312 569.37 458.943
1601 0 99.1626 12.4644 1236 109.195 568.564 459.58
1602 0 102.241 11.1013 1135 113.062 567.93 457.994
1603 0 107.18 11.3174 1213 108.713 569.001 451.943
1604 0 110.225 9.1994 1014 111.214 569.146 450.95
1605 0 116.232 10.2209 1188 108.341 568.737 449.926
1606 0 118.141 10.4875 1239 110.71 568.587 452.385
1607 0 121.302 11.1128 1348 111.912 568.72 445.014
1608 1 65.202 10.4598 682 96.0733 568.544 477.158
1609 0 68.1292 7.80869 532 96.8929 568.474 480.752
1610 0 67.1577 8.48749 570 98.1772 568.872 475.896
1611 0 68.0613 7.69894 524 98.0267 568.42 479.637
1612 0 75.0879 9.22919 693 96.9365 568.857 472.661
1613 0 78.17 9.68402 757 95.8269 569.505 471.264
1614 0 81.1657 9.42517 765 96.3346 568.702 469.501
1615 0 85.1777 6.85625 584 98.4229 567.957 468.295
1616 0 85.1244 6.97802 594 96.9377 568.032 472.867
1617 0 90.1891 8.79263 793 95.9849 568.13 463.207
1618 0 93.2254 9.19277 857 95.5834 568.567 462.401
1619 0 96.2162 7.85731 756 97.4286 568.582 466.23
1620 0 99.216 7.95235 789 99.1229 567.937 464.208
1621 1 54.1036 10.2581 555 92.0973 568.177 482.959
1622 0 56.1584 9.45541 531 99.5499 567.311 479.68
1623 0 58.1664 9.52439 554 102.359 570.935 476.403
1624 0 57.1349 9.27629 530 100.311 568.843 479.179
1625 0 62.2182 10.8328 674 96.9021 568.696 480.782
1626 0 63.075 10.9869 693 93.6075 568.654 481.323
1627 0 63.0631 11.3854 718 95.1755 569.478 478.915
1628 0 65.1042 10.4141 678 96.087 569.083 479.211
1629 0 65.029 9.74949 634 97.9196 569.077 476.882
1630 0 67.0722 9.84015 660 97.5212 569.006 476.441
1631 0 69.1916 10.4781 725 101.732 570.546 472.571
1632 0 72.1762 11.3611 820 99.6915 569.841 472.92
1633 0 75.1615 10.5639 794 101.757 569.825 470.544
1634 0 80.2505 12.3114 988 96.4636 569.668 472.237
1635 0 80.1437 11.0177 883 98.2492 571.37 471.546
1636 0 84.1891 10.8921 917 98.277 567.291 469.701
1637 0 86.4677 10.6167 918 100.426 567.959 469.281
1638 1 45.3005 8.07938 366 98.9945 568.183 481.964
1639 0 52.0465 11.4897 598 95.9766 566.107 482.328
1640 0 53.0486 9.68924 514 99.8054 566.582 482.656
1641 0 54.0289 11.2718 609 98.1461 566.782 482.905
1642 0 54.0359 10.0304 542 101.375 566.5 484.496
1643 0 57.0417 10.6589 608 100.431 565.651 481.549
1644 0 58.0468 10.905 633 100.972 566.368 478.626
1645 0 62.0383 11.1544 692 100.059 566.111 479.535
1646 0 62.1745 10.8565 675 102.572 566.926 479.119
1647 0 65.1025 12.3651 805 99.3528 566.314 479.629
1648 0 67.1279 10.8599 729 103.545 566.158 478.344
1649 0 65.1694 9.85125 642 107.997 566.324 477.159
1650 0 68.1234 10.6571 726 106.27 566.269 473.833
1651 0 71.2174 11.6544 830 103.533 566.766 476.358
1652 0 73.1648 11.8636 868 102.811 566.878 475.037
1653 0 75.0651 12.6424 949 101.414 566.732 474.51
1654 0 75.1436 11.2984 849 105.132 566.577 474.232
1655 0 78.1042 12.1376 948 103.251 566.584 473.259
1656 0 83.049 11.7641 977 102.779 567.12 471.957
1657 0 82.119 12.287 1009 102.526 566.31 471.826
1658 0 85.0986 12.2094 1039 102.944 565.5 467.526
1659 0 89.1962 13.4423 1199 98.9591 566.575 468.497
1660 0 93.1506 12.5818 1172 101.387 566.622 466.945
1661 0 94.29 12.504 1179 102.235 566.823 465.712
1662 0 97.3251 11.2818 1098 104.663 566.209 462.209
1663 1 55.1594 11.6752 644 100.036 566.376 482.075
1664 0 58.5659 12.1743 713 98.6171 568.833 480.719
1665 0 58.2001 11.6495 678 103.714 570.406 478.665
1666 0 58.2331 10.956 638 106.009 570.705 478.091
1667 0 60.1293 10.9597 659 105.725 570.885 476.014
1668 0 64.1194 12.1492 779 102.729 571.172 474.85
1669 0 64.063 11.6136 744 104.941 570.985 476.769
1670 0 68.2191 11.1552 761 105.401 571.029 473.812
1671 0 70.2329 12.544 881 102.817 570.738 471.814
1672 0 71.2006 12.7668 909 102.524 570.608 473.573
1673 0 72.1731 11.5417 833 105.029 571.199 473.786
1674 0 76.1242 14.0428 1069 100.065 570.502 473.049
1675 0 78.1997 12.289 961 104.049 570.748 472.028
1676 0 79.0996 11.947 945 106.216 570.486 467.617
1677 0 82.1408 12.2838 1009 106.196 570.261 467.057
1678 0 84.1805 12.0931 1018 105.958 570.551 466.66
1679 0 88.1321 13.094 1154 103.583 569.919 465.064
1680 0 91.078 13.1096 1194 103.895 570.495 465.2
1681 0 92.0624 13.3822 1232 102.997 570.07 464.804
1682 0 96.1367 12.607 1212 105.144 570.427 460.49
1683 1 50.2053 10.1384 509 103.525 569.672 486.778
1684 0 51.318 10.3083 529 102.902 568.293 483.577
1685 0 52.342 11.444 599 100.693 567.883 484.596
1686 0 51.186 11.761 602 102.101 568.083 481.573
1687 0 54.2187 12.4127 673 100.744 567.955 480.875
1688 0 58.2249 13.2074 769 98.2393 568.38 481.886
1689 0 60.3113 11.7723 710 100.341 568.127 480.21
1690 0 60.2161 12.5548 756 99.1878 568.401 479.242
1691 0 64.2337 12.8904 828 98.0242 568.455 480.353
1692 0 63.1814 12.0922 764 101.411 568.529 480.058
1693 0 67.2698 12.9181 869 98.5178 568.993 479.686
1694 0 68.19 13.9903 954 97.478 568.441 476.307
1695 0 71.1639 12.1691 866 100.74 568.15 474.921
1696 0 74.2069 13.3815 993 98.0081 569.035 472.714
1697 0 74.1893 12.549 931 99.9302 568.34 474.006
1698 0 79.2053 12.9284 1024 98.3359 568.921 472.044
1699 0 82.2433 13.1682 1083 98.1681 568.955 471.047
1700 0 82.3339 11.4655 944 101.551 569.278 469.911
1701 0 84.274 11.3321 955 101.062 569.156 468.404
1702 0 88.1776 11.681 1030 99.1641 568.623 468.092
1703 0 91.2664 11.5157 1051 100.48 568.992 463.23
1704 0 95.2529 11.7792 1122 98.2861 569.13 463.817
1705 0 97.2702 11.4938 1118 96.0725 568.779 463.477
1706 1 52.1117 10.8037 563 91.6909 567.48 485.188
1707 0 55.2206 11.3907 629 86.1494 567.638 486.979
1708 0 56.1916 11.7633 661 87.9788 567.72 485.098
1709 0 58.123 12.6456 735 86.7347 567.963 484.093
1710 0 62.2251 12.9851 808 86.3045 567.479 481.891
1711 0 61.0733 12.6733 774 88.6163 567.191 481.747
1712 0 64.1076 14.6628 940 86.0426 567.426 479.029
1713 0 62.1467 11.5855 720 92.9694 567.962 480.015
1714 0 64.2506 12.4512 800 90.6663 567.696 481.451
1715 0 68.2886 11.5832 791 91.6372 568.077 481.284
1716 0 69.2241 12.1201 839 92.8808 567.417 476.548
1717 0 72.1604 12.195 880 92.0989 567.605 478.082
1718 0 73.1702 11.0427 808 94.6733 567.542 477.941
1719 0 78.2545 12.306 963 93.0872 567.69 476.115
1720 0 80.2567 12.6095 1012 93.4387 567.541 474.962
1721 0 82.3135 13.8252 1138 92.1784 567.783 473.23
1722 0 83.3953 12.6506 1055 95.527 567.869 472.973
1723 0 86.325 11.5957 1001 96.9321 567.828 472.535
1724 0 89.3871 12.5633 1123 95.5049 568.06 472.02
1725 0 89.3849 11.8476 1059 98.7054 567.805 466.105
1726 0 95.4873 12.6614 1209 96.2837 568.095 467.837
1727 0 98.522 14.2506 1404 95.5748 568.477 464.098
1728 0 103.308 11.6835 1207 97.3165 568.706 459.535
1729 1 58.3299 11.8807 693 90.9639 569.444 482.186
1730 0 60.3159 10.7434 648 92.4722 569.171 480.606
1731 0 60.2853 11.5617 697 90.3544 569.146 481.146
1732 0 64.1642 11.4862 737 89.8141 569.775 481.404
1733 0 64.3004 12.2083 785 90.7732 570.082 478.983
1734 0 67.1601 12.2096 820 91.4354 569.41 479.911
1735 0 68.1696 12.0435 821 92.6443 569.335 476.068
1736 0 70.2863 12.4633 876 92.8813 569.144 474.742
1737 0 73.1893 12.4335 910 92.8143 569.362 475.17
1738 0 75.174 12.5974 947 94.1584 568.749 473.964
1739 0 78.2257 13.5378 1059 93.2342 568.712 472.751
1740 0 79.3445 13.2208 1049 94.7274 569.071 473.638
1741 0 82.2896 12.8206 1055 96.9384 569.035 472.395
1742 0 83.3366 12.5035 1042 98.1094 569.56 471.865
1743 0 90.2708 14.9772 1352 92.4578 569.743 466.627
1744 0 91.2332 12.3749 1129 98.2409 569.254 465.129
1745 0 93.2275 13.0219 1214 97.6532 569.093 463.263
1746 0 97.3915 13.2147 1287 94.6278 570.098 463.737
1747 0 97.4333 12.4803 1216 99.2566 569.789 460.467
1748 0 101.386 11.8458 1201 99.7444 569.739 460.025
1749 0 105.206 12.6133 1327 98.3173 569.995 458.046
1750 0 108.375 11.7739 1276 100.263 570.303 456.286
1751 1 61.1917 10.4589 640 93.1234 570.852 480.275
1752 0 65.2397 12.0939 789 89.3878 570.355 474.133
1753 0 66.2423 12.8468 851 90.2585 570.575 475.501
1754 0 69.215 13.4219 929 89.6459 570.388 472.78
1755 0 70.1745 13.0247 914 90.4858 569.848 471.582
1756 0 70.1176 10.9816 770 93.7234 569.794 473.232
1757 0 74.0973 11.7818 873 92.4834 569.901 474.364
1758 0 76.1712 10.6602 812 95.6392 569.915 473.454
1759 0 80.1489 12.9135 1035 91.5343 569.561 471.157
1760 0 81.1605 12.0379 977 94.2784 570.035 470.38
1761 0 84.1556 10.9559 922 97.0824 570.48 470.39
1762 0 86.1427 13.1874 1136 94.0088 569.857 468.619
1763 0 87.2264 12.4504 1086 96.9337 568.883 464.528
1764 0 91.1096 12.71 1158 96.0233 569.608 467.038
1765 0 91.1463 11.2457 1025 100.304 569.803 465.206
1766 0 97.1484 14.2154 1381 95.218 569.579 465.753
1767 0 96.1118 11.2993 1086 103.12 569.519 464.208
1768 0 101.249 12.4347 1259 100.515 569.372 463.114
1769 0 104.269 11.9402 1245 101.808 569.137 459.527
1770 0 109.146 13.3766 1460 99.5349 569.095 457.4
1771 0 110.195 12.5959 1388 106.067 569.002 456.859
1772 0 116.35 13.9236 1620 99.4679 569.056 457.912
1773 1 67.1164 13.1562 883 97.2265 568.259 480.315
1774 0 68.274 10.575 722 100.644 567.716 477.053
1775 0 69.2091 11.3713 787 101.125 566.376 476.144
1776 0 73.0851 12.7249 930 98.3237 566.638 475.018
1777 0 77.1346 13.0292 1005 96.8468 566.961 472.557
1778 0 76.094 12.9577 986 98.9057 567.035 469.06
1779 0 82.2234 12.7214 1046 96.6195 567.097 469.962
1780 0 84.1344 12.1591 1023 98.262 567.6 465.637
1781 0 89.1645 13.2564 1182 95.3951 567.013 466.327
1782 0 89.1928 11.4023 1017 98.0796 567.822 464.727
1783 0 94.1503 13.3404 1256 94.965 567.063 462.178
1784 0 96.1358 13.4601 1294 95.4668 567.296 458.684
1785 0 100.158 10.9926 1101 98.3633 567.575 463.569
1786 1 54.156 9.06641 491 102.711 566.631 481.039
1787 0 57.3901 11.8313 679 96.2916 568.078 479.894
1788 0 57.2861 10.2992 590 100.715 568.517 476.841
1789 0 60.2115 12.0575 726 96.5138 568.58 479.165
1790 0 63.0655 11.6228 733 97.105 570.536 479.92
1791 0 62.0346 10.8649 674 100.328 570.798 476.889
1792 0 64.0857 11.7499 753 98.4728 571.031 476.774
1793 0 69.0643 12.3653 854 96.3091 570.753 475.432
1794 0 65.0756 11.8324 770 99.5766 571.06 473.334
1795 0 71.0608 12.229 869 97.7998 570.413 474.632
1796 0 69.0347 10.6758 737 101.516 570.357 474.768
1797 0 72.0809 12.1114 873 99.7045 570.537 468.877
1798 0 73.1522 11.893 870 101.153 570.192 469.843
1799 0 78.0677 11.2979 882 100.683 570.388 470.656
1800 0 78.1068 11.6507 910 101.679 570.467 468.982
1801 0 82.0614 12.2469 1005 99.7035 570.983 468.992
1802 0 85.0885 13.2098 1124 98.0454 570.125 465.906
1803 0 88.2036 11.6208 1025 101.686 570.179 465.133
1804 0 91.096 14.1719 1291 96.7088 570.256 463.387
1805 0 94.1264 12.0582 1135 99.4062 570.965 462.985
1806 0 98.3018 12.7159 1250 98.5536 570.145 461.568
1807 0 98.2299 12.0025 1179 101.051 570.025 461.061
1808 0 101.237 11.4978 1164 101.839 570.357 458.68
1809 0 107.235 13.8387 1484 95.777 570.235 457.199
1810 1 60.1445 11.2396 676 90.4231 570.556 482.907
1811 0 61.1064 10.6863 653 90.8377 569.98 479.643
1812 0 63.1935 10.998 695 91.364 570.403 475.535
1813 0 62.1918 10.7892 671 85.7243 570.432 473.371
1814 0 62.1977 10.949 681 86.1336 569.551 468.029
1815 0 68.1713 13.9795 953 81.7251 569.761 469.598
1816 0 68.2725 10.5313 719 88.1127 569.512 467.124
1817 0 73.2435 11.4686 840 85.4345 570.179 470.97
1818 0 75.245 12.7184 957 84.8224 569.84 465.533
1819 0 75.2961 13.5332 1019 84.3513 569.485 466.076
1820 0 79.1883 11.5421 914 87.1751 569.101 462.847
1821 0 82.1453 11.2971 928 87.7899 568.961 464.117
1822 0 82.0924 10.342 849 88.735 568.804 455.456
1823 0 87.3325 10.7406 938 87.3966 569.929 461.049
1824 0 90.1126 11.7298 1057 95.1116 570.108 465.202
1825 0 94.203 11.3372 1068 95.0562 569.358 466.521
1826 1 49.1497 9.4609 465 92.9054 568.501 484.697
1827 0 47.2669 8.12407 384 91.6927 569.555 476.156
1828 0 50.0964 10.899 546 93.359 570.024 485.031
1829 0 51.0715 10.9063 557 93.9174 569.939 484.896
1830 0 55.2135 10.8126 597 93.0335 570.476 484.399
1831 0 57.1139 10.2427 585 94.5231 571.243 482.773
1832 0 58.1461 11.8151 687 92.0044 570.409 483.713
1833 0 60.1087 12.6604 761 90.8344 571.624 481.079
1834 0 60.1762 10.8349 652 95.4387 571.046 479.448
1835 0 64.1971 11.0285 708 95.154 569.88 479.677
1836 0 65.1944 11.4274 745 95.0966 570.144 477.532
1837 0 68.1001 12.1145 825 94.257 570.555 476.584
1838 0 71.2791 12.5703 896 94.0022 570.467 476.972
1839 0 69.1793 11.2461 778 98.7468 569.766 474.929
1840 0 74.4798 11.9227 888 97.8401 569.45 474.705
1841 0 76.129 11.8089 899 98.8665 569.621 470.365
1842 0 77.1859 11.1031 857 101.202 569.851 468.142
1843 0 81.2489 11.9509 971 100.005 569.678 469.659
1844 0 86.085 11.7326 1010 99.899 570.493 468.75
1845 0 89.1317 12.7115 1133 98.6355 570.432 467.344
1846 0 90.1969 11.6523 1051 101.828 570.192 466.505
1847 1 50.0656 10.3864 520 102.958 570.938 484.567
1848 0 49.0749 12.3077 604 91.255 568.083 476.434
1849 0 48.1965 9.85548 475 89.8884 568.341 477.074
1850 0 54.0721 11.91 644 87.2407 568.189 474.43
1851 0 56.0403 11.2597 631 89.168 567.764 473.746
1852 0 56.1423 12.0586 677 89.6425 567.496 473.278
1853 0 58.0503 11.7484 682 90.4194 567.985 471.853
1854 0 61.0498 11.5479 705 89.8057 568.106 474.46
1855 0 62.0511 12.2963 763 89.3211 568.604 474.007
1856 0 64.0682 11.956 766 90.5392 568.936 471.163
1857 0 65.0679 11.7262 763 92.4115 568.602 468.339
1858 0 67.1098 12.1294 814 90.6843 568.263 471.955
1859 0 67.1604 11.2417 755 92.9815 568.272 469.176
1860 0 70.107 12.2955 862 90.6067 568.222 470.405
1861 0 73.0991 11.9837 876 92.6336 568.439 468.406
1862 0 77.0842 12.9209 996 90.7882 568.627 466.59
1863 0 79.0733 11.3313 896 94.3538 568.027 465.907
1864 0 83.054 12.4016 1030 92.0282 568.16 471.813
1865 0 87.1234 12.9127 1125 91.9733 568.507 468.58
1866 0 85.1428 12.5319 1067 102.104 567.71 470.381
1867 0 89.0519 13.8122 1230 100.625 567.687 466.122
1868 0 92.1334 13.589 1252 101.16 568.128 466.987
1869 0 97.0763 13.3091 1292 101.322 568.083 465.038
1870 0 96.0621 13.5641 1303 106.665 569.398 461.008
1871 0 101.349 12.9257 1310 107.805 569.456 461.851
1872 0 102.186 12.9959 1328 108.552 569.198 461.137
1873 0 108.207 13.16 1424 109.77 568.258 457.307
1874 0 111.254 14.2017 1580 110.584 568.441 454.554
1875 0 115.137 15.3469 1767 107.526 568.434 455.496
1876 1 62.1275 12.3617 768 112.068 568.574 480.378
1877 0 67.0392 13.1565 882 109.29 571.051 478.604
1878 0 68.0982 13.1428 895 109.118 571.828 477.125
1879 0 70.063 13.3737 937 109.009 570.803 478.061
1880 0 72.066 14.6394 1055 107.545 570.122 476.431
1881 0 74.1022 11.727 869 115.58 570.267 473.654
1882 0 78.0778 14.2806 1115 109.467 569.837 472.632
1883 0 79.0895 12.3657 978 114.756 569.656 472.628
1884 0 82.0763 13.061 1072 112.843 569.79 472.076
1885 0 84.1791 14.4454 1216 110.719 569.808 469.539
1886 0 85.0637 13.3665 1137 114.508 569.444 468.223
1887 0 87.1521 13.5854 1184 114.24 569.851 469.643
1888 0 92.1839 14.4277 1330 112.298 569.974 466.564
1889 0 93.1743 13.4908 1257 116.043 569.438 466.037
1890 0 94.122 12.9832 1222 117.684 569.773 465.288
1891 0 97.1656 13.9041 1351 116.455 570.064 462.638
1892 0 101.186 14.2115 1438 116.472 570.373 460.003
1893 0 104.207 14.3657 1497 115.896 569.575 459.623
1894 0 107.187 13.789 1478 118.271 569.7 458.479
1895 0 111.113 13.1668 1463 119.621 569.341 455.619
1896 0 114.16 15.417 1760 112.119 569.284 455.962
1897 0 117.185 13.5 1582 117.936 569.526 454.324
1898 1 63.1895 12.5337 792 116.097 568.009 476.566
1899 0 59.0676 11.1059 656 106.672 568.48 474.104
1900 0 65.1554 12.0174 783 104.413 568.324 472.724
1901 0 65.0604 12.1887 793 107.752 568.651 468.158
1902 0 70.099 12.5394 879 106.179 569.388 465.096
1903 0 73.1772 12.4219 909 105.587 568.803 467.735
1904 0 74.1349 11.4926 852 109.234 568.846 467.076
1905 0 76.1531 12.5537 956 108.634 569.414 463.659
1906 0 78.1046 12.8674 1005 108.822 569.338 461.825
1907 0 82.0972 12.4365 1021 109.378 568.421 461.773
1908 0 85.2316 11.7327 1000 108.559 568.51 465.467
1909 0 88.1748 12.7474 1124 115.171 567.696 468.626
1910 0 94.1465 13.3515 1257 111.182 569.582 464.767
1911 0 96.3088 12.9168 1244 114.922 568.696 463.167
1912 0 100.143 13.5107 1353 112.663 569.076 463.375
1913 0 100.157 13.8183 1384 111.835 568.919 453.723
1914 0 102.293 14.0185 1434 110.805 569.852 452.586
1915 1 52.0589 9.93106 517 110.279 570.126 475.851
1916 0 55.101 12.5406 691 106.556 569.731 472.618
1917 0 60.0642 11.3878 684 98.1506 568.668 475.348
1918 0 59.0755 11.6123 686 99.7114 568.612 472.765
1919 0 65.0659 11.8803 773 97.9884 568.772 472.294
1920 0 65.1513 11.0359 719 100.451 568.21 469.611
1921 0 69.0882 12.5781 869 97.4223 568.459 469.139
1922 0 69.0793 10.8137 747 102.07 568.212 467.976
1923 0 72.0777 11.2101 808 102.248 568.223 466.759
1924 0 74.1741 11.8505 879 101.297 568.804 467.514
1925 0 75.0675 11.3365 851 103.671 568.712 463.429
1926 0 84.1492 11.4677 965 101.687 568.335 465.983
1927 0 85.3778 12.0523 1029 101.759 568.69 461.849
1928 0 85.2955 9.7895 835 107.41 568.81 461.57
1929 0 89.263 12.7713 1140 103.191 568.745 458.42
1930 1 49.0551 10.7634 528 98.5682 569.045 483.121
1931 0 53.2097 11.4077 607 111.323 569.053 483.608
1932 0 55.0477 12.2984 677 107.96 569.634 485.225
1933 0 55.0889 11.6539 642 111.569 569.86 483.251
1934 0 58.028 11.2015 650 112.778 569.526 484.712
1935 0 60.1546 12.5344 754 110.228 570.321 480.184
1936 0 62.1619 13.5614 843 107.745 568.288 480.164
1937 0 64.0578 12.7073 814 109.075 568.367 480.251
1938 0 63.1651 11.6837 738 112.324 570.501 479.907
1939 0 64.149 11.9098 764 112.469 570.38 481.411
1940 0 65.1554 12.5392 817 112.324 570.353 477.357
1941 0 68.1182 13.3885 912 110.012 569.834 476.582
1942 0 70.1717 11.4149 801 113.446 569.688 477.794
1943 0 72.1089 13.8679 1000 108.848 569.493 474.145
1944 0 75.242 13.729 1033 108.936 569.228 474.039
1945 0 78.2379 13.9063 1088 107.619 568.822 472.383
1946 0 79.2092 14.0388 1112 107.355 569.529 471.522
1947 0 80.1197 12.057 966 111.786 570.312 472.33
1948 0 80.0758 11.2643 902 115.239 570.262 468.956
1949 0 84.1297 11.7438 988 113.334 569.939 467.472
1950 0 87.1918 12.57 1096 112.078 568.943 466.022
1951 0 89.1664 11.9215 1063 113.195 569.278 464.35
1952 0 94.1627 11.1615 1051 113.626 570.293 465.624
1953 1 54.0824 9.52251 515 112.837 569.951 483.449
1954 0 53.0696 12.5496 666 107.83 569.626 479.318
1955 0 51.0549 12.5159 639 103.524 567.792 472.762
1956 0 52.0343 10.9159 568 106.794 567.886 471.863
1957 0 54.2029 11.3832 617 106.256 568.063 470.909
1958 0 57.0812 13.1742 752 103.09 568.298 468.077
1959 0 59.1231 11.2139 663 105.546 568.078 471.802
1960 0 59.0728 11.8498 700 105.427 568.184 470.346
1961 0 62.1002 10.7568 668 107.569 567.807 463.787
1962 0 66.1027 12.3898 819 104.263 567.731 468.885
1963 0 72.2201 12.1434 877 103.534 567.773 467.245
1964 0 72.1569 11.6413 840 105.695 567.996 470.168
1965 0 76.2181 12.005 915 104.549 567.605 467.177
1966 0 79.1864 12.4643 987 104.323 567.961 467.203
1967 0 83.2048 12.6315 1051 103.916 568.179 463.324
1968 0 88.3152 12.2742 1084 104.73 567.674 464.976
1969 0 92.2282 13.0763 1206 103.375 568.181 463.767
1970 1 47.2885 10.3619 490 99.8388 569.104 484.578
1971 0 48.1619 9.05281 436 101.218 569.037 485.468
1972 0 50.1484 10.8279 543 98.5617 568.788 481.133
1973 0 52.291 11.2065 586 101.304 568.782 483.389
1974 0 56.1971 12.2604 689 97.3861 569.083 482.782
1975 0 57.2421 10.9185 625 100.176 569.23 479.03
1976 0 59.3613 11.3879 676 99.0562 568.652 480.935
1977 0 62.3507 11.2429 701 98.9458 568.164 480.195
1978 0 66.0967 12.0581 797 95.9398 569.373 479.338
1979 0 67.1289 12.2302 821 97.3654 569.124 476.398
1980 0 67.077 10.6147 712 103.169 568.812 475.15
1981 0 72.4715 11.232 814 100.442 567.832 470.017
1982 0 74.4672 12.6767 944 99.393 568.169 469.123
1983 0 77.2658 13.1753 1018 96.1454 568.255 472.297
1984 0 78.2076 10.9964 860 100.378 568.171 466.062
1985 0 80.4545 10.8384 872 100.501 567.556 467.308
1986 0 85.5637 13.5221 1157 95.3665 568.063 465.461
1987 0 87.5039 13.3708 1170 97.0564 568.27 461.202
1988 0 88.4771 12.0822 1069 99.9196 568.178 459.703
1989 0 93.7298 11.5972 1087 100.598 568.143 459.796
1990 0 95.6623 11.3002 1081 102.234 568.654 455.811
1991 0 99.4946 12.1615 1210 101.216 568.024 456.55
1992 1 53.2727 11.5068 613 93.5024 567.781 479.37
1993 0 56.5857 10.6387 602 93.8339 567.701 480.302
1994 0 58.3223 11.4365 667 93.3928 568.321 476.658
1995 0 59.2168 11.8547 702 92.8248 568.769 480.063
1996 0 64.1692 12.0774 775 91.4387 567.452 476.977
1997 0 66.1895 10.7268 710 94.4887 568.61 478.063
1998 0 66.1774 11.4843 760 93.3263 568.804 478.855
1999 0 70.3527 11.9825 843 93.5872 569.459 477.234
2000 0 71.466 11.9637 855 94.593 569.808 474.241
2001 0 73.2593 11.3433 831 97.0842 569.746 471.523
2002 0 74.1797 12.9146 958 94.738 569.788 468.34
2003 0 79.478 12.0914 961 95.9927 569.837 468.46
2004 0 83.5253 12.3436 1031 95.3007 569.578 466.776
2005 0 85.5057 12.1395 1038 96.762 569.062 465.715
2006 0 87.6836 10.401 912 99.7325 568.877 465.659
2007 0 91.52 11.7461 1075 97.8093 569.26 463.898
2008 0 92.5563 11.4633 1061 99.6051 569.232 462.427
2009 0 94.4208 12.2113 1153 99.3356 569.11 460.593
2010 0 98.5399 12.4011 1222 98.9795 568.906 461.582
2011 0 103.54 12.6908 1314 99.5548 569.361 457.582
2012 0 106.334 12.5736 1337 99.9013 568.715 457.225
2013 0 109.552 13.0896 1434 100.271 568.615 453.647
2014 0 110.388 11.8038 1303 103.54 568.176 453.321
2015 0 115.36 12.0232 1387 104.554 567.712 447.404
2016 0 121.454 12.0128 1459 103.858 568.021 449.2
2017 1 68.2126 10.8924 743 96.7793 569.459 478.051
2018 0 70.208 11.765 826 92.0145 568.613 469.234
2019 0 75.2387 11.51 866 95.3753 568.887 471.942
2020 0 76.3424 11.3174 864 96.0486 568.803 471.334
2021 0 79.1557 11.7111 927 96.2589 569.389 468.047
2022 0 82.1699 11.464 942 96.5478 569.907 469.135
2023 0 84.4086 12.4513 1051 95.6422 569.677 468.01
2024 0 88.1688 13.2246 1166 94.7513 569.344 468.245
2025 0 90.2214 11.3055 1020 99.6118 569.343 465.112
2026 0 96.1195 12.5261 1204 98.2982 569.186 463.678
2027 0 97.2343 13.2155 1285 97.3875 569.514 462.325
2028 0 99.0841 11.0613 1096 105.89 569.281 460.898
2029 0 104.165 12.653 1318 102.619 568.857 459.66
2030 0 107.145 12.7491 1366 102.46 569.6 456.463
2031 0 109.14 11.7372 1281 104.508 569.582 457.094
2032 0 113.157 12.7875 1447 101.263 569.478 451.83
2033 0 116.315 12.0535 1402 104.598 568.958 449.968
2034 1 64.2176 10.7759 692 99.3064 567.701 479.41
2035 0 67.2058 12.0228 808 97.745 567.91 475.976
2036 0 69.2608 11.7816 816 100.078 567.409 473.799
2037 0 69.344 12.3154 854 102.642 567.141 471.005
2038 0 70.2609 12.2686 862 103.565 567.206 469.811
2039 0 73.2859 12.0214 881 104.387 567.43 469.011
2040 0 75.567 11.8703 897 105.191 568.44 467.29
2041 0 78.6265 13.049 1026 102.595 568.529 466.472
2042 0 83.5147 13.1953 1102 101.66 568.136 465.778
2043 0 83.4489 12.966 1082 103.825 568.561 463.793
2044 0 85.4595 11.9472 1021 106.77 568.441 461.2
2045 0 88.4012 13.4048 1185 103.455 568.067 462.472
2046 0 89.5368 12.7322 1140 105.133 568.193 461.98
2047 0 91.5384 12.0168 1100 108.975 567.601 457.968
2048 0 93.4851 12.7293 1190 108.291 568.163 455.813
2049 0 96.6798 12.7638 1234 107.734 568.367 454.3
2050 0 98.3853 13.4268 1321 105.3 568.007 447.376
2051 0 100.275 11.997 1203 109.368 567.904 445.642
2052 0 102.398 11.9632 1225 111.678 567.007 444.299
2053 0 102.318 13.2039 1351 109.534 567.751 444.989
2054 0 102.364 11.6155 1189 113.395 567.056 439.108
2055 0 105.263 12.882 1356 110.342 567.225 438.478
2056 0 104.399 10.0768 1052 116.921 567.29 435.466
2057 0 113.43 10.8525 1231 113.404 567.68 436.861
2058 1 59.2201 10.1148 599 106.935 567.694 461.426
2059 0 63.1758 11.1277 703 104.297 568.252 459.861
2060 0 65.2331 10.6234 693 104.527 566.319 459.977
2061 0 69.3507 9.57452 664 106.691 566.119 458.474
2062 0 74.2912 10.3377 768 104.353 566.49 459.688
2063 0 69.1031 10.7521 743 106.509 566.814 455.459
2064 0 76.1788 10.8298 825 104.088 566.976 454.678
2065 0 85.3378 10.8744 928 102.567 567.119 453.755
2066 0 87.2128 12.4523 1086 99.3803 567.157 455.245
2067 0 91.1006 10.5158 958 102.7 566.7 455.987
2068 0 93.2389 11.2507 1049 101.371 566.631 456.449
2069 0 98.1712 11.9078 1169 100.525 566.588 452.814
2070 0 103.519 11.6114 1202 100.005 566.389 454.303
2071 0 106.173 12.3572 1312 99.7111 566.553 449.18
2072 0 108.226 11.1064 1202 104.128 567.092 450.589
2073 0 113.164 12.071 1366 101.567 566.803 450.646
2074 0 116.199 11.8676 1379 102.015 567.082 447.825
2075 0 117.334 11.1818 1312 102.899 567.986 445.657
2076 0 121.36 11.9809 1454 101.23 567.99 441.792
2077 0 124.59 11.4134 1422 103.458 567.352 442.518
2078 0 130.37 13.1319 1712 99.6974 566.933 442.15
2079 0 134.246 12.194 1637 101.071 567.483 437.709
2080 1 55.1948 8.44282 466 90.0708 565.964 482.363
2081 0 57.3371 11.4934 659 84.1533 566.463 480.09
2082 0 59.1292 10.5532 624 86.3013 566.22 478.633
2083 0 61.1875 9.9857 611 86.635 566.283 478.383
2084 0 62.1134 11.5595 718 86.0014 566.077 476.088
2085 0 64.0917 11.6396 746 85.0523 566.307 474.924
2086 0 64.1192 10.9484 702 86.8433 565.963 477.172
2087 0 68.062 9.7852 666 89.7207 566.868 472.102
2088 0 68.0635 10.1817 693 90.0606 566.563 475.527
2089 0 70.029 9.86733 691 94.8234 568.767 478.315
2090 0 74.0708 11.9345 884 92.4242 568.033 474.069
2091 0 77.0418 12.0584 929 92.0344 568.215 472.886
2092 0 77.1945 11.2832 871 94.8255 567.855 468.816
2093 0 79.0984 11.138 881 96.0375 566.523 468.977
2094 0 82.3097 12.1128 997 94.4985 565.456 467.049
2095 0 82.1077 10.8029 887 97.0575 567.325 469.166
2096 0 84.1456 11.694 984 98.315 566.207 462.309
2097 0 87.0947 11.0455 962 98.9085 566.834 466.016
2098 0 93.318 13.02 1215 100.745 566.805 458.493
2099 0 95.2289 10.627 1012 107.973 567.494 459.593
2100 0 97.166 11.8972 1156 104.293 567.618 461.548
2101 0 100.204 12.0853 1211 105.157 567.17 457.894
2102 0 103.494 12.8414 1329 102.963 567.167 456.366
2103 0 106.218 11.8153 1255 106.61 567.824 455.862
2104 0 109.301 11.8298 1293 106.391 568.152 454.287
2105 0 110.209 12.8121 1412 105.762 568.056 451.662
2106 0 116.238 12.2336 1422 101.793 567.334 451.165
2107 0 118.224 11.5881 1370 103.223 567.594 449.182
2108 0 122.113 12.2182 1492 100.055 567.397 446.689
2109 0 130.225 14.544 1894 91.6463 568.413 440.238
2110 1 74.1954 11.2541 835 92.7222 567.408 470.566
2111 0 78.1038 10.9342 854 92.5714 567.981 472.672
2112 0 80.1103 11.272 903 102.785 569.092 470.65
2113 0 82.1497 11.6373 956 102.465 568.679 469.444
2114 0 82.1807 11.2192 922 104.744 568.987 466.292
2115 0 86.1383 11.9227 1027 104.4 568.59 464.81
2116 0 89.1177 12.9828 1157 101.588 568.382 463.379
2117 0 90.1546 12.3455 1113 102.996 568.942 466.943
2118 0 93.2809 11.8138 1102 105.623 569.222 463.1
2119 0 95.1227 11.2591 1071 107.206 569.17 460.557
2120 0 100.164 12.24 1226 105.118 568.5 459.423
2121 0 97.2746 9.84841 958 111.451 569.494 451.64
2122 0 104.118 10.0944 1051 110.193 569.408 452.785
2123 0 109.16 12.1106 1322 104.862 568.79 455.041
2124 0 110.268 12.0524 1329 105.262 568.836 449.416
2125 0 115.373 11.3805 1313 104.927 568.396 452.289
2126 1 65.2464 10.8358 707 97.8868 568.267 476.781
2127 0 68.2606 10.8555 741 97.5196 567.484 475.468
2128 0 68.051 10.3305 703 91.8663 568.196 476.501
2129 0 69.1062 10.4911 725 91.28 568.101 476.599
2130 0 72.2108 11.4526 827 96.7606 567.002 475.735
2131 0 73.1654 11.1665 817 99.2938 566.414 470.422
2132 0 76.1523 11.7265 893 97.6137 566.673 472.19
2133 0 75.1195 11.4617 861 100.006 566.401 467.557
2134 0 79.1949 12.3367 977 96.9744 567.397 465.164
2135 0 80.1553 12.2637 983 97.9318 567.286 466.584
2136 0 79.1502 11.1055 879 101.587 567.344 462.349
2137 0 83.1615 11.147 927 100.4 567.867 466.436
2138 0 87.3665 12.2358 1069 98.6109 567.14 466.647
2139 0 89.1404 12.8786 1148 97.804 566.55 466.008
2140 0 90.1415 12.4804 1125 99.6667 565.931 465.262
2141 0 93.0857 12.1179 1128 100.997 566.145 459.07
2142 0 96.175 12.758 1227 100.248 565.583 458.938
2143 0 98.1766 11.9784 1176 102.855 565.94 458.207
2144 0 102.195 12.5349 1281 102.118 565.775 457.578
2145 0 99.1798 11.5044 1141 106.44 565.252 452.085
2146 0 108.314 12.0483 1305 103.469 566.1 455.048
2147 0 108.193 11.5811 1253 106.543 566.064 450.014
2148 0 111.226 12.4251 1382 104.941 566.04 452.402
2149 0 115.198 12.6478 1457 105.384 565.367 448.966
2150 0 113.27 11.2121 1270 110.979 566.605 446.025
2151 0 121.252 13.5255 1640 106.116 566.42 445.059
2152 0 123.347 12.0717 1489 110.43 566.111 444.106
2153 0 129.492 12.6881 1643 108.97 566.31 441.515
2154 0 134.704 13.5334 1823 107.235 567.213 437.107
2155 0 138.633 12.7603 1769 109.558 566.836 433.611
2156 0 144.342 13.6343 1968 102.507 566.755 438.072
2157 1 81.1937 11.7374 953 103.224 565.379 469.209
2158 0 80.1591 10.9033 874 99.3261 566.982 464.908
2159 0 82.1512 12.2822 1009 89.9267 567.192 463.181
2160 0 85.1171 10.3387 880 92.0659 567.549 463.61
2161 0 90.2101 11.7725 1062 90.0565 566.795 460.883
2162 0 93.1817 10.56 984 92.122 567.405 459.509
2163 0 93.2015 11.4054 1063 91.5014 568.196 455.157
2164 0 95.0968 10.7259 1020 92.5765 567.905 458.394
2165 0 98.1063 10.9065 1070 93.2925 567.988 455.669
2166 0 104.255 11.9323 1244 94.25 566.927 458.002
2167 0 104.234 11.9251 1243 123.318 565.932 458.042
2168 0 109.147 12.7626 1393 93.7136 567.276 455.327
2169 0 111.18 12.2414 1361 94.6782 566.85 455.589
2170 0 114.143 12.7734 1458 95.1125 566.873 453.871
2171 0 116.148 11.8727 1379 99.1349 566.487 452.84
2172 0 120.251 12.6485 1521 98.2097 566.46 446.457
2173 0 123.269 12.1685 1500 99.384 566.526 448.192
2174 0 130.547 14.5159 1895 95.1208 566.592 441.015
2175 0 130.285 11.7051 1525 101.138 566.986 439.504
2176 0 136.549 12.4717 1703 99.8332 567.366 440.334
2177 0 141.573 12.2693 1737 100.82 567.052 438.26
2178 0 146.599 13.0628 1915 99.3274 567.036 438.16
2179 1 84.2931 9.01616 760 109.549 566.589 466.364
2180 0 89.2445 11.8775 1060 99.8877 566.888 463.476
2181 0 92.4323 12.4199 1148 99.338 567.283 460.688
2182 0 93.5386 12.6579 1184 98.9502 566.977 460.04
2183 0 95.4506 12.4358 1187 100.275 567.384 456.819
2184 0 97.2903 13.1565 1280 98.2805 566.919 453.985
2185 0 97.3684 13.5465 1319 98.166 567.367 452.017
2186 0 99.2605 12.2808 1219 100.97 566.65 448.432
2187 0 101.23 12.7828 1294 101.026 567.115 443.439
2188 0 107.382 12.1249 1302 103.329 566.481 444.432
2189 0 108.316 12.1311 1314 103.916 566.394 442.849
2190 0 106.255 11.6701 1240 107.391 566.586 440.738
2191 0 112.319 11.8502 1331 106.995 566.591 441.204
2192 0 118.29 14.177 1677 102.217 566.441 435.64
2193 0 123.281 13.1651 1623 104.283 566.864 435.502
2194 0 130.428 13.149 1715 104.602 566.79 429.935
2195 0 133.401 13.9504 1861 102.22 566.94 430.19
2196 0 138.233 13.1734 1821 105.97 567.472 424.697
2197 1 73.0587 12.2641 896 96.9386 568.319 459.742
2198 0 77.1546 11.2242 866 100.464 568.942 456.207
2199 0 82.0852 9.52669 782 104.329 568.372 453.841
2200 0 82.1728 10.4414 858 102.087 568.458 454.082
2201 0 82.2893 10.9127 898 103.082 568.307 449.929
2202 0 83.2382 9.14244 761 98.4534 567.781 452.053
2203 0 88.092 10.1825 897 94.3846 567.269 450.101
2204 0 93.1285 10.2761 957 93.7461 567.448 450.716
2205 0 91.0962 11.5702 1054 92.7429 567.335 447.311
2206 0 93.1866 11.6862 1089 94.2681 566.999 445.321
2207 0 97.0946 11.7308 1139 94.7603 567.619 444.527
2208 0 102.115 10.6448 1087 97.2677 567.718 440.864
2209 0 100.178 9.60289 962 98.343 567.489 442.893
2210 0 103.123 9.63894 994 100.635 567.601 437.955
2211 0 109.219 10.685 1167 99.5236 568.107 437.943
2212 0 113.269 10.1704 1152 100.322 567.347 438.28
2213 0 117.146 10.0729 1180 100.693 567.586 441.862
2214 0 120.314 11.1708 1344 99.9933 566.908 438.039
2215 0 121.185 10.0013 1212 102.798 566.778 437.366
2216 0 128.142 11.9789 1535 101.748 566.672 431.627
2217 0 132.396 11.526 1526 107.333 567.672 431.978
2218 1 74.1204 10.8472 804 98.4478 568.585 457.575
2219 0 78.2018 10.9972 860 89.6012 567.606 460.334
2220 0 75.1075 9.91912 745 91.9705 567.291 461.145
2221 0 82.0863 9.66056 793 91.3821 566.666 461.424
2222 0 84.1648 10.7289 903 90.2757 567.442 460.354
2223 0 90.2623 11.1564 1007 89.8481 567.152 453.957
2224 0 88.1573 9.74395 859 93.5669 567.653 450.005
2225 0 97.3084 11.89 1157 88.3492 567.135 454.68
2226 0 95.1519 10.6566 1014 91.6933 567.481 451.007
2227 0 101.157 10.3404 1046 92.6501 567.493 446.228
2228 0 100.214 12.0242 1205 90.3162 567.673 448.626
2229 0 104.221 11.159 1163 92.5288 567.311 444.132
2230 0 111.3 11.7341 1306 91.9885 567.327 444.657
2231 0 111.206 10.9436 1217 95.5053 566.313 441.336
2232 0 114.218 12.6162 1441 93.0763 567.593 439.465
2233 0 116.163 11.9315 1386 95.2157 567.19 433.455
2234 0 122.123 10.383 1268 98.4543 568.179 433.696
2235 0 127.246 10.8923 1386 97.9834 568.246 431.309
2236 0 137.349 13.3674 1836 93.6204 567.86 438.635
2237 1 73.1515 10.8132 791 91.5828 567.928 475.212
2238 0 75.3372 11.9197 898 90.0846 568.524 470.108
2239 0 76.2112 11.7306 894 90.6007 569.031 472.117
2240 0 78.0727 12.6933 991 89.5076 568.905 469.334
2241 0 81.115 11.909 966 91.2992 568.438 468.165
2242 0 83.1233 11.6093 965 91.6187 569.133 470.187
2243 0 82.2188 11.6883 961 95.7638 569.224 471.982
2244 0 88.3414 12.5875 1112 93.8651 568.26 465.152
2245 0 89.2145 11.7133 1045 93.9799 567.992 467.649
2246 0 90.1853 11.4542 1033 94.454 568.934 467.513
2247 0 94.1525 12.5753 1184 93.3041 569.261 463.029
2248 0 95.3358 11.7794 1123 96.4622 568.25 466.509
2249 0 99.2683 12.2597 1217 96.6376 567.924 464.659
2250 0 100.248 12.0801 1211 98.2296 568.154 462.17
2251 0 109.445 9.82226 1075 99.6065 568.109 464.912
2252 0 108.26 12.0081 1300 95.7169 568.747 460.24
2253 0 114.185 10.0714 1150 96.4609 568.715 464.81
2254 0 113.33 10.8356 1228 98.32 568.141 455.862
2255 0 112.257 11.0461 1240 99.3387 567.991 453.874
2256 0 121.461 12.2015 1482 96.195 567.466 450.905
2257 0 128.425 13.2139 1697 93.7478 568.337 449.224
2258 1 68.1536 11.5768 789 100.772 568.21 474.773
2259 0 71.465 12.4117 887 102.833 567.84 474.521
2260 0 72.3448 12.3851 896 103.366 568.348 473.536
2261 0 76.6776 13.0155 998 101.15 567.838 472.865
2262 0 79.7318 14.5864 1163 97.7455 567.604 474.829
2263 0 81.6036 14.3253 1169 98.1078 566.636 475.167
2264 0 84.2501 13.8279 1165 99.6137 566.403 474.225
2265 0 85.5152 13.3543 1142 102.074 565.535 473.907
2266 0 92.5887 14.0082 1297 98.2884 565.813 475.04
2267 0 91.3451 12.9618 1184 100.063 564.84 473.198
2268 0 94.3064 12.3746 1167 95.8955 564.381 474.052
2269 0 96.3184 11.7838 1135 96.6344 563.417 475.685
2270 0 98.4168 11.7053 1152 96.9106 564.316 474.752
2271 0 100.352 11.8683 1191 97.9051 563.608 469.416
2272 0 106.332 12.6302 1343 95.379 563.956 470.545
2273 0 105.342 10.8979 1148 100.139 564.184 466.04
2274 1 58.1938 10.0698 586 94.5341 563.988 494.666
2275 0 61.1029 11.8161 722 96.7909 563.885 488.54
2276 0 62.152 12.9682 806 92.294 562.986 491.597
2277 0 65.1509 14.4894 944 89.6197 563.044 487.62
2278 0 67.0788 13.4618 903 91.7054 562.843 486.138
2279 0 67.2278 12.1825 819 94.9072 562.292 484.558
2280 0 69.1518 14.9526 1034 90.1132 562.444 481.856
2281 0 70.1733 11.6854 820 96.05 561.98 479.91
2282 0 74.1446 14.4313 1070 91.371 561.189 479.458
2283 0 76.0948 13.5883 1034 92.6702 560.944 478.268
2284 0 80.074 13.8372 1108 91.6904 561.116 475.477
2285 0 79.2165 12.3207 976 96.0543 560.893 473.375
2286 0 82.1305 13.6125 1118 93.5742 560.84 474.121
2287 0 82.1306 12.7967 1051 96.3235 561.231 468.043
2288 0 85.223 13.0833 1115 95.7704 560.703 469.155
2289 0 87.0529 14.0719 1225 94.6498 560.211 469.267
2290 0 91.0966 14.5889 1329 93.4312 560.85 467.013
2291 0 92.0836 13.0208 1199 96.7723 561.594 466.613
2292 0 101.063 14.12 1427 93.2151 561.358 468.747
2293 0 99.1208 13.5996 1348 95.8694 561.135 463.378
2294 0 104.294 13.6442 1423 94.2038 561.498 462.792
2295 0 103.257 13.5874 1403 94.6265 561.894 459.981
2296 0 112.249 14.8687 1669 91.3936 562.249 457.102
2297 1 59.0549 10.6511 629 93.4674 562.413 481.035
2298 0 60.0754 12.6008 757 89.6724 561.794 479.299
2299 0 59.1326 10.6371 629 92.2258 562.237 473.169
2300 0 68.1101 10.7473 732 90.3033 562.653 475.471
2301 0 71.1485 12.9869 924 87.2576 562.926 475.035
2302 0 71.1694 10.8755 774 91.8243 561.717 471.826
2303 0 75.1829 11.6915 879 90.4414 561.819 471.945
2304 0 79.0626 11.4213 903 91.0975 561.901 470.895
2305 0 83.0995 14.1998 1180 86.1432 561.743 471.106
2306 0 86.1319 13.8392 1192 88.2542 561.767 468.37
2307 0 83.1228 12.3432 1026 93.0673 561.904 463.475
2308 0 89.2287 12.3279 1100 92.6355 561.764 466.765
2309 0 92.2168 11.7983 1088 94.7812 561.551 463.057
2310 0 91.109 11.5137 1049 96.5653 561.35 463.21
2311 0 94.1222 12.0482 1134 96.7222 560.974 457.913
2312 0 103.138 10.9368 1128 98.0567 561.377 463.306
2313 0 104.166 11.616 1210 96.5678 561.695 465.483
2314 0 109.229 11.7917 1288 96.9138 561.242 461.482
2315 0 114.247 10.6961 1222 96.1121 561.286 462.323
2316 0 120.206 10.5735 1271 94.8426 561.105 462.673
2317 0 124.149 11.1157 1380 94.2913 560.975 463.291
2318 1 68.0545 10.6973 728 90.8214 560.898 485.067
2319 0 69.0574 11.0343 762 92.8504 560.424 486.948
2320 0 72.0568 11.5187 830 90.559 560.411 486.018
2321 0 74.1958 10.0949 749 93.0187 560.841 486.644
2322 0 78.1762 11.8962 930 90.5419 561.027 479.158
2323 0 81.156 12.0262 976 89.7982 561.372 483.209
2324 0 83.2138 12.2456 1019 92.6791 560.977 481.368
2325 0 86.2697 12.1248 1046 93.1071 561.576 478.772
2326 0 90.2324 13.1549 1187 91.7936 561.772 476.794
2327 0 93.1275 12.5097 1165 91.3013 561.87 475.875
2328 0 95.0591 12.224 1162 92.2909 561.386 473.54
2329 0 93.1628 10.2831 958 97.8069 561.506 472.646
2330 0 98.1415 10.2505 1006 97.5358 561.568 473.156
2331 0 101.194 9.23972 935 98.6781 562.361 473.01
2332 0 104.154 9.67794 1008 99.3433 562.371 470.534
2333 0 107.188 11.4378 1226 96.3059 561.93 463.719
2334 0 117.173 10.045 1177 96.0144 561.828 466.855
2335 0 115.184 11.8246 1362 94.5984 561.584 457.989
2336 0 121.268 11.8745 1440 94.9097 563.558 454.064
2337 0 124.219 10.7069 1330 97.1752 562.919 455.805
2338 0 131.245 11.7719 1545 96.7968 562.557 451.315
2339 1 70.1758 10.4595 734 97.1117 563.353 485.958
2340 0 75.1533 12.6275 949 93.8124 563.319 479.411
2341 0 72.0852 11.2922 814 103.332 564.555 477.186
2342 0 77.075 12.3905 955 100.623 564.813 476.008
2343 0 78.1166 10.7019 836 105.557 564.797 472.4
2344 0 82.3387 11.7928 971 102.996 564.462 470.321
2345 0 82.3006 12.4057 1021 103.5 564.019 467.253
2346 0 85.2669 12.4785 1064 102.728 564.095 469.012
2347 0 87.1553 12.0475 1050 104.27 564.102 467.358
2348 0 89.2036 11.8717 1059 104.786 565.08 465.421
2349 0 92.2334 11.3842 1050 106.93 564.657 461.052
2350 0 97.2978 12.1174 1179 105.336 564.542 459.751
2351 0 98.3722 11.4972 1131 106.968 564.436 457.7
2352 0 101.197 12.362 1251 107.217 564.455 453.81
2353 0 101.35 11.8796 1204 109.316 565.016 452.542
2354 0 104.315 13.3058 1388 102.2 565.158 454.854
2355 0 103.2 12.3741 1277 106.442 563.839 453.198
2356 0 103.229 12.9518 1337 107.71 563.692 446.003
2357 0 107.163 13.5588 1453 106.785 563.667 444.763
2358 0 109.159 11.7626 1284 110.373 565.217 442.565
2359 0 120.22 12.1194 1457 109.245 565.462 439.011
2360 0 123.257 12.5835 1551 108.496 565.132 435.01
2361 0 130.333 12.9668 1690 107.477 564.975 436.181
2362 1 67.0651 11.4367 767 106.404 564.027 461.269
2363 0 73.1423 11.047 808 106.556 564.651 458.197
2364 0 74.0624 10.6667 790 103.737 564.541 461.37
2365 0 80.0853 12.7989 1025 100.668 564.847 459.781
2366 0 85.1086 11.7262 998 104.07 565.109 455.729
2367 0 81.1414 13.8524 1124 102.104 565.319 457.037
2368 0 85.2804 13.6726 1166 103.015 566.002 454.783
2369 0 89.308 13.9293 1244 101.978 565.885 454.494
2370 0 93.5372 12.5939 1178 105.288 565.666 449.144
2371 0 95.355 13.7276 1309 103.026 566.141 450.958
2372 0 96.2825 12.7334 1226 106.268 566.546 448.933
2373 0 104.247 15.5112 1617 98.0179 566.874 446.024
2374 0 105.327 14.9249 1572 100.168 566.637 444.954
2375 0 109.298 13.7149 1499 102.566 566.979 444.325
2376 0 110.277 13.8469 1527 102.322 566.202 437.785
2377 0 117.267 13.8743 1627 101.803 566.358 440
2378 0 119.234 13.419 1600 103.024 566.281 437.709
2379 0 119.233 12.7984 1526 105.358 566.303 433.613
2380 1 67.0997 10.8346 727 105.395 567.018 461.061
2381 0 72.1876 11.2623 813 101.499 566.674 461.266
2382 0 76.1736 11.8545 903 101.826 567.368 459.507
2383 0 77.0822 11.3904 878 97.1651 566.666 459.532
2384 0 79.1098 12.6533 1001 95.956 567.02 457.149
2385 0 80.2676 13.7664 1105 96.2824 566.005 454.149
2386 0 83.1426 11.366 945 102.499 566.612 451.582
2387 0 88.1592 12.9312 1140 99.5868 566.443 455.538
2388 0 86.0803 11.6287 1001 106.262 566.423 447.247
2389 0 95.1034 13.7955 1312 98.872 566.312 454.197
2390 0 92.2222 13.6301 1257 94.4853 566.699 447.385
2391 0 95.3342 14.0139 1336 103.133 566.485 446.563
2392 0 96.3116 13.5498 1305 106.281 566.39 442.554
2393 0 99.1967 12.2786 1218 109.184 566.375 442.516
2394 0 98.0762 13.1021 1285 110.107 566.359 439.768
2395 1 112.317 14.5035 1629 103.597 566.412 443.667
2396 0 106.264 13.9464 1482 108.561 566.404 439.706
2397 0 109.122 12.8846 1406 112.292 565.494 437.331
2398 0 115.297 15.0568 1736 105.611 565.868 434.248
2399 0 118.424 14.3215 1696 107.985 565.541 431.744
2400 0 119.192 12.9874 1548 112.708 565.674 427.926
2401 0 130.173 12.8214 1669 112.244 565.865 429.261
2402 1 73.1243 9.39496 687 109.689 566.275 455.096
2403 0 75.082 10.2155 767 110.451 565.868 453.064
2404 0 78.1214 11.7765 920 100.41 565.396 450.399
2405 0 79.148 10.5246 833 104.241 565.369 451.663
2406 0 85.1141 11.3612 967 102.63 565.896 450.906
2407 0 91.2171 10.2283 933 105.005 565.196 448.28
2408 0 89.1295 11.9713 1067 103.794 565.774 447.743
2409 0 97.2194 12.1066 1177 102.863 566.615 447.318
2410 0 99.236 10.8529 1077 114.409 566.366 444.514
2411 0 101.452 11.3354 1150 115.1 566.177 441.117
2412 0 106.229 13.1037 1392 111.316 566.487 443.674
2413 0 110.486 13.0514 1442 112.459 567.171 441.684
2414 0 112.315 12.091 1358 116.811 567.468 437.705
2415 0 116.368 12.7526 1484 115.357 567.371 438.245
2416 0 118.44 13.5934 1610 114.033 567.599 440.04
2417 0 126.639 13.195 1671 115.86 566.575 436.027
2418 0 130.544 12.4096 1620 116.878 566.854 437.219
2419 0 134.413 12.2384 1645 117.719 567.005 433.08
2420 0 141.455 12.8309 1815 114.321 567.201 435.279
2421 0 139.418 12.3083 1716 118.954 566.469 423.078
2422 1 82.1742 8.85923 728 105.72 566.875 457.313
2423 0 78.2302 11.7218 917 101.959 566.603 455.746
2424 0 80.1444 11.3046 906 108.094 566.735 453.072
2425 0 85.2489 11.7304 1000 110.548 566.813 454.584
2426 0 92.3894 10.6506 984 103.525 566.043 463.937
2427 0 97.5574 10.9679 1070 102.675 566.468 461.65
2428 0 98.3731 10.9379 1076 103.773 566.109 458.962
2429 0 101.399 11.0454 1120 101.629 565.446 463.271
2430 0 105.381 13.0005 1370 99.2752 566.419 457.398
2431 0 107.611 12.1642 1309 101.312 566.684 456.706
2432 0 109.606 10.7111 1174 104.933 566.389 453.422
2433 0 111.378 12.1837 1357 102.758 566.018 452.759
2434 0 112.471 11.7631 1323 103.081 566.169 452.843
2435 0 115.618 11.9272 1379 103.267 565.685 448.151
2436 0 115.727 11.1815 1294 105.736 565.89 439.029
2437 0 121.708 12.3492 1503 101.513 566.151 444.818
2438 0 123.631 11.8983 1471 104.216 565.727 436.751
2439 0 125.552 11.8278 1485 105.147 566.287 432.404
2440 0 125.403 12.4478 1561 106.032 565.799 431.161
2441 0 129.22 13.6975 1770 105.242 566.111 427.786
2442 0 136.456 12.7074 1734 106.864 565.934 425.19
2443 0 138.337 13.8719 1919 105.525 566.445 421.833
2444 1 76.2585 10.7136 817 105.535 564.849 454.198
2445 0 86.3392 10.5282 909 104.65 565.282 462.358
2446 0 89.5504 11.6471 1043 104.83 566.265 460.574
2447 0 90.5472 12.06 1092 104.653 566.778 463.327
2448 0 94.6311 13.2303 1252 102.694 566.656 461.685
2449 0 95.6437 12.327 1179 105.271 566.651 461.578
2450 0 97.6404 11.9315 1165 106.204 566.583 454.591
2451 0 98.5718 11.0985 1094 109.834 566.244 452.862
2452 0 101.703 11.9367 1214 107.841 566.708 451.43
2453 0 105.589 12.1035 1278 107.557 567.353 450.745
2454 0 109.835 10.88 1195 110.854 566.332 446.898
2455 0 112.654 11.451 1290 110.139 566.762 443.495
2456 0 117.611 13.7742 1620 104.319 567.271 447.942
2457 0 117.715 12.0206 1415 109.806 567.145 442.963
2458 0 118.281 11.6249 1375 110.016 566.78 434.004
2459 0 119.513 13.0697 1562 107.91 566.73 431.294
2460 0 125.533 12.682 1592 107.241 566.664 434.113
2461 0 130.768 11.7766 1540 109.503 566.318 432.266
2462 0 136.405 12.7195 1735 107.519 566.637 429.593
2463 0 137.361 12.8639 1767 108.312 566.896 427.236
2464 1 146.426 12.8666 1884 108.648 566.419 419.84
2465 0 151.384 11.5864 1754 111.371 565.519 423.074
2466 0 155.349 12.6682 1968 109.839 565.534 420.186
2467 0 159.548 11.3195 1806 113.235 565.992 418.553
2468 0 166.508 12.66 2108 111.522 566.164 413.492
2469 0 170.809 12.8389 2193 111.632 566.767 413.508
2470 0 178.319 12.758 2275 111.784 566.447 414.865
2471 0 184.539 13.3738 2468 112.025 566.153 411.827
2472 0 187.516 12.0309 2256 114.087 566.366 406.312
2473 0 196.446 14.4417 2837 108.669 566.231 410.227
2474 0 203.46 13.6145 2770 111.365 565.74 403.078
2475 0 211.452 14.7551 3120 108.247 565.911 402.76
2476 1 224.357 17.7886 3991 100.859 566.66 386.448
2477 0 226.771 14.4684 3281 110.914 566.07 388.398
2478 0 230.717 13.5404 3124 114.857 566.42 388.02
2479 0 235.845 12.4785 2943 118.456 565.936 380.356
2480 0 245.741 13.62 3347 114.826 566.76 382.841
2481 1 53.1672 10.0814 536 94.4384 567.401 477.707
2482 0 58.0859 11.1042 645 94.0543 566.572 480.865
2483 0 60.1249 12.2745 738 92.0501 566.047 477.795
2484 0 61.1554 10.2362 626 96.3626 566.097 476.885
2485 0 61.2596 11.3941 698 94.9026 566.814 478.911
2486 0 63.387 10.8855 690 96.0957 566.278 477.125
2487 0 66.4231 11.231 746 95.5536 566.393 473.365
2488 0 70.2203 9.56988 672 96.381 567.924 472.814
2489 0 70.4032 9.18993 647 94.1283 567.362 473.076
2490 0 72.3811 9.02169 653 90.5544 567.603 472.329
2491 1 14.0071 2.35594 33 84.1515 566.788 502.212
2492 0 15.0474 4.5855 69 80.3623 568.681 500.812
2493 0 16.0008 2.18739 35 85.6857 568.571 498.6
2494 0 15.0243 8.12017 122 77.9098 568.566 499.811
2495 0 19.028 8.30357 158 76.8038 569.633 498.937
2496 0 19.008 5.47138 104 77.4712 569.625 502.077
2497 0 18.0301 3.8824 70 80.7286 569.271 501.286
2498 0 19.0051 6.62981 126 78.7619 569.405 499.071
2499 0 20.0185 4.84552 97 79.4639 568.649 501.392
2500 0 19.0252 5.41386 103 79.5922 568.66 500.214
2501 0 19.027 6.25428 119 80.7983 567.437 498.958
2502 0 12.0085 4.247 51 82.6078 567.059 501.451
2503 1 108.735 14.2457 1549 85.6488 567.587 454.116
2504 0 105.959 14.3547 1521 88.5161 567.863 452.837
2505 0 106.046 12.4662 1322 95.0287 567.008 452.676
2506 0 104.754 10.0425 1052 101.61 567.012 442.274
2507 0 114.008 13.0429 1487 93.8346 566.352 446.824
2508 0 117.79 12.8279 1511 94.0655 567.015 448.266
2509 0 118.84 12.033 1430 97.8105 566.913 442.973
2510 0 125.073 13.1043 1639 94.773 566.638 445.336
2511 0 126.816 13.1214 1664 96.5439 566.54 437.887
2512 0 130.636 14.2917 1867 94.2914 566.906 433.43
2513 1 79.5048 9.72268 773 93.8784 566.988 457.783
2514 0 81.4742 10.4818 854 92.966 565.97 459.988
2515 0 85.6864 11.5654 991 92.3804 566.515 458.982
2516 0 87.3227 11.8755 1037 92.5371 566.748 459.16
2517 0 87.3248 11.7836 1029 94.4694 566.604 454.876
2518 0 90.5422 11.0004 996 95.7299 566.756 457.247
2519 0 94.6536 11.2304 1063 95.4544 566.542 455.661
2520 0 95.4777 11.3849 1087 96.7397 566.057 455.032
2521 0 98.4435 12.2101 1202 96.0308 566.736 454.344
2522 0 100.337 12.6772 1272 95.7854 566.162 457.733
2523 0 104.352 12.6974 1325 96.4008 567.084 453.715
2524 0 105.385 11.1021 1170 101.938 566.325 448.546
2525 0 107.443 11.8481 1273 101.416 566.803 447.944
2526 0 111.388 11.9043 1326 101.965 566.777 447.026
2527 0 112.428 12.657 1423 101.259 566.765 447.178
2528 0 116.386 12.5874 1465 101.78 567.246 445.839
2529 0 119.335 13.1898 1574 102.598 566.785 441.778
2530 0 119.347 11.8478 1414 106.66 566.637 441.198
2531 0 125.559 13.8581 1740 102.532 566.691 442.363
2532 0 129.45 13.4183 1737 104.336 567.33 438.988
2533 0 132.384 11.8368 1567 109.582 567.052 434.381
2534 0 137.367 13.3001 1827 106.025 566.857 435.175
2535 0 141.512 13.8362 1958 105.555 567.076 430.701
2536 0 146.468 13.2589 1942 106.385 567.915 429.009
2537 1 89.2838 11.0098 983 97.0966 566.907 459.517
2538 0 93.2612 10.9263 1019 96.6124 567.159 460.887
2539 0 95.3982 12.3273 1176 97.3231 569.338 455.332
2540 0 97.4785 10.7819 1051 102.358 569.334 451.218
2541 0 101.42 11.1319 1129 101.627 569.521 451.273
2542 0 102.319 11.2003 1146 102.274 569.138 449.675
2543 0 105.375 11.4733 1209 102.725 568.959 445.264
2544 0 109.532 12.1152 1327 101.421 569.469 447.254
2545 0 113.594 11.4266 1298 103.188 569.51 444.195
2546 0 117.464 12.8635 1511 99.8643 569.849 445.684
2547 0 120.429 12.8291 1545 101.588 569.352 442.116
2548 0 122.376 11.669 1428 104.686 569.088 440.896
2549 0 121.417 11.7858 1431 105.983 569.746 437.396
2550 0 129.501 12.3628 1601 103.858 569.627 438.135
2551 0 131.5 12 1578 105.857 568.892 433.359
2552 0 133.51 11.677 1559 107.65 569.268 430.54
2553 0 139.332 12.8901 1796 104.028 569.509 433.024
2554 0 140.409 10.8683 1526 109.583 569.608 424.736
2555 0 148.449 13.2773 1971 104.045 569.138 426.398
2556 0 150.266 11.5595 1737 108.152 569.097 424.934
2557 1 20.0363 8.33488 167 77.7964 572.455 494.958
2558 0 19.032 6.77806 129 77.8605 572.078 495.643
2559 0 23.0374 7.33589 169 77.5858 572.692 493.704
2560 0 21.0279 4.18491 88 82.7273 571.727 490.705
2561 0 25.0541 3.79179 95 74.7789 572.516 495.337
2562 0 15.0135 4.9289 74 70.8919 570.554 487.365
2563 0 19.0048 1.26284 24 75.7083 571.333 485.458
2564 0 14.0102 5.496 77 69.5844 571.312 487.727
2565 0 19.0778 4.24578 81 70.4444 571.481 485.457
2566 1 0 0 3 70.3333 571.333 478
2567 0 9.01184 3.43992 31 70.871 568.548 482.645
2568 0 16.1022 2.04941 33 72.6364 569.242 485.121
2569 0 17.0594 4.04469 69 70.4638 568.652 486.087
2570 0 9.00044 3.55538 32 73.3125 569.219 488.75
2571 1 21.0392 7.27213 153 70.3464 568.608 493.503
2572 0 25.0725 5.98266 150 75.44 568.647 494.893
2573 0 21.048 7.50664 158 76.7595 569.437 495.582
2574 0 21.0418 5.03759 106 78.9434 567.557 495.264
2575 0 20.0766 7.82004 157 77.4841 566.847 495.86
2576 0 27.0325 5.77082 156 77.4295 566.654 493.333
2577 0 23.0738 6.41419 148 77.0676 567.635 494.088
2578 0 21.0119 7.99548 168 75.619 567.262 495.018
2579 0 24.0091 4.62325 111 78.8378 567.667 496.82
2580 0 21.011 6.18724 130 78.8308 568.285 493.654
2581 0 22.0446 6.98584 154 77.7403 568.175 492.896
2582 0 17.0118 4.70263 80 79.4125 568.85 492.925
2583 0 18.0294 7.54323 136 74.7721 569.103 491.684
2584 0 18.1686 3.74273 68 77.0441 569.221 493.103
2585 0 12.0077 4.164 50 78.28 569.12 491.78
2586 0 12.0105 2.7476 33 77.2727 568.818 493.152
2587 0 12.0014 5.24939 63 74.0476 570.302 493.333
2588 0 12.0176 4.74306 57 75.1579 570.368 493.544
2589 0 11.0006 1.45446 16 81.6875 570.5 493.125
2590 0 10.0063 5.29669 53 74.8868 570.792 492.528
2591 0 2 4.5 9 75.8889 570.444 488.778
2592 0 7.00047 4.85681 34 75.6471 570.471 495.118
2593 0 337.158 15.0226 5065 118.192 568.082 306.428
2594 0 343.794 7.56558 2601 125.779 567.361 356.075
2595 1 149.474 9.43306 1410 110.143 567.272 416.409
2596 0 156.391 12.2897 1922 103.85 567.213 416.113
2597 0 162.4 12.4507 2022 103.076 567.403 414.111
2598 0 171.498 10.694 1834 110.698 568.1 412.321
2599 0 177.354 11.7843 2090 99.7201 568.404 412.963
2600 0 183.325 12.2951 2254 99.6704 568.313 411.038
2601 0 187.266 9.86296 1847 103.318 568.626 400.036
2602 1 13.0141 7.684 100 76.79 567.43 498.9
2603 0 16.0214 6.49133 104 77.2019 567.856 498.51
2604 0 13.0096 2.76718 36 82.0833 568.083 499.722
2605 0 14.0039 6.641 93 77.5591 569.151 498.215
2606 0 15.0011 5.99954 90 79.4889 568.144 496.5
2607 0 10.0014 8.19883 82 75.9146 568 498.707
2608 0 10.0011 5.49939 55 78.5273 567.582 498.327
2609 0 11.0048 4.18 46 79.8261 568.5 498.717
2610 0 9.00119 3.66618 33 81.4545 567.788 498.576
2611 0 10.0089 2.49779 25 80.92 566.88 499.52
2612 1 151.298 10.2778 1555 100.85 568.237 425.944
2613 0 156.419 11.7632 1840 100.343 568.163 420.864
2614 0 164.467 11.1086 1827 95.8823 567.383 426.525
2615 0 171.27 11.9636 2049 94.369 567.276 423.048
2616 0 175.585 11.4589 2012 96.6029 567.74 419.549
2617 1 106.154 9.91011 1052 95.2348 568.01 454.078
2618 0 108.232 11.3183 1225 93.9608 567.756 450.362
2619 0 114.179 10.6324 1214 94.7718 567.197 450.241
2620 0 116.131 10.4279 1211 94.9884 567.079 448.7
2621 0 118.313 10.7174 1268 94.4306 567.33 451.141
2622 0 124.189 11.716 1455 92.0289 567.44 447.544
2623 0 125.126 10.7731 1348 89.02 567.151 441.27
2624 0 129.268 11.0623 1430 88.0895 567.169 442.743
2625 0 127.289 9.03457 1150 93.3617 567.121 432.403
2626 1 79.2476 11.3568 900 80.4233 566.831 473.356
2627 0 79.1061 9.43037 746 84.9491 566.422 473.764
2628 0 81.2322 11.3256 920 83.1598 566.868 467.992
2629 0 84.1949 11.4734 966 80.7122 566.576 468.519
2630 0 87.1728 10.5652 921 80.9023 565.871 466.849
2631 0 89.1087 10.403 927 81.7174 565.743 465.337
2632 0 91.265 12.3048 1123 79.4007 566.534 463.025
2633 0 91.2035 9.83515 897 83.981 566.786 460.339
2634 0 95.1464 11.5296 1097 81.4211 566.074 464.519
2635 0 94.1765 9.89631 932 84.9732 566.28 461.891
2636 0 96.1143 9.53032 916 86.667 566.567 458.409
2637 0 100.18 10.7506 1077 85.9564 566.069 457.547
2638 0 102.167 10.9331 1117 85.6544 565.932 456.265
2639 0 105.194 13.2518 1394 82.6808 566.468 456.299
2640 0 110.282 11.5975 1279 86.2846 566.518 451.586
2641 0 112.243 11.9294 1339 86.0553 565.764 448.795
2642 0 111.089 10.5051 1167 88.8706 566.093 447.957
2643 0 117.185 12.1773 1427 85.9334 565.566 446.978
2644 0 120.329 11.7262 1411 88.1722 565.269 447.711
2645 0 123.235 11.7499 1448 91.7265 565.193 441.647
2646 0 127.322 13.1242 1671 89 565.562 439.048
2647 0 134.329 12.3131 1654 89.4559 565.326 440.852
2648 1 72.2719 8.93847 646 83.4582 565.526 471.252
2649 0 75.1908 11.0386 830 81.2687 565.61 468.173
2650 0 80.2275 11.592 930 81.6849 564.93 473.157
2651 0 82.1816 12.8861 1059 84.2918 565.12 472.485
2652 0 83.1027 12.8034 1064 84.5705 565.034 471.648
2653 0 85.1978 13.005 1108 85.0939 564.672 468.475
2654 0 87.2919 11.7766 1028 87.642 564.305 468.809
2655 0 89.2588 13.3656 1193 86.28 564.952 466.208
2656 0 89.2102 12.308 1098 89.3652 565.056 463.819
2657 0 92.352 11.5536 1067 91.6354 565.125 459.88
2658 0 94.3459 13.8109 1303 88.4996 565.856 463.25
2659 0 98.4383 12.231 1204 90.6794 565.739 461.402
2660 0 99.2199 12.689 1259 91.0723 565.926 458.914
2661 0 99.362 12.6608 1258 92.531 565.763 456.47
2662 0 106.39 13.4788 1434 89.7211 566.232 458.545
2663 0 106.222 12.3985 1317 91.8497 566.521 454.765
2664 0 112.116 12.4513 1396 86.3732 566.104 458.054
2665 0 113.233 12.5846 1425 87.5284 565.269 451.785
2666 0 118.46 12.519 1483 89.7222 565.419 448.88
2667 0 120.411 13.1882 1588 89.1656 565.917 442.543
2668 0 127.569 12.9734 1655 88.5069 565.973 445.531
2669 1 69.1907 10.2326 708 85.3743 565.172 472.202
2670 0 72.1835 10.0438 725 84.931 565.385 472.913
2671 0 76.0763 11.5016 875 82.5074 565.25 472.258
2672 0 79.2285 13.2907 1053 80.1709 564.452 469.756
2673 0 81.0569 11.5721 938 83.7345 565.512 470.124
2674 0 83.2026 11.6342 968 83.5837 566.916 468.418
2675 0 86.2163 11.8887 1025 82.4995 566.731 469.3
2676 0 89.3594 11.0453 987 84.9027 566.585 465.187
2677 0 91.1423 12.1568 1108 83.4269 566.773 464.39
2678 0 91.2754 13.6948 1250 81.6792 566.434 464.223
2679 0 96.0929 10.2297 983 87.0641 566.232 462.638
2680 0 97.3261 10.7268 1044 87.6063 566.193 459.675
2681 0 102.106 12.9277 1320 84.2242 566.767 458.641
2682 0 103.249 13.8113 1426 83.4965 566.651 457.547
2683 0 101.212 12.8246 1298 87.1202 566.45 456.863
2684 0 111.143 13.2533 1473 84.8018 566.788 455.707
2685 0 108.266 13.0327 1411 87.854 566.245 452.245
2686 0 112.229 12.6082 1415 89.3618 567.033 453.025
2687 0 114.285 11.4888 1313 91.9749 566.634 448.83
2688 0 122.282 12.0868 1478 90.5054 566.227 448.689
2689 0 122.256 11.4023 1394 92.3113 566.402 449.624
2690 0 129.432 12.1917 1578 90.8422 566.622 449.012
2691 0 129.107 10.5649 1364 94.7991 566.611 443.406
2692 0 137.24 12.7513 1750 88.5749 566.539 442.357
2693 0 138.258 13.4459 1859 88.7052 566.207 439.122
2694 0 146.387 13.4985 1976 90.3365 565.869 438.093
2695 0 150.579 14.1786 2135 91.4979 565.564 435.538
2696 0 153.398 13.8594 2126 76.3876 566.546 430.68
2697 1 88.1304 11.7667 1037 92.1533 566.784 463.15
2698 0 86.1473 11.0973 956 98.9121 567.753 453.494
2699 0 84.2097 12.0414 1014 99.8215 567.287 450.468
2700 0 89.0669 12.8667 1146 97.9843 567.538 452.531
2701 0 89.0699 11.3955 1015 102.816 567.663 449.66
2702 0 92.0697 11.7954 1086 103.359 567.835 448.08
2703 0 94.0655 12.5763 1183 102.246 567.391 447.498
2704 0 95.2434 12.1478 1157 105.352 566.873 447.555
2705 0 98.1726 12.9466 1271 103.984 567.928 443.417
2706 0 102.489 14.2455 1460 100.549 566.963 442.368
2707 0 105.264 13.6704 1439 103.045 567.024 442.16
2708 0 106.323 12.1798 1295 107.797 566.813 439.176
2709 0 113.233 13.8652 1570 97.693 566.649 447.932
2710 0 114.234 13.1485 1502 100.995 566.704 439.694
2711 0 117.211 12.8145 1502 102.024 566.556 436.395
2712 0 123.302 13.1953 1627 100.739 566.288 436.709
2713 0 126.246 12.9588 1636 102.337 565.932 430.628
2714 0 130.281 12.9183 1683 101.402 565.562 433.632
2715 1 69.1281 11.2979 781 103.316 566.612 458.832
2716 0 73.1789 11.547 845 102.038 566.742 457.211
2717 0 74.175 12.0391 893 101.961 566.329 457.027
2718 0 75.1434 11.9372 897 103.067 566.501 454.707
2719 0 79.1706 13.692 1084 99.0074 566.722 452.447
2720 0 81.2289 12.3724 1005 102.468 566.209 452.69
2721 0 84.3913 11.7074 988 102.571 566.417 452.345
2722 0 90.1044 11.4645 1033 100.894 565.971 448.848
2723 0 90.1949 12.6615 1142 100.855 566.056 448.244
2724 0 88.2952 10.3177 911 106.868 565.722 449.53
2725 0 92.2219 11.5916 1069 105.213 566.138 444.682
2726 0 91.2319 11.1693 1019 107.079 565.74 443.026
2727 0 97.4024 12.5767 1225 102.729 566.741 444.143
2728 0 99.2802 12.7014 1261 103.793 566.338 437.434
2729 0 105.225 12.4875 1314 103.256 566.371 436.925
2730 0 109.235 11.9468 1305 104.297 566.476 436.349
2731 0 114.15 11.8879 1357 103.394 566.869 434.959
2732 0 115.228 13.6078 1568 100.8 567.032 429.557
2733 0 120.421 12.3151 1483 103.277 566.45 428.54
2734 0 128.337 14.3684 1844 97.9897 566.636 426.49
2735 0 132.209 12.7298 1683 101.213 566.877 422.441
2736 0 136.254 13.9372 1899 99.0879 566.63 421.84
2737 0 137.353 12.3551 1697 103.278 566.491 416.595
2738 0 146.43 10.8789 1593 104.325 567.086 420.412
2739 0 155.495 11.4666 1783 102.133 566.84 420.044
2740 1 94.2765 11.2223 1058 92.1153 567.613 455.942
2741 0 99.1448 10.8125 1072 91.6455 567.33 460.319
2742 0 102.128 11.7597 1201 89.7877 567.265 461.85
2743 0 102.111 11.0175 1125 92.8676 566.884 456.008
2744 0 104.253 9.38102 978 95.9335 567.092 457.041
2745 0 110.096 12.5164 1378 90.9644 567.713 456.17
2746 0 114.363 13.0549 1493 88.365 567.474 453.288
2747 0 115.107 11.1983 1289 94.8743 568.127 451.33
2748 0 120.293 12.1121 1457 94.1283 568.043 449.397
2749 0 125.121 10.9494 1370 94.3555 567.451 443.692
2750 0 127.125 11.2803 1434 98.3989 567.811 442.96
2751 0 134.165 12.4921 1676 94.6175 568.072 441.641
2752 1 75.1492 10.5656 794 88.6461 567.049 472.705
2753 0 79.1034 11.8579 938 87.7953 567.152 471.443
2754 0 81.1075 12.1567 986 87.9635 567.267 469.836
2755 0 81.2409 10.475 851 91.2844 566.823 464.788
2756 0 87.1625 12.884 1123 87.268 566.952 467.444
2757 0 87.1257 12.3959 1080 89.3287 567.234 464.926
2758 0 90.2136 11.9605 1079 88.8823 567.474 465.692
2759 0 94.1492 13.298 1252 87.1494 566.939 465.532
2760 0 95.1381 12.3925 1179 89.9109 566.63 461.592
2761 0 98.1691 12.2849 1206 90.825 567.047 460.937
2762 0 101.18 12.5519 1270 90.5236 567.117 460.175
2763 0 103.163 12.7662 1317 91.1534 567.16 459.614
2764 0 106.143 12.7658 1355 91.8804 566.855 459.222
2765 0 109.135 13.0847 1428 92.1317 566.954 457.254
2766 0 113.132 12.313 1393 94.3841 567.302 453.124
2767 0 113.317 12.09 1370 95.8796 566.804 448.391
2768 0 118.327 11.9161 1410 97.1851 567.039 453.287
2769 0 121.176 13.6743 1657 95.656 566.802 450.762
2770 0 125.282 13.721 1719 96.7522 568.052 448.714
2771 0 128.297 13.5155 1734 98.4792 567.824 447.46
2772 0 133.342 13.6416 1819 98.6333 567.15 443.399
2773 0 138.237 12.9849 1795 99 567.286 437.444
2774 0 141.261 12.6574 1788 99.6409 567.285 434.444
2775 0 145.419 12.4468 1810 100.222 567.197 433.72
2776 1 88.3129 13.7353 1213 96.7758 567.107 465.397
2777 0 89.2084 13.4853 1203 98.547 566.894 462.964
2778 0 92.2274 12.621 1164 99.9837 566.722 463.369
2779 0 93.389 12.6353 1180 102.057 566.892 460.913
2780 0 97.5252 13.0838 1276 100.404 567.959 463.592
2781 0 99.2895 13.8383 1374 97.893 567.949 463.154
2782 0 103.261 12.6863 1310 99.3053 567.463 459.58
2783 0 105.28 12.2435 1289 92.0528 566.106 456.001
2784 0 110.254 12.0903 1333 92.4351 566.616 455.973
2785 0 110.264 11.8443 1306 94.768 566.552 451.098
2786 0 114.218 12.9664 1481 93.792 566.486 451.078
2787 0 114.25 11.7637 1344 98.3408 566.766 449.512
2788 0 117.293 11.288 1324 100.001 566.606 447.665
2789 0 124.162 12.4596 1547 96.7906 566.957 448.918
2790 0 130.346 13.1726 1717 95.134 566.573 446.695
2791 0 135.277 13.0621 1767 95.0877 566.452 445.068
2792 0 136.531 10.7009 1461 100.205 566.231 440.068
2793 0 140.384 11.6182 1631 98.9074 566.865 436.996
2794 0 145.395 11.1558 1622 99.2719 566.478 437.383
2795 1 81.5257 12.1557 991 91.5005 567.063 467.653
2796 0 82.4483 10.1154 834 94.8141 566.881 467.487
2797 0 86.473 11.3561 982 96.2994 566.367 464.553
2798 0 90.3242 12.1894 1101 101.104 566.284 464.143
2799 0 92.3792 12.7951 1182 100.267 567.041 459.176
2800 0 95.1621 11.1914 1065 94.384 567.831 461.588
2801 0 99.2075 12.0555 1196 93.0619 567.235 460.44
2802 0 102.452 12.1618 1246 93.6517 567.606 456.84
2803 0 103.51 11.2936 1169 96.4987 567.312 452.796
2804 0 107.41 12.6524 1359 94.3848 567.47 450.56
2805 0 110.406 11.7566 1298 96.2065 567.172 449.663
2806 0 114.57 11.4079 1307 96.6435 567.504 448.976
2807 0 117.363 11.6988 1373 96.8798 567.371 447.615
2808 0 121.555 12.4881 1518 96.0843 567.346 446.399
2809 0 125.459 12.4582 1563 95.952 567.155 445.046
2810 0 129.415 11.6988 1514 97.5502 567.442 441.378
2811 0 133.508 11.9244 1592 97.9403 567.392 440.756
2812 0 138.531 12.8058 1774 96.8343 567.475 437.979
2813 0 142.594 13.1773 1879 96.4518 567.584 435.605
2814 0 145.506 12.2332 1780 98.6657 567.088 435.547
2815 0 150.457 13.6052 2047 96.7982 567.191 431.378
2816 0 154.578 12.0134 1857 99.6096 566.972 432.745
2817 0 157.557 12.4146 1956 100.676 566.024 425.65
2818 0 162.532 12.7544 2073 101.196 566.531 422.083
2819 0 169.474 13.8488 2347 98.5526 566.154 422.023
2820 0 173.234 13.0863 2267 99.1403 566.563 419.176
2821 0 178.451 12.7318 2272 100.891 566.587 418.167
2822 1 105.248 11.5062 1211 91.0974 567.53 460.881
2823 0 108.141 11.7532 1271 91.7663 567.102 457.662
2824 0 111.147 11.2014 1245 94.2554 566.903 457.9
2825 0 114.313 11.7659 1345 95.0937 567.729 454.892
2826 0 118.244 12.6349 1494 93.8755 567.487 452.963
2827 0 123.249 12.5193 1543 93.5658 567.254 452.789
2828 0 124.344 12.5619 1562 95.0832 567.466 448.752
2829 0 126.251 12.0712 1524 96.4652 567.603 445.85
2830 0 131.311 10.8064 1419 99.8654 567.6 443.261
2831 0 137.33 13.1799 1810 99.4575 566.515 443.574
2832 0 141.244 12.5598 1774 99.7311 566.247 444.45
2833 0 146.327 13.7501 2012 95.1769 566.135 439.657
2834 0 150.378 13.5459 2037 94.5071 566.189 439.411
2835 0 153.403 12.2814 1884 97.8954 565.826 434.764
2836 0 158.367 11.3281 1794 100.008 565.934 432.43
2837 0 165.492 12.5565 2078 98.8138 565.52 430.158
2838 0 171.261 13.7334 2352 96.369 565.186 428.216
2839 0 176.356 13.3197 2349 98.195 566.011 423.336
2840 0 181.272 12.5005 2266 101.098 565.204 415.57
2841 1 105.126 13.0224 1369 96.6355 566.6 462.928
2842 0 107.291 12.6293 1355 96.7786 566.424 460.807
2843 0 111.312 14.5896 1624 93.5714 566.687 456.226
2844 0 115.297 12.6369 1457 97.3768 566.535 457.606
2845 0 117.324 13.5778 1593 97.2938 566.513 454.048
2846 0 121.43 13.2999 1615 98.0402 566.372 450.742
2847 0 125.387 14.3874 1804 95.6391 566.019 451.161
2848 0 126.303 12.6917 1603 99.0112 566.197 445.19
2849 0 129.356 12.1989 1578 100.769 566.606 444.958
2850 0 135.549 12.276 1664 99.6767 566.206 447.102
2851 0 141.677 13.7143 1943 96.8605 566.159 442.855
2852 0 146.585 12.1363 1779 99.5897 565.698 438.103
2853 0 152.578 13.9601 2130 96.2967 565.974 434.934
2854 0 154.719 13.0947 2026 97.4492 565.885 432.474
2855 0 160.415 12.4802 2002 96.5095 565.746 427.376
2856 1 89.4292 9.86255 882 90.9989 566.264 465.904
2857 0 93.2273 13.4832 1257 86.0875 565.953 463.897
2858 0 95.3285 11.046 1053 93.5413 565.594 460.74
2859 0 99.3267 12.6149 1253 91.2378 565.674 464.17
2860 0 101.419 12.404 1258 93.2703 565.62 462.437
2861 0 104.584 12.0477 1260 92.7556 565.999 458.616
2862 0 105.718 9.99828 1057 97.2044 566.088 456.085
2863 0 112.855 12.6268 1425 93.9663 566.282 456.081
2864 0 115.643 12.4867 1444 94.7673 566.197 451.418
2865 0 116.68 12.6414 1475 93.8027 566.393 453.694
2866 0 120.64 13.7849 1663 92.5147 566.183 448.567
2867 0 122.701 10.6438 1306 99.3461 566.262 445.302
2868 0 128.948 10.9269 1409 98.4599 566.639 447.842
2869 0 131.618 12.3159 1621 97.0685 566.454 444.317
2870 0 133.576 9.88201 1320 102.22 566.796 440.355
2871 0 140.701 12.0468 1695 98.2861 566.335 441.994
2872 0 145.701 13.1502 1916 96.4436 567.107 439.698
2873 0 150.98 13.5713 2049 96.9824 566.387 434.243
2874 0 154.654 13.3007 2057 97.8196 566.498 433.379
2875 0 158.687 12.4648 1978 100.223 566.222 428.8
2876 1 93.5017 11.4436 1070 98.1785 565.97 455.621
2877 0 92.4969 11.0058 1018 101.485 565.417 454.608
2878 0 92.4969 11.0274 1020 150.327 565.425 454.681
2879 0 100.763 11.9092 1200 99.96 565.448 453.853
2880 0 104.658 12.0296 1259 99.7593 566.035 455.461
2881 0 110.695 13.2527 1467 97.0389 565.568 455.223
2882 0 111.508 12.7524 1422 99.891 565.575 450.349
2883 0 115.52 14.1015 1629 96.6077 564.706 446.674
2884 0 116.262 11.3623 1321 103.808 564.869 444.058
2885 0 119.61 12.8417 1536 102.003 565.242 444.514
2886 0 123.66 12.0088 1485 104.204 565.887 445.423
2887 0 126.49 12.4832 1579 103.283 565.353 439.997
2888 0 131.525 12.0661 1587 103.616 565.453 439.954
2889 0 132.23 12.1833 1611 105.408 565.238 433.51
2890 0 137.379 12.8331 1763 104.559 565.068 432.638
2891 0 138.437 11.861 1642 107.824 565.713 431.067
2892 0 148.485 12.5602 1865 106.073 565.369 429.374
2893 0 149.431 11.7445 1755 109.104 565.594 423.221
2894 0 155.362 12.7444 1980 107.535 566.517 420.749
2895 0 158.44 12.5031 1981 108.896 565.695 421.378
2896 0 160.391 12.3074 1974 111.163 565.241 415.18
2897 0 170.44 13.2774 2263 109.094 565.696 413.025
2898 0 176.648 11.9277 2107 113.522 565.706 408.514
2899 0 182.66 12.5753 2297 111.896 565.731 405.404
2900 0 175.36 11.656 2044 117.798 565.667 397.248
2901 1 192.551 12.9213 2488 113.333 566.3 396.715
2902 0 199.432 12.2297 2439 115.535 565.263 394.101
2903 0 207.6 13.2563 2752 109.986 566.042 393.495
2904 0 213.573 13.424 2867 110.023 566.145 390.36
2905 0 211.492 13.4095 2836 111.382 565.642 387.198
2906 0 219.589 13.8532 3042 111.876 565.389 382.829
2907 0 224.466 11.1776 2509 114.489 565.817 382.085
2908 1 57.327 9.1231 523 85.1511 567.386 474.941
2909 0 61.1094 10.4566 639 88.252 566.617 480.39
2910 0 62.1043 11.1586 693 87.6595 567.16 480.67
2911 0 64.0403 11.7426 752 87.4495 567.352 478.581
2912 0 66.175 11.0162 729 89.1481 567.373 479.406
2913 0 68.1744 11.8079 805 87.8186 567.209 477.748
2914 0 71.2192 12.0333 857 88.4481 568.127 476.845
2915 0 71.1164 11.9101 847 89.7308 566.708 475.972
2916 0 71.1125 11.0951 789 91.6502 567.958 476.674
2917 0 75.2238 12.5492 944 90.5403 566.635 473.572
2918 0 81.198 14.8403 1205 84.8382 567.717 470.938
2919 0 78.2538 12.7023 994 91.5533 566.594 472.887
2920 0 83.1542 14.2747 1187 88.8079 567.349 467.517
2921 0 81.1152 12.2049 990 96.6222 566.812 470.865
2922 0 83.2542 11.9514 995 97.4643 567.742 470.876
2923 1 96.2434 17.5285 1687 82.6811 567.013 460.484
2924 0 91.2791 14.9541 1365 90.7897 567.418 461.511
2925 0 90.2512 14.1051 1273 95.2404 567.438 463.504
2926 0 90.3322 14.026 1267 97.3899 566.972 466.342
2927 0 86.2246 10.983 947 101.069 567.445 467.244
2928 0 88.1866 11.2375 991 100.311 567.465 467.873
2929 0 101.304 16.416 1663 90.5544 566.747 458.898
2930 0 105.281 16.7552 1764 90.2273 566.939 445.437
2931 0 107.256 16.6145 1782 92.408 566.219 434.763
2932 0 111.173 15.8402 1761 93.3822 565.944 432.453
2933 0 116.213 17.8379 2073 91.438 565.595 425.325
2934 1 67.1132 12.6354 848 102.186 565.4 452.56
2935 0 69.2402 12.8827 892 96.9596 565.981 456.102
2936 0 70.0949 11.2847 791 97.4399 566.013 465.005
2937 0 69.1865 13.1818 912 91 566.414 462.328
2938 0 70.2708 10.6161 746 96.9544 565.257 459.378
2939 0 72.22 10.4542 755 98.7219 566.652 462.117
2940 0 77.1156 11.6449 898 100.049 566.161 460.213
2941 0 79.1337 12.9275 1023 97.2903 565.995 461.978
2942 0 80.2932 12.3796 994 100.205 565.653 461.424
2943 0 83.2473 13.4058 1116 98.3306 565.707 463.78
2944 0 87.138 13.886 1210 97.0322 566.453 464.846
2945 0 89.4084 14.0367 1255 98.0064 566.193 464.269
2946 0 90.1367 14.1896 1279 98.2533 566.651 463.752
2947 0 91.1357 13.4854 1229 102.221 565.823 461.501
2948 0 93.2537 13.2006 1231 103.039 565.948 463.026
2949 0 99.181 15.4062 1528 98.3848 566.577 461.207
2950 0 100.274 14.1313 1417 101.939 566.072 461.533
2951 0 102.202 15.391 1573 99.9555 565.698 457.453
2952 0 105.261 14.1933 1494 102.298 565.551 457.562
2953 0 108.125 15.7503 1703 99.3834 566.469 455.979
2954 0 110.257 14.0671 1551 103.209 566.392 455.913
2955 0 113.409 14.7343 1671 102.58 566.518 452.856
2956 0 117.236 15.729 1844 100.529 566.48 450.624
2957 0 119.25 14.3815 1715 104.042 566.602 449.38
2958 0 123.359 15.3697 1896 101.887 566.186 448.307
2959 0 125.178 14.2917 1789 105.723 565.931 446.772
2960 0 130.401 14.3787 1875 105.787 566.122 442.242
2961 0 135.217 13.6447 1845 107.078 566.002 441.047
2962 1 78.1679 11.6544 911 99.6839 566.581 470.032
2963 0 84.1092 12.6978 1068 97.5534 565.94 470.843
2964 0 85.1529 12.73 1084 99.7149 565.261 468.858
2965 0 88.123 12.9251 1139 99.8209 565.77 466.879
2966 0 92.2148 12.9589 1195 99.1079 565.555 467.485
2967 0 94.2995 14.3161 1350 97.5378 566.241 465.429
2968 0 96.2626 13.6398 1313 99.4326 565.584 462.752
2969 0 97.3554 13.0964 1275 100.909 565.532 460.529
2970 0 100.41 12.688 1274 101.268 564.886 459.952
2971 0 107.227 15.0148 1610 96.095 566.069 456.426
2972 0 108.184 13.477 1458 98.2627 565.947 455.6
2973 0 112.251 14.4052 1617 96.8027 565.912 452.426
2974 0 117.433 13.744 1614 98.5967 565.869 448.589
2975 0 120.316 13.2651 1596 99.4912 565.758 449.008
2976 0 124.263 13.4795 1675 99.6496 565.744 448.974
2977 0 128.197 12.7694 1637 102.108 565.462 443.88
2978 0 131.286 12.4918 1640 103.793 566.123 437.934
2979 1 78.0536 10.8259 845 98.213 565.934 471.542
2980 0 80.0714 11.2275 899 97.5239 565.624 472.867
2981 0 80.0963 11.5611 926 98.3391 566.759 469.327
2982 0 85.1032 13.1017 1115 96.0063 565.962 470.348
2983 0 85.1987 11.033 940 102.517 565.035 464.559
2984 0 89.1406 12.0147 1071 101.334 564.857 465.438
2985 0 90.1387 12.1258 1093 103.419 565.297 461.82
2986 0 95.2072 11.5012 1095 104.901 564.888 462.719
2987 0 100.15 13.8093 1383 100.463 565.223 463.097
2988 0 102.174 13.5358 1383 102.023 564.615 460.691
2989 0 104.11 13.3993 1395 102.843 564.818 461.363
2990 0 107.156 13.1677 1411 104.441 564.83 458.061
2991 0 110.176 13.0519 1438 104.672 564.71 457.946
2992 0 112.236 13.8281 1552 103.632 564.791 456.914
2993 0 115.111 13.0831 1506 105.645 564.843 453.1
2994 0 119.239 13.7287 1637 105.371 564.932 450.288
2995 0 124.194 13.4064 1665 106.244 565.283 448.626
2996 0 128.119 13.1206 1681 106.57 565.72 444.416
2997 0 133.37 13.3763 1784 105.763 565.914 444.321
2998 0 137.145 14.0581 1928 105.489 566.019 439.633
2999 0 140.245 12.9131 1811 107.752 566.466 440.061
3000 1 78.2257 8.74393 684 104.158 566.635 469.693
3001 0 86.2346 11.1208 959 100.605 566.042 468.196
3002 0 88.1585 13.419 1183 96.7219 565.034 467.404
3003 0 91.1316 12.663 1154 98.4601 564.931 466.156
3004 0 93.1337 12.1975 1136 99.2923 565.197 462.367
3005 0 97.2506 12.3907 1205 99.683 565.195 463.289
3006 0 102.215 13.3249 1362 97.6307 564.862 463.11
3007 0 104.259 13.4473 1402 98.0449 564.106 461.581
3008 0 107.16 13.7738 1476 99.2575 564.13 459.509
3009 0 110.153 14.5434 1602 98.7216 564.316 459.178
3010 0 113.36 12.7823 1449 102.162 565.002 454.887
3011 0 116.133 13.3984 1556 102.271 564.937 454.969
3012 0 121.281 14.454 1753 101.175 564.601 455.393
3013 0 126.128 13.4625 1698 106.151 563.954 451.691
3014 0 129.271 13.6844 1769 102.432 564.679 444.288
3015 0 134.177 15.5466 2086 99.7105 564.396 447.685
3016 0 138.181 14.1336 1953 102.338 564.5 443.123
3017 0 141.126 13.0026 1835 105.34 564.706 440.25
3018 0 146.179 13.6203 1991 104.872 565.268 441.942
3019 0 151.095 14.1434 2137 104.612 565.124 437.174
3020 0 157.186 14.4033 2264 104.947 565.394 434.408
3021 0 161.184 14.7037 2370 104.835 564.681 431.704
3022 0 167.346 14.5686 2438 105.459 565.321 427.57
3023 0 172.211 14.7262 2536 105.789 565.903 424.379
3024 0 176.308 13.7373 2422 107.663 565.957 423.673
3025 0 182.318 13.3229 2429 108.187 565.259 423.317
3026 0 187.383 13.7633 2579 107.994 565.104 421.739
3027 0 192.257 14.1061 2712 107.278 565.574 416.229
3028 0 198.29 13.7425 2725 108.57 565.829 409.782
3029 0 206.269 15.2083 3137 105.235 565.703 410.602
3030 0 211.243 13.7993 2915 108.89 564.492 406.038
3031 0 218.309 14.6032 3188 106.73 565.348 401.663
3032 0 224.375 13.8206 3101 108.421 565.586 397.54
3033 0 233.406 15.1024 3525 106.419 565.612 397.8
3034 0 240.323 15.0547 3618 109.41 565.505 390.544
3035 0 250.257 14.3293 3586 109.216 565.174 388.523
3036 1 60.0837 13.8307 831 87.9458 566.248 482.295
3037 0 60.1718 12.4477 749 94.4766 566.406 482.155
3038 0 63.1679 14.6119 923 93.6251 567.327 483.365
3039 0 63.2294 11.9565 756 100.242 567.001 481.507
3040 0 65.1277 12.4371 810 99.7481 567.473 481.49
3041 0 70.1996 13.9317 978 96.2035 567.191 480.719
3042 0 72.0968 13.1906 951 98.3007 567.515 478.047
3043 0 75.0808 13.2923 998 98.4739 566.941 476.848
3044 0 74.0891 14.8065 1097 97.1149 566.464 476.86
3045 0 78.2948 13.8196 1082 97.6562 566.901 477.003
3046 0 79.1615 13.8956 1100 93.4709 566.481 475.352
3047 0 81.1448 13.1617 1068 93.3493 566.075 473.651
3048 0 82.2265 14.0587 1156 96.487 566 472.972
3049 0 82.1966 12.9567 1065 100.717 565.521 474.13
3050 0 82.2867 14.7168 1211 91.5739 565.166 472.237
3051 0 82.1264 13.1383 1079 101.223 566.621 471.826
3052 0 83.1344 11.9445 993 103.968 566.15 470.906
3053 0 82.4089 12.1832 1004 104.21 565.175 471.595
3054 0 88.1853 13.9819 1233 99.4955 565.485 471.219
3055 0 90.2568 13.9602 1260 98.8286 565.837 469.04
3056 0 91.207 12.9047 1177 99.7579 566.53 469.834
3057 0 96.1995 14.3868 1384 91.7948 566.263 466.975
3058 0 100.226 13.9785 1401 94.419 565.827 464.91
3059 0 102.203 13.571 1387 94.243 565.944 464.24
3060 0 105.274 12.3297 1298 96.8798 565.73 457.85
3061 0 109.247 13.1354 1435 95.0314 565.162 460.663
3062 0 112.234 12.4027 1392 96.4504 565.315 453.652
3063 0 116.216 12.8984 1499 96.4403 565.118 455.51
3064 1 64.2291 11.8326 760 97.3342 565.766 481.278
3065 0 68.1392 12.3571 842 92.1651 566.28 477.01
3066 0 68.1234 12.5948 858 91.2692 566.534 480.058
3067 0 68.1949 11.7311 800 94.1762 565.846 478.856
3068 0 69.0757 13.6083 940 91.0096 565.641 472.394
3069 0 72.253 11.7781 851 97.1904 565.817 479.254
3070 0 75.2723 13.6438 1027 94.0204 566.705 476.608
3071 0 76.3644 12.5451 958 98.595 566.037 477.33
3072 0 77.2513 13.6567 1055 99.0919 566.329 476.121
3073 0 77.1459 12.3273 951 103.13 566.263 473.535
3074 0 81.1413 12.2256 992 102.62 564.967 468.953
3075 0 82.2569 12.4974 1028 104.24 565.762 467.963
3076 0 84.1158 13.3387 1122 107.668 566.207 470.75
3077 0 86.1788 12.8802 1110 110.097 565.798 473.359
3078 0 88.3145 13.1575 1162 111.946 565.402 470.828
3079 0 90.0691 13.2565 1194 113.434 565.433 466.765
3080 0 92.25 12.9973 1199 115.236 565.713 468.14
3081 0 95.0784 13.2838 1263 112.669 565.831 465.923
3082 0 97.1718 13.965 1357 113.344 565.482 464.774
3083 0 100.145 15.6274 1565 111.596 566.193 464.07
3084 0 105.164 16.2413 1708 109.426 566.294 463.08
3085 0 107.146 16.0716 1722 111.712 566.204 458.974
3086 0 109.222 15.4181 1684 114.336 565.909 457.469
3087 0 111.122 15.5595 1729 118.387 566.463 454.374
3088 0 117.099 16.8746 1976 114.681 565.877 454.051
3089 0 120.134 15.7991 1898 117.368 566.615 452.699
3090 0 123.203 15.9331 1963 117.399 566.272 450.493
3091 1 53.2186 12.8714 685 112.073 566.283 485.648
3092 0 54.1307 13.3011 720 112.975 566.25 483.301
3093 0 56.038 13.7764 772 111.162 565.595 482.847
3094 0 58.0638 13.8296 803 111.041 565.948 480.761
3095 0 56.0849 13.5152 758 114.038 566.364 479.661
3096 0 60.0288 14.3598 862 111.677 565.48 479.799
3097 0 61.1108 12.9601 792 117.448 565.679 476.289
3098 0 63.1194 14.7973 934 113.393 566.013 475.275
3099 0 66.1461 13.6818 905 114.684 565.339 475.179
3100 0 67.0761 14.5059 973 115.422 565.745 473.029
3101 0 70.2727 15.6106 1097 114.026 565.732 473.245
3102 0 72.1368 15.6508 1129 114.069 565.727 472.383
3103 0 72.157 14.8149 1069 119.093 565.36 471.192
3104 0 75.2233 15.66 1178 116.635 565.144 472.024
3105 0 76.1206 14.6347 1114 118.794 565.678 471.166
3106 0 79.1626 15.5124 1228 117.689 566.136 468.134
3107 0 80.072 15.2613 1222 118.394 565.688 467.98
3108 0 85.1271 15.0363 1280 117.382 565.882 467.886
3109 0 85.1995 15.1057 1287 118.585 566.441 465.988
3110 0 90.1268 15.8 1424 115.176 566.132 466.164
3111 0 92.2254 15.6573 1444 117.656 565.612 462.247
3112 0 93.3428 15.1163 1411 120.021 565.167 460.498
3113 0 96.1845 15.1999 1462 119.267 565.997 461.099
3114 0 98.2958 14.7514 1450 121.494 565.792 457.149
3115 0 101.147 15.5911 1577 120.292 565.28 454.157
3116 0 105.137 14.4669 1521 122.552 565.651 452.233
3117 0 107.166 15.4993 1661 120.327 566.168 452.969
3118 0 111.1 14.9955 1666 120.973 565.95 452.828
3119 0 112.156 15.9242 1786 119.36 565.908 450.656
3120 0 116.126 15.0871 1752 120.619 566.646 450.487
3121 0 121.335 15.1317 1836 120.45 565.891 447.355
3122 0 127.17 14.98 1905 119.404 566.025 445.3
3123 0 130.203 16.4513 2142 116.413 566.8 439.501
3124 0 133.225 14.9221 1988 120.574 566.712 442.306
3125 0 136.28 14.5876 1988 121.4 567.028 440.078
3126 0 141.21 15.4451 2181 119.156 566.724 438.25
3127 0 147.339 15.0944 2224 119.799 567.466 433.259
3128 0 149.432 14.4079 2153 122.957 567.041 430.111
3129 0 157.234 14.7169 2314 120.971 567.039 430.325
3130 0 161.249 14.8714 2398 121.475 566.971 423.355
3131 0 167.667 15.656 2625 118.714 567.235 424.528
3132 0 172.22 15.4744 2665 119.264 567.306 421.16
3133 0 178.267 15.286 2725 119.612 567.209 419.621
3134 0 184.395 14.572 2687 123.154 567.235 414.512
3135 0 190.37 14.8552 2828 124.851 566.471 407.911
3136 0 201.475 15.9275 3209 120.185 566.567 407.877
3137 0 208.439 16.4461 3428 119.563 566.545 403.456
3138 1 184.349 10.0625 1855 128.486 566.341 427.725
3139 0 184.298 8.39946 1548 130.626 566.528 431.482
3140 0 190.281 12.5446 2387 123.093 567.334 426.943
3141 0 190.234 12.0273 2288 180.414 569.328 429.231
3142 1 56.1276 14.1641 795 112.801 566.643 478.83
3143 0 54.0946 12.9218 699 118.415 567.187 479.339
3144 0 59.1234 14.8165 876 113.43 567.557 477.788
3145 0 60.0534 15.5195 932 111.827 567.482 477.275
3146 0 59.0511 14.208 839 116.683 566.871 477.334
3147 0 62.1265 14.3417 891 115.984 567.058 476.973
3148 0 64.1725 15.022 964 115.495 567.231 475.016
3149 0 66.0934 16.0682 1062 113.34 567.275 474.777
3150 0 68.1989 16.6425 1135 112.344 567.53 474.203
3151 0 69.1725 15.9023 1100 114.716 567.105 474.101
3152 0 69.1408 15.2587 1055 118.78 567.518 471.579
3153 0 72.1163 15.5859 1124 117.723 566.822 470.31
3154 0 72.0535 14.6419 1055 121.295 567.168 468.886
3155 0 76.0691 15.6831 1193 117.464 567.013 469.748
3156 0 77.0781 14.868 1146 120.235 566.943 469.496
3157 0 78.1031 14.5577 1137 122.587 566.57 467.518
3158 0 81.1417 16.4281 1333 102.767 567.229 467.451
3159 0 84.0959 16.4812 1386 117.182 566.389 466.178
3160 0 83.1919 15.2419 1268 122.651 566.83 463.882
3161 0 84.1868 14.7648 1243 124.032 566.431 463.489
3162 0 88.1015 15.7545 1388 122.302 566.958 462.647
3163 0 89.1573 15.8372 1412 122.547 566.465 461.75
3164 0 92.1574 15.5603 1434 123.474 565.971 461.475
3165 0 95.3251 15.6202 1489 124.925 566.378 458.352
3166 0 99.2933 16.1743 1606 124.313 566.593 454.929
3167 0 103.318 15.6216 1614 125.941 566.719 454.563
3168 0 109.141 17.0971 1866 122.031 566.353 453.985
3169 0 111.224 16.1745 1799 122.723 566.361 452.081
3170 0 116.189 16.4129 1907 120.945 566.291 450.923
3171 1 52.0954 11.6133 605 117.01 566.702 480.418
3172 0 54.1944 14.0051 759 110.196 565.901 482.221
3173 0 53.2446 11.9261 635 116.18 565.863 480.794
3174 0 56.1251 14.1113 792 111.687 565.914 481.193
3175 0 60.1177 14.0724 846 111.805 566.251 479.722
3176 0 60.0333 13.7424 825 112.898 566.462 479.053
3177 0 62.058 13.5035 838 113.19 565.659 479.445
3178 0 64.0841 14.7931 948 111.879 565.284 478.385
3179 0 65.1623 15.0547 981 112.801 565.478 476.802
3180 0 66.0949 13.995 925 116.91 564.963 474.21
3181 0 68.0451 15.0195 1022 114.985 564.771 475.04
3182 0 69.0955 14.6609 1013 116.753 564.848 472.905
3183 0 72.1165 14.324 1033 117.344 565.076 473.353
3184 0 73.0951 15.172 1109 116.76 565.27 471.36
3185 0 73.1499 15.311 1120 118.051 565.282 470.225
3186 0 77.0849 15.1391 1167 118.853 565.468 466.67
3187 0 81.0654 14.7905 1199 119.088 565.163 467.542
3188 0 81.1223 15.0144 1218 120.187 564.704 465.453
3189 0 86.0729 15.5101 1335 118.105 565.156 464.311
3190 0 86.2281 14.8907 1284 120.622 565.599 461.997
3191 0 91.2157 15.1509 1382 119.684 565.867 462.497
3192 0 97.2648 16.0078 1557 116.426 565.753 459.545
3193 0 99.1163 15.1337 1500 119.061 565.115 456.605
3194 0 101.361 14.6704 1487 120.534 565.566 454.282
3195 1 55.0884 11.7266 646 115.135 566.054 478.269
3196 0 60.2484 13.4609 811 112.949 565.97 478.332
3197 0 62.1572 14.0772 875 113.527 565.733 481.407
3198 0 66.2972 13.1227 870 115.106 565.626 479.654
3199 0 66.0958 12.9812 858 115.953 565.246 478.833
3200 0 68.2057 14.3243 977 112.895 565.637 476.024
3201 0 69.1538 12.9855 898 114.801 565.293 474.448
3202 0 73.1792 13.5558 992 112.302 565.413 473.962
3203 0 74.2858 12.4384 924 114.152 565.353 473.804
3204 0 78.1283 14.2074 1110 110.738 565.55 470.833
3205 0 81.3405 13.6832 1113 111.7 564.65 469.726
3206 0 83.178 14.0061 1165 111.791 565.633 469.45
3207 0 84.3282 14.1945 1197 112.226 565.792 467.505
3208 0 87.2691 13.2693 1158 114.073 565.775 467.651
3209 0 91.2906 13.5173 1234 113.403 566.107 466.092
3210 0 92.2129 14.1303 1303 113.358 565.929 463.429
3211 0 90.2905 12.3047 1111 116.396 565.901 458.23
3212 0 97.3728 12.9091 1257 116.513 566.259 459.578
3213 0 100.287 14.0596 1410 114.701 566.087 462.404
3214 0 104.258 14.5025 1512 114.191 566.143 457.119
3215 1 52.0498 12.1998 635 112.992 566.753 485.893
3216 0 52.0635 11.9854 624 115.782 566.62 483.361
3217 0 55.0434 12.5901 693 113.851 566.723 484.9
3218 0 56.0532 11.8459 664 116.61 566.917 482.301
3219 0 60.0728 13.7 823 110.137 565.305 481.498
3220 0 60.0423 13.2407 795 114.806 565.965 480.56
3221 0 63.1892 13.1984 834 111.159 565.782 482.35
3222 0 62.2779 12.9581 807 113.752 566.221 481.483
3223 0 66.329 13.8552 919 112.506 565.363 479.934
3224 0 66.1479 13.2733 878 115.321 566.412 480.253
3225 0 69.2198 14.8801 1030 111.804 565.582 479.39
3226 0 70.2591 13.3933 941 115.367 566.424 477.312
3227 0 73.2035 14.0021 1025 114.806 565.151 476.422
3228 0 76.156 13.5117 1029 116.894 565.692 474.763
3229 0 77.1973 14.6896 1134 115.535 565.832 474.731
3230 0 81.1718 14.3892 1168 116.621 565.938 472.849
3231 0 81.2277 12.8651 1045 123.063 565.604 471.986
3232 0 85.293 13.9988 1194 119.737 565.962 467.956
3233 0 87.1256 13.6355 1188 122.136 564.972 466.92
3234 0 89.1679 15.4428 1377 117.466 565.633 466.674
3235 0 91.1648 14.0954 1285 121.195 566.147 464.796
3236 0 96.1514 15.5172 1492 116.587 565.956 461.808
3237 0 97.3295 14.1992 1382 121.215 566.13 458.46
3238 0 100.145 14.1995 1422 121.669 565.762 457.293
3239 0 104.21 15.7183 1638 117.685 566.06 457.675
3240 0 107.274 14.3651 1541 122.459 565.815 453.188
3241 0 112.247 15.4481 1734 119.609 565.751 451.209
3242 0 116.276 15.7815 1835 119.366 565.298 450.946
3243 0 120.305 15.0035 1805 121.986 565.796 448.883
3244 0 122.414 14.8104 1813 125.874 566.072 447.764
3245 0 128.201 14.9297 1914 127.178 565.343 444.208
3246 0 132.309 15.4487 2044 126.345 565.361 442.205
3247 0 137.267 15.6702 2151 125.386 565.957 438.486
3248 0 141.382 15.207 2150 128.407 565.806 437.586
3249 0 147.195 15.2791 2249 128.519 565.893 436.74
3250 0 151.389 15.807 2393 128.916 565.793 432.152
3251 0 158.462 16.0165 2538 126.565 566.182 430.602
3252 1 87.1038 12.8812 1122 131.479 566.885 466.369
3253 0 89.1758 13.8939 1239 127.528 566.579 466.437
3254 0 92.2194 13.8691 1279 127.534 566.952 464.912
3255 0 94.1763 14.1862 1336 127.602 566.535 462.001
3256 0 99.181 15.023 1490 123.702 566.428 457.617
3257 0 99.3271 13.8633 1377 127.816 566.027 458.847
3258 0 109.231 16.1675 1766 118.133 566.595 452.512
3259 0 106.183 13.5144 1435 129.244 566.339 453.472
3260 0 109.136 13.4237 1465 128.861 566.212 451.888
3261 0 114.174 13.3218 1521 127.549 566.057 451.595
3262 0 113.199 13.4895 1527 127.287 566.366 451.421
3263 1 62.1538 12.9678 806 123.804 565.939 476.924
3264 0 64.0932 13.418 860 124.441 566.029 474.46
3265 0 65.168 13.0125 848 131.388 565.652 467.733
3266 0 70.0339 15.2355 1067 123.409 564.822 467.649
3267 0 71.0834 15.0527 1070 124.029 565.126 466.878
3268 0 73.0748 13.9036 1016 126.75 564.489 466.594
3269 0 76.0736 14.946 1137 124.616 564.511 466.249
3270 0 77.0709 14.5061 1118 124.867 565 466.445
3271 0 78.0788 14.1652 1106 124.992 564.924 468.284
3272 0 80.0526 13.1414 1052 127.797 566.004 466.413
3273 0 85.1252 16.2349 1382 118.855 566.529 462.646
3274 0 86.1106 14.2259 1225 124.531 566.573 460.06
3275 0 90.1421 15.3313 1382 122.054 566.228 460.705
3276 0 94.0771 14.3393 1349 121.689 566.619 461.242
3277 0 95.2872 12.9608 1235 125.181 566.657 461.537
3278 0 99.2789 14.6557 1455 120.612 566.194 456.988
3279 0 104.303 15.4071 1607 117.907 566.009 454.466
3280 1 53.057 12.7222 675 122.132 565.713 481.707
3281 0 55.0626 14.1475 779 119.526 566.01 479.969
3282 0 58.0593 13.5895 789 120.938 565.697 476.653
3283 0 60.0775 14.5978 877 118.344 564.914 477.014
3284 0 61.0517 13.8735 847 119.401 564.841 476.816
3285 0 63.0583 14.78 932 116.747 565.161 475.345
3286 0 65.0835 14.0128 912 118.515 565.456 473.439
3287 0 67.1371 14.314 961 115.857 565.498 472.779
3288 0 69.1304 13.5396 936 117.963 565.125 471.433
3289 0 73.144 14.7381 1078 112.981 566.07 469.34
3290 0 73.0701 14.2876 1044 116.065 565.258 468.352
3291 0 77.0714 14.519 1119 114.696 565.734 466.286
3292 0 80.2864 14.4981 1164 113.874 566.106 467.067
3294 0 81.1708 14.3771 1167 115.122 565.931 464.612
3295 0 84.1373 14.6427 1232 114.462 565.989 464.726
3296 0 87.1897 13.9695 1218 115.175 566.495 462.544
3297 0 90.1252 13.4036 1208 116.018 566.593 462.396
3298 0 95.1479 15.9331 1516 109.065 566.765 459.942
3299 0 100.188 14.5526 1458 110.286 566.375 458.837
3300 1 48.0982 11.5181 554 122.83 566.632 482.527
3301 0 53.1904 13.7243 730 117.934 565.967 482.316
3302 0 56.1144 14.6843 824 115.325 566.176 480.006
3303 0 56.0685 13.9115 780 117.179 565.779 479.703
3304 0 59.0473 14.7509 871 114.659 566.532 479.46
3305 0 62.0616 14.1633 879 114.208 566.719 478.628
3306 0 62.0566 14.1323 877 115.892 565.941 476.006
3307 0 64.07 14.89 954 113.544 566.683 473.831
3308 0 68.1279 14.6342 997 113.227 566.34 474.159
3309 0 69.0944 14.965 1034 113.471 566.489 472.56
3310 0 72.1406 15.955 1151 109.904 566.696 471.691
3311 0 72.1212 13.3941 966 117.337 566.778 473.273
3312 0 75.1104 14.1259 1061 116.241 566.287 471.832
3313 0 78.1109 13.3528 1043 117.893 566.517 469.807
3314 0 87.2005 16.4563 1435 105.909 566.317 465.36
3315 0 85.1712 12.9152 1100 116.246 565.919 469.165
3316 0 88.1334 14.2284 1254 114.017 566.526 465.337
3317 0 91.2362 13.5801 1239 114.237 566.592 464.638
3318 0 95.4233 13.4558 1284 113.357 565.999 462.242
3319 1 46.0954 13.0165 600 119.095 566.673 484.037
3320 0 50.0795 14.0976 706 114.918 566.479 484.195
3321 0 52.0169 15.2643 794 112.102 566.616 482.946
3322 0 53.05 15.0424 798 112.494 566.815 482.831
3323 0 56.0621 14.2877 801 115.161 565.834 482.104
3324 0 56.0696 14.3571 805 116.968 566.184 481.625
3325 0 58.0668 15.2238 884 115.437 566.312 481.106
3326 0 59.0491 14.3271 846 120.18 565.677 479.842
3327 0 62.1069 16.0691 998 116.035 565.872 477.004
3328 0 65.0529 14.3576 934 119.451 566.199 478.779
3329 0 65.0805 15.0429 979 119.933 566.428 476.117
3330 0 67.1495 14.0135 941 123.708 566.376 475.943
3331 0 71.1505 15.5586 1107 119.544 565.881 473.752
3332 0 74.0761 15.4436 1144 119.525 566.492 473.031
3333 0 75.1157 14.8837 1118 121.52 566.599 472.734
3334 0 77.2113 15.2827 1180 121.514 566.732 470.693
3335 0 81.1832 13.8329 1123 123.926 566.952 471.038
3336 1 41.0551 13.2018 542 130.074 566.541 487.367
3337 0 42.098 12.0908 509 129.727 567.069 487.477
3338 0 44.0979 13.5154 596 125.148 566.567 485.346
3339 0 48.1062 14.3225 689 122.149 566.038 485.328
3340 0 49.0593 14.2277 698 124.189 565.679 483.447
3341 0 48.0268 12.8678 618 131.17 565.807 483.252
3342 0 50.0987 13.4135 672 129.345 565.698 483.868
3343 0 53.0723 13.3968 711 129.138 565.526 482.014
3344 0 52.0747 13.9031 724 130.692 565.615 481.837
3345 0 57.1075 13.8861 793 128.942 565.521 479.631
3346 0 57.1198 13.708 783 131.125 565.147 480.121
3347 0 59.1057 14.4656 855 129.026 564.75 479.589
3348 0 63.1584 14.3607 907 128.334 565.998 478.013
3349 0 67.2593 14.3921 968 128.106 565.4 476.258
3350 0 67.084 14.6384 982 128.705 565.706 475.818
3351 0 69.0911 14.7342 1018 129.088 564.693 474.658
3352 0 71.1353 14.7184 1047 129.709 565.98 473.663
3353 0 76.154 15.3373 1168 126.143 565.709 472.581
3354 0 78.1929 14.4003 1126 128.746 565.143 470.806
3355 0 81.3187 14.4616 1176 127.84 565.302 470.628
3356 0 84.0656 13.6679 1149 130.402 565.842 467.479
3357 1 44.0903 13.0641 576 134.312 565.41 485.715
3358 0 46.0541 14.8955 686 130.325 565.812 484.395
3359 0 49.096 13.7893 677 132.789 565.566 484.49
3360 0 50.0706 13.8604 694 131.581 565.66 483.024
3361 0 50.0258 14.7524 738 130.557 565.978 482.801
3362 0 54.2006 14.6124 792 128.909 566.314 483.01
3363 0 55.0616 15.0014 826 129.176 566.571 481.259
3364 0 56.1095 14.9173 837 131.497 565.904 481.564
3365 0 60.0329 15.1584 910 129.702 566.252 479.49
3366 0 62.0359 15.1848 942 130.606 565.2 478.659
3367 0 66.037 14.8553 981 131.133 565.715 477.52
3368 0 66.0822 15.7077 1038 130.287 565.045 476.799
3369 0 66.0294 14.0392 927 137.285 565.268 475.009
3370 0 70.0471 14.3332 1004 135.208 565.313 474.788
3371 0 73.2319 14.6657 1074 134.694 565.601 472.111
3372 0 75.0608 14.8679 1116 134.542 565.107 470.353
3373 0 78.2546 15.0151 1175 133.601 565.761 470.173
3374 0 82.128 14.3069 1175 135.919 565.431 469.329
3375 0 85.472 15.7245 1344 131.103 566.329 467.754
3376 0 87.2065 15.2512 1330 134.577 566.446 465.151
3377 0 90.1596 15.0511 1357 135.265 566.284 464.864
3378 1 47.1207 13.0092 613 133.077 565.894 487.02
3379 0 48.1239 13.1535 633 136.825 566.305 483.213
3380 0 51.0889 14.3475 733 132.078 567.127 484.644
3381 0 52.0836 13.8815 723 133.544 566.071 482.13
3382 0 54.0393 14.2859 772 132.709 566.167 480.42
3383 0 57.1578 14.9936 857 129.868 566.292 481.156
3384 0 58.1927 13.5584 789 134.351 565.541 481.748
3385 0 59.1776 14.7522 873 131.84 566.11 480.645
3386 0 62.1664 14.6381 910 132.703 565.605 477.663
3387 0 65.1406 15.1211 985 130.479 565.594 476.594
3388 0 66.1955 14.6838 972 132.273 564.955 470.859
3389 0 69.0753 14.1874 980 133.469 563.998 471.763
3390 0 72.2131 14.9557 1080 131.092 565.093 472.228
3391 0 73.1395 15.1765 1110 131.715 565.247 474.186
3392 0 74.0519 14.0442 1040 137.172 565.69 472.013
3393 0 79.137 15.0246 1189 132.451 565.042 470.316
3394 0 83.238 15.1734 1263 132.016 564.391 467.358
3395 0 83.0984 14.3926 1196 135.743 565.491 466.851
3396 0 86.0939 14.3099 1232 137.204 565.26 463.571
3397 0 89.1469 14.7397 1314 134.828 565.47 465.175
3398 0 94.3674 15.641 1476 131.539 565.667 463.158
3399 0 96.1513 14.1132 1357 136.165 566.077 462.931
3400 1 47.0642 11.0487 520 145.319 565.621 484.637
3401 0 52.1764 13.9335 727 135.202 565.974 478.301
3402 0 52.0189 13.3798 696 135.795 564.665 482.266
3403 0 54.0513 13.8942 751 131.931 564.945 481.875
3404 0 56.0904 15.0115 842 127.795 565.904 480.557
3405 0 58.2656 13.8847 809 131.167 566.711 480.532
3406 0 58.0695 12.1234 704 136.967 566.161 480.139
3407 0 61.1203 14.3324 876 130.465 566.355 477.807
3408 0 65.1163 13.2225 861 131.606 566.055 478.775
3409 0 68.1083 14.2861 973 129.421 565.933 475.843
3410 0 69.1595 13.1291 908 132.447 565.65 475.942
3411 0 72.1201 14.5452 1049 128.793 565.958 473.07
3412 0 75.2266 14.8618 1118 127.474 566.26 471.704
3413 0 76.1692 13.6932 1043 131.061 566.884 470.821
3414 0 80.2432 13.4965 1083 130.768 566.174 469.974
3415 0 83.2167 13.0142 1083 132.112 565.698 469.761
3416 0 86.1771 13.3678 1152 131.338 566.214 467.603
3417 1 44.0724 12.2526 540 141.354 566.244 486.461
3418 0 46.0462 13.8339 637 136.122 566.554 484.173
3419 0 48.0861 14.7028 707 132.982 566.603 482.666
3420 0 51.1047 15.0671 770 130.061 566.703 482.926
3421 0 50.0706 13.5808 680 135.474 566.582 483.675
3422 0 53.1797 14.1219 751 132.654 566.842 482.778
3423 0 53.0442 14.026 744 135.661 567.442 480.734
3424 0 55.0868 14.8674 819 134.399 566.741 481.454
3425 0 56.1361 14.6608 823 134.951 566.309 481.479
3426 0 57.0651 14.317 817 137.531 566.625 479.477
3427 0 60.0697 14.9826 900 134.354 566.514 478.69
3428 0 64.0231 14.7603 945 134.156 566.892 477.926
3429 0 66.0356 16.1428 1066 130.513 566.573 478.13
3430 0 64.0912 14.6822 941 138.412 566.213 474.32
3431 0 69.4283 15.3252 1064 133.886 566.083 474.161
3432 0 75.257 14.2711 1074 135.731 565.534 474.135
3433 0 73.2891 16.1006 1180 132.656 565.88 471.517
3434 0 78.2918 15.2379 1193 133.532 565.91 470.911
3435 0 79.3145 16.6552 1321 130.188 565.819 470.266
3436 0 82.2704 16.2391 1336 131.342 565.436 468.732
3437 0 82.3066 14.6404 1205 138.019 565.701 467.22
3438 0 86.1289 16.1038 1387 132.812 566.102 466.198
3439 0 91.499 15.6067 1428 132.854 565.386 465.796
3440 0 91.4393 14.6655 1341 136.557 565.38 464.318
3441 0 95.2373 15.5191 1478 132.503 565.737 462.244
3442 0 98.4441 15.4301 1519 131.885 566.081 460.322
3443 0 104.314 15.6738 1635 129.121 565.204 458.199
3444 0 108.341 15.562 1686 128.186 565.023 457.708
3445 0 112.358 16.4831 1852 125.302 565.885 456.042
3446 0 117.273 14.5217 1703 131.588 565.914 451.602
3447 1 56.0817 13.6587 766 135.366 565.766 480.509
3448 0 56.2065 13.9486 784 136.027 564.749 479.233
3449 0 59.1414 14.7612 873 132.024 565.285 479.527
3450 0 62.2091 14.9014 927 130.415 564.775 478.032
3451 0 64.2084 14.6865 943 131.586 564.558 476.508
3452 0 66.0914 14.7826 977 131.783 564.446 475.621
3453 0 67.0691 15.4318 1035 131.488 565.141 472.009
3454 0 71.0781 15.5041 1102 128.745 565.256 471.812
3455 0 73.1184 15.3176 1120 130.58 565.004 470.619
3456 0 75.0691 14.8397 1114 131.77 565.129 470.854
3457 0 79.1744 15.6616 1240 128.698 564.964 468.979
3458 0 80.1979 14.8757 1193 131.282 565.154 467.824
3459 0 85.1861 15.5307 1323 128.06 564.603 466.407
3460 0 88.1558 14.4177 1271 130.421 565.109 464.934
3461 0 92.2771 14.8141 1367 128.32 564.756 462.515
3462 0 98.1934 15.9889 1570 124.091 564.564 460.86
3463 1 53.1015 13.8791 737 126.92 564.796 482.149
3464 0 54.0296 14.2699 771 126.598 565.179 481.567
3465 0 57.0592 14.8968 850 123.653 565.302 481.266
3466 0 57.106 14.4118 823 126.22 565.216 480.785
3467 0 59.1712 14.1961 840 128.036 564.648 477.317
3468 0 61.2192 14.1949 869 127.677 564.948 478.867
3469 0 65.1404 15.4436 1006 124.272 564.564 476.937
3470 0 67.2035 14.4486 971 127.516 564.436 476.718
3471 0 69.1661 14.429 998 128.237 564.906 473.813
3472 0 71.0938 14.8536 1056 128.022 565.168 472.227
3473 0 75.0935 15.5007 1164 125.405 564.768 472.431
3474 0 75.1174 14.1379 1062 130.286 564.33 473.152
3475 0 78.1011 15.083 1178 128.225 564.7 470.134
3476 0 81.125 15.1125 1226 127.041 564.934 470.454
3477 0 82.2272 14.2897 1175 131.129 564.439 468.28
3478 0 87.2477 14.5562 1270 128.842 565.149 467.401
3479 1 44.0457 13.9855 616 131.12 564.653 486.972
3480 0 45.1232 13.6515 616 130.313 564.998 488.136
3481 0 47.0532 14.5792 686 128.267 565.125 486.984
3482 0 47.0905 13.4634 634 132.218 564.732 486.797
3483 0 50.047 14.6063 731 128.74 565.625 485.19
3484 0 50.0179 14.8147 741 130.227 565.233 484.35
3485 0 53.046 14.1575 751 131.953 565.264 483.977
3486 0 55.1068 14.0454 774 134.448 565.022 482.619
3487 0 57.1696 14.6581 838 133.016 565.427 481.029
3488 0 58.1524 14.8747 865 133.373 565.369 480.745
3489 0 60.0865 14.6123 878 135.267 565.14 479.252
3490 0 64.1665 15.8494 1017 130.693 564.978 478.593
3491 0 66.1917 14.5789 965 134.85 565.511 478.382
3492 0 68.1178 15.2236 1037 133.279 564.722 477.741
3493 0 71.104 15.0203 1068 134.708 564.88 476.181
3494 0 73.108 14.7863 1081 135.234 565.121 474.837
3495 1 38.0441 14.194 540 136.794 565.23 491.72
3496 0 41.0237 14.6744 602 132.975 564.543 485.023
3497 0 41.0794 14.6302 601 135.281 564.334 490.201
3498 0 43.0958 14.6418 631 133.807 564.818 489.274
3499 0 42.0819 14.8045 623 134.77 564.923 489.241
3500 0 44.0436 14.4402 636 134.846 565.046 488.354
3501 0 44.0221 14.7426 649 135.297 565.425 488.527
3502 0 46.1055 14.7922 682 135.169 565.097 487.04
3503 0 47.0899 14.398 678 137.445 565.652 487.133
3504 0 49.0694 15.2437 748 135.282 566.028 485.806
3505 0 50.0651 15.5597 779 135.847 565.703 485.341
3506 0 50.0726 14.8185 742 139.664 565.704 485.249
3507 0 53.0393 16.2521 862 134.799 565.845 484.72
3508 0 53.118 15.0985 802 140.388 566.281 484.393
3509 0 56.0501 15.2364 854 140.286 566.411 482.007
3510 0 57.0411 15.2522 870 142.337 566.284 481.916
3511 0 58.0271 16.0959 934 140.618 566.135 482.825
3512 0 62.0923 15.8796 986 140.639 566.106 480.372
3513 0 62.0839 16.0267 995 142.454 565.577 480.796
3514 0 65.1043 15.6211 1017 144.049 565.596 479.62
3515 0 66.0925 14.8731 983 147.949 566.032 479.221
3516 0 69.049 16.0611 1109 143.848 565.699 477.548
3517 0 71.09 16.0079 1138 147.562 565.122 476.982
3518 0 72.0618 15.6532 1128 150.493 565.104 475.204
3519 0 74.0845 15.8873 1177 151.616 564.96 474.25
3520 0 76.0575 15.3831 1170 153.735 565.045 472.993
3521 0 78.2245 14.6374 1145 155.509 565.261 474.109
3522 0 81.1988 15.1234 1228 152.907 564.82 471.243
3523 0 83.18 15.4965 1289 151.983 565.332 469.057
3524 0 88.1306 15.3295 1351 149.89 564.977 469.753
3525 0 90.1972 15.2444 1375 148.732 565.207 468.639
3526 0 95.1991 15.7354 1498 145.995 565.569 464.276
3527 0 98.1827 15.7767 1549 145.052 565.491 465.182
3528 0 103.245 16.1945 1672 141.736 564.826 462.017
3529 1 50.1227 15.5618 780 152.026 565.854 486.046
3530 0 53.0507 14.3071 759 156.261 565.282 485.076
3531 0 52.0697 15.4216 803 155.372 565.776 484.63
3532 0 55.047 16.168 890 150.779 566.494 483.592
3533 0 57.0562 16.2471 927 149.168 566.715 483.847
3534 0 59.0511 15.9015 939 151.76 565.821 483.003
3535 0 62.1069 16.3267 1014 149.804 565.614 482.143
3536 0 62.073 15.8362 983 153.628 565.975 479.709
3537 0 66.0333 16.6128 1097 149.63 565.902 480.038
3538 0 67.1026 17.287 1160 149.71 565.424 476.948
3539 0 69.0862 15.98 1104 154.01 565.13 476.549
3540 0 73.0511 17.1797 1255 148.761 566.003 476.124
3541 0 74.0822 17.7101 1312 147.3 566.332 476.941
3542 0 75.1216 16.7196 1256 152.834 565.731 472.821
3543 0 79.1596 17.092 1353 150.192 565.621 473.168
3544 0 81.1312 16.5534 1343 152.394 565.854 471.096
3545 0 84.1163 16.7744 1411 151.178 566.978 469.796
3546 0 86.0956 16.412 1413 153.768 566.357 469.645
3547 0 91.1471 17.4443 1590 148.852 566.238 467.495
3548 0 91.1271 16.3947 1494 154.106 565.821 466.707
3549 0 95.207 16.1333 1536 154.619 566.471 464.536
3550 0 100.224 16.6328 1667 151.999 566.277 462.913
3551 0 103.195 16.8419 1738 151.881 566.214 461.047
3552 0 107.257 17.0898 1833 150.119 566.189 460.6
3553 0 110.178 16.4823 1816 153.002 565.663 457.155
3554 0 115.219 16.742 1929 150.993 565.507 457.998
3555 0 118.314 17.8846 2116 147.732 566.075 454.853
3556 0 123.214 16.5079 2034 151.828 565.451 454.235
3557 0 125.282 16.3312 2046 152.966 566.185 450.719
3558 0 131.059 16.6796 2186 151.027 565.601 449.297
3559 0 137.31 18.4618 2535 142.669 565.576 447.485
3560 0 141.21 16.5923 2343 148.097 565.548 443.824
3561 1 106.094 15.8915 1686 154.227 565.528 461.769
3562 0 111.135 16.0796 1787 153.505 566.08 460.527
3563 0 113.311 15.8149 1792 156.559 565.566 457.693
3564 0 116.368 15.5369 1808 157.69 565.732 458.251
3565 0 120.117 16.0843 1932 156.276 565.271 454.167
3566 0 126.214 16.5355 2087 153.479 564.779 454.242
3567 0 128.219 16.2378 2082 155.145 565.771 452.899
3568 0 132.153 16.2842 2152 156.067 565.882 448.531
3569 0 137.185 16.5834 2275 154.249 566.135 447.397
3570 0 141.233 16.2426 2294 156.068 565.715 446.185
3571 0 146.264 15.725 2300 158.597 565.206 440.693
3572 0 152.186 16.1644 2460 155.208 565.967 442.221
3573 0 158.217 16.0096 2533 155.147 565.902 439.074
3574 0 164.283 15.2968 2513 157.331 565.802 433.464
3575 0 170.429 15.0854 2571 157.346 565.392 431.243
3576 1 143.444 14.5701 2090 159.999 566.18 443.746
3577 1 55.1477 12.1673 671 146.224 566.438 487.125
3578 0 57.0246 13.4854 769 143.468 566.147 484.993
3579 0 63.1159 14.5764 920 144.678 566.053 484.136
3580 0 66.2679 13.8529 918 145.285 566.67 482.993
3581 0 67.1235 12.1567 816 150.706 565.875 480.85
3582 0 70.3048 13.5553 953 146.271 565.931 479.333
3583 0 73.1218 13.0877 957 146.079 566.059 478.859
3584 0 74.1481 13.0145 965 146.737 565.546 475.597
3585 0 77.1699 12.8936 995 144.669 565.971 474.921
3586 0 82.2563 12.5218 1030 141.988 566.144 473.08
3587 0 85.1265 12.781 1088 139.878 566.648 471.474
3588 0 87.2889 12.304 1074 141.128 566.152 469.375
3589 0 90.1957 11.5416 1041 143.068 566.594 467.861
3590 0 94.2511 12.4455 1173 139.588 566.325 465.72
3591 0 98.2353 11.2383 1104 142.238 566.06 466.113
3592 1 52.1045 12.2062 636 143.491 567.101 486.396
3593 0 57.1351 12.5667 718 142.809 566.504 485.199
3594 0 57.0727 13.877 792 140.062 566.937 486.02
3595 0 60.1461 12.7855 769 143.399 566.32 485.291
3596 0 61.0876 13.9144 850 141.584 566.295 481.674
3597 0 62.0544 12.6341 784 145.189 566.085 482.167
3598 0 63.1141 13.1666 831 144.521 566.416 481.404
3599 0 66.1557 13.7101 907 143.82 565.552 481.112
3600 0 69.2058 13.8717 960 143.123 566.071 479.721
3601 0 70.1194 12.2078 856 148.38 565.956 480.643
3602 0 71.0697 12.9169 918 150.296 565.453 477.231
3603 0 76.1293 13.2275 1007 148.499 566.058 477.06
3604 0 80.2492 13.9316 1118 146.165 565.547 474.996
3605 0 81.1399 14.0128 1137 147.481 565.898 472.776
3606 0 82.2149 13.1971 1085 149.651 566.047 474.998
3607 0 86.1558 12.0944 1042 153.581 565.961 473.56
3608 0 87.1294 13.2102 1151 149.393 566.312 469.879
3609 1 44.0538 12.4393 548 151.237 567.558 492.297
3610 0 42.0529 13.1977 555 152.89 567.759 491.89
3611 0 44.2607 12.946 573 152.274 566.825 491.016
3612 0 47.3171 14.1386 669 145.61 566.689 490.347
3613 0 48.2017 13.6925 660 140.083 566.559 489.002
3614 0 49.4657 14.1714 701 137.712 566.675 488.498
3615 0 48.2604 11.7488 567 146.847 567.159 487.81
3616 0 50.2498 13.0349 655 142.861 567.063 486.685
3617 0 54.1739 13.3459 723 139.617 567.256 486.339
3618 0 55.201 13.315 735 139.563 567.78 486.573
3619 0 56.1662 12.8725 723 140.848 567.216 485.914
3620 0 58.2095 12.9189 752 141.557 567.83 483.499
3621 0 60.1957 13.9046 837 138.572 566.921 482.97
3622 0 60.1696 13.5118 813 140.977 567.459 482.469
3623 0 61.1515 12.8697 787 142.445 567.658 483.072
3624 0 66.2463 14.2951 947 137.997 566.768 482.073
3625 0 67.207 14.0759 946 140.188 567.154 482.037
3626 0 69.3604 13.7687 955 140.933 566.865 480.474
3627 0 69.2041 13.9876 968 142.677 566.876 477.941
3628 0 71.2041 12.401 883 146.383 567.079 479.453
3629 0 74.1881 13.3849 993 143.627 566.32 479.529
3630 0 77.2872 14.1291 1092 140.057 566.798 478.732
3631 0 80.1788 13.869 1112 141.81 566.573 475.751
3632 0 83.3136 14.2834 1190 139.241 567.465 475.566
3633 0 82.2825 13.5873 1118 144.169 566.772 474.223
3634 0 85.1696 13.796 1175 143.13 566.654 472.916
3635 0 89.1301 13.901 1239 142.567 566.816 470.464
3636 0 93.1579 14.4701 1348 139.611 567.297 471.68
3637 0 93.1917 13.6278 1270 143.776 567.551 467.772
3638 0 96.1805 13.9217 1339 142.285 567.199 466.824
3639 0 101.356 13.1221 1330 143.278 567.063 467.152
3640 1 52.0953 13.5713 707 143.857 567.12 488.156
3641 0 53.0702 12.8321 681 145.555 568.186 487.389
3642 0 56.1253 13.9866 785 141.966 567.451 485.906
3643 0 58.1245 14.8818 865 138.853 567.501 485.884
3644 0 60.0999 15.5075 932 137.499 567.087 484.002
3645 0 61.2811 13.6584 837 143.13 567.575 483.005
3646 0 63.1426 14.0634 888 142.543 567.319 483.51
3647 0 64.1478 14.1704 909 143.424 567.426 482.321
3648 0 67.2207 15.159 1019 140.286 567.402 480.484
3649 0 67.0608 14.8671 997 143.382 567.234 478.535
3650 0 72.1947 15.4305 1114 139.38 566.715 480.136
3651 0 72.0818 15.4963 1117 141.756 566.604 479.897
3652 0 73.2209 14.3675 1052 145.757 567.247 478.766
3653 0 75.143 15.5969 1172 142.588 566.624 477.455
3654 0 79.2782 15.4772 1227 142.897 565.85 476.467
3655 0 79.1856 14.8512 1176 146.931 566.901 476.207
3656 0 82.1658 15.5417 1277 146.777 566.329 474.326
3657 0 84.254 15.4058 1298 148.05 566.7 474.295
3658 0 86.215 15.009 1294 150.564 566.696 473.216
3659 0 87.2442 16.1845 1412 148.06 566.661 470.791
3660 0 91.2695 15.3282 1399 150.671 566.916 470.064
3661 0 94.2377 16.1825 1525 148.162 566.543 469.453
3662 0 95.2519 16.1677 1540 150.237 566.169 467.279
3663 0 98.4283 15.016 1478 154.777 566.126 465.037
3664 0 104.358 15.4947 1617 151.854 566.168 462.427
3665 0 106.615 15.5512 1658 152.73 566.417 460.97
3666 0 109.292 16.5886 1813 150.359 565.933 459.735
3667 0 114.386 16.3918 1875 150.102 565.695 457.882
3668 0 117.24 15.6517 1835 153.228 565.738 457.11
3669 0 123.414 16.546 2042 148.965 565.75 455.358
3670 0 126.506 15.6593 1981 152.696 566.051 453.288
3671 0 130.388 16.5659 2160 150.046 566.021 449.244
3672 1 70.5584 14.0026 988 148.474 566.334 480.567
3673 0 72.4521 13.7332 995 150.492 566.558 479.477
3674 0 75.4209 14.1605 1068 148.393 566.524 478.71
3675 0 77.2936 13.3646 1033 150.857 566.671 476.753
3676 0 80.3935 13.2847 1068 149.154 566.147 476.379
3677 0 83.4666 12.5559 1048 151.829 566.294 474.524
3678 0 83.4506 13.493 1126 151.448 566.474 470.328
3679 0 90.4223 13.3927 1211 149.051 566.555 470.562
3680 0 90.416 12.4535 1126 155.989 566.417 466.71
3681 0 92.4914 13.6878 1266 152.939 565.863 466.434
3682 0 97.4883 13.9196 1357 151.929 565.92 464.275
3683 0 99.4607 13.2716 1320 155.417 565.654 462.64
3684 0 102.652 13.4435 1380 154.136 565.96 462.159
3685 0 105.546 13.5865 1434 155.077 566.043 458.907
3686 0 108.579 13.9437 1514 153.639 565.654 458.336
3687 0 110.619 13.6505 1510 156.931 565.152 455.796
3688 0 115.587 13.0724 1511 159.167 565.039 454.285
3689 0 118.611 14.2652 1692 156.314 565.07 451.814
3690 0 122.54 13.1467 1611 159.731 565.333 451.174
3691 0 124.489 13.1256 1634 162.395 565.362 447.944
3692 0 126.652 12.3961 1570 167.237 564.212 443.96
3693 0 132.512 14.0892 1867 160.562 564.516 442.75
3694 0 135.644 14.4865 1965 160.198 564.649 441.876
3695 0 140.5 13.7437 1931 163.485 564.766 439.602
3696 0 143.411 13.416 1924 165.224 564.554 439.228
3697 0 145.496 13.5949 1978 168.061 564.555 433.596
3698 1 31.2371 7.84325 245 120.649 566.563 500.527
3699 0 37.3499 5.16735 193 124.456 566.311 501.088
3700 0 37.21 6.423 239 120.594 566.64 500.46
3701 0 40.2418 7.30583 294 119.946 566.371 495.779
3702 0 44.2282 7.59697 336 119.238 566.345 494.372
3703 0 40.2659 6.28323 253 118.862 565.826 499.241
3704 0 36.1435 7.9129 286 115.78 565.916 499.605
3705 0 36.1887 8.01354 290 114.124 566.045 498.731
3706 0 35.0186 8.59543 301 111.963 566.296 498.276
3707 0 34.1587 8.69472 297 113.145 566.7 499.485
3708 0 35.0732 9.12378 320 112.816 566.062 499.994
3709 0 37.1797 9.38685 349 110.865 566.367 497.562
3710 0 39.2086 8.59505 337 112.199 566.54 497.145
3711 0 39.2526 11.1075 436 107.745 566.394 496.945
3712 0 37.4146 5.37223 201 124.423 566.174 500.045
3713 0 37.4159 5.85313 219 127.151 566.215 497.626
3714 0 35.6932 5.7434 205 131.527 565.888 497.18
3715 0 36.3169 8.20555 298 128.416 565.909 493.842
3716 0 37.3475 7.36327 275 128.047 566.571 495.156
3717 0 36.1958 6.76874 245 128.873 566.139 495.551
3718 0 38.2988 5.01321 192 128.589 566.766 497.578
3719 0 35.2923 5.95031 210 125.367 566.576 497.219
3720 0 36.2768 7.00173 254 126.39 566.295 494.732
3721 1 205.897 13.4679 2773 177.735 564.872 401.316
3722 0 209.532 13.1197 2749 180.612 564.839 396.468
3723 0 218.32 13.9841 3053 175.542 564.699 398.542
3724 0 224.148 14.0398 3147 176.375 564.725 392.448
3725 0 231.591 14.1543 3278 173.744 564.615 392.75
3726 0 237.26 13.618 3231 179.822 564.684 383.141
3727 1 29.132 8.10106 236 115.674 565.763 499.907
3728 0 28.1628 7.03054 198 117.217 565.571 498.606
3729 0 28.1099 7.79084 219 115.598 565.438 498.333
3730 0 29.0147 6.72072 195 114.928 564.979 500.405
3731 0 25.121 8.0809 203 114.768 566.379 499.005
3732 0 19.0094 7.78562 148 117.426 566.439 501.257
3733 0 23.025 8.33875 192 115.062 566.818 500.698
3734 0 24.0116 7.41309 178 114.079 566.601 501.826
3735 0 20.0219 6.54282 131 117.618 566.481 501.878
3736 0 21.0201 8.37292 176 114.04 566.75 501.506
3737 0 18.0394 6.76299 122 119.557 567.049 501.918
3738 0 16.1453 7.30865 118 118.729 565.915 502.398
3739 0 18.0057 7.10887 128 117.625 565.977 503.273
3740 0 19.0364 7.14421 136 117.162 566.765 502.971
3741 0 14.033 2.85042 40 90.15 567.1 501.9
3742 0 15.0263 4.85815 73 121.658 567.151 504.247
3743 0 18.0036 7.27634 131 117.336 566.443 503.336
3744 0 16.014 3.43451 55 126.218 566.564 503.8
3745 0 18.034 7.65223 138 119.283 567.217 502.21
3746 0 17.013 6.17177 105 119.924 567.886 503.286
3747 0 17.0568 7.91473 135 119.378 566.726 502.681
3748 0 18.0216 8.48981 153 118.66 567.222 502.431
3749 0 16.008 6.05945 97 123.216 567.629 502.845
3750 0 16.0575 7.22406 116 122.655 567.759 501.707
3751 0 16.0019 6.6867 107 121.972 567.131 503.206
3752 0 16.0081 7.55867 121 121.058 567.488 502.653
3753 0 16.0019 6.18677 99 120.111 567.798 504
3754 0 15.1058 7.21575 109 119.633 567.752 502.651
3755 0 15.0038 5.86519 88 123.318 568.25 503.75
3756 0 15.0223 6.19081 93 120.237 567.172 505.043
3757 0 12.0048 6.58073 79 121.038 567.696 505.203
3758 0 15.0145 6.72681 101 119.406 569.089 505.218
3759 0 16.0355 7.79521 125 116.76 568.952 504.688
3760 0 16.017 5.49416 88 119.466 569.341 504.977
3761 0 14.0032 4.92743 69 123.841 569.014 504.319
3762 0 14.0033 4.99882 70 123.886 569.029 504.571
3763 0 15.0036 6.59843 99 117.909 569.333 505.455
3764 0 13.0148 6.06999 79 120.494 569.886 505.228
3765 0 13.0105 5.76459 75 121.907 569.413 505.413
3766 0 15.0088 8.52832 128 116.93 569.672 505.273
3767 0 16.0487 5.91947 95 120.821 569.8 505.295
3768 0 16.0104 8.1197 130 118.138 570.254 504.485
3769 0 17.0179 9.22557 157 118.363 569.713 503.032
3770 0 14.0009 6.57102 92 124.272 569.315 503.728
3771 0 17.028 9.22009 157 119.115 569.809 502.975
3772 0 19.0943 8.11759 155 121.31 568.729 503.445
3773 0 19.0347 7.24991 138 123.87 568.261 503.464
3774 0 16.0134 8.24309 132 120.273 568.955 505.341
3775 0 20.0764 9.41403 189 120.101 569.196 503.238
3776 0 20.0488 7.53164 151 120.219 568.795 504.609
3777 0 19.2131 8.95222 172 120.86 569.657 503.709
3778 0 418.707 14.8314 6210 143.013 566.252 308.648
3779 0 418.351 15.5826 6519 134.852 566.306 311.516
3780 1 374.336 20.6606 7734 111.086 565.918 330.843
3781 1 216.91 13.72 2976 131.38 565.63 409.368
3782 0 216.743 13.5091 2928 133.217 566.553 409.797
3783 0 223.807 12.4482 2786 135.742 566.11 408.949
3784 0 228.937 15.1527 3469 128.776 566.368 405.923
3785 0 233.182 13.8261 3224 134.236 565.401 401.25
3786 0 236.869 14.3666 3403 133.396 565.496 400.541
3787 0 247.699 14.4126 3570 133.746 565.993 395.473
3788 1 292.602 11.7293 3432 131.9 565.478 384.021
3789 1 91.4726 11.2602 1030 133.823 565.123 471.302
3790 0 95.7214 13.6542 1307 128.37 565.106 468.663
3791 0 96.4627 14.4823 1397 127.331 565.533 465.027
3792 0 97.6554 14.0392 1371 128.191 565.31 466.071
3793 0 100.657 14.1271 1422 127.347 565.851 465.489
3794 0 104.62 14.8442 1553 124.668 565.646 464.963
3795 0 105.664 14.4798 1530 125.46 565.666 462.569
3796 0 107.795 14.843 1600 124.315 565.681 463
3797 0 110.739 14.8095 1640 124.52 565.429 460.063
3798 0 111.575 14.618 1631 125.675 565.642 461.611
3799 0 110.593 13.2648 1467 130.907 565.466 459.63
3800 0 114.897 14.4564 1661 127.004 566.02 456.452
3801 0 114.82 14.0307 1611 128.848 565.803 457.478
3802 0 117.581 13.5906 1598 129.161 565.797 457.076
3803 0 119.562 14.4361 1726 128.023 565.834 456.128
3804 0 120.779 14.274 1724 129.606 566.489 452.588
3805 0 122.422 16.0266 1962 124.967 566.371 451.292
3806 0 124.514 14.8176 1845 127.625 566.554 451.36
3807 0 126.53 15.4904 1960 125.941 567.136 449.648
3808 0 129.578 14.9794 1941 127.626 566.754 449.175
3809 0 130.694 14.1628 1851 130.506 567.077 446.37
3810 0 131.567 13.8561 1823 132.826 566.701 444.1
3811 0 135.721 14.7508 2002 131.894 566.799 441.423
3812 0 138.592 14.705 2038 131.16 566.347 445.043
3813 0 141.626 10.9655 1553 111.853 565.625 452.381
3814 0 145.43 10.885 1583 112.154 566.166 450.413
3815 0 147.414 11.1522 1644 110.912 565.731 448.254
3816 1 39.0572 11.6496 455 121.884 567.327 496.936
3817 0 39.1887 12.7078 498 121.869 566.504 495.831
3818 0 37.1707 10.519 391 119.22 568.225 497.399
3819 0 36.1741 10.173 368 121.88 567.832 496.761
3820 0 38.061 12.9529 493 115.193 567.245 496.941
3821 0 39.0651 12.2872 480 116.448 567.452 496.617
3822 0 42.0901 12.3069 518 114.894 567.127 494.579
3823 0 43.1303 12.3579 533 114.946 567.625 494.572
3824 0 44.1258 11.9205 526 115.029 567.726 494.074
3825 0 44.0641 10.8705 479 117.305 567.785 493.741
3826 0 46.0847 11.7827 543 115.762 567.4 492.302
3827 0 47.1829 11.0421 521 116.935 567.649 492.631
3828 0 49.4295 11.046 546 116.372 567.588 491.846
3829 0 49.1414 12.2911 604 115.114 567.844 489.661
3830 0 52.1583 12.0403 628 114.839 567.822 488.968
3831 0 52.1856 11.8998 621 115.886 568.113 489.201
3832 0 58.1698 12.7729 743 112.175 567.724 488.307
3833 0 56.1843 11.0529 621 116.752 568.325 488.618
3834 0 58.3486 12.1511 709 114.449 568.815 486.914
3835 0 60.0875 12.1157 728 115.772 567.967 485.223
3836 0 62.2877 12.6349 787 114.249 567.869 483.977
3837 0 66.1676 11.8336 783 115.1 567.384 483.511
3838 0 68.2742 12.816 875 113.037 566.931 483.474
3839 0 68.209 11.8899 811 117.322 566.788 481.253
3840 0 73.3951 12.9028 947 113.612 566.655 478.568
3841 0 76.4376 11.6697 892 115.391 566.815 479.455
3842 1 41.1666 11.5142 474 117.289 567.93 494.84
3843 0 41.0879 10.9765 451 119.812 568.279 492.61
3844 0 44.0685 12.4806 550 115.489 568.205 493.291
3845 0 40.0235 12.1679 487 111.23 567.452 493.474
3846 0 42.0356 12.9652 545 108.13 568.017 493.284
3847 0 43.1654 10.8189 467 112.955 567.779 493.173
3848 0 45.0681 11.4715 517 110.456 567.973 492.94
3849 0 47.0845 11.5749 545 110.259 567.018 491.295
3850 0 47.1076 11.9726 564 109.413 567.163 490.502
3851 0 49.0526 11.3755 558 109.129 567.256 490.559
3852 0 51.1425 11.0476 565 109.538 567.414 490.743
3853 0 50.0977 10.8788 545 111.204 568.213 489.839
3854 0 52.0834 11.0208 574 110.23 567.798 488.528
3855 0 53.1098 10.9584 582 111.086 567.821 489.254
3856 0 56.1087 12.1372 681 107.435 567.803 488.015
3857 0 57.0959 11.6296 664 109.658 567.569 486.643
3858 0 57.0624 10.655 608 112.569 567.727 484.454
3859 0 61.0689 11.9373 729 108.955 567.346 483.808
3860 0 62.0608 10.5864 657 112.333 567.417 483.463
3861 0 64.1337 10.0415 644 112.61 566.196 480.571
3862 0 68.1166 10.6582 726 110.831 566.814 481.97
3863 0 71.2189 12.2018 869 106.652 566.441 479.992
3864 0 74.1755 11.9042 883 107.414 566.832 479.089
3865 0 76.2046 11.8366 902 107.453 566.969 478.701
3866 0 81.125 10.6749 866 109.47 566.014 475.997
3867 1 44.0332 12.1953 537 108.803 566.978 493.022
3868 0 45.112 10.9949 496 109.972 566.998 491.944
3869 0 43.2814 9.68082 419 114.513 566.826 492.919
3870 0 46.0802 12.4566 574 108.355 566.497 491.409
3871 0 48.0552 11.5284 554 110.011 567.056 492.605
3872 0 50.0882 11.6395 583 109.278 566.664 490.99
3873 0 54.1402 12.8925 698 105.371 566.95 490.271
3874 0 53.1214 11.3325 602 111.252 566.385 489.163
3875 0 54.0444 10.6024 573 111.525 566.766 489.461
3876 0 57.0633 11.5836 661 108.991 567.103 488.348
3877 0 58.1107 12.7171 739 107.658 566.014 485.237
3878 0 60.1881 11.7299 706 109.494 567.075 485.493
3879 0 62.1611 12.3228 766 108.333 566.879 484.332
3880 0 63.2011 12.1359 767 108.795 566.276 485.235
3881 0 68.1627 13.4238 915 105.047 566.537 482.717
3882 0 70.1366 11.278 791 109.169 566.646 482.938
3883 0 70.1497 12.5731 882 108.451 566.111 479.424
3884 0 75.2667 11.519 867 109.586 566.603 480.096
3885 0 76.1573 11.7126 892 109.655 566.711 481.334
3886 1 40.0613 10.8584 435 112.811 567.683 496.389
3887 0 40.0393 11.7135 469 112.431 567.91 495.761
3888 0 41.0754 11.8319 486 117.121 566.607 495.479
3889 0 44.1055 12.5381 553 116.454 566.848 494.472
3890 0 42.1464 12.504 527 110.015 565.884 495.231
3891 0 42.1646 11.3365 478 112.341 566.274 495.521
3892 0 45.1105 12.68 572 108.841 565.794 494.365
3893 0 44.1218 12.4202 548 111.155 565.732 493.276
3894 0 47.078 12.7236 599 109.491 565.886 493.459
3895 0 48.1159 11.4307 550 112.265 566.191 492.935
3896 0 50.1164 11.9721 600 111.93 566.122 490.688
3897 0 52.1552 12.6354 659 108.83 565.857 490.467
3898 0 55.086 12.5077 689 108.042 565.521 489.893
3899 0 56.0656 11.986 672 110.077 565.597 489.405
3900 0 57.0964 12.4877 713 109.223 565.642 488.365
3901 0 58.1524 12.5016 727 112.912 564.981 486.986
3902 0 61.0934 13.242 809 106.031 565.451 487.991
3903 0 64.1053 13.9458 894 104.238 565.303 486.101
3904 0 65.1333 12.4207 809 109.24 564.674 485.156
3905 0 68.1056 12.6715 863 107.322 564.754 485.122
3906 0 70.0836 13.17 923 107.171 565.054 483.199
3907 0 73.1988 13.2243 968 106.6 565.431 482.068
3908 0 74.0594 11.5583 856 111.759 565.641 481.381
3909 0 75.0866 12.0528 905 110.943 564.893 482.415
3910 0 80.078 12.9624 1038 108.879 565.758 480.026
3911 0 80.2074 11.6822 937 113.425 564.695 478.044
3912 0 84.2433 13.7934 1162 108.632 565.282 476.015
3913 0 87.1151 13.1435 1145 110.203 565.027 476.659
3914 1 47.0661 12.8543 605 113.149 565.479 496.302
3915 0 48.0696 12.4819 600 116.855 566.285 493.395
3916 0 44.0606 11.5977 511 114.93 565.235 496.266
3917 0 46.0291 11.2103 516 115.44 565.455 496.337
3918 0 47.0483 13.0504 614 112.906 564.982 493.396
3919 0 49.0577 12.4139 609 114.535 565.143 493.432
3920 0 46.12 10.2992 475 120.577 565.747 494.478
3921 0 50.012 12.1771 609 117.195 565.718 492.744
3922 0 52.097 13.1869 687 115.406 565.003 491.394
3923 0 55.1018 12.1049 667 117.982 565.391 490.825
3924 0 58.1965 13.0248 758 113.753 565.05 491.28
3925 0 55.0588 10.1528 559 122.608 565.095 493.095
3926 0 61.0758 13.0821 799 116.021 564.906 488.592
3927 0 61.0687 11.6918 714 120.913 564.641 489
3928 0 63.104 11.5207 727 121.922 564.422 489.431
3929 0 65.1073 12.4871 813 121.326 565.363 486.764
3930 0 68.1173 12.7574 869 120.338 565.096 485.64
3931 0 71.1235 13.0196 926 118.739 564.673 485.965
3932 0 72.3763 11.0533 800 123.975 565.146 485.933
3933 0 76.2234 12.4765 951 122.091 565.816 482.135
3934 0 78.2613 13.161 1030 121.995 565.113 479.117
3935 1 41.0777 12.7076 522 124.443 565.64 497.14
3936 0 42.0613 12.3867 521 124.198 566.084 497.417
3937 0 43.1099 12.5029 539 123.952 566.36 497.148
3938 0 41.0899 12.7525 524 119.817 565.851 496.504
3939 0 42.1354 12.6734 534 120.504 565.728 495.609
3940 0 45.1404 12.162 549 119.208 565.783 497.719
3941 0 45.1173 11.2595 508 122.843 565.854 495.504
3942 0 47.1425 12.8971 608 119.051 565.016 494.454
3943 0 49.0725 12.186 598 120.137 564.965 494.93
3944 0 50.0727 12.9811 650 119.018 565.692 492.975
3945 0 51.0695 13.1194 670 119.71 565.222 492.393
