time division length width area intensity CMx CMy
0 0 45.0203 12.3944 558 128.102 125.579 479.211
1 0 48.0262 12.9721 623 125.196 125.979 478.608
2 0 51.0142 15.1134 771 118.824 125.399 478.399
3 0 50.069 14.1205 707 123.818 126.025 477.607
4 0 52.0629 14.252 742 122.031 126.121 478.554
5 0 54.1681 14.5842 790 121.435 126.12 477.28
6 0 55.1914 13.9877 772 123.538 126.058 476.136
7 0 56.052 14.2725 800 122.604 125.921 475.335
8 0 57.158 13.6989 783 122.246 126.186 476.149
9 0 58.0697 14.7754 858 119.821 125.762 475.168
10 0 60.0776 15.8961 955 118.208 125.44 472.405
11 0 62.0496 13.5859 843 121.516 125.822 474.363
12 0 63.0907 15.0735 951 118.476 125.431 473.251
13 0 67.1006 15.8568 1064 115.417 125.072 472.789
14 0 68.0722 15.1457 1031 117.859 124.557 471.799
15 0 70.1253 14.0891 988 120.596 125.178 471.105
16 0 73.2224 15.2003 1113 117.768 124.355 471.116
17 0 75.2239 14.849 1117 117.209 124.53 471.822
18 0 77.2098 14.5577 1124 117.794 124.632 469.438
19 1 43.0733 12.8618 554 116.112 124.2 487.478
20 0 43.0358 13.3377 574 115.854 124.017 485.409
21 0 44.0177 12.1315 534 117.451 124.326 487.326
22 0 45.1382 12.7165 574 117.645 123.183 485.721
23 0 47.1192 15.5351 732 112.191 123.663 484.326
24 0 48.0276 13.9919 672 115.466 124.911 485.692
25 0 50.0541 13.865 694 115.186 124.702 485.071
26 0 51.0363 15.0481 768 112.811 124.674 483.887
27 0 52.1082 15.2375 794 112.96 124.025 482.907
28 0 54.029 15.6768 847 111.661 124.064 480.737
29 0 57.1669 16.7055 955 108.207 124.095 481.54
30 0 58.0518 14.4181 837 113.303 124.312 480.019
31 0 58.12 14.9346 868 113.368 123.817 480.93
32 0 59.0596 13.9181 822 116.527 123.72 481.339
33 0 61.0634 13.8217 844 117.001 123.761 479.536
34 0 65.1949 14.9245 973 113.836 123.486 477.673
35 0 67.0909 16.023 1075 112.959 122.999 475.82
36 0 68.1249 12.5652 856 118.953 123.14 478.044
37 0 71.1778 15.0468 1071 112.899 123.246 474.375
38 0 75.1807 14.6048 1098 111.803 123.207 474.491
39 0 76.4212 15.6239 1194 109.646 122.761 471.059
40 0 76.1402 16.2069 1234 109.696 122.005 469.171
41 0 79.1139 14.6877 1162 111.461 122.365 467.54
42 0 82.1227 13.9547 1146 112.241 122.477 467.406
43 0 87.1953 13.2117 1152 111.244 122.328 469.853
44 0 88.1777 14.3687 1267 109.15 122.626 465.386
45 0 91.0924 15.0616 1372 108.664 122.544 463.912
46 1 45.0241 13.7926 621 109.24 122.303 484.786
47 0 42.0305 12.6813 533 111.79 121.709 483.501
48 0 47.1191 12.7761 602 108.929 121.023 484.199
49 0 50.081 14.4965 726 103.24 122.099 485.974
50 0 52.078 12.078 629 107.342 122.312 484.695
51 0 54.0782 14.8119 801 103.223 122.408 483.37
52 0 60.424 18.5191 1119 72.9946 121.877 481.544
53 0 59.1804 13.4842 798 104.986 122.211 480.199
54 0 62.1544 13.4986 839 107.144 121.504 479.172
55 0 64.2466 13.526 869 107.298 120.822 478.02
56 0 66.2595 15.6808 1039 102.884 121.429 477.523
57 0 69.1571 14.5611 1007 104.023 121.164 478.057
58 0 71.0968 13.6012 967 106.823 121.352 475.862
59 0 75.1355 16.2107 1218 102.744 121.516 472.822
60 0 78.192 15.1166 1182 107.2 121.767 472.73
61 0 80.1638 15.7178 1260 107.166 121.415 472.253
62 0 83.2206 15.6091 1299 107.912 121.597 469.995
63 0 83.1654 14.6936 1222 110.629 121.67 470.31
64 0 87.2125 14.5965 1273 110.134 121.231 468.332
65 0 91.4332 15.6289 1429 107.471 120.716 464.229
66 1 49.1135 13.764 676 100.75 122.152 487.919
67 0 47.1584 12.2566 578 104.396 121.76 487.815
68 0 53.0585 13.3061 706 101.426 121.445 487.392
69 0 55.1189 14.9676 825 98.7188 120.456 484.876
70 0 56.0928 13.4242 753 101.535 120.187 485.712
71 0 58.1047 14.2329 827 101.039 120.325 483.969
72 0 61.0335 12.9273 789 103.105 120.867 483.393
73 0 63.0893 12.9499 817 104.119 120.37 482.12
74 0 65.1189 13.053 850 103.976 120.824 481.406
75 0 67.0504 14.0939 945 102.634 120.976 481.256
76 0 68.129 14.3258 976 104.363 120.14 478.965
77 0 71.1758 14.6398 1042 102.432 120.997 478.903
78 0 72.1194 12.923 932 106.575 120.657 475.621
79 0 74.1036 13.6161 1009 105.267 120.874 475.8
80 0 79.0713 14.4932 1146 104.662 120.576 475.065
81 0 80.0887 13.0231 1043 107.64 120.1 475.352
82 0 83.1151 13.7761 1145 107.736 119.776 469.686
83 1 43.0791 11.4905 495 105.042 120.818 491.933
84 0 44.0902 12.2249 539 104.247 120.555 492.497
85 0 47.0406 14.6894 691 101.86 120.913 489.876
86 0 49.0454 13.4365 659 105.595 120.475 488.851
87 0 49.1471 12.9814 638 104.136 120.976 490.172
88 0 52.0696 13.021 678 105.426 120.742 488.839
89 0 51.1307 12.3018 629 107.396 120.688 489.402
90 0 54.1412 13.8896 752 104.725 120.626 486.896
91 0 55.0824 14.0517 774 105.435 120.328 485.26
92 0 56.0985 13.5654 761 106.938 120.057 485.852
93 0 59.0798 13.6595 807 105.981 119.782 484.388
94 0 61.1082 14.3516 877 105.732 120.068 482.193
95 0 62.1498 13.1296 816 107.835 119.752 483.654
96 0 66.1092 14.3702 950 105.145 120.253 482.979
97 0 69.2048 14.6088 1011 104.46 120.48 482.146
98 0 71.2141 14.8847 1060 105.325 120.458 478.194
99 0 74.1736 14.2234 1055 107.102 120.259 477.536
100 0 78.1668 15.1215 1182 110.936 119.827 474.844
101 0 79.2212 14.2512 1129 112.332 120.059 475.311
102 0 84.1544 16.0657 1352 106.888 120.434 471.497
103 0 85.3471 14.3414 1224 110.828 120.142 470.649
104 0 90.1744 13.485 1216 110.118 120.195 470.002
105 0 92.2839 15.4415 1425 106.921 119.813 468.953
106 0 96.232 14.6209 1407 107.466 120.339 466.492
107 1 50.1495 12.1437 609 101.274 120.246 490.842
108 0 49.0786 12.7754 627 102.159 120.762 486.874
109 0 52.2657 12.7043 664 101.497 120.643 489.538
110 0 53.1582 11.795 627 104.083 120.25 487.55
111 0 55.1409 13.5834 749 100.195 120.509 487.837
112 0 56.1581 13.3908 752 103.96 120.172 485.021
113 0 58.1103 13.4916 784 102.844 119.578 483.006
114 0 61.0835 14.2755 872 100.053 119.763 484.281
115 0 62.0997 13.5427 841 102.36 119.628 483.392
116 0 63.14 14.4441 912 102.047 120.095 480.654
117 0 66.1681 12.71 841 105.394 119.715 481.554
118 0 69.2883 14.5912 1011 101.864 120.574 479.539
119 0 71.239 14.5566 1037 103.675 119.519 479.066
120 0 73.1428 13.3848 979 109.824 118.716 476.687
121 0 77.1994 13.7954 1065 108.777 119.005 476.337
122 0 79.2111 14.3414 1136 108.878 119.114 474.399
123 0 83.214 14.9254 1242 106.238 118.992 471.813
124 0 85.1376 14.7408 1255 105.808 119.942 470.281
125 0 87.163 14.8802 1297 109.819 119.721 467.553
126 0 91.1534 14.2726 1301 111.905 119.46 467.626
127 1 48.1027 12.6188 607 109.753 120.331 488.096
128 0 50.1404 12.3653 620 111.876 119.944 488.282
129 0 51.1889 12.0729 618 109.743 120.27 489.105
130 0 52.1035 12.8782 671 113.282 120.076 487.098
131 0 55.073 12.6559 697 113.687 120.429 485.306
132 0 58.073 11.5372 670 115.969 120.348 485.054
133 0 59.0937 12.9625 766 113.367 120.496 485.014
134 0 61.1221 14.3483 877 110.068 120.269 483.978
135 0 62.0921 13.174 818 114.178 120.125 480.88
136 0 65.0634 14.1862 923 111.881 120.515 480.809
137 0 67.1247 12.3799 831 116.111 119.941 480.101
138 0 69.1965 13.2088 914 115.337 118.819 477.329
139 0 69.1965 13.2377 916 156.715 118.844 477.408
140 0 74.1796 14.411 1069 111.482 119.421 476.452
141 0 77.1545 13.7387 1060 112.286 118.934 477.046
142 0 80.1092 13.4441 1077 115.161 118.884 472.852
143 0 81.137 12.9534 1051 114.531 119.515 471.362
144 1 46.0301 11.449 527 110.047 120.15 490.004
145 0 47.0643 12.1111 570 109.707 119.761 489.667
146 0 47.0622 11.8991 560 111.411 120.391 489.845
147 0 48.1212 12.6971 611 110.673 119.439 488.376
148 0 51.1645 12.4696 638 110.39 119.086 489.16
149 0 52.0587 11.948 622 113.172 119.265 486.397
150 0 54.1857 13.0293 706 110.619 118.946 485.636
151 0 54.0988 13.4754 729 111.224 118.569 484.48
152 0 55.1446 12.168 671 115.398 118.961 485.238
153 0 57.0994 13.5903 776 111.82 118.87 485.829
154 0 59.1653 14.4341 854 110.007 119.506 483.441
155 0 62.2836 13.8239 861 110.873 118.546 483.177
156 0 62.167 14.3163 890 112.189 118.506 481.431
157 0 65.2553 14.1598 924 112.074 117.908 480.589
158 0 67.3698 13.938 939 113.512 118.141 478.578
159 0 66.1519 13.6655 904 116.074 118.272 475.617
160 0 71.0679 13.86 985 114.461 118.016 475.986
161 0 76.1654 14.2847 1088 113.467 117.758 476.032
162 0 77.0814 13.6998 1056 115.848 117.953 474.432
163 0 79.1123 13.424 1062 117.723 117.909 474.741
164 0 81.0554 12.9664 1051 119.306 117.933 473.368
165 1 43.0353 11.4092 491 117.232 118.006 491.591
166 0 43.0584 12.7269 548 111.807 117.858 489.305
167 0 43.0505 10.9406 471 117.378 118.51 488.257
168 0 48.2816 12.5514 606 111.8 119.323 487.526
169 0 48.061 10.9652 527 116.416 118.958 487.846
170 0 49.1912 13.1324 646 113.833 119.002 485.615
171 0 50.1488 11.765 590 118.353 119.207 484.793
172 0 52.0673 12.4454 648 117.61 118.687 483.96
173 0 52.1162 12.6256 658 116.476 119.137 484.553
174 0 55.0895 12.2165 673 117.123 119.068 483.114
175 0 56.1757 12.1939 685 117.971 118.031 482.997
176 0 58.0726 13.1215 762 113.693 118.084 481.884
177 0 59.2439 12.8621 762 115.753 118.936 480.532
178 0 61.1373 13.9849 855 111.742 118.75 479.575
179 0 64.1017 13.385 858 114.484 118.793 478.663
180 0 64.1737 12.1233 778 118.051 118.36 479.261
181 0 67.1078 14.961 1004 111.147 119.018 476.842
182 0 69.1331 14.0888 974 114.728 119.281 475.703
183 0 71.1142 13.6541 971 115.918 119.162 475.127
184 0 73.1406 13.1117 959 116.466 119.312 475.035
185 0 75.135 14.068 1057 114.549 119.49 475.043
186 0 77.1363 14.1697 1093 114.966 118.758 471.998
187 0 80.0817 13.711 1098 115.609 119.934 471.223
188 0 82.1612 14.5202 1193 115.066 119.422 469.795
189 0 83.2044 14.0618 1170 116.861 119 468.937
190 0 87.1177 14.0155 1221 114.075 118.296 466.762
191 0 90.2137 12.7143 1147 112.619 118.097 464.469
192 0 93.0799 14.1276 1315 109.734 118.886 464.579
193 0 95.1456 13.0221 1239 113.208 117.836 463.08
194 0 98.3288 13.4854 1326 112.133 117.989 459.974
195 1 48.0455 12.0719 580 106.922 117.84 483.933
196 0 52.082 12.1923 635 110.006 117.876 485.554
197 0 53.0555 11.2524 597 104.873 118.503 482.844
198 0 54.0822 10.9648 593 110.723 118.695 483.133
199 0 56.1335 12.114 680 109.671 118.278 481.266
200 0 59.1717 12.2525 725 108.92 118.335 480.204
201 0 61.0758 13.3768 817 107.115 118.181 479.141
202 0 63.0883 12.3319 778 108.776 118.171 479.586
203 0 65.1657 12.5833 820 109.985 117.761 476.389
204 0 68.0886 12.8509 875 109.239 117.797 475.641
205 0 70.1136 12.2943 862 109.824 117.965 475.862
206 0 72.1169 14.0744 1015 107.322 118.239 473.348
207 0 73.1124 13.5408 990 109.545 117.666 473.014
208 0 75.1138 12.8871 968 109.709 118.05 469.962
209 0 78.0741 12.4753 974 110.328 117.985 465.864
210 0 80.2297 12.8755 1033 109.75 117.924 468.273
211 0 84.2162 14.0234 1181 105.588 118.406 468.94
212 0 87.13 13.6692 1191 107.297 118.924 466.505
213 0 89.1112 14.207 1266 106.976 118.391 466.013
214 0 88.2317 13.0225 1149 111.153 118.301 462.779
215 0 94.1322 14.6921 1383 107.318 119.174 461.061
216 0 99.2074 14.2227 1411 106.337 118.369 464.502
217 0 99.1218 13.5389 1342 110.361 118.918 459.209
218 0 104.333 14.1661 1478 109.899 118.557 458.993
219 0 108.287 15.8468 1716 108.675 119.359 458.832
220 0 109.367 13.8982 1520 110.356 119.344 457.454
221 0 114.387 14.1275 1616 106.351 118.581 458.495
222 0 115.39 14.0567 1622 149.715 117.597 458.501
223 0 123.349 15.0143 1852 103.859 118.598 452.578
224 0 123.382 13.0002 1604 108.818 118.481 452.447
225 0 132.403 14.9921 1985 103.829 119.403 450.688
226 0 135.345 14.4963 1962 106.059 118.848 448.226
227 0 138.343 14.3268 1982 107.72 118.168 442.448
228 0 142.259 13.8691 1973 108.923 118.625 442.642
229 0 148.285 14.5126 2152 107.056 118.515 441.071
230 0 154.35 13.8257 2134 108.46 118.928 436.067
231 1 76.2427 13.8505 1056 106.071 119.08 471.273
232 0 78.2787 15.2915 1197 103.582 118.935 472.816
233 0 81.1282 14.1628 1149 102.604 118.232 472.527
234 0 84.1217 13.4805 1134 104.644 118.101 471.213
235 0 85.0683 13.93 1185 104.193 119.065 468.881
236 0 89.0576 14.6422 1304 101.091 119.189 469.041
237 0 92.1579 13.0971 1207 102.794 118.626 466.786
238 0 94.2719 13.7263 1294 102.532 118.838 464.906
239 0 98.1522 12.6538 1242 103.685 118.82 464.335
240 0 102.136 14.7255 1504 98.8032 118.78 463.403
241 0 106.194 14.0968 1497 101.601 118.524 457.1
242 1 48.1425 12.7746 615 93.3772 117.519 488.753
243 0 46.1201 11.3616 524 96.3874 117.962 489.594
244 0 49.0994 10.2242 502 96.1514 118.492 489.717
245 0 51.0851 11.0991 567 96.2099 117.783 487.85
246 0 53.0561 12.5151 664 98.8358 117.205 486.434
247 0 55.0708 12.6201 695 99.5252 117.538 485.283
248 0 56.1925 12.3326 693 99.6147 118.706 485.071
249 0 58.1331 14.0884 819 96.1636 118.195 484.687
250 0 61.0919 13.8316 845 97.3562 117.924 481.102
251 0 62.1531 14.3034 889 97.3611 117.841 481.669
252 0 64.0624 14.5171 930 97.4 118.368 479.753
253 0 67.3324 13.8121 930 97.7968 119.041 479.985
254 0 70.2616 14.6026 1026 97.2651 118.809 477.244
255 0 70.4041 11.5618 814 108.785 118.672 477.072
256 0 76.2793 13.8439 1056 99.8295 119.301 474.853
257 1 39.0282 10.7358 419 98.5203 118.826 494.007
258 0 41.237 11.7855 486 98.0288 118.34 493.827
259 0 42.0294 13.0623 549 93.5683 118.434 493.792
260 0 43.0806 11.8615 511 95.7476 119.744 492.411
261 0 45.0347 12.4571 561 95.5187 119.554 491.422
262 0 46.082 13.2373 610 94.4459 119.726 491.721
263 0 48.0448 12.301 591 96.0981 119.421 490.646
264 0 49.037 11.3588 557 100.162 119.156 488.704
265 0 50.0817 14.5962 731 93.1683 118.462 489.886
266 0 52.0529 12.4297 647 101.736 117.547 487.122
267 0 53.0523 13.515 717 100.119 117.794 484.039
268 0 53.0604 13.3998 711 101.595 118.451 483.699
269 0 56.0704 12.52 702 102.547 117.799 482.785
270 0 58.0878 13.1869 766 100.48 118.469 483.697
271 0 59.0662 14.797 874 98.0183 117.932 481.477
272 0 61.1138 14.8412 907 97.3186 117.751 481.804
273 0 63.0696 14.2065 896 99.0982 118.357 479.933
274 0 63.1625 12.8399 811 97.8668 119.178 481.999
275 0 63.1338 11.6578 736 101.012 119.175 482.681
276 0 63.1293 12.6566 799 100.944 119.831 481.094
277 0 67.1449 12.4507 836 98.9115 119.556 481.853
278 0 65.223 12.143 792 104.018 118.567 480.221
279 0 69.2161 13.4217 929 102.161 117.826 478.264
280 0 71.1118 12.6702 901 104 117.767 475.568
281 0 73.1588 13.7509 1006 102.037 117.954 475.945
282 0 76.0861 14.4573 1100 101.384 117.725 472.464
283 0 75.1234 13.7108 1030 103.941 117.663 473.481
284 0 81.1837 13.2293 1074 102.142 118.196 472.962
285 0 86.1621 14.4031 1241 97.5149 118.264 470.658
286 0 87.1885 13.5224 1179 94.9627 118.556 466.517
287 0 91.1807 14.7509 1345 92.8758 118.887 465.084
288 0 93.1693 14.6615 1366 93.7123 118.736 462.106
289 0 97.2512 14.6116 1421 95.9261 118.416 458.746
290 1 51.1045 11.2515 575 93.6365 119.082 483.619
291 0 52.053 12.9291 673 97.2675 119.612 486.863
292 0 52.053 12.9483 674 141.774 120.589 486.921
293 0 57.1306 12.9528 740 94.7689 119.335 485.714
294 0 59.0836 14.7926 874 92.3227 119.775 484.069
295 0 61.0473 14.3495 876 93.911 120.244 482.895
296 0 59.1954 12.8388 760 99.454 119.122 483.443
297 0 64.1745 13.2451 850 97.2812 119.838 482.5
298 0 66.1549 14.2393 942 97.4979 119.652 478.02
299 0 68.139 14.309 975 97.4677 119.366 479.14
300 0 72.3514 14.5263 1051 97.1817 118.454 478.615
301 0 75.1186 14.3906 1081 98.7049 119.033 476.264
302 0 77.122 13.4462 1037 103.94 118.186 474.878
303 0 78.1648 12.3713 967 105.662 118.004 473.752
304 0 81.1121 12.5259 1016 104.953 118.026 474.064
305 0 84.2202 13.5122 1138 103.692 119.555 469.431
306 1 43.1729 13.3185 575 100.781 121.049 489.56
307 0 44.1114 11.879 524 105.034 120.282 489.418
308 0 44.1114 11.879 524 149.714 119.256 489.368
309 0 46.0212 12.3421 568 102.276 118.408 490.206
310 0 48.0963 13.1403 632 102.12 118.196 490.437
311 0 49.0307 14.1544 694 102.133 118.029 488.552
312 0 50.0589 12.3055 616 105.745 118.58 488.417
313 0 53.1472 13.2086 702 103.001 119.162 487.704
314 0 53.0976 13.8613 736 102.312 119.659 485.077
315 0 55.1369 13.7839 760 102.876 119.933 485.128
316 0 56.0412 13.1689 738 104.741 119.786 485.327
317 0 59.1018 13.7729 814 102.797 119.63 483.952
318 0 59.0818 13.0328 770 106.171 119.016 482.143
319 0 61.2075 13.7401 841 103.401 119.363 482.597
320 0 63.1123 13.2938 839 104.253 119.246 482.453
321 0 64.2438 12.9351 831 104.213 119.245 481.801
322 0 68.1359 13.5905 926 104.165 118.933 479.876
323 0 70.1352 13.531 949 105.619 118.793 478.745
324 0 73.1747 12.8186 938 106.424 118.384 477.55
325 0 76.2357 14.0223 1069 100.854 119.113 476.24
326 0 79.1516 13.531 1071 102.922 119.304 474.481
327 0 79.1416 11.8648 939 107.702 119.091 473.777
328 0 83.1444 12.8812 1071 105.071 119.79 473.244
329 0 88.1839 13.8687 1223 101.751 119.237 471.444
330 1 46.0199 14.5807 671 99.5186 118.888 488.513
331 0 44.0116 12.3149 542 103.421 119.041 490.959
332 0 48.0376 12.2404 588 101.201 119.347 490.707
333 0 51.0659 11.1425 569 103.258 119.884 489.404
334 0 52.0756 13.5188 704 99.3381 119.882 487.412
335 0 51.0647 13.336 681 101.489 119.631 486.185
336 0 53.0727 12.9068 685 101.695 120.492 486.14
337 0 55.0305 12.375 681 99.4009 120.115 486.916
338 0 55.0373 11.2651 620 102.503 120.548 485.747
339 0 57.0573 11.7251 669 101.404 120.327 484.762
340 0 60.0946 12.3638 743 100.777 119.828 483.051
341 0 63.0417 12.8011 807 99.3048 120.222 483.575
342 0 64.1014 13.229 848 100.322 119.719 481.029
343 0 65.024 10.8421 705 104.574 120.543 482.881
344 0 69.1458 13.1751 911 101.196 120.498 478.277
345 0 70.0788 13.599 953 101 120.34 479.707
346 0 74.112 13.682 1014 101.218 119.839 477.972
347 0 76.0787 12.8945 981 104.581 119.343 476.363
348 0 78.1176 13.6845 1069 103.286 119.999 473.277
349 0 82.0625 14.5133 1191 101.258 120.189 474.509
350 0 83.1013 13.7062 1139 105.349 120.306 471.376
351 0 87.0718 15.6652 1364 101.003 120.85 467.864
352 0 89.0862 13.5374 1206 105.352 121.134 470.672
353 0 91.101 13.3149 1213 108.075 120.862 466.4
354 0 97.1351 14.938 1451 103.96 120.101 464.835
355 0 101.076 13.2772 1342 105.961 120.524 467.516
356 0 103.117 14.9345 1540 104.589 119.271 461.136
357 1 56.0543 12.5949 706 102.347 119.561 486.742
358 0 58.1163 12.3029 715 102.978 119.448 486.406
359 0 59.1368 15.4726 915 91.8317 120.031 485.822
360 0 61.1849 13.402 820 95.6561 119.933 484.588
361 0 64.1049 11.7308 752 99.3604 120.211 483.157
362 0 66.067 14.6367 967 93.3237 120.652 482.923
363 0 65.0891 13.1205 854 98.5492 120.466 480.984
364 0 67.1099 13.0234 874 99.7277 119.775 479.507
365 0 71.0483 13.9342 990 96.1848 119.922 481.277
366 0 72.1316 13.8358 998 97.1814 119.961 479.487
367 0 74.083 12.594 933 98.463 119.964 479.641
368 0 78.0802 13.3837 1045 97.3139 119.705 476.04
369 0 80.2292 13.6484 1095 98.6493 119.37 472.92
370 0 83.1149 13.1023 1089 100.466 119.315 470.445
371 0 85.1371 13.6603 1163 98.7188 119.279 471.344
372 0 88.1848 12.213 1077 97.3222 119.532 473.627
373 0 91.344 13.7393 1255 95.9084 119.964 466.545
374 0 96.2797 13.2219 1273 94.7203 120.011 469.413
375 0 98.2201 13.9585 1371 99.0387 120.79 465.775
376 0 101.198 13.5971 1376 101.086 120.131 464.155
377 1 55.107 12.3759 682 97.5396 119.374 487.202
378 0 56.1905 12.1907 685 91.3898 120.877 486.844
379 0 57.182 12.0143 687 93.3362 120.489 484.921
380 0 59.0643 13.2229 781 91.1485 121.35 485.718
381 0 60.0458 12.7736 767 91.5997 120.683 483.696
382 0 64.1864 14.3177 919 88.9761 120.384 481.155
383 0 65.1382 12.5733 819 91.8608 121.022 481.838
384 0 68.0735 14.1759 965 88.601 120.801 479.418
385 0 68.132 12.0061 818 93.0917 120.443 478.523
386 0 71.0987 13.4883 959 91.3639 120.738 476.936
387 0 76.1814 15.2531 1162 87.1188 120.164 477.733
388 0 77.1711 13.8264 1067 90.9128 120.679 474.302
389 0 78.14 12.8487 1004 93.999 120.382 474.366
390 0 77.2134 10.9825 848 98.3396 120.699 474.455
391 0 84.1524 14.4024 1212 91.7624 120.232 473.112
392 0 87.1599 12.9761 1131 94.2149 120.086 470.455
393 0 90.2386 12.9546 1169 94.4303 120.286 470.978
394 0 93.1 13.7272 1278 93.7997 119.781 466.132
395 0 96.1148 13.1613 1265 94.2727 120.288 465.665
396 0 100.156 13.389 1341 93.4512 120.115 464.396
397 1 53.1637 12.1135 644 92.9208 120.72 488.728
398 0 51.093 10.7647 550 94.9327 120.536 485.276
399 0 55.0298 12.7567 702 92.2122 121.383 486.816
400 0 55.1738 14.4453 797 90.4329 121.765 484.557
401 0 60.1398 13.2026 794 91.2456 122.171 484.388
402 0 60.1985 11.8774 715 94.2797 121.143 485.87
403 0 62.1396 12.8099 796 93.2651 121.264 484.352
404 0 67.2091 12.0668 811 94.5672 122.027 483.196
405 0 67.1 11.8033 792 97.1641 121.417 483.086
406 0 70.1316 12.9471 908 96.3932 121.265 480.547
407 0 73.1225 13.2791 971 96.2204 121.546 477.595
408 0 77.1807 16.0403 1238 91.4968 121.546 476.193
409 0 80.3298 13.5691 1090 96.8339 121.528 475.679
410 0 82.1378 13.733 1128 97.0364 120.916 476.166
411 0 86.2357 14.6691 1265 95.8711 120.706 472.79
412 0 88.3314 15.272 1349 95.6879 120.576 471.844
413 0 92.206 13.2529 1222 100.015 120.58 471.448
414 0 93.2445 13.4807 1257 101.073 119.909 470.61
415 0 99.405 15.5022 1541 96.0182 120.098 466.733
416 1 54.0894 12.6087 682 100.33 120.308 488.566
417 0 56.052 12.7382 714 98.2619 119.552 490.129
418 0 57.0764 12.86 734 97.8515 120.802 488.407
419 0 57.1154 12.8512 734 100.846 120.743 485.865
420 0 60.1773 13.6929 824 98.4175 120.65 485.763
421 0 61.1555 13.5229 827 100.03 121.138 484.161
422 0 60.1782 12.0309 724 103.086 121.199 483.695
423 0 66.1336 14.4102 953 102.814 118.56 482.689
424 0 66.1682 13.4506 890 106.413 118.787 481.197
425 0 69.1511 13.579 939 105.056 119.007 481.39
426 0 72.208 14.1951 1025 103.788 119.224 478.48
427 0 73.3572 13.2366 971 105.31 120.107 477.604
428 0 76.3916 12.8417 981 106.029 119.606 477.714
429 0 80.3201 13.9566 1121 102.409 119.77 475.798
430 0 79.3039 14.0598 1115 101.798 120.25 476.155
431 0 83.144 13.7232 1141 102.044 120.838 475.033
432 0 84.2351 13.3436 1124 103.891 121.268 473.97
433 0 89.1047 14.3763 1281 100.975 120.461 473.67
434 0 88.2659 11.8279 1044 108.641 120.216 472.927
435 0 92.3349 13.7543 1270 104.592 120.977 469.161
436 0 93.1924 12.0074 1119 108.691 121.424 469.418
437 1 56.0606 12.8611 721 103.677 121.3 488.118
438 0 57.0679 11.0044 628 108.459 121.588 485.344
439 0 60.122 13.9051 836 99.7608 121.624 482.876
440 0 62.1962 12.1712 757 104.413 122.37 483.754
441 0 63.0733 13.6032 858 101.966 121.625 484.759
442 0 65.0689 14.5231 945 102.389 121.666 481.978
443 0 68.0778 13.9987 953 103.481 121.407 482.077
444 0 67.0676 12.3159 826 108.522 121.679 480.969
445 0 72.1094 14.4503 1042 103.136 122.086 480.131
446 0 74.0371 13.6283 1009 104.554 122.875 477.771
447 0 76.0625 13.765 1047 105.392 122.068 476.095
448 0 80.1377 12.9777 1040 105.976 122.13 475.034
449 0 82.0291 14.1779 1163 103.83 122.252 473.273
450 0 82.1276 13.8321 1136 106.224 122.233 472.3
451 0 87.171 13.3416 1163 105.446 122.307 471.604
452 0 89.116 13.5329 1206 105.115 122.279 469.522
453 0 93.1033 15.0263 1399 101.212 121.581 468.846
454 0 96.1118 13.3178 1280 104.179 121.801 467.898
455 0 99.0682 15.0603 1492 100.256 121.971 465.96
456 0 100.193 13.6237 1365 103.821 122.189 463.548
457 0 103.106 12.4241 1281 105.753 122.236 462.77
458 1 55.0902 12.4523 686 93.0496 121.847 486.845
459 0 57.2229 11.5513 661 97.9516 122.126 486.853
460 0 56.0844 10.6982 600 101.455 121.742 485.59
461 0 60.1383 12.5877 757 98.7701 121.165 484.329
462 0 60.0428 13.1406 789 97.7275 119.426 484.611
463 0 61.0904 11.7203 716 103.349 118.648 485.334
464 0 62.0904 13.3193 827 100.982 118.563 483.563
465 0 64.0351 14.1953 909 99.6447 119.356 482.924
466 0 64.0316 11.5256 738 106.859 118.822 482.863
467 0 67.2516 12.8473 864 104.913 118.9 478.694
468 0 71.2353 14.1503 1008 103.479 118.641 479.747
469 0 72.1512 12.1966 880 108.699 119.216 477.702
470 0 76.1356 13.9094 1059 105.054 119.014 477.458
471 0 79.1691 13.5027 1069 105.752 118.491 477.515
472 0 82.2492 13.8725 1141 105.985 118.167 476.429
473 0 82.1662 13.3632 1098 108.849 118.806 473.67
474 0 86.2238 14.5087 1251 105.701 118.796 472.536
475 0 87.1428 12.9787 1131 109.499 118.416 470.607
476 0 90.1892 13.2832 1198 107.774 119.21 466.107
477 0 90.1796 13.2292 1193 107.057 119.856 465.242
478 0 94.1923 14.6403 1379 103.398 119.797 459.33
479 0 97.2859 13.0749 1272 105.509 119.088 459.155
480 0 104.335 13.4949 1408 102.491 119.511 457.45
481 0 107.371 14.3893 1545 101.083 120.175 455.458
482 1 58.1519 12.2094 710 99.0648 119.065 478.238
483 0 62.1074 12.7038 789 109.513 118.327 483.125
484 0 64.0536 12.833 822 101.989 119.006 483.729
485 0 66.1643 13.3456 883 101.026 119.652 482.512
486 0 67.1559 12.1359 815 103.864 119.84 482.789
487 0 69.1098 12.1835 842 103.042 119.267 482.659
488 0 71.1156 12.543 892 103.049 119.769 479.363
489 0 75.1136 14.1652 1064 98.7227 119.18 478.454
490 0 78.3164 13.9179 1090 98.8119 119.628 479.688
491 0 81.1377 13.4463 1091 98.8515 119.627 479.017
492 0 81.1092 13.0441 1058 101.773 119.366 474.693
493 0 84.1348 13.7874 1160 101.491 118.49 473.565
494 0 87.1221 12.9474 1128 102.12 118.926 475.4
495 0 89.1062 13.2987 1185 103.394 118.738 472.692
496 0 92.1853 12.8437 1184 105.43 118.805 468.921
497 0 96.1835 14.098 1356 102.851 119.224 468.233
498 0 97.1423 13.0942 1272 104.966 119.351 468.473
499 0 102.245 12.7831 1307 105.448 119.249 465.552
500 0 105.265 12.7772 1345 108.386 119.599 466.028
501 0 109.206 14.0193 1531 108.416 119.425 460.352
502 1 55.124 11.4288 630 111.071 120.83 485.749
503 0 59.0847 11.3058 668 99.0734 120.969 479.082
504 0 60.1002 12.4958 751 99.3156 119.731 483.292
505 0 63.1344 13.9544 881 99.3008 119.208 483.963
506 0 64.1332 12.6767 813 103.898 118.658 481.491
507 0 69.1711 13.8353 957 99.9561 119.018 479.367
508 0 71.2223 14.8268 1056 97.8172 118.583 478.513
509 0 72.1226 14.3506 1035 100.053 119.469 476.128
510 0 74.1061 12.3606 916 104.357 119.207 476.662
511 0 78.1292 13.7849 1077 101.994 119.058 473.624
512 0 82.1581 13.8392 1137 103.405 118.274 472.704
513 0 84.1095 14.2314 1197 113.165 118.117 472.705
514 0 88.1629 15.392 1357 101.858 118.686 471.792
515 0 88.1073 14.3915 1268 107.189 118.13 468.996
516 0 91.1277 14.7815 1347 107.48 118.017 467.886
517 0 96.1286 15.8226 1521 105.007 118.667 466.548
518 0 99.2109 14.444 1433 109.151 118.661 465.234
519 0 100.119 14.2331 1425 110.846 118.453 464.312
520 0 104.174 14.2934 1489 110.709 118.136 461.717
521 0 107.109 13.8831 1487 110.032 119.449 462.606
522 0 108.117 14.9098 1612 108.83 118.754 461.77
523 0 113.146 14.9011 1686 108.531 118.797 460.732
524 0 112.151 14.0079 1571 112.111 118.966 458.495
525 0 118.144 13.3058 1572 113.088 119.447 456.471
526 0 122.076 14.8105 1808 108.579 119.628 455.977
527 0 125.118 15.1457 1895 109.935 119.296 452.506
528 0 128.128 14.8758 1906 111.494 118.948 450.39
529 0 135.211 14.7326 1992 108.222 118.901 447.165
530 0 138.239 14.2579 1971 110.413 119.573 444.289
531 0 141.166 13.5372 1911 114.334 118.703 443.934
532 0 148.292 14.8491 2202 112.761 118.769 440.596
533 0 153.491 14.0986 2164 114.676 118.502 437.295
534 0 157.351 13.9624 2197 115.223 118.416 435.565
535 0 161.316 14.1771 2287 116.712 117.849 429.901
536 0 166.267 14.8556 2470 114.747 118.522 429.689
537 0 173.411 15.57 2700 112.985 118.946 424.781
538 0 177.442 16.6139 2948 110.686 118.626 420.756
539 0 183.251 15.2796 2800 114.679 118.947 418.716
540 0 188.378 14.4975 2731 116.898 118.759 417.242
541 0 193.58 15.1204 2927 114.31 119.489 413.139
542 0 202.465 16.6844 3378 110.206 118.438 412.26
543 0 205.644 15.6679 3222 113.568 118.927 406.445
544 0 213.3 15.7431 3358 113.175 118.929 406.571
545 0 217.397 15.3038 3327 113.335 119.412 401.898
546 0 229.436 16.3139 3743 110.261 119.452 399.888
547 1 175.337 12.8324 2250 116.994 118.932 424.785
548 0 183.5 15.2697 2802 110.465 119.291 422.749
549 0 188.57 14.3024 2697 112.143 119.07 416.611
550 0 192.492 13.6993 2637 113.112 119.057 414.917
551 0 199.527 13.958 2785 112.431 119.346 412.765
552 0 205.451 14.5777 2995 112.187 119.082 406.544
553 0 214.568 15.5568 3338 110.093 119.248 402.913
554 0 220.437 14.621 3223 112.181 118.976 399.805
555 0 228.397 16.1911 3698 108.103 119.003 397.241
556 0 234.557 14.4442 3388 112.749 119.241 391.006
557 0 240.479 13.3401 3208 115.559 118.763 385.465
558 0 252.565 15.1803 3834 111.217 119.247 382.261
559 0 259.624 14.313 3716 113.069 120.065 376.077
560 0 269.436 15.2578 4111 111.556 119.154 374.008
561 0 279.577 15.8132 4421 110.613 119.528 369.712
562 1 311.113 21.1628 6584 95.0966 119.334 343.341
563 0 309.118 22.2084 6865 96.8801 119.475 341.568
564 1 241.713 13.4333 3247 116.318 120.202 391.685
565 0 248.912 14.2259 3541 117.538 120.259 386.603
566 0 254.473 14.587 3712 116.796 119.932 385.544
567 0 264.509 14.3095 3785 117.369 120.31 377.939
568 0 273.645 15.173 4152 114.166 120.667 374.983
569 0 279.479 14.663 4098 114.161 120.24 363.48
570 1 333.94 9.36996 3129 122.053 120.128 365.751
571 0 331.55 9.16303 3038 121.925 120.479 363.493
572 0 329.534 10.4602 3447 122.854 119.321 348.781
573 0 326.673 8.7488 2858 122.382 119.621 362.955
574 0 329.697 15.9601 5262 112.318 118.864 323.836
575 1 49.1531 6.71372 330 89.0697 119.515 486.864
576 0 54.0593 12.6343 683 91.2958 120.376 490.64
577 0 53.045 13.0644 693 92.0822 120.519 488.192
578 0 54.0713 12.0397 651 94.9247 121.103 489.152
579 0 57.1028 11.8383 676 96.4689 120.957 486.646
580 0 57.1329 12.6722 724 94.5815 121.131 485.015
581 0 58.0921 11.8949 691 96.3604 120.881 486.001
582 0 60.1354 13.7523 827 89.0774 122.139 479.739
583 0 62.1669 14.3002 889 87.9258 122.151 479.66
584 0 65.2318 15.1613 989 85.5389 122.091 480.226
585 0 66.1767 15.0204 994 87.2223 121.65 478.677
586 0 67.1034 14.5745 978 87.3865 121.799 480.149
587 0 70.2666 13.7619 967 88.3402 121.626 478.463
588 0 71.0545 14.5663 1035 87.2802 121.719 478.218
589 0 74.0944 14.9134 1105 85.848 121.435 476.84
590 0 77.1876 15.7797 1218 84.0788 121.356 475.754
591 0 77.1992 15.3499 1185 85.2819 120.298 477.271
592 0 80.3323 15.884 1276 83.5776 120.422 475.161
593 0 84.2936 15.9324 1343 82.7692 120.334 475.415
594 0 86.248 15.9076 1372 83.1676 120.228 473.762
595 0 88.2774 15.5306 1371 84.2845 119.888 470.731
596 1 56.1318 12.239 687 84.6579 119.79 488.731
597 0 56.2329 11.6835 657 85.3973 119.563 488.519
598 0 57.1208 13.6203 778 86.9075 118.087 488.361
599 0 58.0808 12.0694 701 91.6676 117.922 486.645
600 0 59.0572 11.7174 692 93.8208 117.451 484.662
601 0 60.0775 12.3674 743 93.397 117.388 482.573
602 0 64.0446 13.3032 852 91.2617 117.511 483.356
603 0 64.079 13.0152 834 92.9424 118.402 482.687
604 0 65.0365 12.4853 812 94.9569 118.163 483.925
605 0 67.0889 14.9205 1001 91.3187 118.363 481.178
606 0 68.0662 14.1333 962 93.9283 118.345 479.896
607 0 67.0844 11.5973 778 99.7455 118.72 480.981
608 0 70.2095 15.5962 1095 90.1516 119.968 480.674
609 0 73.1292 14.0436 1027 94.0175 119.786 480.059
610 0 74.2082 12.7344 945 98.2032 119.929 478.763
611 0 76.1696 12.8529 979 98.2615 119.12 478.5
612 0 79.3142 13.4276 1065 98.4873 118.346 476.854
613 0 81.1819 12.4166 1008 100.282 118.555 478.334
614 0 84.2548 13.0912 1103 99.9529 119.051 475.675
615 0 86.1589 13.6376 1175 100.366 118.303 472.534
616 0 89.266 14.4736 1292 98.7361 118.187 472.728
617 0 92.1568 13.2817 1224 101.301 119.04 467.2
618 0 96.2127 13.6364 1312 101.268 118.468 468.666
619 0 99.3796 13.9365 1385 101.48 119.317 462.539
620 0 104.375 14.8408 1549 99.6695 119.004 462.673
621 0 101.044 11.3119 1143 102.449 120.086 453.395
622 0 107.066 12.1514 1301 100.229 120.044 455.135
623 1 62.0295 10.6723 662 90.7024 119.941 479.284
624 0 63.0897 10.1601 641 96.5164 120.314 476.432
625 0 63.1816 10.6043 670 97.2284 120.318 476.319
626 0 66.0473 10.8104 714 95.6555 120.43 478.422
627 0 70.0851 11.429 801 95.4332 120.276 474.732
628 0 71.0952 13.5171 961 92.3871 119.898 474.84
629 0 73.1081 10.6965 782 96.6164 119.977 475.697
630 0 75.0887 11.7994 886 98.9831 120.606 472.226
631 0 80.1401 13.2643 1063 101.753 120.973 475.851
632 0 80.1913 12.5824 1009 104.667 120.841 473.472
633 0 84.1226 14.2055 1195 100.71 120.896 474.763
634 0 81.1333 12.424 1008 98.8998 120.405 474.271
635 0 88.1443 12.6384 1114 99.3402 119.883 472.696
636 0 88.2048 12.3349 1088 102.525 119.563 469.827
637 0 90.1427 13.2124 1191 100.79 120.536 470.829
638 0 96.1433 13.4175 1290 102.164 119.645 468.822
639 0 96.1414 13.5217 1300 103.126 120.132 467.462
640 0 100.232 13.1993 1323 106.014 119.514 466.135
641 0 103.205 14.0788 1453 105.019 119.873 461.802
642 0 107.22 15.2025 1630 103.124 119.623 462.328
643 0 109.18 14.2151 1552 104.204 119.362 463.499
644 0 111.266 13.4542 1497 107.033 118.929 460.356
645 0 114.272 14.1242 1614 106.391 119.436 458.164
646 0 120.295 14.0239 1687 106.517 119.779 460.855
647 0 123.186 15.229 1876 106.013 120.095 454.013
648 0 127.342 14.5199 1849 108.19 120.013 453.865
649 0 129.312 14.2291 1840 112.962 120.208 450.491
650 0 136.383 16.0724 2192 108.431 119.951 448.234
651 0 139.284 14.072 1960 113.616 119.645 445.707
652 0 144.174 14.7946 2133 114.369 119.875 441.106
653 0 151.163 14.7655 2232 111.552 119.163 440.995
654 1 82.1578 11.5388 948 108.585 117.623 473.696
655 0 80.141 10.7436 861 105.487 118.243 467.266
656 0 83.1689 11.6991 973 102.91 118.212 467.032
657 0 85.1777 11.9984 1022 101.456 119.058 467.728
658 0 87.158 12.4487 1085 103.386 119.28 463.394
659 0 91.129 12.4658 1136 102.654 119.173 462.339
660 0 93.0717 12.4528 1159 103.676 119.588 460.307
661 0 100.154 12.9501 1297 110.007 120.139 465.244
662 0 102.074 13.549 1383 104.129 118.98 467.202
663 0 104.137 13.0213 1356 106.178 118.875 463.882
664 0 107.189 13.4809 1445 104.194 119.4 463.129
665 0 110.138 12.7567 1405 102.817 119.73 464.11
666 1 61.115 10.9302 668 106.66 117.293 484.425
667 0 64.0562 11.849 759 99.6535 121.177 483.476
668 0 66.077 13.0303 861 95.1963 120.332 481.625
669 0 64.0641 11.4104 731 100.031 119.607 484.777
670 0 68.163 12.1767 830 99.2434 120.254 481.911
671 0 69.2654 12.1128 839 99.683 120.383 480.669
672 0 74.1321 13.4894 1000 96.266 120.047 480.948
673 0 72.1325 11.0352 796 103.221 119.9 479.643
674 0 76.1954 13.1898 1005 98.5045 120.123 477.376
675 0 80.0782 12.5752 1007 99.1976 120.032 476.429
676 0 80.1183 12.8685 1031 100.178 120.388 474.081
677 0 84.1759 12.9016 1086 100.1 120.56 474.692
678 0 87.2282 12.1291 1058 101.329 120.391 474.134
679 0 89.1326 12.4309 1108 100.46 119.651 474.151
680 0 89.1502 11.0936 989 103.363 120.074 471.304
681 0 93.2301 12.4745 1163 101.969 120.448 468.383
682 0 97.1037 12.9861 1261 101.762 119.97 468.082
683 0 100.256 13.665 1370 101.478 119.239 464.88
684 0 105.273 11.2374 1183 100.218 118.962 464.775
685 0 108.229 13.4622 1457 95.8744 119.628 460.305
686 0 112.265 15.0002 1684 92.9822 119.496 461.741
687 0 115.131 14.3662 1654 95.757 119.363 459.177
688 0 121.259 13.2196 1603 96.6993 119.069 457.965
689 0 122.19 13.3399 1630 99.2791 119.548 457.872
690 0 115.469 11.5442 1333 102.25 119.75 446.266
691 0 124.542 12.6865 1580 100.007 118.959 446.525
692 1 68.114 13.0517 889 95.1507 118.191 482.656
693 0 68.1381 12.6508 862 97.8028 118.236 479.875
694 0 72.2281 11.9621 864 97.7975 117.854 483.014
695 0 73.3636 12.5812 923 98.6403 118.52 478.316
696 0 75.0818 12.4797 937 96.3565 118.216 477.201
697 0 80.1234 12.7928 1025 95.6215 118.767 478.072
698 0 81.2694 13.1784 1071 95.3688 118.073 477.36
699 0 83.1431 13.0137 1082 96.9067 118.798 473.629
700 0 87.0945 13.0663 1138 95.0422 120.073 473.958
701 0 88.1451 13.4097 1182 95.0203 119.415 472.035
702 0 92.2064 13.383 1234 96.2504 119.519 469.754
703 0 95.1538 12.6847 1207 97.9395 119.677 466.919
704 0 97.1613 13.0505 1268 98.1459 119.65 465.135
705 0 103.246 14.4121 1488 96.9167 119.251 463.238
706 0 105.248 13.1785 1387 98.4895 119.276 463.305
707 0 108.495 12.6366 1371 102.08 118.883 460.335
708 0 113.405 13.8001 1565 100.132 119.034 457.968
709 1 63.2712 11.1425 705 93.9702 119.045 481.841
710 0 63.3673 10.952 694 97.5245 118.272 485.089
711 0 65.248 12.3069 803 95.4334 118.59 483.443
712 0 66.2975 11.1015 736 98.1834 118.034 482.806
713 0 70.2772 13.3471 938 94.0618 118.236 479.711
714 0 73.1612 13.6275 997 92.9679 118.477 480.467
715 0 74.1467 11.0592 820 98.4549 118.178 480.45
716 0 76.1881 11.3797 867 98.5975 118.821 479.088
717 0 79.1164 11.9444 945 98.8116 119.16 477.07
718 0 80.3592 11.8344 951 100.365 119.33 476.556
719 0 82.1434 12.5877 1034 100.66 119.197 474.357
720 0 86.2486 12.0813 1042 103.76 120.001 471.403
721 0 89.2689 13.1849 1177 102.74 120.407 469.733
722 0 91.1834 12.7435 1162 101.109 120.876 469.244
723 0 92.1456 11.9376 1100 102.906 120.853 469.267
724 0 97.1972 13.5292 1315 100.643 120.334 467.52
725 0 100.174 15.1636 1519 98.4253 120.407 466.311
726 0 103.326 12.901 1333 102.936 120.473 465.629
727 0 105.132 11.5854 1218 104.947 120.294 466.385
728 0 112.313 14.9671 1681 97.7109 120.44 461.716
729 0 115.379 13.8413 1597 101.145 119.976 460.112
730 1 60.2112 10.6293 640 101.453 121.086 484.788
731 0 64.2813 12.1497 781 100.396 119.912 479.876
732 0 67.2816 13.0348 877 111.705 118.73 480.869
733 0 72.2448 12.9006 932 109.927 118.803 482.262
734 0 72.3715 12.9885 940 111.079 118.361 479.524
735 0 73.4182 11.5775 850 115.127 118.538 478.546
736 0 77.2507 13.7863 1065 107.158 119.115 480.131
737 0 79.367 13.4187 1065 109.329 119.023 475.172
738 0 82.457 14.1286 1165 107.977 118.858 474.797
739 0 81.3918 13.048 1062 111.476 118.969 473.699
740 0 86.468 13.4038 1159 109.402 118.632 473.456
741 0 88.1787 11.8056 1041 104.761 119.708 472.491
742 0 88.2768 11.3507 1002 106.187 119.361 469.056
743 0 93.2984 12.5297 1169 103.231 119.334 468.172
744 0 97.3892 12.1574 1184 103.619 119.242 467.644
745 0 98.3238 12.2351 1203 103.571 119.83 465.998
746 0 100.363 12.5943 1264 104.219 119.461 463.274
747 0 105.391 12.4394 1311 104.629 119.087 460.883
748 0 107.414 12.6148 1355 104.948 119.273 457.483
749 0 112.462 13.5779 1527 102.521 118.952 455.308
750 0 115.466 12.5405 1448 105.96 118.572 454.289
751 0 119.425 14.126 1687 102.3 118.809 449.809
752 0 121.701 11.7255 1427 107.448 118.404 449.369
753 1 64.2492 11.2375 722 98.7729 118.22 479.623
754 0 68.0877 10.8536 739 96.8092 119.789 482.357
755 0 69.2108 12.0357 833 97.0468 119.819 480.136
756 0 73.2023 11.2292 822 93.5657 119.798 480.246
757 0 73.1686 12.7104 930 91.4763 120.515 478.633
758 0 78.1744 13.4187 1049 90.3518 120.087 476.014
759 0 77.2324 11.679 902 95.3514 119.912 474.971
760 0 81.1737 12.849 1043 93.3864 119.848 474.164
761 0 82.2755 12.9565 1066 94.6069 119.968 473.099
762 0 84.299 11.9219 1005 97.1473 119.927 471.933
763 0 89.2656 12.5244 1118 96.2487 120.515 470.979
764 0 91.2058 13.2228 1206 96.1982 120.571 469.708
765 0 92.129 11.9941 1105 99.1774 120.502 469.123
766 0 96.2661 11.863 1142 99.3643 120.616 467.418
767 0 100.266 12.6065 1264 98.5253 120.456 464.486
768 0 101.342 12.0286 1219 100.128 120.563 464.401
769 0 106.259 12.2249 1299 100.981 120.259 460.343
770 0 110.541 13.5244 1495 97.7465 119.968 462.548
771 0 111.326 11.6595 1298 103.388 120.157 456.697
772 0 117.375 13.1629 1545 101.088 119.545 454.346
773 1 66.1906 11.6784 773 100.045 119.362 480.519
774 0 66.2485 10.6267 704 96.571 120.018 480.571
775 0 70.1023 11.2692 790 93.4203 120.462 479.64
776 0 73.1662 11.1937 819 92.5433 120.442 481.634
777 0 74.1016 12.0375 892 92.6334 119.771 478.503
778 0 77.1564 10.6537 822 94.7311 120.426 480.574
779 0 80.113 12.1329 972 93.4475 120.506 477.114
780 0 81.0745 11.7916 956 94.8933 120.164 476.491
781 0 84.0759 13.357 1123 93.187 119.898 472.569
782 0 86.1379 11.0637 953 97.1805 120.414 473.821
783 0 92.1103 12.2028 1124 96.3541 120.128 471.654
784 0 93.1228 12.7574 1188 97.7702 119.609 470.153
785 0 96.2034 12.4216 1195 99.0686 119.16 469.318
786 0 101.208 14.0107 1418 99.3484 119.681 464.929
787 0 102.242 11.8934 1216 103.692 120.088 464.891
788 0 107.247 14.406 1545 98.5087 118.75 466.089
789 0 108.23 14.0997 1526 101.528 118.223 460.222
790 0 115.242 13.0682 1506 101.617 119.914 461.466
791 0 116.322 13.6174 1584 102.346 119.057 457.9
792 0 119.482 13.2321 1581 103.87 119.339 453.924
793 1 62.2595 11.4199 711 94.7496 120.131 484.564
794 0 63.2195 13.7141 867 93.7785 118.997 484.881
795 0 64.0953 12.7623 818 100.713 119.292 484.612
796 0 63.1012 12.789 807 102.475 119.053 482.166
797 0 64.2426 11.1608 717 104.275 119.199 484.587
798 0 68.2453 12.499 853 101.382 118.928 481.656
799 0 70.2184 13.1732 925 99.1805 118.526 481.401
800 0 73.3766 12.8243 941 99.7056 118.227 479.436
801 0 75.2682 11.9572 900 101.988 118.263 479.591
802 0 76.304 12.0308 918 102.51 118.313 477.137
803 0 80.3838 13.0748 1051 100.219 118.264 476.72
804 0 81.1407 13.113 1064 102.015 117.056 475.445
805 0 83.1756 13.5016 1123 101.382 117.891 473.928
806 0 86.2389 12.7321 1098 104.367 117.984 471.817
807 0 89.1584 13.5153 1205 104.051 117.774 469.826
808 0 90.2545 13.1406 1186 105.278 118.412 468.732
809 0 94.2505 14.0583 1325 103.238 118.095 467.488
810 0 96.4012 11.8982 1147 107.455 117.919 467.818
811 0 99.2327 13.6749 1357 105.957 117.75 464.273
812 0 103.238 14.113 1457 105.595 118.548 462.734
813 0 106.3 13.2737 1411 108.731 118.172 463.97
814 0 109.356 13.9453 1525 108.751 117.625 461.988
815 0 114.441 15.2043 1740 104.75 117.741 458.84
816 0 118.505 16.1597 1915 103.654 117.582 457.434
817 0 120.443 14.9946 1806 105.565 118.231 458.269
818 0 124.429 13.7829 1715 108.051 118.412 455.304
819 0 129.485 14.048 1819 109.428 117.78 450.418
820 0 132.433 14.4073 1908 108.67 118.933 449.728
821 0 138.32 13.6206 1884 105.011 119.027 447.106
822 1 78.1382 11.8892 929 97.7783 120.219 477.799
823 0 78.1053 11.4205 892 99.3038 119.944 476.117
824 0 84.1377 12.7648 1074 94.7412 120.091 475.933
825 0 86.0543 12.6199 1086 96.012 118.75 473.691
826 0 88.1273 12.0961 1066 98.2467 119.209 471.637
827 0 89.156 11.2612 1004 99.3028 119.311 472.318
828 0 94.1156 12.9203 1216 97.5946 119.133 469.004
829 0 97.1112 13.778 1338 96.2952 119.607 467.197
830 0 101.223 13.6629 1383 96.6645 119.163 465.16
831 0 103.201 12.7906 1320 97.3682 119.426 466.081
832 0 109.438 13.3957 1466 68.8377 119.502 465.472
833 0 108.216 11.5233 1247 101.386 118.97 460.539
834 0 112.146 13.3754 1500 98.4393 119.404 457.635
835 0 116.368 12.4691 1451 99.7802 119.106 458.714
836 0 118.164 12.9735 1533 99.5642 118.209 455.267
837 0 122.421 13.478 1650 98.0079 119.029 454.392
838 0 126.177 12.9262 1631 104.731 119.14 450.992
839 0 130.185 14.4103 1876 101.049 118.821 449.064
840 0 135.323 13.8631 1876 97.3833 118.536 447.998
841 0 138.29 14.043 1942 101.843 118.752 445.22
842 0 142.36 13.9084 1980 101.855 118.945 441.727
843 0 149.472 14.19 2121 100.361 118.711 440.403
844 0 151.389 12.3721 1873 104.745 118.567 438.639
845 0 157.39 13.2092 2079 102.574 119.097 435.445
846 0 166.373 15.309 2547 101.858 118.902 430.852
847 1 92.1653 12.2606 1130 103.008 118.603 466.349
848 0 95.2572 12.671 1207 103.426 118.1 464.955
849 0 98.1142 13.4435 1319 103.025 118.716 464.089
850 0 102.367 12.9338 1324 104.1 118.128 462.718
851 0 102.237 12.5297 1281 102.915 119.098 454.266
852 0 105.253 11.1921 1178 106.015 118.193 451.322
853 0 109.636 12.6236 1384 102.546 117.944 448.064
854 0 114.377 14.4347 1651 99.1672 117.93 450.307
855 0 116.416 11.1239 1295 106.54 117.811 445.989
856 0 122.211 12.6584 1547 105.22 117.789 452.109
857 0 127.248 14.955 1903 99.9527 117.92 448.807
858 0 131.384 13.236 1739 101.825 118.502 447.561
859 0 136.534 14.6849 2005 98.1471 117.811 442.488
860 0 137.379 13.0733 1796 101.515 117.477 446.325
861 1 70.2322 11.8322 831 99.6366 117.437 477.295
862 0 73.2638 12.3253 903 99.5869 117.729 478.081
863 0 76.4002 12.2382 935 98.5829 117.442 477.103
864 0 80.2558 12.8713 1033 96.6447 117.397 476.881
865 0 81.3965 12.691 1033 98.1839 117.25 473.157
866 0 83.3175 11.8463 987 100.073 117.345 473.201
867 0 84.5563 11.6727 987 100.333 117.603 473.339
868 0 88.4215 12.463 1102 97.7786 118.374 473.546
869 0 92.4406 12.6568 1170 98.5051 117.501 469.872
870 0 96.2709 12.1636 1171 94.0734 117.829 469.991
871 0 98.1953 12.689 1246 88.3339 118.311 466.23
872 0 101.195 12.5599 1271 89.2242 117.921 466.364
873 0 104.171 11.798 1229 91.9854 118.213 463.483
874 0 109.211 12.3248 1346 95.0877 117.338 459.966
875 0 111.308 11.1133 1237 95.8375 118.011 457.256
876 0 117.345 11.9562 1403 92.2972 118.879 458.653
877 0 118.554 10.2569 1216 95.2664 119.399 453.91
878 1 65.468 13.4264 879 82.7713 119.166 480.859
879 0 68.2265 12.224 834 84.6835 119.433 477.078
880 0 69.2887 12.2242 847 85.9504 119.321 480.145
881 0 68.0951 10.8672 740 88.8459 119.822 480.018
882 0 72.1167 10.6494 768 88.1003 120.022 481.54
883 0 76.0718 11.9887 912 85.523 120.055 480.257
884 0 79.0645 12.5594 993 85.5478 120.045 476.08
885 0 79.063 11.0039 870 89.2172 119.899 475.516
886 0 82.1863 11.6929 961 88.3892 120.483 473.738
887 0 84.0693 11.0623 930 91.5839 120.238 473.011
888 0 86.1509 11.0736 954 92.7149 120.093 472.591
889 0 90.2087 12.2272 1103 91.7416 120.024 469.948
890 0 92.2499 12.7263 1174 91.5187 119.204 468.517
891 0 95.2192 13.1591 1253 92.075 118.811 465.796
892 0 99.5379 13.422 1336 91.5591 119.214 464.1
893 0 100.701 12.4428 1253 94.435 119.089 461.598
894 0 104.433 13.2525 1384 93.2832 118.927 458.626
895 0 106.524 11.6312 1239 96.6078 118.584 453.398
896 0 111.475 13.2855 1481 92.5341 119.018 456.651
897 0 115.496 13.9139 1607 92.5103 119.139 451.937
898 0 116.367 14.2136 1654 91.8936 118.596 451.292
899 0 118.554 10.8474 1286 97.2698 119.173 450.721
900 0 125.458 13.8771 1741 92.4808 118.877 445.532
901 0 129.416 13.5996 1760 93.2898 118.807 443.788
902 0 130.42 11.6699 1522 96.5696 118.706 442.593
903 0 137.455 13.7063 1884 92.2686 118.505 441.155
904 1 79.6352 12.3438 983 86.884 118.771 471.999
905 0 83.4985 12.3595 1032 86.9031 119.163 470.662
906 0 83.2168 11.1516 928 92.3017 118.815 471.559
907 0 88.2397 12.84 1133 89.8473 118.352 472.768
908 0 90.4688 12.2694 1110 92.3171 118.806 469.043
909 0 93.3742 12.9372 1208 92.1043 119.023 467.935
910 0 90.4216 12.2979 1112 93.0602 119.057 467.903
911 0 98.4806 11.7282 1155 95.1697 118.832 462.892
912 0 101.46 13.0002 1319 93.1365 119.235 461.662
913 0 101.414 12.7103 1289 94.7044 119.008 457.708
914 0 109.653 13.4606 1476 93.4864 118.671 457.788
915 0 111.506 13.8467 1544 92.7396 118.613 458.58
916 0 115.624 14.4088 1666 92.6465 118.597 456.193
917 0 118.467 14.2149 1684 94.0172 118.415 453.593
918 0 120.547 12.6838 1529 95.9124 118.576 455.315
919 0 127.417 13.8286 1762 93.601 118.597 452.83
920 1 67.2616 11.5371 776 95.0219 119.055 478.773
921 0 70.2256 11.7336 824 93.0595 118.893 480.655
922 0 74.1725 14.291 1060 87.9632 118.65 478.997
923 0 76.1806 13.4549 1025 90.1854 118.327 480.61
924 0 77.1354 12.5883 971 92.553 118.418 479.009
925 0 81.2626 13.5487 1101 91.3606 118.874 476.65
926 0 85.1403 13.0256 1109 91.8179 118.315 476.353
927 0 84.2926 13.0498 1100 94.2582 117.619 472.285
928 0 89.3271 12.9972 1161 94.8544 118.198 469.427
929 0 93.1554 13.7512 1281 93.2639 118.45 470.543
930 0 96.243 13.4347 1293 94.5282 118.254 468.369
931 0 99.3563 13.829 1374 92.6608 118.46 470.989
932 0 103.198 13.8278 1427 94.0603 118.882 465.323
933 0 103.247 11.7776 1216 99.2155 118.139 462.929
934 1 53.1243 12.066 641 100.612 117.69 486.849
935 0 55.1355 12.0612 665 96.5323 118.093 484.621
936 0 57.1623 11.5985 663 95.267 119.027 479.715
937 0 59.1427 11.7343 694 92.3112 119.182 485.565
938 0 60.108 12.0616 725 92.3324 119.531 484.377
939 0 63.1926 13.5301 855 90.6 119.396 483.394
940 0 65.1861 13.6225 888 89.9707 119.342 482.779
941 0 66.0851 12.0451 796 92.5729 119.226 483.364
942 0 67.1003 12.6825 851 93.1246 119.819 479.931
943 0 71.1012 12.4048 882 93.441 118.676 479.084
944 0 76.142 15.366 1170 87.0718 118.943 477.524
945 0 76.1806 12.7591 972 92.4465 119.352 476.806
946 0 77.1058 12.7487 983 93.001 119.332 474.201
947 0 81.1075 14.9431 1212 89.005 118.181 473.422
948 0 84.3804 14.5413 1227 87.7376 118.665 475.126
949 0 84.2156 13.2042 1112 89.571 118.152 475.162
950 0 89.2537 14.5876 1302 87.8986 118.409 468.901
951 0 89.3968 13.0318 1165 91.4335 118.421 465.928
952 0 94.3432 13.1011 1236 94.1068 117.843 465.593
953 0 95.551 11.7947 1127 96.591 117.958 461.12
954 0 101.561 12.9774 1318 93.3809 117.778 460.228
955 0 103.569 13.1506 1362 92.9824 118.155 460.465
956 0 106.412 12.9214 1375 95.1498 117.626 455.783
957 0 109.361 12.9205 1413 94.6023 117.602 453.756
958 1 60.4996 12.4298 752 86.0106 117.836 480.181
959 0 60.2563 11.5009 693 88.4877 118.089 481.978
960 0 64.1764 12.7617 819 86.3846 117.775 482.029
961 0 65.1 11.8126 769 88.7594 118.291 481.579
962 0 67.1443 11.5423 775 94.4826 118.368 477.791
963 0 72.1684 13.4131 968 90.4432 117.826 477.694
964 0 74.1798 13.5751 1007 87.4022 117.718 474.466
965 0 74.0711 11.3135 838 91.8138 118.007 475.247
966 0 77.2744 11.9315 922 90.8297 118.191 473.517
967 0 79.1548 12.6335 1000 89.327 117.749 475.665
968 0 84.0869 13.605 1144 88.3907 118.458 470.809
969 0 85.0753 14.5636 1239 86.82 118.835 470.732
970 0 87.1673 13.4454 1172 88.3848 118.809 470.917
971 0 90.4886 12.322 1115 91.1937 119.802 464.924
972 0 94.6633 13.342 1263 89.498 119.9 462.026
973 0 96.3731 12.9393 1247 90.8661 119.116 459.678
974 0 100.326 12.6387 1268 90.6293 119.685 459.457
975 0 102.441 13.11 1343 90.9665 119.165 457.33
976 0 107.346 11.7937 1266 91.466 119.007 456.246
977 1 54.2356 11.7082 635 83.4551 120.455 486.857
978 0 57.3211 12.3689 709 84.5106 119.652 480.764
979 0 57.1166 12.6583 723 86.1701 117.433 484.6
980 0 60.1432 13.7173 825 86.4497 117.919 482.676
981 0 62.024 12.2856 762 89.4344 117.602 481.921
982 0 64.1788 11.7952 757 91.3184 117.329 480.535
983 0 65.0832 12.8758 838 90.1754 118.097 479.585
984 0 67.1277 12.3347 828 91.0833 117.902 482.851
985 0 69.3149 11.7002 811 94.3107 117.222 479.004
986 0 70.3384 12.3119 866 93.8614 117.906 479.156
987 0 73.1597 12.3429 903 93.8837 118.553 478.509
988 0 74.2416 12.3785 919 95.3732 118.731 476.579
989 0 78.2214 12.6564 990 94.6717 118.879 474.65
990 0 82.2777 13.7097 1128 92.9645 118.666 473.737
991 0 85.2623 12.4557 1062 95.0565 118.787 473.098
992 0 88.1699 12.612 1112 94.8516 118.913 470.798
993 0 90.2324 13.1217 1184 94.2559 119.59 467.281
994 1 48.0249 10.7861 518 91.9614 118.154 488.581
995 0 51.0356 11.8349 604 88.8411 119.652 490.046
996 0 51.063 10.8102 552 94.0888 120.629 487.203
997 0 52.0705 12.1758 634 92.2476 120.12 486.211
998 0 57.1771 13.4145 767 89.1982 118.919 486.803
999 0 56.0697 12.6807 711 93.3868 117.536 486.9
1000 0 56.0789 13.0352 731 93.3817 118.642 486.77
1001 0 60.0915 12.9636 779 91.914 118.194 485.919
1002 0 62.0417 13.3459 828 91.3152 119.431 483.208
1003 0 63.2353 14.2167 899 91.1357 119.746 480.679
1004 0 66.1648 15.3858 1018 88.6493 120.048 481.274
1005 0 66.171 12.377 819 95.3883 119.335 479.247
1006 0 68.2083 12.6671 864 95.6319 119.294 479.399
1007 0 68.1705 12.5274 854 96.3993 119.911 478.735
1008 0 70.0975 12.7822 896 96.4152 119.942 477.837
1009 0 72.2088 11.5498 834 98.9053 119.837 474.394
1010 0 77.0649 13.7806 1062 93.5744 119.745 476.047
1011 0 78.1337 12.9778 1014 95.5789 120.021 473.676
1012 0 80.1869 13.3314 1069 94.9906 120.105 471.587
1013 0 82.0825 14.0468 1153 94.3651 119.393 472.308
1014 0 85.218 12.603 1074 96.9181 119.588 469.113
1015 0 88.1058 13.4838 1188 94.2938 118.955 469.783
1016 0 92.296 13.6301 1258 95.124 118.809 466.825
1017 0 89.2334 12.3496 1102 94.696 117.869 461.558
1018 1 48.2254 9.93252 479 89.5219 117.904 478.002
1019 0 48.2574 9.47005 457 90.6302 117.619 477.584
1020 0 54.4206 9.61033 523 90.4054 117.832 477.728
1021 0 53.1963 9.66233 514 90.1167 117.881 477.597
1022 0 56.179 9.77234 549 90.9107 117.789 474.976
1023 0 62.2219 11.8769 739 96.2788 118.161 482.605
1024 0 63.2022 11.0756 700 97.8414 118.22 481.69
1025 0 66.1892 12.9779 859 94.5541 118.157 477.938
1026 0 68.2223 12.1368 828 95.4203 118.342 478.236
1027 0 72.2514 12.9548 936 93.9231 118.391 478.059
1028 0 73.271 12.406 909 95.5853 118.347 474.296
1029 0 74.1866 12.3068 913 96.4326 118.818 474.435
1030 0 77.246 13.1139 1013 93.4413 119.042 474.556
1031 0 79.2245 12.1175 960 94.5333 118.932 470.838
1032 0 81.1241 11.6365 944 92.0519 119.04 471.458
1033 0 85.1381 11.4637 976 91.4641 120.064 471.614
1034 0 88.3009 11.7439 1037 91.9065 119.213 469.852
1035 1 47.1503 10.6256 501 91.1118 120.387 487.882
1036 0 49.1593 11.4933 565 88.4354 120.499 488.145
1037 0 49.046 11.846 581 89.1893 119.972 486.207
1038 0 50.0392 11.1912 560 89.1054 120.657 486.038
1039 0 51.0488 11.7926 602 88.2043 120.296 488.046
1040 0 53.1268 10.9926 584 90.2586 119.423 486.832
1041 0 57.0856 12.1397 693 87.3478 119.251 485.899
1042 0 59.0631 12.9861 767 86.605 119.557 486.794
1043 0 59.1612 13.0491 772 87.6995 119.425 484.605
1044 0 61.1408 12.9537 792 87.3586 120.009 484.461
1045 0 65.1146 14.0675 916 85.3297 120.442 481.384
1046 0 63.1174 12.4213 784 90.2985 120.501 479.503
1047 0 68.0872 14.2024 967 85.9783 120.656 478.904
1048 0 68.0613 13.3262 907 88.1136 120.964 478.353
1049 0 74.1136 13.7627 1020 85.898 120.513 478.334
1050 0 71.114 12.262 872 90.8291 119.669 476.587
1051 0 75.1643 14.4351 1085 86.9982 119.289 474.279
1052 0 75.2461 11.7747 886 92.1038 119.696 474.556
1053 0 78.2018 12.391 969 91.3013 119.916 472.106
1054 0 82.1161 14.1629 1163 88.5494 120.083 470.176
1055 0 83.181 11.7936 981 92.5525 119.489 470.149
1056 0 88.1321 13.2982 1172 89.4377 119.627 469.119
1057 0 87.1533 13.5394 1180 84.7042 119.15 468.919
1058 0 89.1447 11.285 1006 88.8578 119.028 468.138
1059 0 93.202 12.5748 1172 86.9121 118.795 466.244
1060 1 48.0685 12.6694 609 87.5008 117.246 488.928
1061 0 51.4594 12.1066 623 88.7255 118.222 486.122
1062 0 52.1111 11.226 585 91.1436 117.884 486.576
1063 0 52.0721 11.4649 597 84.0586 120.012 486.178
1064 0 52.1394 11.546 602 84.7259 119.962 487.287
1065 0 53.0669 9.74241 517 87.2205 119.76 487.511
1066 0 58.1081 12.0121 698 83.9054 119.337 484.517
1067 0 62.0481 12.8288 796 82.5691 119.621 483.95
1068 0 59.0745 10.9692 648 86.4506 120.029 481.539
1069 0 62.1249 10.656 662 86.6072 119.615 484.924
1070 0 66.1041 11.966 791 84.9317 119.762 479.671
1071 0 68.1959 12.0682 823 85.2503 119.435 480.084
1072 0 73.1606 12.8211 938 83.9094 120.133 478.468
1073 0 72.1573 11.5581 834 87.8441 119.987 476.989
1074 0 76.1466 12.6861 966 82.0694 120.203 477.314
1075 0 77.0623 12.5353 966 82.7101 119.547 473.685
1076 0 80.1829 12.6835 1017 81.9154 119.187 474.547
1077 0 84.2408 13.1884 1111 86.36 119.66 471.35
1078 0 89.0873 13.4026 1194 85.995 119.491 470.472
1079 1 46.1233 11.1223 513 88.2417 120.961 491.051
1080 0 48.1074 12.4929 601 88.198 120.1 491.057
1081 0 52.0371 12.4334 647 95.7821 120.068 487.703
1082 0 53.0476 12.9129 685 95.092 120.904 486.762
1083 0 55.0601 12.0232 662 96.3354 120.639 488.042
1084 0 57.0444 13.1652 751 94.7616 119.999 487.883
1085 0 60.2007 11.4451 689 97.2627 120.412 487.238
1086 0 60.0988 12.4462 748 97.8489 119.981 485.572
1087 0 63.0551 12.6239 796 96.858 119.977 485.393
1088 0 64.0793 13.1556 843 97.5943 120.858 482.399
1089 0 67.0418 13.0814 877 97.6306 120.383 482.639
1090 0 71.0491 12.8503 913 97.2979 120.219 482.336
1091 0 71.0386 12.7959 909 99.4114 120.147 481.018
1092 0 75.2478 14.0204 1055 97.8256 120.885 478.655
1093 0 78.1134 14.7094 1149 97.0557 120.56 476.957
1094 0 82.2295 14.3987 1184 96.9721 120.191 477.976
1095 0 82.1981 14.684 1207 98.4308 119.817 473.47
1096 0 83.1131 13.2831 1104 101.548 119.476 475.866
1097 0 86.0685 13.4892 1161 100.873 119.863 473.615
1098 1 45.0506 12.83 578 95.9239 120.045 491.574
1099 0 46.105 12.1896 562 94.6762 119.899 493.633
1100 0 46.1887 10.9984 508 95.8268 120.022 493.709
1101 0 48.083 13.2479 637 93.7598 119.322 490.904
1102 0 52.0908 13.2077 688 92.3198 119.334 490.988
1103 0 51.0343 12.5994 643 93.9191 119.972 490.577
1104 0 54.0977 12.385 670 95.7537 119.815 488.266
1105 0 53.0804 12.0948 642 96.8614 119.19 487.952
1106 0 54.1135 14.1554 766 93.6606 118.913 487.841
1107 0 56.0975 12.3535 693 94.7605 119.446 490.583
1108 0 57.0468 12.5862 718 95.5265 119.493 487.032
1109 0 61.0989 14.0101 856 92.4801 119.187 485.232
1110 0 63.1235 12.8954 814 94.774 119.41 484.198
1111 0 60.1295 11.6914 703 98.4737 120.181 484.213
1112 0 65.1257 13.4049 873 94.8625 119.793 481.919
1113 0 68.1435 12.503 852 95.4495 119.777 483.095
1114 0 68.1143 13.0222 887 96.9391 119.344 478.625
1115 0 72.1339 13.7245 990 95.0081 119.579 478.801
1116 0 74.1007 13.5896 1007 94.9801 119.793 475.472
1117 0 77.1452 13.52 1043 95.3519 119.64 477.132
1118 0 80.1669 13.7089 1099 94.5268 119.6 475.838
1119 0 83.2222 12.9893 1081 96.024 119.685 475.468
1120 0 84.0828 13.5937 1143 97.1785 118.853 471.037
1121 0 89.1256 13.509 1204 97.1603 118.976 471.156
1122 0 91.1804 12.5685 1146 99.9642 119.132 469.537
1123 1 48.0893 11.6242 559 102.397 119.449 489.853
1124 0 50.0959 13.015 652 101.629 119.262 487.975
1125 0 51.0984 10.744 549 90.0492 118.537 486.774
1126 0 52.1187 12.0494 628 89.7484 118.911 484.468
1127 0 54.1462 11.5982 628 90.8217 118.597 483.123
1128 0 54.0397 12.3428 667 91.1379 118.853 481.766
1129 0 57.1578 12.8766 736 104.678 118.292 483.969
1130 0 62.2396 13.3195 829 101.789 118.429 483.583
1131 0 63.1388 13.3991 846 101.422 118.673 483.625
1132 0 67.1811 14.6023 981 99.5342 118.602 480.372
1133 0 68.1853 14.2846 974 100.42 118.725 480.466
1134 0 69.2382 13.6919 948 101.982 118.841 481.338
1135 0 71.1303 13.8338 984 103.016 118.612 479.225
1136 0 76.1523 13.7225 1045 101.69 118.138 478.801
1137 0 77.1549 13.4146 1035 103.719 118.613 475.857
1138 0 78.2199 12.2731 960 105.885 118.825 475.07
1139 0 83.2836 14.1805 1181 100.814 118.29 475.048
1140 0 86.2712 14.3849 1241 102.176 118.094 471.306
1141 0 88.3952 14.4012 1273 101.994 117.724 472.465
1142 1 46.0709 11.4606 528 103.5 117.928 491.288
1143 0 48.2688 11.2288 542 95.81 120.53 491.544
1144 0 49.0453 13.3958 657 93.0091 119.044 488.953
1145 0 51.1292 13.2018 675 95.44 119.969 490.233
1146 0 51.3491 12.8727 661 97.6778 119.218 489.241
1147 0 55.0396 15.0255 827 92.7243 118.255 487.077
1148 0 57.2891 14.4705 829 94.0084 117.872 487.136
1149 0 58.1026 14.6637 852 94.0411 117.32 485.709
1150 0 61.0289 15.1076 922 92.0987 117.863 485.728
1151 0 60.1958 13.6554 822 96.0182 117.893 484.533
1152 0 63.0981 14.3111 903 93.3588 117.383 483.394
1153 0 64.0851 14.075 902 94.7295 118.195 481.332
1154 0 66.1379 13.4114 887 96.0248 117.928 480.392
1155 0 69.1514 12.4799 863 97.0348 117.911 479.322
1156 0 69.1899 12.2272 846 98.4444 118.223 478.286
1157 0 72.1402 14.25 1028 95.2276 117.995 477.584
1158 0 75.1834 11.9175 896 95.1194 118.004 478.725
1159 0 79.1649 12.834 1016 93.7785 118.353 476.396
1160 0 81.1195 13.3753 1085 95.2175 118.16 474.735
1161 0 82.1479 12.8305 1054 97.0541 117.935 472.772
1162 0 87.0713 14.1608 1233 94.704 117.944 475.252
1163 0 90.1063 13.9169 1254 97.047 118.512 471.403
1164 0 91.1238 12.3458 1125 100.588 118.578 469.381
1165 0 97.1099 14.6226 1420 96.4366 118.832 465.474
1166 0 100.204 14.1112 1414 97.657 118.745 466.694
1167 1 52.0368 12.5104 651 100.444 118.631 487.066
1168 0 55.1138 12.5014 689 101.106 118.71 488.279
1169 0 56.2832 12.0284 677 104.873 119.456 485.752
1170 0 59.2555 12.5052 741 103.694 118.633 485.575
1171 0 61.2162 12.7744 782 103.334 118.345 485.09
1172 0 62.2328 12.1801 758 104.058 118.277 484.368
1173 0 64.2217 12.5658 807 103.831 119.129 483.473
1174 0 65.2623 12.0284 785 106.894 118.702 481.885
1175 0 69.2626 13.1673 912 103.662 118.963 479.51
1176 0 68.2165 12.0059 819 108.049 118.735 479.009
1177 0 73.29 13.0714 958 105.08 118.719 478.601
1178 0 73.3228 12.1654 892 107.184 119.119 477.377
1179 0 76.2344 12.4091 946 105.593 118.865 477.8
1180 0 80.179 14.1434 1134 103.202 118.465 474.138
1181 0 83.2653 12.9346 1077 103.708 118.38 471.735
1182 1 43.0222 11.7846 507 96.5266 118.862 493.247
1183 0 44.0623 12.21 538 95.0353 117.29 491.396
1184 0 45.0503 12.2752 553 94.5389 117.094 491.372
1185 0 48.0272 11.9724 575 96.0452 119.645 490.647
1186 0 48.0998 11.8296 569 97.1213 118.958 490.817
1187 0 50.0995 13.3734 670 95.1612 119.534 488.122
1188 0 50.1085 11.5749 580 98.5121 118.828 489.733
1189 0 51.0836 11.2952 577 100.154 118.317 487.497
1190 0 53.1251 13.2329 703 96.5889 119.125 486.559
1191 0 52.1485 11.7549 613 102.214 118.817 486.259
1192 0 56.1023 13.315 747 99.1673 118.797 484.684
1193 0 58.1626 13.1528 765 98.0837 118.976 485.762
1194 0 59.1188 12.754 754 97.5371 119.038 484.267
1195 0 60.1613 13.1979 794 97.3514 118.908 482.263
1196 0 61.1438 12.168 744 99.9852 118.969 482.016
1197 0 66.2015 13.5949 900 96.6367 118.607 480.179
1198 0 67.2655 13.3947 901 98.0266 118.713 481.876
1199 0 71.2044 15.1255 1077 93.9554 118.533 479.65
1200 0 71.1728 13.685 974 97.6232 118.487 478.82
1201 0 73.2564 12.5723 921 100.036 118.789 476.303
1202 0 77.1413 14.467 1116 95.621 118.634 475.325
1203 0 80.0952 12.9221 1035 98.3546 118.335 473.959
1204 0 83.3372 11.9754 998 101.184 117.894 472.73
1205 0 85.1754 12.4097 1057 100.356 118.184 474.783
1206 1 45.0475 12.1206 546 98.9652 119.407 490.718
1207 0 47.0704 13.0868 616 97.8295 119.385 489.521
1208 0 49.3179 11.6793 576 102.174 116.884 487.503
1209 0 49.0778 13.1017 643 98.762 116.672 488.633
1210 0 49.1551 11.5553 568 94.6813 117.982 482.863
1211 0 51.1923 12.2675 628 94.0685 117.74 483.952
1212 0 52.2025 11.6086 606 95.8317 117.972 483.723
1213 0 51.0869 10.3549 529 99.6314 118.684 481.278
1214 0 55.1093 11.9581 659 103.405 119.308 479.654
1215 0 58.0747 12.2084 709 102.228 119.274 479.921
1216 0 56.0689 11.4502 642 106.086 119.329 476.921
1217 0 60.1689 13.2959 800 101.565 118.948 477.854
1218 0 62.0692 12.5344 778 103.711 118.775 477.36
1219 0 64.0726 12.5327 803 104.196 119.405 475.857
1220 0 68.0545 13.6067 926 102.85 118.137 476.123
1221 0 69.1185 12.5581 868 105.635 118.417 475.006
1222 0 72.0446 12.6311 910 106.584 117.195 473.815
1223 0 75.0941 13.2767 997 107.148 117.076 472.361
1224 0 79.0974 13.7299 1086 99.0378 117.504 475.273
1225 0 81.1092 13.3893 1086 102.57 117.189 471.813
1226 0 85.1191 16.2126 1380 97.1312 118.238 469.159
1227 0 87.1551 12.908 1125 104.212 117.933 467.539
1228 0 91.1995 13.761 1255 103.617 117.813 469.571
1229 1 45.214 12.0759 546 110.205 118.971 492.114
1230 0 49.2037 12.2348 602 109.738 118.51 491.233
1231 0 52.2799 13.4468 703 108.532 117.994 489.836
1232 0 51.1424 13.0616 668 110.792 117.829 489.63
1233 0 55.1626 13.5055 745 109.148 118.231 490.197
1234 0 56.1559 13.9968 786 109.332 118.003 488.74
1235 0 57.0922 14.3102 817 109.853 117.953 487.409
1236 0 59.2929 15.0271 891 107.787 118.025 485.626
1237 0 62.1731 14.4275 897 107.913 118.245 486.443
1238 0 62.1221 15.0188 933 108.854 118.126 483.85
1239 0 64.1198 14.8472 952 104.511 118.637 484.478
1240 0 67.1443 14.0444 943 107.183 118.182 483.276
1241 0 70.1764 14.435 1013 105.565 117.688 480.912
1242 0 72.1309 13.7389 991 106.87 118.255 480.322
1243 0 74.1416 14.3104 1061 105.54 118.749 479.193
1244 0 77.1334 13.8591 1069 106.075 117.769 479.164
1245 0 78.0728 13.2312 1033 108.257 116.829 477.714
1246 0 80.1056 14.2437 1141 106.511 116.852 475.77
1247 0 83.1103 14.3424 1192 106.026 117.232 473.831
1248 0 85.0973 13.1849 1122 110.234 117.34 472.684
1249 1 46.0753 10.982 506 107.342 116.377 494.154
1250 0 48.2402 12.6451 610 106.177 117.026 491.63
1251 0 51.1509 13.6459 698 103.643 116.97 488.754
1252 0 52.0889 13.573 707 110.655 116.409 489.455
1253 0 53.1989 13.6093 724 110.938 116.327 489.528
1254 0 53.3457 13.853 739 110.801 116.267 487.663
1255 0 57.0727 15.051 859 105.43 117.072 487.984
1256 0 57.181 14.7601 844 107.457 117.525 485.588
1257 0 59.17 15.3118 906 105.985 117.161 485.847
1258 0 60.2503 13.5933 819 110.35 116.946 485.176
1259 0 61.1006 14.648 895 108.336 117.313 482.771
1260 0 63.1925 14.2897 903 107.315 118.096 484.085
1261 0 63.1826 13.7221 867 111.412 117.008 483.137
1262 0 66.1545 15.1464 1002 107.58 117.475 480.213
1263 0 69.3533 14.4478 1002 109.002 116.791 478.379
1264 0 73.5129 15.0722 1108 106.68 117.146 476.262
1265 0 74.5463 14.0718 1049 109.884 117.077 475.257
1266 0 76.3892 13.5359 1034 111.805 117.009 475.594
1267 0 78.4103 14.5899 1144 113.721 117.246 474.781
1268 0 82.4899 14.6442 1208 112.465 116.927 472.053
1269 0 83.3966 14.5929 1217 113.534 117.42 471.3
1270 0 85.3291 14.2155 1213 115.212 116.692 470.338
1271 0 88.2978 14.6097 1290 114.464 117.276 466.951
1272 0 90.2711 14.5451 1313 114.944 117.196 467.489
1273 0 93.4256 14.3002 1336 114.542 117.222 465.86
1274 1 52.4466 10.3153 541 117.917 116.641 488.701
1275 0 51.3066 11.6164 596 102.394 117.134 483.445
1276 0 51.3594 11.916 612 101.505 118.142 485.922
1277 0 52.4589 10.065 528 103.051 117.877 484.466
1278 0 53.2408 11.0442 588 102.752 118.046 482.577
1279 0 55.4333 12.0686 669 101.079 117.735 482.632
1280 0 57.3481 12.1887 699 101.348 118.432 481.936
1281 0 60.2893 12.0088 724 106.829 118.779 485.63
1282 0 62.1676 13.7853 857 104.443 118.657 481.142
1283 0 66.2006 14.6978 973 101.519 117.631 481.204
1284 0 67.1969 13.0661 878 104.56 118.609 480.206
1285 0 69.3025 12.7845 886 104.536 119.046 480.894
1286 0 71.2064 12.9623 923 105.559 118.592 477.614
1287 0 74.2481 13.3202 989 105.416 118.678 475.949
1288 0 78.3577 12.4685 977 106.033 118.397 476.922
1289 0 80.2024 13.5906 1090 104.929 118.191 474.284
1290 0 84.1076 13.994 1177 104.069 117.48 472.646
1291 0 86.2002 14.0255 1209 103.739 117.741 471.182
1292 0 90.1833 13.7498 1240 103.896 118.123 469.7
1293 0 92.1463 12.7406 1174 105.532 118.928 465.121
1294 0 98.1658 13.2836 1304 103.657 119.005 464.402
1295 1 49.1567 12.7755 628 100.146 119.446 487.234
1296 0 50.2543 12.6357 635 101.321 119.603 485.764
1297 0 52.0931 12.996 677 99.4579 120.124 486.241
1298 0 56.139 14.001 786 97.0865 120.37 485.854
1299 0 55.1015 12.3227 679 101.785 120.169 485.515
1300 0 54.0542 11.914 644 104.12 119.852 483.943
1301 0 58.1487 13.3967 779 100.118 119.875 482.281
1302 0 62.0845 13.3367 828 99.1099 120.68 481.972
1303 0 62.1244 13.7466 854 98.4309 120.337 479.622
1304 0 63.1698 12.8859 814 101.021 119.217 479.479
1305 0 67.1885 12.0259 808 102.087 119.198 480.577
1306 0 69.088 14.4453 998 97.2796 118.876 480.04
1307 0 70.1486 13.785 967 99.9855 118.882 477.574
1308 0 72.0925 13.7324 990 101.172 119.056 478.181
1309 0 73.1789 13.8155 1011 101.971 119.267 474.838
1310 0 77.1662 13.7755 1063 101.623 120.148 475.452
1311 0 78.2648 13.1732 1031 104.553 119.654 473.079
1312 0 79.2103 12.1196 960 107.559 118.981 471.718
1313 0 83.1779 13.4651 1120 105.112 118.806 471.744
1314 0 86.166 14.1355 1218 104.686 118.796 468.411
1315 0 88.1364 14.5116 1279 105.02 119.112 469.143
1316 0 91.1518 13.6805 1247 106.858 118.745 468.467
1317 0 95.1596 14.7121 1400 104.391 118.405 467.062
1318 0 99.1169 15.0227 1489 104.816 118.471 465.783
1319 0 100.173 14.7445 1477 105.739 118.636 463.85
1320 0 106.136 15.0467 1597 105.31 118.387 461.337
1321 0 109.186 14.5256 1586 107.032 118.107 461.652
1322 0 113.235 14.5537 1648 107.555 118.314 458.033
1323 0 118.317 14.8499 1757 110.331 117.362 455.632
1324 0 122.167 15.2169 1859 110.01 117.776 454.198
1325 1 63.0791 14.9495 943 103.573 118.925 482.085
1326 0 66.1118 14.3696 950 105.08 118.948 480.544
1327 0 66.1612 14.0868 932 106.973 118.725 482.593
1328 0 68.0873 13.7764 938 108.681 118.571 479.392
1329 0 71.1901 14.1171 1005 108.297 118.219 479.408
1330 0 72.0601 14.2242 1025 108.685 118.795 477.692
1331 0 75.0554 13.6033 1021 111.161 118.882 476.484
1332 0 78.18 15.3236 1198 106.975 118.215 476.312
1333 0 80.0965 14.47 1159 109.554 118.624 475.812
1334 0 81.2261 13.3578 1085 112.651 119.384 474.603
1335 0 85.1111 13.7702 1172 111.62 118.913 472.788
1336 0 86.2683 14.8258 1279 110.104 118.508 472.584
1337 0 88.1172 14.1403 1246 112.389 118.394 471.021
1338 0 93.1613 14.2763 1330 110.782 118.515 471.559
1339 0 94.1559 13.7007 1290 114.028 118.451 468.802
1340 0 97.1578 14.1625 1376 112.492 118.391 468.288
1341 0 97.2129 14.2677 1387 113.479 118.986 465.247
1342 0 100.257 14.8219 1486 112.795 119.26 463.852
1343 0 104.133 14.6639 1527 113.065 118.607 461.458
1344 0 107.224 15.4444 1656 111.254 118.798 461.101
1345 0 112.155 15.9689 1791 109.718 118.566 458.689
1346 0 117.225 15.0565 1765 110.913 117.812 458.984
1347 0 117.267 15.4434 1811 112.476 117.937 454.94
1348 0 121.314 13.9473 1692 115.279 117.804 454.527
1349 0 125.366 14.6451 1836 114.205 117.659 450.399
1350 0 130.463 14.2263 1856 116.304 117.32 445.797
1351 0 136.26 13.6577 1861 110.464 116.765 446.648
1352 0 140.461 14.2174 1997 110.454 117.217 442.312
1353 0 146.346 13.9943 2048 110.653 117.397 440.795
1354 1 84.1962 13.3616 1125 106.675 117.138 472.78
1355 0 86.282 12.5866 1086 110.008 116.968 471.547
1356 0 87.2185 13.105 1143 110.63 116.86 469.935
1357 0 91.2278 14.3268 1307 107.92 116.962 468.998
1358 0 93.1927 13.2521 1235 110.977 117.42 467.528
1359 0 95.1739 12.2513 1166 115.105 116.657 466.475
1360 0 100.255 13.0168 1305 116.261 116.768 465.014
1361 0 101.194 12.2043 1235 119.584 116.303 464.303
1362 0 106.244 13.5161 1436 116.2 116.829 461.56
1363 0 108.245 13.3216 1442 115.052 118.881 458.804
1364 0 113.214 13.682 1549 113.898 118.935 456.163
1365 0 118.303 13.4062 1586 113.643 118.977 454.898
1366 0 120.179 14.1622 1702 112.649 118.567 454.418
1367 0 125.186 13.6676 1711 114.515 118.784 452.676
1368 0 132.183 15.3802 2033 109.989 118.001 450.227
1369 0 135.28 13.6236 1843 113.405 118.203 448.916
1370 0 141.473 12.589 1781 117.003 117.951 445.889
1371 1 72.0722 12.7511 919 116.251 119.357 474.061
1372 0 74.1248 12.8432 952 117.929 119.612 474.574
1373 0 78.116 12.059 942 118.214 119.284 475.692
1374 0 82.0891 13.1564 1080 115.999 119.745 472.13
1375 0 82.094 12.9364 1062 118.199 119.686 471.513
1376 0 85.0914 13.9732 1189 115.733 119.557 468.433
1377 0 90.0898 12.8205 1155 115.909 119.616 469.383
1378 0 88.1796 12.3952 1093 108.887 119.078 468.887
1379 0 92.1886 13.8303 1275 105.788 118.907 467.638
1380 0 98.1835 10.4294 1024 111.864 119.711 468.576
1381 0 97.1754 12.7707 1241 109.364 119.001 463.113
1382 0 99.2508 13.4004 1330 108.798 118.861 460.923
1383 0 101.25 13.1951 1336 109.649 118.714 458.669
1384 0 107.144 13.1132 1405 107.933 118.619 461.99
1385 0 108.213 12.1612 1316 110.361 119.651 461.049
1386 0 111.158 11.6231 1292 111.958 119.249 459.02
1387 0 114.225 13.0707 1493 110.02 118.492 454.925
1388 0 118.16 14.3957 1701 105.847 118.338 453.66
1389 0 119.298 11.8443 1413 112.565 118.347 450.976
1390 0 125.176 12.3745 1549 111.323 118.523 448.611
1391 0 129.439 12.616 1633 109.624 119.5 444.093
1392 0 133.322 12.9761 1730 108.435 118.473 442.851
1393 0 138.319 12.2398 1693 106.989 117.178 440.998
1394 0 144.312 13.3253 1923 106.492 116.941 435.901
1395 0 149.395 12.1088 1809 109.275 117.182 435.555
1396 0 153.394 12.1126 1858 109.16 116.7 433.715
1397 0 159.492 13.7123 2187 105.121 117.532 427.401
1398 0 166.584 13.2546 2208 105.527 117.248 424.357
1399 0 170.837 13.4573 2299 104.345 117.325 426.257
1400 0 175.816 12.1036 2128 106.68 117.245 421.451
1401 0 183.745 13.4643 2474 104.342 116.484 418.034
1402 0 187.755 12.6814 2381 105.449 116.798 416.131
1403 0 193.728 14.4481 2799 102.234 116.911 411.539
1404 0 199.826 13.3366 2665 104.178 116.711 410.203
1405 0 207.582 12.9154 2681 104.786 116.5 404.641
1406 0 212.846 12.9013 2746 106.192 115.989 397.958
1407 0 217.669 13.741 2991 104.383 116.372 390.791
1408 0 226.773 14.5652 3303 101.449 115.69 393.742
1409 1 48.2329 7.62965 368 90.6386 115.601 477.326
1410 0 51.341 8.62858 443 88.6501 115.783 475.941
1411 0 54.3555 10.5049 571 84.1173 116.443 480.408
1412 0 60.1356 10.1604 611 82.4763 115.998 483.854
1413 0 57.2112 9.52611 545 85.8789 118.556 485.853
1414 0 57.2647 8.45198 484 88.3223 118.267 484.045
1415 0 63.1844 11.142 704 84.6307 118.011 479.993
1416 0 60.2355 6.25877 377 89.0106 118.759 488.366
1417 0 68.2076 11.509 785 83.7452 117.654 478.317
1418 0 72.2177 10.2468 740 85.173 117.628 476.897
1419 0 74.4567 12.1278 903 82.5194 118.02 474.338
1420 0 75.2318 9.72992 732 86.7281 118.174 471.156
1421 0 80.2998 10.9216 877 84.9008 118.029 473.383
1422 0 82.3735 9.56618 788 88.2817 118.198 471.495
1423 0 84.4843 8.90106 752 87.4455 117.608 473.753
1424 1 41.0577 10.2539 421 87.5131 118.988 487.368
1425 0 45.1019 10.1991 460 81.9891 120.65 488.848
1426 0 45.2272 10.3035 466 86.1073 120.489 473.154
1427 0 48.1576 9.78039 471 84 121.081 462.83
1428 0 47.2865 9.68563 458 84.8144 120.701 464.247
1429 0 51.2801 10.5109 539 84.1169 120.499 448.824
1430 0 51.2223 9.44901 484 87.188 120.033 449.14
1431 0 54.337 11.4103 620 83.5677 119.432 459.913
1432 0 53.1324 11.1043 590 85.9186 120.486 473.488
1433 0 55.2236 12.386 684 83.0409 119.889 479.759
1434 0 58.2101 11.4241 665 84.4451 119.612 478.847
1435 1 77.6376 15.2632 1185 65.8768 117.796 462.404
1436 0 74.3785 20.0192 1489 63.4762 116.208 463.429
1437 0 72.1813 16.32 1178 72.0314 116.818 468.288
1438 0 72.1701 22.9319 1655 66.1003 116.001 466.993
1439 0 73.1153 13.7181 1003 80.0877 116.551 471.696
1440 0 72.1912 15.7498 1137 78.2524 116.955 468.455
1441 0 72.156 14.1638 1022 83.0264 116.81 466.907
1442 0 70.1681 12.3988 870 88.4161 117.218 467.292
1443 0 74.1602 12.5134 928 87.9504 117.276 468.193
1444 0 77.2808 12.7846 988 87.0972 117.811 466.296
1445 0 78.268 14.5398 1138 85.0606 117.034 466.877
1446 0 81.2479 14.8065 1203 84.5428 117.66 466.032
1447 0 82.4088 11.1153 916 92.4804 117.795 464.471
1448 0 84.123 14.5264 1222 86.793 118.593 465.326
1449 0 87.2686 12.9485 1130 90.1673 118.017 464.404
1450 0 89.1731 11.9767 1068 92.9176 118.104 461.996
1451 0 96.1492 13.9263 1339 87.8402 118.166 465.511
1452 0 97.1637 13.1222 1275 87.8847 117.722 468.637
1453 0 100.318 12.9289 1297 90.9522 117.729 463.147
1454 0 103.215 14.7653 1524 87.7887 117.593 460.188
1455 1 60.1211 12.2253 735 87.6952 116.811 485.974
1456 0 60.1181 12.4422 748 89.488 116.774 484.17
1457 0 61.1934 12.9099 790 95.5797 118.458 479.899
1458 0 65.2755 13.42 876 93.6336 116.804 481.946
1459 0 66.0986 14.0548 929 91.8622 116.196 481.28
1460 0 66.198 13.8826 919 93.5462 117.27 480.665
1461 0 68.1493 14.1601 965 93.6477 117.368 477.812
1462 0 72.3619 14.9388 1081 90.2294 116.887 479.695
1463 0 68.1394 13.4577 917 95.7372 116.847 479.469
1464 0 71.3011 13.6183 971 95.3357 117.596 478.533
1465 0 75.3859 12.6416 953 95.915 118.045 478.687
1466 0 74.3595 12.7623 949 96.5026 117.592 478.846
1467 0 78.4192 13.3003 1043 95.1419 118.261 475.734
1468 0 80.1765 12.672 1016 96.3504 117.37 474.139
1469 0 84.2582 13.696 1154 93.7244 118.691 473.873
1470 0 86.3185 12.3612 1067 96.6036 117.532 473.634
1471 0 88.5642 13.3124 1179 95.9703 117.478 468.376
1472 0 92.3177 13.3344 1231 95.5386 117.022 467.51
1473 0 95.4184 14.2111 1356 93.3938 117.386 468.313
1474 0 98.379 13.0821 1287 95.4359 117.32 462.446
1475 0 103.457 15.214 1574 90.2014 117.692 461.395
1476 0 103.289 13.0702 1350 91.9393 116.968 455.834
1477 1 54.3643 10.8343 589 91.747 117.146 474.263
1478 0 56.3098 11.6143 654 90.4434 116.561 473.151
1479 0 61.3158 13.2429 812 93.7894 116.903 481.591
1480 0 63.2003 14.5411 919 90.778 117.322 481.63
1481 0 64.2248 13.6552 877 93.8415 116.716 479.723
1482 0 63.3622 12.6574 802 97.4264 116.46 477.261
1483 0 66.1742 13.1169 868 95.9263 117.056 478.402
1484 0 68.1552 12.002 818 96.3472 116.616 480.394
1485 0 69.333 12.9808 900 97.2744 116.874 477.177
1486 0 72.2075 13.0596 943 97.2651 116.378 477.399
1487 0 77.208 15.0243 1160 92.775 116.749 476.185
1488 0 77.3979 14.6645 1135 95.1762 117.13 472.663
1489 0 82.3751 15.3809 1267 93.2518 116.83 470.713
1490 0 80.2001 12.9302 1037 96.2941 116.598 472.403
1491 0 84.2546 13.3643 1126 95.9298 116.678 470.448
1492 0 87.36 12.9808 1134 96.2813 116.964 467.809
1493 0 87.4973 12.0918 1058 100.113 116.783 464.682
1494 0 91.297 13.9326 1272 98.1533 116.903 458.99
1495 0 91.2871 12.6852 1158 102.716 116.408 456.111
1496 0 98.5066 13.2478 1305 100.495 116.773 454.15
1497 0 101.805 14.4394 1470 97.9388 117.054 455.371
1498 0 106.547 14.1909 1512 98.9676 117.198 452.037
1499 0 107.435 12.3609 1328 103.088 116.716 446.592
1500 1 61.3529 13.3653 820 95.2524 116.976 485.266
1501 0 62.2818 12.893 803 90.4396 116.377 485.519
1502 0 60.0925 12.3809 744 93.375 116.168 485.751
1503 0 64.1348 12.7232 816 92.038 115.983 483.431
1504 0 67.1232 13.5125 907 84.7133 116.69 483.691
1505 0 68.0901 11.7932 803 89.6513 117.568 481.418
1506 0 68.0787 12.4121 845 90.342 117.657 482.986
1507 0 67.0902 12.1925 818 93.0697 117.917 480.205
1508 0 70.1085 13.3507 936 91.0556 117.218 479.768
1509 0 70.114 12.5795 882 94.712 117.463 478.745
1510 0 70.113 12.9933 911 94.7563 117.005 480.335
1511 0 74.1353 12.2749 910 94.178 116.644 477.532
1512 0 76.1608 13.2089 1006 91.8479 116.765 475.535
1513 0 80.0608 12.9402 1036 99.5145 118.037 475.189
1514 0 83.1352 12.6541 1052 98.8432 117.909 474.196
1515 0 86.1076 13.0186 1121 96.95 118.098 470.649
1516 0 89.0891 14.0421 1251 93.7786 118.549 472.06
1517 0 89.2598 12.7605 1139 96.6743 118.856 470.63
1518 0 92.1064 12.1381 1118 98.2531 118.15 469.551
1519 0 96.1299 12.7952 1230 96.5911 118.611 467.181
1520 0 99.0798 12.7473 1263 96.2676 118.128 463.853
1521 0 101.162 12.2575 1240 97.0911 118.308 466.209
1522 1 55.0155 11.6876 643 94.1166 118.286 487.865
1523 0 56.0346 11.9212 668 92.762 118.599 489.367
1524 0 58.1516 12.6222 734 91.406 118.257 485.842
1525 0 56.2081 12.685 713 99.9804 116.356 486.247
1526 0 57.1704 12.1042 692 95.4364 118.473 485.656
1527 0 58.0553 12.5053 726 96.2645 118.488 484.942
1528 0 61.0278 12.9777 792 95.4912 119.165 485.057
1529 0 63.1148 11.9465 754 97.191 118.877 485.255
1530 0 64.1255 13.4736 864 95.8935 118.964 484.061
1531 0 62.0983 11.4818 713 102.224 118.889 483.227
1532 0 67.103 12.7267 854 99.6979 118.615 482.26
1533 0 68.0773 13.5287 921 100.382 118.354 481.124
1534 0 71.1189 13.9203 990 100.233 118.277 481.835
1535 0 72.0571 12.6844 914 104.629 118.457 480.405
1536 0 75.167 12.8248 964 105.145 117.98 480.328
1537 0 77.1403 13.1449 1014 106.592 117.806 478.706
1538 0 79.0983 13.0091 1029 108.28 118.011 476.869
1539 0 82.1809 14.5898 1199 104.636 118.487 476.404
1540 0 84.3214 13.7806 1162 108.188 117.699 475.294
1541 0 88.2103 14.1253 1246 107.823 117.831 474.173
1542 1 49.1285 11.7854 579 112.465 119.326 492.518
1543 0 51.0186 13.8577 707 105.446 118.979 490.908
1544 0 54.1688 13.3287 722 101.589 115.571 488.245
1545 0 52.0818 12.5956 656 106.584 115.169 487.98
1546 0 56.0706 14.5887 818 108.358 115.979 488.988
1547 0 58.0885 13.0835 760 108.909 115.643 488.668
1548 0 58.0162 13.0308 756 109.696 115.183 486.721
1549 0 60.0748 14.9147 896 104.792 115.215 486.487
1550 0 63.0552 12.9252 815 109.12 115.234 486.564
1551 0 62.0369 12.8956 800 111.314 115.175 484.932
1552 0 64.0849 12.9672 831 111.458 115.202 484.477
1553 0 69.0634 14.0451 970 107.936 114.966 482.958
1554 0 68.0299 13.3471 908 110.722 114.508 481.749
1555 0 71.0488 13.1177 932 108.759 114.745 479.979
1556 0 74.1321 14.5551 1079 104.58 114.703 479.215
1557 0 76.1306 14.3044 1089 106.019 114.884 477.001
1558 0 78.1944 14.9883 1172 105.02 114.601 475.873
1559 0 80.1355 13.552 1086 108.096 114.977 476.534
1560 0 84.1103 14.5404 1223 106.46 114.704 474.44
1561 0 85.096 14.2075 1209 107.864 114.768 471.408
1562 0 88.1534 13.9189 1227 109.208 114.471 471.125
1563 0 89.1959 12.9714 1157 111.326 114.777 469.933
1564 0 96.0911 13.2062 1269 108.125 114.951 469.663
1565 1 50.0385 12.1307 607 110.575 114.522 488.952
1566 0 52.1566 12.6734 661 107.245 114.431 489.766
1567 0 53.1043 14.1985 754 104.196 114.786 487.222
1568 0 56.025 12.8336 719 107.266 114.541 488.134
1569 0 57.0396 13.4994 770 105.808 114.438 486.668
1570 0 59.0461 13.5657 801 105.057 114.396 485.28
1571 0 61.1436 14.0489 859 104.54 114.424 485.842
1572 0 60.1345 13.6527 821 107.725 114.157 484.25
1573 0 63.0806 13.237 835 107.629 113.444 485.249
1574 0 64.1179 14.177 909 105.699 114.13 483.143
1575 0 67.1353 15.0592 1011 102.602 114.649 480.647
1576 0 68.0998 13.9795 952 105.092 114.666 481.337
1577 0 71.1457 14.5476 1035 104.167 114.843 478.89
1578 0 73.1543 13.6561 999 106.582 114.224 477.739
1579 0 76.1574 14.0105 1067 105.379 114.616 476.526
1580 0 77.2546 13.915 1075 106.101 114.924 475.804
1581 0 79.3784 13.19 1047 108.039 115.049 473.138
1582 0 83.1807 14.8352 1234 102.854 115.112 471.006
1583 0 84.152 13.9509 1174 104.785 114.933 467.808
1584 0 88.2875 13.8638 1224 104.966 115.253 464.499
1585 0 90.4014 13.8604 1253 105.005 115.547 463.745
1586 1 47.0862 11.8081 556 103.509 115.236 485.239
1587 0 47.2188 10.5466 498 100.363 115.139 484.213
1588 0 51.1774 10.317 528 95.9205 116.981 483.242
1589 0 49.123 10.9521 538 105.019 115.03 482.461
1590 0 52.2458 11.6564 609 95.4023 115.672 483.19
1591 0 53.1617 13.4495 715 99.9217 116.333 479.694
1592 0 54.2252 11.065 600 104.047 116.245 480.043
1593 0 59.1288 12.4981 739 100.012 116.016 480.809
1594 0 63.1142 12.8339 810 106.185 115.437 483.307
1595 0 67.1721 12.7583 857 104.856 115.189 483.777
1596 0 68.178 12.9367 882 105.795 115.773 481.46
1597 0 71.3351 14.3408 1023 102.969 115.331 480.165
1598 0 71.1921 12.3469 879 107.309 115.507 480.086
1599 0 74.453 12.9881 967 106.33 115.892 478.156
1600 0 76.4167 13.7012 1047 104.703 116.495 477.12
1601 0 75.2749 12.8595 968 105.156 115.519 475.321
1602 0 81.321 15.113 1229 100.156 115.102 474.594
1603 0 84.5517 14.9849 1267 99.9195 115.721 473.155
1604 0 85.586 15.0842 1291 101.38 115.898 470.507
1605 0 88.5295 14.7183 1303 102.395 115.274 469.708
1606 0 93.3647 15.0057 1401 100.92 115.702 469.706
1607 0 93.4345 13.8493 1294 105.548 115.808 466.296
1608 0 99.3014 15.1559 1505 103.716 115.528 465.864
1609 1 52.108 15.1608 790 99.0443 115.776 488.414
1610 0 53.1366 13.9828 743 101.96 116.388 488.599
1611 0 54.1672 13.3845 725 104.517 115.752 488.061
1612 0 57.2584 15.0022 859 100.304 116.192 485.483
1613 0 59.0757 15.624 923 98.6002 116.623 487.103
1614 0 61.2142 14.5881 893 100.299 116.083 484.343
1615 0 64.3096 14.6634 943 100.63 115.292 482.466
1616 0 66.386 14.25 946 101.826 114.995 481.363
1617 0 69.363 14.143 981 101.187 115.089 481.04
1618 0 69.1028 13.8779 959 103.435 115.296 477.114
1619 0 74.1776 15.1124 1121 99.1472 115.442 477.596
1620 0 77.314 13.8397 1070 102.527 115.114 476.336
1621 0 80.2634 14.8013 1188 100.467 115.219 473.923
1622 0 83.3867 13.4554 1122 107.671 114.913 473.791
1623 0 87.2269 14.3878 1255 106.281 114.997 469.279
1624 0 90.425 14.4429 1306 106.167 114.967 469.176
1625 0 92.4136 12.9202 1194 110.315 115.415 466.106
1626 0 95.363 13.758 1312 108.063 115.228 467.151
1627 0 100.391 13.9554 1401 107.537 115.931 463.69
1628 0 102.404 13.7592 1409 108.134 115.732 462.788
1629 0 107.341 13.8623 1488 107.929 115.517 459.735
1630 1 57.09 13.1372 750 100.896 114.673 483.268
1631 0 60.4496 13.168 796 100.886 114.597 483.304
1632 0 62.1135 13.9583 867 99.5848 114.253 483.02
1633 0 63.1218 12.7848 807 101.931 114.12 481.985
1634 0 66.1852 13.16 871 100.379 114.133 481.343
1635 0 68.0948 13.07 890 101.199 114.42 481.815
1636 0 69.1063 12.4301 859 103.501 114.698 480.118
1637 0 72.1399 13.2936 959 102.185 114.537 478.967
1638 0 76.1598 14.312 1090 101.813 114.301 476.061
1639 0 77.1536 13.2852 1025 103.512 114.094 474.876
1640 0 82.1119 14.5898 1198 100.473 114.669 474.965
1641 0 84.2342 15.7181 1324 100.066 114.222 474.518
1642 0 85.1088 12.9599 1103 107.457 114.161 472.976
1643 0 88.1646 14.178 1250 109.018 113.613 469.421
1644 0 91.1412 14.3184 1305 108.275 114.388 470.006
1645 0 92.1015 14.0714 1296 110.796 114.083 466.364
1646 0 97.163 14.3676 1396 108.049 114.797 468.677
1647 0 99.2076 14.6461 1453 109.083 115.448 464.516
1648 0 100.273 13.2039 1324 113.765 115.463 463.355
1649 1 56.1857 12.868 723 109.772 116.069 485.613
1650 0 58.122 12.9383 752 109.822 115.669 485.144
1651 0 59.2036 13.4958 799 107.787 115.829 482.756
1652 0 62.1659 14.4291 897 107.478 115.727 482.794
1653 0 62.2616 12.8329 799 112.325 115.758 482.079
1654 0 63.2305 12.5098 791 112.64 115.627 482.19
1655 0 66.14 12.5794 832 112.189 115.94 480.804
1656 0 69.0855 12.9405 894 110.973 116.445 480.494
1657 0 70.1195 13.6766 959 109.485 115.411 478.258
1658 0 74.2126 14.189 1053 104.218 114.289 477.217
1659 0 74.1518 13.1892 978 106.796 115.399 478.248
1660 0 77.2307 13.4402 1038 108.613 115.45 476.313
1661 0 78.2058 13.3238 1042 109.343 115.458 475.23
1662 0 81.2827 13.8898 1129 107.665 114.956 475.938
1663 0 83.1288 14.1227 1174 108.174 115.053 474.089
1664 0 85.2283 13.6809 1166 110.058 115.784 471.258
1665 0 88.1395 13.3992 1181 113.307 114.975 469.896
1666 0 93.258 14.6368 1365 111.382 115.16 468.653
1667 0 96.2088 15.3208 1474 109.541 115.336 468.033
1668 0 98.2145 13.0938 1286 114.809 115.84 467.227
1669 0 100.208 13.5419 1357 115.957 115.279 465.357
1670 0 103.16 12.8635 1327 117.534 115.659 464.57
1671 0 108.254 14.0041 1516 115.869 115.255 460.601
1672 0 109.156 13.1005 1430 116.315 115.273 458.668
1673 0 114.147 12.922 1475 115.557 115.792 456.523
1674 0 121.357 13.8352 1679 111.73 114.729 455.756
1675 1 63.1822 12.9942 821 111.974 114.091 477.502
1676 0 64.1327 11.4606 735 114.878 114.332 473.804
1677 0 62.0447 11.6045 720 106.225 114.31 476.344
1678 0 67.0481 12.3792 830 101.104 115.186 476.469
1679 0 69.1371 11.441 791 102.948 115.478 479.082
1680 0 73.126 14.6323 1070 104.727 116.243 477.554
1681 0 76.0586 12.4904 950 108.119 115.823 477.5
1682 0 78.2697 11.8948 931 109.033 116.321 476.546
1683 0 81.1662 12.4806 1013 109.128 115.933 473.738
1684 0 82.2252 12.0401 990 110.473 116.04 471.356
1685 0 85.1316 13.532 1152 107.589 115.792 470.543
1686 0 88.0992 11.3281 998 109.905 116.028 473.952
1687 0 91.0694 12.8803 1173 109.309 115.48 468.171
1688 0 94.1596 13.8064 1300 106.635 116.052 468.09
1689 0 96.174 12.6333 1215 109.202 115.496 467.079
1690 0 100.215 13.9001 1393 105.447 115.864 464.294
1691 0 102.124 12.8276 1310 108.532 115.88 462.485
1692 0 106.127 13.5404 1437 107.639 115.848 462.235
1693 0 108.176 11.5552 1250 112.302 116.182 458.746
1694 1 59.1452 11.1928 662 109.674 116.071 484.424
1695 0 63.1109 12.0581 761 107.101 115.77 484.239
1696 0 64.2712 12.2761 789 113.935 115.63 481.567
1697 0 67.1872 12.4577 837 113.191 115.072 480.775
1698 0 68.2824 13.4588 919 112.041 115.897 479.144
1699 0 70.2009 12.7491 895 113.363 116.006 479.798
1700 0 72.2323 13.7196 991 112.29 116.319 479.071
1701 0 74.243 13.3077 988 114.085 116.144 477.232
1702 0 75.2975 12.4838 940 117.504 115.819 476.573
1703 0 80.2314 13.137 1054 115.146 115.996 474.838
1704 0 82.1534 13.633 1120 113.68 116.336 475.721
1705 0 83.2296 14.3579 1195 110.321 115.99 471.248
1706 0 83.1687 12.0959 1006 116.887 115.906 471.068
1707 0 88.2563 13.9027 1227 111.601 115.637 469.088
1708 0 89.2361 12.3268 1100 115.407 116.021 470.838
1709 0 91.3243 13.8189 1262 112.116 115.987 467.294
1710 1 47.2792 11.3581 537 113.54 115.905 489.669
1711 0 48.29 11.1203 537 107.978 115.337 487.732
1712 0 48.2622 11.7069 565 101.549 115.276 482.727
1713 0 48.0438 11.0316 530 98.3943 116.426 487.662
1714 0 51.1363 11.9485 611 105.612 115.689 489.786
1715 0 52.1188 11.7232 611 106.236 115.853 488.867
1716 0 53.1179 11.3709 604 108.74 114.901 488.497
1717 0 55.1239 13.6057 750 103.788 115.164 487.311
1718 0 57.1522 12.8604 735 106.385 115.159 486.239
1719 0 60.0663 12.7193 764 106.084 115.577 485.042
1720 0 60.2 12.3256 742 107.869 115.48 483.352
1721 0 60.1618 12.3168 741 109.254 115.636 483.744
1722 0 65.197 13.2368 863 106.809 115.579 483.72
1723 0 66.1438 13.3497 883 107.508 115.484 481.301
1724 0 66.2631 12.5258 830 110.577 115.488 479.9
1725 0 71.2404 13.672 974 112.476 115.161 479.906
1726 0 72.2331 14.0102 1012 112.679 114.959 477.891
1727 0 75.1376 12.7499 958 116.448 115.193 475.342
1728 0 77.2056 13.4964 1042 115.266 114.62 474.943
1729 0 77.184 12.2694 947 118.072 115.289 474.9
1730 0 81.1402 13.0145 1056 115.493 114.875 473.324
1731 0 83.1882 13.3913 1114 114.523 114.803 471.992
1732 0 84.199 11.8054 994 118.436 115.118 470.787
1733 0 90.1886 13.749 1240 113.802 115.483 471.319
1734 0 91.1989 12.7633 1164 116.71 114.996 470.542
1735 0 95.2341 13.4091 1277 113.528 114.929 467.864
1736 1 52.1152 12.2613 639 114.664 114.696 489.216
1737 0 54.1921 12.1973 661 122.287 114.469 487.242
1738 0 57.0894 12.2264 698 122.024 113.9 486.639
1739 0 58.1342 13.228 769 118.809 114.075 487.84
1740 0 58.1254 13.4365 781 120.493 114.289 485.174
1741 0 60.2108 13.1206 790 120.659 114.565 485.465
1742 0 64.0911 13.7149 879 118.873 115.085 483.679
1743 0 65.2352 13.9955 913 117.922 115.551 482.383
1744 0 68.1433 13.3249 908 119.843 114.947 481.5
1745 0 69.1138 13.2535 916 120.308 114.975 480.859
1746 0 73.2099 15.2302 1115 114.49 115.349 478.914
1747 0 74.1607 14.7518 1094 115.936 115.019 478.536
1748 0 77.2031 14.8828 1149 116.271 114.989 475.738
1749 0 80.1406 15.6725 1256 113.592 115.149 475.468
1750 0 81.1225 14.6692 1190 116.232 115.538 474.686
1751 0 83.1123 13.6201 1132 119.668 115.395 471.987
1752 0 88.1538 14.5995 1287 116.091 114.948 472.382
1753 0 89.1964 13.9467 1244 117.721 115.479 471.367
1754 1 48.1759 12.9733 625 121.074 116.109 489.914
1755 0 50.1136 14.108 707 118.149 115.064 489.364
1756 0 52.11 13.9513 727 117.406 114.931 489.765
1757 0 54.2364 13.8652 752 117.322 115.104 490.67
1758 0 56.1761 14.4367 811 116.527 115.033 489.227
1759 0 57.1165 13.9715 798 117.898 114.771 487.127
1760 0 57.2056 13.4078 767 120.464 115.327 486.782
1761 0 60.1137 12.9421 778 120.362 115.816 486.189
1762 0 61.1972 14.1346 865 118.221 115.319 484.397
1763 0 64.1058 14.2421 913 117.038 114.309 482.867
1764 0 65.2204 13.3394 870 117.6 114.801 485.113
1765 0 70.1051 14.735 1033 112.907 115.194 482.046
1766 0 70.2403 13.3114 935 108.003 114.636 482.342
1767 0 70.2101 12.6477 888 111.186 114.525 481.01
1768 0 74.1354 14.8242 1099 107.254 114.403 477.594
1769 0 76.202 14.2253 1084 108.832 114.188 477.49
1770 0 80.2109 14.0006 1123 109.527 114.24 475.061
1771 0 84.3391 14.3468 1210 108.925 114.48 475.207
1772 0 88.1734 14.5735 1285 111.356 114.554 472.276
1773 0 91.2363 14.2706 1302 112.231 113.929 469.724
1774 1 46.1461 12.3954 572 112.907 114.502 491.189
1775 0 50.2592 13.9875 703 112.589 114.111 489.738
1776 0 52.1455 13.3664 697 108.859 114.373 490.237
1777 0 53.1121 13.1608 699 111.515 114.555 488.856
1778 0 54.1445 13.5563 734 111.319 114.576 487.262
1779 0 57.0719 13.8422 790 109.943 114.727 486.756
1780 0 58.0868 13.652 793 110.346 115.059 486.487
1781 0 60.13 13.4043 806 112.79 114.746 484.694
1782 0 62.1021 14.0897 875 107.816 115.31 483.753
1783 0 65.133 14.171 923 107.399 114.472 483.141
1784 0 68.1117 15.0194 1023 105.842 114.621 481.558
1785 0 67.2541 13.6795 920 110.877 115.797 478.941
1786 0 70.1941 13.3202 935 110.988 115.11 478.617
1787 0 72.249 13.9102 1005 110.514 115.722 476.145
1788 0 76.3137 14.9514 1141 107.01 115.934 473.995
1789 0 77.1338 13.7683 1062 109.724 115.658 476.275
1790 0 80.2409 13.8209 1109 108.271 116.452 474.347
1791 0 81.2673 14.0524 1142 109.112 116.33 472.752
1792 0 87.0984 15.2356 1327 108.621 116.062 470.977
1793 0 88.2289 14.7457 1301 110.71 115.984 468.48
1794 0 91.2204 14.9418 1363 109.268 116.125 470.119
1795 0 93.2324 14.5872 1360 110.994 115.626 468.204
1796 0 95.1815 13.9523 1328 113.885 115.438 465.356
1797 0 100.268 15.0496 1509 110.801 115.848 465.188
1798 0 102.268 14.2762 1460 113.789 115.403 463.873
1799 0 105.248 15.0216 1581 111.773 115.71 462.126
1800 0 108.284 15.1916 1645 111.917 115.842 458.917
1801 0 112.25 13.6748 1535 114.566 116.343 460.416
1802 1 62.1395 11.8926 739 112.931 116.031 482.401
1803 0 63.1432 13.9682 882 106.328 116.025 480.294
1804 0 67.1059 13.9481 936 105.488 116.238 478.312
1805 0 67.131 12.7512 856 108.479 116.769 478.311
1806 0 73.1062 13.7608 1006 102.608 115.883 476.428
1807 0 72.1589 12.2369 883 107.001 115.826 474.019
1808 0 77.114 13.9145 1073 101.972 116.195 472.512
1809 0 77.133 12.6664 977 104.346 116.252 471.896
1810 0 82.0766 13.061 1072 103.604 116.39 471.396
1811 0 86.1224 13.713 1181 103.713 115.957 469.23
1812 0 87.1065 14.2928 1245 104.197 116.1 466.385
1813 0 91.1196 13.8938 1266 104.679 116.521 466.261
1814 0 93.1445 13.055 1216 107.924 116.292 463.946
1815 0 97.2104 13.764 1338 105.783 116.315 464.086
1816 0 99.103 14.1065 1398 106.994 116.052 460.617
1817 0 103.196 14.0121 1446 107.073 116.29 457.85
1818 0 106.222 13.4435 1428 109.483 116.005 456.153
1819 1 58.2032 11.477 668 109.009 114.606 480.012
1820 0 58.113 11.4604 666 107.712 114.773 475.375
1821 0 60.3347 11.6351 702 104.494 114.541 477.957
1822 0 63.0595 12.6864 800 102.805 116.278 481.159
1823 0 63.1881 11.8218 747 112.431 116.929 480.858
1824 0 68.3681 12.8569 879 109.134 117.009 481.774
1825 0 71.1327 14.2269 1012 106.182 116.208 479.911
1826 0 73.268 13.3619 979 107.391 116.48 479.269
1827 0 76.1563 13.1703 1003 107.642 117.328 477.899
1828 0 76.2494 14.0198 1069 107.141 116.824 475.557
1829 0 78.2734 13.3634 1046 108.724 116.778 475.341
1830 0 78.2537 13.2134 1034 110.012 117.093 473.959
1831 0 83.2025 13.8217 1150 108.022 116.728 471.515
1832 0 85.3986 13.6888 1169 107.98 116.388 470.945
1833 0 87.5411 14.0391 1229 107.144 117.242 469.625
1834 0 89.496 13.509 1209 108.519 116.852 468.67
1835 0 91.3661 13.8126 1262 109.311 115.993 466.013
1836 0 95.3718 13.2219 1261 105.64 115.822 466.733
1837 0 97.3541 13.8053 1344 106.42 116.089 463.332
1838 0 98.4071 13.5966 1338 109.286 116.028 461.661
1839 0 102.567 14.4685 1484 106.763 115.472 459.624
1840 0 105.436 13.3445 1407 109.779 115.203 459.878
1841 0 107.602 13.2526 1426 111.015 115.071 457.069
1842 0 112.824 14.0484 1585 108.644 115.435 455.316
1843 0 114.714 13.5206 1551 111.117 115.009 453.898
1844 0 120.765 14.0935 1702 109.062 115.609 450.793
1845 0 123.85 13.0319 1614 110.173 115.355 451.499
1846 0 124.905 13.2821 1659 109.272 115.107 448.344
1847 1 66.7107 11.0327 736 103.83 115.769 478.678
1848 0 69.8139 11.2585 786 102.729 115.961 474.284
1849 0 71.158 12.7322 906 104.27 116.581 474.273
1850 0 73.1332 12.3747 905 105.596 116.344 473.503
1851 0 75.2647 11.9312 898 107.014 115.986 472.45
1852 0 76.1503 12.3834 943 107.759 115.507 468.107
1853 0 79.1989 12.0582 955 108.641 116.094 467.843
1854 0 85.312 12.2023 1041 105.743 116.182 470.883
1855 0 85.2479 11.3434 967 109.345 116.491 468.276
1856 0 89.221 11.6901 1043 107.929 116.949 467.408
1857 0 91.1992 12.7085 1159 107.833 116.311 462.06
1858 0 96.1542 12.1992 1173 107.041 116.132 462.367
1859 0 99.2346 12.6569 1256 106.953 115.83 457.83
1860 0 99.1719 12.7254 1262 107.293 116.004 454.708
1861 0 103.271 12.7141 1313 106.232 116.053 457.699
1862 0 108.201 12.7171 1376 105.823 116.344 455.84
1863 0 110.162 12.6269 1391 106.713 115.779 454.469
1864 0 112.343 12.266 1378 106.093 114.446 452.695
1865 0 117.258 12.6387 1482 106.09 114.73 444.287
1866 0 121.375 12.9269 1569 105.339 114.332 442.974
1867 1 65.3552 11.032 721 108.936 113.859 467.449
1868 0 67.4797 12.3296 832 105.201 114.353 470.005
1869 0 69.1856 11.5342 798 105.585 114.041 475.554
1870 0 73.1197 12.4453 910 104.667 113.846 472.034
1871 0 73.2325 11.7161 858 107.174 113.928 472.353
1872 0 76.2221 12.1356 925 105.236 114.959 469.218
1873 0 77.0753 12.3645 953 105.411 114.541 467.516
1874 0 81.2854 11.9948 975 106.443 115.011 465.652
1875 0 81.2581 12.4418 1011 107.674 115.07 464.266
1876 0 85.3102 13.4802 1150 105.093 115.178 460.802
1877 0 87.3609 11.4926 1004 108.362 115.474 462.102
1878 0 88.4166 11.4571 1013 108.881 115.966 458.092
1879 0 91.4096 12.5807 1150 107.748 114.987 455.374
1880 1 47.1827 9.77053 461 110.469 113.82 476.017
1881 0 46.2775 10.1129 468 110.964 113.66 474.038
1882 0 51.1808 11.4691 587 107.135 113.47 475.177
1883 0 54.1898 11.349 615 108.883 113.198 484.733
1884 0 59.1205 12.4492 736 105.587 113.488 482.471
1885 0 58.1663 10.9857 639 109.493 113.59 482.435
1886 0 60.2336 12.1527 732 108.254 113.314 480.997
1887 0 63.1449 12.6376 798 106.722 113.769 480.254
1888 0 66.3133 13.3457 885 104.377 114.166 479.379
1889 0 71.274 13.9322 993 102.072 113.616 478.02
1890 0 72.2798 12.8805 931 105.161 114.203 476.591
1891 0 75.4034 13.5272 1020 102.117 114.404 477.312
1892 0 75.2846 12.2469 922 106.576 114.81 474.56
1893 0 78.3267 12.6011 987 105.553 113.958 472.983
1894 0 81.4101 12.7625 1039 105.092 114.113 472.696
1895 0 84.3488 14.1911 1197 102.606 113.856 469.382
1896 0 86.2385 13.2192 1140 104.69 114.421 469.474
1897 0 90.2838 13.5129 1220 103.671 114.964 468.975
1898 0 91.2188 12.6399 1153 105.824 115.277 467.539
1899 0 94.462 13.3599 1262 104.246 115.016 464.987
1900 0 96.4253 12.6419 1219 106.35 115.107 463.357
1901 0 88.2994 12.5595 1109 104.731 114.555 452.567
1902 0 95.2981 11.7316 1118 104.515 115.18 454.352
1903 0 100.296 13.201 1324 100.408 114.514 455.042
1904 0 100.237 12.8596 1289 102.654 114.645 451.188
1905 0 104.366 12.0921 1262 103.605 115.171 449.517
1906 1 59.1789 9.7501 577 95.7487 115.338 472.024
1907 0 59.1527 11.4449 677 93.6869 114.821 471.6
1908 0 62.0825 11.7263 728 90.7706 115.283 470.163
1909 0 63.1609 9.65787 610 94.3541 115.623 469.667
1910 0 67.1664 12.134 815 88.2245 116.515 474.721
1911 0 69.1315 12.5413 867 88.8316 115.534 470.249
1912 0 73.1299 10.5429 771 91.9442 115.73 468.486
1913 0 77.1288 11.7595 907 89.882 115.69 469.006
1914 0 77.1247 12.7845 986 88.6846 116.681 465.431
1915 0 80.0756 11.0645 886 91.2257 116.742 466.673
1916 0 84.1186 14.2418 1198 87.0927 116.166 463.361
1917 0 83.2054 10.8406 902 94.2916 116.384 461.316
1918 0 90.1452 13.9774 1260 87.6849 116.089 464.236
1919 0 88.2279 11.595 1023 94.3226 116.152 459.131
1920 0 92.1971 12.636 1165 93.0223 115.412 456.28
1921 0 95.1796 12.2715 1168 94.2748 115.772 453.295
1922 0 99.108 12.8849 1277 93.4002 115.273 455.704
1923 0 101.261 11.5246 1167 96.485 115.183 452.283
1924 0 102.211 12.8655 1315 96.4456 115.836 450.542
1925 0 106.227 10.92 1160 99.8681 115.581 446.737
1926 0 114.305 13.1578 1504 96.6177 115.286 447.715
1927 1 59.131 10.1301 599 102.98 116.798 471.117
1928 0 60.0244 10.2292 614 99.127 114.264 469.938
1929 0 63.1218 9.82227 620 94.2597 114.039 473.437
1930 0 66.0946 12.3913 819 94.1099 114.084 473.067
1931 0 69.1716 9.81617 679 100.757 113.529 469.296
1932 0 71.2476 11.2144 799 97.7234 113.919 470.561
1933 0 71.1071 9.4224 670 103.61 114.018 469.76
1934 0 78.116 11.0989 867 100.521 114.268 469.765
1935 0 79.1061 11.4656 907 100.947 114.272 466.915
1936 0 79.1958 10.3541 820 99.8976 115.09 465.445
1937 0 83.2696 11.9852 998 97.019 114.911 466.947
1938 0 87.176 10.1175 882 103.99 115.094 465.472
1939 0 92.1863 10.8042 996 102.342 115.37 463.035
1940 0 96.1449 11.7011 1125 102.284 115.023 462.372
1941 1 54.1425 10.8602 588 98.5867 116.571 487.66
1942 0 56.3577 11.0012 620 100.065 115.879 482.631
1943 0 55.144 9.86508 544 101.807 116.524 486.829
1944 0 57.1997 12.535 717 98.6151 116.01 483.777
1945 0 57.1092 10.6288 607 102.796 115.354 484.801
1946 0 60.248 11.6684 703 100.866 115.984 482.139
1947 0 62.081 11.5655 718 100.404 116.655 483.943
1948 0 63.1867 11.0466 698 102.742 116.563 482.928
1949 0 67.2284 12.7178 855 99.214 116.042 481.546
1950 0 68.1949 12.4349 848 100.85 115.522 481.631
1951 0 68.2468 12.2497 836 103.044 115.512 479.876
1952 0 71.1211 12.7529 907 100.527 116.398 480.609
1953 0 74.1147 12.737 944 101.427 115.814 476.412
1954 0 75.2041 13.6961 1030 99.2495 116.132 475.652
1955 0 77.1212 13.6927 1056 99.7292 115.627 475.306
1956 0 80.1719 13.5459 1086 100.16 115.951 473.994
1957 0 83.2143 13.291 1106 101.233 115.854 471.378
1958 0 84.3826 11.8626 1001 103.768 116.143 472.083
1959 0 86.2005 15.1507 1306 98.902 115.86 467.645
1960 0 90.3534 14.3215 1294 100.62 115.918 465.998
1961 0 92.2265 12.6753 1169 106.05 115.683 462.172
1962 0 97.2931 13.1253 1277 105.46 115.787 461.623
1963 0 99.3036 13.7155 1362 103.902 115.816 460.074
1964 0 102.162 13.3513 1364 106.361 115.935 459.933
1965 0 106.435 14.4972 1543 105.118 114.902 455.362
1966 0 108.572 13.1802 1431 106.925 115.24 456.66
1967 1 60.4701 11.8736 718 100.631 115.733 479.574
1968 0 61.4929 12.0502 741 101.194 114.92 478.664
1969 0 62.3485 10.329 644 102.621 116.356 482.486
1970 0 65.2006 11.687 762 99.7152 115.958 481.161
1971 0 66.3049 12.5632 833 98.3674 115.654 478.909
1972 0 68.1665 11.3399 773 100.441 115.643 477.525
1973 0 70.4112 11.2766 794 100.853 115.628 477.889
1974 0 72.2954 12.6149 912 98.2708 116.068 476.102
1975 0 76.2 11.7979 899 99.089 116.257 473.983
1976 0 79.2566 11.9612 948 98.308 115.64 473.766
1977 0 81.2342 12.6055 1024 98.7559 115.204 471.746
1978 0 83.342 12.8867 1074 97.2477 115.999 471.125
1979 0 85.4287 11.7525 1004 99.9094 115.763 470.08
1980 0 88.3072 12.683 1120 98.7661 115.02 467.423
1981 0 89.268 12.9386 1155 98.9203 115.074 466.496
1982 0 95.2682 13.9816 1332 97.2395 115.314 464.426
1983 0 97.3179 13.9029 1353 96.782 115.225 461.437
1984 0 100.281 11.6673 1170 100.064 115.093 461.29
1985 0 100.198 11.4174 1144 101.622 114.455 464.088
1986 0 105.405 12.8457 1354 99.1795 113.529 458.931
1987 0 108.139 11.929 1290 100.416 113.639 456.768
1988 0 111.211 12.6157 1403 98.5638 113.463 457.498
1989 0 115.365 13.4789 1555 96.9736 113.421 455.253
1990 1 65.0789 11.6013 755 93.1245 113.646 478.747
1991 0 68.1325 11.9326 813 90.3186 113.62 476.774
1992 0 71.097 12.5744 894 94.8456 113.096 478.871
1993 0 72.1354 11.1596 805 98.4683 112.999 477.369
1994 0 77.1333 13.8202 1066 92.8546 113.637 476.617
1995 0 79.1297 12.9534 1025 94.5483 113.451 477.267
1996 0 80.1491 12.5142 1003 96.3988 113.597 474.723
1997 0 83.1513 14.8043 1231 93.0301 113.491 472.012
1998 0 87.1324 11.9818 1044 97.3889 113.834 472.47
1999 0 91.0867 14.6783 1337 92.9035 113.744 471.505
2000 0 91.2043 12.7187 1160 98.1405 114.173 468.892
2001 0 94.1362 13.6292 1283 97.4154 113.566 467.795
2002 0 98.1935 14.0946 1384 95.8064 114.046 466.354
2003 0 100.345 13.5234 1357 97.8327 114.681 464.275
2004 0 104.392 14.618 1526 94.941 114.651 463.294
2005 0 106.464 11.9946 1277 101.247 114.16 461.532
2006 0 109.442 12.5546 1374 100.082 114.385 459.431
2007 0 113.433 13.7791 1563 96.7294 114.891 454.983
2008 0 113.299 12.9745 1470 98.5292 113.596 451.039
2009 0 113.299 11.9065 1349 100.933 113.477 452.524
2010 0 119.212 12.5994 1502 98.4095 113.589 445.009
2011 1 67.2487 11.4798 772 94.5142 114.885 472.347
2012 0 69.2489 11.437 792 94.8636 113.446 474.621
2013 0 70.1165 9.19898 645 100.953 113.054 469.443
2014 0 73.141 11.4026 834 95.8765 112.856 471.988
2015 0 75.204 13.1642 990 93.798 112.496 468.688
2016 0 75.2723 11.4385 861 97.8095 112.718 467.149
2017 0 79.205 12.1583 963 95.8027 113.481 469.469
2018 0 83.2624 12.887 1073 94.5144 113.389 467.555
2019 0 86.2988 11.5645 998 96.6363 113.122 464.208
2020 0 89.2096 12.7901 1141 94.8826 112.995 463.703
2021 0 90.2295 11.77 1062 97.6365 113.884 464.057
2022 0 96.4184 11.5953 1118 97.4052 114.343 461.154
2023 0 95.3941 11.2271 1071 92.2362 114.219 456.55
2024 0 102.222 11.7099 1197 93.1495 113.777 457.581
2025 1 57.2375 12.7888 732 84.0956 114.253 481.377
2026 0 61.0289 13.0594 797 95.8883 112.844 484.871
2027 0 61.0926 13.635 833 94.3217 112.898 484.079
2028 0 61.0941 12.1125 740 98.6203 112.782 482.012
2029 0 66.0876 13.4518 889 94.1406 113.219 480.336
2030 0 68.1306 14.3695 979 92.6619 113.34 480.82
2031 0 69.1037 13.2844 918 96.8203 113.48 479.599
2032 0 69.0262 13.8208 954 95.6614 113.305 479.85
2033 0 72.06 15.0985 1088 91.7013 113.094 479.816
2034 0 75.1064 12.8884 968 96.0207 113.33 477.924
2035 0 76.0354 12.7046 966 97.3188 113.278 475.371
2036 0 82.0521 13.5036 1108 94.3845 112.884 473.598
2037 0 83.1065 14.0904 1171 93.3237 112.75 474.18
2038 0 87.0812 15.4224 1343 90.8742 113.045 470.714
2039 0 88.1858 14.5715 1285 93.137 113.127 470.296
2040 0 90.2127 13.834 1248 95.2292 113.458 469.721
2041 0 94.1142 14.0893 1326 94.0196 113.494 469.129
2042 0 97.096 14.4393 1402 94.1919 113.19 467.402
2043 0 98.1333 14.0625 1380 96.4486 113.707 462.833
2044 0 101.058 14.5264 1468 94.7718 113.723 466.604
2045 0 102.164 13.2532 1354 99.4889 112.97 462.47
2046 0 108.18 15.8347 1713 93.488 113.293 458.893
2047 0 111.138 15.5302 1726 94.9542 112.845 457.663
2048 0 114.048 15.1779 1731 96.3593 113.188 457.248
2049 0 117.27 15.1872 1781 96.8327 113.404 454.048
2050 0 122.128 14.9843 1830 97.4809 113.38 455.24
2051 0 124.338 15.1924 1889 98.4224 113.381 451.934
2052 0 129.142 13.9227 1798 101.991 112.37 449.64
2053 1 67.0907 13.6084 913 104.041 113.797 476.466
2054 0 65.2054 12.2689 800 100.256 114.305 472.984
2055 0 70.0942 12.4832 875 99.6023 114.951 472.845
2056 0 71.1007 11.983 852 103.196 115.173 471.046
2057 0 73.2197 12.7015 930 101.877 115.433 470.661
2058 0 78.1863 14.0306 1097 98.2662 114.861 471.527
2059 0 80.1734 12.4605 999 103.464 115.092 469.251
2060 0 82.0886 11.4754 942 107.048 114.821 466.484
2061 0 85.3077 12.7773 1090 104.418 114.55 466.733
2062 0 90.3746 13.0457 1179 104.396 115.057 466.808
2063 0 92.1188 14.1122 1300 103.137 115.316 465.239
2064 0 93.2093 13.9686 1302 104.963 114.876 460.36
2065 0 95.143 13.2222 1258 107.157 114.544 459.267
2066 0 99.1581 14.0382 1392 105.563 114.572 460.63
2067 0 104.139 13.6644 1423 106.383 114.563 458.829
2068 1 58.1052 12.5806 731 100.071 114.665 483.804
2069 0 61.1644 13.9787 855 108.441 114.965 481.778
2070 0 64.1568 14.6204 938 107.668 114.581 480.355
2071 0 63.1124 14.5613 919 109.496 115.379 481.203
2072 0 67.1038 14.2019 953 110.137 115.147 481.039
2073 0 69.1902 14.5252 1005 110.282 114.734 478.731
2074 0 71.24 14.023 999 114.856 114.524 478.47
2075 0 74.2227 14.9011 1106 114.256 115.259 476.318
2076 0 76.2432 15.3063 1167 113.213 115.319 475.381
2077 0 80.2655 16.271 1306 111.299 114.644 474.235
2078 0 80.3672 13.5254 1087 119.845 114.437 474.364
2079 0 85.3108 13.7263 1171 118.554 114.88 472.887
2080 0 87.2584 14.6347 1277 116.33 114.861 470.642
2081 0 87.2991 13.7458 1200 119.478 115.081 470.078
2082 0 92.3858 15.8791 1467 114.449 114.352 467.784
2083 0 96.3301 14.5437 1401 117.67 114.601 468.115
2084 0 97.2319 14.6557 1425 118.36 114.43 465.684
2085 0 101.345 14.9391 1514 117.427 114.67 463.402
2086 0 102.361 14.3512 1469 118.882 114.421 463.666
2087 0 107.365 14.4832 1555 117.126 114.98 462.568
2088 0 111.29 14.5027 1614 117.239 114.77 459.37
2089 0 112.255 15.3936 1728 114.904 114.559 458.647
2090 0 117.161 14.7404 1727 115.023 114.326 459.651
2091 0 122.213 15.0556 1840 114.445 114.826 453.703
2092 0 125.277 14.903 1867 114.573 114.811 449.353
2093 0 130.302 13.6222 1775 116.384 113.913 452.027
2094 1 73.2631 12.653 927 108.297 113.209 476.693
2095 0 77.2302 14.0748 1087 105.106 114.128 476.169
2096 0 78.3688 13.0537 1023 107.354 114.814 475.856
2097 0 82.1411 13.5742 1115 105.022 114.701 475.245
2098 0 85.2482 14.7335 1256 102.608 114.682 473.296
2099 0 84.2511 13.6141 1147 106.741 114.606 470.657
2100 0 88.1569 15.5745 1373 101.806 114.597 469.207
2101 0 90.2783 14.3778 1298 104.787 114.558 466.667
2102 0 94.4843 13.8542 1309 104.413 114.306 468.433
2103 0 96.4539 12.0161 1159 109.701 114.923 466.913
2104 0 100.317 14.6236 1467 103.855 115.02 463.338
2105 0 104.246 13.1996 1376 106.942 114.773 464.422
2106 0 108.291 14.1286 1530 100.537 114.087 463.362
2107 1 60.0868 12.8314 771 100.588 114.46 483.964
2108 0 62.1575 11.5996 721 103.234 113.883 484.268
2109 0 63.1201 11.8504 748 105.1 113.91 483.345
2110 0 67.1502 13.9687 938 103.159 113.682 480.146
2111 0 67.0841 12.1489 815 102.524 114.04 480.429
2112 0 67.2357 12.2256 822 99.1874 114.089 476.086
2113 0 70.2213 13.6996 962 96.6195 113.754 475.708
2114 0 73.1055 13.0086 951 97.6656 114.269 473.467
2115 0 74.0965 13.0775 969 98.6068 114.028 473.035
2116 0 76.1859 12.0757 920 101.116 113.858 473.854
2117 0 79.2037 13.3706 1059 100.529 114.351 471.785
2118 0 83.2668 15.9127 1325 96.5864 114.062 469.718
2119 0 85.152 14.2099 1210 100.482 113.987 471.484
2120 0 89.1304 13.9907 1247 101.321 113.67 470.386
2121 0 90.1556 15.5398 1401 99.5211 114.483 467.366
2122 0 94.0782 13.9352 1311 102.426 114.525 468.85
2123 0 98.1832 13.648 1340 105.588 113.834 466.019
2124 0 101.241 14.1247 1430 106.013 113.924 465.006
2125 0 103.187 13.2381 1366 107.741 114.556 462.815
2126 0 107.213 14.3452 1538 107.119 113.86 460.613
2127 0 111.307 13.7638 1532 111.98 113.997 458.79
2128 0 114.298 13.8411 1582 112.047 114.332 456.487
2129 1 58.055 12.3848 719 110.321 113.901 483.232
2130 0 62.096 12.8833 800 111.722 113.49 481.715
2131 0 61.0792 13.9327 851 113.887 113.541 481.945
2132 0 67.2992 15.0819 1015 108.831 113.59 481.392
2133 0 69.3336 14.524 1007 110.749 113.364 480.536
2134 0 71.1811 14.7652 1051 109.812 114.441 479.716
2135 0 72.166 14.1341 1020 111.781 114.129 478.351
2136 0 76.1933 15.1326 1153 108.834 114.217 478.003
2137 0 77.5323 15.0518 1167 109.595 114.56 475.104
2138 0 80.1975 13.7037 1099 113.807 114.693 474.491
2139 0 81.3455 14.0635 1144 110.734 113.905 472.152
2140 0 83.3758 14.0808 1174 110.664 114.007 470.051
2141 0 87.2223 14.4 1256 109.679 114.459 469.118
2142 0 88.1313 14.6259 1289 111.54 113.876 467.181
2143 0 93.1082 15.1115 1407 108.077 114.089 468.646
2144 0 97.0932 15.0783 1464 109.383 113.73 466.049
2145 0 100.23 15.1452 1518 109.637 113.202 463.767
2146 0 105.262 15.9221 1676 107.28 113.962 461.662
2147 0 108.487 16.1033 1747 106.217 113.938 458.967
2148 0 111.446 15.1374 1687 108.143 113.733 457.087
2149 1 60.3652 13.3686 807 113.237 113.487 482.361
2150 0 62.4123 13.4268 838 113.297 114.125 481.747
2151 0 67.3652 14.5624 981 108.724 114.19 480.587
2152 0 67.5375 14.6881 992 109.613 113.786 478.532
2153 0 69.3075 13.4618 933 112.229 113.555 477.012
2154 0 72.4992 14.5519 1055 109.749 114.369 474.893
2155 0 76.3806 14.2314 1087 109.838 113.995 473.578
2156 0 79.4778 14.4946 1152 108.411 114.221 474.702
2157 0 82.3729 15.2235 1254 108.272 113.443 471.332
2158 0 82.4194 14.6689 1209 110.586 113.918 469.087
2159 0 87.3796 15.1637 1325 108.046 114.203 469.979
2160 0 89.5645 14.3472 1285 109.633 114.409 469.233
2161 0 91.3425 14.9109 1362 109.514 114.013 466.587
2162 0 94.2977 14.5815 1375 110.08 114.685 467.076
2163 0 97.6647 15.5532 1519 107.708 115.157 463.843
2164 0 99.5092 14.5012 1443 109.701 115.128 464.373
2165 0 104.36 16.2323 1694 105.731 115.082 461.901
2166 0 105.363 14.9103 1571 109.516 114.542 462.085
2167 0 106.408 14.6699 1561 111.22 114.347 458.897
2168 0 110.435 15.0225 1659 109.628 114.944 457.881
2169 0 112.475 14.1276 1589 111.855 114.687 456.604
2170 0 117.231 15.4737 1814 107.583 114.69 454.917
2171 0 124.39 14.9771 1863 108.309 114.311 452.482
2172 0 127.484 14.9822 1910 108.529 114.031 449.319
2173 0 131.296 14.8443 1949 109.459 114.029 446.227
2174 0 138.346 16.0539 2221 105.68 114.101 445.527
2175 0 143.458 16.1371 2315 105.189 114.456 442.994
2176 0 148.317 14.3612 2130 110.127 114.593 442.04
2177 0 152.427 15.9618 2433 106.887 114.208 437.815
2178 0 156.468 15.3003 2394 109.195 113.949 433.973
2179 0 162.332 14.2486 2313 117.576 113.938 431.414
2180 0 169.43 15.0564 2551 108.98 114.349 429.09
2181 0 176.533 14.4109 2544 110.654 114.02 427.527
2182 0 182.455 16.152 2947 106.641 113.785 424.261
2183 0 187.566 15.0987 2832 108.93 114.233 423.124
2184 0 192.656 15.8728 3058 107.256 113.895 420.146
2185 0 199.355 15.5752 3105 108.383 114.288 414.784
2186 0 206.469 15.6973 3241 108.217 113.95 411.33
2187 0 214.565 15.2774 3278 106.718 114.454 414.163
2188 0 220.629 15.6643 3456 107.624 113.462 403.193
2189 0 230.584 16.5536 3817 105.027 113.683 405.675
2190 0 235.413 15.7723 3713 108.992 113.827 395.129
2191 0 243.534 16.5357 4027 108.14 113.635 393.199
2192 0 251.519 15.8239 3980 109.399 113.394 388.771
2193 1 262.78 17.0066 4469 105.906 113.687 388.024
2194 0 274.765 16.7889 4613 106.74 113.31 381.606
2195 0 279.39 15.3298 4283 112.627 113.368 373.691
2196 0 291.841 16.8756 4925 109.827 113.65 371.4
2197 1 66.1599 11.835 783 107.049 114.453 477.29
2198 0 69.163 12.9983 899 107.528 114.967 479.849
2199 0 67.1703 12.9522 870 111.701 114.069 476.248
2200 0 70.0723 13.0294 913 111.492 113.538 475.92
2201 0 74.071 12.3125 912 113.343 113.424 475.586
2202 0 75.1224 13.711 1030 112.602 113.557 472.322
2203 0 78.1908 14.3623 1123 111.037 112.949 471.174
2204 0 79.1176 12.513 990 116.638 113.019 469.844
2205 0 83.1229 14.1958 1180 111.403 112.892 469.357
2206 0 87.1648 13.4114 1169 114.809 112.915 467.115
2207 0 92.1658 15.7542 1452 107.328 113.5 462.643
2208 0 90.3668 10.8668 982 121.798 113.353 463.759
2209 0 92.2972 12.5248 1156 117.104 113.06 458.343
2210 1 48.1564 10.0714 485 109.186 113.689 479.965
2211 0 46.3032 8.24997 382 116.147 114.366 478.034
2212 0 55.2691 11.4531 633 103.675 115.117 485.589
2213 0 54.0345 12.3625 668 102.79 113.826 485.795
2214 0 55.0806 10.9839 605 104.185 113.626 487.848
2215 0 58.0641 11.8318 687 102.472 113.387 486.045
2216 0 59.0251 11.4358 675 104.775 113.099 483.12
2217 0 62.118 10.4318 648 106.094 113.409 482.602
2218 0 64.0277 10.8859 697 104.277 113.945 483.066
2219 0 65.0554 11.2827 734 103.793 113.787 482.77
2220 0 67.0964 12.4448 835 103.431 113.668 479.527
2221 0 68.0374 10.9499 745 108.889 113.213 478.356
2222 0 70.1041 12.0535 845 106.06 113.639 477.927
2223 0 71.1632 12.0146 855 106.759 113.046 478.092
2224 0 75.1881 12.1562 914 103.274 113.693 477.63
2225 0 77.1879 12.3206 951 104.471 113.53 473.966
2226 0 81.3154 12.4331 1011 103.27 113.63 475.286
2227 0 83.2096 11.7054 974 105.373 113.73 473.777
2228 0 85.0877 12.0582 1026 104.756 114.251 473.255
2229 0 87.1522 10.889 949 110.032 113.813 468.28
2230 1 49.0812 11.8579 582 101.019 114.459 487.677
2231 0 51.0726 12.8249 655 98.7405 113.504 486.846
2232 0 48.0384 9.59648 461 104.85 113.705 489.774
2233 0 51.051 12.1055 618 100.833 113.848 487.597
2234 0 49.0236 10.5052 515 105.849 114.353 485.516
2235 0 53.0634 11.0246 585 104.113 113.285 487.241
2236 0 53.0555 11.177 593 104.602 113.906 485.874
2237 0 55.039 12.3549 680 102.759 112.434 485.607
2238 0 57.1008 11.8913 679 103.479 112.897 483.901
2239 0 55.1383 9.64846 532 107.966 112.726 483.934
2240 0 60.1383 11.1909 673 104.594 112.747 480.991
2241 0 61.0549 12.759 779 102.727 112.234 478.65
2242 0 63.1117 12.2957 776 102.515 112.866 480.619
2243 0 64.0794 12.1412 778 103.591 113.506 479.443
2244 0 67.0803 12.9695 870 100.939 113.597 480.457
2245 0 68.1015 13.3184 907 101.288 112.97 478.539
2246 0 69.0576 12.6127 871 101.292 113.504 480.991
2247 0 71.1972 13.4556 958 100.284 113.685 473.197
2248 0 75.0925 14.2624 1071 97.8712 113.766 475.453
2249 0 78.1679 13.5605 1060 98.3528 113.614 476.267
2250 0 78.1734 12.0118 939 102.345 114.15 475.32
2251 0 80.0948 13.3841 1072 99.5672 114.147 472.634
2252 0 83.0999 12.479 1037 101.111 114.596 471.874
2253 0 87.0935 13.7209 1195 98.3046 114.267 470.373
2254 0 89.0868 13.6159 1213 98.5251 114.125 468.923
2255 0 92.1207 12.9613 1194 99.2839 114.323 468.178
2256 0 94.2124 12.8752 1213 100.591 113.702 466.168
2257 0 96.1564 12.7813 1229 101.692 114.531 466.159
2258 0 98.2405 12.7035 1248 104.555 113.498 464.385
2259 0 103.385 13.8704 1434 105.495 113.294 464.752
2260 0 106.222 12.7845 1358 108.147 114.074 462.579
2261 1 60.1716 12.0489 725 101.844 113.873 489.484
2262 0 61.1163 12.0753 738 101.451 115.822 490.241
2263 0 61.0475 12.22 746 103.394 114.949 488.444
2264 0 64.0697 12.2211 783 104.158 114.278 489.277
2265 0 64.097 11.5606 741 108.452 112.858 489.985
2266 0 66.0448 12.3704 817 108.157 112.925 488.188
2267 0 68.2412 12.4558 850 108.259 111.026 488.391
2268 0 71.2532 12.7994 912 107.774 111.101 487.036
2269 0 74.2905 13.528 1005 107.015 110.14 487.452
2270 0 75.1995 12.1144 911 112.192 110.999 487.076
2271 0 77.1771 14.7971 1142 106.444 110.492 481.153
2272 0 80.2542 15.3388 1231 105.105 110.695 480.619
2273 0 80.3386 13.2937 1068 110.767 110.844 481.775
2274 0 85.3247 15.2125 1298 106.317 110.15 478.611
2275 0 86.2661 13.9916 1207 110.042 110.409 479.096
2276 0 90.2569 14.1153 1274 109.708 110.056 477.989
2277 0 92.27 15.0103 1385 106.148 109.182 474.858
2278 0 94.0929 14.4751 1362 107.994 109.168 473.419
2279 0 100.284 14.9076 1495 104.799 110.08 474.456
2280 0 99.412 13.2177 1314 108.644 110.136 466.676
2281 0 96.2491 12.7274 1225 109.026 109.875 459.27
2282 1 50.342 11.3623 572 89.2937 108.858 489.928
2283 0 51.3164 8.51579 437 93.421 108.519 491.343
2284 0 47.0979 9.34223 440 101.78 110.198 489.466
2285 0 55.049 11.517 634 105.834 109.872 495.44
2286 0 58.0733 12.3292 716 102.992 109.754 495.362
2287 0 62.0448 11.8785 737 103.423 110.229 491.52
2288 0 63.1335 11.7687 743 103.077 109.541 492.615
2289 0 64.1997 12.3832 795 102.636 108.694 491.775
2290 0 66.2436 13.0579 865 101.876 109.483 490.951
2291 0 67.3578 12.159 819 103.284 110.231 493.101
2292 0 68.4235 11.2681 771 106.494 109.896 490.399
2293 0 72.3446 12.2469 886 103.493 109.541 489.481
2294 0 74.2774 14.2035 1055 99.3829 109.574 490.28
2295 0 75.3051 12.2302 921 104.248 109.875 489.464
2296 0 76.1843 12.5616 957 103.382 109.987 491.154
2297 0 77.2616 12.0759 933 105.972 109.898 487.897
2298 0 80.2558 12.7841 1026 103.788 109.348 486.538
2299 0 82.2984 12.8557 1058 104.227 108.946 485.771
2300 0 86.327 12.4874 1078 103.862 109.238 486.649
2301 0 89.3563 13.1832 1178 102.553 109.311 482.89
2302 0 91.2533 12.5475 1145 103.636 107.993 481.559
2303 0 92.4283 11.9985 1109 105.742 108.25 478.318
2304 0 96.3559 12.101 1166 103.747 107.96 478.458
2305 0 101.545 13.6885 1390 99.9741 107.522 473.728
2306 0 102.583 12.8872 1322 98.034 107.244 474.551
2307 1 57.3545 10.2172 586 100.747 107.123 496.215
2308 0 59.2981 10.8772 645 101.673 107.326 492.595
2309 0 62.0375 12.3635 767 98.7145 105.814 493.198
2310 0 62.042 10.783 669 104.061 105.598 492.006
2311 0 65.0772 12.3699 805 99.8956 105.096 490.791
2312 0 66.0767 12.3644 817 100.556 105.502 491.164
2313 0 68.0948 12.6001 858 100.786 105.889 489.361
2314 0 70.0479 13.0197 912 99.6009 105.633 489.769
2315 0 73.094 14.1325 1033 97.0106 105.931 489.443
2316 0 72.0657 12.2527 883 103.354 105.903 486.095
2317 0 76.1221 15.0548 1146 96.4948 106.018 485.88
2318 0 78.0875 14.0483 1097 98.7211 106.279 482.771
2319 0 79.0486 11.5372 912 104.745 105.568 482.383
2320 0 83.0706 13.2177 1098 101.227 106.456 483.56
2321 0 82.0601 10.7482 882 107.619 106.438 479.242
2322 0 88.1568 14.1906 1251 98.8106 108.99 480.867
2323 0 89.364 12.4994 1117 102.622 109.327 479.201
2324 0 93.3172 13.7381 1282 99.9899 108.64 478.479
2325 0 95.4127 13.1219 1252 101.797 109.016 475.642
2326 0 99.2307 14.1992 1409 98.6891 109.307 476.455
2327 0 101.302 15.6957 1590 95.8308 109.32 474.321
2328 0 102.343 14.6469 1499 99.6378 108.655 469.536
2329 0 106.297 13.2929 1413 103.062 108.842 468.764
2330 1 60.1043 11.3137 680 101.579 110.501 494.106
2331 0 59.0814 11.6111 686 102.688 110.229 492.055
2332 0 62.2589 12.0465 750 101.045 109.075 487.575
2333 0 63.4615 11.9915 761 100.376 108.932 488.079
2334 0 65.197 11.2122 731 101.272 110.477 489.398
2335 0 71.214 12.9188 920 96.4587 109.89 486.362
2336 0 74.151 13.3377 989 94.5662 110.726 486.537
2337 0 74.1779 12.8879 956 96.4195 110.052 485.015
2338 0 77.1538 12.8186 989 96.1193 109.656 483.391
2339 0 79.075 12.4692 986 97.2718 109.823 481.624
2340 0 81.2283 12.5449 1019 97.0991 109.8 479.828
2341 0 83.0699 13.4345 1116 95.9588 110.076 478.669
2342 0 85.1525 14.3155 1219 93.9672 110.453 478.019
2343 0 90.1911 13.2718 1197 94.8713 110.333 477.13
2344 0 92.1521 13.1088 1208 95.5555 110.157 474.476
2345 0 93.1978 12.7471 1188 97.7997 109.779 471.165
2346 0 95.1239 12.8569 1223 97.5094 110.225 467.666
2347 0 99.1047 12.5221 1241 96.6285 110.092 469.902
2348 0 103.343 12.6956 1312 95.9024 111.054 465.362
2349 1 57.1227 11.4315 653 92.34 111.224 487.639
2350 0 58.0879 12.4983 726 90.1901 111.574 484.835
2351 0 59.2975 11.788 699 92.4778 109.538 485.154
2352 0 59.1857 11.5737 685 93.5299 109.839 483.076
2353 0 60.1729 11.3008 680 94.5662 110.559 480.791
2354 0 61.3698 11.4388 702 93.688 110.779 480.808
2355 0 64.3277 11.3171 728 93.1758 110.293 481.714
2356 0 65.3962 11.7744 770 92.3468 110.468 480.17
2357 0 67.1594 12.1204 814 92.4693 110.278 476.486
2358 0 66.1689 11.3951 754 93.2812 110.964 475.222
2359 0 72.2573 11.9711 865 91.2647 111.295 476.483
2360 0 74.1864 11.3228 840 92.5179 111.499 473.707
2361 0 75.1355 12.3776 930 91.1419 111.435 472.124
2362 0 76.1428 13.8161 1052 88.3527 111.431 471.882
2363 0 79.2203 13.393 1061 88.6937 111.755 468.026
2364 0 84.1298 12.5283 1054 88.2875 111.662 471.465
2365 0 87.1585 13.7107 1195 86.6594 112.01 466.676
2366 0 88.1589 12.5115 1103 89.0535 112.022 467.307
2367 0 91.2592 11.4728 1047 89.553 111.962 466.357
2368 0 95.1952 11.6813 1112 89.4523 112.373 460.667
2369 0 99.2427 13.2705 1317 85.7115 112.036 463.028
2370 1 52.1926 9.63738 503 85.5626 111.501 480.934
2371 0 55.1704 11.7092 646 76.9272 112.226 480.604
2372 0 55.2098 10.4692 578 77.9412 112.543 481.894
2373 0 58.2321 10.8016 629 77.6232 112.641 483.305
2374 0 59.1595 11.6465 689 77.2279 112.575 480.907
2375 0 63.1338 11.341 716 77.4651 113.003 481.165
2376 0 61.1551 10.0728 616 79.8799 112.391 479.33
2377 0 66.1772 11.5145 762 77.5643 112.442 478.953
2378 0 69.1061 12.5315 866 77.3499 112.662 476.788
2379 0 68.1854 9.62082 656 81.3948 112.723 475.997
2380 0 72.1492 13.1672 950 77.9158 112.069 475.254
2381 0 74.1236 11.8451 878 80.8804 111.874 474.349
2382 0 76.163 12.0006 914 81.0284 112.504 470.991
2383 0 80.1779 12.1854 977 81.0604 112.444 473.953
2384 0 81.2044 11.9575 971 82.9835 112.8 471.282
2385 0 85.2434 12.5992 1074 83.3287 111.798 471.872
2386 0 87.1851 11.8713 1035 86.343 112.343 468.297
2387 0 90.1038 12.2192 1101 87.3797 112.408 467.786
2388 0 93.1556 12.7743 1190 87.5723 112.394 464.582
2389 0 96.1965 13.6907 1317 83.8018 112.612 460.372
2390 1 55.414 11.1885 620 76.7403 112.887 480.366
2391 0 58.2185 13.1745 767 83.6297 112.505 481.571
2392 0 57.2082 13.1799 754 88.5981 112.883 479.784
2393 0 58.095 11.5845 673 90.893 113.951 486.144
2394 0 62.0847 12.789 794 89.2443 113.742 483.587
2395 0 62.187 13.5237 841 88.9738 113.57 483.333
2396 0 62.1413 13.6141 846 89.7872 113.476 483.119
2397 0 65.1573 13.8281 901 90.5583 112.503 480.55
2398 0 69.2341 14.6748 1016 88.6565 112.88 479.648
2399 0 69.4588 12.5254 870 97.8368 112.721 480.462
2400 0 72.453 14.0781 1020 95.8529 112.599 477.14
2401 0 76.1519 15.4559 1177 93.3908 112.588 477.551
2402 0 77.2972 12.8465 993 99.9748 112.488 476.95
2403 0 77.5781 13.6765 1061 99.771 112.255 475.015
2404 0 81.5612 13.7933 1125 99.4302 112.266 472.447
2405 0 81.3554 13.0415 1061 102.816 112.433 470.783
2406 0 86.3208 14.2376 1229 99.3971 112.531 470.638
2407 0 88.5173 13.6583 1209 102.002 111.773 467.354
2408 0 91.5909 14.0735 1289 101.5 112.114 464.026
2409 0 93.3785 13.9004 1298 98.1456 112.994 466.894
2410 0 96.1528 12.5737 1209 97.2895 113.139 465.806
2411 0 98.1057 13.9238 1366 95.0959 112.895 465.12
2412 0 102.113 13.0737 1335 96.9813 113.642 463.659
2413 0 107.191 12.8929 1382 96.7004 115.067 462.237
2414 0 106.347 11.7445 1249 100.864 115.219 455.98
2415 0 113.314 14.023 1589 95.8112 115.066 455.383
2416 0 117.285 14.1536 1660 95.7759 115.096 452.715
2417 1 62.0488 9.60535 596 94.5017 114.55 478.081
2418 0 65.1935 12.2251 797 90.1041 114.137 476.237
2419 0 64.0936 13.3711 857 90.2929 113.952 473.18
2420 0 67.1711 11.3591 763 93.4142 113.832 471.338
2421 0 68.2505 10.564 721 95.8516 113.512 469.7
2422 0 72.1677 12.0275 868 92.3053 113.484 469.088
2423 0 75.2882 11.7947 888 93.6318 113.459 466.217
2424 0 77.1616 12.3637 954 92.9727 113.743 462.427
2425 0 80.2972 11.5197 925 94.3341 113.862 460.752
2426 0 85.5453 12.6483 1082 89.3235 114.032 463.646
2427 0 90.365 13.0803 1182 91.2741 114.048 459.477
2428 0 93.4917 11.4876 1074 93.7449 113.721 459.261
2429 0 99.2877 12.6702 1258 91.008 113.42 461.106
2430 1 57.1464 11.3218 647 90.8934 115.161 484.284
2431 0 60.1663 10.7868 649 91.6502 115.287 483.941
2432 0 60.1396 11.9389 718 91.9067 114.884 482.02
2433 0 60.0531 12.2225 734 92.7193 114.717 484.843
2434 0 63.1333 12.7508 805 91.8919 114.585 483.357
2435 0 66.1269 12.1282 802 93.1197 114.572 482.524
2436 0 67.1645 12.3279 828 93.7742 114.693 481.173
2437 0 70.1064 13.8789 973 90.8119 114.654 480.147
2438 0 72.2528 12.3179 890 94.4281 114.342 478.848
2439 0 73.1543 13.1503 962 94.0873 114.836 476.015
2440 0 75.1462 13.0945 984 95.2358 114.311 475.308
2441 0 78.1913 14.0297 1097 93.7484 114.382 474.768
2442 0 79.3101 12.8987 1023 96.393 114.163 475.269
2443 0 82.1339 13.1858 1083 96.9178 114.411 473.718
2444 0 84.2445 12.5468 1057 98.106 113.42 472.836
2445 0 89.2084 12.7454 1137 99.131 113.494 470.975
2446 0 90.1537 12.9002 1163 100.868 113.591 468.504
2447 0 92.2576 13.7441 1268 99.6601 114.285 469.147
2448 0 96.1815 14.1607 1362 100.413 113.814 466.321
2449 0 97.2553 12.3078 1197 104.996 113.8 465.516
2450 0 100.26 12.6272 1266 106.442 113.867 461.399
2451 1 57.0877 11.0532 631 105.737 114.469 486.859
2452 0 59.4413 12.9035 767 106.163 113.405 481.374
2453 0 59.3659 10.9659 651 112.946 114.369 476.791
2454 0 62.2256 11.7476 731 109.997 113.866 483.026
2455 0 63.2366 13.4574 851 107.058 114.377 480.471
2456 0 66.4656 12.8788 856 106.818 114.757 481.829
2457 0 65.2681 11.8894 776 109.79 114.764 482.883
2458 0 68.2731 13.5339 924 106.282 114.016 479.255
2459 0 71.3089 14.1637 1010 105.684 114.294 477.169
2460 0 72.3813 13.6776 990 107.464 114.13 474.814
2461 0 75.357 12.7792 963 108.45 113.953 477.192
2462 0 77.2285 13.3629 1032 107.07 114.012 475.218
2463 0 81.1615 13.0727 1061 108.022 114.125 472.818
2464 0 82.2471 13.2284 1088 108.367 113.673 469.59
2465 0 83.1639 12.8662 1070 109.932 112.807 471.013
2466 0 86.255 12.2196 1054 110.927 112.751 469.495
2467 0 91.3382 13.5869 1241 108.208 113.235 465.675
2468 0 95.2298 14.6908 1399 105.523 113.322 465.952
2469 0 98.2768 13.2279 1300 109.561 113.862 463.338
2470 1 57.0822 12.736 727 106.721 114.431 483.53
2471 0 59.1889 11.759 696 99.5374 112.603 483.359
2472 0 59.2245 12.7819 757 100.247 112.468 481.95
2473 0 59.0494 12.5827 743 101.03 112.201 483.642
2474 0 62.1559 11.3585 706 104.398 111.8 481.721
2475 0 65.0823 13.4138 873 100.173 112.247 479.893
2476 0 67.1329 12.4231 834 103.355 112.59 479.37
2477 0 71.2383 13.139 936 106.281 112.027 477.807
2478 0 72.1875 12.5784 908 108.035 112.485 475.88
2479 0 75.2731 13.4444 1012 106.079 112.037 475.085
2480 0 77.2576 13.2802 1026 107.076 113.008 472.031
2481 0 81.2595 14.3122 1163 103.172 112.85 473.938
2482 0 83.2692 14.291 1190 104.523 113.503 472.142
2483 0 83.4539 12.2223 1020 110.6 112.968 470.364
2484 0 85.2821 12.2066 1041 110.402 113.276 467.652
2485 0 89.3149 12.26 1095 109.651 114.026 468.068
2486 0 94.4767 14.5644 1376 103.48 113.723 464.808
2487 0 97.145 13.0526 1268 99.9519 114.191 464.11
2488 0 98.2783 12.719 1250 101.481 114.22 462.122
2489 0 101.365 12.2331 1240 103.658 113.537 460.123
2490 1 56.2883 10.9792 618 98.4725 114.856 484.063
2491 0 59.1241 12.4991 739 96.4682 114.877 482.204
2492 0 59.2326 12.0204 712 99.3834 114.736 481.552
2493 0 62.0794 12.0974 751 96.1478 112.485 483.659
2494 0 65.0382 12.9616 843 96.3582 112.367 479.751
2495 0 66.1747 13.283 879 95.7372 113.179 480.371
2496 0 66.1472 12.1547 804 98.3893 113.042 478.961
2497 0 70.0584 11.419 800 100.171 113.03 478.8
2498 0 73.1708 13.3387 976 95.9303 112.864 475.168
2499 0 74.0981 12.6589 938 97.9616 112.914 475.471
2500 0 76.1476 12.6465 963 98.5826 113.558 474.412
2501 0 78.073 12.6804 990 98.3909 112.996 474.475
2502 0 80.0802 12.8746 1031 99.5587 113.379 470.643
2503 0 84.1643 15.5292 1307 93.9288 112.836 471.435
2504 0 83.1899 12.6458 1052 101.792 113.389 469.347
2505 0 88.1646 13.3954 1181 101.171 112.38 467.865
2506 0 91.1272 13.5744 1237 102.199 112.347 466.743
2507 0 94.1568 14.4121 1357 99.7517 112.182 466.483
2508 0 97.336 13.3558 1300 103.245 112.976 464.666
2509 0 99.2241 14.2304 1412 102.403 112.808 464.213
2510 0 102.254 13.887 1420 102.185 112.626 464.102
2511 1 61.0449 13.2689 810 103.351 112.025 482.847
2512 0 62.1067 12.9133 802 102.224 112.807 481.34
2513 0 63.1043 12.9468 817 100.055 112.618 479.714
2514 0 64.1242 12.0391 772 103.01 112.301 478.126
2515 0 66.2102 13.2306 876 100.196 112.973 478.342
2516 0 67.1079 11.7572 789 104.067 113.119 478.707
2517 0 70.0709 13.5434 949 100.988 112.943 475.957
2518 0 73.192 14.865 1088 98.1774 113.22 475.1
2519 0 76.109 13.5858 1034 101.144 113.027 474.242
2520 0 77.1104 14.9137 1150 98.9244 112.481 472.07
2521 0 78.2168 13.974 1093 101.922 113.104 472.853
2522 0 82.2332 13.1091 1078 103.375 112.757 470.876
2523 0 86.1186 14.0039 1206 100.983 113.704 467.774
2524 0 89.2766 13.4638 1202 103.165 112.677 469.478
2525 0 94.1959 13.7692 1297 102.537 113.096 468.413
2526 1 52.0443 12.3164 641 109.172 112.231 485.76
2527 0 54.2287 12.0785 655 110.511 112.426 486.466
2528 0 55.1933 12.2479 676 111.87 113.229 483.157
2529 0 57.2003 13.4789 771 109.519 112.59 482.89
2530 0 59.2242 13.2547 785 110.437 112.424 482.29
2531 0 59.2903 12.346 732 114.223 112.59 481.015
2532 0 63.2409 12.4761 789 112.599 113.702 480.469
2533 0 63.1088 12.5022 789 112.695 113.482 481.062
2534 0 66.075 13.3182 880 110.96 113.872 478.844
2535 0 67.1292 14.0177 941 110.073 114.012 477.374
2536 0 69.1116 14.0931 974 109.835 114.693 476.241
2537 0 73.1459 12.8784 942 110.893 113.182 474.192
2538 0 75.2323 13.8238 1040 108.543 113.572 472.28
2539 0 76.1739 13.9549 1063 109.087 113.81 470.638
2540 0 79.3458 13.4727 1069 109.345 114.157 469.165
2541 0 82.2381 14.7255 1211 106.582 114.173 468.01
2542 0 84.1547 14.3189 1205 107.505 114.012 467.393
2543 0 86.3779 13.5914 1174 108.632 113.937 467.013
2544 0 89.3752 14.2881 1277 107.403 114.406 465.384
2545 0 93.3933 13.2879 1241 108.993 114.515 464.387
2546 0 94.3089 12.8408 1211 110.092 114.674 464.083
2547 0 96.2375 13.5498 1304 109.671 114.181 460.621
2548 1 58.2279 11.6439 678 107.515 113.653 482
2549 0 59.1305 12.0243 711 106.269 114.366 480.79
2550 0 60.5466 13.1304 795 105.712 115.591 475.425
2551 0 60.2892 12.4566 751 107.824 114.993 475.951
2552 0 64.4181 12.155 783 107.912 115.377 474.677
2553 0 66.503 12.0746 803 107.278 115.502 474.279
2554 0 66.3501 12.8259 851 106.438 116.041 473.651
2555 0 67.398 12.2407 825 109.062 115.181 471.45
2556 0 72.3349 12.608 912 107.309 115.205 471.405
2557 0 74.3836 12.3011 915 108.439 115.092 470.227
2558 0 74.458 12.4231 925 109.293 114.77 466.852
2559 0 79.3312 13.5004 1071 105.938 115.229 467.289
2560 0 81.3777 12.1778 991 109.233 114.843 465.853
2561 0 86.2887 13.733 1185 104.557 115.976 466.706
2562 0 89.2695 14.0698 1256 104.499 115.097 464.669
2563 0 90.2431 12.0231 1085 109.298 115.187 463.041
2564 0 94.2724 13.3867 1262 105.178 115.229 463.147
2565 0 96.3159 13.165 1268 105.815 115.563 463.119
2566 1 54.0431 10.7877 583 107.024 116.005 481.839
2567 0 57.0302 12.5021 713 104.411 116.081 480.499
2568 0 58.0716 12.4846 725 105.564 116.006 480.657
2569 0 60.2248 13.9643 841 103.281 113.945 478.834
2570 0 62.0506 13.2473 822 105.465 114.56 479.735
2571 0 64.088 13.7935 884 104.501 114.119 479.386
2572 0 65.2094 13.8937 906 105.93 114.661 477.549
2573 0 67.2335 14.1894 954 105.658 115.064 475.932
2574 0 69.194 13.0069 900 108.597 114.05 477.039
2575 0 71.3494 12.8382 916 110.702 113.761 472.878
2576 0 72.2771 13.5589 980 108.362 113.841 473.057
2577 0 76.2885 12.9377 987 108.835 114.926 471.227
2578 0 78.1945 12.9421 1012 109.58 114.454 471.075
2579 0 80.2491 13.6824 1098 107.85 114.679 471.922
2580 0 84.2192 13.5361 1140 108.272 114.076 470.102
2581 0 85.1958 13.8739 1182 109.09 114.001 467.453
2582 0 90.1583 14.6409 1320 107.34 114.273 464.626
2583 0 90.2578 13.5722 1225 110.695 114.802 464.755
2584 0 96.2523 14.5451 1400 107.774 114.271 463.516
2585 0 99.3916 14.3674 1428 108.817 114.029 461.724
2586 1 55.2572 12.0527 666 108.775 114.239 484.677
2587 0 56.1755 12.6034 708 108.088 114.74 483.696
2588 0 58.0451 12.8865 748 99.4144 115.865 482.552
2589 0 59.3859 12.8818 765 101.884 114.969 481.437
2590 0 61.151 13.8673 848 100.362 114.69 482.525
2591 0 61.128 13.1527 804 104.234 114.704 480.597
2592 0 64.098 14.1814 909 101.708 113.957 478.422
2593 0 66.1142 13.9456 922 102.464 114.143 478.152
2594 0 67.0672 14.7017 986 102.738 113.376 476.722
2595 0 69.0904 14.4014 995 103.775 113.903 477.906
2596 0 70.1391 15.3124 1074 103.603 113.471 476.428
2597 0 72.1672 13.5796 980 108.63 113.755 473.953
2598 0 73.1261 14.5776 1066 106.649 114.245 473.987
2599 0 76.1753 14.7029 1120 106.898 113.824 472.837
2600 0 78.0728 14.0766 1099 109.386 113.972 471.214
2601 0 81.1534 15.6863 1273 105.394 114.844 469.756
2602 0 83.2513 15.255 1270 107.177 114.073 467.976
2603 0 85.1246 14.5199 1236 109.108 114.24 468.398
2604 0 87.1298 14.9891 1306 108.669 114.59 468.285
2605 0 91.2755 14.648 1337 109.313 114.999 465.645
2606 0 93.3514 15.9933 1493 107.096 115.046 462.953
2607 0 95.2994 14.3862 1371 111.758 114.929 462.454
2608 0 97.2381 14.3257 1393 117.506 114.548 459.767
2609 0 101.291 14.8089 1500 115.45 115.104 459.245
2610 0 103.331 13.839 1430 118.85 114.911 457.192
2611 0 106.382 15.0683 1603 115.338 114.679 456.157
2612 0 111.244 15.066 1676 108.133 114.912 457.433
2613 0 115.317 13.9442 1608 110.739 115.151 456.924
2614 0 119.207 14.6383 1745 109.818 114.587 451.585
2615 0 124.304 14.368 1786 109.961 114.406 450.802
2616 0 128.424 13.7513 1766 110.642 114.835 449.364
2617 1 72.1172 11.5922 836 111.208 115.666 476.823
2618 0 77.2493 13.8124 1067 106.982 115.186 474.838
2619 0 79.1516 14.5923 1155 107.855 114.711 472.036
2620 0 83.1352 15.2402 1267 102.252 114.654 471.661
2621 0 85.1321 14.084 1199 104.576 114.63 473.599
2622 0 86.1494 13.3141 1147 105.706 114.708 471.473
2623 0 89.2396 14.758 1317 102.584 114.263 467.746
2624 0 92.2396 13.7468 1268 105.238 114.084 466.754
2625 0 95.1993 13.2354 1260 106.049 114.001 466.126
2626 0 98.3941 13.3341 1312 105.234 113.85 466.813
2627 0 100.204 14.0513 1408 104.499 113.712 463.954
2628 0 105.293 14.2745 1503 103.59 113.786 463.357
2629 0 108.148 14.3045 1547 104.197 113.345 460.461
2630 0 112.251 14.4765 1625 105.049 112.657 458.167
2631 0 116.246 14.5038 1686 108.379 112.486 453.388
2632 0 120.569 14.0086 1689 109.654 113.169 454.934
2633 0 123.447 14.5407 1795 106.806 113.343 454.451
2634 0 125.529 13.6224 1710 110.098 112.447 451.581
2635 0 129.219 14.5103 1875 108.581 112.649 448.527
2636 0 135.518 14.8911 2018 106.871 112.836 447.264
2637 0 141.385 15.1925 2148 106.269 112.802 443.367
2638 0 145.635 13.1287 1912 109.209 112.885 443.601
2639 0 151.424 15.0042 2272 105.632 113.166 438.996
2640 0 156.297 14.8372 2319 106.676 112.689 436.929
2641 1 75.2328 13.5048 1016 103.725 112.469 479.279
2642 0 77.2071 13.2501 1023 106.638 112.542 476.781
2643 0 80.3892 13.5715 1091 107.785 112.182 474.417
2644 0 81.4316 14.3924 1172 107.506 112.739 472.092
2645 0 83.3911 13.0949 1092 111.294 112.485 471.334
2646 0 86.3098 12.6753 1094 112.978 112.684 469.333
2647 0 88.258 13.5625 1197 110.835 112.248 469.11
2648 0 91.1782 12.6456 1153 111.919 112.454 470.131
2649 0 94.2328 14.2732 1345 109.336 112.297 466.943
2650 0 97.2332 12.8763 1252 112.831 111.808 465.595
2651 0 98.2726 14.2868 1404 105.851 112.563 464.692
2652 0 104.318 13.9957 1460 105.721 112.35 464.89
2653 0 102.234 12.9996 1329 110.114 111.816 463.611
2654 0 109.221 14.0083 1530 106.789 111.528 462.43
2655 0 111.187 13.5358 1505 109.229 112.018 459.757
2656 0 115.271 12.1193 1397 110.538 112.281 459.619
2657 0 119.36 14.2343 1699 107.011 112.235 453.542
2658 0 123.365 13.837 1707 107.533 112.397 451.781
2659 0 128.316 12.9524 1662 113.31 111.621 449.736
2660 0 131.346 14.1078 1853 108.627 112.154 443.832
2661 1 75.2584 11.4937 865 98.5734 113.459 470.499
2662 0 78.3456 13.0575 1023 94.5728 113.728 471.157
2663 0 80.2278 11.2928 906 97.6336 113.988 468.3
2664 0 86.2917 12.6895 1095 94.053 113.906 471.258
2665 0 87.2201 11.9926 1046 96.8346 113.629 468.201
2666 0 89.1351 13.1149 1169 95.2746 113.713 466.896
2667 0 90.2467 12.6542 1142 96.7084 113.96 464.329
2668 0 93.2313 11.8522 1105 98.5059 114.073 466.367
2669 0 97.3445 13.1594 1281 95.5191 113.516 463.607
2670 0 101.206 14.2185 1439 94.6317 113.659 460.171
2671 0 106.17 14.6934 1560 93.0442 113.122 459.699
2672 0 106.262 12.9303 1374 98.107 112.678 458.971
2673 0 109.24 12.6876 1386 97.5657 113.086 460.555
2674 0 113.247 12.6449 1432 97.7528 113.128 456.834
2675 0 117.273 13.8054 1619 96.3941 112.915 452.379
2676 0 120.164 12.9406 1555 97.4322 111.597 454.559
2677 0 124.24 12.991 1614 97.1499 111.795 452.11
2678 1 69.1257 10.5605 730 96.237 111.374 482.26
2679 0 72.1084 11.344 818 95.9059 110.608 478.803
2680 0 74.1526 13.3778 992 91.4022 111.211 477.681
2681 0 77.2524 12.7763 987 91.23 111.585 478.46
2682 0 79.0848 12.4676 986 92.9533 111.375 476.043
2683 0 81.1577 11.7056 950 94.5053 111.44 475.348
2684 0 81.1167 11.7978 957 95.7544 111.644 472.209
2685 0 85.2378 12.0486 1027 95.4878 111.054 470.296
2686 0 89.1338 12.7898 1140 93.8395 111.747 469.933
2687 0 90.1696 12.2325 1103 95.2122 111.451 469.149
2688 0 90.1647 12.1444 1095 96.8128 111.16 468.437
2689 0 95.187 13.4892 1284 94.8201 111.703 464.225
2690 0 100.222 11.8237 1185 104.855 112.523 463.27
2691 0 103.173 12.3288 1272 103.823 112.45 462.121
2692 0 107.167 12.1773 1305 105.227 112.802 461.06
2693 0 107.16 11.5435 1237 107.31 112.52 458.699
2694 0 111.402 12.1093 1349 105.356 111.938 456.246
2695 0 116.196 13.4342 1561 103.657 111.996 454.12
2696 0 116.373 12.0646 1404 85.6147 112.64 450.403
2697 0 121.338 12.7743 1550 104.988 111.994 449.012
2698 1 69.1769 10.1768 704 105.805 112.165 478.849
2699 0 73.4243 12.1758 894 103.34 112.791 473.974
2700 0 69.1448 12.5678 869 95.8872 111.519 467.425
2701 0 71.1265 11.6834 831 97.5511 111.759 467.421
2702 0 71.1466 11.0054 783 100.008 111.891 463.332
2703 0 73.182 10.9863 804 98.8284 111.811 465.833
2704 0 80.0786 12.9123 1034 95.7418 111.68 464.084
2705 0 79.0364 10.9696 867 99.8016 112.76 464.74
2706 0 83.1077 12.5981 1047 96.2235 112.84 462.684
2707 0 85.2475 13.8772 1183 95.1158 112.981 459.571
2708 0 91.1984 12.4783 1138 95.4367 113.277 460.821
2709 0 94.2407 11.8845 1120 97.2143 113.038 460.729
2710 0 93.212 12.2624 1143 98.2222 112.782 456.371
2711 0 95.2539 12.4614 1187 97.5358 112.48 458.493
2712 0 100.091 11.8392 1185 92.8954 112.95 460.238
2713 0 102.165 13.8012 1410 90.9135 112.543 456.106
2714 0 105.1 12.3883 1302 93.9017 111.998 451.818
2715 0 106.102 13.8357 1468 91.1151 112.76 453.138
2716 0 110.212 12.4759 1375 93.5753 113.059 452.32
2717 0 115.166 13.1463 1514 93.3283 112.443 446.733
2718 1 68.0958 10.0887 687 93.6084 112.466 481.54
2719 0 70.1964 12.465 875 92.9611 111.936 474.093
2720 0 73.1142 13.6772 1000 90.536 111.825 472.847
2721 0 75.1135 12.4079 932 91.1803 112.342 475.308
2722 0 80.1125 12.8195 1027 90.5813 111.968 474.172
2723 0 81.1693 12.3446 1002 91.012 111.971 472.608
2724 0 83.2092 12.7991 1065 91.1108 111.742 468.515
2725 0 86.1756 13.7974 1189 89.6501 112.181 464.178
2726 0 89.3297 13.9147 1243 89.4843 111.652 463.218
2727 0 92.1128 14.1566 1304 89.4011 112.735 460.138
2728 0 94.1275 13.3011 1252 91.5799 112.3 461.206
2729 0 97.2785 12.7778 1243 92.8166 112.359 460.498
2730 0 100.288 12.7333 1277 93.415 112.732 460.881
2731 0 106.262 14.2008 1509 91.1166 113.043 460.378
2732 0 106.144 13.7643 1461 94.7358 113.466 455.585
2733 0 109.197 13.0499 1425 96.3305 112.658 456.886
2734 0 112.171 13.8895 1558 96.3646 112.723 453.6
2735 0 116.362 14.1885 1651 96.4652 112.844 450.314
2736 0 118.346 14.3985 1704 97.3844 112.462 446.064
2737 0 121.364 13.4142 1628 99.121 112.354 446.994
2738 0 125.24 12.6237 1581 101.179 112.887 442.149
2739 0 129.24 13.1925 1705 100.978 112.843 440.342
2740 0 135.42 13.2403 1793 100.475 112.94 437.729
2741 0 141.281 14.1703 2002 98.011 113.047 440.748
2742 1 80.1884 12.4208 996 96.0904 113.038 469.137
2743 0 81.1305 11.2165 910 100.699 112.725 463.563
2744 0 86.2235 14.1609 1221 91.9132 112.863 466.364
2745 0 89.2152 13.8317 1234 92.6929 113.544 465.99
2746 0 91.3422 14.2103 1298 93.2242 113.798 465.649
2747 0 93.2698 14.0131 1307 94.9487 113.848 462.625
2748 0 96.2141 12.9815 1249 96.6333 113.769 463.696
2749 0 99.2574 12.926 1283 98.0959 113.615 460.044
2750 0 101.222 13.4457 1361 98.7928 113.508 456.185
2751 0 105.199 13.5933 1430 98.5196 114.232 456.529
2752 0 108.226 13.1669 1425 101.606 113.645 455.36
2753 0 110.385 12.7463 1407 104.922 113.897 452.29
2754 0 114.227 13.2981 1519 103.652 113.843 448.101
2755 0 117.281 13.0797 1534 105.193 113.373 447.194
2756 0 123.29 14.3645 1771 102.016 113.254 448.317
2757 1 70.2397 10.635 747 99.8889 113.823 471.655
2758 0 73.2897 11.2158 822 96.9599 113.939 471.554
2759 0 77.1424 11.8353 913 93.2585 115.266 475.563
2760 0 79.1198 11.5015 910 94.8857 114.881 473.82
2761 0 82.1716 12.0601 991 94.0696 115.293 473.558
2762 0 84.1623 12.3214 1037 93.7136 115.354 470.593
2763 0 86.1791 12.3928 1068 94.7584 115.212 469.08
2764 0 90.1493 13.522 1219 92.8622 114.932 468.842
2765 0 92.1964 11.6057 1070 97.0579 115.024 467.795
2766 0 94.169 12.2015 1149 96.2158 115.102 465.56
2767 0 97.2141 11.7987 1147 97.6024 114.67 465.003
2768 0 101.242 11.991 1214 97.1269 114.846 462.343
2769 0 103.291 11.3853 1176 97.3801 114.377 463.86
2770 0 106.366 11.78 1253 96.5611 115.318 459.387
2771 0 107.234 10.9294 1172 98.6894 115.07 456.982
2772 0 114.405 12.2459 1401 95.6131 114.615 454.887
2773 0 117.298 12.0719 1416 96.2253 114.878 454.325
2774 0 121.244 11.8521 1437 96.7919 114.808 454.014
2775 1 68.1701 10.6645 727 95.9133 115.205 479.985
2776 0 69.2731 11.5629 801 95.4207 114.638 478.516
2777 0 74.1953 12.1571 902 93.7228 114.322 478.306
2778 0 74.2109 11.8716 881 93.63 114.036 475.885
2779 0 78.1426 11.5814 905 93.7326 114.392 475.144
2780 0 77.2714 11.0649 855 96.414 114.322 474.366
2781 0 84.1871 13.1612 1108 91.5514 114.051 471.992
2782 0 85.1043 12.0088 1022 93.8297 114.298 472.34
2783 0 88.175 13.5186 1192 92.3666 113.911 468.685
2784 0 91.2459 13.4691 1229 92.0415 114.135 469.046
2785 0 93.2246 13.4621 1255 92.6191 114.153 467.814
2786 0 96.2558 12.9551 1247 93.7065 114.073 464.454
2787 0 98.203 13.2481 1301 94.5411 114.444 465.47
2788 0 101.194 13.2518 1341 95.0753 114.16 461.497
2789 0 103.365 12.7025 1313 96.5697 114.46 462.05
2790 0 107.294 13.3558 1433 95.1884 113.968 460.702
2791 0 108.182 13.3664 1446 96.4184 114.012 458.588
2792 0 113.356 12.6415 1433 97.2826 113.772 457.643
2793 0 116.322 13.6604 1589 94.7936 114.193 456.913
2794 0 119.218 13.295 1585 95.6549 113.338 456.355
2795 0 120.338 13.6948 1648 96.5704 113.2 455.431
2796 0 124.15 15.2396 1892 94.362 113.237 451.271
2797 0 127.206 12.9632 1649 99.8557 113.036 452.632
2798 0 131.249 14.2935 1876 98.5123 113.015 445.711
2799 0 137.368 14.3119 1966 99.0315 112.468 443.237
2800 1 82.189 13.0674 1074 98.7914 112.785 471.021
2801 0 81.1582 12.4448 1010 102.457 111.468 469.014
2802 0 85.0868 14.5146 1235 99.2494 111.765 468.6
2803 0 88.1592 14.0881 1242 101.392 111.767 465.687
2804 0 90.2177 13.1238 1184 103.484 111.966 466.482
2805 0 94.1307 13.8318 1302 101.371 111.733 466.752
2806 0 95.2199 14.6293 1393 101.514 112.223 463.198
2807 0 98.2095 14.3469 1409 102.372 112.186 461.672
2808 0 101.206 14.3865 1456 101.931 112.355 458.232
2809 0 104.224 14.1138 1471 101.366 112.312 458.346
2810 0 104.173 12.5176 1304 105.801 114.1 460.005
2811 0 111.366 15.2471 1698 99.692 113.849 456.654
2812 0 112.345 14.8204 1665 101.225 113.947 457.759
2813 0 116.391 14.331 1668 102.699 113.674 453.474
2814 0 118.283 14.1271 1671 104.181 113.009 451.242
2815 0 122.22 13.2957 1625 98.5908 113.452 443.749
2816 0 125.356 13.0508 1636 102.795 113.354 441.482
2817 1 72.2038 12.0077 867 100.3 113.204 468.702
2818 0 74.097 11.6334 862 102.713 113.918 464.97
2819 0 77.068 13.287 1024 93.7012 113.136 460.067
2820 0 78.2111 11.8398 926 96.2829 113.612 462.656
2821 0 83.1956 13.919 1158 93.1546 113.523 462.866
2822 0 84.1022 13.115 1103 96.0734 113.53 462.61
2823 0 88.3252 13.8126 1220 96.0713 112.714 460.935
2824 0 90.252 12.587 1136 99.9305 112.579 459.643
2825 0 92.1526 12.5661 1158 101.576 113.417 457.832
2826 0 94.2173 12.5242 1180 104.251 113.38 456.64
2827 0 96.211 13.3561 1285 105.684 113.541 454.96
2828 0 100.154 13.679 1370 106.708 113.88 454.847
2829 0 101.165 13.4433 1360 110.057 114.15 456.31
2830 0 104.206 12.9359 1348 112.416 113.479 453.752
2831 0 111.239 14.752 1641 108.738 112.714 451.455
2832 0 113.177 14.2961 1618 111.325 112.345 448.541
2833 0 114.222 13.5 1542 114.74 112.321 447.961
2834 0 118.256 14.401 1703 112.117 112.86 449.508
2835 0 123.227 14.9481 1842 111.674 112.368 446.029
2836 0 126.386 14.1076 1783 113.755 112.361 441.138
2837 0 129.377 14.2066 1838 113.411 111.751 440.535
2838 0 134.188 12.8998 1731 116.175 111.363 438.112
2839 0 144.481 14.6524 2117 110.249 112.407 436.605
2840 1 79.1366 12.3963 981 104.273 112.33 471.255
2841 0 82.2317 12.2337 1006 102.89 112.959 470.206
2842 0 83.1539 12.6753 1054 103.214 112.9 466.28
2843 0 84.0871 12.713 1069 105.307 113.169 463.319
2844 0 89.0767 12.9776 1156 104.379 113.019 461.901
2845 0 93.1598 12.7308 1186 104.589 113.086 460.019
2846 0 96.2637 13.3799 1288 103.026 113.127 460.787
2847 0 98.1126 13.4539 1320 104.372 112.68 456.317
2848 0 99.1566 13.8972 1378 104.184 112.737 456.152
2849 0 105.112 13.3382 1402 104.46 113.31 453.579
2850 0 105.192 14.0695 1480 104.842 113.084 454.683
2851 0 111.34 14.4243 1606 105.761 113.01 452.174
2852 0 115.126 14.6014 1681 106.544 112.573 451.405
2853 0 117.593 13.7849 1621 111.64 112.513 445.452
2854 0 123.618 13.9624 1726 111.356 112.585 446.597
2855 0 126.348 13.8427 1749 112.148 112.705 442.253
2856 0 132.724 14.6695 1947 109.037 112.899 443.618
2857 0 135.691 13.8624 1881 112.702 112.659 439.995
2858 0 139.501 13.6558 1905 114.181 112.296 434.053
2859 0 144.601 14.1976 2053 111.252 112.46 437.437
2860 0 148.726 14.5772 2168 111.663 112.525 433.161
2861 0 152.755 14.5985 2230 111.774 112.525 430.769
2862 0 158.843 14.0894 2238 112.853 112.596 429.089
2863 0 163.805 13.8763 2273 113.167 112.333 427.354
2864 0 170.8 15.8665 2710 108.771 112.349 421.147
2865 0 175.581 14.5289 2551 112.351 112.525 425.642
2866 0 180.612 14.0301 2534 113.552 112.527 425.926
2867 0 188.547 15.9059 2999 108.608 112.903 423.935
2868 0 191.522 14.6824 2812 112.451 113.117 421.99
2869 0 199.558 14.7175 2937 112.953 112.96 414.931
2870 0 206.536 15.6389 3230 110.741 113.491 412.071
2871 1 117.486 12.9547 1522 115.354 113.332 457.093
2872 0 121.499 13.6873 1663 113.123 114.155 456.14
2873 0 123.305 14.3466 1769 114.06 113.256 448.58
2874 0 129.379 14.4923 1875 112.907 113.529 450.24
2875 0 131.463 13.692 1800 116.615 113.074 443.063
2876 0 137.283 13.1699 1808 116.946 113.892 445.763
2877 0 142.53 14.404 2053 118.119 113.035 439.795
2878 0 142.53 14.4181 2055 160.735 113.011 439.633
2879 0 150.57 15.1557 2282 117.728 112.649 431.382
2880 0 155.462 14.2736 2219 120.915 113.175 433.026
2881 0 161.534 15.458 2497 119.09 112.515 430.135
2882 0 166.631 13.7909 2298 122.612 112.886 428.709
2883 1 95.4293 12.4176 1185 121.786 112.65 460.565
2884 0 99.3835 13.1712 1309 119.435 113.258 460.827
2885 0 103.237 14.2681 1473 117.024 113.478 460.371
2886 0 105.307 13.3609 1407 120.681 113.781 456.999
2887 0 108.323 13.8936 1505 119.849 113.575 454.033
2888 0 109.313 13.4842 1474 121.303 113.463 453.609
2889 0 113.259 13.809 1564 121.194 113.345 452.128
2890 0 118.203 14.1875 1677 120.013 112.974 451.272
2891 0 121.259 13.9206 1688 119.755 113.608 450.775
2892 0 126.313 13.2923 1679 122.04 113.245 444.677
2893 0 130.358 13.9769 1822 120.073 113.52 444.675
2894 0 134.239 15.1222 2030 117.409 114.314 437.1
2895 0 138.392 14.076 1948 118.901 113.691 443.679
2896 0 141.352 14.2057 2008 120.437 113.164 435.872
2897 0 150.615 15.211 2291 114.702 113.371 435.826
2898 1 85.3302 11.4496 977 117.9 113.701 466.207
2899 0 89.2473 11.4849 1025 117.784 113.595 464.364
2900 0 91.1707 11.9885 1093 116.593 113.611 465.393
2901 0 95.1125 12.7008 1208 116.593 114.223 461.334
2902 0 98.26 12.3957 1218 117.342 113.209 461.404
2903 0 101.19 12.0565 1220 115.392 113.893 459.791
2904 0 105.269 14.0782 1482 110.995 114.074 457.868
2905 0 107.409 12.727 1367 115.742 113.471 456.21
2906 0 112.365 13.8566 1557 113.451 113.328 452.881
2907 0 114.325 12.7619 1459 115.216 113.626 455.055
2908 0 117.312 12.8461 1507 116.374 113.564 449.866
2909 0 123.3 14.1119 1740 112.836 113.176 449.632
2910 0 127.424 14.7539 1880 110.691 113.579 447.745
2911 0 129.282 13.3893 1731 114.616 113.645 442.529
2912 0 132.497 12.7098 1684 116.001 113.634 443.292
2913 0 139.574 14.3436 2002 111.22 113.296 441.142
2914 0 141.325 13.1753 1862 115.296 113.483 435.292
2915 1 83.2345 9.6114 800 109.041 112.921 469.348
2916 0 83.406 9.65158 805 106.031 114.266 460.101
2917 0 88.3773 9.34629 826 103.959 112.841 461.197
2918 0 91.3449 12.0751 1103 105.015 113.97 463.164
2919 0 92.2358 10.69 986 100.503 112.13 464.532
2920 0 95.3426 11.6947 1115 98.4735 112.456 465.752
2921 0 96.1893 10.5105 1011 102.38 112.023 465.127
2922 0 98.1301 11.016 1081 103.116 112.334 462.068
2923 0 102.098 11.107 1134 101.913 111.737 462.941
2924 0 106.149 11.7287 1245 101.401 112.606 458.947
2925 0 106.287 11.8829 1263 102.371 112.415 457.58
2926 0 112.233 12.4028 1392 99.9389 113.075 458.661
2927 0 112.399 12.5268 1408 102.293 113.016 452.229
2928 0 117.277 12.253 1437 102.06 112.887 451.652
2929 0 120.388 13.3069 1602 100.562 112.57 451.841
2930 0 124.425 12.5939 1567 101.668 113.087 451.121
2931 0 126.319 11.8193 1493 103.685 112.444 449.122
2932 0 130.216 14.0075 1824 99.295 112.464 445.412
2933 0 133.267 13.4242 1789 99.8826 112.283 443.753
2934 0 139.274 12.3929 1726 101.048 112.322 443.599
2935 0 141.23 11.945 1687 103.39 113.355 440.708
2936 0 146.293 12.7552 1866 102.577 113.093 436.424
2937 0 150.339 13.1103 1971 102.018 112.628 434.827
2938 1 90.071 10.2919 927 100.344 111.087 465.723
2939 0 92.0617 11.2859 1039 99.1877 112.091 463.243
2940 0 96.1889 12.3299 1186 99.6214 112.539 462.988
2941 0 99.1789 13.2689 1316 97.984 112.084 460.397
2942 0 102.277 12.1924 1247 99.563 111.728 461.281
2943 0 106.161 12.3962 1316 99.1109 111.35 458.169
2944 0 109.282 12.0697 1319 100.045 112.011 455.403
2945 0 112.26 11.9633 1343 99.7446 111.806 456.349
2946 0 115.126 12.0564 1388 99.2702 112.51 455.148
2947 0 118.41 12.8874 1526 98.6468 111.694 449.604
2948 0 122.363 12.0053 1469 100.066 111.991 451.807
2949 0 127.165 12.0866 1537 99.6597 112.234 447.081
2950 0 131.343 12.2503 1609 99.5736 111.782 447.105
2951 0 135.262 11.5554 1563 99.563 111.42 447.357
2952 0 140.335 11.2801 1583 100.924 111.208 442.311
2953 0 144.399 11.7868 1702 99.772 112.762 436.051
2954 0 152.422 13.292 2026 95.9615 112.58 438.55
2955 0 155.396 12.4585 1936 102.082 112.796 435.444
2956 1 84.3167 11.5042 970 94.9041 113.608 470.021
2957 0 89.2664 12.6699 1131 91.3687 113.657 470.188
2958 0 92.2656 12.063 1113 92.9021 113.159 468.226
2959 0 94.1878 12.3158 1160 93.3491 112.917 466.555
2960 0 96.2086 12.5872 1211 92.365 113.102 465.097
2961 0 99.2058 11.461 1137 91.0026 113.404 459.289
2962 0 100.203 11.9658 1199 91.447 113.573 456.558
2963 0 103.239 11.0908 1145 93.5843 112.632 453.788
2964 0 105.393 10.6933 1127 94.4676 112.543 454.594
2965 0 109.265 11.074 1210 93.7537 113.119 456.416
2966 0 109.404 11.9648 1309 93.7066 112.725 452.419
2967 0 114.324 12.4296 1421 93.7023 113.16 449.312
2968 0 115.239 11.7235 1351 98.0392 112.531 452.984
2969 0 117.233 13.2471 1553 94.7109 112.312 444.86
2970 0 122.25 12.6544 1547 98.0078 111.663 446.248
2971 0 125.243 12.3759 1550 99.2045 112.781 445.854
2972 0 128.2 12.2231 1567 99.635 112.674 444.157
2973 0 134.405 11.934 1604 104.042 112.831 442.158
2974 0 139.239 13.5307 1884 103.277 112.798 438.898
2975 0 143.628 13.723 1971 103.039 112.576 436.772
2976 0 147.267 13.4314 1978 104.414 112.527 433.977
2977 0 151.458 13.9379 2111 100.14 112.166 440.735
2978 1 79.0835 10.3941 822 96.91 112.895 468.039
2979 0 81.2297 10.8704 883 95.7361 112.309 465.669
2980 0 83.0541 12.3052 1022 95.0753 112.577 465.291
2981 0 87.2247 12.8404 1120 93.117 113.221 466.041
2982 0 87.101 11.5728 1008 98.1925 112.254 460.949
2983 0 92.2441 12.6079 1163 95.5073 111.878 465.808
2984 0 94.2341 11.9384 1125 98.3751 111.733 463.599
2985 0 97.183 10.7838 1048 102.304 112.303 459.684
2986 0 101.236 13.3648 1353 97.306 111.503 460.574
2987 0 103.296 11.6946 1208 100.927 111.594 459.041
2988 0 108.303 12.8344 1390 99.6014 111.103 457.567
2989 0 113.286 13.2497 1501 99.9427 111.011 456.632
2990 0 115.152 12.1231 1396 102.521 110.509 450.592
2991 0 124.151 12.5734 1561 98.4247 110.466 452.594
2992 0 127.222 12.8123 1630 102.364 110.389 447.599
2993 1 70.1295 10.9369 767 95.3546 110.558 473.741
2994 0 76.1065 10.6036 807 95.6307 111.948 473.659
2995 0 76.1362 11.9654 911 94.697 112.034 471.063
2996 0 81.1689 13.6259 1106 88.8797 112.715 470.898
2997 0 82.1991 12.4089 1020 91.35 112.874 471.031
2998 0 83.0919 12.3598 1027 92.2054 113.116 467.405
2999 0 86.1639 11.7102 1009 93.8811 113.243 467.235
3000 0 88.2297 11.4587 1011 94.0752 113.259 466.322
3001 0 91.1882 13.686 1248 90.0665 112.615 465.92
3002 0 92.0802 10.7189 987 96.2654 112.951 462.144
3003 0 98.105 13.0676 1282 91.5593 113.104 462.44
3004 0 99.2348 12.6669 1257 93.2975 113.103 460.664
3005 0 100.111 11.697 1171 98.199 113.219 461.784
3006 0 101.105 10.959 1108 99.8962 112.854 458.01
3007 0 107.127 13.2087 1415 95.0657 111.967 459.541
3008 0 107.098 12.848 1376 96.3612 112.058 455.608
3009 0 111.154 13.5758 1509 96.77 112.341 455.076
3010 0 114.253 11.7809 1346 98.9309 112.855 452.859
3011 0 119.183 12.2249 1457 98.3336 112.718 453.506
3012 0 120.292 12.744 1533 99.2981 111.896 447.61
3013 0 124.141 11.64 1445 103.708 111.446 448.089
3014 0 130.531 12.61 1646 100.787 111.612 448.951
3015 1 77.4159 9.4425 731 95.3051 111.457 479.244
3016 0 79.3833 10.3422 821 95.9488 111.44 470.297
3017 0 81.449 11.9707 975 93.3046 111.238 470.044
3018 0 85.3435 11.9283 1018 97.0668 112.182 472.735
3019 0 87.372 11.5025 1005 98.7532 111.911 471.412
3020 0 88.4012 12.0134 1062 100.556 111.584 464.163
3021 0 93.4857 12.9004 1206 98.3035 110.613 466.096
3022 0 96.3972 12.8012 1234 99.2042 111.24 465.998
3023 0 98.2628 11.744 1154 102.057 111.747 462.162
3024 0 102.451 12.7379 1305 99.7019 111.218 457.968
3025 0 105.635 12.4391 1314 101.775 110.629 455.116
3026 0 108.367 12.55 1360 102.529 110.694 454.681
3027 0 113.54 15.0167 1705 98.2035 111.168 453.039
3028 0 117.533 13.3069 1564 102.217 111.494 451.199
3029 0 119.594 13.1278 1570 103.392 111.384 450.198
3030 0 123.75 12.6868 1570 105.274 110.255 449.276
3031 0 123.555 13.322 1646 105.77 110.948 444.298
3032 0 129.455 13.4796 1745 104.158 111.245 445.669
3033 0 134.386 14.116 1897 104.055 111.381 443.904
3034 0 138.464 14.1481 1959 104.059 111.236 442.233
3035 0 142.457 13.6112 1939 106.877 111.026 439.026
3036 0 146.463 13.1706 1929 108.262 112.271 436.01
3037 1 82.406 11.5404 951 104.627 112.278 466.456
3038 0 87.227 12.6452 1103 102.288 112.448 467.594
3039 0 89.4528 12.4759 1116 104.053 111.792 465.472
3040 0 93.4332 13.4428 1256 103.375 112.568 463.506
3041 0 94.4334 12.6438 1194 105.965 112.491 465.51
3042 0 99.3801 13.7251 1364 104.54 112.736 463.823
3043 0 102.375 14.0171 1435 105.797 112.422 460.808
3044 0 103.53 13.5613 1404 108.167 112.236 455.353
3045 0 106.416 12.5827 1339 110.495 112.514 457.604
3046 0 110.486 14.1466 1563 104.179 112.296 454.376
3047 0 112.374 13.0991 1472 106.524 111.996 453.09
3048 0 114.398 14.0125 1603 109.688 111.975 452.812
3049 0 115.5 13.6017 1571 114.192 111.324 452.828
3050 0 114.285 13.5451 1548 108.062 111.115 449.546
3051 0 116.266 13.5293 1573 116.023 112.573 449.858
3052 0 117.327 13.6797 1605 116.072 112.102 449.893
3053 0 117.364 13.5391 1589 116.822 111.334 448.439
3054 1 68.2443 11.8105 806 115.163 111.845 475.138
3055 0 69.1295 11.7171 810 115.651 112.569 474.393
3056 0 74.3108 12.1113 900 113.817 113.333 472.094
3057 0 77.4091 11.9495 925 113.329 113.148 471.049
3058 0 78.4005 11.5305 904 114.461 112.888 467.562
3059 0 81.5616 12.653 1032 110.145 112.895 467.515
3060 0 84.2869 13.371 1127 107.154 112.913 470.885
3061 0 86.5102 13.1776 1140 107.566 112.139 466.804
3062 0 89.4373 13.3166 1191 107.014 112.084 467.41
3063 0 90.2304 12.6897 1145 109.59 111.986 466.743
3064 0 95.3566 13.9267 1328 106.165 112.444 466.87
3065 0 97.3029 13.9461 1357 107.574 112.85 462.814
3066 0 98.3074 13.1119 1289 109.488 112.475 464.439
3067 0 100.434 13.1131 1317 111.642 111.8 460.826
3068 0 101.226 13.6229 1379 112.532 111.914 461.664
3069 0 104.245 13.5355 1411 113.666 111.974 459.861
3070 0 108.443 14.2933 1550 112.315 112.692 457.732
3071 0 111.451 13.728 1530 114.09 111.91 459.597
3072 0 111.521 13.1186 1463 117.943 111.994 453.244
3073 1 62.1323 12.1998 758 103.348 111.075 479.404
3074 0 66.1319 12.5809 832 103.609 110.631 479.001
3075 0 66.2906 11.9474 792 106.769 111.128 478.946
3076 0 68.2177 12.9439 883 105.809 111.273 475.61
3077 0 70.1753 13.1243 921 106.885 111.179 478.1
3078 0 72.1435 12.3781 893 109.695 110.751 476.692
3079 0 73.2128 12.73 932 110.439 111.083 475.796
3080 0 74.1202 13.9098 1031 109.129 111.406 475.443
3081 0 76.2006 12.6639 965 115.083 111.464 474.565
3082 0 80.1748 13.9196 1116 113.006 111.401 473.891
3083 0 82.1343 14.1841 1165 115.046 111.805 472.229
3084 0 83.2097 13.472 1121 118.888 111.854 470.767
3085 0 85.0784 15.1507 1289 115.919 111.836 469.047
3086 0 87.1954 14.6911 1281 118.069 111.665 469.974
3087 0 88.3054 12.9324 1142 124.187 112.025 468.019
3088 0 93.3176 14.3381 1338 119.035 111.489 467.96
3089 0 95.3088 14.6052 1392 119.515 112.604 463.644
3090 0 96.5549 14.5617 1406 121.541 112.64 459.657
3091 0 102.479 13.9735 1432 126.684 112.534 458.834
3092 0 104.521 13.6719 1429 127.05 112.466 458.007
3093 0 106.361 13.8114 1469 130.085 112.162 455.818
3094 0 110.626 13.8304 1530 128.549 112.484 456.304
3095 1 65.2646 11.4457 747 127.858 113.15 476.751
3096 0 65.2216 11.3919 743 127.709 112.409 477.84
3097 0 62.2072 10.3846 646 118.927 112.203 468.695
3098 0 65.1184 10.5039 684 112.681 112.936 470.304
3099 0 67.1299 11.6937 785 111.586 112.499 469.618
3100 0 70.1153 12.3226 864 110.139 112.741 466.946
3101 0 67.112 10.5048 705 114.862 112.721 465.203
3102 0 74.1316 12.1541 901 109.118 112.781 466.994
3103 0 81.1001 12.8113 1039 107.46 112.611 465.105
3104 0 78.1052 12.2271 955 110.687 112.252 461.32
3105 0 82.2092 12.0911 994 109.289 112.953 464.216
3106 0 84.1352 13.0029 1094 108.671 113.367 460.558
3107 0 84.1163 11.5673 973 113.118 112.891 460.217
3108 0 91.1502 12.2435 1116 112.328 113.131 458.658
3109 0 93.1269 14.1742 1320 108.345 113.576 457.03
3110 0 95.1334 13.1289 1249 112.902 113.228 455.348
3111 0 101.239 13.9571 1413 113.778 112.855 454.447
3112 0 102.136 14.6961 1501 112.308 112.404 452.766
3113 0 104.245 14.1878 1479 111.794 113.108 452.047
3114 0 106.164 13.8465 1470 113.215 112.535 446.079
3115 0 110.162 13.117 1445 114.889 111.325 442.855
3116 0 115.3 13.3912 1544 113.786 111.668 442.342
3117 0 120.343 13.046 1570 113.31 112.348 441.373
3118 0 122.339 14.002 1713 113.549 112.013 437.784
3119 0 128.35 13.4554 1727 105.409 112.037 436.339
3120 0 134.437 14.4677 1945 103.238 113.002 435.119
3121 1 74.086 11.6621 864 104.78 112.6 462.99
3122 0 79.1186 12.8794 1019 96.2522 111.944 466.455
3123 0 83.2562 13.0201 1084 95.1236 112.732 465.78
3124 0 85.103 12.808 1090 96.0606 112.634 465.092
3125 0 89.2471 13.6475 1218 94.5345 112.896 462.429
3126 0 89.1342 11.8922 1060 98.9142 112.772 461.232
3127 0 94.1046 13.8357 1302 94.5169 113.465 458.968
3128 0 95.1108 12.1122 1152 98.6076 113.128 459.726
3129 0 97.0899 12.6584 1229 97.6322 113.14 458.336
3130 0 100.228 11.843 1187 98.9688 113.756 454.136
3131 0 105.244 12.7038 1337 97.0105 113.968 456.004
3132 0 109.271 12.9495 1415 96.1364 113.965 455.71
3133 0 110.382 12.8282 1416 98.5092 113.453 447.165
3134 0 117.312 14.048 1648 94.8356 113.78 447.802
3135 0 120.158 13.0161 1564 96.7308 113.126 444.311
3136 0 124.148 12.5576 1559 98.4836 113.372 445.765
3137 1 69.0657 11.8583 819 95.3541 113.918 470.65
3138 0 70.0737 11.545 809 100.143 113.687 465.378
3139 0 71.0975 11.7444 835 100.108 113.671 464.102
3140 0 74.1415 11.6938 867 98.9435 114.541 465.114
3141 0 78.0522 13.5422 1057 95.6774 114.323 463.298
3142 0 79.0705 11.7364 928 101.221 113.331 460.835
3143 0 82.1634 10.8442 891 103.012 113.933 458.661
3144 0 82.3043 10.3883 855 99.0082 113.563 461.825
3145 0 89.1782 12.0657 1076 95.4842 113.92 460.705
3146 0 93.1666 12.4401 1159 95.4797 113.343 461.183
3147 0 94.1423 11.9712 1127 97.0639 113.53 459.524
3148 0 98.2272 14.2832 1403 93.4847 113.541 456.42
3149 0 99.2481 13.2799 1318 95.8756 113.62 456.586
3150 0 102.167 11.491 1174 100.423 113.933 455.005
3151 0 107.295 12.5542 1347 98.8864 113.634 457.251
3152 0 109.231 12.0021 1311 101.021 114.153 455.503
3153 0 114.176 13.0588 1491 101.948 113.834 456.629
3154 0 117.188 13.5509 1588 101.332 113.6 458.683
3155 0 122.198 13.3554 1632 103.619 113.223 454.609
3156 0 125.268 14.1297 1770 101.586 112.223 449.456
3157 0 130.455 13.5602 1769 107.072 111.611 445.548
3158 0 135.469 13.4938 1828 93.6783 112.329 443.358
3159 1 73.1707 12.956 948 99.7964 111.27 476.285
3160 0 73.0627 12.0171 878 101.346 111.759 478.337
3161 0 76.1582 12.7104 968 100.78 111.523 473.885
3162 0 77.1382 11.8618 915 102.957 112.099 473.118
3163 0 80.1918 12.1209 972 102.505 111.519 473.333
3164 0 82.147 12.3316 1013 101.965 111.146 472.143
3165 0 84.1706 13.7221 1155 100.011 111.833 468.481
3166 0 86.1307 13.2009 1137 101.39 112.118 467.433
3167 0 89.2717 13.879 1239 100.082 112.306 467.58
3168 0 91.272 13.2133 1206 102.91 112.017 465.512
3169 0 95.1163 13.1839 1254 100.518 111.995 467.854
3170 0 94.2675 12.3266 1162 103.806 111.856 465.193
3171 0 97.159 12.9993 1263 104.08 112.177 464.835
3172 0 100.149 12.9807 1300 104.11 111.407 463.568
3173 0 101.128 13.1121 1326 105.011 111.36 462.69
3174 0 107.207 12.3872 1328 106.703 111.46 462.14
3175 0 110.423 13.4664 1487 105.191 111.907 461.105
3176 0 112.169 13.1765 1478 107.304 112.001 458.162
3177 0 115.159 12.4436 1433 108.88 111.352 457.897
3178 0 119.265 12.9628 1546 109.429 110.864 453.509
3179 0 122.143 13.4024 1637 109.177 110.949 453.058
3180 0 123.246 13.185 1625 111.763 110.448 448.816
3181 0 131.354 13.673 1796 111.098 110.282 444.381
3182 0 136.242 13.476 1836 110.713 110.461 446.894
3183 0 141.314 13.799 1950 110.514 110.694 443.085
3184 0 143.426 13.547 1943 111.856 110.901 440.884
3185 0 147.182 13.8128 2033 112.275 111.098 439.74
3186 0 155.251 13.797 2142 112.27 111.295 440.422
3187 0 159.361 15.079 2403 112.407 111.03 433.462
3188 0 164.182 14.484 2378 115.109 110.481 433.791
3189 0 169.384 14.8893 2522 112.343 110.638 430.735
3190 0 176.291 14.7483 2600 112.464 111.001 426.068
3191 0 183.347 15.0371 2757 110.671 111.539 425.42
3192 0 187.369 14.8157 2776 111.561 111.344 422.611
3193 0 192.415 14.8065 2849 111.053 110.87 421.337
3194 0 200.332 16.2081 3247 108.505 111.368 414.37
3195 0 204.411 14.2262 2908 113.409 111.543 413.045
3196 0 212.449 15.9332 3385 109.374 112.02 406.938
3197 0 217.655 13.5168 2942 113.448 111.838 405.22
3198 0 225.861 14.4248 3258 113.886 111.96 396.074
3199 1 51.2027 10.0776 516 99.719 113.386 485.632
3200 0 52.2173 10.7436 561 95.5276 111.654 480.396
3201 0 50.1509 9.17232 460 96.1239 112.276 474.709
3202 0 53.1575 10.2149 543 94.0571 111.842 477.252
3203 0 52.1519 10.5269 549 95.714 112.095 473.135
3204 0 58.1654 12.0175 699 93.4177 112.492 480.614
3205 0 63.1767 11.9823 757 96.535 112.038 484.555
3206 0 65.1301 11.1776 728 98.8956 113.007 483.457
3207 0 67.1979 12.9171 868 94.7396 113.145 480.272
3208 0 68.286 12.3012 840 97.8774 112.933 480.723
3209 0 71.112 12.3467 878 96.6162 113.261 477.941
3210 0 71.0552 12.244 870 96.2851 113.393 480.623
3211 0 73.1942 11.2031 820 97.8073 113.694 480.701
3212 0 74.3103 11.5327 857 98.3746 113.629 477.151
3213 0 74.19 10.2035 757 101.354 113.264 476.781
3214 0 76.1263 11.0343 840 100.888 113.236 473.381
3215 0 79.2756 10.5455 836 101.371 113.378 475.258
3216 0 84.2321 11.6464 981 99.7136 113.323 473.965
3217 0 85.1469 12.9188 1100 98.6227 112.663 473.049
3218 0 86.117 12.3437 1063 101.04 112.829 470.603
3219 0 90.1057 12.7628 1150 100.348 112.864 469.813
3220 0 91.41 12.1212 1108 103.613 111.844 464.813
3221 0 95.3709 12.9075 1231 102.66 112.045 466.146
3222 0 98.3028 13.0718 1285 102.483 112.369 465.636
3223 0 101.166 11.4564 1159 106.661 111.639 463.94
3224 0 106.324 12.3584 1314 105.621 112.674 461.635
3225 0 110.183 14.9025 1642 101.358 111.862 456.748
3226 0 112.201 11.515 1292 108.775 112.82 454.619
3227 1 66.3493 12.1629 807 102.027 110.509 474.912
3228 0 68.3738 11.9929 820 104.568 111.589 474.309
3229 0 70.1318 12.1913 855 101.386 112.168 479.345
3230 0 73.1028 12.6808 927 100.535 112.778 476.799
3231 0 76.1341 12.5831 958 100.76 112.71 477.07
3232 0 78.0845 12.2816 959 102.027 113.386 477.21
3233 0 78.073 11.9888 936 104.607 112.087 474.153
3234 0 83.1446 13.5787 1129 100.234 112.826 475.498
3235 0 85.1725 13.7603 1172 99.8652 113.277 474.449
3236 0 87.1313 13.3362 1162 100.846 113.253 473.746
3237 0 89.2109 13.0477 1164 102.598 113.416 471.936
3238 0 91.1054 13.4679 1227 101.968 112.971 469.891
3239 0 93.1071 13.4684 1254 102.55 113.006 468.861
3240 0 96.0996 14.0687 1352 102.671 112.927 465.322
3241 0 99.2331 14.3198 1421 100.42 112.356 464.516
3242 0 100.2 13.2934 1332 104.218 111.998 462.478
3243 0 103.241 13.2506 1368 104.325 112.523 463.787
3244 0 107.239 14.0993 1512 106.045 112.692 460.28
3245 0 111.116 14.5614 1618 111.869 112.299 457.054
3246 0 112.272 13.9394 1565 114.722 112.085 455.287
3247 0 116.217 13.5437 1574 114.884 112.71 455.213
3248 0 120.246 14.1876 1706 114.402 112.508 451.922
3249 0 123.318 14.3532 1770 113.229 112.616 452.367
3250 1 71.1122 12.0795 859 110.468 112.702 476.222
3251 0 71.1313 12.2028 868 107.309 113.392 474.482
3252 0 73.249 10.635 779 106.904 113.126 473.76
3253 0 76.1491 11.9371 909 105.425 112.915 470.537
3254 0 78.1728 11.82 924 107.163 113.233 468.319
3255 0 81.2456 12.1237 985 107.761 112.846 467.488
3256 0 85.2279 12.3199 1050 108.714 112.9 467.091
3257 0 85.2364 12.9053 1100 109.291 112.321 465.943
3258 0 86.1445 12.0495 1038 111.107 113.044 464.548
3259 0 90.1174 12.9387 1166 108.973 113.14 462.973
3260 0 94.0925 12.7853 1203 107.909 113.099 464.848
3261 0 97.0936 12.5755 1221 108.873 113.378 465.101
3262 0 102.117 12.8186 1309 111.126 113.348 463.796
3263 0 104.13 13.9922 1457 109.65 113.057 461.719
3264 0 108.189 13.4117 1451 111.048 113.262 460.602
3265 0 111.238 14.2217 1582 109.704 113.186 457.698
3266 0 113.236 13.8561 1569 111.964 112.765 457.159
3267 0 115.185 13.4132 1545 111.841 113.038 457.791
3268 0 120.249 15.1602 1823 108.927 112.279 453.924
3269 0 122.137 14.2709 1743 112.355 112.177 451.074
3270 0 125.171 12.9503 1621 114.559 112.674 448.969
3271 0 131.119 15.1008 1980 110.295 112.661 445.712
3272 0 135.232 14.2792 1931 110.941 113.591 443.374
3273 0 142.18 14.3762 2044 111.06 113.25 440.626
3274 1 81.1279 12.4371 1009 112.811 113.359 469.026
3275 0 87.1577 13.0224 1135 109.908 113.178 469.411
3276 0 92.123 14.1007 1299 106.76 113.711 467.694
3277 0 94.1605 14.6346 1378 102.791 113.669 466.451
3278 0 95.172 14.6367 1393 105.082 113.108 463.222
3279 0 100.218 14.2789 1431 104.67 113.188 463.385
3280 0 103.298 14.7824 1527 104.501 112.9 461.474
3281 0 105.145 14.751 1551 105.596 113.315 459.884
3282 0 107.177 13.2024 1415 109.269 112.895 458.827
3283 0 110.259 12.6339 1393 111.21 112.388 457.548
3284 0 114.231 14.3131 1635 107.539 112.314 453.917
3285 0 116.215 13.4406 1562 110.787 112.665 454.396
3286 0 119.264 13.684 1632 109.651 112.7 452.66
3287 0 122.319 14.1188 1727 108.557 112.772 448.306
3288 0 127.212 14.1182 1796 107.919 112.32 450.994
3289 0 135.297 13.5554 1834 108.794 113.114 445.578
3290 1 75.2763 13.4172 1010 109.932 112.734 471.219
3291 0 78.1566 12.4622 974 113.103 113.098 469.633
3292 0 80.146 13.2134 1059 112.417 113.449 469.044
3293 0 82.2114 13.6842 1125 110.126 113.147 467.447
3294 0 86.3129 13.9608 1205 108.669 113.202 467.673
3295 0 87.3109 14.0876 1230 108.679 113.702 466.379
3296 0 90.283 14.4767 1307 108.597 113.65 463.437
3297 0 93.2753 13.9265 1299 109.784 113.871 461.494
3298 0 96.5812 13.3359 1288 110.002 113.334 459.534
3299 0 99.3983 14.5173 1443 108.134 112.904 457.834
3300 0 105.38 13.8641 1461 109.929 113.593 458.902
3301 0 106.423 14.5739 1551 112.441 112.98 455.259
3302 0 110.42 13.3219 1471 113.544 113.379 455.919
3303 0 113.253 14.1453 1602 110.717 113.074 455.152
3304 0 117.326 14.8475 1742 111.257 113.738 450.437
3305 0 120.488 14.3583 1730 113.809 113.791 448.75
3306 0 121.342 14.216 1725 114.144 112.91 446.431
3307 0 129.34 13.8472 1791 113.222 113.559 447.098
3308 0 130.289 14.2375 1855 113.604 113.109 443.44
3309 0 136.321 13.747 1874 114.859 113.336 442.412
3310 0 139.55 13.8087 1927 115.303 113.564 440.595
3311 0 142.444 14.4829 2063 114.228 113.517 437.388
3312 0 148.411 13.6984 2033 116.193 113.018 435.168
3313 0 152.491 12.991 1981 118.094 113.312 433.776
3314 0 157.466 12.7075 2001 119.866 113.049 430.033
3315 0 162.325 13.319 2162 120.359 112.56 430.173
3316 0 167.575 14.5487 2438 119.27 113.107 426
3317 0 174.525 14.4965 2530 120.05 112.994 424.318
3318 0 177.534 15.1633 2692 120.253 112.583 423.029
3319 0 181.396 14.7192 2670 122.797 113.464 419.247
3320 0 190.489 15.0665 2870 121.033 113.062 419.623
3321 1 108.402 13.2286 1434 122.167 113.487 455.229
3322 0 113.447 14.6941 1667 117.944 113.575 454.341
3323 0 116.27 14.0363 1632 116.711 112.725 453.376
3324 0 118.269 13.0634 1545 116.624 113.729 450.19
3325 0 122.241 13.5061 1651 116.746 113.887 450.085
3326 0 127.252 13.5401 1723 117.198 113.154 447.548
3327 0 128.249 12.1014 1552 121.475 113.103 445.455
3328 0 134.235 13.3273 1789 119.935 113.286 443.017
3329 0 138.241 13.2667 1834 122.165 113.503 440.699
3330 0 142.26 14.4454 2055 119.878 113.468 437.897
3331 0 149.438 13.9924 2091 121.113 112.632 434.789
3332 0 152.3 13.8148 2104 122.65 113.192 433.158
3333 0 155.386 12.7232 1977 127.19 113.297 432.663
3334 0 160.427 13.5763 2178 126.872 113.274 428.366
3335 0 167.433 13.6353 2283 127.603 113.12 426.287
3336 0 169.324 13.2704 2247 130.802 112.946 419.335
3337 0 176.391 13.1356 2317 130.95 113.573 420.471
3338 0 180.396 14.7287 2657 128.191 113.015 417.658
3339 0 184.52 13.6787 2524 131.519 112.381 415.951
3340 0 189.291 13.8358 2619 132.161 112.077 409.514
3341 0 196.287 14.0304 2754 131.545 112.191 407.387
3342 0 201.474 14.518 2925 130.62 112.295 408.425
3343 0 206.473 13.5708 2802 134.912 112.266 403.901
3344 0 214.489 14.4996 3110 131.835 112.32 402.043
3345 0 220.625 13.6113 3003 134.236 112.204 399.246
3346 0 229.466 13.9585 3203 133.682 111.899 395.097
3347 0 235.666 14.6436 3451 133.156 111.394 390.222
3348 1 187.364 13.1669 2467 134.061 112.793 416.617
3349 0 194.334 13.4459 2613 134.907 112.046 410.839
3350 0 198.384 13.4134 2661 134.218 112.278 410.392
3351 0 205.342 13.7722 2828 134.038 111.362 406.034
3352 0 210.325 12.6233 2655 137.107 112.472 402.489
3353 0 218.388 13.357 2917 135.721 112.256 398.684
3354 0 226.62 13.5381 3068 134.618 111.605 398.93
3355 0 234.786 13.8765 3258 134.512 111.73 389.876
3356 0 240.385 14.2396 3423 134.292 112.512 390.015
3357 0 251.654 14.5557 3663 132.625 112.062 387.173
3358 0 260.432 14.6065 3804 133.331 111.906 377.139
3359 1 191.419 12.4909 2391 132.432 111.662 410.112
3360 0 197.463 12.5796 2484 133.556 112.135 406.755
3361 0 205.374 13.5898 2791 130.796 112.467 411.694
3362 0 210.396 13.2988 2798 131.396 112.892 403.25
3363 0 216.339 13.2755 2872 129.69 113.103 399.524
3364 0 221.518 13.0418 2889 132.455 112.502 386.959
3365 0 223.393 13.6217 3043 131 112.417 385.118
3366 0 402.858 17.1921 6926 127.103 111.451 297.803
3367 0 342.488 16.7247 5728 125.141 111.293 329.154
3368 0 353.447 15.7732 5575 128.651 110.615 323.41
3369 0 363.667 15.4922 5634 128.61 110.838 308.677
3370 0 269.65 17.4634 4709 115.016 110.913 360.95
3371 1 62.1976 8.84278 550 113.798 111.856 469.007
3372 0 70.0471 11.4494 802 110.93 109.449 473.834
3373 0 72.1751 11.5137 831 113.851 110.546 477.215
3374 0 75.1571 11.4959 864 115.491 110.095 475.383
3375 0 72.1296 11.0357 796 103.136 113.442 480.166
3376 0 74.0837 10.8121 801 103.335 113.513 479.763
3377 0 78.1003 11.3444 886 103.042 113.535 476.898
3378 0 80.2817 11.0237 885 104.671 113.882 471.852
3379 0 82.1936 10.1833 837 106.566 113.984 470.258
3380 0 84.1723 10.9418 921 104.149 114.569 471.875
3381 0 88.0826 11.5346 1016 104.309 113.641 470.223
3382 0 91.1506 11.9034 1085 104.074 113.869 469.598
3383 0 88.0944 9.71684 856 110.203 113.384 467.57
3384 0 96.0807 12.4999 1201 103.994 112.631 464.765
3385 0 96.0316 11.0484 1061 106.699 113.153 467.894
3386 0 100.143 11.7831 1180 106.258 112.548 466.341
3387 0 101.165 11.585 1172 107.893 112.718 463.472
3388 0 107.134 12.125 1299 106.151 112.329 459.346
3389 1 123.301 16.2448 2003 90.7863 111.397 446.09
3390 0 118.248 15.4845 1831 96.6909 112.51 448.941
3391 0 114.205 11.1642 1275 109.381 112.776 454.27
3392 0 123.398 14.6599 1809 101.967 113.07 446.462
3393 0 122.254 12.6621 1548 110.417 112.862 448.616
3394 0 124.265 11.9423 1484 113.952 112.375 447.721
3395 0 129.184 12.2384 1581 111.813 112.749 446.629
3396 0 132.237 11.3962 1507 112.709 112.743 442.63
3397 1 77.1867 12.0487 930 103.775 110.695 471.301
3398 0 81.2695 13.1784 1071 101.819 110.949 472.002
3399 0 81.1287 12.3384 1001 103.842 111.251 472.382
3400 0 83.2052 13.1122 1091 102.937 110.881 471.628
3401 0 85.0956 12.8796 1096 104.345 111.122 470.727
3402 0 86.1829 13.7034 1181 104.792 110.418 466.467
3403 0 89.1791 13.4336 1198 105.133 110.645 466.15
3404 0 90.1134 13.0391 1175 106.795 110.947 464.287
3405 0 93.1396 12.8302 1195 108.064 111.49 462.622
3406 0 95.0939 13.4183 1276 108.078 110.878 462.017
3407 0 97.1516 14.4722 1406 105.76 111.27 461.125
3408 0 98.1693 14.6685 1440 107.478 110.821 458.515
3409 0 103.141 14.1554 1460 109.557 110.859 458.262
3410 0 104.328 13.8888 1449 111.079 110.408 458.154
3411 0 108.142 14.2591 1542 110.883 110.84 456.76
3412 0 110.385 14.0961 1556 112.97 111.175 454.981
3413 0 114.24 14.3645 1641 113.165 111.93 451.495
3414 0 115.264 13.7164 1581 115.812 111.297 453.517
3415 0 118.279 14.1107 1669 116.251 111.191 451.309
3416 0 120.163 13.5482 1628 119.329 111.752 448.98
3417 0 126.158 14.7275 1858 116.478 113.111 448.898
3418 0 128.166 13.7947 1768 119.879 113.383 449.219
3419 0 131.254 13.4701 1768 121.728 113.229 444.754
3420 0 137.187 14.6661 2012 117.834 113.297 445.027
3421 0 141.19 15.3411 2166 117.405 113.24 443.138
3422 0 144.43 14.6646 2118 120.556 113.479 439.864
3423 0 148.289 14.9438 2216 120.29 114.06 438.799
3424 0 154.394 14.1327 2182 122.698 113.39 433.495
3425 0 157.284 13.6187 2142 124.379 113.257 431.841
3426 0 162.198 13.7363 2228 123.597 113.555 430.088
3427 1 96.1147 13.203 1269 118.935 113.814 462.751
3428 0 96.1302 12.7119 1222 121.324 113.924 458.739
3429 0 96.2177 13.1681 1267 118.78 111.477 452.044
3430 0 97.1097 12.7279 1236 120.753 110.979 452.761
3431 0 101.148 12.5163 1266 122.526 111.032 449.903
3432 0 102.22 13.6079 1391 121.005 110.603 446.832
3433 0 104.148 12.7415 1327 122.521 111.051 447.013
3434 0 106.175 12.7337 1352 123.22 111.057 443.863
3435 0 111.278 12.8238 1427 123.136 111.054 442.385
3436 0 114.175 13.5319 1545 124.388 110.49 442.634
3437 0 119.141 13.3288 1588 123.595 110.87 440.302
3438 0 122.09 12.8757 1572 123.618 111.392 438.023
3439 0 122.233 13.9324 1703 122.638 111.672 434.766
3440 0 127.183 12.8005 1628 124.549 111.711 434.09
3441 0 134.29 13.3294 1790 121.742 112.084 431.534
3442 0 136.36 12.9656 1768 123.098 112.474 429.722
3443 0 143.153 14.0759 2015 118.109 111.681 427.898
3444 1 62.1081 10.0953 627 101.528 113.099 469.85
3445 0 65.0869 11.3387 738 91.4309 112.648 471.575
3446 0 66.1265 10.4043 688 95.561 112.709 466.927
3447 0 68.1238 9.27722 632 97.049 112.16 467.815
3448 0 67.2228 9.04455 608 99.5806 111.178 466.747
3449 0 72.2286 10.2868 743 97.0834 111.622 466.906
3450 0 72.1462 10.645 768 98.9987 110.992 464.375
3451 0 74.1547 10.4916 778 99.8702 110.992 465.033
3452 0 73.3211 9.79254 718 103.61 110.85 463.007
3453 0 76.3813 9.37402 716 107 111.087 459.486
3454 0 83.3045 11.9922 999 113.167 110.684 467.13
3455 0 84.2406 10.4581 881 116.677 110.732 467.153
3456 0 87.2187 10.8119 943 115.494 110.918 467.598
3457 0 89.2663 12.0762 1078 114.722 110.468 464.911
3458 0 90.3824 12.1373 1097 115.25 110.565 463.267
3459 0 93.3152 11.6701 1089 116.756 110.011 463.18
3460 0 97.2959 11.9738 1165 116.102 110.556 462.058
3461 0 100.325 11.5524 1159 118.022 110.235 459.015
3462 0 102.454 13.8013 1414 113.869 110.62 458.351
3463 0 104.538 11.2973 1181 120.914 110.489 453.927
3464 0 109.472 12.6151 1381 116.631 111.036 455.26
3465 0 114.485 12.6479 1448 115.99 111.324 450.189
3466 0 109.271 12.3455 1349 113.891 111.15 443.664
3467 0 106.297 10.8376 1152 119.352 110.634 437.856
3468 0 118.32 12.4408 1472 114.53 111.085 436.756
3469 1 72.1068 10.0823 727 108.952 109.884 464.905
3470 0 75.154 9.95289 748 102.481 110.255 463.846
3471 0 75.1814 9.53693 717 101.693 111.078 461.728
3472 0 76.2686 8.90274 679 103.567 110.976 463.031
3473 0 79.2185 9.30338 737 103.134 110.472 461.066
3474 0 79.1947 9.50821 753 105.418 109.967 456.927
3475 0 85.1438 9.88915 842 102.92 110.388 460.337
3476 0 88.1348 10.3705 914 114.522 109.788 462.628
3477 0 95.2392 13.5448 1290 105.64 110.429 463.48
3478 0 96.4094 12.3328 1189 108.233 111.112 461.954
3479 0 99.3543 12.7423 1266 108.137 110.765 460.852
3480 0 100.463 12.8107 1287 108.205 111.236 460.089
3481 0 105.543 12.6679 1337 108.59 111.319 458.568
3482 0 106.43 13.4267 1429 108.882 110.887 452.808
3483 0 108.283 12.7074 1376 109.915 111.922 454.024
3484 0 112.455 12.0493 1355 111.934 111.513 452.416
3485 0 115.304 12.4367 1434 111.498 111.637 450.096
3486 0 117.476 13.9093 1634 109.1 111.251 448.458
3487 0 115.146 13.0009 1497 108.525 112.168 441.487
3488 0 119.184 12.9799 1547 108.569 111.601 437.69
3489 0 123.324 12.4469 1535 109.966 111.332 435.602
3490 0 124.147 12.606 1565 109.476 111.145 436.776
3491 0 129.137 13.1178 1694 109.361 111.67 434.747
3492 0 129.235 12.3883 1601 113.078 110.903 429.885
3493 0 135.166 13.6425 1844 108.677 111.198 430.915
3494 0 135.126 11.1377 1505 116.559 111.643 427.832
3495 0 144.379 12.8758 1859 111.13 111.434 426.026
3496 0 144.303 13.8598 2000 110.314 110.954 424.554
3497 0 147.235 12.9249 1903 113.359 110.929 422.786
3498 0 152.246 13.6227 2074 112.254 111.178 419.31
3499 0 152.254 11.9997 1827 117.626 111.586 417.239
3500 0 160.304 12.1769 1952 116.251 111.525 421.168
3501 0 166.185 12.7569 2120 116.274 111.86 413.642
3502 0 169.352 13.6933 2319 115.397 111.249 414.262
3503 0 176.256 14.3088 2522 113.848 111.715 411.035
3504 0 178.274 14.7414 2628 114.67 112.02 406.019
3505 0 184.233 15.1113 2784 114.029 111.657 409.496
3506 0 185.276 13.3261 2469 120.732 111.796 399.552
3507 0 195.308 14.8484 2900 116.362 111.728 402.043
3508 0 197.48 13.495 2665 121.331 112.235 398.945
3509 0 203.464 14.1106 2871 120.733 112.124 398.78
3510 0 208.386 13.9453 2906 121.139 112.084 395.202
3511 0 213.49 14.6845 3135 120.543 111.761 391.515
3512 0 217.459 14.7246 3202 120.992 111.796 388.997
3513 0 222.496 14.0902 3135 124.147 111.301 384.726
3514 0 230.406 13.8234 3185 123.669 111.186 384.247
3515 0 238.489 14.3654 3426 122.312 111.492 379.277
3516 0 249.595 14.4594 3609 121.667 111.095 374.277
3517 0 255.478 13.9738 3570 126.124 110.506 375.271
3518 0 262.613 14.6756 3854 125.083 110.477 362.402
3519 0 274.595 15.8889 4363 121.433 110.328 366.225
3520 1 198.285 13.1225 2602 123.951 110.659 402.951
3521 0 203.593 13.6056 2770 123.564 110.957 399.104
3522 0 205.267 12.9441 2657 125.483 110.793 393.98
3523 0 214.42 12.9092 2768 124.915 111.323 392.674
3524 0 219.373 12.6907 2784 127.688 110.927 382.258
3525 0 225.37 12.6947 2861 128.631 111.115 376.215
3526 0 233.409 13.1314 3065 126.835 111.465 380.322
3527 0 236.403 13.4516 3180 127.733 111.285 373.09
3528 0 246.386 13.9009 3425 125.819 110.748 372.861
3529 0 252.555 13.8821 3506 126.979 111.439 370.739
3530 0 257.442 13.0903 3370 129.739 111.01 359.588
3531 0 264.654 13.3306 3528 128.179 111.366 358.741
3532 0 272.698 14.6462 3994 125.222 111.943 357.025
3533 1 301.566 8.39285 2531 132.353 112.346 377.724
3534 0 304.549 22.3971 6821 101.622 111.475 334.596
3535 0 306.385 17.4715 5353 114.933 111.138 334.354
3536 0 308.676 15.7414 4859 122.784 111.498 333.87
3537 0 317.425 15.5218 4927 122.758 111.438 337.386
3538 0 326.694 16.0456 5242 120.878 111.123 323.778
3539 0 335.521 16.598 5569 122.511 110.805 321.254
3540 0 344.895 16.3383 5635 125.78 111.581 312.399
3541 0 355.83 16.8929 6011 125.184 111.928 308.793
3542 0 365.859 16.9218 6191 125.356 111.327 307.67
3543 0 382.721 15.8314 6059 128.056 111.271 307.456
3544 0 397.037 19.1519 7604 118.727 111.533 300.731
3545 0 406.167 17.1555 6968 125.702 112.653 289.341
3546 0 417.423 16.4797 6879 129.726 112.026 285.357
3547 0 430.237 17.1533 7380 129.207 112.023 284.026
3548 0 428.126 11.5433 4942 138.895 111.595 312.698
3549 0 430.84 12.8679 5544 126.95 112.792 247.29
3550 0 50.068 15.1194 757 86.3646 114.688 490.423
3551 0 50.0738 12.7612 639 93.2066 114.685 490.93
3552 0 50.0287 14.4317 722 99.4778 114.769 488.958
3553 0 51.3786 14.578 749 99.6729 113.665 485.21
3554 0 52.0631 15.3852 801 98.1224 114.348 486.097
3555 0 52.1151 14.8709 775 100.417 114.919 484.157
3556 0 51.0588 14.4539 738 104.252 114.612 481.501
3557 0 51.0451 14.6929 750 104.373 115.271 480.869
3558 0 51.0495 14.437 737 105.478 114.75 482.469
3559 0 52.0329 13.8182 719 106.466 114.624 483.192
3560 0 51.0394 15.0472 768 103.698 114.656 482.956
3561 0 53.0666 14.5289 771 103.821 114.349 481.665
3562 0 52.0655 13.9056 724 107.612 114.907 478.417
3563 0 53.0588 14.6064 775 105.426 114.208 479.684
3564 0 54.0304 14.899 805 103.84 114.45 484.445
3565 0 53.0579 14.1732 752 106.262 113.582 486.129
3566 1 27.0215 9.06686 245 113.8 113.743 495.404
3567 0 26.0563 8.90381 232 116.034 111.478 499.078
3568 0 25.5557 10.0174 256 113.41 111.617 491.934
3569 0 28.816 11.5561 333 106.453 111.997 492.357
3570 0 30.2585 12.7568 386 100.049 110.22 494.896
3571 0 31.6867 14.0753 446 93.1054 111.686 491.034
3572 0 31.0794 14.4468 449 93.5368 114.604 499.532
3573 0 31.0108 12.7698 396 98.2752 115.152 499.273
3574 0 30.0873 10.9681 330 106.321 114.921 499.233
3575 0 26.4197 11.2794 298 111.839 112.258 499.433
3576 0 27.023 10.6576 288 111.101 114.604 500.41
3577 0 26.0165 10.5702 275 113.113 115.425 499.611
3578 0 32.0817 12.4058 398 98.9121 114.221 499.186
3579 0 30.0178 10.6603 320 107.906 114.838 500.084
3580 0 30.0334 11.5871 348 104.991 115.833 498.773
3581 0 30.1546 11.64 351 105.382 114.798 498.348
3582 0 31.0148 12.1232 376 103.266 114.747 498.532
3583 0 28.0398 10.1998 286 112.608 114.514 499.881
3584 0 29.0731 11.1443 324 106.5 114.574 499.207
3585 0 28.1428 11.3706 320 108.4 115.4 498.306
3586 0 29.0483 10.7407 312 109.042 115.385 499.019
3587 0 30.0616 12.1085 364 102.89 115.25 498.297
3588 0 30.0919 11.1658 336 106.583 115.045 499.786
3589 0 29.0324 11.8833 345 106.18 115.049 499.716
3590 0 30.0279 11.4893 345 105.58 114.226 499.177
3591 0 27.0592 10.8281 293 110.348 109.539 497.737
3592 0 28.0174 9.85102 276 112.225 110.728 499.138
