time division length width area intensity CMx CMy
0 0 38.0416 13.8533 527 131.825 806.727 483.034
1 0 38.0979 13.2291 504 133.714 807.268 482.744
2 0 39.1459 13.0282 510 134.767 806.647 481.461
3 0 40.0597 13.3551 535 133.875 807.191 481.417
4 0 42.0635 14.0977 593 131.214 807.293 480.637
5 0 43.1162 13.1969 569 132.088 806.905 481.17
6 0 41.0512 13.0081 534 134.73 806.933 481.066
7 0 44.0335 13.626 600 132.095 807.027 480.147
8 0 43.0231 13.4346 578 132.775 807.137 480.486
9 0 45.0581 12.2286 551 134.263 806.942 481.688
10 0 47.0325 14.4581 680 129.179 806.5 479.353
11 0 48.0381 15.3004 735 125.424 806.645 479.331
12 0 49.0609 13.8603 680 128.731 806.163 480.522
13 0 48.1218 13.1541 633 132.428 806.095 480.035
14 0 50.0312 15.1106 756 125.515 805.435 480.837
15 0 52.0767 14.9011 776 126.012 806.099 479.388
16 0 51.0968 14.2475 728 129.771 805.321 478.265
17 0 55.0774 15.5418 856 123.633 805.466 478.959
18 0 55.108 14.027 773 129.938 805.745 478.598
19 0 56.0349 14.0627 788 130.305 805.025 477.792
20 0 58.0688 15.3611 892 127.38 804.916 476.427
21 0 59.1173 15.0379 889 127.757 805.27 477.008
22 0 60.1051 14.4247 867 131.396 804.694 476.82
23 0 65.0507 16.049 1044 124.466 804.436 477.824
24 0 66.0327 14.4777 956 130.464 805.295 475.539
25 0 68.0728 15.7625 1073 126.934 804.899 476.42
26 0 70.148 14.2556 1000 132.381 804.924 474.245
27 0 74.1274 14.5021 1075 131.728 804.3 473.121
28 0 75.0625 15.2673 1146 130.215 804.513 472.525
29 0 79.2709 15.5543 1233 128.338 804.466 470.662
30 0 81.1652 16.9038 1372 122.974 804.565 471.435
31 0 81.1407 14.8014 1201 130.435 804.112 468.622
32 0 86.0668 14.3726 1237 130.236 804.043 468.558
33 0 88.3142 14.6636 1295 128.489 804.263 467.674
34 1 45.0522 15.2268 686 123.452 804.29 488.054
35 0 47.2824 14.1279 668 127.051 803.838 488.605
36 0 47.0581 13.8552 652 130.396 803.864 486.376
37 0 48.1353 12.5272 603 133.449 804.201 487.514
38 0 52.0632 14.9626 779 127.772 804.073 484.818
39 0 53.0619 14.5679 773 129.414 803.691 484.128
40 0 55.1026 14.4095 794 129.343 802.961 484.005
41 0 57.1418 13.8252 790 129.83 803.252 483.633
42 0 57.2351 14.9034 853 128.526 803.218 481.692
43 0 59.091 15.9754 944 124.579 803.1 481.983
44 0 62.0743 14.6115 907 126.512 803.378 480.805
45 0 64.2529 14.6764 943 126.928 803.42 478.319
46 0 67.0546 14.9878 1005 124.893 803.118 478.418
47 0 69.0807 15.8076 1092 122.936 802.939 477.123
48 0 71.0756 15.8141 1124 123.309 802.329 476.967
49 0 74.0602 15.1903 1125 124.652 802.432 475.293
50 0 74.1206 14.0717 1043 126.611 802.607 474.558
51 1 153.412 16.1917 2484 123.338 802.678 442.244
52 0 164.705 19.3558 3188 88.0135 802.1 440.199
53 0 162.299 16.2539 2638 122.638 802.376 435.244
54 0 166.402 14.8195 2466 128.635 801.68 428.862
55 0 173.404 15.3515 2662 126.935 800.984 430.258
56 0 178.502 16.2183 2895 124.618 801.813 427.69
57 0 183.582 15.5135 2848 126.631 801.359 423.617
58 0 190.455 15.8043 3010 124.728 801.604 424.662
59 0 196.625 15.6135 3070 126.023 801.836 418.319
60 0 203.499 16.1819 3293 124.333 802.074 413.423
61 0 210.506 15.8998 3347 123.676 801.584 418.682
62 0 216.507 16.1704 3501 126.123 801.843 408.849
63 0 223.831 16.5482 3704 125.587 801.883 405.95
64 0 224.381 13.9361 3127 130.533 801.476 413.848
65 1 240.347 15.8271 3804 128.296 800.969 399.848
66 0 248.543 16.3352 4060 125.969 801.596 400.145
67 0 255.616 15.4137 3940 130.828 801.669 393.934
68 0 262.697 16.0641 4220 130.717 801.678 385.954
69 0 271.594 14.761 4009 132.793 801.28 385.116
70 0 330.989 19.2605 6375 123.418 800.913 345.367
71 0 339.944 19.9386 6778 122.708 800.814 340.53
72 0 352.226 21.4805 7566 118.67 801.015 335.959
73 0 362.37 20.4184 7399 121.489 800.416 334.087
74 0 375.303 20.1731 7571 121.106 800.832 323.392
75 1 90.5445 12.3144 1115 117.912 800.943 465.38
76 0 94.2071 12.7697 1203 117.579 800.5 465.791
77 0 96.1391 11.525 1108 119.5 801.422 463.49
78 0 102.325 13.5842 1390 114.983 800.771 460.484
79 0 105.239 13.2746 1397 116.727 801.292 459.493
80 1 51.0645 11.7498 600 107.083 801.242 488.092
81 0 50.0656 12.1441 608 109.207 800.614 486.811
82 0 54.0966 13.8271 748 104.317 800.552 486.509
83 0 55.0745 11.9474 658 106.774 801.211 487.038
84 0 58.0239 12.8395 745 107.114 801.374 484.207
85 0 60.1904 12.6598 762 106.933 801.207 483.26
86 0 60.0699 12.3023 739 109.353 800.908 480.737
87 0 64.0508 14.2855 915 105.901 801.02 482.12
88 0 67.16 13.3115 894 110.338 801.685 480.115
89 0 69.0724 11.9729 827 111.891 801.288 481.648
90 0 72.0796 13.1799 950 114.664 801.35 477.248
91 0 74.1114 13.3178 987 115.379 801.103 476.046
92 0 76.0665 12.7783 972 117.853 800.349 474.691
93 0 79.1258 11.8545 938 120.59 799.888 474.215
94 0 83.2247 14.2506 1186 115.667 800.82 469.573
95 0 84.1923 12.6615 1066 120.993 800.308 470.612
96 0 85.1591 12.2359 1042 121.676 800.667 471.5
97 0 89.238 12.9765 1158 121.135 800.963 469.759
98 0 93.3989 11.649 1088 124.881 801.294 466.596
99 0 95.166 13.2821 1264 121.756 801.01 464.794
100 0 97.2821 12.0474 1172 125.817 801.044 464.575
101 0 102.255 12.6937 1298 123.087 801.087 463.773
102 0 106.285 13.0875 1391 121.068 800.984 462.281
103 0 110.606 13.3989 1482 121.032 800.794 459.624
104 0 113.307 13.5914 1540 122.092 800.752 457.968
105 0 117.694 14.2403 1676 124.189 800.26 449.579
106 0 121.451 13.6681 1660 123.587 800.631 448.032
107 0 126.507 15.0268 1901 119.814 800.202 447.645
108 1 63.1809 11.6491 736 120.024 800.582 477.78
109 0 64.1272 12.1009 776 110.875 800.21 481.553
110 0 67.0173 12.4445 834 110.309 800.327 481.542
111 0 69.1186 11.9071 823 110.9 799.898 480.933
112 0 71.2678 10.7763 768 113.967 799.622 480.673
113 0 73.2408 13.1621 964 108.444 799.216 479.811
114 0 76.0901 13.9703 1063 106.871 799.401 476.485
115 0 76.0901 14.0754 1071 137.016 798.379 476.426
116 0 81.0436 12.1663 986 110.61 799.755 474.744
117 0 84.1254 13.2778 1117 108.201 799.928 474.885
118 0 85.2123 12.3808 1055 114.133 800.813 469.632
119 0 89.1565 13.0445 1163 111.453 799.689 468.797
120 0 92.1507 12.2517 1129 109.779 799.503 471.802
121 0 95.2552 12.0413 1147 112.258 799.693 466.176
122 1 55.062 11.8775 654 106.254 799.818 487.106
123 0 58.045 12.4731 724 104.464 800.463 486.082
124 0 60.1089 13.4755 810 101.099 801.259 484.883
125 0 59.2843 11.1665 662 106.798 801.015 483.388
126 0 60.0937 12.0312 723 105.546 800.472 482.373
127 0 65.1189 13.3755 871 102.525 800.82 479.474
128 0 67.0728 13.6717 917 101.971 800.655 479.773
129 0 69.1489 11.9452 826 105.684 800.961 479.051
130 0 71.0974 12.715 904 105.231 800.566 478.795
131 0 74.1488 13.918 1032 110.258 800.648 475.951
132 0 77.2204 13.9471 1077 109.958 800.632 476.283
133 0 76.2566 11.9858 914 114.149 800.568 473.237
134 0 81.112 12.7478 1034 110.624 799.933 472.069
135 0 86.228 13.0004 1121 107.926 799.896 471.177
136 0 89.2859 13.8656 1238 107.418 800.277 467.675
137 0 90.3782 12.9567 1171 109.824 799.845 464.582
138 1 47.2317 12.3222 582 102.072 799.603 486.761
139 0 48.029 12.6382 607 100.845 801.601 488.722
140 0 50.0671 11.1051 556 104.16 801.232 487.824
141 0 48.0531 11.3832 547 127.755 801.272 487.896
142 0 52.2513 12.8418 671 101.888 800.592 486.563
143 0 54.1211 13.2296 716 99.1159 801.24 484.999
144 0 54.131 12.7838 692 100.207 801.889 484.501
145 0 57.1705 12.9087 738 101.047 801.14 484.99
146 0 58.1793 12.5646 731 102.41 801.56 485.23
147 0 60.0476 12.2403 735 103.839 800.928 483.374
148 0 60.171 12.9132 777 102.78 800.762 482.193
149 0 64.1572 12.2823 788 103.773 801.076 480.621
150 0 65.1965 12.3473 805 108.901 800.638 479.499
151 0 69.203 13.6988 948 107.022 800.159 477.568
152 0 72.1562 12.8471 927 108.102 800.306 476.937
153 0 73.139 12.7839 935 147.553 801.319 476.849
154 0 76.083 13.3276 1014 107.711 801.04 473.751
155 0 80.2211 13.3257 1069 107.962 800.074 472.301
156 0 81.0693 12.7422 1033 109.371 800.191 470.535
157 0 85.1566 13.3284 1135 108.127 799.456 468.47
158 0 86.2014 12.9348 1115 110.036 799.217 465.378
159 0 91.1759 13.4465 1226 108.094 799.557 463.054
160 0 95.1494 13.3264 1268 110.457 799.757 463.553
161 0 98.3101 13.193 1297 110.627 799.569 464.56
162 0 102.188 14.258 1457 109.364 800.215 460.691
163 1 52.2889 11.207 586 107.427 800.906 484.821
164 0 53.1705 12.5257 666 105.375 800.586 483.033
165 0 55.1835 13.6091 751 103.663 799.988 484.009
166 0 55.0667 13.2022 727 106.798 800.297 482.03
167 0 59.1248 13.2432 783 104.986 800.238 481.886
168 0 60.1532 14.7789 889 102.213 800.862 479.927
169 0 63.1412 13.1135 828 110.819 800.791 478.49
170 0 66.1093 14.0374 928 109.577 800.875 476.216
171 0 69.1245 14.8573 1027 108.644 801.051 474.719
172 0 70.1468 13.8994 975 112.179 800.433 473.867
173 0 72.1341 14.1819 1023 112.153 800.964 472.152
174 0 73.1195 13.6079 995 114.3 800.931 472.892
175 0 77.0936 13.9441 1075 112.658 799.965 472.211
176 0 79.093 13.4652 1065 113.046 799.79 470.613
177 0 83.1043 14.548 1209 109.658 800.832 470.362
178 0 86.1806 14.7017 1267 110.026 800.343 465.567
179 0 89.1917 13.073 1166 115.509 800.382 465.25
180 0 90.1357 13.402 1208 115.447 799.772 463.676
181 0 95.1768 14.3943 1370 111.58 800.39 460.41
182 0 98.1773 14.209 1395 112.255 800.713 458.623
183 0 102.131 14.2757 1458 109.588 800.636 458.43
184 0 106.202 13.3801 1421 110.329 800.636 455.552
185 0 109.136 12.7731 1394 116.288 799.855 452.977
186 0 113.229 13.2298 1498 113.611 798.947 450.776
187 1 56.116 11.9395 670 106.715 799.258 482.519
188 0 57.1234 11.3263 647 108.836 799.232 479.213
189 0 61.0932 11.6379 711 109.076 798.093 477.866
190 0 63.0563 12.9567 817 106.024 797.869 478.718
191 0 66.1138 12.4936 826 107.277 798.183 477.439
192 0 67.0888 12.2375 821 107.957 798.988 474.748
193 0 71.0643 12.158 864 108.074 798.105 474.81
194 0 71.1007 12.3768 880 108.689 798.043 472.905
195 0 70.0816 11.8148 828 104.578 799.327 474.719
196 0 74.0382 12.399 918 102.223 799.703 474.064
197 0 77.1278 12.2265 943 102.333 800.667 472.01
198 0 80.0821 12.9367 1036 100.515 800.143 471.398
199 0 81.0884 12.2459 993 104.28 799.867 469.151
200 0 83.1363 12.5697 1045 104.112 798.885 465.721
201 0 88.0895 11.3521 1000 106.595 799.406 465.826
202 0 92.1799 11.944 1101 106.252 799.533 464.852
203 1 48.0588 9.46758 455 109.442 798.171 485.196
204 0 48.0662 9.42451 453 138.413 798.148 485.21
205 0 49.0716 10.5764 519 100.21 799.582 486.904
206 0 49.0692 10.638 522 123.255 799.582 486.682
207 0 54.0448 11.2129 606 99.4984 799.012 485.639
208 0 54.035 11.8997 643 98.0482 799.47 483.913
209 0 58.1215 12.8008 744 95.1075 798.063 482.008
210 0 60.0527 13.0385 783 95.5517 798.571 481.51
211 0 62.0482 12.7804 793 96.9092 798.232 478.772
212 0 64.1132 12.1348 778 97.5283 798.667 478.577
213 0 65.1876 11.3518 740 100.439 798.116 478.428
214 0 68.3502 12.8895 881 97.3473 797.834 476.806
215 0 70.0694 11.6884 819 100.028 798.667 474.847
216 0 72.2346 11.0335 797 102.246 797.969 472.581
217 0 76.1006 12.7331 969 98.7183 798.415 472.74
218 0 80.1654 12.1998 978 99.9468 798.647 471.603
219 0 82.113 12.5924 1034 99.9333 799.239 467.457
220 0 85.1372 12.7559 1086 99.175 799.537 471.102
221 1 43.088 11.6274 501 101.717 798.122 488.232
222 0 43.088 11.6506 502 128.874 797.132 488.303
223 0 46.2448 11.1796 517 105.809 798.646 488.048
224 0 46.2448 11.2229 519 136.599 800.667 488.031
225 0 46.2448 11.2445 520 135.981 802.677 488.071
226 0 47.0244 10.8242 509 105.609 800.275 488.815
227 0 46.0277 9.755 449 109.301 799.782 488.526
228 0 50.1067 10.8369 543 105.954 801.298 488.243
229 0 52.0832 10.9824 572 106.619 801.135 486.502
230 0 52.1623 10.9466 571 106.734 801.494 486.764
231 0 55.0918 12.5245 690 104.117 800.667 484.716
232 0 56.1154 11.8862 667 106.511 801.238 484.411
233 0 59.2714 12.1475 720 104.738 800.743 483.612
234 0 59.1949 11.3017 669 107.016 800.619 483.981
235 0 60.0838 12.2995 739 105.75 801.498 483.248
236 0 61.1138 11.9286 729 106.169 801.582 482.717
237 0 63.1517 11.9395 754 107.044 800.904 480.371
238 0 64.1231 11.1504 715 108.362 801.234 480.152
239 0 66.1449 12.3819 819 107.28 800.952 478.245
240 0 70.1592 13.113 920 105.439 800.927 478.902
241 0 72.182 12.607 910 107.641 800.829 475.982
242 0 74.1097 12.2791 910 109.443 800.12 475.178
243 0 77.1472 11.329 874 112.346 800.563 474.56
244 0 79.1319 13.3322 1055 108.762 800.404 470.925
245 0 79.1319 13.3448 1056 145.013 799.41 470.947
246 0 83.0598 13.2314 1099 110.611 800.015 471.009
247 0 86.1253 13.0043 1120 111.945 800.102 468.507
248 0 86.1253 13.0159 1121 136.807 800.096 468.473
249 0 91.1507 13.1321 1197 112.524 800.515 466.269
250 0 91.1507 13.1979 1203 140.329 801.502 466.262
251 0 91.1507 13.1979 1203 139.889 802.491 466.254
252 0 99.249 14.2672 1416 108.745 800.669 461.57
253 0 100.096 13.0774 1309 112.957 801.205 460.516
254 0 100.101 13.0768 1309 151.749 802.194 460.502
255 0 102.222 12.0228 1229 113.111 800.688 462.758
256 1 112.214 13.0287 1462 110.447 800.83 455.324
257 0 116.193 15.0611 1750 107.081 800.462 452.327
258 0 120.168 13.6642 1642 109.607 800.439 454.213
259 0 122.19 12.5051 1528 113.391 800.349 450.866
260 0 125.13 12.515 1566 113.107 800.771 449.222
261 0 133.141 13.219 1760 111.331 801.085 446.198
262 0 137.212 13.6067 1867 111.382 800.733 443.278
263 1 73.2161 11.9236 873 109.482 800.434 474.953
264 0 76.1939 13.2294 1008 106.545 800.613 472.509
265 0 77.1713 12.699 980 107.194 799.81 471.828
266 0 77.1713 12.6472 976 142.65 798.818 471.725
267 0 80.1822 12.4092 995 107.736 800.44 472.174
268 0 85.1752 13.1846 1123 105.865 800.869 469.059
269 0 85.1897 13.4993 1150 138.446 802.851 468.725
270 0 90.41 12.5097 1131 106.595 801.147 466.356
271 0 91.3236 12.2422 1118 108.997 800.417 461.894
272 0 91.3236 12.2422 1118 145.215 799.419 461.863
273 0 96.2616 11.261 1084 106.724 800.409 456.955
274 0 98.18 11.1224 1092 104.509 799.441 451.069
275 0 100.187 11.5883 1161 140.807 798.381 452.687
276 1 50.0529 9.21025 461 94.0607 800.668 474.633
277 0 55.1249 12.3175 679 92.4345 800.168 476.186
278 0 55.1249 12.3719 682 121.569 799.196 476.189
279 0 53.0704 8.79963 467 101.505 800.469 471.895
280 0 58.0808 10.8814 632 95.9921 800.51 472.953
281 0 63.0888 12.0941 763 93.1887 800.36 473.041
282 0 60.0686 9.87204 593 99.1079 800.106 469.177
283 0 66.0503 10.9462 723 96.0733 800.181 468.12
284 0 66.0937 10.4095 688 98.0451 800.802 466.371
285 0 72.0316 11.3978 821 95.38 800.49 468.772
286 0 74.1025 11.3626 842 95.981 800.422 465.613
287 0 77.1827 11.4533 884 96.0419 800.413 464.731
288 0 79.1411 11.0309 873 96.5533 800.535 463.682
289 0 82.0823 10.1727 835 99.4048 799.896 460.554
290 0 90.105 12.3301 1111 102.896 798.326 466.232
291 1 47.0483 10.6912 503 97.6899 799.584 487.914
292 0 47.0483 10.7337 505 137.675 800.576 487.828
293 0 50.1672 11.9202 598 88.9114 800.888 486.453
294 0 50.0443 13.1284 657 88.5845 800.77 486.852
295 0 50.0552 11.9268 597 90.8057 801.191 486.832
296 0 52.119 11.8767 619 93.4717 801.28 485.952
297 0 54.1641 10.9297 592 93.4747 801.938 485.791
298 0 56.1643 11.1815 628 93.551 801.855 484.492
299 0 56.1124 10.1582 570 94.8386 801.563 484.212
300 0 59.2358 12.2055 723 91.6943 800.566 482.51
301 0 59.2358 12.2392 725 131.142 799.55 482.298
302 0 62.3498 12.3978 773 92.5602 800.067 479.019
303 0 64.1415 10.8198 694 93.5101 800.007 481.876
304 0 68.1513 11.6799 796 91.5854 799.817 478.903
305 0 69.2058 11.0251 763 92.7549 800.246 477.341
306 0 71.2797 12.6965 905 90.5359 801.134 477.212
307 0 71.2445 12.7589 909 128.781 803.117 477.18
308 0 71.2339 11.6798 832 130.412 805.22 478.649
309 0 77.1756 11.1564 861 94.0197 800.224 472.48
310 0 81.1566 12.2602 995 91.4583 799.467 472.548
311 0 84.1563 12.6669 1066 92.3705 799.242 467.469
312 0 87.1688 12.8142 1117 92.6061 799.618 465.731
313 0 93.1883 12.9737 1209 92.5732 799.933 464.511
314 0 95.1315 11.0058 1047 96.1452 799.848 463.908
315 0 98.1241 13.7071 1345 92.9561 800.192 462.33
316 1 50.1891 10.1018 507 98.288 800.68 484.491
317 0 52.0524 11.2002 583 98.0309 798.019 483.101
318 0 57.0776 12.0187 686 98.7216 797.197 483.936
319 0 57.0499 11.3059 645 100.922 797.885 483.665
320 0 57.1141 10.8555 620 103.482 798.039 481.547
321 0 60.2558 12.2976 741 100.478 799.779 481.468
322 0 60.2059 11.8427 713 103.533 799.4 479.394
323 0 64.3504 13.2711 854 98.9555 799.521 481.107
324 0 65.27 12.7777 834 100.861 799.201 479.014
325 0 67.3288 12.0008 808 101.342 800.019 478.463
326 0 69.338 12.2444 849 100.903 800.232 477.521
327 0 71.4246 12.3487 882 102.611 799.626 474.72
328 0 71.4246 12.3347 881 146.687 798.611 474.627
329 0 75.312 12.2424 922 101.719 799.867 476.402
330 0 77.2885 12.0975 935 103.979 800.014 473.77
331 0 79.1708 11.7215 928 105.323 799.879 472.472
332 0 80.1499 12.015 963 106.292 800.357 470.73
333 0 85.2839 12.8512 1096 103.068 800.688 470.858
334 0 88.2314 12.5579 1108 103.281 800.529 468.656
335 0 91.1292 14.1228 1287 100.902 800.111 466.761
336 0 92.2918 12.1571 1122 106.01 800.175 464.069
337 0 95.235 11.5504 1100 107.717 800.225 461.061
338 1 51.1085 11.8376 605 100.169 801.732 487.648
339 0 52.0441 11.2981 588 103.912 800.884 485.104
340 0 55.3899 10.8865 603 104.701 799.272 481.637
341 0 58.0754 13.4136 779 99.2413 800.869 482.456
342 0 56.0684 12.2707 688 98.234 800.943 483.977
343 0 59.2874 11.9081 706 98.9533 801.676 483.474
344 0 61.0936 12.3745 756 98.2275 801.331 482.169
345 0 62.0493 11.3458 704 100.753 801.425 481.631
346 0 65.0954 12.1514 791 99.2984 801.512 481.286
347 0 67.0707 12.0619 809 100.717 800.754 480.276
348 0 71.1267 12.5551 893 99.2385 800.858 477.58
349 0 74.1082 13.9526 1034 96.2244 801.225 476.267
350 0 75.1883 12.2359 920 100.946 801.165 476.359
351 0 76.1648 11.5802 882 102.913 802.041 473.567
352 0 81.1209 12.7094 1031 100.708 802.176 473.298
353 0 80.0694 12.2644 982 103.32 802.072 471.975
354 0 85.1795 12.773 1088 102.702 801.461 470.196
355 0 88.1461 12.3545 1089 104.004 801.949 469.743
356 0 90.1994 11.9291 1076 105.438 801.22 466.662
357 1 45.063 10.3633 467 103.621 801.955 489.45
358 0 48.0936 11.5192 554 98.7653 801.366 489.191
359 0 50.0393 11.9306 597 94.5544 801.595 488.9
360 0 49.0986 11.426 561 97.7683 801.56 489.125
361 0 49.1738 10.229 503 100.797 802.171 489.056
362 0 51.1015 10.2541 524 101.67 802.208 487.926
363 0 51.085 10.5315 538 101.004 802.256 488.424
364 0 56.127 12.7211 714 97.021 801.492 485.675
365 0 56.1513 11.1306 625 101.048 801.949 485.134
366 0 57.0486 11.3587 648 102.011 802.052 483.313
367 0 59.1458 11.5477 683 100.594 802.291 484.994
368 0 62.1167 13.3136 827 97.9686 801.986 481.55
369 0 63.1316 12.5135 790 99.9519 801.916 481.063
370 0 65.1617 11.5559 753 102.098 801.765 479.583
371 0 68.1673 11.7212 799 102.213 801.652 478.698
372 0 70.1024 11.3691 797 102.317 801.694 480.521
373 0 74.1999 13.1267 974 98.0698 802.265 478.168
374 0 76.254 12.7338 971 100.191 802.15 475.866
375 0 76.2348 11.5564 881 104.681 801.881 473.852
376 0 79.2214 12.1937 966 103.727 801.835 473.94
377 0 81.2322 11.7318 953 106.559 801.211 472.13
378 0 83.2939 11.4534 954 107.216 801.158 471.308
379 0 91.2323 13.8767 1266 101.835 801.134 467.66
380 0 93.3311 13.6289 1272 103.332 801.625 467.241
381 0 95.275 13.6342 1299 104.383 800.788 463.443
382 0 98.1818 12.8028 1257 106.386 800.742 463.998
383 0 102.202 12.9058 1319 108.414 801.013 461.705
384 0 104.177 13.1123 1366 108.039 800.432 460.634
385 0 110.33 12.8795 1421 107.443 799.289 458.27
386 1 60.0442 12.8405 771 99.738 799.577 482.241
387 0 62.0439 12.0076 745 100.616 800.118 483.266
388 0 64.222 12.4724 801 99.3358 799.235 482.41
389 0 65.2662 13.1615 859 100.374 801.169 479.267
390 0 67.161 13.6537 917 98.9858 801.388 478.303
391 0 68.1618 12.7931 872 102.63 801.505 480.117
392 0 70.1035 12.3532 866 102.462 800.973 478.789
393 0 73.0929 13.0382 953 100.717 801.028 478.678
394 0 76.2514 13.1014 999 100.787 800.564 474.484
395 0 79.1834 12.3511 978 101.889 800.777 476.416
396 0 79.1983 10.8841 862 105.079 801.457 474.118
397 0 82.1355 11.1401 915 104.995 801.32 472.476
398 0 86.1637 12.7664 1100 102.873 801.102 470.061
399 0 90.1562 12.8222 1156 103.407 801.028 470.856
400 0 95.186 13.2267 1259 107.288 801.624 465.573
401 0 97.3149 13.2046 1285 107.041 801.756 466.416
402 0 101.158 12.861 1301 108.175 801.008 462.866
403 1 52.0685 10.467 545 104.413 802.246 489.015
404 0 55.1083 9.85333 543 105.398 803.186 486.333
405 0 56.0562 10.1327 568 107.169 800.463 486.553
406 0 55.4129 12.2354 678 101.892 801.525 483.007
407 0 58.095 12.8755 748 97.9278 800.247 484.638
408 0 61.1225 13.4157 820 97.0695 800.435 483.187
409 0 60.0629 11.3048 679 102.345 801.577 483.442
410 0 64.1069 13.1967 846 96.3499 802.035 481.47
411 0 64.1959 11.4026 732 100.828 802.204 480.784
412 0 66.1461 11.8072 781 100.337 801.859 478.803
413 0 69.1602 11.9577 827 98.2225 801.811 479.43
414 0 70.1282 12.4629 874 99.1819 801.205 478.053
415 0 72.2442 12.6931 917 97.6074 801.383 476.071
416 0 75.178 11.9184 896 99.0792 800.792 473.131
417 0 77.1875 11.7377 906 99.5695 800.713 474.962
418 0 80.2732 11.5356 926 100.157 800.373 472.645
419 0 85.1732 13.3493 1137 96.6887 800.503 470.567
420 0 87.2358 10.0303 875 101.69 800.557 469.885
421 0 88.1698 10.9788 968 101.539 801.318 468.608
422 0 92.1469 11.7313 1081 97.6725 801.396 466.251
423 1 46.1567 10.0527 464 95.8664 801.692 490.603
424 0 47.0692 10.4314 491 98.89 798.921 489.248
425 0 50.0704 15.2186 762 89.7283 799.206 488.289
426 0 49.0515 10.8457 532 97.9398 798.923 488.045
427 0 48.0422 11.5315 554 97.2924 799.179 489.412
428 0 52.1277 11.5294 601 96.9551 799.611 487.369
429 0 52.075 10.1392 528 99.142 799.07 485.212
430 0 55.0459 11.8447 652 95.5491 799.331 484.515
431 0 55.0598 10.3705 571 98.6165 799.263 487.086
432 0 57.0932 11.1397 636 98.7531 799.8 482.557
433 0 58.1236 10.0648 585 98.8906 798.82 483.858
434 0 62.1379 10.6376 661 99.9425 798.619 481.788
435 0 66.11 12.2826 812 96.5012 799.475 481.644
436 0 69.0894 12.245 846 96.3782 800.009 479.688
437 0 70.1824 12.325 865 96.2462 799.616 480.03
438 0 73.1005 11.2174 820 96.2073 799.904 478.162
439 0 76.1137 11.2595 857 96.8518 800.061 476.197
440 0 78.1089 10.2293 799 96.1802 800.693 475.901
441 0 81.1932 12.0946 982 94.8727 800.649 471.533
442 0 84.1678 11.2157 944 96.1059 800.664 471.542
443 1 46.2622 11.089 513 93.5029 800.76 490.62
444 0 46.1709 11.1975 517 92.8898 799.035 488.855
445 0 48.1052 12.0153 578 95.6263 802.988 490.614
446 0 50.1273 10.9122 547 97.4918 803.497 488.329
447 0 50.0268 11.8137 591 97.9763 802.724 488.345
448 0 53.0609 11.8731 630 97.8508 802.565 488.452
449 0 53.2912 11.5591 616 99.5325 802.807 487.109
450 0 56.2555 12.621 710 97.3873 802.689 486.638
451 0 56.0553 12.7196 713 99.1038 802.79 486.805
452 0 58.0372 13.2329 768 99.276 802.841 484.807
453 0 60.0899 11.982 720 100.969 802.179 486.428
454 0 61.1465 12.5927 770 102.169 802.344 482.974
455 0 65.0702 13.0321 848 100.993 802.585 482.209
456 0 64.1535 12.548 805 102.996 802.908 483.169
457 0 67.1759 12.3556 830 104.473 802.913 479.705
458 0 69.1736 12.1434 840 105.463 802.217 479.462
459 0 72.1289 12.852 927 105.289 802.571 476.81
460 0 74.2168 13.0563 969 105.421 801.937 474.711
461 0 75.1329 12.4446 935 106.957 801.97 474.383
462 0 80.0856 12.599 1009 104.797 802.189 472.866
463 0 82.1331 13.3685 1098 102.892 801.982 471.814
464 0 84.2602 12.6869 1069 104.776 801.457 469.352
465 1 47.1218 10.6957 504 103.121 802.857 484.742
466 0 50.0714 11.1441 558 102.079 802.323 484.547
467 0 47.0463 9.69258 456 89.9561 800.765 486.158
468 0 46.0174 10.5829 487 92.5031 800.345 482.922
469 0 53.1048 9.22703 490 92.2612 801.104 484.108
470 0 54.0779 9.17196 496 92.7762 800.623 484.165
471 0 55.0797 10.9478 603 92.3333 800.156 482.26
472 0 54.0849 10.4835 567 94.5344 799.693 483.289
473 0 58.024 12.6499 734 92.4864 800.234 480.685
474 0 60.0345 12.4095 745 93.1007 800.268 480.413
475 0 62.2374 13.095 815 93.1877 799.778 479.452
476 0 62.1705 10.9538 681 95.8649 801.007 480.452
477 0 65.1043 12.288 800 94.575 801.282 477.841
478 0 66.1601 11.6687 772 96.987 801.032 478.057
479 0 69.1078 12.8206 886 95.3905 800.322 477.113
480 0 74.218 13.9723 1037 101.44 801.282 478.896
481 0 74.0405 12.7228 942 109.813 802.656 477.788
482 0 78.1813 14.3768 1124 106.306 801.504 476.031
483 0 81.1373 13.5942 1103 108.497 801.208 475.822
484 0 83.1693 14.5847 1213 106.736 801.181 473.66
485 0 86.2497 12.4754 1076 110.603 801.275 474.67
486 1 47.1887 11.5494 545 112.105 800.171 488.384
487 0 51.0498 13.81 705 104.855 799.387 489.068
488 0 50.1331 12.1477 609 101.951 800.062 487.895
489 0 53.144 12.0051 638 99.9122 801.605 489.163
490 0 52.2019 11.3214 591 101.306 802.694 488.005
491 0 55.1491 12.0582 665 99.418 802.436 487.417
492 0 55.1662 13.3777 738 98.6206 801.654 485.802
493 0 58.1399 11.7647 684 101.392 800.833 486.981
494 0 60.2667 14.1704 854 96.9988 801.165 483.358
495 0 63.1097 14.1658 894 96.736 800.72 483.047
496 0 64.139 12.6444 811 99.9556 800.723 483.166
497 0 67.0833 14.5938 979 95.8774 800.784 481.862
498 0 67.1814 13.9027 934 99.4465 800.644 478.798
499 0 69.1204 14.2505 985 98.4355 800.485 480.646
500 0 71.1535 12.8033 911 103.946 800.954 480.22
501 0 73.1829 13.9377 1020 103.549 801.026 477.823
502 0 74.2629 13.3983 995 107.317 801.166 476.078
503 0 77.2005 13.5103 1043 108.355 801.133 474.644
504 0 80.2032 13.8773 1113 108.246 801.01 475.219
505 0 83.1638 13.3111 1107 110.18 801.262 473.379
506 0 84.1598 13.4863 1135 112.668 800.358 469.466
507 0 87.2037 13.4283 1171 112.687 799.7 470.546
508 0 92.1555 12.9889 1197 113.871 799.339 468.5
509 0 94.0601 13.6934 1288 114.503 800.674 465.557
510 0 98.149 13.8463 1359 113.837 800.076 464.256
511 0 100.277 13.5026 1354 114.351 799.832 463.696
512 0 103.217 13.5927 1403 115.802 799.149 463.133
513 1 52.0225 11.1298 579 125.245 799.157 486.174
514 0 56.0831 11.7683 660 112.353 799.105 487.802
515 0 56.1955 11.3532 638 113.277 798.643 485.759
516 0 58.108 12.7177 739 110.904 798.723 483.003
517 0 61.0705 11.6259 710 112.407 799.442 484.404
518 0 63.0839 13.6802 863 108.834 799.523 481.275
519 0 63.214 13.478 852 109.781 799.229 482.214
520 0 65.1112 12.4095 808 112.187 798.848 481.504
521 0 70.0626 13.1026 918 108.264 801.622 479.887
522 0 71.0909 12.5332 891 110.953 800.86 479.284
523 0 73.1286 13.7839 1008 108.93 800.904 477.651
524 0 75.0956 14.1819 1065 108.95 801.094 475.1
525 0 78.122 14.5926 1140 107.669 801.67 476.57
526 0 80.1621 13.5975 1090 110.384 801.924 473.702
527 0 81.2058 13.2503 1076 111.008 801.484 474.415
528 0 85.1244 12.8635 1095 112.255 800.992 472.308
529 0 87.1968 13.0051 1134 112.705 801.045 470.256
530 0 90.3954 13.1976 1193 111.694 801.432 469.216
531 0 92.1583 12.37 1140 114.404 800.471 468.791
532 0 96.2616 12.5803 1211 117.454 799.744 463.295
533 1 52.1878 11.8993 621 114.85 799.338 485.467
534 0 55.1726 11.7812 650 114.374 798.995 485.905
535 0 55.0323 12.0475 663 118.29 801.199 485.91
536 0 58.096 12.8752 748 114.333 801.718 485.853
537 0 59.0719 12.2732 725 117.138 802.286 482.372
538 0 62.1138 12.2356 760 116.045 801.87 481.836
539 0 62.0187 12.3834 768 116.94 802.043 481.917
540 0 66.067 12.0181 794 117.338 801.839 480.157
541 0 66.0617 13.3663 883 115.08 802.205 478.725
542 0 69.0821 13.028 900 115.624 801.238 479.144
543 0 72.0321 12.8137 923 116.013 801.657 477.78
544 0 76.1402 13.0286 992 115.172 801.348 477.021
545 0 77.0579 13.3536 1029 115.698 801.847 475.765
546 0 79.1605 14.1485 1120 114.821 801.925 473.804
547 0 83.1408 13.9763 1162 114.45 801.614 474.735
548 0 84.1345 13.3358 1122 118.195 801.908 470.881
549 0 86.0864 15.1824 1307 114.285 801.566 470.632
550 0 88.0679 14.1709 1248 117.595 801.635 470.631
551 0 91.1163 13.609 1240 120.664 801.84 466.465
552 0 96.0698 14.6664 1409 117.104 801.566 465.459
553 0 95.13 12.6248 1201 114.609 801.548 467.631
554 0 99.2946 12.9514 1286 113.24 801.268 465.209
555 0 103.166 12.9015 1331 111.258 801.418 464.26
556 1 55.0479 12.0259 662 108.356 802.322 487.733
557 0 56.1306 12.3106 691 110.109 801.585 485.54
558 0 59.0829 12.4232 734 105.737 801.85 485.346
559 0 61.1678 12.2614 750 105.328 802.481 485.871
560 0 63.1782 13.0108 822 103.976 801.667 485.454
561 0 63.2189 12.3223 779 107.789 801.94 483.177
562 0 67.1111 12.4272 834 105.911 802.692 483.27
563 0 69.2765 13.5111 936 105.105 802.14 480.547
564 0 70.1347 13.1319 921 106.754 802.341 479.312
565 0 72.2675 13.2701 959 106.789 802.484 477.948
566 0 74.1155 12.4266 921 110.632 802.16 477.319
567 0 77.2845 13.5603 1048 108.257 802.301 475.426
568 0 79.1676 11.8862 941 110.532 802.544 474.088
569 0 84.1604 14.615 1230 104.484 801.824 474.167
570 0 86.2672 13.0525 1126 108.899 801.912 472.658
571 0 89.213 12.2964 1097 109.591 802.39 469.94
572 0 92.2878 12.2768 1133 109.56 801.135 469.868
573 0 95.2537 12.3355 1175 110.273 801.289 464.521
574 1 49.1093 11.0162 541 112.791 801.447 488.322
575 0 51.036 11.3449 579 113.558 801.497 488.307
576 0 54.1184 11.3455 614 109.381 801.314 488.264
577 0 55.0557 13.332 734 106.872 801.748 485.277
578 0 57.0636 12.2495 699 109.655 802.316 485.381
579 0 58.0958 12.9958 755 108.428 802.262 484.298
580 0 60.1034 12.7447 766 109.238 802.441 483.116
581 0 62.1866 11.8836 739 108.965 801.613 483.074
582 0 63.1018 12.4719 787 108.743 802.1 481.741
583 0 64.1284 12.3346 791 109.058 802.335 481.695
584 0 66.114 12.0549 797 110.149 802.114 479.509
585 0 67.1644 12.06 810 112.349 801.84 479.032
586 0 69.0187 13.7209 947 108.727 801.855 477.83
587 0 71.0415 12.5279 890 112.366 802.044 475.863
588 0 70.0776 12.4719 874 113.105 802.235 473.95
589 0 76.1751 12.4844 951 111.637 802.064 473.91
590 0 80.1082 13.5317 1084 109 802.101 473.435
591 0 83.1638 13.6718 1137 109.061 801.712 472.36
592 0 85.1117 13.6644 1163 109.283 801.359 469.443
593 0 89.2483 13.9386 1244 108.428 801.156 468.823
594 0 87.1004 11.768 1025 114.71 801.375 470.781
595 1 48.0147 10.7051 514 114.393 802.043 489.169
596 0 52.141 10.9127 569 113.279 800.605 488.61
597 0 54.2868 12.4892 678 103.435 802.025 484.755
598 0 54.0349 12.1773 658 105.299 801.77 487.723
599 0 54.1718 12.2942 666 105.992 801.473 486.998
600 0 56.1124 11.5483 648 107.585 798.582 485.218
601 0 58.0906 11.8608 689 107.337 798.34 482.453
602 0 59.076 11.5106 680 107.704 798.371 482.535
603 0 61.032 11.5349 704 106.643 799.168 484.125
604 0 62.1186 10.2546 637 109.829 798.931 484.647
605 0 64.0565 11.4899 736 107.702 799.114 481.879
606 0 67.0424 12.6786 850 105.02 799.108 479.979
607 0 69.1638 11.9716 828 105.365 799.563 482.069
608 0 71.0519 12.9201 918 103.405 800.016 479.324
609 0 74.1374 13.8122 1024 101.302 800.147 477.909
610 0 74.1581 12.3924 919 105.211 800.237 477.33
611 0 77.204 12.4216 959 106.786 799.483 475.755
612 0 80.2627 12.5837 1010 106.531 799.453 474.044
613 0 82.1078 12.1182 995 108.009 799.461 472.728
614 0 83.1437 11.2696 937 110.417 799.768 471.607
615 0 87.3044 12.5767 1098 108.888 799.07 469.19
616 1 46.0837 11.5225 531 108.635 798.424 492.087
617 0 45.4129 9.46868 430 111.009 801.272 491.423
618 0 50.1291 12.4678 625 108.398 800.246 489.734
619 0 49.0511 11.4778 563 109.805 802.512 489.43
620 0 51.0231 11.877 606 110.5 802.352 488.454
621 0 53.1467 12.0045 638 110.179 802.208 488.434
622 0 56.1308 12.9519 727 107.531 801.86 488.04
623 0 55.0268 11.3036 622 112.526 802.043 488.137
624 0 56.0439 12.6151 707 110.74 801.583 485.661
625 0 58.051 12.3857 719 111.236 801.661 486.047
626 0 60.0461 11.2414 675 113.354 801.696 485.474
627 0 60.1352 13.2368 796 110.03 801.516 482.584
628 0 61.0743 11.4942 702 113.536 801.323 484.138
629 0 64.0816 12.8742 825 110.347 801.262 482.638
630 0 64.1216 11.6809 749 114.064 801.276 481.798
631 0 68.0972 13.2311 901 108.597 801.398 481.383
632 0 68.059 11.9014 810 112.62 801.216 478.39
633 0 69.1514 11.887 822 113.386 801.522 479.096
634 0 72.0972 12.6218 910 111.935 801.225 478.633
635 0 73.0893 12.0948 884 114.413 800.877 476.191
636 0 76.1063 13.5863 1034 110.948 800.398 475.798
637 0 77.1352 12.679 978 113.193 801.177 473.942
638 0 81.1104 11.9713 971 114.835 800.895 472.777
639 0 85.2125 13.0263 1110 111.259 800.857 472.74
640 0 85.2753 13.087 1116 112.864 800.509 469.831
641 0 89.1597 12.4047 1106 109.89 800.78 469.875
642 1 44.0447 9.49035 418 106.608 802.344 491.11
643 0 49.115 10.9539 538 102.154 801.612 491.095
644 0 50.2003 11.9123 598 102.401 800.883 487.814
645 0 51.0612 12.5536 641 103.459 800.721 488.07
646 0 53.1754 12.0733 642 102.687 800.575 486.632
647 0 55.1489 12.4935 689 102.055 801.01 486.129
648 0 56.2667 12.2097 687 101.737 801.114 486.438
649 0 58.1987 12.0621 702 101.943 801.138 485.262
650 0 60.2563 11.4013 687 102.469 801.028 483.806
651 0 63.1795 13.1846 833 98.6759 800.609 480.466
652 0 65.2327 12.3558 806 99.9975 800.748 479.448
653 0 67.1492 10.5884 711 104.127 800.12 480.48
654 0 68.1938 11.1447 760 103.239 800.075 480.271
655 0 71.1929 12.0799 860 102.217 799.991 479.964
656 0 72.1773 10.8067 780 104.301 800.24 478.067
657 0 75.1881 11.4912 864 103.802 800.596 474.412
658 0 79.0847 13.024 1030 100.895 799.377 473.42
659 0 81.1373 10.8335 879 104.845 799.299 471.023
660 0 83.1441 9.82632 817 107.704 799.674 469.377
661 1 44.0805 9.95906 439 105.041 800.585 490.064
662 0 45.1767 11.3554 513 101.782 801.218 491.507
663 0 43.0432 11.1284 479 104.574 799.305 488.99
664 0 47.0644 11.1124 523 101.709 798.79 491.076
665 0 48.0479 11.3845 547 100.585 800.892 489.62
666 0 51.0574 12.0648 616 98.5341 799.997 489.075
667 0 53.0785 11.7185 622 100.452 798.791 486.86
668 0 53.0712 12.6245 670 99.4985 798.263 487.612
669 0 56.1131 13.2768 745 98.1074 798.09 484.605
670 0 56.182 12.1747 684 102.007 797.984 485.917
671 0 56.0617 10.8273 607 105.305 798.008 484.72
672 0 60.0723 12.8345 771 101.018 797.977 482.973
673 0 61.0699 12.019 734 103.262 797.628 484.101
674 0 62.1015 11.6422 723 105.072 798.129 480.427
675 0 63.0735 12.097 763 104.062 797.927 481.32
676 0 67.0845 11.6569 782 103.68 798.515 480.515
677 0 70.0455 12.963 908 101.401 798.623 478.523
678 0 74.0623 14.9334 1106 97.2025 798.755 475.949
679 0 75.1121 12.1152 910 100.885 798.334 477.129
680 0 78.098 14.1361 1104 99.2255 798.562 475.065
681 0 78.1 12.5736 982 101.094 799.253 473.919
682 0 82.2417 11.5756 952 102.633 799.223 471.482
683 1 42.036 10.3483 435 101.062 798.221 493.283
684 0 45.1505 13.3775 604 95.0513 799.566 491.861
685 0 47.1385 12.7497 601 89.7138 802.206 489.744
686 0 47.0494 12.1149 570 92.5386 799.467 490.877
687 0 48.2437 11.6906 564 95.0514 800.129 489.147
688 0 50.0713 11.244 563 94.0959 801.298 491.199
689 0 52.026 10.9561 570 102.368 798.958 487.919
690 0 53.0791 11.8502 629 101.744 799.095 486.97
691 0 53.0251 10.9571 581 105.029 798.561 486.551
692 0 57.0921 13.6796 781 97.7132 798.676 486.195
693 0 56.0504 12.8991 723 99.982 798.849 487.13
694 0 59.0778 12.9829 767 99.9778 798.352 483.601
695 0 61.1352 12.4315 760 101.366 798.863 482.772
696 0 63.0327 12.5015 788 100.962 798.477 483.142
697 0 64.0636 13.7676 882 98.6304 798.989 483.087
698 0 65.0522 12.1595 791 102.777 798.14 479.913
699 0 67.0902 11.9988 805 103.508 798.794 480.319
700 0 70.0479 13.6478 956 100.259 798.69 478.482
701 0 73.0819 14.5453 1063 99.1063 798.094 475.914
702 0 75.1527 13.5458 1018 100.82 798.362 475.907
703 0 77.2495 13.3593 1032 102.159 798.706 475.178
704 0 79.117 13.2588 1049 103.261 798.524 472.28
705 0 81.0429 12.7587 1034 103.956 798.325 471.708
706 0 84.3842 12.9764 1095 103.178 798.319 470.836
707 0 86.0998 13.0198 1121 103.906 798.383 468.733
708 0 90.0797 14.1763 1277 101.24 798.384 465.915
709 0 94.1292 14.4801 1363 100.03 798.306 465.903
710 0 96.0797 13.9155 1337 101.013 798.643 467.296
711 1 53.0573 11.6289 617 99.8412 798.854 489.089
712 0 52.0499 12.6417 658 100.842 798.21 484.125
713 0 56.0451 12.0796 677 100.349 798.134 486.541
714 0 56.1347 11.8465 665 99.7203 798.433 485.588
715 0 59.0133 13.2682 783 97.281 798.352 483.413
716 0 60.0485 12.6065 757 97.3923 798.806 483.429
717 0 63.0865 13.7272 866 94.7587 799.064 483.236
718 0 64.0587 13.7686 882 95.2211 799.208 481.329
719 0 67.1474 13.4034 900 95.6322 798.991 480.797
720 0 69.0541 13.0043 898 97.7662 799.095 477.122
721 0 71.1521 14.5463 1035 95.0531 799.624 477.884
722 0 72.1048 12.9395 933 98.6624 799.817 475.905
723 0 77.1317 14.2484 1099 94.3494 799.941 475.54
724 0 79.0656 13.9504 1103 96.2493 799.562 475.433
725 0 80.052 13.3788 1071 98.7143 799.841 475.171
726 0 83.0591 13.063 1085 100.151 799.972 472.591
727 0 86.1401 13.211 1138 98.775 800.188 473.317
728 0 89.2778 13.7436 1227 98.5143 801.171 467.127
729 0 92.2218 12.9796 1197 98.5238 800.707 464.803
730 0 97.2398 13.2867 1292 97.476 801.016 465.41
731 0 100.235 13.4384 1347 98.7053 800.521 464.316
732 1 52.1004 11.4011 594 100.039 801.784 486.316
733 0 53.1857 10.83 576 101.297 801.752 483.988
734 0 55.1754 12.1431 670 99.1567 800.943 484.564
735 0 56.0667 11.5042 645 101.628 801.766 483.952
736 0 59.0902 12.7602 754 98.7958 802.151 484.767
737 0 61.0907 12.9971 794 97.7368 801.841 482.096
738 0 62.0619 12.5359 778 99.8021 801.517 481.576
739 0 65.0726 11.5563 752 99.9694 801.767 483.742
740 0 68.0623 12.2682 835 99.1437 801.176 481.867
741 0 66.0937 12.4218 821 102.286 800.661 478.912
742 0 71.1093 12.5159 890 101.33 801.389 479.042
743 0 71.1816 12.4892 889 102.022 801.36 477.183
744 0 72.149 13.2781 958 101.258 801.181 477.001
745 0 76.1017 12.3782 942 101.792 801.571 476.593
746 0 78.0797 13.8704 1083 100.064 801.015 475.833
747 0 81.1575 12.0999 982 104.487 800.653 473.86
748 0 83.2442 13.1661 1096 102.715 801.098 471.273
749 0 86.1421 12.5839 1084 104.982 800.91 471.592
750 0 90.2401 13.2757 1198 105.399 800.362 466.656
751 1 46.1055 11.0833 511 101.669 801.178 490.515
752 0 46.0621 12.3746 570 90.5333 800.468 488.879
753 0 49.1613 12.2657 603 91.2239 798.236 488.69
754 0 48.104 10.9347 526 96.943 798.692 490.468
755 0 49.1091 11.505 565 96.4761 798.94 491.175
756 0 52.066 11.255 586 97.3038 798.068 488.382
757 0 53.1459 12.1176 644 96.618 798.851 486.314
758 0 54.0356 11.4369 618 97.4854 798.471 487.426
759 0 56.0598 11.8088 662 97.4924 798.435 485.251
760 0 60.1048 12.4449 748 95.7687 798.461 485.353
761 0 60.037 12.0093 721 97.6602 798.793 484.361
762 0 63.0607 11.4493 722 98.633 798.656 484.296
763 0 64.0466 12.9593 830 96.7494 798.998 480.949
764 0 67.0665 12.9275 867 97.1892 799.251 481.478
765 0 67.0433 12.0221 806 100.158 799.272 479.473
766 0 70.0855 12.5989 883 99.5459 799.291 478.704
767 0 71.0652 11.9609 850 101.416 799.331 480.961
768 0 75.2027 12.6724 953 101.484 799.481 477.16
769 0 77.116 12.4877 963 102.293 799.211 477.45
770 0 77.0888 12.0121 926 104.579 799.266 476.647
771 0 81.1203 12.8944 1046 102.673 799.713 475.408
772 0 84.1178 13.172 1108 103.553 799.059 474.821
773 0 86.167 12.1392 1046 106.899 798.59 473.936
774 0 88.1264 12.8338 1131 106.256 799.222 472.359
775 0 91.0955 11.7569 1071 108.056 799.021 470.47
776 1 50.0455 11.6694 584 110.632 798.878 489.675
777 0 50.1226 11.2524 564 113.663 797.973 489.246
778 0 53.04 11.9533 634 105.533 798.894 490.02
779 0 55.0992 12.904 711 100.539 799.958 489.55
780 0 56.0704 12.8945 723 102.364 799.809 486.52
781 0 58.14 11.5411 671 105.352 799.56 487.319
782 0 59.1706 11.8809 703 104.596 799.871 487.286
783 0 63.1386 13.8584 875 100.358 799.775 484.353
784 0 64.146 11.8168 758 105.263 799.161 483.423
785 0 66.0695 11.8663 784 107.941 797.69 483.031
786 0 67.1355 13.0482 876 106.139 798.45 480.565
787 0 69.0402 14.9188 1030 102.506 798.85 481.013
788 0 72.0547 14.0588 1013 104.471 798.31 480.077
789 0 73.0537 13.319 973 107.266 797.77 476.94
790 0 77.0815 14.4652 1115 104.465 798.926 477.056
791 0 80.2582 13.332 1070 106.419 798.361 477.365
792 0 80.1047 14.0691 1127 106.723 798.943 476.734
793 0 83.2179 14.0835 1172 106.496 798.84 473.953
794 0 84.1162 13.624 1146 108.583 798.806 472.335
795 0 86.2038 12.9925 1120 112.085 798.852 471.063
796 0 89.3206 12.5391 1120 112.127 798.438 469.686
797 0 92.1284 13.0362 1201 111.392 798.878 468.231
798 0 95.123 12.4576 1185 113.386 798.892 466.424
799 0 100.214 13.8603 1389 109.163 798.666 461.278
800 1 53.2631 10.9832 585 112.945 798.574 486.386
801 0 57.0986 12.1194 692 109.816 798.668 486.906
802 0 59.1782 12.1328 718 108.894 799.061 486.442
803 0 60.2549 13.4761 812 110.015 798.975 483.185
804 0 60.124 12.0584 725 113.847 798.171 484.101
805 0 64.2343 12.8747 827 111.548 798.86 482.715
806 0 66.2293 12.4114 822 113.529 799.021 480.54
807 0 68.2618 13.6533 932 110.673 798.833 480.049
808 0 71.289 13.7048 977 110.697 799.606 478.603
809 0 74.1965 12.8712 955 112.983 799.216 479.248
810 0 76.1731 14.5589 1109 110.408 799.183 475.923
811 0 78.3245 14.4272 1130 111.271 799.184 476.701
812 0 80.2477 13.1842 1058 114.432 799.699 474.047
813 0 83.2712 14.0024 1166 113.147 798.935 473.483
814 0 86.2065 13.0617 1126 116.029 798.368 471.524
815 0 88.29 12.7987 1130 117.594 798.54 469.197
816 0 92.2717 13.5795 1253 116.263 798.387 467.314
817 0 96.2697 13.3479 1285 115.295 798.965 467.533
818 0 99.275 13.3669 1327 115.486 798.877 463.775
819 1 52.1204 11.224 585 112.766 798.378 489.465
820 0 51.235 12.4329 637 97.0408 799.681 481.424
821 0 51.0284 9.73968 497 98.0644 799.058 481.217
822 0 53.1511 11.3262 602 94.6312 799.307 482.671
823 0 55.0463 10.6819 588 96.6378 799.092 478.969
824 0 59.0528 13.2932 785 92.0815 799.234 480.345
825 0 58.1673 9.85089 573 98.9948 798.241 479.07
826 0 59.0666 12.105 715 96.6252 798.659 474.717
827 0 57.1143 9.82241 561 100.879 799.03 474.152
828 0 66.1351 12.2325 809 94.7577 798.848 477.106
829 0 67.0935 11.2231 753 97.1355 799.56 473.586
830 0 71.1762 13.0943 932 94.3916 798.991 474.373
831 0 75.2697 11.4522 862 97.2065 799.19 476.736
832 0 74.1474 11.9627 887 71.1567 799.463 477.401
833 0 81.1673 12.5666 1020 96.7833 798.717 472.323
834 0 84.1938 11.1766 941 100.25 799.387 468.314
835 0 84.1393 10.7203 902 102.761 799.12 463.027
836 0 90.2179 12.2481 1105 98.2606 798.112 466.461
837 0 92.2583 11.8797 1096 99.1122 798.879 463.214
838 0 97.1963 12.7371 1238 97.1947 798.849 462.559
839 0 100.181 13.8349 1386 95.3268 798.522 461.832
840 1 48.2445 10.7163 517 99.3133 798.778 483.147
841 0 51.1506 11.2413 575 88.9009 798.565 484.837
842 0 53.0956 9.62414 511 91.9667 798.978 482.168
843 0 58.0898 13.9095 808 94.7191 799.345 487.832
844 0 57.028 12.9761 740 99.6608 799.189 487.366
845 0 61.0592 13.3805 817 98.7552 799.857 486.951
846 0 63.042 12.9596 817 100.284 799.848 485.073
847 0 65.0885 13.6737 890 97.9899 799.634 485.175
848 0 66.1242 11.796 780 103.582 799.359 484.31
849 0 69.1569 12.8838 891 100.136 799.82 481.936
850 0 71.1911 12.4173 884 103.012 799.722 480.417
851 0 73.2126 13.3584 978 102.886 800.411 477.936
852 0 75.0996 14.301 1074 102.333 799.777 478.151
853 0 78.0709 13.0394 1018 104.792 799.734 478.458
854 0 81.0731 13.2966 1078 105.815 799.57 476.316
855 0 83.1637 13.4193 1116 106.888 799.007 475.211
856 0 85.1703 15.3222 1305 104.537 798.678 473.031
857 0 86.3232 13.5537 1170 109.971 799.118 471.624
858 0 91.255 13.2376 1208 108.986 799.635 473.001
859 0 94.1515 13.6907 1289 110.2 799.125 468.212
860 0 97.1811 15.0647 1464 108.781 798.564 465.103
861 0 103.158 14.1434 1459 111.014 798.572 464.625
862 0 106.296 13.867 1474 112.759 799.149 464.325
863 1 54.1137 12.3629 669 114.72 799.293 490.214
864 0 55.205 12.1004 668 118.998 798.242 488.317
865 0 57.2471 12.2102 699 114.608 797.724 485.635
866 0 61.0516 14.2175 868 114.712 799.957 485.301
867 0 62.1568 14.2704 887 114.975 800.671 483.513
868 0 65.0647 13.3867 871 115.744 801.393 483.713
869 0 65.1003 13.6405 888 116.624 800.362 481.332
870 0 66.1291 13.519 894 116.736 800.322 481.181
871 0 69.0972 13.9079 961 115.426 800.697 479.998
872 0 71.1011 14.2192 1011 114.143 800.279 479.582
873 0 72.0483 13.7547 991 116.706 800.258 478.191
874 0 76.1604 13.721 1045 116.889 799.605 475.148
875 0 78.1145 13.5314 1057 117.24 799.966 474.586
876 0 80.1749 13.7075 1099 116.108 800.411 473.864
877 0 83.1534 13.8058 1148 114.951 800.729 472.423
878 0 87.2256 14.1014 1230 113.585 800.343 469.588
879 0 88.1801 13.4497 1186 115.046 800.342 470.858
880 0 91.1811 14.1367 1289 113.697 800.244 464.998
881 0 94.1563 13.4563 1267 115.833 800.174 463.854
882 0 97.1441 14.041 1364 113.577 800.405 464.985
883 0 96.0942 13.0497 1254 118.279 800.108 462.098
884 0 100.144 12.8615 1288 117.456 799.356 462.561
885 0 105.172 13.6348 1434 115.505 799.128 459.699
886 0 110.17 14.2235 1567 111.893 799.774 458.424
887 1 58.0744 11.2442 653 111.792 798.387 484.6
888 0 59.0835 10.9675 648 109.465 798.586 481.421
889 0 61.0573 12.9223 789 112.319 798.49 481.501
890 0 65.1265 14.326 933 110.312 798.372 481.481
891 0 66.1027 13.4942 892 112.475 798.163 481.894
892 0 68.1924 13.7259 936 111.432 798.354 480.916
893 0 70.0572 13.5318 948 112.668 798.434 480.41
894 0 74.1429 14.2967 1060 110.764 798.308 479.728
895 0 75.2248 13.6923 1030 113.108 798.053 479.215
896 0 77.0734 14.4408 1113 111.827 798.487 478.292
897 0 81.2428 14.0566 1142 110.391 798.951 475.707
898 0 81.2354 14.0948 1145 113.13 798.16 473.941
899 0 83.2066 14.0373 1168 113.847 798.564 473.61
900 0 88.1654 17.2403 1520 106.237 798.522 472.295
901 0 88.1758 13.1669 1161 116.391 798.233 473.384
902 0 92.2609 15.4995 1430 112.355 798.243 469.294
903 0 91.224 13.1983 1204 119.581 798.068 471.234
904 0 97.1438 15.719 1527 114.008 798.196 466.335
905 0 96.1668 13.331 1282 120.342 798.482 467.07
906 0 102.128 14.6776 1499 116.668 798.38 465.513
907 0 105.375 14.8137 1561 116.176 798.22 464.867
908 0 106.252 14.0609 1494 119.339 798.476 463.627
909 0 112.243 14.4507 1622 118.808 798.748 459.189
910 0 115.323 15.01 1731 117.153 798.47 458.856
911 0 119.352 15.0144 1792 117.685 798.235 456.188
912 0 120.288 13.3845 1610 121.846 798.598 454.691
913 0 128.18 15.2989 1961 115.379 798.705 452.768
914 0 133.39 15.2935 2040 117.009 798.259 448.141
915 0 137.393 14.6441 2012 119.176 798.279 444.984
916 0 142.517 15.2052 2167 118.313 798.413 443.507
917 0 147.548 15.9541 2354 115.561 798.178 435.886
918 0 151.591 14.4269 2187 120.357 798.16 430.518
919 0 156.542 14.1176 2210 120.518 798.107 427.357
920 0 162.351 14.4502 2346 120.326 798.264 424.148
921 1 89.5089 13.2948 1190 116.137 798.332 460.531
922 0 93.3886 13.5241 1263 114.816 798.957 460.107
923 0 98.3366 12.3962 1219 116.363 799.95 461.536
924 0 104.358 14.1724 1479 111.738 800.034 460.642
925 0 107.121 12.7519 1366 114.908 800.072 460.829
926 0 110.309 14.5773 1608 110.624 799.761 460.349
927 0 115.246 13.0851 1508 115.244 798.942 455.91
928 0 118.229 14.2774 1688 112.22 799.499 454.314
929 0 120.181 12.0402 1447 116.317 799.368 454.296
930 0 129.284 13.6444 1764 111.995 799.873 450.706
931 1 67.4646 12.11 817 102.617 800.448 480.356
932 0 69.3454 12.4738 865 101.24 800.676 479.36
933 0 72.2032 11.6892 844 103.778 800.006 477.899
934 0 73.1289 11.5276 843 103.151 800.077 479.964
935 0 76.0827 13.1436 1000 101.512 799.898 476.102
936 0 79.0805 12.8983 1020 102.118 799.619 475.526
937 0 82.3155 12.0998 996 103.924 799.771 473.556
938 0 83.4849 11.7147 978 105.377 800.182 473.011
939 0 87.2182 14.1599 1235 102.347 800.153 469.852
940 0 88.2701 12.7903 1129 105.747 800.01 469.744
941 0 91.2018 12.0941 1103 108.199 799.779 468.055
942 0 94.1803 12.0195 1132 108.52 800.413 466.967
943 0 97.1237 12.2524 1190 109.061 799.286 465.802
944 0 102.271 13.9923 1431 105.918 799.614 461.911
945 0 105.192 14.003 1473 106.588 800.198 462.223
946 0 108.254 13.9302 1508 106.763 800.164 461.379
947 0 112.169 13.1142 1471 109.342 799.276 457.366
948 0 116.244 14.8137 1722 106.197 799.911 455.746
949 0 119.146 12.5476 1495 111.009 799.413 454.83
950 0 124.287 14.1688 1761 108.169 799.866 453.133
951 1 70.2631 11.4285 803 107.016 800.606 479.295
952 0 72.1911 12.4946 902 106.201 799.915 478.282
953 0 76.3104 12.803 977 112.192 799.432 476.248
954 0 79.31 14.1848 1125 109.131 799.392 473.346
955 0 83.2904 13.519 1126 109.448 799.681 474.83
956 0 84.3664 13.6073 1148 111.69 799.083 473.449
957 0 84.3048 12.6683 1068 114.869 798.929 471.696
958 0 88.286 13.1957 1165 114.026 799.435 469.454
959 0 91.2958 13.6151 1243 112.654 799.349 470.582
960 0 91.2637 13.576 1239 113.808 798.935 466.997
961 0 97.3091 13.7397 1337 112.747 799.302 467.304
962 0 103.313 17.0163 1758 104.329 799.408 461.249
963 0 107.272 16.5467 1775 104.458 798.51 460.043
964 0 105.387 13.0187 1372 110.218 798.526 459.746
965 0 109.264 12.8221 1401 109.767 799.6 462.421
966 0 113.225 13.4511 1523 109.424 799.575 459.119
967 1 62.0665 12.9055 801 106.86 799.948 483.536
968 0 63.1248 13.2753 838 104.378 799.925 480.673
969 0 64.0276 12.4009 794 108.162 800.754 483.898
970 0 67.0517 12.7215 853 108.367 800.709 480.912
971 0 69.0876 11.84 818 109.812 801.11 479.024
972 0 70.0343 12.4082 869 108.954 801.177 478.003
973 0 73.0701 12.1664 889 108.711 800.378 478.138
974 0 77.0756 13.9863 1078 104.94 800.819 474.462
975 0 77.1144 12.0989 933 110.451 800.384 475.214
976 0 81.0309 13.5504 1098 106.11 800.199 474.653
977 0 82.0771 12.6832 1041 109.483 800.546 472.188
978 0 84.0567 12.3845 1041 109.927 799.971 469.961
979 0 87.2812 13.5997 1187 100.54 799.578 469.093
980 0 91.138 11.7734 1073 103.297 800.236 471.09
981 0 94.1858 13.2716 1250 101.266 799.962 468.908
982 0 96.2011 14.5009 1395 101.234 799.476 464.727
983 0 100.24 13.0287 1306 103.245 800.077 462.204
984 0 102.285 14.1663 1449 103.078 799.792 464.389
985 0 104.127 13.8773 1445 106.803 798.588 461.907
986 0 107.118 13.0884 1402 108.014 799.416 460.831
987 0 114.334 14.134 1616 106.321 800.033 459.177
988 0 116.207 13.0629 1518 111.729 799.925 454.747
989 0 122.162 14.8328 1812 106.331 800.164 453.873
990 1 68.2738 12.0983 826 101.896 800.443 483.027
991 0 67.1373 12.5117 840 102.673 800.248 480.213
992 0 72.1681 13.1499 949 101.085 799.837 478.997
993 0 73.2067 12.4852 914 103.06 800.921 478.968
994 0 76.1951 12.7042 968 102.487 800.274 477.654
995 0 79.1672 13.3894 1060 101.585 800.03 475.617
996 0 80.2151 10.983 881 106.011 800.453 475.813
997 0 85.0832 12.9168 1099 103 800.184 472.069
998 0 86.1849 12.5776 1084 105.416 799.865 469.241
999 0 89.1317 12.3749 1103 106.073 799.071 469.231
1000 0 92.1699 12.4878 1151 106.07 799.749 467.902
1001 0 97.122 15.1459 1471 100.723 799.215 467.165
1002 0 100.236 14.416 1445 104.274 798.7 463.078
1003 0 103.233 13.3485 1378 108.2 798.959 459.917
1004 0 105.235 12.8474 1352 109.115 799.456 456.718
1005 0 110.247 14.4584 1594 105.652 798.755 458.826
1006 1 59.1274 12.5492 742 110.518 798.716 482.144
1007 0 63.0866 12.4591 786 109.347 799.062 481.559
1008 0 65.1335 13.5107 880 107.688 798.843 480.609
1009 0 68.0812 15.4815 1054 104.004 798.733 479.013
1010 0 68.1254 13.6366 929 109.026 798.919 477.941
1011 0 69.1764 13.9354 964 109.305 799.186 477.16
1012 0 72.279 13.3234 963 110.917 799.509 475.637
1013 0 73.2142 13.7405 1006 110.936 798.966 474.448
1014 0 79.2724 14.898 1181 107.057 799.365 473.433
1015 0 79.1934 14.6098 1157 109.47 798.902 471.804
1016 0 81.2372 13.7499 1117 112.184 798.883 472.211
1017 0 85.1372 14.1184 1202 111.893 798.341 468.983
1018 0 87.1155 14.475 1261 106.831 798.32 470.929
1019 0 89.1858 13.7578 1227 109.29 798.002 467.863
1020 0 91.2551 13.9061 1269 110.671 798.314 465.827
1021 0 95.1248 14.1393 1345 110.832 798.407 462.9
1022 0 100.127 14.5815 1460 108.541 798.176 463.095
1023 1 51.1359 12.0659 617 112.136 797.83 485.246
1024 0 54.2049 12.6188 684 110.563 800.121 485.962
1025 0 56.2581 13.8647 780 107.363 799.837 485.397
1026 0 59.3155 14.2459 845 106.37 799.837 483.875
1027 0 60.2092 13.5195 814 108.117 799.457 483.64
1028 0 61.1153 14.5954 892 107.001 799.147 482.594
1029 0 63.1693 12.9968 821 110.017 799.568 481.633
1030 0 65.2203 13.5847 886 109.324 799.464 481.602
1031 0 69.1788 13.3133 921 109.701 799.256 479.395
1032 0 72.2928 13.7496 994 109.611 798.533 478.088
1033 0 72.1845 13.8257 998 110.285 799.397 474.813
1034 0 75.2795 13.5097 1017 110.766 799.131 472.562
1035 0 79.4536 13.7439 1092 111.196 798.836 469.814
1036 0 81.1767 14.8442 1205 100.26 798.582 473.482
1037 0 83.0908 13.4672 1119 104.465 797.915 471.394
1038 0 83.1638 12.4934 1039 107.296 798.601 470.411
1039 0 87.1538 13.241 1154 107.179 798.51 468.07
1040 0 89.2916 13.1367 1173 108.089 798.252 467.086
1041 0 93.3203 13.4162 1252 107.208 798.237 464.612
1042 0 99.3223 14.9211 1482 103.688 798.764 465.074
1043 0 100.189 15.0915 1512 104.784 798.704 461.938
1044 0 104.306 15.7325 1641 103.305 799.155 461.258
1045 0 107.193 13.3685 1433 109.262 798.913 459.741
1046 1 57.1273 11.6582 666 105.251 798.802 485.422
1047 0 58.1341 12.282 714 102.324 799.006 485.373
1048 0 57.051 12.2697 700 99.8543 799.834 480.466
1049 0 61.0513 13.7589 840 107.848 799.206 482.137
1050 0 61.0932 12.5873 769 111.228 798.685 481.789
1051 0 65.1426 13.386 872 108.696 799.143 481.778
1052 0 69.094 13.981 966 106.023 800.069 480.211
1053 0 70.1011 13.3236 934 107.736 800.361 480.768
1054 0 73.3028 15.7702 1156 103.47 800.33 478.071
1055 0 76.2434 14.0078 1068 107.372 799.786 478.472
1056 0 77.2524 13.3718 1033 110.815 799.698 474.915
1057 0 77.0919 13.3737 1031 112.447 799.805 473.497
1058 0 81.3167 13.8471 1126 111.095 799.843 471.164
1059 0 83.2294 13.1925 1098 111.831 799.637 473.44
1060 0 86.1748 13.7047 1181 111.598 798.891 472.034
1061 0 89.1446 13.4613 1200 112.492 799.066 469.005
1062 0 92.3257 13.0624 1206 113.181 799.58 467.488
1063 0 94.2574 11.8717 1119 111.823 799.129 465.624
1064 0 98.3514 12.8722 1266 110.475 799.247 459.123
1065 1 51.3263 10.0338 515 109.441 799.981 484.365
1066 0 52.1984 11.1306 581 97.8365 800.003 481.303
1067 0 53.0343 11.1626 592 107.769 800.128 488.355
1068 0 56.0408 12.4909 700 105.836 800.336 487.329
1069 0 60.1745 13.1783 793 104.169 800.643 485.464
1070 0 61.0777 14.0968 861 103.92 800.331 484.812
1071 0 64.0585 14.0653 901 104.679 799.747 483.236
1072 0 63.0725 12.7155 802 109.08 800.579 482.716
1073 0 66.1331 11.613 768 112.497 799.793 481.401
1074 0 69.1405 12.6554 875 109.835 800.111 481.991
1075 0 71.0973 12.6165 897 109.239 801.363 481.642
1076 0 73.0798 12.8626 940 112.182 799.298 478.313
1077 0 75.1103 13.2206 993 111.075 799.463 478.258
1078 0 77.1009 15.149 1168 108.961 800.056 475.571
1079 0 78.1331 13.9634 1091 111.984 799.794 476.981
1080 0 82.1453 12.4901 1026 115.552 799.149 475.81
1081 0 85.1323 13.7551 1171 112.387 798.609 472.763
1082 0 86.176 12.3584 1065 115.296 798.588 471.777
1083 0 89.1468 12.5972 1123 117.77 798.748 469.609
1084 0 95.1448 13.4216 1277 113.774 798.465 470.594
1085 0 98.1993 14.0429 1379 112.424 798.851 465.608
1086 1 55.1087 12.1215 668 116.901 798.008 488.326
1087 0 56.0596 12.9683 727 114.937 798.23 486.645
1088 0 58.1019 13.3042 773 105.964 799.633 486.73
1089 0 58.0532 12.523 727 107.183 798.208 484.129
1090 0 61.028 12.568 767 106.588 798.259 484.119
1091 0 65.1797 12.9795 846 105.442 798.249 482.902
1092 0 65.1459 13.0937 853 105.033 799.299 482.448
1093 0 69.0912 13.2868 918 104.95 799.119 480.325
1094 0 71.1053 13.4448 956 105.958 798.691 479.12
1095 0 72.1277 12.9077 931 107.324 798.29 478.443
1096 0 74.1439 13.6222 1010 106.861 798.103 477.335
1097 0 76.1627 12.8934 982 107.534 798.584 477.4
1098 0 79.1031 13.9059 1100 106.481 798.086 475.615
1099 0 81.2403 14.2417 1157 107.425 798.118 473.06
1100 0 84.1809 14.7777 1244 107.003 798.272 471.154
1101 0 86.0826 13.6264 1173 111.566 797.758 471.848
1102 0 89.1107 12.3218 1098 113.337 797.746 472.271
1103 0 92.1216 13.2325 1219 111.932 798.505 469.129
1104 0 94.1596 13.1691 1240 110.902 798.809 468.991
1105 0 99.1246 13.5385 1342 110.256 797.876 465.942
1106 1 56.0924 13.6204 764 108.475 797.679 487.59
1107 0 58.1374 13.6401 793 107.314 798.333 486.672
1108 0 58.1243 11.7851 685 101.057 799.839 485.188
1109 0 61.1584 11.7891 721 99.9723 799.777 483.935
1110 0 62.1427 12.9058 802 98.9514 799.87 481.645
1111 0 62.2175 12.4884 777 99.1982 800.719 482.762
1112 0 65.1589 13.9659 910 97.844 800.374 478.025
1113 0 67.1303 13.5408 909 98.2277 800.081 479.609
1114 0 69.1035 13.3278 921 103.189 799.959 480.985
1115 0 71.2392 13.6722 974 102.637 799.914 479.446
1116 0 74.1065 14.5871 1081 101.034 800.146 475.05
1117 0 77.3361 13.3444 1032 103.453 800.021 475.914
1118 0 78.1956 13.5813 1062 103.492 800.11 476.333
1119 0 81.2582 13.1064 1065 104.695 800.132 475.353
1120 0 83.1497 14.0951 1172 103.24 799.367 473.368
1121 0 86.3069 13.9386 1203 103.842 799.579 471.638
1122 0 89.2222 14.4135 1286 102.799 799.823 470.721
1123 0 93.2665 14.6355 1365 102.977 799.542 468.56
1124 0 95.1948 14.1394 1346 104.701 799.517 466.968
1125 0 94.2056 13.9482 1314 105.483 799.838 468.893
1126 0 101.128 13.6362 1379 105.762 800.178 466.637
1127 0 103.182 13.6749 1411 106.961 799.826 464.912
1128 0 105.133 13.1833 1386 109.059 800.097 463.035
1129 1 54.0526 12.1918 659 107.671 800.367 487.499
1130 0 58.0701 13.3115 773 104.338 800.788 485.111
1131 0 58.0989 12.6853 737 105.251 801.114 485.043
1132 0 61.0962 12.734 778 106.794 800.836 482.428
1133 0 60.1598 11.8019 710 111.227 800.348 482.684
1134 0 64.2333 14.4785 930 105.452 800.439 479.396
1135 0 66.1567 13.1053 867 108.345 800.386 480.111
1136 0 70.1858 12.7376 894 108.431 799.597 478.826
1137 0 71.2368 13.6727 974 107.024 800.063 477.277
1138 0 73.1934 13.4985 988 108.726 800.339 475.068
1139 0 75.175 13.8876 1044 108.536 799.598 475.205
1140 0 79.1943 13.5995 1077 109.808 799.293 472.827
1141 0 84.2222 13.4406 1132 109.442 798.763 471.974
1142 0 85.1836 13.5237 1152 109.912 798.964 471.038
1143 0 90.1997 12.7606 1151 111.807 799.222 468.58
1144 1 44.113 11.8332 522 110.684 797.847 488.506
1145 0 45.0833 11.8891 536 109.892 798.681 488.153
1146 0 49.0341 12.0936 593 108.656 797.917 488.953
1147 0 50.0655 12.2639 614 110.56 796.521 489.65
1148 0 51.0255 12.4644 636 111.002 796.472 489.022
1149 0 54.1008 12.2919 665 111.722 795.732 486.88
1150 0 53.1218 12.7066 675 111.687 797.037 487.81
1151 0 56.1257 12.8818 723 109.921 796.978 486.549
1152 0 59.0306 12.6714 748 109.642 796.398 485.321
1153 0 61.1358 13.0856 800 108.508 797.334 483.171
1154 0 62.0919 12.8841 800 109.14 796.696 482.441
1155 0 65.0483 14.3586 934 105.111 796.82 480.908
1156 0 65.093 13.1811 858 107.892 797.047 481.205
1157 0 69.0436 13.5856 938 106.165 796.956 478.627
1158 0 71.0723 14.1546 1006 104.702 796.84 477.488
1159 0 75.0455 14.8577 1115 103.239 797.274 476.421
1160 0 78.1402 14.9987 1172 103.932 797.296 476.538
1161 0 80.1364 13.8514 1110 106.114 796.904 474.787
1162 0 83.0329 13.862 1151 108.122 797.069 471.089
1163 0 86.0497 14.4451 1243 105.825 797.628 470.287
1164 1 43.0857 13.0902 564 106.463 797.832 490.555
1165 0 45.2809 12.1685 551 107.305 799.381 488.789
1166 0 47.3978 13.8192 655 97.0351 799.826 489.273
1167 0 47.0806 12.6379 595 98.2471 799.309 490.355
1168 0 49.1034 12.1987 599 100.551 797.831 488.063
1169 0 50.1612 12.3203 618 99.5 799.178 488.678
1170 0 53.1814 14.0087 745 97.4215 798.29 487.548
1171 0 53.0539 14.0235 744 98.5027 798.124 487.2
1172 0 55.0414 13.1901 726 101.201 797.86 485.059
1173 0 56.1829 13.5628 762 100.402 798.613 486.236
1174 0 59.074 13.7116 810 100.602 798.326 483.935
1175 0 62.1043 13.3646 830 100.706 798.511 482.436
1176 0 64.0804 12.9837 832 102.141 798.198 482.133
1177 0 66.1557 13.4985 893 101.572 798.192 479.683
1178 0 67.043 12.231 820 104.307 798.483 480.628
1179 0 72.0686 13.4594 970 101.539 798.169 478.688
1180 0 75.0404 14.0058 1051 101.112 797.924 475.792
1181 0 77.1594 13.0898 1010 104.364 797.962 474.655
1182 0 80.0464 14.1293 1131 102.978 797.727 471.675
1183 0 81.0897 11.9991 973 106.997 797.515 471.168
1184 0 84.2191 12.6337 1064 108.394 798.101 469.115
1185 1 44.0901 11.9982 529 108.187 798.316 490.603
1186 0 47.0922 12.6136 594 104.042 797.879 489.971
1187 0 49.1127 14.1511 695 99.3309 798.355 489.119
1188 0 50.0822 13.6975 686 100.535 797.636 488.573
1189 0 51.0364 14.7934 755 99.0967 797.046 487.811
1190 0 50.0688 12.6826 635 104.809 797.958 487.951
1191 0 55.0556 13.8405 762 98.9409 797.879 486.18
1192 0 54.097 12.7179 688 103.465 797.968 485.89
1193 0 58.056 13.7109 796 99.2274 798.263 484.565
1194 0 60.1686 12.9968 782 100.572 798.111 482.639
1195 0 60.0922 12.9301 777 100.328 798.255 483.662
1196 0 63.0355 12.7547 804 100.978 798.312 482.879
1197 0 65.113 12.8085 834 103.088 797.933 480.084
1198 0 68.0941 13.496 919 105.583 797.782 480.295
1199 0 70.3026 12.8729 905 106.678 797.84 479.495
1200 0 71.1278 13.0188 926 107.332 797.761 478.539
1201 0 74.1237 13.8147 1024 106.746 798.075 474.898
1202 0 78.1083 13.1868 1030 106.77 797.996 474.948
1203 0 79.0799 13.2903 1051 105.833 797.47 474.592
1204 0 82.2237 13.293 1093 107.39 797.038 471.895
1205 0 85.1226 13.4277 1143 108.208 797.443 470.156
1206 0 88.2068 14.0465 1239 107.873 798.042 469.713
1207 0 92.2394 13.7577 1269 107.494 798.13 467.445
1208 0 95.4544 12.6134 1204 109.655 797.34 466.146
1209 1 52.0692 10.9662 571 112.112 797.205 488.37
1210 0 53.2779 11.806 629 112.579 797.781 483.628
1211 0 56.2604 12.6732 713 111.098 797.36 482.495
1212 0 60.2194 13.6999 825 110.444 797.282 482.813
1213 0 60.0729 12.4515 748 113.648 797.404 482.074
1214 0 62.1711 12.5621 781 113.268 797.535 481.045
1215 0 64.1656 12.7171 816 112.124 797.67 481.822
1216 0 66.0549 12.202 806 113.295 797.704 479.496
1217 0 68.0777 12.1332 826 112.781 797.366 479.447
1218 0 71.0809 11.8879 845 113.631 797.206 476.652
1219 0 73.1552 13.0408 954 111.524 797.99 476.325
1220 0 76.0752 14.3937 1095 108.393 796.794 475.766
1221 0 77.1015 12.6068 972 113.81 797.164 473.715
1222 0 81.105 12.9215 1048 113.184 795.948 473.729
1223 0 84.1303 12.968 1091 113.835 796.063 471.791
1224 0 86.1531 13.1162 1130 112.265 796.842 470.922
1225 0 88.2192 12.8317 1132 114.313 796.607 469.377
1226 0 92.11 13.853 1276 111.923 797.784 466.844
1227 0 97.0708 14.3504 1393 109.871 797.446 465.839
1228 0 99.1581 13.9878 1387 112.399 797.144 464.893
1229 0 101.076 13.3364 1348 114.654 797.378 463.935
1230 0 101.21 12.4296 1258 119.015 796.866 459.351
1231 0 108.162 13.5445 1465 114.962 796.762 460.885
1232 0 110.183 13.7953 1520 114.925 796.664 457.776
1233 0 112.236 13.2845 1491 122.806 797.333 455.671
1234 0 117.408 14.2921 1678 120.313 797.544 453.4
1235 1 62.1318 11.6205 722 107.564 797.717 483.108
1236 0 64.206 11.65 748 101.964 798.979 484.086
1237 0 65.2068 12.2687 800 98.255 798.385 479.866
1238 0 69.159 13.1436 909 97.3806 799.055 477.194
1239 0 70.0798 11.9293 836 101.853 797.5 481.25
1240 0 72.1436 11.5603 834 104.644 797.492 478.903
1241 0 76.2174 14.2487 1086 99.1823 796.769 476.563
1242 0 78.1283 13.017 1017 101.722 797.169 476.841
1243 0 79.1249 13.2322 1047 103.221 797.826 474.533
1244 0 82.1131 12.909 1060 104.898 797.118 473.427
1245 0 86.1932 14.3515 1237 100.469 797.121 472.693
1246 0 88.0382 12.0857 1064 105.758 797.04 469.797
1247 0 91.1454 13.868 1264 103.338 797.605 469.16
1248 0 92.134 11.7546 1083 108.464 797.443 469.608
1249 0 97.2821 12.9623 1261 105.971 797.366 466.987
1250 0 97.2462 13.3887 1302 106.63 797.454 462.947
1251 0 102.261 13.5535 1386 105.817 797.885 463.163
1252 0 106.106 13.6844 1452 105.444 796.867 462.357
1253 0 108.233 13.5449 1466 102.653 796.87 453.4
1254 0 110.276 13.3302 1470 103.412 796.905 450.509
1255 0 113.276 12.3769 1402 107.215 797.375 450.211
1256 0 117.283 12.9601 1520 107.692 797.708 449.926
1257 0 119.208 12.4488 1484 108.712 797.351 448.643
1258 0 125.285 11.0708 1387 113.02 797.658 453.677
1259 0 130.326 12.1771 1587 107.868 797.486 444.744
1260 0 134.427 11.8875 1598 106.866 798.07 442.55
1261 0 138.35 13.6466 1888 105.48 797.263 438.366
1262 0 144.205 12.5446 1809 109.01 797.871 438.716
1263 0 150.691 13.2191 1992 110.732 796.712 433.705
1264 1 76.2527 11.5275 879 104.02 796.949 473.476
1265 0 78.1735 12.3699 967 102.333 797.171 472.254
1266 0 81.1871 12.3542 1003 101.43 796.565 474.179
1267 0 83.1527 12.6514 1052 102.103 796.733 472.417
1268 0 87.244 12.4708 1088 102.881 796.887 468.159
1269 0 89.2669 11.0679 988 105.782 797.416 465.981
1270 0 93.1602 11.7754 1097 104.376 796.907 465.842
1271 0 98.1561 12.959 1272 101.627 797.797 462.283
1272 0 100.183 11.8982 1192 104.077 797.625 462.297
1273 1 57.0227 11.3288 646 101.04 797.423 482.132
1274 0 61.3789 12.1214 744 98.2917 798.804 480.065
1275 0 63.1602 12.207 771 96.5824 799.344 481.615
1276 0 64.179 12.1535 780 97.6154 799.332 479.765
1277 0 66.2097 12.4604 825 96.543 799.564 478.545
1278 0 66.177 11.8772 786 97.8117 799.645 479.66
1279 0 71.1889 12.9515 922 95.8395 799.028 477.111
1280 0 72.1624 11.8344 854 97.2143 799.678 477.055
1281 0 75.2495 12.3722 931 96.2245 799.561 473.883
1282 0 76.2241 11.1907 853 98.8394 799.519 474
1283 0 80.2653 13.6173 1093 94.6935 798.398 470.704
1284 0 81.2557 11.1377 905 99.1304 799.448 472.525
1285 0 84.249 11.8696 1000 98.605 799.49 473.089
1286 0 90.1729 12.8753 1161 96.7072 799.297 469.644
1287 0 91.2049 12.4116 1132 100.127 799.387 466.535
1288 0 93.1542 12.1841 1135 102.342 799.362 465.724
1289 0 98.259 14.0954 1385 99.9531 799.029 463.071
1290 1 53.3815 12.1952 651 105.591 798.926 484.654
1291 0 54.0693 12.1696 658 106.787 800.278 483.562
1292 0 59.1067 13.2134 781 103.883 800.585 483.316
1293 0 59.0663 13.324 787 105.648 800.701 481.714
1294 0 61.0602 12.7088 776 106.29 801.098 481.816
1295 0 63.117 13.5938 858 105.767 800.564 478.855
1296 0 65.2085 12.9124 842 106.666 800.753 479.934
1297 0 66.1976 13.1425 870 107.189 800.842 479.275
1298 0 70.1199 13.6338 956 106.005 801.156 476.904
1299 0 72.1442 14.0413 1013 104.421 800.938 477.354
1300 0 73.1312 12.293 899 109.643 800.655 476.318
1301 0 72.2688 11.139 805 112.277 800.427 476.529
1302 0 76.3353 12.2879 938 109.365 801.42 474.356
1303 0 79.2325 13.9211 1103 105.591 801.123 473.715
1304 0 82.2663 13.6508 1123 106.645 799.886 472.085
1305 0 84.3242 13.2939 1121 108.429 799.496 469.768
1306 0 86.2615 13.2504 1143 108.066 799.12 469.693
1307 0 90.3743 13.942 1260 106.223 798.555 468.07
1308 0 91.5723 13.5849 1244 107.973 798.745 465.531
1309 0 93.6282 14.5255 1360 104.883 799.368 467.382
1310 0 96.3672 13.5731 1308 107.055 800.057 464.683
1311 0 101.394 13.4426 1363 106.756 799.804 463.362
1312 0 103.712 13.9231 1444 105.444 799.084 459.313
1313 1 56.2042 10.8889 612 106.181 799.758 483.02
1314 0 57.1633 12.0882 691 103.275 799.887 484.443
1315 0 59.2703 13.2107 783 100.092 799.923 482.088
1316 0 61.1499 12.2813 751 103.562 799.475 481.952
1317 0 63.2084 12.704 803 102.938 798.847 480.572
1318 0 66.2915 13.0333 864 101.84 798.882 478.933
1319 0 66.2094 12.9438 857 102.931 799.237 477.872
1320 0 69.3205 13.0697 906 101.795 799.052 478.917
1321 0 70.3965 13.0404 918 103.483 798.768 476.522
1322 0 71.2428 13.3487 951 102.98 799.067 474.878
1323 0 72.1552 11.9326 861 106.096 798.316 474.307
1324 0 76.2276 14.4436 1101 100.35 798.523 473.412
1325 0 80.4557 13.7467 1106 100.349 798.623 473.785
1326 0 83.296 13.7101 1142 102.819 798.561 469.111
1327 0 82.4743 12.4766 1029 105.348 798.447 468.435
1328 0 86.2117 13.5016 1164 102.133 798.338 469.125
1329 0 89.4577 13.4589 1204 103.321 798.021 467.635
1330 0 92.2948 13.6736 1262 102.512 798.456 464.597
1331 0 96.3126 14.401 1387 100.861 798.402 463.422
1332 0 98.2599 13.9324 1369 102.53 797.986 462.091
1333 0 99.3173 14.3681 1427 102.794 798.295 461.08
1334 0 101.398 13.4125 1360 104.419 799.093 457.775
1335 0 105.248 13.663 1438 104.375 798.416 454.157
1336 0 110.487 13.5491 1497 104.319 798.061 454.003
1337 0 112.418 13.8234 1554 104.311 797.934 451.031
1338 1 62.2185 11.6846 727 101.3 797.829 478.823
1339 0 62.2709 10.9682 683 104.504 798.649 477.811
1340 0 66.3457 13.49 895 98.0536 798.131 474.096
1341 0 67.088 11.3135 759 92.4914 797.862 476.452
1342 0 70.0863 13.3978 939 89.1715 798.17 475.244
1343 0 74.0923 12.9838 962 89.7204 797.392 474.085
1344 0 77.1439 12.548 968 90.6901 797.828 473.257
1345 0 78.1643 12.5889 984 91.4736 797.638 469.666
1346 0 82.2863 13.2586 1091 89.8506 796.758 469.565
1347 0 82.0759 11.136 914 95.6018 797.222 465.136
1348 0 86.1545 11.8276 1019 93.9863 797.21 466.129
1349 0 93.1346 12.2726 1143 92.6028 797.296 466.709
1350 0 90.301 11.2623 1017 95.8004 797.367 461.764
1351 0 94.3121 11.9603 1128 94.8723 797.341 462.134
1352 0 98.3794 13.6716 1345 91.8528 797.874 461.109
1353 0 101.261 13.9442 1412 94.6523 798.115 459.382
1354 0 104.367 12.5519 1310 98.4786 797.546 454.337
1355 0 109.463 13.2739 1453 97.3104 797.378 454.385
1356 0 112.325 13.5856 1526 97.7457 797.364 452.624
1357 0 114.516 13.6837 1567 99.4824 797.546 448.376
1358 0 119.362 14.2424 1700 97.9594 798.052 448.09
1359 0 122.221 13.1074 1602 100.363 796.685 449.715
1360 1 68.0812 12.676 863 100.699 797.804 479.891
1361 0 68.3792 12.3283 843 100.858 798.592 478.229
1362 0 69.3391 12.0855 838 104.138 798.62 475.1
1363 0 73.2441 13.257 971 100.751 799.247 475.581
1364 0 73.2475 11.8502 868 104.651 799.23 474.45
1365 0 76.139 11.9387 909 104.188 799.33 473.534
1366 0 79.2251 13.3796 1060 100.774 798.943 474.38
1367 0 85.1537 14.2801 1216 100.296 799.114 470.796
1368 0 87.1196 14.1415 1232 101.363 798.383 469.784
1369 0 87.206 12.2583 1069 104.774 798.5 470.488
1370 0 89.2345 13.7167 1224 103.815 798.095 465.309
1371 0 93.4152 13.1884 1232 104.26 798.618 466.461
1372 0 94.4368 13.1093 1238 104.99 798.691 463.506
1373 0 97.2915 13.7319 1336 104.939 798.048 458.357
1374 0 99.4132 13.3483 1327 106.329 798.647 456.256
1375 0 98.2367 12.6327 1241 103.019 798.757 458.285
1376 0 99.217 11.7419 1165 105.486 798.651 452.874
1377 1 51.1756 10.9232 559 101.513 797.742 476.569
1378 0 59.0886 13.6744 808 97.4864 797.505 482.053
1379 0 60.0978 13.9606 839 96.2837 797.315 481.801
1380 0 63.1353 14.1601 894 96.1443 797.944 481.238
1381 0 64.2024 12.4762 801 100.367 797.442 479.122
1382 0 66.0809 11.5162 761 103.114 797.311 477.242
1383 0 67.1526 13.1938 886 100.255 797.386 477.253
1384 0 70.0693 12.6732 888 101.608 797.271 475.833
1385 0 72.0625 13.6964 987 99.8744 797.999 474.884
1386 0 73.0319 12.296 898 104.218 797.559 474.627
1387 0 78.1038 13.0467 1019 102.774 797.002 473.381
1388 0 79.0904 12.6817 1003 103.969 796.985 470.6
1389 0 83.1902 13.5112 1124 102.069 796.943 471.014
1390 0 82.1266 11.9693 983 106.887 797.241 469.879
1391 0 84.1701 12.3797 1042 107.233 798.539 466.766
1392 0 88.1985 12.4719 1100 107.182 797.766 466.945
1393 0 90.1286 12.0273 1084 109.416 797.555 464.969
1394 0 93.1428 12.5936 1173 107.957 797.306 465.59
1395 0 96.2691 13.4311 1293 106.552 797.866 463.251
1396 0 98.2042 12.2194 1200 109.467 797.489 462.695
1397 0 102.427 12.7408 1305 109.451 797.812 458.81
1398 0 105.414 13.1102 1382 108.773 797.746 456.933
1399 0 109.512 12.8388 1406 108.976 798.043 457.17
1400 0 112.404 13.8607 1558 106.687 798.448 457.256
1401 0 113.35 11.3719 1289 105.901 797.015 447.018
1402 0 116.167 11.7762 1368 103.243 797.17 444.507
1403 1 64.0606 10.0686 645 91.7798 797.181 467.754
1404 0 66.1496 8.96454 593 93.3558 797.568 466.415
1405 0 68.0767 11.5458 786 88.8524 797.525 467.87
1406 0 69.2359 11.1647 773 91.5563 796.951 464.436
1407 0 73.169 9.7309 712 93.7964 797.572 461.369
1408 0 75.1118 10.2514 770 93.9701 796.762 460.112
1409 0 79.2551 10.0561 797 94.1857 797.538 460.04
1410 0 77.1291 8.50522 656 98.6784 797.162 455.152
1411 0 85.2992 10.2932 878 95.3257 797.112 456.968
1412 0 87.2139 12.8191 1118 93.4642 797.047 452.996
1413 0 92.1726 10.9902 1013 96.3692 797.9 454.563
1414 0 95.1171 10.6395 1012 96.4318 797.634 453.563
1415 0 97.1687 10.5693 1027 97.9426 797.6 451.872
1416 1 48.092 10.2512 493 88.1826 797.655 475.256
1417 0 51.0448 10.5202 537 94.9553 798.039 472.994
1418 0 52.1403 9.99228 521 87.9693 797.296 474.119
1419 0 55.0429 10.083 555 86.6486 797.818 475.769
1420 0 55.1121 10.1611 560 88.5732 798.014 472.12
1421 0 55.051 11.0625 609 87.2726 798.059 473.238
1422 0 58.056 8.45736 491 91.7638 798.035 468.794
1423 0 59.0794 9.81729 580 90.0983 797.541 470.038
1424 0 60.1295 10.361 623 88.2953 798.27 469.896
1425 0 65.1075 10.5057 684 88.5541 798.178 467.088
1426 0 70.0996 10.9701 769 87.9298 798.553 467.81
1427 0 63.0599 9.78435 617 92.3663 799.285 462.694
1428 0 69.0658 9.84569 680 92.1662 798.876 463.403
1429 0 76.0757 13.7495 1046 85.3145 799.246 466.794
1430 0 78.1122 11.7267 916 90.5742 799.016 462.615
1431 0 76.1202 11.0877 844 97.6848 799.182 459.48
1432 0 82.1493 12.2582 1007 94.4638 799.566 458.636
1433 0 84.0627 11.4914 966 96.0155 799.187 457.008
1434 0 84.0825 9.71665 817 99.9278 798.902 453.169
1435 0 91.1047 11.4813 1046 96.4436 798.687 451.453
1436 0 95.2612 12.1141 1154 100.518 797.927 459.293
1437 0 99.4184 12.5128 1244 99.3995 799.531 456.002
1438 0 105.283 13.5159 1423 97.4174 799.176 452.603
1439 1 60.1098 12.211 734 96.8215 800.038 477.74
1440 0 62.268 12.6871 790 93.3646 800.133 476.649
1441 0 62.1318 10.9123 678 97.4631 800.342 477.701
1442 0 64.1666 12.0468 773 94.9082 800.529 476.383
1443 0 67.0399 11.9332 800 101.868 800.854 475.782
1444 0 69.0509 11.9912 828 103.562 801.21 471.709
1445 0 70.153 12.5583 881 103.123 800.377 469.969
1446 0 71.1847 12.0953 861 104.279 800.945 469.015
1447 0 74.0997 11.9973 889 103.092 801.136 471.245
1448 0 76.0854 11.9997 913 103.515 801.135 468.716
1449 0 81.1068 12.5514 1018 101.578 800.708 468.157
1450 0 81.1056 12.3173 999 102.884 800.865 466.548
1451 0 86.1108 12.7742 1100 100.005 800.753 466.952
1452 0 88.0686 11.8657 1045 102.338 800.582 465.809
1453 0 89.1358 12.5651 1120 101.791 800.5 464.672
1454 0 92.1144 11.5291 1062 103.922 800.075 463.306
1455 1 53.0342 10.6346 564 97.6241 800.612 485.379
1456 0 53.0566 11.7987 626 90.9553 800.22 483.564
1457 0 54.1519 10.212 553 92.5841 800.546 484.347
1458 0 55.3732 11.4676 635 90.8614 800.476 482.115
1459 0 56.202 10.9427 615 92.7366 799.618 480.353
1460 0 60.2258 12.4697 751 89.5632 800.571 480.565
1461 0 61.2243 11.466 702 91.4729 800.312 478.764
1462 0 62.168 12.4662 775 90.4129 799.963 480.646
1463 0 66.1853 12.2384 810 90.221 799.796 478.215
1464 0 65.2118 10.7802 703 93.7781 800.556 479.084
1465 0 70.133 11.2928 792 92.9836 800.721 478.711
1466 0 71.2634 13.1203 935 90.3241 800.234 475.266
1467 0 73.2832 11.8308 867 92.7774 800.953 476.376
1468 0 76.2641 13.0074 992 92.1603 800.149 473.715
1469 0 79.1063 12.2114 966 94.411 801.643 473.188
1470 0 81.0981 13.9831 1134 91.9453 800.424 472.684
1471 0 84.1093 13.2922 1118 93.6699 800.325 468.598
1472 0 86.1369 13.9894 1205 93.1228 799.605 468.461
1473 0 90.165 13.0095 1173 95.6206 799.694 466.902
1474 0 92.1996 14.4035 1328 94.3464 799.149 467.613
1475 0 95.3384 13.5098 1288 99.4231 798.969 465.016
1476 0 99.4221 13.9104 1383 99.6406 798.79 461.3
1477 1 51.1679 9.84992 504 104.056 801.093 486.724
1478 0 52.1334 11.5857 604 103.854 800.641 482.911
1479 0 54.1205 12.7308 689 102.662 799.727 481.11
1480 0 56.0903 11.5528 648 104.73 800.608 483.343
1481 0 58.1349 12.0926 703 104.39 800.038 482.34
1482 0 60.0434 12.4743 749 104.801 800.02 481.869
1483 0 63.0394 12.9443 816 104.001 800.483 480.379
1484 0 62.0859 12.8048 795 105.421 800.265 481.864
1485 0 66.0542 12.9439 855 105.139 800.255 479.926
1486 0 67.0702 12.9864 871 106.49 799.603 479.544
1487 0 69.0622 12.6842 876 107.369 799.632 479.057
1488 0 69.095 13.1413 908 106.993 799.992 479.037
1489 0 71.0617 13.4812 958 107.264 799.479 475.573
1490 0 74.0512 14.0038 1037 105.432 799.632 477.203
1491 0 77.1398 13.2746 1024 107.791 799.565 475.016
1492 0 78.0529 13.5805 1060 108.695 799.744 473.925
1493 0 80.1509 14.56 1167 109.581 799.319 472.476
1494 0 81.3126 13.774 1120 112.91 799.234 475.321
1495 0 85.1481 13.87 1181 114.163 798.698 471.383
1496 0 84.1108 12.7451 1072 110.258 798.562 473.642
1497 0 87.1786 13.6501 1190 108.914 798.965 471.3
1498 0 91.1069 13.775 1255 110.646 798.992 470.365
1499 0 93.0818 13.3861 1246 111.988 798.663 470.807
1500 0 96.1754 14.0784 1354 112.041 799.072 466.699
1501 0 98.2755 11.8239 1162 118.111 798.823 467.115
1502 0 102.083 13.2246 1350 113.793 798.529 466.629
1503 1 57.1977 12.0809 691 116.48 797.438 485.357
1504 0 60.2437 12.6818 764 106.847 798.228 484.243
1505 0 59.1572 13.6923 810 103.246 799.277 485.072
1506 0 59.0554 11.9549 706 109.137 799.327 487.56
1507 0 60.0998 13.1115 788 109.009 799.448 484.669
1508 0 59.2249 12.2415 725 113.492 798.77 483.626
1509 0 58.088 12.1195 704 116.402 799.122 484.561
1510 0 60.2857 13.2536 799 116.393 798.622 483.257
1511 0 63.2489 12.6959 803 115.09 797.29 481.501
1512 0 65.2181 13.1405 857 111.508 797.435 481.392
1513 0 68.1752 13.3773 912 110.757 797.177 478.822
1514 0 70.2142 12.7182 893 111.224 797.232 478.746
1515 0 70.1854 12.9514 909 110.843 797.289 477.416
1516 0 75.2048 13.2305 995 107.82 797.925 476.293
1517 0 75.1868 13.0741 983 107.763 798.09 475.68
1518 0 77.2165 13.0542 1008 107.347 797.59 474.717
1519 0 80.2596 11.6746 937 110.171 797.906 475.459
1520 0 83.2407 12.9144 1075 109.375 797.175 471.855
1521 0 86.3099 12.7795 1103 110.125 797.491 472.412
1522 0 89.2164 13.9997 1249 108.488 797.145 469.941
1523 1 46.1658 11.9352 551 114.298 797.681 490.844
1524 0 46.263 11.975 554 106.177 797.002 488.706
1525 0 48.113 13.1357 632 103.391 796.551 490.522
1526 0 50.1357 12.9847 651 105.037 796.831 489.272
1527 0 49.1017 11.9344 586 109.311 796.384 489.532
1528 0 51.0993 13.4053 685 106.997 797.181 487.126
1529 0 53.2221 12.927 688 108.461 797.193 486.26
1530 0 54.2162 13.6122 738 107.954 797.377 486.103
1531 0 55.1356 13.0225 718 110.493 797.245 485.795
1532 0 57.2942 15.2895 876 106.243 797.313 483.913
1533 0 60.154 13.4488 809 111.561 796.82 482.691
1534 0 60.2452 14.0924 849 112.126 796.888 482.286
1535 0 61.1438 13.918 851 113.107 796.808 482.698
1536 0 62.2387 13.5607 844 115.419 796.353 482.671
1537 0 64.1676 14.4933 930 114.105 796.411 481.669
1538 0 65.2416 12.9672 846 118.557 796.566 481.442
1539 0 66.098 13.3589 883 119.294 797.215 479.581
1540 0 70.2009 13.4756 946 118.853 796.33 478.185
1541 0 74.1925 15.2846 1134 114.136 796.777 476.953
1542 0 76.1364 13.7254 1045 118.5 797.623 476.095
1543 0 78.0611 13.1564 1027 120.72 797.364 474.132
1544 0 82.1183 14.4426 1186 117.047 796.916 473.316
1545 0 83.097 12.5757 1045 123.189 796.626 472.518
1546 0 88.2545 13.9256 1229 118.586 797.98 470.797
1547 0 90.1385 15.332 1382 115.668 797.72 469.309
1548 0 93.2068 13.6256 1270 120.602 797.324 469.387
1549 0 96.1193 14.4092 1385 117.609 797.144 468.651
1550 1 52.2886 14.0948 737 120.887 796.988 487.787
1551 0 55.1931 14.0054 773 121.194 796.899 483.648
1552 0 57.2705 13.7243 786 120.738 796.901 484.317
1553 0 57.1354 15.0695 861 118.467 796.798 482.558
1554 0 60.3457 14.0689 849 120.436 796.276 481.683
1555 0 59.3188 12.4244 737 125.822 796.066 481.395
1556 0 63.1599 14.0754 889 120.004 796.614 482.957
1557 0 65.3205 14.1609 925 118.853 796.798 483.803
1558 0 67.3169 13.6816 921 120.047 796.405 482.676
1559 0 69.2944 13.421 930 120.743 796.727 479.13
1560 0 69.3156 11.7145 812 125.708 796.574 479.749
1561 0 73.27 13.7164 1005 120.07 796.479 478.381
1562 0 77.2582 14.2768 1103 117.471 795.999 476.731
1563 0 76.298 13.539 1033 120.274 796.192 473.011
1564 0 82.308 14.7009 1210 115.209 796.129 472.525
1565 0 83.1554 14.4308 1200 115.847 796.358 473.007
1566 0 87.2935 12.6584 1105 119.335 796.031 470.835
1567 0 87.1971 12.7871 1115 120.728 796.118 469.363
1568 0 92.1286 13.3075 1226 117.433 795.953 468.658
1569 0 96.2454 14.9618 1440 113.087 795.924 466.458
1570 0 96.2306 12.8338 1235 119.143 795.875 465.449
1571 0 100.182 12.0381 1206 120.157 795.83 463.891
1572 0 105.207 13.3451 1404 116.006 795.635 463.377
1573 0 107.146 13.0663 1400 117.271 794.774 460.976
1574 0 112.119 12.9594 1453 116.736 795.557 455.767
1575 1 62.2594 12.5122 779 112.354 796.474 482.345
1576 0 64.165 11.1587 716 107.453 795.147 477.501
1577 0 63.1218 11.4857 725 104.217 795.552 472.346
1578 0 65.2854 10.6456 695 107.751 794.911 471.099
1579 0 70.1823 12.0401 845 103.806 795.098 470.75
1580 0 72.2546 11.2519 813 106.08 795.145 470.472
1581 0 75.2331 11.7369 883 105.529 795.311 468.172
1582 0 78.372 11.4709 899 105.393 795.508 468.145
1583 0 80.1744 11.3004 906 107.096 795.606 467.669
1584 0 87.1249 11.4204 995 105.537 795.763 467.963
1585 0 90.1037 11.6865 1053 105.151 796.18 466.068
1586 0 91.4872 10.6463 974 109.008 796.125 461.297
1587 0 96.1641 10.5757 1017 110.65 795.608 459.103
1588 0 100.112 12.8555 1287 105.701 796.63 461.807
1589 0 103.236 11.9532 1234 108.464 795.939 454.772
1590 0 106.29 10.9041 1159 110.289 795.832 451.111
1591 0 112.282 12.0501 1353 107.731 795.494 453.706
1592 0 116.321 12.6546 1472 107.382 795.545 453.504
1593 1 64.1222 10.6515 683 102.007 795.697 477.081
1594 0 69.1101 12.4005 857 99.4924 795.937 478.037
1595 0 69.0605 12.3949 856 101.107 795.757 476.242
1596 0 70.0889 12.0561 845 102.772 796.243 473.02
1597 0 75.1382 11.0463 830 103.064 795.774 478.004
1598 0 77.1396 12.6653 977 106.06 795.671 475.212
1599 0 81.0815 12.8636 1043 105.004 796.047 474.864
1600 0 83.1011 13.5738 1128 103.901 796.628 474.317
1601 0 86.0863 13.0218 1121 106.09 795.801 473.418
1602 0 90.2677 13.3824 1208 107.225 795.267 469.797
1603 0 94.1177 12.0487 1134 109.731 795.656 468.396
1604 0 97.2513 13.2749 1291 108.262 795.928 466.58
1605 1 52.0508 10.7203 558 110.312 794.957 490.419
1606 0 54.2055 12.3973 672 107.275 795.64 488.841
1607 0 56.1145 13.2586 744 105.681 795.684 487.301
1608 0 57.1953 13.0955 749 107.36 794.968 484.805
1609 0 59.1521 13.9133 823 106.154 795.23 483.354
1610 0 62.1756 12.722 791 108.402 795.31 482.686
1611 0 64.1757 13.2605 851 105.568 795.063 483.569
1612 0 64.2157 12.894 828 109.274 795.499 481.17
1613 0 66.2135 13.0034 861 108.758 795.789 481.674
1614 0 70.2253 13.6988 962 106.674 795.385 479.561
1615 0 70.1976 14.8011 1039 105.67 794.925 476.927
1616 0 73.1374 13.7002 1002 107.247 794.754 478.221
1617 0 78.1615 13.9071 1087 105.036 794.848 475.742
1618 0 79.1181 14.51 1148 104.11 794.897 471.678
1619 0 81.1985 14.2367 1156 104.344 795.179 470.908
1620 0 85.1138 13.2059 1124 106.397 794.739 470.758
1621 0 88.1225 12.789 1127 107.331 795.062 467.343
1622 0 92.2079 13.372 1233 105.02 794.949 466.406
1623 0 93.2147 12.734 1187 107.448 795.231 466.238
1624 1 49.0706 11.6974 574 110.089 794.768 485.242
1625 0 53.1594 12.265 652 107.123 795.724 483.85
1626 0 55.2528 13.0672 722 105.231 795.571 483.591
1627 0 56.1598 12.322 692 105.851 796.464 480.701
1628 0 60.301 12.2884 741 107.65 796.194 485.39
1629 0 60.1758 13.1614 792 107.067 796.106 482.547
1630 0 63.2274 12.6369 799 107.27 796.081 482.6
1631 0 64.2241 12.5031 803 108.064 795.645 482.831
1632 0 66.2584 13.0248 863 106.256 795.51 480.13
1633 0 68.2527 12.2486 836 107.892 795.419 478.535
1634 0 71.2411 12.9981 926 105.713 795.485 479.059
1635 0 73.4771 13.1878 969 105.586 795.78 478.469
1636 0 75.4584 13.3849 1010 105.038 795.655 477.353
1637 0 75.3087 12.2429 922 108.721 795.433 475.384
1638 0 78.5501 13.1508 1033 107.157 795.206 473.781
1639 0 83.4864 13.4752 1125 105.74 795.156 472.454
1640 0 86.2929 14.8332 1280 103.526 795.787 471.136
1641 0 87.4473 13.8483 1211 107.286 795.089 468.689
1642 0 90.2882 13.9221 1257 106.805 795.011 469.98
1643 0 97.4177 15.5413 1514 102.736 794.637 465.959
1644 0 97.4996 14.6257 1426 106.294 795.189 460.64
1645 0 99.3739 14.2392 1415 106.987 794.844 459
1646 0 103.642 14.9939 1554 105.755 795.598 454.164
1647 0 106.51 14.3554 1529 106.921 794.973 456.384
1648 0 109.473 14.4511 1582 106.726 795.068 454.541
1649 1 58.2344 13.1366 765 97.6928 796.054 483.988
1650 0 61.4073 13.2395 813 102.993 795.716 482.023
1651 0 61.1771 13.2402 810 98.2518 795.399 476.595
1652 0 64.2851 12.709 817 98.7332 795.684 477.949
1653 0 66.2833 13.2764 880 97.9455 795.511 477.33
1654 0 68.2387 13.5407 924 97.9751 795.372 476.442
1655 0 71.181 14.133 1006 97.4622 795.207 476.058
1656 0 73.2717 12.4468 912 100.14 795.84 476.795
1657 0 76.3083 13.2882 1014 99.858 794.813 472.182
1658 0 80.2013 13.3414 1070 98.1019 794.242 474.907
1659 0 82.153 13.7548 1130 98.6363 795.063 473.932
1660 0 85.4812 15.0559 1287 96.488 795.375 470.059
1661 0 89.3372 14.8762 1329 97.2904 795.461 468.584
1662 0 91.3408 13.6631 1248 100.966 794.857 467.043
1663 0 93.343 14.2485 1330 100.362 795.304 466.832
1664 0 96.4761 15.0296 1450 99.5938 796.383 463.771
1665 0 98.3064 14.1191 1388 104.041 795.522 461.191
1666 0 101.394 14.4486 1465 104.152 795.956 459.279
1667 0 102.326 14.2192 1455 104.676 796.178 460.399
1668 0 106.293 15.0809 1603 103.466 796.432 457.044
1669 0 108.414 14.2694 1547 105.787 796.343 456.613
1670 0 111.266 15.9078 1770 103.364 796.586 455.247
1671 0 116.272 16.6593 1937 101.567 796.36 453.709
1672 0 120.373 15.2692 1838 104.437 796.064 450.516
1673 0 123.491 15.5477 1920 103.511 796.603 451.397
1674 0 128.287 14.9664 1920 105.982 796.07 448.655
1675 0 134.239 16.4632 2210 101.872 796.19 444.541
1676 1 74.2727 13.3696 993 100.568 796.065 474.778
1677 0 75.345 14.2013 1070 100.655 795.992 474.59
1678 0 80.3711 13.3506 1073 102.001 796.33 473.256
1679 0 82.275 14.0504 1156 102.528 795.847 473.145
1680 0 86.4212 14.1863 1226 102.25 796.378 470.226
1681 0 89.5297 14.4756 1296 101.67 795.95 470.009
1682 0 89.4291 14.6597 1311 102.822 796.521 467.284
1683 0 92.5132 14.0953 1304 104.898 796.077 465.778
1684 0 94.4648 13.3806 1264 107.098 796.102 463.435
1685 0 100.333 14.711 1476 104.098 795.808 461.69
1686 0 102.553 14.3438 1471 105.037 795.974 460.397
1687 0 105.374 15.1461 1596 104.711 795.697 458.199
1688 0 110.492 14.0824 1556 106.376 796.146 456.706
1689 0 114.712 14.8284 1701 104.885 795.623 453.51
1690 0 116.559 13.2808 1548 107.379 796.017 452.331
1691 1 62.473 12.4374 777 99.5959 796.457 478.219
1692 0 64.3244 12.437 800 98.8312 796.611 479.54
1693 0 67.445 13.789 930 99.6656 797.106 477.919
1694 0 69.5416 13.3301 927 101.297 796.37 474.973
1695 0 73.3843 12.6321 927 102.807 796.041 474.28
1696 0 75.609 13.6359 1031 102.046 796.742 472.294
1697 0 78.6938 13.9782 1100 101.249 796.276 471.28
1698 0 79.3762 12.8376 1019 103.891 796.592 470.531
1699 0 84.5992 13.6171 1152 102.804 796.69 467.673
1700 0 86.4761 13.0094 1125 104.437 796.96 467.609
1701 0 89.6146 12.4645 1117 106.15 796.835 465.122
1702 0 92.6639 13.1011 1214 105.528 796.335 464.071
1703 0 94.6819 12.8958 1221 107.09 796.665 462.474
1704 0 98.5031 13.2686 1307 105.275 797.016 463.396
1705 0 101.566 13.7841 1400 102.345 796.68 459.523
1706 0 104.907 13.8695 1455 102.974 796.553 457.115
1707 0 107.691 12.4802 1344 105.733 796.209 453.688
1708 0 112.686 13.7728 1552 104.083 796.51 453.126
1709 0 116.5 13.5966 1584 104.09 796.725 452.083
1710 0 121.617 14.2414 1732 104.048 796.055 447.421
1711 1 63.6894 12.0114 765 99.119 796.446 477.705
1712 0 66.4553 11.7824 783 100.192 796.488 479.02
1713 0 68.5316 13.4974 925 96.6832 797.186 478.708
1714 0 71.4487 12.8764 920 98.463 796.634 473.754
1715 0 74.4882 12.1899 908 98.9383 796.972 474.698
1716 0 77.4958 13.9362 1080 97.1009 796.053 472.579
1717 0 79.554 12.4067 987 100.417 796.172 471.661
1718 0 82.3028 13.426 1105 99.0679 796.078 469.539
1719 0 85.2914 13.0259 1111 100.331 796.188 467.779
1720 0 90.4888 14.5653 1318 96.8156 795.983 466.898
1721 0 89.5522 12.864 1152 102.123 795.936 463.074
1722 0 93.4448 13.8799 1297 100.945 796.034 463.353
1723 0 97.3198 13.9129 1354 99.7917 796.159 464.818
1724 0 99.4222 12.3916 1232 104.158 796.252 462.055
1725 0 103.299 13.4174 1386 102.247 795.955 461.124
1726 0 105.566 13.0535 1378 104.185 795.728 458.218
1727 0 112.446 13.8555 1558 102.466 795.939 456.879
1728 0 113.51 12.5011 1419 108.277 795.246 452.613
1729 0 119.495 14.4943 1732 102.829 795.964 452.409
1730 1 63.315 10.6452 674 99.1454 795.724 479.49
1731 0 64.3593 12.4147 799 97.6821 795.83 478.926
1732 0 65.1944 11.3814 742 101.381 796.563 478.95
1733 0 68.5994 11.6619 800 101.779 796.779 476.246
1734 0 68.2197 11.3017 771 104.68 796.099 474.817
1735 0 73.4823 12.0437 885 103.559 796.158 472.655
1736 0 74.5439 11.832 882 105.132 795.914 472.142
1737 0 76.4308 11.8931 909 106.107 796.169 471.189
1738 0 80.629 13.1838 1063 104.163 795.53 469.698
1739 0 83.5674 13.1152 1096 104.409 795.586 469.833
1740 0 84.5975 12.0571 1020 107.894 795.615 467.192
1741 0 87.6062 12.3621 1083 107.701 795.889 467.23
1742 0 90.5314 12.2168 1106 108.981 796.293 464.407
1743 0 93.619 10.8739 1018 111.352 796.64 463.943
1744 0 96.5299 12.1413 1172 108.887 796.036 462.521
1745 0 100.409 13.0864 1314 106.907 796.028 461.069
1746 0 103.581 13.6704 1416 104.833 796.623 460.601
1747 0 108.516 13.2792 1441 106.041 796.058 456.638
1748 1 59.09 8.91861 527 99.3738 797.108 484.681
1749 0 60.1873 10.5504 635 97.8661 796.573 479.935
1750 0 61.2261 9.55474 585 103.814 796.063 471.265
1751 0 62.3205 11.1681 696 100.659 796.027 472.795
1752 0 65.2857 10.9519 715 99.5804 795.52 471.582
1753 0 69.1588 12.117 838 97.1384 795.93 473.347
1754 0 70.3677 11.1131 782 100.944 795.804 469.835
1755 0 73.3941 10.8047 793 101.547 795.207 470.594
1756 0 76.2819 11.4051 870 100.832 795.158 470.178
1757 0 78.2249 12.6686 991 100.804 794.956 470.631
1758 0 80.2563 11.5754 929 103.752 794.688 469.379
1759 0 85.3248 11.4504 977 104.101 794.651 467.405
1760 0 87.2369 12.6437 1103 103.899 795.642 468.252
1761 0 89.3293 12.4707 1114 106.614 795.945 464.491
1762 0 90.4559 13.0671 1182 105.981 795.305 463.206
1763 0 95.4542 12.5505 1198 106.351 794.518 462.758
1764 0 97.3274 12.2679 1194 107.642 795.371 464.075
1765 0 103.298 13.766 1422 104.469 795.662 458.898
1766 0 106.566 13.0905 1395 106.746 795.467 458.71
1767 0 107.557 12.5887 1354 110.469 795.238 448.863
1768 1 62.3066 10.7212 668 106.969 794.835 480.088
1769 0 63.1565 12.5244 791 107.516 795.611 478.631
1770 0 64.2005 11.9469 767 110.857 796.737 478.794
1771 0 67.2723 11.9366 803 110.574 797.159 479.159
1772 0 68.1424 11.8135 805 111.309 797.24 476.806
1773 0 73.3299 12.6279 926 107.34 796.586 475.516
1774 0 75.2653 12.5423 944 108.001 796.622 474.217
1775 0 77.2689 12.6312 976 108.934 796.013 473.46
1776 0 77.2373 11.989 926 111.058 796.273 472.026
1777 0 80.3837 12.1791 979 110.577 796.456 471.345
1778 0 83.2158 13.507 1124 108.524 796.281 468.924
1779 0 85.3145 12.4246 1060 110.164 796.514 468.501
1780 0 90.3265 13.9826 1263 104.975 796.854 468.288
1781 0 94.353 13.4495 1269 106.738 796.103 463.28
1782 0 95.4323 12.1657 1161 109.852 796.817 464.67
1783 0 97.263 12.9032 1255 110.077 795.918 461.485
1784 0 101.31 12.1804 1234 105.427 795.482 462.709
1785 0 104.363 13.7884 1439 102.19 796.066 459.631
1786 0 107.367 11.7448 1261 104.9 795.243 460.541
1787 0 112.273 12.6656 1422 98.4676 795.65 454.775
1788 1 61.1014 10.6708 652 93.6135 794.584 480.459
1789 0 62.1913 10.9983 684 92.6696 795.063 479.164
1790 0 65.1244 10.9483 713 92.3058 795.294 480.086
1791 0 67.1552 12.0616 810 89.2642 794.973 479.206
1792 0 68.1609 12.5145 853 89.7198 794.719 476.317
1793 0 72.1037 12.9813 936 86.7147 794.685 477.319
1794 0 71.0915 11.5626 822 89.4659 794.962 475.142
1795 0 75.1945 11.3705 855 89.7146 794.628 474.405
1796 0 78.2866 11.3813 891 90.6162 794.745 472.95
1797 0 80.1135 12.7943 1025 87.8156 795.159 474.4
1798 0 82.2605 12.7643 1050 89.999 794.839 470.544
1799 0 83.239 11.2567 937 92.0747 795.33 470.857
1800 0 87.2432 12.0353 1050 90.8238 795.443 469.187
1801 0 90.1257 11.7835 1062 91.194 796.059 468.084
1802 0 93.1246 12.3383 1149 90.5074 795.157 461.99
1803 0 96.1105 12.3608 1188 90.5034 795.196 465.643
1804 0 99.2805 12.933 1284 90.3925 795.417 461.811
1805 0 102.101 12.4583 1272 90.3294 795.822 460.142
1806 0 105.293 12.9828 1367 90.5786 795.093 456.072
1807 0 108.38 12.5115 1356 91.8326 794.899 455.585
1808 1 61.1126 13.4669 823 87.2309 795.498 481.16
1809 0 62.0338 11.397 707 90.6818 795.754 481.008
1810 0 65.2612 10.3431 675 92.4207 795.233 474.505
1811 0 67.052 12.4829 837 98.9749 794.742 479.2
1812 0 70.133 12.8042 898 98.7194 795.064 477.518
1813 0 71.1014 12.7564 907 98.9824 795.112 475.88
1814 0 76.0778 13.6702 1040 96.5548 794.555 473.208
1815 0 77.1198 12.1888 940 100.93 794.488 472.206
1816 0 80.0281 13.9576 1117 97.5309 794.27 471.109
1817 0 83.1296 13.7496 1143 98 794.561 469.502
1818 0 84.074 13.274 1116 99.3987 794.732 470.424
1819 0 88.145 13.3076 1173 99.1142 794.25 468.176
1820 0 88.062 12.3549 1088 102.586 793.96 462.246
1821 0 92.1717 12.0536 1111 102.412 793.662 461.797
1822 0 97.136 13.4657 1308 98.302 794.129 460.799
1823 0 99.1368 13.1838 1307 100.379 794.324 455.351
1824 0 105.156 12.7334 1339 99.7483 794.536 458.002
1825 1 58.0886 10.9488 636 97.327 793.788 481.417
1826 0 59.1288 11.7878 697 95.4921 796.626 482.901
1827 0 61.0344 12.5995 769 93.7594 797.027 480.836
1828 0 63.112 12.866 812 92.8805 794.796 476.34
1829 0 67.1638 12.7003 853 92.7374 794.586 474.645
1830 0 67.0936 12.7583 856 93.0117 795.029 474.835
1831 0 68.12 11.2595 767 95.9778 794.687 474.265
1832 0 72.087 12.6375 911 93.0143 794.694 470.488
1833 0 72.1358 11.3397 818 95.9743 795.358 470.966
1834 0 76.0817 13.2489 1008 92.4514 795.146 468.706
1835 0 79.1781 13.1223 1039 91.9615 794.708 471.218
1836 0 80.0727 13.1006 1049 92.96 794.342 467.584
1837 0 83.0708 13.5306 1124 92.3683 794.638 467.902
1838 0 87.1033 12.7665 1112 93.1421 794.648 466.78
1839 0 90.1551 12.5118 1128 92.6427 794.028 463.469
1840 0 92.1041 13.615 1254 91.1547 794.073 463.108
1841 0 96.1314 11.7027 1125 93.9964 793.936 462.054
1842 0 101.178 12.9277 1308 91.9694 794.357 458.719
1843 0 102.171 12.6748 1295 93.4803 794.124 458.007
1844 1 55.085 10.2932 567 96.0317 794.367 483.72
1845 0 57.0798 11.1949 639 92.9343 794.344 481.856
1846 0 58.1174 9.87656 574 93.2596 794.378 484.319
1847 0 60.1228 11.8424 712 89.4073 794.517 481.265
1848 0 63.1552 13.3956 846 85.9326 794.983 481.941
1849 0 65.3232 11.512 752 89.9043 794.52 479.243
1850 0 67.1432 11.6468 782 89.5691 794.409 477.611
1851 0 67.1403 11.1855 751 91.1318 793.965 477.843
1852 0 70.163 11.3023 793 91.2169 793.72 475.117
1853 0 72.2022 12.2711 886 90.2912 794.352 474.306
1854 0 75.227 12.0037 903 89.8882 794.447 473.611
1855 0 76.5019 11.4768 878 91.6595 794.978 471.475
1856 0 78.4003 12.1301 951 90.2713 795.398 471.591
1857 0 80.4045 11.6411 936 91.8643 794.924 470.442
1858 0 84.5605 11.8022 998 91.5321 794.764 465.57
1859 0 87.0173 13.3766 1164 89.5043 794.847 464.096
1860 0 90.8081 13.3909 1216 89.463 795.044 463.873
1861 0 92.6585 13.0371 1208 89.8924 795.322 461.078
1862 0 93.1137 8.7957 819 93.6007 796.015 463.114
1863 0 97.168 10.3738 1008 92.5089 795.541 460.476
1864 0 100.142 11.8631 1188 90.1894 795.689 459.045
1865 0 102.141 10.6813 1091 93.5875 795.908 456.116
1866 0 107.235 11.7126 1256 92.9666 795.67 454.452
1867 0 109.308 10.3378 1130 95.9549 795.745 456.049
1868 1 59.0974 8.17294 483 94.0021 795.754 479.445
1869 0 62.5419 10.9207 683 95.0439 795.512 474.98
1870 0 63.2225 10.471 662 92.1269 796.639 473.281
1871 0 65.3131 11.4372 747 90.9317 796.782 475.418
1872 0 68.2001 10.5425 719 91.7079 797.015 476
1873 0 70.0862 12.6986 890 88.9528 796.234 475.431
1874 0 73.2435 12.2741 899 90.119 796.271 474.526
1875 0 75.2982 11.8595 893 90.7973 796.522 473.268
1876 0 78.2035 12.1862 953 89.2183 796.823 474.052
1877 0 77.1965 12.0213 928 91.0916 797.679 468.263
1878 0 82.4122 11.1998 923 91.415 798.214 468.315
1879 0 85.3927 12.7529 1089 89.9752 797.053 467.255
1880 0 87.356 12.3747 1081 91.5957 796.437 466.332
1881 0 90.38 11.4959 1039 94.9884 796.605 463.527
1882 0 94.3417 12.2427 1155 96.4173 796.339 460.919
1883 0 97.3261 12.792 1245 96.163 795.986 460.239
1884 0 102.256 12.635 1292 93.483 796.115 460.909
1885 1 56.2653 10.5038 591 90.5432 796.548 482.205
1886 0 59.1251 10.8076 639 89.3521 796.18 485.103
1887 0 61.0729 12.5424 766 87.1671 796.88 480.99
1888 0 62.1026 12.0446 748 88.6297 797.076 481.483
1889 0 62.1373 9.55948 594 93.2306 796.456 480.497
1890 0 66.2056 11.3737 753 90.1315 796.839 479.287
1891 0 65.3603 10.8017 706 92.33 797.136 476.507
1892 0 71.1515 12.6772 902 88.6563 797.564 475.533
1893 0 72.173 12.2345 883 89.9502 796.711 475.027
1894 0 75.1663 13.3038 1000 87.905 796.833 474.671
1895 0 75.3123 10.6888 805 93.3106 796.368 471.236
1896 0 74.2333 10.467 777 94.9858 796.798 467.919
1897 0 79.1968 12.2606 971 92.2163 797.052 469.549
1898 0 81.3742 11.1583 908 94.1476 796.972 465.803
1899 0 83.4367 12.3447 1030 93.335 796.242 465.372
1900 0 86.3653 11.9145 1029 94.7114 796.306 463.129
1901 0 90.4153 12.3209 1114 95.8636 796.694 462.595
1902 0 92.4994 10.9082 1009 100.32 797.257 462.338
1903 0 96.5149 11.7495 1134 98.5441 796.388 461.678
1904 0 97.5114 12.0499 1175 98.4008 796.32 461.386
1905 0 102.556 12.5493 1287 98.0412 796.726 457.36
1906 0 104.409 12.3744 1292 98.9079 796.43 456.507
1907 1 60.0874 10.0021 601 94.3112 796.086 480.439
1908 0 61.3661 10.8692 667 93.6882 794.537 478.457
1909 0 63.135 11.7843 744 98.6882 795.341 479.648
1910 0 62.1577 12.0661 750 99.8453 797.884 476.135
1911 0 66.1445 12.5785 832 98.4507 797.067 476.097
1912 0 66.1977 11.5261 763 100.893 797.372 474.379
1913 0 66.1282 10.7821 713 102.986 797.091 473.073
1914 0 71.2688 12.7686 910 96.7923 798.063 474.677
1915 0 71.1496 12.045 857 100.055 798.108 469.753
1916 0 74.1748 13.5895 1008 97.8145 797.713 470.284
1917 0 76.1632 12.1975 929 100.436 797.78 470.593
1918 0 78.1778 13.7379 1074 97.838 797.614 470.162
1919 0 82.1991 12.9442 1064 99.9032 797.565 466.445
1920 0 82.1482 13.3296 1095 100.025 796.889 464.615
1921 0 85.2283 13.2937 1133 100.461 796.987 461.7
1922 0 86.1262 12.2959 1059 103.613 796.814 464.557
1923 0 89.1415 12.2951 1096 103.156 796.592 462.77
1924 0 94.3126 13.3174 1256 99.449 795.493 463.879
1925 1 55.3422 10.9681 607 101.565 795.074 480.952
1926 0 58.254 12.2395 713 101.203 795.29 478.452
1927 0 55.2776 10.1307 560 100.205 796.338 472.514
1928 0 54.1677 10.3752 562 102.004 793.934 473.178
1929 0 59.1017 11.421 675 97.9615 794.707 481.477
1930 0 63.1523 12.2086 771 96.1064 794.198 481.152
1931 0 64.0813 12.4217 796 97.2563 794.347 479.059
1932 0 66.1271 12.4608 824 97.2415 794.028 477.459
1933 0 69.1282 11.3412 784 101.565 793.796 475.952
1934 0 72.1058 12.232 882 99.9286 793.863 475.132
1935 0 74.118 11.9539 886 101.19 793.944 474.186
1936 0 75.078 12.0808 907 100.557 793.703 472.84
1937 0 76.0938 10.8419 825 103.358 793.64 471.301
1938 0 77.1407 11.7318 905 102.448 794.299 468.453
1939 0 82.0853 13.1449 1079 98.5894 794.699 471.022
1940 0 82.1085 11.3387 931 102.937 794.22 470.058
1941 0 85.1113 12.2663 1044 101.463 794.088 466.53
1942 0 88.171 11.5004 1014 96.3324 794.923 468.599
1943 0 91.1598 10.86 990 96.3566 794.91 469.892
1944 0 93.1546 12.3343 1149 95.4517 794.316 461.84
1945 0 97.1781 12.5131 1216 94.6801 793.918 461.873
1946 0 100.242 12.1008 1213 95.4378 794.716 458.139
1947 0 102.132 12.0139 1227 95.6349 795.469 457.224
1948 0 104.237 12.3276 1285 96.6451 795.32 453.946
1949 0 106.166 11.5197 1223 98.1693 795.212 454.46
1950 0 110.286 11.1619 1231 99.0357 794.422 454.368
1951 0 114.333 12.2537 1401 98.7709 794.562 450.488
1952 0 116.157 13.2665 1541 97.3855 795.652 449.383
1953 0 119.198 12.7352 1518 99.1963 794.856 447.762
1954 0 123.199 11.8751 1463 101.282 795.135 447.054
1955 0 127.278 13.1838 1678 100.481 794.927 441.819
1956 0 131.141 12.5666 1648 102.377 795.096 441.339
1957 0 135.175 12.8648 1739 102.367 794.823 440.405
1958 0 138.25 12.6654 1751 104.186 795.079 437.021
1959 0 143.365 13.0157 1866 103.749 794.998 436.006
1960 0 147.382 13.292 1959 103.89 795.119 433.703
1961 0 152.266 12.4782 1900 107.995 795.042 431.737
1962 0 160.358 13.0708 2096 107.576 794.457 425.782
1963 0 166.368 14.8046 2463 104.743 794.558 427.03
1964 0 171.2 14.1064 2415 108.552 794.393 425.092
1965 1 102.166 13.1355 1342 102.206 793.683 462.509
1966 0 101.248 11.862 1201 106.016 796.107 461.232
1967 0 105.228 12.8008 1347 105.156 794.179 458.024
1968 0 107.08 12.1591 1302 107.832 793.522 453.95
1969 0 113.403 12.3365 1399 106.555 796.485 453.878
1970 0 116.181 11.7403 1364 107.544 794.65 451.823
1971 0 122.2 12.3323 1507 105.265 794.086 452.123
1972 1 69.2537 12.8946 893 100.46 796.232 474.001
1973 0 70.1762 10.8869 764 93.767 796.294 473.503
1974 0 75.217 13.3746 1006 92.7306 794.67 474.548
1975 0 75.1619 12.054 906 95.7174 794.661 474.3
1976 0 77.2162 11.5131 889 98.0799 794.177 472.614
1977 0 81.1015 11.7137 950 98.56 793.741 470.493
1978 0 83.1902 12.8501 1069 96.6202 794.693 469.228
1979 0 87.3345 12.0914 1056 98.8248 794.585 468.955
1980 0 87.2534 12.2517 1069 100.365 794.029 466.637
1981 0 91.2919 12.6298 1153 99.5698 794.076 466.784
1982 0 96.1956 13.0775 1258 99.2321 794.375 464.261
1983 0 98.1881 12.6594 1243 99.8512 794.433 462.322
1984 0 101.173 12.3254 1247 99.3055 794.131 463.074
1985 1 60.1754 12.3971 746 101.284 793.483 480.615
1986 0 60.2713 12.0455 726 99.1322 794.366 480.54
1987 0 62.1107 11.6405 723 99.6017 793.805 481.508
1988 0 64.0671 13.7824 883 96.214 793.798 480.943
1989 0 66.0885 12.8464 849 101.491 793.967 478.923
1990 0 68.1148 13.0955 892 101.567 794.649 476.556
1991 0 70.0771 12.3864 868 100.482 793.583 477.635
1992 0 71.0489 13.4837 958 98.5063 793.69 474.993
1993 0 75.0312 14.0608 1055 99.3299 793.582 474.23
1994 0 77.059 13.3015 1025 103.096 794.171 472.14
1995 0 79.0869 12.9478 1024 104.399 794.12 472.753
1996 0 83.1615 13.0229 1083 105.457 794.233 468.94
1997 0 87.0567 13.474 1173 104.795 794.02 466.939
1998 0 89.126 13.4304 1197 105.362 794.565 468.124
1999 0 92.0814 13.4555 1239 107.634 794.278 465.981
2000 0 95.1204 13.8772 1320 107.09 794.838 465.527
2001 1 51.1174 10.9747 561 110.447 794.392 485.993
2002 0 55.0591 12.6228 695 106.547 794.758 484.822
2003 0 56.1711 12.0881 679 99.7437 796.922 480.3
2004 0 55.2832 11.7034 647 93.0031 795.904 476.652
2005 0 55.2142 12.5511 693 92.8658 795.528 474.752
2006 0 55.1339 11.4811 633 96.7014 795.452 472.491
2007 0 55.229 10.4112 575 99.2209 795.663 470.381
2008 0 61.0694 11.4133 697 97.0947 795.776 471.321
2009 0 62.0913 10.9355 679 99.0339 795.614 469.554
2010 0 64.0665 11.4725 735 98.8381 795.28 467.786
2011 0 68.0537 13.0338 887 94.7407 795.915 470.666
2012 0 69.1464 12.7266 880 96.7534 795.035 467.802
2013 0 72.1447 12.7244 918 97.122 795.053 466.319
2014 0 71.0963 10.3803 738 102.6 794.524 464.409
2015 0 75.1701 13.6224 1024 96.083 794.369 462.937
2016 0 77.1183 13.1616 1015 97.6483 794.63 462.241
2017 0 81.2315 12.409 1008 99.1974 795.05 459.862
2018 0 84.1859 12.0448 1014 99.9832 794.784 461.396
2019 0 88.1423 12.7975 1128 98.8493 794.895 458.374
2020 0 94.1593 12.4788 1175 99.0323 794.752 457.289
2021 0 97.158 13.1332 1276 97.9459 795.487 456.598
2022 1 53.092 10.6231 564 95.2092 796.298 478.213
2023 0 55.0903 10.6552 587 96.0801 795.112 480.584
2024 0 56.2422 11.4683 645 96.6388 794.922 479.895
2025 0 59.0743 11.2739 666 95.8904 794.788 481.314
2026 0 60.1007 11.3144 680 98.4088 795.224 478.024
2027 0 65.1436 13.1249 855 100.067 795.676 481.711
2028 0 65.129 12.7746 832 102.138 795.347 479.423
2029 0 68.1906 11.7758 803 95.8705 795.648 474.998
2030 0 70.215 11.7496 825 95.9855 795.691 474.383
2031 0 72.2274 12.7237 919 94.7247 795.941 471.81
2032 0 74.3021 12.5434 932 94.8401 795.775 470.267
2033 0 73.1534 11.3187 828 97.6981 795.732 468.292
2034 0 78.1849 11.524 901 96.5949 796.164 468.506
2035 0 84.2952 12.7884 1078 95.1095 796.052 469.082
2036 0 87.2531 13.2603 1157 95.1806 795.524 468.69
2037 0 87.2939 11.994 1047 97.8414 795.244 466.252
2038 0 88.1746 11.5226 1016 99.1693 795.384 465.206
2039 0 92.1264 13.3621 1231 96.3388 795.757 461.673
2040 0 95.1416 14.5362 1383 94.128 796.442 465.128
2041 0 99.249 13.4812 1338 97.63 796.496 463.084
2042 0 102.417 13.5427 1387 99.1954 796.011 458.702
2043 0 104.323 12.8927 1345 103.118 796.546 457.729
2044 0 106.182 12.7988 1359 107.976 796.274 454.596
2045 0 112.225 12.9739 1456 107.977 795.773 454.249
2046 0 115.266 13.6467 1573 106.072 795.953 452.975
2047 0 118.161 13.2615 1567 107.586 795.501 453.565
2048 0 122.296 13.0667 1598 109.291 795.753 449.678
2049 1 66.0928 10.107 668 101.228 796.002 479.822
2050 0 67.2493 11.9555 804 100.563 795.524 476.198
2051 0 68.3129 10.1299 692 105.065 795.643 474.876
2052 0 74.2785 12.5608 933 99.7331 794.864 474.609
2053 0 74.4111 10.9795 817 103.803 795.415 471.311
2054 0 78.1813 11.8826 929 103.803 795.038 472.065
2055 0 79.2528 11.8355 938 105.523 794.91 471.22
2056 0 82.2263 13.1831 1084 104.477 795.109 469.452
2057 0 85.2504 13.0205 1110 105.705 795.808 466.135
2058 0 87.3018 12.3365 1077 108.264 795.117 464.928
2059 0 90.4721 13.0869 1184 107.672 795.482 465.413
2060 0 95.4161 12.8595 1227 107.834 795.119 463.97
2061 0 94.4383 12.1984 1152 111.801 794.867 460.701
2062 0 98.3258 12.5298 1232 111.819 795.256 460.3
2063 0 102.335 14.003 1433 108.184 795.652 462
2064 0 105.392 14.1472 1491 109.525 795.527 457.804
2065 0 109.299 14.7119 1608 109.25 795.238 455.305
2066 0 113.391 14.1193 1601 110.774 795.308 455.383
2067 0 116.291 13.5264 1573 111.846 795.292 453.77
2068 0 118.353 13.595 1609 112.635 795.193 449.907
2069 1 63.2012 10.8068 683 106.688 795.596 479.023
2070 0 68.302 12.679 866 101.796 795.298 479.33
2071 0 69.3147 13.2295 917 103.776 795.286 476.594
2072 0 70.0351 12.3367 864 103.045 795.413 474.983
2073 0 73.1218 12.0484 881 104.72 794.289 476.73
2074 0 77.1223 12.9405 998 102.534 794.151 475.536
2075 0 80.1541 12.4011 994 103.358 794.938 473.363
2076 0 83.2646 13.6312 1135 101.278 794.867 473.263
2077 0 86.0705 12.8732 1108 104.038 794.284 471.682
2078 0 88.1314 12.3792 1091 105.534 793.994 472.027
2079 0 89.1658 11.7646 1049 108.581 794.338 467.468
2080 0 94.231 12.6498 1192 106.583 794.373 466.691
2081 0 97.2325 13.6477 1327 105.03 794.674 465.535
2082 0 99.2013 12.7821 1268 109.562 794.141 463.262
2083 0 101.275 13.2807 1345 109.505 795.497 458.221
2084 0 107.331 11.3761 1221 111.993 795.488 457.796
2085 0 108.279 12.4493 1348 110.035 795.648 454.237
2086 1 61.1572 10.7428 657 107.014 795.845 477.849
2087 0 63.1474 11.6394 735 105.529 796.589 477.827
2088 0 64.0976 12.6214 809 104.438 796.146 479.21
2089 0 68.0526 12.7401 867 107.859 793.95 480.836
2090 0 69.0915 13.3591 923 106.002 793.261 478.028
2091 0 69.0901 13.2291 914 104.078 794.218 479.168
2092 0 73.0698 12.2896 898 106.097 793.902 473.723
2093 0 74.1112 13.0075 964 105.257 793.218 475.028
2094 0 77.072 12.6505 975 105.528 792.857 474.908
2095 0 80.3783 13.2623 1066 104.805 793.92 474.674
2096 0 81.254 13.6486 1109 105.821 793.921 471.871
2097 0 84.2284 12.5967 1061 108.439 793.644 472.051
2098 0 85.2521 13.0437 1112 109.077 793.721 468.538
2099 0 88.0973 13.4056 1181 107.973 793.671 469.112
2100 0 93.2227 14.0095 1306 106.613 793.978 467.551
2101 0 93.0956 13.3841 1246 110.052 793.947 466.071
2102 0 99.1322 14.1528 1403 107.716 794.024 465.388
2103 0 101.232 13.9185 1409 109.742 794.625 462.336
2104 0 102.136 13.4918 1378 111.59 794.82 461.713
2105 0 104.222 12.4925 1302 113.51 794.515 462.136
2106 0 108.222 13.5554 1467 112.059 794.052 459.389
2107 0 111.13 13.0748 1453 113.977 793.902 457.096
2108 1 63.0517 12.688 800 109.599 794.054 482.608
2109 0 66.2167 13.7277 909 104.872 793.964 480.13
2110 0 68.1676 13.3495 910 106.916 793.841 480.387
2111 0 70.1191 13.2774 931 107.378 793.882 480.42
2112 0 73.2899 12.703 931 108.362 793.602 479.179
2113 0 74.1722 13.2395 982 108.578 793.613 476.163
2114 0 75.1602 14.1165 1061 107.129 794.068 476.44
2115 0 76.1212 13.242 1008 105.667 794.412 468.011
2116 0 79.0687 12.3943 980 107.72 794.209 468.064
2117 0 81.202 12.5859 1022 109.212 794.739 466.318
2118 0 84.068 13.275 1116 107.685 794.715 466.618
2119 0 87.1402 13.9545 1216 107.257 794.816 464.477
2120 0 91.2183 12.5962 1149 110.802 794.516 462.11
2121 0 92.1354 13.046 1202 107.462 795.268 460.888
2122 0 96.1169 12.5576 1207 108.065 795.348 460.192
2123 0 98.0792 13.3056 1305 107.908 794.764 459.868
2124 0 102.252 12.9092 1320 109.603 794.56 459.84
2125 0 107.412 14.0395 1508 107.174 795.357 458.837
2126 0 109.206 14.642 1599 107.093 794.493 454.412
2127 0 115.187 15.0278 1731 106.411 794.958 456.378
2128 1 62.2612 12.1103 754 104.133 795.208 482.809
2129 0 64.0849 13.7162 879 102.366 794.745 480.878
2130 0 67.1088 11.7272 787 105.342 794.755 479.051
2131 0 70.3642 12.9896 914 102.947 794.091 478.63
2132 0 70.0674 12.0027 841 104.905 794.757 479.032
2133 0 72.0703 12.0577 869 105.322 794.511 477.443
2134 0 76.2024 13.8185 1053 101.045 795.344 474.91
2135 0 78.0753 12.9875 1014 103.34 794.919 475.547
2136 0 79.2013 13.27 1051 103.478 794.695 473.505
2137 0 83.1052 13.3566 1110 103.072 794.856 473.681
2138 0 83.1345 13.3519 1110 104.454 794.544 472.638
2139 0 88.2036 14.2398 1256 101.998 794.145 471.453
2140 0 91.1411 14.1868 1293 102.62 794.07 471.526
2141 0 93.1385 13.9255 1297 103.183 794.656 467.333
2142 0 96.1494 13.583 1306 103.679 794.1 466.031
2143 0 99.138 13.9906 1387 102.118 794.51 467.588
2144 0 102.174 14.3285 1464 103.122 794.23 462.217
2145 1 53.1292 12.0838 642 105.498 794.215 489.069
2146 0 54.2897 13.7227 745 103.674 795.011 487.662
2147 0 56.1799 13.4924 758 108.348 794.832 485.737
2148 0 56.1029 13.7248 770 115.755 794.969 484.14
2149 0 59.0562 14.5116 857 113.971 794.512 482.741
2150 0 63.1364 14.3024 903 112.425 794.796 483.606
2151 0 62.2944 13.4844 840 115.812 794.307 481.026
2152 0 65.3327 14.694 960 112.415 793.971 481.026
2153 0 66.203 14.5613 964 113.663 793.871 479.638
2154 0 70.2321 14.2243 999 113.137 794.719 478.862
2155 0 71.2627 14.1589 1009 114.584 794.381 477.677
2156 0 72.2158 14.6644 1059 114.332 794.666 475.556
2157 0 76.2119 14.5646 1110 115.954 794.136 474.935
2158 0 77.1112 14.7709 1139 116.27 794.839 473.329
2159 0 80.1447 14.3366 1149 117.296 795.262 471.862
2160 0 84.4925 15.4807 1308 113.808 795.371 469.125
2161 0 84.3807 13.6406 1151 121.129 794.745 466.374
2162 0 89.3463 15.0426 1344 116.996 795.532 468.17
2163 0 91.3787 15.1348 1383 117.418 796.114 465.182
2164 0 95.3099 14.8358 1414 117.875 796.005 464.424
2165 0 96.6007 14.8239 1432 118.543 796.013 463.749
2166 0 101.315 16.0687 1628 116.437 795.278 459.828
2167 0 100.289 15.914 1596 164.455 793.326 460.575
2168 0 107.481 14.998 1612 120.11 795.537 459.358
2169 1 59.2891 14.3703 852 120.113 795.763 481.644
2170 0 61.2521 14.2036 870 121.872 795.653 479.706
2171 0 64.1819 14.1317 907 122.432 795.326 477.98
2172 0 66.1892 15.214 1007 119.935 795.05 476.722
2173 0 68.3074 14.7129 1005 121.888 795.173 477.441
2174 0 70.0511 14.5608 1020 123.664 795.156 475.063
2175 0 75.1601 15.8595 1192 119.372 795.503 472.324
2176 0 77.1562 14.6845 1133 124.068 795.605 472.654
2177 0 78.2129 14.2815 1117 127.338 795.084 469.822
2178 0 82.2231 15.7985 1299 123.105 795.067 470.186
2179 0 82.2841 15.7382 1295 131.477 794.892 467.176
2180 0 88.17 15.5041 1367 125.219 795.326 467.654
2181 0 89.2108 15.3681 1371 126.873 795.121 467.079
2182 0 90.3828 14.8037 1338 130.214 794.862 465.084
2183 0 92.319 14.2008 1311 132.947 795.198 461.914
2184 0 98.4198 15.0275 1479 129.242 794.966 461.469
2185 0 102.288 15.339 1569 128.033 795.403 460.298
2186 0 104.497 15.3593 1605 129.24 795.135 458.521
2187 0 108.316 15.8149 1713 126.52 795.537 455.628
2188 0 111.335 15.0716 1678 128.811 794.602 453.809
2189 0 115.38 15.2019 1754 128.079 794.794 453.612
2190 0 120.278 15.9049 1913 126.586 794.893 447.954
2191 0 124.304 16.4114 2040 124.042 794.853 449.605
2192 0 129.51 16.0452 2078 124.558 794.514 445.869
2193 0 135.316 15.0537 2037 126.296 794.674 445.87
2194 0 140.402 16.1892 2273 123.497 794.5 442.994
2195 1 77.2084 13.0685 1009 131.5 795.341 470.656
2196 0 81.2085 14.0379 1140 129.311 795.633 468.222
2197 0 85.2621 13.8397 1180 130.414 795.082 465.864
2198 0 89.2974 14.2557 1273 128.518 795.95 464.336
2199 0 92.2967 14.9084 1376 127.782 795.392 462.727
2200 0 95.2426 15.0668 1435 127.075 795.715 462.512
2201 0 99.2853 14.6144 1451 129.269 795.57 460.879
2202 0 101.293 14.7097 1490 130.272 795.722 457.986
2203 0 104.136 15.0189 1564 129.336 795.458 457.473
2204 0 108.31 15.2063 1647 128.464 795.649 456.222
2205 0 110.431 14.9596 1652 130.197 795.666 454.738
2206 0 113.309 14.5091 1644 132.005 795.506 454.5
2207 0 117.235 15.6182 1831 128.482 795.94 451.714
2208 0 121.328 15.0666 1828 129.487 796.081 448.25
2209 0 126.197 15.5075 1957 127.701 795.477 438.291
2210 0 128.182 15.283 1959 129.829 795.698 437.853
2211 0 130.263 14.9007 1941 132.929 796.133 438.176
2212 0 136.251 14.7742 2013 132.948 795.205 437.578
2213 0 139.206 14.4031 2005 134.372 795.333 437.133
2214 0 147.412 14.7749 2178 132.474 794.429 435.302
2215 0 154.581 14.7948 2287 130.498 794.234 429.634
2216 0 158.288 14.7326 2332 128.819 794.144 422.109
2217 1 89.1936 10.281 917 121.593 795.425 462.955
2218 0 94.3779 11.5811 1093 119.507 795.885 461.247
2219 0 97.2621 13.4174 1305 121.758 795.897 461.375
2220 0 101.2 12.4802 1263 122.191 795.647 461.089
2221 0 104.508 13.176 1377 122.24 795.126 457.222
2222 0 105.32 12.2959 1295 124.133 795.782 455.131
2223 0 109.421 13.4709 1474 120.167 795.208 457.01
2224 0 112.392 12.4297 1397 123.946 795.829 451.794
2225 0 117.527 13.3416 1568 121.368 795.328 451.402
2226 0 121.464 13.1067 1592 121.818 795.643 448.679
2227 0 124.788 12.8859 1608 121.366 795.402 441.947
2228 0 129.58 13.59 1761 119.55 795.844 442.209
2229 0 131.54 12.3156 1620 121.378 795.511 438.442
2230 0 134.572 12.001 1615 123.029 795.636 430.401
2231 0 141.549 12.9001 1826 120.859 794.606 427.773
2232 0 141.441 12.5282 1772 123.56 795.107 420.783
2233 0 149.482 10.8976 1629 125.047 795.287 426.362
2234 0 153.597 12.7802 1963 123.333 795.59 420.78
2235 1 92.326 11.2536 1039 114.924 795.768 455.932
2236 0 96.6931 11.0039 1064 115.19 794.339 459.133
2237 0 102.495 11.2103 1149 111.997 794.205 456.94
2238 0 105.672 11.1099 1174 111.425 794.751 453.474
2239 0 108.474 10.9519 1188 114.948 794.97 452.897
2240 0 109.47 10.971 1201 113.998 794.812 448.346
2241 0 110.482 11.124 1229 115.196 793.926 444.943
2242 0 119.604 11.2287 1343 113.699 794.8 446.179
2243 0 122.614 10.1783 1248 116.321 795.177 441.972
2244 0 125.718 10.4201 1310 116.586 794.627 438.601
2245 0 130.574 9.70332 1267 117.411 793.776 435.966
2246 0 135.837 10.3506 1406 116.482 794.223 432.794
2247 0 141.657 11.4573 1623 113.72 794.747 432.945
2248 0 145.566 11.8571 1726 113.74 794.349 427.364
2249 0 149.692 12.1115 1813 114.573 794.39 430.1
2250 0 153.468 11.0511 1696 111.242 794.519 429.146
2251 1 81.3259 5.13981 418 115.086 794.06 455.514
2252 0 84.5659 8.07655 683 108.351 794.231 459.445
2253 0 89.5737 9.88013 885 104.818 794.27 458.851
2254 0 92.4756 10.2514 948 105.635 793.974 455.553
2255 0 96.3593 10.0457 968 105.986 794.09 454.744
2256 0 102.563 10.0719 1033 105.246 793.479 455.861
2257 0 102.62 9.97852 1024 106.731 794.382 453.975
2258 0 107.735 11.8624 1278 103.182 793.497 454.074
2259 0 108.623 10.1544 1103 107.75 793.752 452.373
2260 0 112.693 11.7931 1329 104.396 794.261 450.427
2261 0 114.801 11.2804 1295 105.239 793.899 450.711
2262 0 119.458 11.9875 1432 103.49 793.837 450.638
2263 0 122.501 11.1102 1361 105.516 792.989 449.408
2264 0 124.757 11.4703 1431 104.749 792.873 449.984
2265 0 128.55 12.2598 1576 104.709 792.171 448.663
2266 0 131.522 12.0968 1591 105.095 792.718 445.224
2267 0 136.447 11.8141 1612 106.096 791.687 445.297
2268 0 141.557 13.4858 1909 101.84 791.714 445.553
2269 1 81.2765 10.2121 830 96.8241 791.271 473.914
2270 0 86.481 10.6729 923 94.3207 791.613 481.295
2271 0 86.3691 10.9414 945 95.2921 791.225 475.825
2272 0 90.3248 12.0011 1084 93.2924 791.725 476.016
2273 0 90.2383 10.0844 910 97.2813 791.889 477.855
2274 0 93.2402 11.8189 1102 94.7223 791.289 475.849
2275 0 97.1458 10.7261 1042 97.0106 791.645 475.062
2276 0 102.26 11.0014 1125 96.5467 791.185 473.619
2277 0 104.292 11.6692 1217 96.5637 790.836 470.221
2278 0 106.255 11.8018 1254 97.2624 790.782 469.894
2279 0 109.519 11.9614 1310 98.4344 790.225 466.716
2280 0 112.292 12.7435 1431 96.696 790.37 465.587
2281 0 115.261 11.2874 1301 99.3251 789.812 463.471
2282 0 123.589 15.6648 1936 89.344 788.76 451.651
2283 0 124.506 14.1921 1767 93.9383 788.501 456.427
2284 0 128.504 14.8011 1902 92.7261 788.684 453.192
2285 0 129.407 12.9823 1680 98.1601 788.383 454.286
2286 0 134.555 12.3369 1660 99.4464 788.41 451.477
2287 0 137.419 12.4946 1717 98.3885 788.879 452.909
2288 1 77.3248 11.5745 895 90.6726 788.144 481.905
2289 0 80.2412 10.8922 874 90.5927 787.288 484.154
2290 0 84.0734 13.3336 1121 86.3934 787.431 481.418
2291 0 85.1889 12.3608 1053 88.1738 788.332 481.312
2292 0 88.2217 12.3326 1088 88.1112 788.228 480.944
2293 0 91.105 11.7666 1072 89.2612 788.002 479.282
2294 0 93.1724 12.0744 1125 89.4818 788.103 479.659
2295 0 96.1958 11.8092 1136 90.2474 788.493 477.29
2296 0 97.2978 11.1924 1089 89.3627 790.232 478.729
2297 0 102.17 11.197 1144 88.7281 790.176 477.147
2298 0 105.278 10.6195 1118 88.6181 789.89 477.603
2299 0 106.331 12.5269 1332 87.259 789.369 473.048
2300 0 108.264 10.1142 1095 91.0539 789.982 471.356
2301 0 112.345 11.0197 1238 90.3869 789.922 467.19
2302 0 118.423 11.3154 1340 90.403 789.038 465.638
2303 0 124.206 13.2119 1641 87.7343 789.37 467.458
2304 0 126.319 12.7376 1609 90.8266 789.396 465.058
2305 0 130.28 13.4787 1756 91.4049 789.298 460.499
2306 0 135.436 12.2789 1663 93.6554 789.216 458.449
2307 0 136.341 10.8331 1477 97.3257 789.324 450.016
2308 1 78.1698 12.6264 987 86.3647 789.429 486.735
2309 0 78.3452 12.5598 984 88.6585 789.498 478.913
2310 0 82.1567 13.4256 1103 84.3019 788.977 484.086
2311 0 85.2139 13.2255 1127 84.9734 788.414 480.846
2312 0 86.2494 12.1972 1052 86.6892 788.789 482.966
2313 0 89.3742 11.9945 1072 86.7677 789.174 477.16
2314 0 92.3649 11.4329 1056 88.0758 788.981 478.027
2315 0 94.3243 12.9023 1217 86.6286 789.193 476.078
2316 0 95.2516 10.8345 1032 91.2355 789.372 475.14
2317 0 101.419 13.0548 1324 87.5891 789.472 473.89
2318 0 102.278 11.2341 1149 90.7267 789.741 474.764
2319 0 104.249 13.2855 1385 88.2195 788.999 468.921
2320 0 105.332 12.8546 1354 89.5251 789.088 471.667
2321 0 109.386 11.3451 1241 91.8662 789.63 468.712
2322 0 113.308 13.1324 1488 90.2224 789.568 467.366
2323 0 117.287 12.7379 1494 91.8146 789.803 466.324
2324 0 121.413 12.5192 1520 92.8921 789.263 464.432
2325 0 122.585 10.4988 1287 98.0598 789.768 458.901
2326 1 68.2718 11.3517 775 91.2271 790.632 486.35
2327 0 70.1865 10.4579 734 93.3065 789.946 484.797
2328 0 76.1362 12.8585 979 92.7722 789.839 483.758
2329 0 72.1905 11.8714 857 91.9335 789.774 473.785
2330 0 73.1522 11.1958 819 98.4908 790.297 473.618
2331 0 77.1173 12.0336 928 96.2586 790.782 474.42
2332 0 79.1926 12.5896 997 96.9749 790.729 471.17
2333 0 82.1067 10.9613 900 98.9367 790.459 470.324
2334 0 84.1141 11.425 961 99.9011 790.826 467.849
2335 0 89.1717 12.5152 1116 98.1335 790.211 465.428
2336 0 88.3204 12.115 1070 101.374 790.989 461.726
2337 0 92.1951 12.1265 1118 101.552 790.165 461.86
2338 0 95.2701 12.1339 1156 100.949 789.931 462.557
2339 0 95.2039 11.3021 1076 105.957 789.849 456.081
2340 0 102.185 12.3208 1259 103.44 789.814 456.114
2341 0 103.141 11.2273 1158 106.238 790.383 457.294
2342 0 108.309 13.7292 1487 101.95 790.907 451.106
2343 0 109.264 12.8954 1409 104.9 790.956 449.749
2344 0 116.249 11.5356 1341 105.947 790.998 453.837
2345 0 116.162 12.1554 1412 106.137 789.45 451.504
2346 0 122.183 12.9315 1580 102.259 788.966 451.779
2347 0 125.193 12.285 1538 104.805 789.182 445.583
2348 0 130.224 12.2097 1590 104.326 790.029 442.107
2349 0 139.178 12.6816 1765 102.401 789.588 442.238
2350 1 72.1402 9.05182 653 95.2956 790.014 471.462
2351 0 75.1938 11.876 893 97.3326 790.549 464.477
2352 0 80.08 10.3771 831 100.001 789.637 467.724
2353 0 80.3406 10.8911 875 99.6994 790.546 460.638
2354 0 82.144 10.579 869 100.272 790.657 462.041
2355 0 87.4178 12.3201 1077 97.9629 790.622 459.367
2356 0 90.264 11.9981 1083 99.3666 790.596 461.769
2357 0 94.244 12.6268 1190 98.7639 790.365 458.341
2358 0 95.2234 12.4864 1189 99.7157 790.979 458.751
2359 0 99.2561 11.7675 1168 102.39 791.208 458.074
2360 0 101.211 11.2734 1141 103.842 791.592 453.004
2361 0 106.197 11.9872 1273 101.916 791.154 457.948
2362 0 107.236 11.7032 1255 103.553 791.453 453.71
2363 0 113.119 12.5885 1424 102.491 791.624 452.157
2364 0 114.24 13.1215 1499 102.112 792.356 455.394
2365 0 117.228 12.224 1433 104.652 792.906 448.432
2366 0 121.46 13.0825 1589 102.639 793.739 450.615
2367 0 126.317 13.387 1691 102 793.626 445.921
2368 0 132.636 12.719 1687 102.894 793.814 441.931
2369 0 134.315 12.6866 1704 102.418 793.671 444.294
2370 0 141.493 13.3646 1891 101.884 793.648 439.709
2371 0 141.595 11.9284 1689 105.481 794.085 437.902
2372 0 146.517 11.6369 1705 106.345 794.235 430.797
2373 0 153.544 11.7621 1806 104.84 794.456 429.861
2374 0 159.547 12.8176 2045 102.309 794.198 430.037
2375 1 91.3253 9.85488 900 98.2689 794.876 466.353
2376 0 92.283 11.1505 1029 97.0185 794.026 463.91
2377 0 96.2731 12.5373 1207 96.8194 794.406 461.315
2378 0 100.322 10.4563 1049 100.015 794.481 460.974
2379 0 103.419 11.4679 1186 98.887 794.324 455.75
2380 0 108.433 12.7176 1379 96.4728 793.796 455.867
2381 0 111.429 12.1512 1354 98.7954 793.704 452.38
2382 0 113.383 11.9683 1357 98.9278 794.164 453.259
2383 0 116.589 12.068 1407 98.3554 794.036 453.398
2384 0 118.497 10.3041 1221 102.348 794.251 446.794
2385 0 124.381 11.7301 1459 99.7656 793.25 450.334
2386 0 130.361 12.2583 1598 99.6252 793.611 444.378
2387 0 133.326 12.6382 1685 99.2582 793.41 442.655
2388 0 140.383 10.8418 1522 102.173 793.503 441.988
2389 0 144.446 12.4199 1794 98.3634 793.391 435.42
2390 0 152.651 13.6979 2091 88.7977 793.266 437.313
2391 1 87.2281 12.3469 1077 94.0186 793.318 469.98
2392 0 89.3698 12.5993 1126 95.1377 792.885 465.986
2393 0 89.3854 12.1944 1090 98.3119 793.048 462.952
2394 0 93.2267 13.2258 1233 96.9051 793.003 463.097
2395 0 96.3792 11.9424 1151 100.107 793.058 464.014
2396 0 100.383 13.07 1312 98.1159 793.119 461.479
2397 0 103.386 13.6285 1409 98.5848 792.261 457.7
2398 0 107.413 13.2572 1424 99.5183 792.725 456.358
2399 0 111.31 12.5236 1394 101.709 792.238 456.077
2400 1 61.1849 10.264 628 101.973 792.849 480.105
2401 0 65.3929 12.1879 797 96.4028 792.498 478.031
2402 0 66.1753 11.8322 783 96.0166 791.895 477.438
2403 0 69.233 12.0896 837 94.7133 791.989 478.823
2404 0 68.2516 12.2488 836 96 792.146 474.965
2405 0 71.2337 12.1712 867 96.6286 792.313 476.366
2406 0 72.1993 12.8256 926 95.8866 792.628 475.472
2407 0 73.1718 13.0378 954 97.5535 792.127 471.715
2408 0 78.1371 13.5275 1057 94.965 792.437 474.195
2409 0 79.1521 13.4551 1065 96.0235 793.359 471.838
2410 0 80.1666 11.763 943 99.3404 793.119 473.059
2411 0 83.1553 13.0238 1083 97.7174 793.027 470.275
2412 0 85.1597 12.9404 1102 99.0345 793.21 467.211
2413 0 88.2163 12.4807 1101 99.7648 793.713 464.885
2414 0 89.2283 12.3952 1106 100.703 793.922 467.3
2415 0 93.2113 14.5047 1352 97.2485 794.34 464.328
2416 0 95.0829 13.0202 1238 99.7601 793.69 463.046
2417 0 99.0883 12.7462 1263 102.301 792.657 461.749
2418 0 101.126 12.9739 1312 100.341 792.769 461.986
2419 0 106.112 13.5518 1438 99.9805 793.131 456.243
2420 0 107.217 12.1343 1301 101.288 793.028 459.024
2421 0 109.11 12.2079 1332 102.943 792.8 456.221
2422 0 112.153 13.1517 1475 100.924 792.605 455.098
2423 0 118.135 13.1037 1548 100.529 792.602 453.828
2424 0 121.112 13.0871 1585 100.748 792.691 453.946
2425 0 124.112 12.8271 1592 101.509 792.997 449.554
2426 0 129.172 12.7891 1652 101.14 793.438 446.669
2427 0 133.213 13.0994 1745 100.101 793.484 444.474
2428 0 139.156 12.7914 1780 100.34 793.183 442.738
2429 0 144.206 13.1895 1902 97.8354 792.472 445.472
2430 0 149.216 12.6327 1885 100.17 794.677 438.248
2431 0 154.251 13.0696 2016 99.8566 794.937 436.316
2432 1 88.1436 12.3322 1087 100.504 794.956 467.659
2433 0 89.1371 12.0152 1071 105.494 794.972 461.754
2434 0 95.146 12.4861 1188 103.394 795.311 463.805
2435 0 97.1129 12.6451 1228 104.566 795.067 462.027
2436 0 100.169 13.8067 1383 102.11 795.438 460.894
2437 0 102.041 13.1712 1344 103.545 795.554 460.128
2438 0 106.114 12.0436 1278 106.686 794.955 455.616
2439 0 110.133 12.4123 1367 105.958 795.604 455.328
2440 0 112.211 14.4014 1616 102.27 794.957 453.819
2441 0 117.284 14.7675 1732 101.412 795.168 453.006
2442 0 117.263 13.6787 1604 105.228 794.774 451.857
2443 0 121.415 13.6721 1660 105.66 795.078 449.933
2444 0 124.277 12.8664 1599 104.084 793.325 451.754
2445 0 128.249 12.694 1628 105.79 793.53 449.346
2446 0 135.311 12.9923 1758 106.478 794.134 444.056
2447 0 140.396 13.5474 1902 108.739 795.042 441.388
2448 0 144.448 13.3266 1925 107.41 794.633 439.882
2449 0 145.284 12.7612 1854 107.316 794.403 437.454
2450 0 152.419 13.3972 2042 104.705 794.044 433.952
2451 1 84.3063 12.1343 1023 104.726 793.306 462.864
2452 0 85.184 11.8332 1008 106.622 793.573 459.038
2453 0 90.1921 13.0832 1180 103.114 794.112 459.947
2454 0 91.1628 13.0316 1188 104.157 793.131 456.842
2455 0 94.1556 13.9769 1316 98.0426 793.288 459.809
2456 0 98.0868 14.2425 1397 98.8969 793.582 456.372
2457 0 99.1344 12.1956 1209 104.524 793.638 452.485
2458 0 102.299 13.4996 1381 102.134 793.688 452.471
2459 0 105.334 13.215 1392 104.08 793.639 448.94
2460 0 108.298 14.3123 1550 102.209 793.552 446.369
2461 0 111.397 15.1889 1692 101.187 793.334 447.66
2462 0 117.334 14.3693 1686 102.314 793.562 446.597
2463 0 115.27 13.516 1558 105.042 793.75 445.384
2464 0 118.247 13.3365 1577 105.663 793.296 442.633
2465 0 123.279 11.8593 1462 109.001 792.203 439.692
2466 0 130.356 14.5064 1891 103.283 792.432 434.508
2467 0 134.386 14.4658 1944 103.081 793.183 436.457
2468 0 139.286 13.4687 1876 105.572 793.186 431.136
2469 0 144.265 13.8564 1999 104.498 793.974 430.205
2470 0 150.359 11.978 1801 108.337 793.505 425.725
2471 0 154.323 13.1283 2026 106.154 793.53 425.401
2472 1 86.1245 12.7606 1099 98.8462 793.612 460.571
2473 0 89.2756 12.8367 1146 99.0366 793.275 458.049
2474 0 90.1079 12.9844 1170 97.5376 792.408 458.177
2475 0 93.0608 13.7222 1277 97.8653 792.204 455.245
2476 0 100.076 12.4805 1249 99.6821 792.874 453.2
2477 0 100.179 13.0966 1312 99.2942 792.479 451.11
2478 0 102.25 12.1858 1246 99.996 793.024 453.538
2479 0 106.314 14.2502 1515 95.8244 792.774 450.112
2480 0 110.475 13.6954 1513 96.3232 793.872 446.832
2481 0 113.331 13.2533 1502 97.0846 793.718 445.786
2482 0 114.349 13.214 1511 97.6347 794.136 444.04
2483 0 121.362 15.0789 1830 93.5989 793.628 439.935
2484 0 122.366 13.3779 1637 97.4832 793.696 437.536
2485 0 126.285 12.5668 1587 98.5495 794.261 435.535
2486 0 127.252 12.8485 1635 97.8086 793.67 434.639
2487 0 136.319 13.8132 1883 94.5725 793.462 434.906
2488 0 140.253 14.1672 1987 95.6618 793.488 429.588
2489 0 143.305 13.2514 1899 97.7009 793.015 429.665
2490 1 72.357 11.7197 848 93.2677 793.055 464.955
2491 0 76.1145 9.49885 723 96.2075 793.451 462.552
2492 0 74.2179 10.2401 760 96.0382 793.584 462.867
2493 0 78.2625 12.292 962 93.3077 793.52 462.368
2494 0 78.2834 10.5386 825 95.4279 793.04 454.337
2495 0 84.2219 9.72431 819 86.486 794.348 464.784
2496 0 85.3732 11.3267 967 85.8252 793.915 462.554
2497 0 90.1184 11.618 1047 84.6944 793.831 460.737
2498 0 94.307 11.3353 1069 84.6688 793.873 464.158
2499 0 95.2333 11.0571 1053 85.2479 793.844 461.675
2500 0 101.313 10.7292 1087 84.9356 794.358 453.481
2501 0 102.286 11.6438 1191 84.6364 793.916 452.741
2502 0 104.294 10.2978 1074 85.919 794.232 455.272
2503 0 109.433 12.2083 1336 83.5741 793.79 454.17
2504 0 111.255 10.3636 1153 86.3252 794.477 445.676
2505 0 118.172 11.0179 1302 84.4124 793.846 452.125
2506 0 120.366 11.0081 1325 85.1736 793.557 444.358
2507 0 124.418 11.2283 1397 84.6385 793.374 443.319
2508 0 128.434 11.7804 1513 83.7766 794.167 439.838
2509 0 133.296 12.8435 1712 82.4807 793.87 437.58
2510 0 136.27 12.534 1708 83.2348 793.754 435.504
2511 0 142.399 11.3906 1622 84.754 793.703 433.721
2512 0 143.348 10.8617 1557 86.4952 794.203 428.393
2513 0 152.43 10.9165 1664 85.4688 794.216 431.097
2514 0 157.498 12.2795 1934 84.3495 793.663 431.97
2515 0 162.569 12.5546 2041 84.9064 794.136 422.15
2516 0 168.618 12.8219 2162 85.2692 794.447 426.335
2517 0 171.508 12.4484 2135 87.1293 794.396 423.45
2518 0 177.585 11.6001 2060 89.2073 794.427 418.68
2519 0 182.456 12.1892 2224 90.0746 794.238 413.079
2520 0 186.701 12.6834 2368 91.1385 793.57 412.206
2521 0 193.848 12.9741 2515 91.6362 794.091 408.95
2522 0 197.578 13.3314 2634 92.5828 793.378 410.786
2523 0 205.603 14.5328 2988 92.1376 794.237 402.994
2524 0 212.657 13.5194 2875 94.0876 793.456 399.633
2525 0 217.822 14.0895 3069 95.4366 794.052 394.679
2526 0 225.019 13.71 3085 95.8263 793.848 400.83
2527 0 229.847 12.9042 2966 98.9245 793.896 393.299
2528 0 239.99 14.9464 3587 96.7499 794.388 385.824
2529 0 247.77 14.5498 3605 99.3098 794.019 380.444
2530 0 257.73 15.0468 3878 99.4861 793.939 373.194
2531 0 265.819 14.0961 3747 103.057 793.986 370.677
2532 1 205.522 12.3685 2542 104.75 794.84 403.171
2533 0 213.535 13.5669 2897 103.818 794.478 399.845
2534 0 219.803 13.3392 2932 106.358 794.365 390.464
2535 0 229.934 14.3824 3307 103.409 794.567 395.152
2536 0 236.991 15.7179 3725 102.749 795.373 387.761
2537 0 243.672 14.3431 3495 106.582 794.682 384.517
2538 0 251.75 13.8828 3495 110.212 794.992 378.937
2539 0 260.736 15.414 4019 108.034 795.164 374.79
2540 0 268.653 14.8556 3991 110.174 795.408 373.433
2541 0 277.892 15.8551 4406 109.509 795.432 369.498
2542 0 284.781 15.4821 4409 110.96 795.178 363.394
2543 0 292.934 13.754 4029 115.089 795.18 362.737
2544 0 303.94 14.4963 4406 111.461 795.658 353.402
2545 0 310.776 15.2103 4727 109.75 795.69 351.774
2546 0 320.978 15.3219 4918 108.367 795.78 341.672
2547 0 332.157 18.0457 5994 101.155 795.278 344.312
2548 0 341.878 16.579 5668 103.202 794.796 332.143
2549 0 356.26 16.3476 5824 103.98 795.584 324.26
2550 0 368.124 16.4863 6069 105.183 795.404 323.234
2551 0 369.193 13.0203 4807 113.365 794.837 332.197
2552 0 365.781 11.0257 4033 116.343 795.327 348.941
2553 0 355.034 13.6691 4853 114.189 795.314 328.347
2554 0 365.562 15.6307 5714 109.638 795.66 314.565
2555 0 379.905 17.5465 6666 105.847 794.922 304.879
2556 0 389.74 14.797 5767 112.697 795.317 299.783
2557 0 405.721 16.8885 6852 107.887 795.29 295.013
2558 0 418.926 16.6402 6971 109.438 795.112 283.785
2559 1 33.0412 9.95726 329 90.541 795.471 484.517
2560 0 37.1056 9.83679 365 92.7233 793.929 488.674
2561 0 35.0895 9.26202 325 95.7415 797.846 490.268
2562 0 35.0181 9.82349 344 98.375 797.201 488.424
2563 0 39.0959 11.945 467 93.9807 797.054 488.953
2564 0 37.0218 10.7504 398 100.668 797.198 488.854
2565 0 37.0735 11.9762 444 92.9189 798.428 488.02
2566 0 36.041 12.1806 439 96.6743 797.927 488.485
2567 0 37.0834 11.4876 426 99.9343 797.664 487.667
2568 0 418.67 13.3351 5583 112.68 795.093 263.461
2569 0 425.631 12.821 5457 116.311 794.926 264.287
2570 0 434.065 14.4955 6292 112.873 795.371 252.937
2571 0 443.243 14.4481 6404 114.001 795.409 253.459
2572 0 442.353 12.8291 5675 121.694 796.549 243.647
2573 0 424.625 11.6385 4942 116.863 796.654 243.215
2574 0 422.073 11.671 4926 115.105 795.632 246.5
2575 0 44.0203 13.9254 613 104.241 796.613 489.22
2576 0 45.0765 14.553 656 101.462 796.986 487.605
2577 0 45.0424 15.0969 680 100.8 797.956 488.2
