time division length width area intensity CMx CMy
0 0 31.0234 11.5719 359 120.409 655.014 487.295
1 0 31.0131 11.7692 365 119.285 655.54 487.033
2 0 34.0264 11.5205 392 117.526 654.694 486.98
3 0 34.0279 11.0791 377 119.008 655.196 487.249
4 0 33.0281 11.9595 395 122.261 655.172 485.732
5 0 36.0253 13.2684 478 115.335 655.144 485.439
6 0 36.0182 12.6048 454 117.852 654.725 485.65
7 0 37.0797 13.2687 492 116.181 654.868 484.642
8 0 37.0223 13.2623 491 116.13 655.153 485.391
9 0 38.0232 12.0453 458 118.871 655.114 485.921
10 0 40.0594 11.3082 453 117.709 654.779 486.17
11 0 42.0573 14.076 592 111.858 655.101 484.709
12 0 41.0142 13.5807 557 114.205 654.706 484.616
13 0 41.0172 11.8974 488 118.756 654.344 485.127
14 0 41.0702 12.2717 504 117.208 653.613 486.089
15 0 43.0628 13.5152 582 115.058 654.265 484.909
16 0 42.045 12.7958 538 118.559 653.364 485.238
17 0 47.0852 15.9498 751 109.807 653.593 483.714
18 0 49.1131 14.0492 690 114.043 653.854 484.33
19 0 50.0346 14.5699 729 113.582 653.037 483.82
20 0 49.0331 14.48 710 114.975 653.12 484.804
21 0 51.0402 14.4396 737 116.145 653.33 483.596
22 0 52.058 13.4658 701 119.317 652.81 483.449
23 0 51.1065 13.1294 671 122.221 652.535 482.981
24 0 54.0199 14.8094 800 116.736 653.521 483.494
25 0 53.0296 12.7853 678 122.822 653.249 482.617
26 0 57.0307 13.7294 783 120.186 653.226 481.128
27 0 57.0903 13.61 777 121.431 652.502 481.178
28 0 60.0981 14.5429 874 120.406 652.678 478.812
29 0 62.1045 14.9265 927 118.085 652.853 480.483
30 0 65.1107 14.8209 965 117.608 653.084 478.838
31 0 64.029 11.9008 762 125.56 652.724 479.623
32 0 68.0645 15.2062 1035 118.648 652.602 476.461
33 0 71.0672 14.5778 1036 117.995 652.673 476.731
34 0 72.0362 13.8958 1001 121.875 652.73 474.627
35 0 75.1073 14.9786 1125 119.116 652.186 473.206
36 0 77.122 15.1837 1171 118.545 652.057 470.51
37 1 40.0424 12.9862 520 120.577 652.629 488.623
38 0 43.0435 13.3586 575 117.518 652.654 488.143
39 0 39.0305 12.6568 494 113.391 652.342 490.32
40 0 42.046 12.6766 533 111.3 651.659 490.704
41 0 44.039 13.0566 575 110.009 651.847 490.247
42 0 43.0195 12.3433 531 112.524 651.898 488.876
43 0 45.0653 12.1157 546 112.348 651.586 489.042
44 0 48.0635 13.3781 643 109.322 652.092 486.941
45 0 50.1293 14.6222 733 107.377 652.101 485.151
46 0 51.0597 12.9456 661 109.764 651.829 484.958
47 0 52.1313 13.6578 712 108.003 651.817 484.994
48 0 54.0628 12.7259 688 109.241 651.235 485.454
49 0 57.0828 14.1899 810 108.369 651.373 481.711
50 0 60.0891 13.1804 792 109.67 651.446 481.107
51 0 61.1095 12.5512 767 109.945 651.82 483.275
52 0 62.1927 19.3431 1203 75.5154 651.096 481.087
53 0 66.1289 13.9273 921 107.369 651.456 477.947
54 0 69.1153 14.5409 1005 107.557 650.619 475.824
55 0 72.0626 12.9609 934 109.545 649.939 476.875
56 0 75.1691 14.7933 1112 106.469 650.509 474.498
57 0 77.3044 14.6822 1135 108.434 650.204 473.024
58 0 80.0878 15.021 1203 106.187 650.254 472.644
59 0 83.1637 14.7661 1228 108.985 650.756 471.199
60 0 86.1374 14.709 1267 109.167 650.841 468.522
61 0 87.0906 13.3424 1162 113.122 650.346 465.767
62 0 91.0797 14.932 1360 110.949 650.61 464.84
63 1 48.0398 13.1349 631 105.957 650.797 488.309
64 0 50.0513 11.5082 576 107.231 649.708 490.248
65 0 50.1728 13.0748 656 107.096 649.032 485.332
66 0 52.1188 12.0302 627 107.518 650.065 486.242
67 0 54.1737 13.9736 757 110.359 650.067 486.695
68 0 57.0409 13.4816 769 112.101 651.202 484.536
69 0 58.0233 13.9427 809 110.511 650.85 483.532
70 0 60.0311 13.0432 783 112.132 650.529 483.305
71 0 61.127 13.9545 853 110.424 650.37 481.557
72 0 63.0399 12.0241 758 113.806 650.53 480.706
73 0 66.0228 14.1921 937 109.603 649.856 480.34
74 0 69.1265 13.8297 956 109.383 650.276 479.088
75 0 71.0985 13.6149 968 109.183 650.41 477.971
76 0 71.0396 12.7394 905 112.135 649.678 477.64
77 0 74.0484 13.2076 978 109.97 650.644 476.5
78 0 77.0943 13.6716 1054 108.546 650.05 474.238
79 0 80.0473 14.2416 1140 107.239 650.554 472.746
80 0 83.1395 12.918 1074 108.169 649.94 471.286
81 0 87.1113 13.6033 1185 104.857 649.63 470.046
82 0 88.1813 11.9867 1057 107.47 649.304 468.478
83 0 91.0864 13.35 1216 104.278 650.017 467.656
84 0 94.0881 12.4033 1167 105.286 649.799 467.629
85 0 98.1166 13.0763 1283 104.086 649.849 463.213
86 0 102.167 13.9674 1427 102.247 649.66 461.486
87 0 103.133 12.2463 1263 103.985 649.448 461.101
88 0 108.341 14.7036 1593 100.776 648.824 455.416
89 1 55.2079 10.7593 594 99.3906 648.163 486.667
90 0 56.1234 14.2721 801 95.3958 648.699 484.496
91 0 55.128 12.6433 697 98.6298 648.145 481.212
92 0 60.1045 13.4266 807 96.1078 649.323 484.202
93 0 62.1389 12.7617 793 99.116 649.206 483.083
94 0 64.1458 13.3134 854 98.5679 649.402 483.115
95 0 65.1823 12.5187 816 107.414 648.589 479.176
96 0 68.0939 12.6149 859 106.666 648.655 479.534
97 0 73.1636 13.0529 955 105.58 649.512 477.196
98 0 75.1997 13.391 1007 105.755 649.558 474.135
99 0 77.2375 13.7239 1060 104.984 648.962 472.744
100 0 81.1288 13.2259 1073 105.919 648.799 472.958
101 0 84.109 14.0651 1183 104.116 649.486 471.148
102 0 87.1626 14.3525 1251 100.986 649.546 471.872
103 0 88.2739 12.5292 1106 107.365 649.458 469.494
104 1 47.0236 11.5474 543 104.928 650.216 490.234
105 0 50.0831 13.238 663 96.6259 649.291 487.932
106 0 50.1323 12.846 644 96.5901 649.429 490.354
107 0 51.136 12.0072 614 98.8664 649.164 488.406
108 0 54.0337 13.7507 743 95.2826 649.52 486.709
109 0 56.1513 14.0157 787 94.5019 649.344 487.108
110 0 58.0675 12.3822 719 99.0028 649.004 484.754
111 0 59.0601 14.0365 829 94.9192 649.337 484.724
112 0 61.0802 14.4564 883 96.1506 649.197 482.836
113 0 61.1727 12.0642 738 100.089 647.905 481.81
114 0 65.1433 13.9385 908 95.0396 647.963 481.373
115 0 65.1027 13.9165 906 132.624 647.958 481.247
116 0 72.1242 14.4196 1040 93.974 648.087 479.025
117 0 72.09 14.4264 1040 94.9423 647.744 478.483
118 0 74.0867 12.1614 901 99.6337 648.798 475.142
119 0 77.0782 11.5986 894 100.663 647.619 476.309
120 0 79.0561 12.2445 968 100.079 647.255 474.634
121 0 82.1627 12.2197 1004 100.923 647.46 472.53
122 1 44.0344 12.6038 555 96.364 647.268 490.665
123 0 44.0111 12.3605 544 97.0221 647.281 489.259
124 0 46.0339 11.7957 543 96.9613 648.387 489.201
125 0 48.0249 13.0349 626 94.4249 648.401 489.414
126 0 51.0444 13.0475 666 93.973 647.737 487.952
127 0 49.0341 11.4818 563 98.2291 648.137 488.19
128 0 53.0953 13.4852 716 94.3324 648.468 487.358
129 0 51.053 11.3412 579 100.427 648.649 485.216
130 0 55.0578 13.4404 740 96.3824 648.265 485.278
131 0 57.0838 13.086 747 96.7697 648.602 484.902
132 0 58.0902 13.7201 797 95.5119 649.434 484.964
133 0 60.0328 13.0262 782 97.2532 649.364 482.349
134 0 62.1001 13.446 835 97.285 649.222 480.492
135 0 65.0773 16.0578 1045 92.6756 649.171 479.322
136 0 66.1123 13.0233 861 98.5691 648.883 481.048
137 0 67.0582 12.9291 867 99.8939 648.647 479.667
138 0 70.2432 12.5564 882 103.429 649.344 476.598
139 0 73.1237 13.1284 960 101.998 650.267 476.408
140 0 73.2775 11.8181 866 112.387 650.135 471.969
141 0 73.2602 11.3841 834 154.219 650.179 472.252
142 0 83.2083 13.2919 1106 108.004 649.5 469.847
143 0 87.1535 13.9065 1212 103.67 649.304 469.298
144 0 88.2722 11.4192 1008 108.715 650.55 466.617
145 1 42.0675 9.53231 401 107.97 651.429 488.778
146 0 43.0574 11.6356 501 105.064 651.473 487.499
147 0 46.0742 11.0474 509 105.721 651.073 486.699
148 0 47.0226 13.1001 616 95.8734 650.073 487.979
149 0 49.09 12.528 615 96.7154 650.717 487.117
150 0 49.0356 11.4203 560 98.9911 650.102 487.984
151 0 51.0612 12.6319 645 95.5876 649.829 488.792
152 0 51.056 12.1043 618 98.3058 649.6 486.354
153 0 51.0295 12.0323 614 99.8941 649.772 486.648
154 0 54.1111 12.7331 689 97.5747 650.29 486.17
155 0 55.0828 13.3254 734 97.0463 649.511 483.681
156 0 57.1731 12.8907 737 97.8019 649.548 481.338
157 0 59.1376 12.7838 756 97.4114 648.898 481.591
158 0 64.0809 12.7807 819 96.2088 649.305 481.897
159 0 65.2384 13.3357 870 95.2253 649.348 479.84
160 0 64.0423 12.9133 827 98.2588 649.008 476.732
161 0 68.1647 13.9222 949 96.2266 648.728 477.521
162 0 69.0404 12.5434 866 98.7483 649.373 477.305
163 0 71.1442 11.3853 810 102.365 649.368 476.325
164 0 75.1034 13.2351 994 98.3531 649.015 474.089
165 0 78.2973 13.0145 1019 99.4396 648.559 471.997
166 0 79.2011 11.4014 903 97.9978 648.195 473.364
167 0 82.1578 12.1352 997 96.2698 648.152 470.233
168 0 84.134 11.9809 1008 96.0109 648.793 467.369
169 0 90.3592 11.5096 1040 94.274 648.509 468.099
170 0 93.1024 12.3413 1149 94.3655 648.547 466.989
171 1 50.132 10.5322 528 93.9867 648.837 486.786
172 0 51.0772 11.9623 611 94.0998 647.031 483.43
173 0 53.0926 11.5647 614 91.9251 648.332 484.039
174 0 54.0603 11.8941 643 92.2504 648.383 482.72
175 0 57.0234 11.9951 684 91.902 647.444 483.801
176 0 57.0309 11.976 683 92.4744 647.208 481.499
177 0 59.086 11.2717 666 94.2643 647.425 479.332
178 0 63.1751 13.1064 828 96.663 647.385 478.767
179 0 63.1095 12.5338 791 101.219 646.909 475.401
180 0 67.1619 12.79 859 100.614 646.464 477.638
181 0 70.2479 13.1677 925 100.645 647.37 474.587
182 0 72.315 12.1966 882 103.303 647.414 474.456
183 0 75.1135 12.368 929 103.168 647.353 474.735
184 0 77.1304 13.4966 1041 102.061 647.572 472.449
185 0 79.0985 13.0344 1031 104.258 647.738 472.222
186 0 82.1798 13.7382 1129 103.457 647.02 470.74
187 0 85.1252 14.3671 1223 102.671 647.758 470.387
188 0 87.1293 12.0625 1051 109.294 647.106 468.697
189 0 90.1711 13.3524 1204 107.651 646.761 465.704
190 0 92.157 13.4227 1237 108.511 646.35 465.833
191 0 95.1733 13.8694 1320 108.571 646.829 465.347
192 0 97.1333 13.7131 1332 109.966 647.667 462.905
193 0 101.139 13.7138 1387 110.504 646.746 461.046
194 0 104.213 13.933 1452 110.826 646.922 461.114
195 0 109.151 14.4937 1582 109.935 646.59 458.154
196 0 109.114 13.1606 1436 114.515 646.739 455.878
197 0 114.08 14.411 1644 111.906 646.745 452.188
198 0 117.146 14.1618 1659 112.13 647.33 452.885
199 0 123.275 15.0477 1855 111.101 648.102 449.077
200 0 127.218 14.3533 1826 113.044 647.783 445.828
201 0 130.206 15.7289 2048 107.195 647.842 447.297
202 1 82.0974 12.5948 1034 114.458 647.772 470.842
203 0 84.1419 12.8236 1079 108.693 647.861 464.976
204 0 84.1419 12.776 1075 153.99 647.866 464.922
205 0 92.127 13.6225 1255 113.624 646.708 464.052
206 0 92.127 13.6985 1262 157.39 646.716 464.148
207 0 97.2013 12.5307 1218 116.362 646.26 461.544
208 0 99.148 14.1707 1405 110.989 646.691 460.643
209 0 101.184 13.1542 1331 114.005 646.63 457.473
210 0 106.065 14.6797 1557 110.49 646.457 454.473
211 0 108.058 13.0578 1411 113.664 646.962 453.701
212 0 108.058 13.0301 1408 149.729 647.952 453.681
213 0 115.148 12.4795 1437 114.421 647.01 449.376
214 0 120.265 13.7031 1648 111.118 646.473 450.657
215 0 127.159 13.5264 1720 110.923 647.199 447.952
216 0 128.32 13.5443 1738 111.571 646.598 444.362
217 0 131.127 13.3535 1751 112.22 647.202 442.578
218 0 135.211 12.6248 1707 113.361 646.959 440.105
219 1 73.0695 12.1254 886 106.463 649.701 473.426
220 0 74.0319 12.4136 919 106.657 649.482 470.476
221 0 78.0849 13.7799 1076 100.658 648.097 470.13
222 0 78.0849 13.8055 1078 130.489 648.112 470.037
223 0 80.1298 12.4173 995 103.432 649.335 471.517
224 0 80.1298 12.3799 992 139.055 650.318 471.445
225 0 80.1298 12.3799 992 138.587 651.318 471.445
226 0 89.1876 14.0939 1257 102.706 648.967 463.326
227 0 91.1152 12.5994 1148 105.091 647.97 464.686
228 0 95.1837 12.7963 1218 105.181 648.873 463.651
229 0 99.2357 13.2815 1318 104.587 648.787 461.682
230 0 102.127 12.4258 1269 105.385 648.982 460.426
231 0 106.167 13.0455 1385 103.595 648.052 458.587
232 0 109.145 13.0193 1421 103.367 648.406 459.32
233 0 115.277 13.4199 1547 103.968 648.082 453.804
234 1 61.1195 11.1585 682 103.133 649.088 479.849
235 0 65.0945 12.5356 816 100.032 649.681 478.746
236 0 67.2946 12.4824 840 106.274 649.66 477.574
237 0 70.2499 12.2135 858 107.776 649.213 475.735
238 0 71.2116 12.9473 922 106.243 649.217 475.452
239 0 73.1669 13.476 986 106.169 649.132 472.358
240 0 76.1643 12.67 965 109.514 648.9 471.131
241 0 76.1964 12.3497 941 111.752 648.976 471.112
242 0 80.2543 12.4853 1002 111.345 648.622 468.126
243 0 81.1604 12.8511 1043 110.923 648.765 469.971
244 0 83.2162 12.5577 1045 113.008 648.684 466.811
245 0 88.2216 13.6701 1206 110.444 648.378 466.484
246 0 90.325 13.6507 1233 111.267 648.054 465.162
247 0 93.2527 13.1685 1228 112.944 648.22 464.194
248 0 96.3097 13.6019 1310 111.53 649.15 463.382
249 0 98.2711 13.1982 1297 114.513 648.629 459.422
250 0 98.268 13.1375 1291 158.293 647.608 459.323
251 0 98.261 13.0978 1287 157.938 646.606 459.249
252 1 53.2985 11.4637 611 102.347 649.115 483.498
253 0 55.2264 11.8422 654 102.777 649.72 482.417
254 0 55.2264 11.8784 656 132.274 650.712 482.514
255 0 56.0626 13.0568 732 102.556 647.667 482.898
256 0 60.0421 12.1914 732 105.104 648.388 481.042
257 0 62.0954 12.7385 791 103.053 647.791 480.751
258 0 63.0656 13.1926 832 102.159 647.724 479.968
259 0 64.0844 12.9517 830 103.364 647.73 478.259
260 0 66.063 12.4578 823 104.725 648.204 477.888
261 0 67.1949 13.4385 903 102.076 648.766 476.393
262 0 70.0889 12.3272 864 105.182 648.418 475.426
263 0 70.0661 12.4882 875 106.113 649.437 475.177
264 0 73.0784 12.9861 949 105.764 649.19 474.407
265 0 74.0992 12.1594 901 107.648 648.689 474.534
266 0 74.1171 12.1969 904 138.49 647.681 474.535
267 0 79.1858 13.5883 1076 105.4 649.148 469.253
268 0 83.0822 13.5408 1125 104.764 649.782 469.75
269 0 85.0824 11.2362 956 110.03 649.128 468.78
270 0 88.1873 13.6641 1205 104.901 649.862 465.754
271 0 90.173 12.8087 1155 108.048 649.133 464.756
272 0 88.1663 12.0341 1061 136.225 648.113 462.926
273 0 93.2169 9.98746 931 113.075 649.148 464.86
274 0 99.2336 11.9717 1188 109.016 648.477 462.728
275 0 99.2445 12.0208 1193 133.919 649.484 462.557
276 1 54.0545 10.2674 555 99.2757 649.122 479.065
277 0 59.0578 12.0052 709 102.281 647.74 483.049
278 0 58.0555 11.644 676 133.926 646.707 482.473
279 0 59.0809 12.9991 768 97.0286 649.52 481.565
280 0 59.1062 10.1343 599 102.843 649.863 483.12
281 0 62.1055 10.6915 664 100.899 649.815 481.741
282 0 63.1165 11.2015 707 101.694 649.511 478.898
283 0 64.0836 12.1248 777 101.376 649.407 476.967
284 0 67.0882 12.2674 823 100.569 649.68 475.773
285 0 69.1627 12.1597 841 101.171 649.747 475.77
286 0 72.1427 11.9763 864 102.137 649.453 476.043
287 0 74.1341 11.142 826 104.656 649.473 473.602
288 0 77.1271 11.3579 876 103.419 649.43 473.911
289 0 76.2548 11.7238 894 104.823 649.136 472.549
290 0 81.1939 11.8605 963 105.313 648.824 469.268
291 0 83.1518 11.954 994 104.871 649.976 469.237
292 0 83.1648 11.9522 994 135.906 650.976 469.062
293 0 87.2485 11.301 986 105.581 649.82 469.031
294 0 91.1541 11.9468 1089 104.999 650.026 465.611
295 0 94.1642 10.6622 1004 106.982 650.272 464.002
296 0 98.2516 12.468 1225 104.024 649.329 461.109
297 0 101.123 11.481 1161 103.88 650.239 461.764
298 1 57.0376 10.5895 604 98.197 650.588 482.826
299 0 57.1091 11.014 629 95.8696 650.366 483.25
300 0 58.0623 12.1938 708 92.7387 646.952 482.202
301 0 58.0623 12.2282 710 116.458 645.918 481.987
302 0 59.0984 10.0003 591 96.533 646.577 482.357
303 0 64.0862 11.5313 739 93.6806 646.501 479.507
304 0 64.2359 10.7261 689 95.0029 646.547 479.483
305 0 68.0854 13.9384 949 89.3635 647.132 475.567
306 0 67.1037 11.5195 773 93.0893 647.975 475.475
307 0 68.1055 11.908 811 106.947 648.98 476.182
308 0 69.1218 11.0095 761 107.926 649.882 477.31
309 0 77.1122 10.7765 831 88.8038 648.171 470.582
310 0 77.061 10.2516 790 90.5544 647.475 467.072
311 0 82.1838 10.5374 866 90.6501 647.232 468.008
312 0 84.1662 9.83768 828 92.6437 647.482 464.173
313 0 88.0999 11.7367 1034 92.7176 647.094 467.249
314 0 90.1166 10.6751 962 94.5717 646.964 462.687
315 0 93.1289 11.7472 1094 95.8803 647.113 460.519
316 1 43.2579 8.9001 385 89.5922 647.93 482.112
317 0 48.0394 9.47139 455 91.7626 647.134 488.158
318 0 51.0594 10.9872 561 89.3191 646.64 487.848
319 0 50.0361 12.3111 616 89.7419 646.851 486.828
320 0 51.1097 10.5068 537 92.6425 646.866 486.693
321 0 51.0811 10.7868 551 92.9927 647.082 487.1
322 0 54.0746 12.1314 656 91.753 647.018 483.439
323 0 56.0519 10.7936 605 92.9702 646.982 483.466
324 0 57.1053 11.7852 673 92.208 646.773 483.397
325 0 62.0843 12.8535 798 88.0388 647.584 482.152
326 0 63.0525 11.5142 726 91.0702 647.854 480.03
327 0 63.1684 11.0023 695 92.8014 647.374 479.363
328 0 63.1684 10.939 691 120.815 647.391 479.385
329 0 70.1321 11.4641 804 91.4353 647.583 479.155
330 0 70.0972 10.7565 754 94.2772 647.65 477.325
331 0 76.1351 12.688 966 91.7681 647.838 475.461
332 0 76.0791 11.1069 845 94.5692 648.334 475.194
333 0 81.176 11.6537 946 93.0307 648.703 473.617
334 0 84.2163 12.5273 1055 92.8 648.641 470.689
335 0 86.1433 12.1077 1043 94.6405 648.357 471.958
336 0 90.2092 12.2161 1102 94.971 648.517 469.508
337 0 94.278 13.6299 1285 93.2514 648.81 464.139
338 1 52.1533 12.2332 638 90.3903 649.063 488.621
339 0 50.1344 11.5888 581 91.883 648.014 488.632
340 0 52.0979 11.5744 603 94.4013 649.35 487.362
341 0 56.0354 11.5284 646 96.0031 649.879 486.396
342 0 56.0926 13.4777 756 87.6045 648.804 486.193
343 0 57.07 12.511 714 89.2185 649.493 485.099
344 0 60.1458 12.769 768 88.974 649.083 482.341
345 0 61.1661 13.7658 842 88.7007 649.118 482.429
346 0 63.0775 14.1889 895 87.667 649.076 482.009
347 0 67.1575 13.4162 901 89.8479 647.542 481.146
348 0 68.1448 12.855 876 90.8721 647.424 479.574
349 0 68.0387 11.9638 814 93.4619 647.869 478.311
350 0 72.0887 13.9828 1008 90.3234 648.303 478.089
351 0 72.1104 11.4269 824 94.5558 648.91 476.067
352 0 75.1616 12.2669 922 94.3004 649.195 475.771
353 0 77.0851 12.4148 957 95.7064 648.897 471.367
354 0 79.1052 11.4658 907 97.1455 648.31 474.107
355 0 82.1585 11.6969 961 98.4287 648.767 472.339
356 0 86.1437 13.5007 1163 96.3371 648.206 468.759
357 0 89.2052 11.6697 1041 99.5226 648.173 471.127
358 0 92.1598 11.2088 1033 101.718 648.253 468.768
359 0 95.3641 12.5414 1196 106.765 648.314 464.585
360 0 100.148 13.9394 1396 103.75 648.03 463.908
361 1 51.1893 10.4709 536 101.424 649.151 487.978
362 0 51.0714 9.75105 498 99.0542 650.329 487.773
363 0 54.1738 12.5522 680 90.5441 649.768 487.782
364 0 55.2046 12.9156 713 91.3731 649.366 484.914
365 0 57.1989 11.1016 635 94.0724 649.628 484.077
366 0 59.2003 13.9864 828 89.0024 649.825 483.978
367 0 60.1001 12.0632 725 93.1352 650.058 483.505
368 0 62.1917 10.9339 680 94.9676 649.775 484.104
369 0 64.082 13.5764 870 91.2483 649.913 481.61
370 0 63.1579 11.7167 740 95.3838 649.727 480.646
371 0 67.1573 13.3567 897 93.3913 649.538 478.883
372 0 70.1591 12.2864 862 95.7889 649.696 479.853
373 0 72.1339 13.4472 970 93.8701 650.084 477.741
374 0 74.1754 12.5783 933 96.8735 649.923 477.399
375 0 75.1426 13.6807 1028 96.534 649.742 475.808
376 0 79.115 13.6637 1081 97.2081 649.547 477.195
377 0 81.1229 12.4749 1012 102.477 648.968 473.403
378 0 84.1053 13.1264 1104 101.365 648.978 471.01
379 0 85.0819 12.153 1034 102.985 649.321 471.216
380 0 89.2129 13.6976 1222 101.067 649.858 469.575
381 0 91.0719 12.5835 1146 103.787 649.191 465.533
382 0 95.1144 12.4902 1188 105.063 649.212 466.974
383 0 99.1721 13.3404 1323 102.985 649.562 464.305
384 0 103.15 12.6806 1308 104.508 649.424 462.694
385 0 106.127 12.5604 1333 105.192 648.812 461.275
386 1 51.2161 11.9103 610 101.546 648.39 485.331
387 0 53.206 12.1039 644 100.483 647.93 485.203
388 0 55.1399 12.4774 688 102.709 648.388 486.1
389 0 58.1095 12.9583 753 100.469 647.969 485.716
390 0 60.1028 12.3122 740 99.4662 648.374 484.766
391 0 60.1093 13.1427 790 98.4025 648.376 483.487
392 0 63.1143 12.517 790 98.4557 648.154 482.591
393 0 66.1339 11.507 761 99.2286 648.699 484.12
394 0 67.0413 12.6788 850 98.9988 648.205 479.091
395 0 70.1073 13.5935 953 97.1931 648.834 477.785
396 0 72.0661 11.5727 834 100.644 648.582 478.519
397 0 76.1105 13.6512 1039 95.5265 648.755 479.212
398 0 79.2018 14.4694 1146 94.9136 648.531 476.003
399 0 81.045 13.0421 1057 97.8761 649.03 476.369
400 0 83.0745 12.868 1069 98.8756 649.377 474.623
401 0 86.1725 13.4382 1158 98.7288 649.713 472.526
402 0 88.1758 12.8493 1133 99.6593 648.376 469.314
403 0 91.1678 13.0638 1191 98.3736 648.364 471.223
404 1 48.16 11.0465 532 99.985 649.758 490.169
405 0 49.0585 11.9857 588 97.4898 649.276 490.209
406 0 51.0865 12.841 656 96.872 648.954 488.486
407 0 51.0147 12.4278 634 98.6577 649.185 488.286
408 0 54.0379 12.9539 700 96.9457 649.639 486.447
409 0 56.1253 13.8084 775 95.3097 649.064 484.55
410 0 58.1109 11.8222 687 98.4672 648.454 485.574
411 0 60.0983 13.6942 823 94.4289 648.426 482.473
412 0 62.2056 12.4105 772 96.7461 648.275 482.894
413 0 63.0959 12.7584 805 96.8683 648.214 482.44
414 0 65.042 12.1768 792 98.0126 647.763 484.119
415 0 70.1052 13.6937 960 95.3469 648.244 480.055
416 0 70.0516 14.6178 1024 95.8027 647.974 476.572
417 0 74.1108 14.2354 1055 95.7517 648.168 477.82
418 0 75.0726 14.3861 1080 98.9732 647.953 475.916
419 0 78.0849 14.1385 1104 99.4683 648.162 474.481
420 0 80.1524 13.1624 1055 101.941 648.333 472.183
421 0 83.1647 13.1787 1096 102.089 648.908 472.827
422 0 86.1297 12.4463 1072 102.852 649.01 470.153
423 0 88.1852 12.3604 1090 110.884 649.016 469.121
424 0 93.2397 12.13 1131 107.766 649.059 470.426
425 1 49.0726 12.8789 632 102.767 649.369 489.601
426 0 48.0402 11.7194 563 103.854 649.268 489.718
427 0 52.2218 12.6958 663 98.2956 649.29 489.119
428 0 52.0414 11.9712 623 100.255 649.762 490.101
429 0 52.0431 12.3936 645 101.335 650.102 487.76
430 0 54.093 11.2954 611 102.964 650.322 486.838
431 0 56.0957 12.853 721 99.932 650.19 486.258
432 0 58.0524 14.3836 835 97.2407 650.509 483.643
433 0 59.1614 11.9673 708 101.517 649.686 485.501
434 0 60.1429 11.9549 719 102.474 649.484 483.549
435 0 64.0777 13.5149 866 98.612 650.313 482.815
436 0 64.1489 12.8139 822 100.701 650.676 481.673
437 0 68.1046 14.1547 964 97.5073 649.7 480.395
438 0 68.1851 12.5834 858 101.111 650.027 478.748
439 0 68.092 11.8957 810 102.812 650.152 479.29
440 0 71.1392 12.3982 882 101.579 650.679 478.145
441 0 75.1032 12.1167 910 98.0648 650.104 479.382
442 0 78.1329 12.7987 1000 97.47 649.752 476.464
443 0 81.1176 13.0058 1055 97.9327 649.325 474.64
444 0 83.1686 12.7212 1058 98.5104 649.585 473.494
445 0 87.0866 12.9871 1131 98.4916 649.996 471.714
446 0 88.313 12.9879 1147 99.3383 650.753 468.793
447 1 47.0709 11.6208 547 102.83 650.689 491.079
448 0 48.1048 12.1817 586 102.309 650.614 491.36
449 0 50.1033 12.3744 620 100.81 650.827 491.003
450 0 52.1657 12.3644 645 106.107 650.806 488.346
451 0 51.0391 12.5786 642 104.607 650.74 487.536
452 0 54.0413 12.9531 700 102.607 650.844 487.733
453 0 58.062 13.1239 762 101.295 650.227 487.667
454 0 57.046 12.674 723 104.313 650.562 486.201
455 0 58.04 12.6464 734 105.816 650.758 486.477
456 0 60.1781 12.463 750 105.711 651.032 484.729
457 0 63.1178 13.1183 828 104.529 651.069 483.448
458 0 63.1124 11.8994 751 107.731 650.427 483.19
459 0 65.1136 12.7316 829 106.119 650.838 483.562
460 0 69.0837 14.1278 976 102.892 650.242 482.064
461 0 71.1304 14.3961 1024 103.762 649.501 480.304
462 0 73.0763 13.6022 994 104.074 649.902 480.976
463 0 74.1482 14.2418 1056 104.527 649.816 476.378
464 0 78.1442 14.0509 1098 104.835 649.742 474.529
465 0 81.1924 14.4225 1171 102.861 650.488 475.137
466 0 82.1366 12.7958 1051 108.286 649.868 473.245
467 0 85.1499 13.0946 1115 106.87 649.931 471.504
468 0 87.1878 11.6071 1012 110.607 649.774 470.042
469 0 91.1892 12.4247 1133 108.348 650.291 469.996
470 0 97.196 13.0046 1264 105.369 649.703 467.308
471 1 46.1206 12.4023 572 99.1451 649.68 490.274
472 0 48.1599 11.9809 577 100.906 649.614 491.075
473 0 51.1516 12.2186 625 99.168 650.131 490.246
474 0 50.1828 11.6375 584 101.937 650.029 488.387
475 0 52.0554 11.1996 583 102.46 649.708 489.961
476 0 53.0881 11.1324 591 102.629 650.467 488.849
477 0 54.2119 10.1454 550 103.793 651.033 488.855
478 0 58.1442 13.0194 757 100.367 650.728 484.452
479 0 60.093 13.4957 811 101.138 649.949 483.531
480 0 62.1553 12.2918 764 103.386 650.188 482.794
481 0 65.0887 14.2114 925 99.6962 650.805 481.222
482 0 67.1351 13.9122 934 101.061 649.883 480.848
483 0 68.2035 12.5507 856 103.633 649.736 481.093
484 0 71.1244 13.863 986 101.933 649.925 478.938
485 0 74.0702 12.0426 892 106.246 650.216 477.768
486 0 76.1959 12.7697 973 105.495 650.33 475.61
487 0 78.1618 12.9987 1016 105.153 650.132 473.805
488 0 82.1937 13.4195 1103 105.382 650.349 472.643
489 0 85.1996 13.709 1168 103.573 649.819 470.42
490 0 89.1205 13.6781 1219 103.217 650.302 469.334
491 0 91.1263 14.8475 1353 100.8 650.287 467.32
492 1 49.0518 13.1494 645 102.147 650.71 487.865
493 0 52.0343 11.8191 615 104.514 649.803 487.397
494 0 53.0402 12.5754 667 99.5517 650.048 486.075
495 0 55.115 13.4446 741 95.691 649.637 487.437
496 0 56.0823 12.4282 697 98.1176 649.74 486.516
497 0 57.1017 14.0802 804 95.8545 649.898 485.694
498 0 57.0998 13.205 754 98.8249 649.801 484.328
499 0 60.0676 13.285 798 97.693 649.764 485.071
500 0 62.0915 13.3191 827 99.3337 650.053 485.042
501 0 66.0875 14.2841 944 98.59 649.932 482.375
502 0 66.077 13.8323 914 102.452 650.036 482.85
503 0 67.1185 14.4372 969 102.741 650.021 481.514
504 0 71.0946 13.911 989 103.192 649.943 480.228
505 0 73.0893 14.1881 1037 103.624 650.002 478.409
506 0 74.164 14.4545 1072 103.514 649.566 478.111
507 0 77.1117 13.5647 1046 105.884 649.582 477.13
508 0 80.2091 12.9661 1040 107.587 649.207 476.045
509 0 82.1612 13.5465 1113 107.537 649.993 474.473
510 0 85.1219 14.8375 1263 105.671 649.881 471.829
511 0 86.1604 13.2079 1138 110.142 649.532 469.967
512 0 93.0983 13.5019 1257 109.394 648.868 468.34
513 0 94.1946 13.6526 1286 120.795 648.802 467.192
514 0 98.1261 14.0126 1375 113.732 648.5 463.903
515 0 104.183 15.4728 1612 109.238 648.082 465.116
516 0 106.199 14.2656 1515 114.528 647.572 460.962
517 0 108.274 13.8261 1497 114.12 648.609 461.351
518 0 111.237 13.1971 1468 112.185 648.666 461.117
519 0 117.176 12.7159 1490 109.791 648.289 458.346
520 1 61.1468 13.2468 810 102.805 648.73 484.727
521 0 64.1052 12.3859 794 104.445 650.458 483.228
522 0 66.0768 14.241 941 100.039 648.716 482.048
523 0 67.0926 12.9373 868 102.923 649.543 479.95
524 0 70.0996 13.7233 962 100.639 649.672 478.826
525 0 72.0432 12.9367 932 102.283 650.025 478.288
526 0 75.2012 12.9652 975 102.139 650.473 477.376
527 0 77.0389 13.6165 1049 100.971 649.431 476.528
528 0 81.0988 13.8843 1126 100.712 649.468 473.23
529 0 84.1245 14.1576 1191 100.448 649.528 472.411
530 0 87.0756 15.343 1336 98.5988 650.144 469.287
531 0 89.0708 14.7299 1312 101.249 648.88 468.55
532 0 92.1974 13.9158 1283 111.553 648.869 468.981
533 0 95.2583 13.5526 1291 112.243 648.404 468.489
534 0 98.2492 14.0764 1383 112.141 648.353 463.829
535 0 102.089 13.7918 1408 113.196 647.927 462.857
536 0 105.169 14.3198 1506 111.583 648.503 461.036
537 0 109.15 13.5593 1480 113.223 648.92 460.324
538 1 53.0305 10.824 574 114.124 648.23 485.671
539 0 58.0905 12.7904 743 106.462 648.511 484.843
540 0 58.0819 12.8267 745 105.693 648.408 483.658
541 0 58.0481 11.9211 692 107.279 649.481 484.072
542 0 64.1229 13.0063 834 103.867 647.385 482.193
543 0 64.0415 11.8361 758 106.095 647.991 480.303
544 0 66.0827 11.6521 770 106.781 647.749 477.647
545 0 69.0604 11.8157 816 103.88 648.151 480.806
546 0 72.1391 11.9075 859 104.617 648.375 478.596
547 0 76.1309 12.9514 986 103.293 648.027 477.418
548 0 79.151 13.7838 1091 101.442 648.55 476.359
549 0 82.167 12.791 1051 102.564 648.174 476.142
550 0 83.2145 13.4832 1122 102.832 648.455 472.809
551 0 85.1344 13.6138 1159 102.629 648.423 469.975
552 0 90.2204 13.3229 1202 100.298 648.334 472.784
553 0 92.14 12.5027 1152 103.069 649.327 470.824
554 0 95.0883 11.9363 1135 105.127 649.149 468.995
555 0 101.095 15.2134 1538 98.9408 649.352 466.614
556 0 104.17 13.4491 1401 103.319 649.598 463.37
557 0 107.221 11.313 1213 105.75 648.979 466.262
558 1 59.0567 12.1409 717 103.894 648.319 485.526
559 0 62.0379 13.7335 852 98.1526 648.778 485.323
560 0 64.1189 12.586 807 100.838 648.535 485.027
561 0 64.0741 12.2046 782 101.577 649.609 484.106
562 0 68.1158 13.11 893 99.832 649.088 482.136
563 0 70.1329 13.0609 916 101.394 648.784 480.654
564 0 71.2163 13.9434 993 100.998 649.07 478.795
565 0 73.0447 13.5807 992 99.0131 649.304 479.765
566 0 77.2204 14.3485 1108 97.8818 648.937 475.898
567 0 79.0749 14.1891 1122 99.279 649.13 475
568 0 81.162 14.1199 1146 102.114 649.459 475.942
569 0 81.0667 12.5946 1021 107.083 648.825 474.945
570 0 84.115 13.113 1103 107.297 648.529 473.804
571 0 87.3296 13.7868 1204 105.17 649.073 471.286
572 0 89.0654 13.1027 1167 107.057 647.84 469.893
573 0 93.1011 12.4918 1163 108.226 648.206 469.341
574 0 96.2744 12.4748 1201 109.187 647.434 466.436
575 1 52.0507 11.0853 577 105.74 647.442 488.154
576 0 55.0267 11.5762 637 98.5934 647.604 485.728
577 0 55.0878 11.4363 630 101.948 650.468 485.435
578 0 55.0836 10.1664 560 102.97 650.88 489.15
579 0 59.0896 11.9987 709 99.8011 650.715 485.777
580 0 60.1324 11.6909 703 101.044 650.967 483.97
581 0 61.1797 11.7523 719 101.064 650.634 484.545
582 0 63.0566 12.7663 805 99.7217 650.489 483.104
583 0 67.1454 10.6783 717 102.746 650.626 481.922
584 0 70.0436 13.1061 918 97.7342 650.466 481.503
585 0 71.1314 11.9216 848 101.218 650.351 481.213
586 0 74.1448 12.4621 924 101.157 650.237 479.789
587 0 77.1177 12.669 977 101.954 650.394 477.978
588 0 77.0621 12.5872 970 103.246 650.558 476.444
589 0 81.2062 14.3216 1163 99.5537 650.142 474.148
590 0 85.2691 12.8417 1095 101.41 650.403 476.321
591 0 86.1345 13.0378 1123 102.768 649.982 474.725
592 1 46.0122 11.7577 541 104.597 650.408 493.286
593 0 48.0188 12.5992 605 103.934 650.197 491.747
594 0 50.0762 13.9587 699 101.667 650.31 490.99
595 0 51.0424 12.1076 618 107.333 650.54 490.494
596 0 51.0339 13.0502 666 106.365 650.829 489.204
597 0 52.0294 12.5121 651 107.178 649.757 489.886
598 0 56.0271 12.9937 728 105.029 650.257 488.42
599 0 55.0257 12.2125 672 108.753 650.153 488.074
600 0 58.0972 14.252 828 103.326 649.338 487.44
601 0 61.0454 13.5964 830 104.461 649.536 485.246
602 0 61.1974 13.8078 845 104.079 648.25 486.037
603 0 62.13 13.9385 866 104.664 649.128 484.853
604 0 65.1994 13.6811 892 104.932 648.907 484.221
605 0 66.126 13.7011 906 105.327 648.854 482.147
606 0 69.1304 14.5956 1009 102.909 648.758 482.299
607 0 69.0924 14.1115 975 104.837 649.206 480.574
608 0 73.2258 14.4894 1061 103.405 649.524 479.963
609 0 73.2234 14.2577 1044 104.994 649.501 478.614
610 0 75.2186 13.6137 1024 105.563 649.626 479.996
611 0 79.1969 14.7859 1171 101.249 648.728 478.368
612 0 81.226 13.05 1060 99.6245 648.674 476.949
613 0 82.1435 13.5616 1114 99.6113 648.87 473.12
614 0 85.1071 13.1481 1119 100.622 649.434 472.481
615 0 86.0727 14.0114 1206 99.5871 648.439 470.597
616 0 88.045 10.8808 958 105.743 648.289 469.624
617 1 45.0317 12.7688 575 98.1026 650.226 491.915
618 0 46.0554 11.6164 535 101.512 649.71 492.307
619 0 48.1367 11.779 567 99.7108 650.316 493.155
620 0 49.0803 12.5101 614 99.9935 649.932 491.394
621 0 51.0286 12.738 650 99.7892 649.991 491.846
622 0 54.2387 12.3897 672 100.274 649.643 490.281
623 0 53.1019 12.7302 676 101.308 649.743 489.371
624 0 55.0573 13.5495 746 99.7252 649.316 487.369
625 0 56.0835 13.8722 778 100.222 649.346 485.296
626 0 60.0757 14.1155 848 98.5991 649.311 486.152
627 0 58.0725 12.6221 733 102.902 649.259 485.589
628 0 62.0629 13.728 852 100.594 648.95 483.356
629 0 65.068 15.4146 1003 97.8694 648.997 481.706
630 0 67.2738 15.5335 1045 98.0517 648.901 482.946
631 0 68.1361 13.5024 920 102.453 649.065 481.197
632 0 72.1469 13.0706 943 103.747 648.867 480.053
633 0 76.0701 12.2387 931 106.519 649.171 479.817
634 0 77.1721 14.7333 1137 103.389 648.985 477.156
635 0 80.1756 15.0919 1210 103.275 648.501 475.216
636 0 82.1376 14.2809 1173 105.597 648.267 475.029
637 0 84.1444 13.9878 1177 106.053 648.934 472.816
638 0 88.1277 14.774 1302 104.745 648.586 470.104
639 0 92.1077 14.5482 1340 110.525 648.522 468.466
640 1 48.0979 12.3914 596 112.799 648.685 490.253
641 0 49.1027 12.9321 635 103.157 648.928 491.816
642 0 52.0273 12.2628 638 104.928 649.279 491.031
643 0 54.0676 12.8543 695 105.317 648.578 489.007
644 0 56.1759 14.1342 794 103.055 648.038 488.937
645 0 58.0644 13.9673 811 105.863 648.042 484.919
646 0 62.1786 14.6835 913 103.204 648.106 486.783
647 0 64.2089 15.2627 980 102.952 648.368 486.272
648 0 66.1958 13.5507 897 107.358 648.126 483.701
649 0 67.1253 13.6014 913 107.9 648.209 481.959
650 0 69.0964 13.9515 964 108.203 648.137 480.398
651 0 72.06 14.5157 1046 107.54 647.8 478.8
652 0 74.0935 13.2805 984 112.038 647.912 478.113
653 0 80.079 14.8728 1191 107.814 647.312 479.066
654 0 80.0665 14.3006 1145 112.414 647.04 474.544
655 0 82.0628 13.5262 1110 116.098 647.069 474.628
656 0 87.1941 13.2692 1157 115.08 647.611 474.18
657 1 43.0988 12.4598 537 108.868 648.749 496.337
658 0 47.1583 11.8961 561 107.096 648.968 493.824
659 0 46.0392 13.5537 624 106.659 647.75 494.197
660 0 47.1433 12.3029 580 106.809 649.145 492.852
661 0 45.1038 11.5511 521 110.131 649.282 493.869
662 0 49.0589 11.1499 547 110.329 649.501 492.369
663 0 49.0832 11.9796 588 109.709 649.352 492.587
664 0 51.0344 12.8737 657 108.324 648.186 492.326
665 0 53.0824 12.2639 651 107.002 649.502 490.378
666 0 54.128 12.027 651 107.091 649.215 490
667 0 55.0646 13.5296 745 106.021 649.238 487.745
668 0 56.0112 12.6582 709 108.587 648.161 487.762
669 0 60.0767 12.6339 759 106.465 647.813 487.993
670 0 59.0838 12.1692 719 109.758 647.826 484.893
671 0 63.1123 12.7392 804 108.106 647.995 485.235
672 0 64.0645 13.065 837 108.239 647.873 483.398
673 0 67.1095 12.6212 847 109.168 647.478 482.885
674 0 69.1776 12.4173 859 109.329 647.853 483.733
675 0 73.0519 14.6061 1067 106.322 647.814 479.964
676 0 74.0788 12.9322 958 111.425 648.241 479.469
677 0 77.1149 12.7991 987 111.852 648.42 478.004
678 0 81.2864 12.1176 985 114.434 648.808 476.585
679 0 82.0958 12.9239 1061 114.628 647.85 473.872
680 0 85.1259 12.8398 1093 115.541 648.454 471.735
681 0 89.1419 12.6989 1132 114.196 648.83 471.799
682 0 91.3181 12.5167 1143 115.599 649.329 469.702
683 1 50.1267 12.0894 606 108.982 649.439 489.49
684 0 51.0529 10.2051 521 111.332 648.52 491.505
685 0 53.0363 11.8598 629 108.525 649.542 490.046
686 0 55.1076 11.6681 643 115.337 648.824 489.661
687 0 57.089 12.6995 725 114.677 648.538 486.226
688 0 60.0536 12.5721 755 112.921 648.245 486.728
689 0 62.1251 12.1851 757 113.472 648.458 486.034
690 0 61.1191 12.6965 776 113.446 648.823 485.369
691 0 65.0972 13.1035 853 112.729 648.468 483.434
692 0 66.1761 11.8321 783 114.791 648.239 481.639
693 0 68.1787 12.8486 876 112.5 648.404 481.785
694 0 71.2437 12.1414 865 113.627 648.253 479.929
695 0 73.2176 11.8824 870 113.954 648.78 476.77
696 0 77.1752 12.0764 932 111.391 648.329 476.294
697 0 80.1661 12.5739 1008 108.683 648.769 476.646
698 0 81.1872 11.8738 964 109.321 647.983 474.986
699 0 85.1673 13.1388 1119 106.534 648.533 472.615
700 1 43.0737 9.14712 394 110.147 649.695 495.802
701 0 44.115 11.9687 528 105.739 649.133 492.292
702 0 46.1374 11.1623 515 108.538 649.247 492.777
703 0 48.109 12.2846 591 106.875 649.535 490.327
704 0 50.0448 12.0892 605 107.038 649.474 489.385
705 0 52.1031 10.2681 535 109.484 649.275 489.209
706 0 54.0314 11.9005 643 105.177 648.963 488.535
707 0 54.195 12.658 686 104.382 649.229 487.956
708 0 53.0623 11.8917 631 106.813 649.209 484.822
709 0 58.048 13.1615 764 102.304 649.056 487.028
710 0 60.132 12.6721 762 102.825 649.417 486.261
711 0 61.0404 13.0078 794 102.266 649.529 485.13
712 0 63.0957 11.2369 709 105.914 648.838 484.197
713 0 64.0777 12.8906 826 102.771 648.77 482.479
714 0 66.1353 12.0813 799 104.156 648.839 482.069
715 0 68.0626 12.9587 882 103.234 648.836 481.254
716 0 72.053 12.9488 933 100.96 649.072 481.507
717 0 72.1215 12.2987 887 100.074 649.13 478.477
718 0 74.1919 11.8746 881 101.574 649.224 477.137
719 0 76.3541 11.1323 850 103.129 649.038 473.089
720 0 82.0901 12.7908 1050 99.3038 649.116 475.229
721 0 83.0745 13.0726 1086 100.074 649.559 472.647
722 0 87.1749 11.9186 1039 101.594 649.218 473.313
723 1 43.0636 9.66013 416 97.5312 649.938 495.197
724 0 47.0458 11.4994 541 94.0444 649.556 494.401
725 0 49.0328 11.788 578 94.3045 648.927 492.258
726 0 48.0733 11.6073 558 96.7061 648.923 491.787
727 0 50.0249 10.7746 539 97.2412 648.839 491.686
728 0 53.0281 12.1068 642 95.3645 649.372 489.894
729 0 56.0425 12.6333 708 94.9647 649.27 487.797
730 0 57.0834 11.8774 678 96.3687 649.223 486.612
731 0 59.0518 11.4137 674 96.9169 648.743 488.479
732 0 61.0785 12.2302 747 97.0469 648.74 484.756
733 0 62.1464 13.1625 818 96.4034 648.934 482.967
734 0 66.0515 12.566 830 97.8843 648.68 482.483
735 0 68.1183 12.2728 836 100.135 648.939 481.763
736 0 71.2299 14.0671 1002 96.8932 649.535 479.851
737 0 74.205 12.6946 942 98.7834 649.357 479.864
738 0 77.3703 13.4289 1039 98.9028 648.918 475.051
739 0 77.4694 12.1984 945 102.448 648.979 471.601
740 0 81.38 11.7842 959 102.691 648.681 472.568
741 0 86.4345 13.2702 1147 100.834 648.122 470.673
742 1 44.3217 10.514 466 97.897 649.337 490.627
743 0 47.3936 12.2801 582 95.2646 649.304 491.115
744 0 50.0604 12.7846 640 94.5328 648.542 491.344
745 0 51.1294 13.5343 692 93.6749 648.699 491.75
746 0 52.155 14.0734 734 93.9986 648.409 489.123
747 0 54.1721 13.2541 718 95.7925 647.902 489.368
748 0 56.0544 13.2014 740 96.0459 648.641 488.92
749 0 56.1175 12.6698 711 98.6793 648.588 487.042
750 0 59.0511 13.5137 798 98.9085 648.152 485.679
751 0 61.1159 12.3045 752 100.427 648.551 485.318
752 0 63.1868 12.2177 772 102.098 647.972 483.902
753 0 64.0962 13.5578 869 100.82 647.735 481.685
754 0 67.1733 13.6364 916 101.155 647.465 480.73
755 0 70.3794 14.3082 1007 101.033 647.239 478.487
756 0 72.2772 13.0608 944 103.996 647.148 477.127
757 0 74.5874 12.9781 968 105.213 647.778 475.105
758 0 76.5993 12.2586 939 106.351 647.557 474.173
759 0 80.2929 13.5504 1088 105.288 647.534 471.985
760 0 82.4592 12.6608 1044 107.401 647.495 472.736
761 0 85.3599 13.1326 1121 106.637 647.767 471.994
762 0 87.3196 13.9258 1216 106.102 647.642 468.864
763 0 93.4923 14.0226 1311 105.846 647.936 466.998
764 0 95.5323 13.922 1330 107.069 647.945 466.55
765 0 97.5461 13.1733 1285 110.042 647.946 464.401
766 0 100.433 13.0933 1315 110.135 648.027 463.046
767 0 106.455 14.5883 1553 107.64 648.041 460.712
768 0 108.157 13.0181 1408 111.938 648.688 461.698
769 0 111.093 14.2493 1583 108.534 648.839 460.812
770 1 56.0572 12.844 720 106.036 648.56 486.874
771 0 59.0961 12.3697 731 103.248 648.773 488.012
772 0 59.271 12.5863 746 105.957 648.466 481.79
773 0 63.1461 12.0039 758 107.27 647.86 485.798
774 0 64.1654 13.0756 839 106.081 648.673 486.236
775 0 67.1937 12.9476 870 109.008 648.52 481.821
776 0 69.3597 12.1252 841 111.306 649.3 478.35
777 0 72.241 12.6798 916 110.263 648.811 479.046
778 0 75.3892 14.1665 1068 109.097 649.208 475.066
779 0 77.3229 12.7776 988 112.481 649.213 476.776
780 0 81.5228 13.3092 1085 112.045 648.969 474.295
781 0 83.5734 13.9638 1167 111.495 648.94 473.809
782 0 87.3841 14.9913 1310 107.98 649.247 473.799
783 0 89.5055 13.3623 1196 114.424 648.904 468.72
784 0 90.2342 13.5536 1223 115.295 648.346 466.763
785 0 95.5651 13.6765 1307 113.782 647.974 466.857
786 0 98.4652 12.6745 1248 116.748 648.509 464.531
787 0 100.457 11.7563 1181 119.162 648.878 463.235
788 0 105.37 13.78 1452 114.19 648.202 461.914
789 0 107.686 12.4622 1342 119.031 647.645 458.958
790 1 58.5725 12.412 727 105.142 649.319 484.615
791 0 59.1436 12.7317 753 105.831 648.1 485.952
792 0 61.142 11.9885 733 107.491 648.558 485.854
793 0 63.3041 11.4053 722 110.217 648.686 482.645
794 0 65.1651 11.1716 728 109.919 648.633 482.264
795 0 67.1885 12.3682 831 109.036 647.793 480.734
796 0 70.3525 11.5277 811 109.567 647.282 480.152
797 0 73.2658 13.4032 982 106.055 647.596 477.413
798 0 73.3132 11.0212 808 111.832 647.286 475.807
799 0 76.3263 11.2936 862 111.585 646.919 474.182
800 0 79.3135 12.5325 994 108.863 646.532 470.17
801 0 82.3978 11.3838 938 110.791 646.56 470.29
802 0 85.4568 11.7252 1002 110.011 646.736 468.429
803 0 87.6018 11.381 997 112.105 647.025 464.298
804 0 89.3857 10.4938 938 112.778 646.259 464.991
805 0 94.3283 11.566 1091 110.773 646.856 462.888
806 0 95.3781 12.2565 1169 109.245 647.031 460.786
807 0 99.5018 12.7736 1271 109.304 646.798 459.424
808 0 102.446 11.3133 1159 111.178 647.32 458.208
809 0 105.285 11.1602 1175 112.127 646.864 455.073
810 0 111.222 12.7313 1416 108.04 646.689 453.864
811 0 114.414 12.2712 1404 108.497 646.595 454.214
812 1 60.3445 12.0972 730 100.771 647.212 481.941
813 0 63.0499 11.3085 713 101.896 646.93 481.865
814 0 64.1764 11.7489 754 99.2056 646.155 480.137
815 0 64.1138 11.23 720 100.897 646.268 479.428
816 0 68.1282 11.5958 790 100.344 646.19 479.97
817 0 71.1002 10.9564 779 101.231 646.729 477.263
818 0 73.1852 10.9175 799 100.438 646.801 475.18
819 0 74.0988 10.594 785 103.252 646.483 474.406
820 0 77.1337 11.8366 913 99.9617 647.134 474.596
821 0 78.151 10.2622 802 103.374 646.633 475.257
822 0 82.1303 11.7861 968 101.249 647.425 470.794
823 0 84.1704 12.4034 1044 100.495 646.986 471.09
824 0 85.3904 12.7766 1091 107.565 647.414 471.411
825 0 87.1405 12.3708 1078 109.128 646.202 470.016
826 0 89.1412 11.8239 1054 110.544 646.854 468.685
827 0 91.2389 11.9686 1092 110.789 646.988 467.523
828 0 94.1556 12.1607 1145 111.423 646.942 464.152
829 0 96.1898 10.0219 964 107.722 647.593 466.297
830 0 100.134 10.1164 1013 107.725 646.857 464.442
831 0 103.175 10.6227 1096 107.674 647.501 460.596
832 0 102.196 6.45819 660 79.4 649.061 469.197
833 0 110.201 11.8692 1308 105.326 648.175 459.419
834 0 114.178 11.3069 1291 107.255 647.748 456.188
835 0 118.261 11.0011 1301 106.683 648.243 452.682
836 0 122.173 11.4428 1398 105.821 647.468 451.453
837 1 68.1738 11.412 778 99.2635 648.871 479.305
838 0 71.1672 12.2247 870 98.4885 648.015 479.317
839 0 73.1209 11.8024 863 99.7404 646.487 474.991
840 0 75.1864 12.0101 903 98.7398 646.333 476.104
841 0 77.13 10.787 832 101.507 646.258 475.839
842 0 80.1225 12.1689 975 99.0872 646.66 474.949
843 0 82.1781 11.4264 939 101.096 646.418 472.257
844 0 84.1014 13.0319 1096 99.5237 646.451 471.879
845 0 85.1197 11.3487 966 102.51 647.156 469.865
846 0 88.076 11.2857 994 103.065 648.454 470.648
847 0 93.2202 12.3042 1147 101.806 648.861 467.021
848 0 94.1844 11.2651 1061 104.549 648.503 466.369
849 0 97.3646 9.96256 970 107.465 648.204 463.95
850 0 101.125 11.6588 1179 105.13 647.746 461.176
851 0 105.303 11.6142 1223 105.154 648.589 460.84
852 1 56.1836 10.0029 562 98.6299 649.221 488.785
853 0 58.0821 10.9156 634 97.724 645.863 483.831
854 0 59.0858 12.1011 715 96.8951 646.126 483.772
855 0 62.1691 12.3051 765 100.495 648.629 483.295
856 0 64.0951 12.2318 784 100.583 648.269 481.508
857 0 64.0916 11.7332 752 101.979 648.447 481.916
858 0 67.0632 13.3009 892 97.435 649.002 482.557
859 0 68.099 11.7917 803 101.161 648.416 479.797
860 0 71.2534 11.7889 840 102.377 647.707 479.167
861 0 72.165 13.7601 993 99.424 647.576 477.326
862 0 75.1434 13.7337 1032 100.494 648.067 476.149
863 0 76.2191 13.2644 1011 101.661 648.118 476.594
864 0 80.2105 14.8734 1193 98.2749 648.073 475.5
865 0 82.1933 13.4804 1108 102.562 648.144 473.045
866 0 85.2407 12.4119 1058 105.488 648.186 471.744
867 0 87.3558 12.8097 1119 104.676 648.54 470.656
868 0 89.3576 13.8544 1238 104.008 649.059 467.094
869 0 93.1803 12.9748 1209 106.329 647.882 466.596
870 0 95.1048 13.3432 1269 106.147 648.132 465.796
871 0 99.2135 12.6394 1254 108.259 648.447 461.32
872 1 51.0851 11.1383 569 109.568 648.982 486.815
873 0 54.036 12.0475 651 107.339 649.146 487.081
874 0 51.2032 11.9719 613 96.5139 646.92 477.817
875 0 53.0649 12.5884 668 90.503 646.558 481.013
876 0 55.1262 10.1585 560 95.1714 646.945 478.829
877 0 58.0758 12.0704 701 91.6077 647.408 478.334
878 0 57.1296 10.1173 578 95.5813 647.194 478.142
879 0 60.2255 10.826 652 94.8528 647.517 476.146
880 0 62.166 10.7615 669 95.3019 647.33 475.266
881 0 65.09 12.644 823 91.7716 647.154 476.543
882 0 68.0629 11.0045 749 94.8438 647.51 474.252
883 0 69.1254 10.8209 748 95.988 647.471 473.374
884 0 73.1126 12.0909 884 94.1029 647.686 472.905
885 0 74.1014 11.5382 855 96.0269 647.565 470.069
886 0 75.1543 11.8955 894 96.0761 648.2 468.379
887 0 80.1055 13.994 1121 93.5334 647.913 468.664
888 0 81.1122 11.6752 947 98.2798 647.748 468.71
889 0 85.1028 12.056 1026 97.8421 647.895 467.366
890 0 89.141 13.7871 1229 107.973 647.364 468.727
891 1 50.0306 12.6123 631 107.377 646.664 488.536
892 0 50.0241 11.3145 566 109.97 646.76 490.496
893 0 53.1764 12.562 668 92.0135 647.801 481.963
894 0 52.0925 11.3836 593 95.3946 647.735 481.174
895 0 53.2114 11.6704 621 96.0145 647.403 478.997
896 0 58.0906 11.5337 670 94.8239 647.418 481.812
897 0 58.1333 12.2133 710 95.1521 647.808 478.92
898 0 59.195 10.8286 641 97.4165 647.324 477.925
899 0 62.1352 11.0887 689 96.3556 647.627 479.245
900 0 64.1563 12.7969 821 94.7077 647.295 475.474
901 0 65.1515 14.0902 918 92.5512 647.182 476.484
902 0 67.1645 12.3131 827 95.7981 647.226 475.207
903 0 69.116 13.0939 905 95.3691 647.092 472.972
904 0 72.1825 12.8702 929 94.8181 647.055 472.296
905 0 74.0533 12.8151 949 95.078 647.353 472.249
906 0 73.1589 11.4272 836 99.4019 647.184 468.036
907 0 79.0794 13.518 1069 95.7306 647.136 470.057
908 0 81.2456 12.4437 1011 102.847 648.023 475.369
909 0 84.1532 14.0696 1184 99.9409 648.129 472.839
910 0 89.0927 14.266 1271 99.0865 647.684 470.632
911 0 90.2867 13.2024 1192 102.389 647.613 470.16
912 0 94.2142 13.257 1249 102.004 647.809 467.807
913 0 99.1352 13.8094 1369 98.9109 647.751 469.161
914 1 49.067 11.9429 586 103.524 648.131 488.696
915 0 51.1806 12.5634 643 98.353 646.268 487.827
916 0 54.0475 12.4705 674 100.352 646.533 487.795
917 0 54.0956 12.3485 668 100.395 646.448 490.747
918 0 54.2384 12.4635 676 99.8595 646.604 489.064
919 0 56.12 12.0991 679 101.604 646.838 485.427
920 0 58.2295 11.5921 675 102.939 646.858 484.527
921 0 59.0309 10.9265 645 104.377 646.806 486.274
922 0 61.0838 11.9181 728 102.777 646.929 481.992
923 0 64.1468 12.4246 797 100.877 647.576 481.908
924 0 68.0433 12.154 827 99.8984 647.793 482.992
925 0 67.117 9.72929 653 104.606 648.09 484.851
926 0 71.2047 13.3137 948 97.6371 647.274 479.81
927 0 73.2365 12.5484 919 100.374 646.605 477.379
928 0 75.1628 10.8298 814 103.557 646.806 475.899
929 0 76.2095 12.8462 979 100.672 647.135 472.74
930 0 80.1532 11.8149 947 100.704 647.148 475.432
931 0 80.2162 12.1173 972 102.523 647.115 471.97
932 0 85.1334 12.9327 1101 100.223 647.788 471.619
933 0 86.0915 12.6958 1093 102.237 647.136 469.663
934 0 88.0802 12.1934 1074 103.035 647.343 468.468
935 0 92.1891 12.2249 1127 101.867 647.39 468.285
936 0 96.2296 11.6804 1124 102.976 646.678 468.083
937 1 52.1577 11.9254 622 101.527 646.365 485.137
938 0 54.1542 11.7996 639 100.85 647.398 487.243
939 0 56.1538 12.1274 681 100.044 649.466 483.838
940 0 55.0643 11.8407 652 94.3574 648.219 480.179
941 0 57.1541 12.4925 714 94.0084 648.252 477.548
942 0 58.1074 11.5648 672 95.8884 648.997 478.504
943 0 57.2606 10.7404 615 98.4211 647.758 475.956
944 0 63.1106 12.2008 770 95.1403 648.02 475.264
945 0 64.0711 12.4393 797 95.414 648.69 474.774
946 0 64.0806 12.2814 787 97.2567 648.574 473.029
947 0 68.1266 12.6089 859 96.0524 647.928 473.758
948 0 67.1253 12.0223 807 99.6976 648.431 469.31
949 0 70.1302 12.5053 877 99.2737 647.961 469.196
950 0 75.0983 12.9297 971 97.0638 648.318 471.105
951 0 76.11 12.8104 975 99.361 648.377 467.795
952 0 79.0835 11.8482 937 102.177 647.599 466.218
953 0 79.1333 12.5611 994 103.176 647.966 462.393
954 0 83.1434 12.5326 1042 102.789 647.695 467.559
955 0 89.1611 13.4251 1197 99.3158 648.027 466.626
956 0 93.0852 14.4491 1345 98.11 646.977 465.891
957 0 94.1848 13.0807 1232 102.416 646.863 459.724
958 0 98.27 12.6692 1245 105.694 647.165 459.804
959 1 50.2306 10.5513 530 105.858 646.526 487.758
960 0 52.1766 12.3235 643 102.482 646.386 485.229
961 0 54.1233 12.2313 662 100.218 646.458 484.328
962 0 57.1367 12.4613 712 99.2528 646.973 483.298
963 0 59.341 13.296 789 98.3777 646.285 484.56
964 0 59.038 13.8216 816 98.94 646.841 484.768
965 0 61.1446 14.1632 866 98.3995 648.516 481.164
966 0 64.1506 14.2477 914 97.4967 649.036 483.009
967 0 66.0953 12.7089 840 100.61 648.607 480.995
968 0 68.0502 13.6664 930 99.4269 648.368 480.296
969 0 70.1635 14.5517 1021 98.05 649.255 480.542
970 0 72.1297 14.571 1051 98.4805 649.072 477.496
971 0 75.0849 12.7056 954 102.373 649.439 475.987
972 0 77.2469 13.4633 1040 101.393 649.496 473.837
973 0 79.075 13.4429 1063 101.798 648.583 472.154
974 0 81.2068 13.0654 1061 102.133 649.197 473.282
975 0 84.1079 13.661 1149 101.608 648.107 470.748
976 0 87.07 12.3694 1077 104.69 647.737 468.633
977 0 88.1707 12.4758 1100 105.208 648.225 469.125
978 0 92.2234 13.3046 1227 104.564 648.199 464.943
979 0 96.3122 13.2278 1274 104.241 648.232 466.206
980 1 50.0446 10.5706 529 105.913 649.369 488.276
981 0 54.2398 12.3341 669 102.336 646.592 484.357
982 0 55.1488 12.8017 706 101.235 646.115 485.551
983 0 54.1913 12.419 673 103.088 646.832 485.002
984 0 58.1616 13.3593 777 100.287 646.618 484.646
985 0 59.0772 12.3398 729 103.808 645.794 483.436
986 0 60.087 13.1143 788 103.711 646.444 482.721
987 0 61.035 13.7462 839 102.367 647.325 479.831
988 0 65.1243 11.5011 749 105.415 647.521 482.422
989 0 69.0306 15.1092 1043 98.5561 647.694 478.138
990 0 69.0736 14.1588 978 102.87 647.322 478.055
991 0 71.0777 12.7044 903 107.547 647.311 475.901
992 0 73.1085 13.2816 971 106.829 647.133 477.704
993 0 75.0805 12.1736 914 111.701 647.522 476.479
994 0 78.1033 13.2645 1036 111.111 646.878 473.787
995 0 80.055 13.0285 1043 113.241 646.708 472.789
996 0 82.1364 12.4549 1023 115.015 647.226 471.583
997 0 85.1151 13.1704 1121 113.837 646.918 470.808
998 0 88.1286 12.7881 1127 116.376 646.642 468.265
999 0 91.1312 13.1898 1202 115.547 646.047 466.204
1000 0 97.1255 14.4452 1403 111.855 646.852 466.185
1001 1 52.0664 10.9283 569 112.909 646.185 487.968
1002 0 52.0222 12.3409 642 103.752 646.597 489.414
1003 0 54.0986 11.9412 646 106.458 647.026 485.803
1004 0 54.0623 11.9307 645 107.095 647.316 486.467
1005 0 57.0462 12.0955 690 105.057 646.901 485.299
1006 0 59.0447 13.2781 784 102.721 647.124 484.031
1007 0 61.0935 12.7837 781 101.828 647.211 483.731
1008 0 62.0557 11.538 716 104.223 647.45 483.672
1009 0 65.0773 13.6453 888 100.09 647.268 482.01
1010 0 64.0728 11.7991 756 104.738 647.201 481.693
1011 0 67.0998 13.2936 892 101.092 647.601 478.309
1012 0 71.1863 13.1486 936 101.356 647.767 479.464
1013 0 73.2059 13.0044 952 101.895 647.263 476.985
1014 0 74.0381 12.2775 909 104.087 647.428 477.663
1015 0 76.0704 12.5016 951 104.352 646.866 474.39
1016 0 80.0571 12.7409 1020 103.057 647 473.774
1017 0 82.0792 14.0718 1155 100.279 646.681 469.105
1018 0 84.2158 12.7055 1070 105.351 647.086 470.507
1019 0 89.262 14.351 1281 100.668 646.939 471.206
1020 0 91.2543 12.9199 1179 104.654 647.219 469.99
1021 0 93.1886 14.4438 1346 102.008 647.14 466.493
1022 0 98.2401 14.434 1418 100.447 647.162 468.423
1023 0 102.335 13.5731 1389 102.492 647.389 465.151
1024 1 57.2949 12.7236 729 105.281 647.653 486.262
1025 0 56.0227 10.9063 611 110.401 646.813 485.229
1026 0 61.0691 13.8204 844 104.771 648.447 483.262
1027 0 63.1726 14.2625 901 103.942 648.35 483.049
1028 0 63.2135 13.4465 850 107.055 648.376 482.107
1029 0 65.1074 13.4854 878 107.156 648.779 479.616
1030 0 67.0822 13.1629 883 107.106 648.72 480.678
1031 0 69.1638 13.7355 950 105.831 648.68 478.492
1032 0 75.1175 13.3258 1001 106.375 648.123 477.671
1033 0 76.1138 13.5061 1028 105.414 649.013 476.37
1034 0 78.102 12.855 1004 107.09 648.876 474.766
1035 0 81.0873 13.9233 1129 105.023 648.819 473.675
1036 0 83.1633 12.241 1018 109.397 648.85 471.884
1037 0 86.0933 14.101 1214 105.778 648.194 469.381
1038 0 88.0686 13.0694 1151 107.181 648.952 470.278
1039 0 92.3313 13.6357 1259 107.736 648.824 467.887
1040 1 48.0399 11.7402 564 107.238 648.819 488.551
1041 0 51.0977 11.5661 591 105.623 648.134 488.347
1042 0 54.0806 12.7403 689 102.372 649.568 486.711
1043 0 54.2021 11.328 614 99.6612 649.805 485.319
1044 0 56.1957 12.6166 709 96.8604 649.993 486.126
1045 0 57.2281 15.7091 899 90.0033 649.412 482.469
1046 0 60.2529 13.4765 812 93.5148 649.462 483.733
1047 0 60.1358 13.4529 809 93.7108 649.808 483.146
1048 0 63.1702 12.4742 788 95.3173 650.184 481.03
1049 0 66.1794 13.1914 873 94.3162 649.702 480.377
1050 0 68.1314 13.3419 909 94.495 649.651 479.37
1051 0 70.1424 12.4604 874 95.4142 650.156 480.173
1052 0 73.2319 13.6416 999 94.0631 649.783 475.849
1053 0 75.2255 12.7483 959 95.2325 650.189 477.52
1054 0 77.1587 12.6622 977 96.6745 650.161 474.067
1055 0 79.1605 13.1884 1044 95.8975 649.813 475.132
1056 0 83.2799 12.4039 1033 96.8558 649.861 472.582
1057 0 87.1409 13.6446 1189 94.7267 649.854 470.181
1058 0 88.2155 12.6962 1120 96.7777 649.575 467.404
1059 0 93.1684 12.6652 1180 96.1415 649.53 467.169
1060 0 94.2163 12.206 1150 97.933 648.617 466.513
1061 0 98.1845 14.1468 1389 94.4564 648.814 465.209
1062 1 51.1161 11.3467 580 102.231 650 483.8
1063 0 56.0364 11.3141 634 101.877 649.459 485.856
1064 0 58.1731 12.9613 754 94.5902 649.488 484.71
1065 0 58.1365 12.1438 706 98.2351 649.443 483.067
1066 0 61.0771 13.0491 797 96.054 648.837 483.162
1067 0 62.0598 12.6008 782 98.1253 649.706 482.132
1068 0 65.1091 12.4407 810 98.0988 649.805 483.127
1069 0 66.0461 13.2483 875 96.6857 648.87 480.885
1070 0 71.1798 12.349 879 92.7873 649.185 481.484
1071 0 74.1545 12.1368 900 93.6356 648.817 479.793
1072 0 73.2671 12.7888 937 94.1889 649.266 478.615
1073 0 77.3384 13.7706 1065 92.9455 648.808 476.869
1074 0 79.3123 13.5288 1073 93.9133 649.111 474.958
1075 0 80.1846 12.7456 1022 96.1292 649.263 474.611
1076 0 83.1887 12.2733 1021 97.7963 649.162 473.155
1077 0 87.2132 13.9084 1213 95.3149 648.782 471.627
1078 0 92.3003 13.9869 1291 95.1356 648.707 470.798
1079 0 92.1682 13.1065 1208 98.2268 648.959 467.859
1080 0 97.2605 12.6567 1231 98.8985 648.455 467.436
1081 0 99.2051 11.945 1185 101.149 648.378 465.601
1082 0 101.313 11.3016 1145 103.183 648.908 462.949
1083 0 105.362 12.6421 1332 102.495 648.458 459.908
1084 0 110.285 12.6218 1392 102.914 647.864 459.948
1085 0 113.234 11.4365 1295 106.411 648.102 456.246
1086 1 59.0419 11.7882 696 102.529 649.039 486.25
1087 0 61.0532 13.0706 798 100.742 648.61 485.377
1088 0 60.1929 11.6625 702 103.823 648.966 484.53
1089 0 62.1094 13.4279 834 100.147 649.04 484.303
1090 0 65.1607 12.4768 813 96.6888 648.401 482.189
1091 0 67.1257 12.2755 824 97.6226 648.343 481.257
1092 0 71.0844 12.7595 907 91.5744 649.99 481.217
1093 0 72.1245 11.1335 803 95.6401 649.629 479.242
1094 0 78.2399 12.0399 942 94.6614 649.211 477.309
1095 0 76.2261 12.1874 929 95.5791 648.74 476.691
1096 0 78.2913 13.2454 1037 94.1967 648.327 477.067
1097 0 80.2496 11.5016 923 98.6706 648.567 473.95
1098 0 85.2516 13.032 1111 96.1521 648.149 471.608
1099 0 87.1881 13.9583 1217 95.6984 647.904 468.611
1100 0 90.39 13.1099 1185 96.93 648.166 469.985
1101 0 93.159 13.5038 1258 97.1073 647.628 469.727
1102 0 95.1573 13.0205 1239 98.6546 647.798 469.284
1103 1 52.205 11.8571 619 99.2811 648.947 488.981
1104 0 53.3807 11.4648 612 100.162 649.093 488.657
1105 0 56.1553 12.2696 689 94.4369 648.084 487.432
1106 0 59.1445 12.461 737 100.668 648.079 486.858
1107 0 59.1241 12.5837 744 98.4019 648.688 485.806
1108 0 62.1088 13.0899 813 97.246 648.629 485.496
1109 0 63.1093 13.3578 843 97.2361 648.472 484.306
1110 0 63.0198 11.6471 734 102.365 648.736 486.127
1111 0 67.103 14.3213 961 96.3746 649.491 483.079
1112 0 69.1236 14.0762 973 97.3361 649.273 480.961
1113 0 71.0855 13.2376 941 98.9936 648.909 478.802
1114 0 73.0628 13.5226 988 99.9666 648.675 479.243
1115 0 77.118 13.3562 1030 99.8194 648.954 478.519
1116 0 79.1334 13.433 1063 99.0461 649.071 477.246
1117 0 81.1216 11.452 929 96.9849 648.163 469.611
1118 0 83.2951 11.8855 990 96.1212 648.248 470.45
1119 0 86.124 11.6228 1001 96.6124 648.234 471.545
1120 0 89.3138 12.4617 1113 96.8562 647.486 467.585
1121 0 93.1233 13.1224 1222 96.4795 647.709 466.669
1122 1 47.1676 11.5758 546 94.6374 648.172 487.258
1123 0 49.4285 10.4596 517 97.0967 648.29 490.24
1124 0 50.3147 9.48033 477 97.652 648.113 488.264
1125 0 51.1547 12.1787 623 95.1445 648.411 487.369
1126 0 52.1555 10.0085 522 99.5881 648.762 486.284
1127 0 53.0907 10.4161 553 97.8897 648.514 487.866
1128 0 56.0263 10.4415 585 99.7385 648.728 484.581
1129 0 58.1053 11.8234 687 98.0335 648.627 483.24
1130 0 60.0694 11.5367 693 98.2266 648.688 484.683
1131 0 60.0449 10.5754 635 99.3591 648.98 485.346
1132 0 63.1046 11.3621 717 99.9149 648.653 481.841
1133 0 66.0577 12.3226 814 98.2654 648.856 479.776
1134 0 68.1203 11.5825 789 99.2395 648.911 480.662
1135 0 69.0627 11.2217 775 100.769 648.862 479.728
1136 0 73.0887 12.6559 925 98.4584 648.419 477.745
1137 0 74.0558 13.2873 984 98.1443 648.742 476.748
1138 0 77.1328 12.5628 969 99.547 649.042 474.962
1139 0 79.1759 13.6658 1082 98.6867 648.754 471.474
1140 0 83.1707 13.1416 1093 97.9039 648.273 475.21
1141 0 84.2116 12.2192 1029 98.8154 647.123 465.132
1142 0 88.2643 13.2556 1170 98.0769 647.314 461.526
1143 0 91.3062 12.5074 1142 98.2671 647.726 459.946
1144 0 92.1763 12.2266 1127 98.9707 646.66 459.228
1145 0 96.2961 12.8043 1233 98.2092 647.532 456.8
1146 0 99.2491 13.3704 1327 98.7167 646.781 461.11
1147 1 50.2763 11.039 555 109.629 646.088 481.49
1148 0 53.4015 14.8498 793 103.175 646.518 481.91
1149 0 56.144 13.7682 773 106.115 646.076 482.979
1150 0 56.2524 13.4216 755 106.76 646.816 483.166
1151 0 57.2006 13.7062 784 106.557 646.802 481.869
1152 0 58.149 13.0699 760 107.984 646.434 482.113
1153 0 61.1097 13.0748 799 107.536 647.33 481.242
1154 0 64.2398 14.8195 952 103.817 646.966 479.269
1155 0 66.1801 12.8891 853 106.679 647.375 477.682
1156 0 68.1569 14.8774 1014 103.075 647.63 477.776
1157 0 69.214 14.5057 1004 105.389 647.43 475.767
1158 0 72.153 13.7486 992 107.095 647.403 473.951
1159 0 73.1494 13.8757 1015 107.838 647.702 470.982
1160 0 79.2048 14.0774 1115 108.073 647.543 471.031
1161 0 80.5616 13.5548 1092 110.502 647.269 468.583
1162 0 83.4109 14.7223 1228 108.562 647.176 465.847
1163 0 86.187 13.726 1183 110.217 647.612 462.134
1164 1 47.0358 11.7357 552 108.668 647.795 480.237
1165 0 48.1118 11.3694 547 106.788 648.3 482.384
1166 0 51.2116 13.083 670 102.763 648.203 483.245
1167 0 52.0706 12.1374 632 103.763 647.536 488.168
1168 0 56.1809 14.2041 798 99.208 647.368 485.91
1169 0 55.1276 12.2625 676 103.981 648.533 486.061
1170 0 60.1903 15.75 948 96.8629 647.739 483.069
1171 0 61.1347 14.1818 867 100.501 647.582 482.565
1172 0 63.1964 12.8488 812 102.227 647.518 482.858
1173 0 64.1741 12.7622 819 102.546 648.322 481.974
1174 0 70.2353 12.9137 907 101.902 647.763 480.309
1175 0 70.1864 13.6494 958 100.81 648.124 478.82
1176 0 73.297 13.3975 982 102.227 647.799 476.004
1177 0 77.2302 13.2591 1024 102.784 647.932 474.916
1178 0 78.1392 12.3626 966 107.061 647.375 477.422
1179 0 80.1731 12.3857 993 114.411 647.208 472.756
1180 0 87.3776 14.3401 1253 109.502 646.97 472.49
1181 1 44.0432 10.081 444 108.991 647.772 492.993
1182 0 46.0898 12.3238 568 105.336 647.229 490.583
1183 0 49.2689 12.4419 613 103.858 648.005 488.99
1184 0 50.0211 11.755 588 106.189 646.733 488.372
1185 0 51.0302 12.6396 645 106.206 647.707 487.065
1186 0 54.0657 13.0027 703 106.082 646.939 487.36
1187 0 55.101 13.6477 752 106.141 647.558 485.473
1188 0 57.0568 12.6015 719 108.049 646.815 484.569
1189 0 57.094 13.3289 761 107.522 646.082 482.849
1190 0 61.1382 14.3773 879 105.008 646.724 481.605
1191 0 60.1014 12.0463 724 112.735 646.46 479.899
1192 0 65.1678 13.5343 882 107.978 647.342 480.709
1193 0 67.1895 12.9484 870 108.69 646.653 479.726
1194 0 69.1817 13.3417 923 108.069 646.543 476.698
1195 0 70.0795 12.0292 843 110.991 646.663 477.726
1196 0 74.1124 12.8723 954 108.76 646.748 475.223
1197 0 76.1567 13.7874 1050 107.151 646.639 473.545
1198 0 78.0976 13.3039 1039 108.549 646.644 472.659
1199 0 81.0659 13.5322 1097 108.408 646.742 471.261
1200 0 84.1531 12.2871 1034 110.652 646.584 470.712
1201 0 85.1723 12.6919 1081 110.772 646.809 467.733
1202 0 89.2215 13.0686 1166 109.306 646.705 468.504
1203 0 91.1866 12.1509 1108 112.169 646.288 463.899
1204 0 95.3672 13.5057 1288 108.964 645.908 464.717
1205 0 98.1445 13.0114 1277 110.861 646.166 460.002
1206 0 100.217 13.1515 1318 113.488 646.685 458.526
1207 1 54.0728 10.4674 566 110.198 646.129 484.913
1208 0 54.0456 10.0101 541 113.606 645.647 483.004
1209 0 57.0722 11.2489 642 108.079 645.662 484.558
1210 0 58.0474 11.4389 664 110.306 645.614 481.524
1211 0 58.0997 10.6541 619 110.292 645.782 481.701
1212 0 61.0833 10.1828 622 111.608 645.841 480.863
1213 0 63.2037 11.1069 702 109.228 646.216 482.778
1214 0 66.1661 10.9422 724 109.541 646.383 479.744
1215 0 67.1493 10.7373 721 109.467 646.526 480.118
1216 0 69.1283 10.5456 729 108.934 646.564 480.421
1217 0 74.2243 12.1119 899 104.739 646.34 476.703
1218 0 73.1226 10.3935 760 109.478 646.175 476.821
1219 0 78.2066 12.9912 1016 104.035 646.995 474.358
1220 0 77.1559 10.7315 828 110.345 645.827 474.37
1221 0 85.2971 12.2396 1044 104.358 646.219 473.032
1222 0 87.3486 11.6888 1021 107.235 644.951 469.907
1223 0 89.1188 13.252 1181 104.247 645.168 469.763
1224 0 92.2891 12.3525 1140 105.989 646.258 467.989
1225 0 92.4213 11.1338 1029 103.988 645.843 458.198
1226 0 94.4635 9.7498 921 102.346 647.403 456.143
1227 0 106.345 11.378 1210 99.319 647.522 464.983
1228 1 52.1131 10.1702 530 94.4396 648.221 487.662
1229 0 52.1954 9.40697 491 95.275 648.884 487.385
1230 0 57.0927 11.2098 640 91.4719 647.783 487.609
1231 0 55.1108 10.4335 575 93.8574 647.41 486.774
1232 0 57.0655 11.3729 649 91.6256 646.829 485.324
1233 0 59.094 10.3902 614 91.3322 648.461 487.7
1234 0 59.0919 10.0691 595 92.9714 647.555 486.324
1235 0 61.0991 11.1622 682 92.6202 647.739 482.422
1236 0 61.2084 10.2274 626 93.5799 647.655 480.395
1237 0 64.2715 11.1247 715 100.873 646.221 481.252
1238 0 67.1838 12.9793 872 97.7557 646.272 479.139
1239 0 67.3364 10.4847 706 102.419 646.144 478.958
1240 0 72.138 11.1314 803 100.994 645.681 478.142
1241 0 69.3012 10.981 761 102.54 644.996 475.945
1242 0 74.1413 11.1948 830 101.829 645.5 475.035
1243 0 78.1761 11.9858 937 100.089 646.083 474.53
1244 0 80.2925 11.7695 945 102.014 645.363 472.206
1245 0 82.2044 10.6564 876 103.295 645.321 473.232
1246 1 48.0374 10.2004 490 100.027 645.161 489.955
1247 0 50.0151 11.0367 552 99.212 645.257 488.163
1248 0 52.1779 11.4225 596 98.9396 647.809 487.963
1249 0 49.0107 9.42652 462 91.7965 647.797 489.108
1250 0 54.231 9.79145 531 91.0584 648.422 487.578
1251 0 52.1676 10.6388 555 91.5514 648.641 484.104
1252 0 51.1565 9.1093 466 93.824 648.049 487.562
1253 0 55.1563 9.11954 503 93.171 648 486.797
1254 0 58.0487 10.4395 606 92.0248 647.587 484.777
1255 0 58.1744 10.9155 635 91.2945 648.34 484.784
1256 0 62.1527 11.8096 734 90.8106 648.664 481.865
1257 0 63.196 9.22527 583 94.4906 648.472 483.612
1258 0 65.1843 10.432 680 93.2632 648.065 482.474
1259 0 68.1313 10.7293 731 94.0383 648.349 479.713
1260 0 70.1151 10.6111 744 94.8723 648.896 479.215
1261 0 70.0855 10.9438 767 97.0756 647.881 478.398
1262 0 73.0563 11.7307 857 96.3244 648.307 479.651
1263 0 76.2206 11.7291 894 96.3579 647.565 477.993
1264 0 76.0872 11.5131 876 98.7294 647.794 477.72
1265 0 78.1113 11.33 885 100.731 647.719 475.641
1266 0 83.1615 11.2793 938 98.7431 647.627 478.084
1267 0 85.1481 11.6033 988 99.7024 647.681 474.831
1268 0 88.1884 12.2352 1079 98.8193 647.08 472.362
1269 0 91.1595 12.1106 1104 98.5734 647.469 470.255
1270 1 54.0713 11.1704 604 101.103 647.556 488.523
1271 0 56.0807 12.1967 684 99.3567 647.713 486.642
1272 0 57.1308 12.2351 699 100.406 646.05 485.798
1273 0 60.1089 12.4274 747 99.091 645.767 483.15
1274 0 62.2138 13.5179 841 97.5244 645.42 482.114
1275 0 62.1114 11.3345 704 102.219 645.658 482.761
1276 0 64.1406 12.5661 806 100.299 646.112 481.241
1277 0 65.06 12.2656 798 100.724 646.058 479.679
1278 0 68.1148 12.3909 844 100.404 646.464 479.662
1279 0 68.0616 11.71 797 102.955 645.748 478.03
1280 0 68.0765 12.2509 834 102.053 646.874 479.375
1281 0 72.1328 13.3781 965 99.5534 646.716 474.768
1282 0 75.2067 13.2967 1000 99.743 646.662 475.776
1283 0 76.1218 12.6245 961 102.785 645.667 473.32
1284 0 80.1822 13.9308 1117 98.5533 646.806 472.201
1285 0 83.3178 13.1785 1098 100.675 646.976 471.238
1286 0 81.3505 11.5426 939 104.962 646.75 471.195
1287 0 86.2544 13.1587 1135 101.875 646.798 470.417
1288 0 90.329 14.0154 1266 100.363 646.896 468.698
1289 0 93.0561 13.422 1249 99.1513 646.572 466.746
1290 0 96.3406 11.6566 1123 99.7818 646.065 461.878
1291 0 95.2975 11.5113 1097 101.469 646.333 458.37
1292 0 100.311 12.4712 1251 100.294 646.667 455.769
1293 0 103.525 13.1176 1358 99.6134 647.062 456.888
1294 0 105.393 11.3859 1200 110.898 647.238 452.527
1295 1 56.1354 10.9913 617 98.1815 646.394 485.909
1296 0 56.1247 10.0847 566 99.1961 646.465 485.067
1297 0 58.091 13.6166 791 95.0531 647.206 483.435
1298 0 59.1836 11.4897 680 98.5853 647.398 483.322
1299 0 60.1207 11.2441 676 99.3077 647.268 482.13
1300 0 63.0834 11.889 750 98.7693 647.003 480.167
1301 0 65.1005 11.8432 771 98.5785 646.982 480.224
1302 0 69.1026 12.7636 882 96.0102 647.892 478.329
1303 0 70.1325 13.6456 957 94.1641 647.728 476.72
1304 0 71.1311 11.3453 807 99.596 646.576 473.848
1305 0 76.2062 12.2956 937 97.9296 646.541 473.727
1306 0 77.3388 13.331 1031 96.3996 646.186 473.185
1307 0 80.144 12.4526 998 98.5822 646.47 470.179
1308 0 81.1377 12.8177 1040 98.9692 646.499 468.56
1309 0 82.1975 11.667 959 101.481 646.866 467.101
1310 0 86.1693 12.1969 1051 101.029 647.637 467.889
1311 0 90.2103 12.9254 1166 100.896 646.936 464.593
1312 0 93.2177 13.5382 1262 99.6442 646.319 462.755
1313 0 92.4656 12.3289 1140 103.311 646.183 462.891
1314 0 97.3488 13.2719 1292 102.65 646.252 459.182
1315 0 102.302 13.8022 1412 102.217 646.513 460.916
1316 0 105.27 13.2707 1397 104.814 646.102 459.087
1317 0 108.222 12.9271 1399 107.564 646.465 457.413
1318 0 110.146 12.8102 1411 111.149 646.326 457.723
1319 0 113.359 13.3823 1517 110.028 646.8 455.684
1320 0 119.37 12.6246 1507 111.696 646.85 451.555
1321 0 121.374 12.5315 1521 113.747 647.064 450.813
1322 0 127.417 12.3845 1578 113.57 647.714 447.706
1323 1 68.482 11.9155 816 107.841 647.304 475.619
1324 0 72.2507 12.6089 911 106.591 647.563 475.469
1325 0 71.2206 12.1875 868 108.387 647.975 474.507
1326 0 76.3539 13.385 1022 106.809 648.027 472.967
1327 0 78.1663 12.5502 981 113.986 648.099 471.555
1328 0 78.1663 12.5502 981 143.704 648.075 471.353
1329 0 83.2445 13.8147 1150 110.477 647.61 470.779
1330 0 86.2478 13.809 1191 109.154 648.063 470.236
1331 0 89.4577 13.0453 1167 112.518 648.065 467.277
1332 0 92.2325 13.7479 1268 111.46 647.583 466.219
1333 0 92.4409 14.1063 1304 111.146 647.932 465.631
1334 0 97.3992 13.5422 1319 112.331 648.656 463.158
1335 0 102.35 14.343 1468 110.419 648.216 462.134
1336 0 103.342 12.6474 1307 116.407 647.838 459.479
1337 0 106.315 13.6763 1454 113.272 647.844 459.39
1338 0 111.393 13.7082 1527 112.841 647.904 457.613
1339 0 114.361 14.2181 1626 112.165 647.863 456.768
1340 0 117.417 13.5756 1594 114.209 647.804 453.657
1341 0 122.413 15.2108 1862 109.983 648.256 451.099
1342 0 124.386 13.0963 1629 114.97 648.58 450.012
1343 0 130.33 13.9722 1821 112.727 647.796 447.8
1344 1 73.2121 12.8804 943 106.938 648.821 475.041
1345 0 75.2745 11.4514 862 110.071 648.73 476.006
1346 0 79.2423 12.8214 1016 107.606 647.826 471.237
1347 0 81.2077 13.1884 1071 107.979 648.104 469.236
1348 0 83.3194 12.122 1010 109.349 648.088 469.006
1349 0 87.1823 13.3055 1160 106.48 648.11 467.386
1350 0 87.3775 11.4904 1004 111.193 647.937 464.707
1351 0 92.238 12.8906 1189 108.988 647.755 463.497
1352 0 96.2223 12.8868 1240 108.329 648.134 462.041
1353 0 99.1263 12.4084 1230 109.836 648.167 459.995
1354 0 102.278 15.1645 1551 104.368 647.728 456.301
1355 0 106.266 14.812 1574 105.539 646.13 462.271
1356 0 109.123 14.2134 1551 108.78 646.042 457.261
1357 0 114.241 13.4015 1531 110.476 646.039 456.634
1358 0 116.347 13.0643 1520 111.457 646.562 453.405
1359 0 120.254 14.694 1767 109.393 645.619 452.668
1360 1 59.3935 10.4052 618 101.28 646.557 473.419
1361 0 59.2004 10.2195 605 102.706 645.97 471.393
1362 0 67.1228 11.5013 772 91.7642 646.867 474.115
1363 0 66.1292 10.8122 715 93.8504 647.199 474.081
1364 0 71.1612 12.1695 866 91.679 647.354 472.415
1365 0 73.0926 11.547 844 90.9834 647.577 475.524
1366 0 75.1965 12.0218 904 91.9137 647.011 470.392
1367 0 79.1392 12.4212 983 91.7355 647.31 470.302
1368 0 81.1388 11.8316 960 94.075 646.6 465.424
1369 0 87.3342 13.8434 1209 95.287 647.275 471.195
1370 0 90.2384 11.6913 1055 100.589 646.964 470.12
1371 0 91.2352 12.0896 1103 100.939 647.487 470.209
1372 0 93.3432 13.2629 1238 99.6842 647.358 464.299
1373 0 96.1482 12.2311 1176 102.271 647.033 464.529
1374 0 99.1868 12.6226 1252 101.692 647.817 463.419
1375 0 102.363 13.4814 1380 101.513 647.733 460.564
1376 0 105.166 12.8274 1349 103.682 647.967 459.213
1377 0 107.243 13.4834 1446 103.373 647.728 459.508
1378 0 109.211 11.1435 1217 108.663 647.792 459.569
1379 0 113.476 12.734 1445 105.542 647.756 457.669
1380 0 117.33 12.7504 1496 107.376 648.226 452.696
1381 1 66.1481 12.0638 798 108.07 648.419 479.244
1382 0 66.2602 12.5113 829 109.52 647.936 477.93
1383 0 71.2688 13.8349 986 105.898 647.616 479.232
1384 0 73.3966 11.9352 876 110.524 647.374 477.459
1385 0 77.3693 11.7101 906 110.659 648.18 476.467
1386 0 79.4554 13.3912 1064 107.011 647.861 476.125
1387 0 80.2833 12.3562 992 110.671 647.236 473.947
1388 0 83.3081 13.6241 1135 107.598 647.005 472.451
1389 0 87.5646 13.8755 1215 107.132 646.788 469.212
1390 0 88.5181 13.4888 1194 108.343 646.97 467.531
1391 0 92.4787 12.9543 1198 98.8831 647.783 466.561
1392 0 93.2716 13.0158 1214 100.253 646.788 465.756
1393 0 96.3581 11.945 1151 102.977 646.531 463.158
1394 0 97.3105 10.3791 1010 106.915 646.343 461.279
1395 0 102.319 11.5521 1182 105.108 646.794 460.35
1396 0 107.244 13.2036 1416 103.727 646.622 460.496
1397 0 108.465 12.4096 1346 105.176 646.977 457.416
1398 0 113.261 12.661 1434 105.015 646.752 457.506
1399 1 59.1932 10.8965 645 101.395 647.671 483.22
1400 0 62.054 11.5544 717 96.2803 647.145 481.915
1401 0 63.1202 12.4207 784 96.0689 647.065 484.014
1402 0 65.1 11.7665 766 97.748 647.599 482.411
1403 0 66.1531 11.5187 762 99.5564 647.555 478.884
1404 0 70.454 11.6388 820 97.15 647.282 474.265
1405 0 72.2095 13.2116 954 97.0849 647.388 476.294
1406 0 73.2394 11.1552 817 101.151 646.821 476.674
1407 0 75.1963 12.5405 943 100.218 647.212 472.667
1408 0 81.2178 14.4303 1172 96.7526 646.382 473.05
1409 0 82.1745 14.1163 1160 97.2164 647.192 473.616
1410 0 84.1467 12.8823 1084 102.518 646.433 472.038
1411 0 89.2533 13.6017 1214 101.513 646.694 470.161
1412 0 89.213 13.4846 1203 103.41 646.678 467.145
1413 0 91.1547 11.8809 1083 109.07 646.979 466.659
1414 0 95.3096 13.0732 1246 105.343 646.572 461.541
1415 0 98.3633 13.5315 1331 105.756 646.649 461.55
1416 0 99.359 12.6612 1258 109 646.447 460.78
1417 0 103.363 12.9737 1341 109.122 646.301 457.274
1418 0 107.434 12.9475 1391 109.581 646.413 454.702
1419 0 112.352 14.232 1599 105.44 647.16 455.52
1420 0 114.194 12.1722 1390 110.965 647.204 452.155
1421 1 60.5518 11.9072 721 100.18 647.397 481.015
1422 0 62.3454 11.2759 703 104.37 647.376 480.201
1423 0 64.1705 12.233 785 99.3554 646.894 479.841
1424 0 66.2826 13.186 874 96.532 647.728 478.211
1425 0 67.3114 11.2908 760 100.393 647.641 478.247
1426 0 71.2598 11.7317 836 100.51 647.894 475.883
1427 0 72.1929 13.0484 942 98.4512 648.625 476.899
1428 0 74.1869 13.1964 979 100.25 648.001 474.301
1429 0 78.1421 13.9745 1092 99.022 648.263 473.291
1430 0 80.1732 13.6455 1094 101.024 647.743 472.168
1431 0 83.3078 12.5198 1043 104.149 647.183 471.988
1432 0 86.3392 12.6709 1094 105.785 647.621 469.095
1433 0 87.2103 13.5305 1180 106.25 647.12 465.648
1434 0 91.3362 13.193 1205 106.027 646.742 465.837
1435 0 93.5695 13.2522 1240 107.503 646.483 462.329
1436 0 94.7403 12.3073 1166 109.597 645.882 461.946
1437 0 97.4549 13.8936 1354 107.536 646.313 456.376
1438 0 100.437 12.3959 1245 110.695 645.953 455.825
1439 0 104.785 13.3321 1397 109.348 645.792 455.275
1440 0 104.473 11.8021 1233 113.758 646.305 450.603
1441 0 108.672 13.0853 1422 111.49 646.266 449.845
1442 0 114.63 13.6264 1562 108.226 646.477 448.541
1443 0 116.759 14.3715 1678 108.486 646.45 444.826
1444 0 121.761 11.7444 1430 113.945 646.878 442.81
1445 0 126.713 14.4105 1826 109.869 645.984 441.024
1446 0 129.624 13.8554 1796 111.884 646.571 440.222
1447 0 134.736 13.1739 1775 113.457 646.817 438.23
1448 1 73.3838 11.215 823 107.177 647.452 469.307
1449 0 80.3553 14.0625 1130 102.909 647.033 468.246
1450 0 80.2862 13.4394 1079 105.754 647.2 468.388
1451 0 83.5789 14.4295 1206 104.672 647.08 464.458
1452 0 82.56 11.6279 960 109.103 646.721 466.338
1453 0 88.332 14.2983 1263 105.504 646.593 466.006
1454 0 89.6246 13.7909 1236 108.014 646.223 462.881
1455 0 92.3676 13.7278 1268 107.026 646.271 464.315
1456 0 95.6959 13.1876 1262 108.937 646.151 458.17
1457 0 98.4886 12.4989 1231 109.318 646.426 460.764
1458 0 101.781 13.1459 1338 108.735 646.554 458.451
1459 0 103.574 13.3334 1381 109.015 645.841 456.172
1460 0 106.784 12.5487 1340 110.639 646.963 455.276
1461 0 112.529 13.8453 1558 107.877 646.72 453.996
1462 0 116.117 14.0893 1636 108.144 646.285 452.51
1463 0 121.619 14.751 1794 106.631 646.215 447.933
1464 1 67.6015 12.337 834 102.951 646.845 475.094
1465 0 70.4443 11.7398 827 104.213 647.266 474.382
1466 0 71.6535 11.3742 815 104.812 646.546 475.293
1467 0 76.5652 12.0551 923 105.351 647.141 471.78
1468 0 77.4756 12.6621 981 105.688 646.472 469.938
1469 0 78.5791 12.9551 1018 104.891 647.579 470.931
1470 0 83.5974 13.3736 1118 104.564 646.623 467.66
1471 0 85.491 12.2703 1049 106.058 646.532 466.922
1472 0 87.661 13.3697 1172 105.344 646.029 464.226
1473 0 88.5626 12.5787 1114 106.607 646.171 464.644
1474 0 93.3561 13.7002 1279 104.31 645.919 460.716
1475 0 96.724 13.1508 1272 105.75 646.115 459.795
1476 0 99.8122 13.1747 1315 105.567 646.233 458.379
1477 0 99.583 12 1195 108.948 646.637 457.015
1478 0 104.675 12.0469 1261 108.18 646.324 455.922
1479 0 109.419 12.1825 1333 106.855 646.608 454.913
1480 0 112.57 15.155 1706 101.231 646.814 453.33
1481 0 117.514 14.7046 1728 101.595 646.159 452.919
1482 0 121.561 13.7462 1671 104.3 646.154 447.664
1483 0 126.496 11.8107 1494 107.873 646.649 448.558
1484 1 69.2814 11.6193 805 99.5068 646.201 473.773
1485 0 73.2628 11.5884 849 98.298 646.39 474.144
1486 0 75.2192 11.5263 867 99.346 646.061 471.307
1487 0 79.333 12.7185 1009 96.9504 646.116 469.473
1488 0 81.3474 11.8135 961 99.3038 646.393 469.433
1489 0 84.2606 12.5088 1054 98.3302 645.979 467.577
1490 0 87.4222 11.7247 1025 99.2966 645.952 467.962
1491 0 91.6698 11.4978 1054 100.628 645.634 466.277
1492 0 92.2943 12.1351 1120 99.8402 645.779 465.201
1493 0 96.257 12.4355 1197 102.038 645.602 461.682
1494 0 99.2916 12.2669 1218 104.223 645.579 461.182
1495 0 99.2734 11.554 1147 107.15 645.121 459.527
1496 0 104.325 12.8061 1336 104.3 645.272 458.902
1497 0 108.272 12.5425 1358 105.429 645.543 457.521
1498 0 110.402 11.594 1280 107.198 645.634 458.72
1499 0 115.314 12.1148 1397 107.548 645.331 452.548
1500 0 119.29 12.348 1473 107.131 645.619 452.278
1501 0 123.218 12.0762 1488 107.897 645.793 450.262
1502 0 128.36 12.3715 1588 108.111 645.915 446.171
1503 0 130.191 13.3419 1737 106.253 645.866 445.136
1504 0 135.212 13.1053 1772 102.109 646.025 440.884
1505 0 136.629 12.3912 1693 105.637 647.018 442.231
1506 0 137.312 12.417 1705 108.252 647 443.772
1507 0 139.266 12.7023 1769 109.674 647.206 444.6
1508 0 140.389 12.7645 1792 111.714 646.431 440.999
1509 0 145.291 13.1116 1905 112.194 646.751 439.706
1510 0 148.363 13.649 2025 114.634 646.284 437.963
1511 1 84.3014 11.281 951 110.412 645.948 469.924
1512 0 86.0855 10.9775 945 110.966 646.105 463.232
1513 0 89.0881 13.2565 1181 103.496 645.724 461.694
1514 0 84.1754 11.0127 927 108.314 645.991 454.387
1515 0 89.0876 11.2025 998 106.132 646.238 455.345
1516 0 90.055 11.1598 1005 105.986 646.917 451.131
1517 0 94.177 13.018 1226 102.664 647.078 451.972
1518 0 94.1465 12.3743 1165 105.626 646.453 450.193
1519 0 93.1589 11.4106 1063 109.143 646.742 449.218
1520 1 102.09 11.6955 1194 108.058 646.18 446.672
1521 0 103.107 11.8033 1217 106.97 646.448 449.872
1522 0 106.109 11.5258 1223 110.733 644.909 446.057
1523 0 111.187 11.5032 1279 110.95 646.219 447.385
1524 0 116.282 10.5433 1226 114.51 646.08 446.036
1525 0 117.157 10.8316 1269 113.87 645.414 445.098
1526 1 62.058 9.58781 595 95.6084 647.045 476.244
1527 0 65.0307 10.9179 710 95.4352 646.61 473.949
1528 0 63.0621 9.229 582 97.7869 646.708 468.997
1529 0 67.0719 9.15435 614 99.4153 646.432 467.438
1530 0 69.0822 8.29447 573 100.808 646.447 469.571
1531 0 72.2739 10.3357 747 99.5194 646.411 464.921
1532 0 77.1116 11.3083 872 97.3291 646.267 468.414
1533 0 78.1592 11.3486 887 100.271 646.053 463.786
1534 0 81.1226 10.404 844 103.603 645.93 461.684
1535 0 80.0987 9.60065 769 107.557 645.605 460.295
1536 0 83.1999 9.56732 796 109.991 645.008 457.805
1537 0 90.2017 10.7426 969 107.922 645.78 460.727
1538 0 92.1604 10.8941 1004 112.289 646.833 462.874
1539 0 97.1409 12.59 1223 125.323 647.634 463.845
1540 0 101.15 11.9822 1212 127.586 646.945 464.135
1541 1 55.1828 10.6736 589 122.73 647.649 488.389
1542 0 58.1293 11.2508 654 116.145 648.197 487.213
1543 0 61.0972 12.1773 744 111.743 648.015 486.095
1544 0 61.0499 12.1212 740 109.208 647.451 485.873
1545 0 62.0922 12.0949 751 110.731 646.904 483.482
1546 0 64.0746 12.2357 784 110.481 647.878 482.969
1547 0 65.0688 13.0938 852 109.312 647.407 482.608
1548 0 67.182 12.7862 859 110.573 646.932 482.082
1549 0 67.1366 12.1841 818 113.658 646.693 479.952
1550 0 70.105 11.8109 828 114.418 646.719 479.099
1551 0 69.086 12.0719 834 114.674 646.663 479.044
1552 0 72.1865 11.5257 832 115.786 646.519 479.123
1553 0 74.1916 13.2764 985 112.276 646.025 476.152
1554 0 76.2114 13.5675 1034 111.61 645.535 475.112
1555 0 80.1417 13.0394 1045 111.873 645.352 474.243
1556 0 80.1345 11.9799 960 115.575 645.322 474.181
1557 0 82.4308 12.7744 1053 114.842 645.292 472.46
1558 0 85.2604 12.3973 1057 115.692 644.992 471.394
1559 0 86.2728 12.4953 1078 114.955 645.289 470.575
1560 0 91.1992 12.6098 1150 114.683 644.814 466.862
1561 0 95.3213 12.1904 1162 115.699 644.905 465.514
1562 0 93.202 12.0491 1123 118.067 644.639 467.192
1563 1 52.4878 11.8504 622 115.733 644.563 483.931
1564 0 53.0524 11.0834 588 105.672 645.238 488.071
1565 0 56.0504 12.7385 714 101.873 645.427 485.783
1566 0 56.0211 11.817 662 105.811 644.03 487.441
1567 0 58.0795 11.3637 660 106.755 644.444 482.385
1568 0 59.1322 11.7702 696 107.244 644.08 482.851
1569 0 62.1508 11.4238 710 106.011 643.579 483.882
1570 0 62.1122 12.1071 752 106.613 643.757 481.523
1571 0 65.077 12.4622 811 105.768 643.856 479.677
1572 0 67.1198 11.919 800 107.311 643.461 478.09
1573 0 68.0604 12.2244 832 106.046 642.577 480.669
1574 0 71.1084 12.1223 862 105.762 643.43 478.835
1575 0 73.1387 12.7429 932 104.107 643.777 478.473
1576 0 75.085 12.972 974 103.574 643.898 476.09
1577 0 78.1553 13.0253 1018 103.727 643.995 474.483
1578 0 80.1578 13.3861 1073 102.101 643.237 473.76
1579 0 82.108 11.5214 946 106.514 643.562 473.055
1580 0 85.0914 12.9273 1100 103.737 643.591 471.665
1581 0 84.147 11.6582 981 107.734 644.005 468.768
1582 0 88.1351 12.2766 1082 106.133 644.1 470.322
1583 0 92.1078 13.0934 1206 105.937 643.931 466.666
1584 0 95.0843 15.1234 1438 101.36 644.1 463.73
1585 0 98.2283 12.5728 1235 106.163 644.517 465.131
1586 0 101.12 13.4493 1360 105.126 644.644 459.226
1587 0 101.136 11.8554 1199 110.257 644.666 461.247
1588 0 108.114 13.3563 1444 105.648 645.217 459.725
1589 0 106.216 12.0132 1276 110.205 644.626 458.244
1590 0 112.147 13.7944 1547 105.156 644.712 457.052
1591 0 113.237 11.657 1320 110.98 644.32 453.667
1592 0 118.195 12.6063 1490 108.711 644.417 454.748
1593 0 123.075 13.1465 1618 108.095 644.26 450.054
1594 0 129.428 13.9305 1803 105.338 645.137 448.296
1595 1 72.2635 12.2192 883 102.342 645.729 475.41
1596 0 73.2308 11.8802 870 104.008 645.825 472.097
1597 0 76.143 13.3696 1018 100.516 645.846 471.761
1598 0 76.3219 11.6742 891 104.606 645.992 471.303
1599 0 83.205 13.0401 1085 100.782 646.087 470.253
1600 0 82.3086 11.8092 972 103.933 646.716 468.71
1601 0 86.2596 12.4392 1073 103.703 645.699 467.66
1602 0 88.3189 12.8172 1132 105.306 645.091 463.415
1603 0 93.1134 12.9627 1207 103.336 644.269 468.787
1604 0 95.1411 14.0213 1334 101.891 644.088 464.653
1605 0 98.1117 14.1268 1386 101.951 643.646 464.356
1606 0 99.1713 12.8767 1277 104.831 644.044 463.656
1607 0 102.147 11.9632 1222 107.533 643.9 463.421
1608 0 106.162 13.1215 1393 105.971 643.527 460.019
1609 0 109.184 13.1887 1440 105.65 644.004 460.083
1610 0 114.482 12.8579 1472 107.575 643.891 458.776
1611 0 116.205 13.3557 1552 110.993 643.384 455.48
1612 0 120.276 13.0949 1575 109.758 643.957 454.059
1613 0 124.356 12.7055 1580 110.285 644.274 450.408
1614 0 127.442 11.9819 1527 112.236 643.708 443.174
1615 0 132.207 12.6166 1668 109.875 643.014 447.512
1616 0 138.282 13.5158 1869 108.711 642.919 442.711
1617 0 142.376 13.1834 1877 106.766 643.188 439.864
1618 0 147.183 12.3655 1820 108.944 643.382 438.871
1619 0 149.262 12.4345 1856 113.408 643.931 426.973
1620 1 80.027 10.5714 846 102.376 643.481 466.312
1621 0 81.1504 12.9143 1048 93.8197 644.204 463.204
1622 0 86.1069 11.9967 1033 95.365 643.926 461.863
1623 0 89.0871 12.1005 1078 96.6837 644.053 460.011
1624 0 88.1328 9.37222 826 102.194 644.493 457.887
1625 0 89.1462 11.7111 1044 98.5805 644.87 459.636
1626 0 94.1434 10.5052 989 100.419 644.86 458.168
1627 0 96.1677 10.8144 1040 102.262 645.498 451.226
1628 0 100.231 12.6608 1269 97.4902 645.341 455.462
1629 0 103.217 10.1049 1043 104.003 644.967 446.957
1630 0 108.261 11.7217 1269 101.875 644.742 447.849
1631 0 115.099 11.8681 1366 104.208 643.809 454.919
1632 0 120.16 13.5902 1633 101.479 643.453 452.784
1633 0 123.23 11.4177 1407 105.709 643.665 452.308
1634 0 125.238 11.1947 1402 107.138 645.031 446.789
1635 0 130.407 10.2602 1338 109.185 645.294 445.622
1636 0 135.231 12.12 1639 105.557 645.176 443.95
1637 0 142.153 11.9379 1697 106.513 645.071 440.004
1638 0 147.446 11.1973 1651 108.885 644.449 442.15
1639 1 83.135 12.1249 1008 104.649 643.587 465.495
1640 0 85.0896 12.2224 1040 104.481 645.824 468.999
1641 0 87.057 11.9692 1042 106.914 645.198 466.281
1642 0 90.112 11.2638 1015 107.824 645.183 468.148
1643 0 92.1617 12.8578 1185 101.03 644.298 468.609
1644 0 94.0599 12.8535 1209 101.988 645.097 468.936
1645 0 94.1238 12.1223 1141 105.663 644.56 465.189
1646 0 99.3581 12.5506 1247 108.946 644.673 461.303
1647 0 101.24 11.774 1192 111.556 644.127 461.469
1648 0 107.535 13.0841 1407 108.763 643.888 458.666
1649 0 108.315 12.3621 1339 111.919 644.012 454.529
1650 0 109.292 11.7026 1279 112.582 643.788 454.202
1651 0 102.214 10.302 1053 114.307 643.794 442.348
1652 0 113.425 11.7875 1337 108.55 643.934 446.666
1653 0 118.445 11.5328 1366 108.999 643.647 442.684
1654 1 65.3481 8.50828 556 104.428 643.8 465.209
1655 0 67.2313 9.9656 670 102.54 643.754 462.546
1656 0 75.2012 9.78708 736 99.9891 643.399 465.018
1657 0 82.2476 9.94558 818 95.0795 642.33 471.434
1658 0 82.239 10.4452 859 96.8079 641.64 464.675
1659 0 84.3233 10.5428 889 96.6805 642.877 460.958
1660 0 90.0686 12.7125 1145 93.6707 642.782 463.203
1661 0 92.26 11.1858 1032 96.8033 643.053 461.35
1662 0 96.435 10.9089 1052 98.0836 642.338 461.082
1663 0 99.2727 12.1886 1210 97.6256 642.442 459.33
1664 0 100.216 10.5273 1055 102.177 643.322 457.302
1665 0 104.383 11.8794 1240 102.907 642.471 455.768
1666 0 108.168 11.8981 1287 105.643 642.661 457.175
1667 0 112.318 12.0016 1348 107.3 642.948 455.194
1668 0 115.357 11.018 1271 109.114 643.13 455.358
1669 0 117.34 11.7522 1379 109.004 643.093 452.015
1670 0 120.306 10.5149 1265 111.276 643.195 452.384
1671 0 123.319 13.0475 1609 108.576 643.084 447.501
1672 1 70.1173 9.54116 669 104.658 642.499 479.848
1673 0 71.0745 11.4387 813 104.204 643.133 475.581
1674 0 75.0492 11.6857 877 106.729 643.964 476.091
1675 0 74.2701 9.90977 736 115.571 643.39 471.594
1676 0 76.1576 11.1742 851 114.673 643.327 467.066
1677 0 78.2003 10.2685 803 117.471 642.994 467.814
1678 0 83.3203 11.5698 964 114.161 643.225 467.885
1679 0 85.242 12.4938 1065 112.357 641.99 467.398
1680 0 87.1736 11.219 978 115.547 642.584 468.22
1681 0 90.079 12.1227 1092 113.751 642.225 465.547
1682 0 89.1763 11.5838 1033 116.55 642.747 463.563
1683 0 95.2064 12.5832 1198 112.615 642.405 463.75
1684 0 97.2083 12.0051 1167 115.027 642.539 460.888
1685 0 98.4321 10.5149 1035 118.348 642.31 461.194
1686 0 103.339 12.1057 1251 115.237 642.612 457.665
1687 0 105.305 12.3546 1301 115.687 642.493 455.915
1688 0 108.306 12.1969 1321 115.03 643.183 458.782
1689 0 110.193 11.5615 1274 117.847 642.626 453.242
1690 1 63.3327 10.7369 680 110.71 644.244 478.731
1691 0 63.1611 10.497 663 100.733 643.632 480.964
1692 0 67.078 12.1351 814 99.1216 643.413 478.76
1693 0 68.1856 12.9793 885 96.7548 643.989 479.145
1694 0 69.0566 12.3522 853 99.4021 643.271 478.841
1695 0 72.2266 12.5992 910 99.2044 642.812 477.151
1696 0 74.157 11.0037 816 101.672 643.667 475.934
1697 0 75.1349 11.9518 898 99.9298 643.126 473.431
1698 0 77.2782 11.6333 899 100.646 643.513 472.291
1699 0 81.1563 12.6669 1028 98.7568 643.579 472.52
1700 0 83.1469 12.5561 1044 98.932 643.707 469.964
1701 0 86.1852 13.1809 1136 97.6761 643.648 469.381
1702 0 88.1239 12.5732 1108 99.2879 643.18 467.056
1703 0 90.3361 11.9111 1076 100.049 643.672 465.144
1704 0 92.1653 12.5969 1161 98.596 644.065 464.09
1705 0 96.1191 11.9643 1150 96.867 643.832 464.023
1706 0 100.192 11.6077 1163 97.1513 643.608 462.721
1707 0 101.212 12.8641 1302 95.6068 643.354 457.102
1708 0 105.173 11.2101 1179 98.827 643.566 460.106
1709 0 107.222 12.3203 1321 97.0583 643.861 457.584
1710 0 111.125 11.9685 1330 98.2632 643.364 456.704
1711 0 115.128 10.788 1242 100.048 643.079 455.5
1712 1 63.0542 10.4513 659 96.5645 642.694 479.615
1713 0 66.2006 12.2355 810 92.8864 646.138 474.698
1714 0 64.1112 11.1837 717 94.9707 645.771 478.075
1715 0 70.0877 12.4986 876 91.4817 645.898 476.478
1716 0 71.0828 11.8313 841 93.1498 645.113 477.161
1717 0 72.1011 12.5934 908 91.6949 645.16 475.779
1718 0 75.2207 12.4434 936 92.0566 645.096 474.233
1719 0 76.1835 11.5773 882 94.3866 645.336 475.179
1720 0 80.1904 12.7696 1024 92.2051 644.866 470.88
1721 0 81.0725 12.569 1019 93.159 644.976 471.209
1722 0 82.1227 12.25 1006 95.7992 645.073 468.549
1723 0 85.2568 12.1398 1035 95.6309 644.972 468.239
1724 0 87.1772 13.2259 1153 94.2498 645.159 465.918
1725 0 91.1794 12.8648 1173 94.3581 644.916 467.708
1726 0 92.197 12.6143 1163 95.7799 644.775 466.036
1727 0 96.223 12.2632 1180 97.2186 644.868 462.397
1728 0 99.1808 11.8975 1180 98.2195 644.308 462.232
1729 0 102.299 11.5935 1186 99.3634 644.795 458.874
1730 1 58.0781 10.5031 610 101.703 645.349 482.933
1731 0 61.0671 11.7248 716 98.6243 644.976 481.834
1732 0 63.2767 12.3268 780 89.1564 645.385 478.065
1733 0 63.1537 10.7832 681 92.5477 645.976 480.316
1734 0 67.1632 11.9857 805 90.4783 645.448 481.108
1735 0 67.0937 11.5808 777 92.1107 645.471 479.139
1736 0 70.196 12.5648 882 90.8923 645.243 477.898
1737 0 70.2413 11.5032 808 93.8069 645.444 476.162
1738 0 73.1712 12.2316 895 93.667 644.658 475.417
1739 0 76.2438 12.7486 972 93.2294 644.419 473.708
1740 0 78.219 11.928 933 95.0879 644.459 471.496
1741 0 81.2611 12.4414 1011 94.0049 644.789 473.774
1742 0 84.205 13.1584 1108 94.7328 645.021 468.128
1743 0 86.2618 12.3925 1069 96.6614 645.348 469.309
1744 0 89.227 12.6867 1132 97.0636 644.83 468.739
1745 0 91.2954 12.706 1160 97.3043 644.93 468.502
1746 0 93.3128 11.9598 1116 98.6756 645.29 465.608
1747 0 97.2663 12.2036 1187 98.9907 644.837 463.586
1748 0 98.2474 12.9571 1273 99.1469 644.838 462.233
1749 0 104.285 13.3672 1394 97.6686 645.096 461.188
1750 0 105.249 12.3992 1305 100.989 645.259 459.885
1751 0 109.239 13.3285 1456 99.4897 645.172 456.854
1752 0 113.201 12.4822 1413 100.664 644.78 458.631
1753 0 115.27 10.9656 1264 104.131 643.873 455.616
1754 0 118.257 12.1431 1436 103.588 643.562 452.033
1755 1 68.2039 11.7295 800 96.7762 645.138 481.442
1756 0 68.2607 11.9981 819 99.602 644.907 479.094
1757 0 71.3019 11.7108 835 100.131 645.159 480.056
1758 0 74.1696 12.795 949 95.197 645.509 477.464
1759 0 77.1164 12.0856 932 97.2607 645.223 474.7
1760 0 78.2605 11.5384 903 97.2702 645.791 475.833
1761 0 81.0937 12.8123 1039 95.6593 645.973 472.447
1762 0 84.1652 12.4992 1052 96.3308 645.439 471.278
1763 0 86.1326 11.8074 1017 98.9764 644.592 469.69
1764 0 89.1754 12.9632 1156 96.4905 645.05 468.722
1765 0 90.1705 13.6741 1233 96.4542 645.29 465.058
1766 0 93.1731 12.5573 1170 99.1145 645.244 465.982
1767 0 96.1532 12.5321 1205 100.193 645.076 464.811
1768 0 101.23 12.7926 1295 98.6525 644.7 464.282
1769 0 103.161 12.5436 1294 100.181 644.186 457.267
1770 0 107.153 12.7575 1367 100.794 644.426 458.013
1771 0 109.118 12.2161 1333 104.078 644.842 457.474
1772 0 112.183 12.1052 1358 103.512 644.859 455.365
1773 1 61.086 10.6735 652 104.397 645.397 480.825
1774 0 67.1098 12.1145 813 99.2054 645.872 480.216
1775 0 66.1116 12.7663 844 98.0569 645.105 478.995
1776 0 68.1619 12.2502 835 98.7593 645.211 477.786
1777 0 71.1194 13.0204 926 96.8434 645.474 479.746
1778 0 71.0725 11.8752 844 100.005 645.268 475.797
1779 0 74.0655 11.9894 888 98.6261 645.434 477.061
1780 0 76.1183 12.6908 966 97.2836 645.687 474.919
1781 0 78.0898 12.0886 944 97.7987 645.179 474.354
1782 0 80.1571 12.488 1001 97.6963 645.833 471.696
1783 0 83.1335 12.4138 1032 97.6899 644.88 471.628
1784 0 85.1173 12.8059 1090 97.3844 644.899 467.782
1785 0 89.2596 13.3543 1192 96.1737 645.414 469.034
1786 0 91.0931 14.2162 1295 95.1977 644.686 466.025
1787 0 90.2691 12.4074 1120 99.5875 645.283 465.618
1788 0 95.1835 12.6493 1204 98.6046 645.28 469.345
1789 0 95.1399 12.2977 1170 99.2675 645.487 469.315
1790 0 99.367 12.4287 1235 98.9652 645.659 465.053
1791 0 103.255 12.5515 1296 99.6142 645.487 462.056
1792 0 105.214 12.0897 1272 100.794 645.222 462.258
1793 0 108.245 11.3446 1228 102.625 645.013 460.844
1794 0 114.229 14.1645 1618 97.5587 645.014 455.439
1795 0 117.141 14.2564 1670 97.6569 644.602 453.999
1796 0 121.304 14.7975 1795 95.6279 644.422 452.582
1797 0 126.146 12.3904 1563 97.1504 644.983 451.754
1798 1 75.1503 11.497 864 96.7222 645.126 475.49
1799 0 72.1789 11.3745 821 98.6334 645.403 472.653
1800 0 78.1212 13.3382 1042 93.0403 645.504 474.822
1801 0 79.154 12.3304 976 95.0369 645.95 472.871
1802 0 81.1037 12.8108 1039 94.8268 645.05 471.256
1803 0 84.128 12.3265 1037 97.1601 645.04 467.762
1804 0 86.1791 12.0795 1041 96.6628 645.465 471.275
1805 0 87.1612 11.9549 1042 97.9549 645.743 466.318
1806 0 90.1163 12.8945 1162 96.9604 645.084 465.318
1807 0 94.1684 12.8493 1210 96.8347 645.126 465.634
1808 0 98.2459 12.8657 1264 96.659 645.565 464.152
1809 0 101.187 14.2508 1442 94.2087 645.437 460.155
1810 0 106.197 13.4844 1432 95.3122 645.183 460.594
1811 0 106.119 13.5603 1439 96.4225 644.805 457.405
1812 0 110.137 14.3186 1577 94.6886 644.983 456.24
1813 0 116.162 13.0852 1520 96.7342 645.193 456.415
1814 0 115.157 12.0184 1384 100.968 644.617 453.866
1815 0 120.264 14.3684 1728 97.0243 644.502 450.6
1816 0 125.212 13.3214 1668 102.01 643.484 447.836
1817 0 130.23 12.6238 1644 102.948 643.822 448.59
1818 0 136.383 13.2641 1809 101.937 644.419 442.052
1819 0 139.245 13.4654 1875 102.179 644.049 442.335
1820 1 79.2023 10.7699 853 100.435 643.134 473.406
1821 0 82.1348 12.0899 993 95.5569 643.167 472.131
1822 0 86.2286 13.0699 1127 90.6859 643.574 471.59
1823 0 89.2146 11.859 1058 92.7079 643.892 472.315
1824 0 91.2548 11.7364 1071 94.9991 644.282 467.376
1825 0 94.2728 11.9335 1125 95.7618 643.697 466.111
1826 0 96.2032 12.4736 1200 95.7267 643.872 462.774
1827 0 101.566 12.7208 1292 95.8638 644.921 464.657
1828 0 103.311 12.4479 1286 98.3911 644.411 461.498
1829 0 106.27 12.8823 1369 97.4887 643.966 461.701
1830 0 109.218 13.6242 1488 96.9409 644.38 458.289
1831 0 111.175 13.1864 1466 98.2435 644.138 460.141
1832 0 111.15 11.2371 1249 103.292 643.802 456.659
1833 0 117.409 12.7928 1502 100.734 644.716 456.661
1834 0 120.245 12.9902 1562 101.554 644.456 454.076
1835 0 126.538 13.3478 1689 100.883 643.888 453.075
1836 0 126.324 11.2726 1424 106.539 643.499 446.254
1837 0 134.649 13.7542 1852 102.406 644.451 444.97
1838 0 138.476 13.3236 1845 103.625 644.611 442.546
1839 0 143.589 13.8938 1995 104 644.127 436.541
1840 1 75.1742 11.7194 881 102.561 642.93 473.835
1841 0 78.3136 12.9607 1015 101.276 642.9 475.708
1842 0 80.2687 11.9225 957 102.645 643.237 473.793
1843 0 84.1157 12.5185 1053 102.255 643.083 471.939
1844 0 85.2269 12.2966 1048 103.113 643.641 469.328
1845 0 88.3754 12.4922 1104 102.91 643.58 470.012
1846 0 90.2096 11.4844 1036 106.953 643.355 467.034
1847 0 94.2766 12.4315 1172 104.122 643.492 467.945
1848 0 96.4029 11.3482 1094 106.226 644.006 466.465
1849 0 101.37 13.8107 1400 101.723 643.756 464.445
1850 0 102.354 13.1993 1351 104.071 643.474 462.83
1851 0 105.235 12.4104 1306 107.165 643.015 460.762
1852 0 110.404 13.1426 1451 106.003 642.932 460.639
1853 0 114.448 13.7705 1576 104.262 643.848 455.658
1854 0 118.375 12.1478 1438 102.735 643.876 454.498
1855 0 119.411 12.3188 1471 103.631 644.253 450.099
1856 0 125.345 13.2434 1660 101.155 644.772 449.549
1857 0 129.406 12.4878 1616 103.208 644.237 445.674
1858 0 134.371 11.8031 1586 104.018 644.039 447.126
1859 0 138.562 12.1173 1679 103.964 643.863 442.251
1860 1 77.4355 13.5468 1049 96.1888 644.134 474.539
1861 0 79.4048 12.5307 995 104.914 644.139 471.927
1862 0 81.3103 12.7782 1039 105.319 644.182 467.753
1863 0 84.4031 12.1678 1027 106.246 643.723 469.387
1864 0 88.4729 11.7663 1041 106.431 644.149 468.795
1865 0 92.2829 13.9029 1283 101.253 644.031 469.1
1866 0 93.1906 12.512 1166 105.798 644.039 465.001
1867 0 96.2414 12.531 1206 105.937 644.149 464.031
1868 0 103.309 13.7452 1420 102.661 644.501 463.608
1869 0 105.246 13.7297 1445 102.478 643.896 462.322
1870 0 107.316 12.999 1395 106.994 643.202 457.568
1871 0 112.396 13.9418 1567 102.137 643.475 457.143
1872 0 114.314 12.8331 1467 106.609 644.128 453.308
1873 0 119.303 14.811 1767 101.756 643.798 453.127
1874 0 123.331 13.7921 1701 100.068 644.232 453.551
1875 0 127.509 13.2226 1686 107.807 643.921 447.737
1876 1 72.206 11.7303 847 100.397 643.783 476.922
1877 0 74.0652 12.5295 928 99.0022 643.941 473.634
1878 0 78.2399 14.0593 1100 98.3455 644.521 473.245
1879 0 80.2358 12.7624 1024 101.075 643.476 473.56
1880 0 82.3166 13.5696 1117 99.9624 642.869 471.028
1881 0 83.2774 12.9087 1075 101.183 643.054 471.495
1882 0 86.1536 13.1974 1137 101.781 642.56 467.331
1883 0 88.3332 12.9057 1140 101.248 642.388 468.604
1884 0 90.3818 12.071 1091 101.608 642.727 465.365
1885 0 94.163 13.4342 1265 98.2964 643.07 465.696
1886 0 97.1517 12.8459 1248 99.6587 642.829 462.353
1887 0 98.2124 11.8621 1165 101.886 643.275 464.282
1888 0 103.34 12.8507 1328 99.6619 643.587 459.651
1889 0 106.33 13.4393 1429 98.7278 643.067 459.775
1890 0 111.269 13.5348 1506 98.166 643.365 456.894
1891 0 113.379 13.4946 1530 97.3562 643.73 455.277
1892 0 115.467 12.3325 1424 99.4333 643.912 449.514
1893 0 118.527 12.0648 1430 100.742 643.226 453.618
1894 0 118.384 11.412 1351 102.405 643.369 452.624
1895 0 123.41 12.0411 1486 100.886 643.145 447.447
1896 1 64.1923 10.858 697 103.306 643.91 475.333
1897 0 63.1591 11.384 719 104.211 644.556 470.704
1898 0 68.2815 12.7267 869 102.112 644.861 469.518
1899 0 71.2336 13.6172 970 98.9268 643.856 472.155
1900 0 76.1705 13.1153 999 100.212 644.232 469.377
1901 0 77.1761 13.2295 1021 98.7777 644.381 469.435
1902 0 77.3221 11.6396 900 100.438 644.857 470.754
1903 0 81.2117 13.2124 1073 97.8639 643.909 467.338
1904 0 84.1942 13.8014 1162 96.7823 643.972 467.612
1905 0 87.2308 12.9771 1132 99.3984 644.363 464.21
1906 0 87.3233 12.8832 1125 100.077 644.304 464.46
1907 0 89.1574 12.4611 1111 102.331 643.79 461.797
1908 0 91.141 13.1335 1197 102.321 643.189 456.124
1909 0 93.2959 13.1946 1231 101.873 643.461 447.755
1910 0 96.2322 13.5298 1302 98.0638 644.5 451.518
1911 0 97.1473 12.7332 1237 102.299 643.601 448.278
1912 0 99.2605 11.5353 1145 105.002 643.951 448.474
1913 0 105.367 14.0367 1479 99.8391 643.712 447.859
1914 0 105.079 12.0386 1265 104.715 644.798 442.739
1915 1 63.1822 9.82872 621 100.279 644.51 468.665
1916 0 63.0798 10.8434 684 104.212 643.425 467.592
1917 0 67.0976 13.3239 894 101.312 643.509 465.128
1918 0 70.3885 12.7578 898 101.597 643.538 472.332
1919 0 74.282 13.4891 1002 99.6866 643.744 470.586
1920 0 73.2633 12.3118 902 104.812 642.958 466.205
1921 0 77.374 12.4848 966 104.042 643.375 465.23
1922 0 80.3555 13.0296 1047 102.918 643.109 465.682
1923 0 84.5088 14.7559 1247 98.4603 643.046 464.399
1924 0 83.3432 12.7665 1064 104.572 643.691 461.011
1925 0 89.6677 13.5054 1211 102.267 643.561 459.786
1926 0 90.4233 12.8175 1159 105.928 643.118 457.676
1927 0 95.3223 12.7357 1214 104.727 643.354 457.611
1928 0 98.5919 14.4028 1420 101.889 643.55 454.393
1929 0 102.676 13.2553 1361 103.975 643.337 451.882
1930 0 105.542 13.0185 1374 102.305 643.98 453.201
1931 1 59.4355 10.8521 645 103.878 643.04 472.222
1932 0 64.1495 12.6735 813 92.5547 645.059 478.256
1933 0 64.2329 10.3529 665 98.6827 645.25 475.471
1934 0 70.0532 11.8196 828 104.95 645.522 478.116
1935 0 71.101 11.9408 849 104.452 645.742 477.146
1936 0 73.1922 12.392 907 98.4829 645.072 474.666
1937 0 75.1564 11.8154 888 98.9291 645.056 475.407
1938 0 77.1649 12.415 958 98.4551 645.758 474.754
1939 0 79.2079 12.0821 957 99.3992 645.77 471.535
1940 0 82.2358 12.6466 1040 98.7875 645.554 472.31
1941 0 82.1862 11.1211 914 103.365 645.144 470.35
1942 0 86.1329 12.3646 1065 102.474 644.676 467.716
1943 0 85.2713 10.8008 921 107.284 644.788 467.038
1944 0 89.2246 11.6336 1038 106.205 644.598 467.042
1945 0 92.1762 12.4761 1150 105.443 644.122 466.419
1946 0 95.2251 13.4208 1278 104.479 644.807 464.768
1947 0 99.3139 12.4655 1238 107.352 645.274 460.667
1948 0 101.379 12.1425 1231 109.425 645.086 460.993
1949 0 104.241 11.6461 1214 110.953 644.81 458.57
1950 0 107.387 12.1616 1306 110.994 644.178 456.598
1951 0 111.237 12.5049 1391 110.436 644.104 457.556
1952 0 114.142 12.5896 1437 110.15 644.774 456.095
1953 0 116.396 11.942 1390 109.624 643.606 445.973
1954 1 64.2695 11.0161 708 107.903 643.816 468.049
1955 0 67.0826 10.9268 733 108.835 643.602 466.726
1956 0 69.208 10.8369 750 107.6 643.601 468.936
1957 0 72.2392 11.1297 804 106.881 643.723 469.794
1958 0 73.2249 10.816 792 109.61 643.846 465.74
1959 0 77.2489 11.8966 919 106.765 643.679 466.596
1960 0 77.2101 11.4881 887 108.015 643.917 464.302
1961 0 82.4279 12.1682 1003 106.261 643.276 462.978
1962 0 87.2079 12.7855 1115 105.334 643.255 463.813
1963 0 90.2693 12.7507 1151 106.018 643.273 464.822
1964 0 91.1556 13.0765 1192 106.871 643.336 465.537
1965 0 94.1032 13.2195 1244 109.939 643.092 462.696
1966 0 99.2251 13.545 1344 108.021 643.275 462.315
1967 0 101.327 12.7705 1294 111.176 643.468 459.597
1968 0 105.332 13.1204 1382 110.371 642.753 459.072
1969 0 108.21 13.5293 1464 110.936 643.427 456.73
1970 0 113.471 13.1222 1489 111.144 643.196 456.68
1971 0 114.305 13.0703 1494 112.047 643.153 453.896
1972 0 120.294 13.1927 1587 110.486 643.293 454.129
1973 0 122.257 13.2916 1625 111.714 643.182 450.49
1974 1 70.1708 11.7713 826 106.615 644.874 478.534
1975 0 73.1355 13.7143 1003 104.329 644.745 476.532
1976 0 75.1569 12.6003 947 102.583 645.344 473.787
1977 0 77.1491 13.2211 1020 102.355 644.813 472.574
1978 0 79.1767 14.1077 1117 100.037 645.573 471.952
1979 0 82.2246 13.1469 1081 102.777 645.311 468.987
1980 0 85.4301 12.2088 1043 103.818 644.798 470.182
1981 0 87.2582 12.9845 1133 103.545 644.685 468.094
1982 0 88.204 11.9269 1052 107.122 644.916 466.426
1983 0 93.4682 12.4641 1165 103.909 644.978 465.16
1984 0 96.3459 12.5797 1212 102.888 644.53 463.597
1985 0 99.2174 12.901 1280 103.321 643.983 461.127
1986 0 101.394 12.6931 1287 104.13 644.326 459.843
1987 0 104.317 11.7335 1224 105.298 644.506 461.572
1988 1 60.1734 11.5832 697 103.799 644.862 481.438
1989 0 62.1484 11.022 685 105.219 644.842 478.749
1990 0 66.1084 11.6475 770 95.1688 645.005 481.052
1991 0 66.1935 12.3577 818 96.4902 643.109 481.181
1992 0 67.1045 10.1931 684 99.117 643.596 480.209
1993 0 70.0779 10.5026 736 98.019 643.287 479.234
1994 0 73.2016 12.4451 911 95.0692 643.734 476.761
1995 0 74.0903 11.0811 821 98.3021 643.608 476.397
1996 0 79.0927 11.8216 935 94.9016 643.396 473.965
1997 0 79.1296 10.9567 867 97.5582 643.203 471.539
1998 0 84.2584 11.8327 997 92.7302 643.677 464.817
1999 0 83.1674 9.95582 828 97.7983 643.542 463.646
2000 0 88.2329 12.331 1088 94.068 643.917 461.987
2001 0 87.078 9.86472 859 99.1106 643.634 461.292
2002 0 93.1144 11.6953 1089 96.011 643.736 464.508
2003 0 95.1512 10.5937 1008 99.4375 644.138 460.743
2004 0 96.1682 10.1697 978 99.4969 644.875 459.29
2005 0 100.153 10.8733 1089 99.3636 644.265 457.624
2006 0 105.212 12.2799 1292 98.2268 644.131 457.515
2007 0 110.254 11.6096 1280 99.0469 644.379 456.335
2008 0 113.351 12.1569 1378 101.232 644.433 454.662
2009 0 113.232 11.004 1246 105.369 643.908 452.938
2010 0 118.241 12.4406 1471 105.36 643.784 451.027
2011 0 125.296 13.129 1645 104.908 644.356 449.084
2012 0 128.579 12.6304 1624 107.921 643.834 444.914
2013 0 134.248 11.8214 1587 108.831 643.758 443.825
2014 1 72.2432 8.77591 634 104.039 643.576 467.762
2015 0 75.0826 10.5883 795 102.725 643.564 467.848
2016 0 80.1932 12.2205 980 95.6245 643.187 464.909
2017 0 81.2501 12.9846 1055 95.6322 643.794 464.464
2018 0 83.3182 10.6339 886 101.462 643.286 460.148
2019 0 86.2975 11.0432 953 99.8804 643.455 462.724
2020 0 88.4272 12.9372 1144 98.4799 643.26 458.655
2021 0 91.4782 11.9482 1093 101.462 643.635 457.983
2022 0 96.221 13.0325 1254 98.4793 644.579 459.965
2023 0 96.256 10.9084 1050 104.171 644.097 453.495
2024 0 100.327 11.2732 1131 104.818 643.728 452.045
2025 0 105.267 12.2355 1288 102.699 643.598 454.63
2026 0 110.121 14.929 1644 97.2433 643.397 452.549
2027 0 111.206 11.8879 1322 105.191 643.295 448.748
2028 0 115.311 12.8349 1480 107.744 643.107 447.684
2029 1 65.3858 8.64101 565 107.834 643.288 468.795
2030 0 66.0921 10.5913 700 100.276 644.437 468.89
2031 0 68.158 10.593 722 100.996 644.681 468.758
2032 0 69.1895 12.0249 832 98.3317 644.373 469.38
2033 0 73.2861 11.7485 861 99.2822 643.921 467.984
2034 0 76.2899 11.3121 863 100.612 644.027 464.619
2035 0 76.3312 10.1793 777 103.322 644.071 463.691
2036 0 80.1943 12.1081 971 100.27 643.684 463.681
2037 0 83.2892 10.5296 877 102.624 643.524 463.344
2038 0 86.2369 10.3204 890 104.163 643.618 460.587
2039 0 88.263 10.4687 924 105.554 643.609 457.806
2040 0 90.305 11.4833 1037 104.742 644.061 457.729
2041 0 93.381 12.0688 1127 103.907 644.24 459.32
2042 0 95.3802 11.1344 1062 106.767 643.813 454.342
2043 0 99.4573 11.8744 1181 105.569 644.324 455.409
2044 0 100.502 11.1241 1118 107.225 644.292 455.708
2045 0 102.346 11.4709 1174 110.069 643.348 447.341
2046 0 105.262 11.0011 1158 109.303 643.541 448.991
2047 0 110.327 12.0188 1326 108.392 643.142 448.828
2048 0 113.388 12.0648 1368 108.713 643.541 445.839
2049 0 116.438 13.1057 1526 108.289 643.568 445.366
2050 0 120.529 13.557 1634 110.955 643.606 443.935
2051 0 127.305 12.529 1595 115.414 643.36 443.037
2052 0 131.571 12.4496 1638 116.188 642.465 435.004
2053 0 137.653 13.0473 1796 115.633 643.202 435.289
2054 1 79.3223 11.3083 897 111.797 642.824 464.075
2055 0 84.6287 11.3319 959 110.252 643.199 470.286
2056 0 87.4784 12.746 1115 107.018 643.526 466.712
2057 0 90.5255 13.4769 1220 104.552 643.733 465.526
2058 0 92.5523 13.2898 1230 106.01 643.24 464.376
2059 0 95.5523 13.4063 1281 107.767 643.411 459.839
2060 0 98.5775 13.0253 1284 104.605 642.81 455.903
2061 0 100.461 12.7213 1278 102.837 642.539 455.453
2062 0 101.347 12.847 1302 105.248 642.756 452.743
2063 0 103.371 12.4987 1292 107.28 643.015 449.989
2064 0 103.3 12.8655 1329 107.045 642.793 444.481
2065 0 107.329 13.2304 1420 107.109 642.631 443.381
2066 0 113.521 12.1211 1376 109.199 642.618 444.761
2067 0 116.399 14.2012 1653 104.783 642.724 444.288
2068 0 119.487 12.0181 1436 110.155 642.492 443.465
2069 0 121.404 12.6438 1535 110.583 642.437 436.145
2070 0 128.539 13.1789 1694 108.805 642.435 437.138
2071 0 133.323 12.5034 1667 110.983 642.508 432.322
2072 1 71.1687 11.4236 813 106.212 643.188 463.244
2073 0 75.1941 11.3041 850 104.448 642.385 461.748
2074 0 75.0737 11.6286 873 107.574 642.129 457.554
2075 0 82.255 11.1118 914 98.4639 644.172 464.225
2076 0 83.26 11.1098 925 99.1881 644.355 462.688
2077 0 86.0848 11.326 975 99.9344 643.862 463.324
2078 0 85.2176 10.8076 921 103.248 643.402 457.14
2079 0 93.1503 12.0987 1127 99.7205 643.969 458.831
2080 0 94.2383 11.3011 1065 102.56 643.766 454.838
2081 0 98.2118 11.913 1170 101.954 644.097 455.415
2082 0 100.219 11.9139 1194 104.497 643.861 452.623
2083 0 101.228 10.7381 1087 108.665 643.82 448.851
2084 0 103.222 11.1508 1151 107.806 643.577 449.778
2085 0 108.424 11.8978 1290 107.293 643.707 445.409
2086 0 112.441 11.9707 1346 107.718 643.487 446.519
2087 0 116.414 12.9624 1509 105.402 644.188 447.657
2088 0 119.324 13.1742 1572 107.379 643.866 443.534
2089 0 120.298 12.76 1535 109.685 643.633 439.811
2090 0 125.375 12.1635 1525 110.706 643.357 441.844
2091 0 131.216 13.009 1707 106.296 643.139 446.12
2092 0 131.392 11.1575 1466 113.333 643.003 436.415
2093 0 137.186 12.0493 1653 110.822 642.243 437.687
2094 0 142.201 12.9394 1840 109.076 642.116 434.328
2095 0 147.343 12.4404 1833 110.983 642.938 434.664
2096 0 151.248 12.7407 1927 110.586 643.101 429.424
2097 1 85.1189 11.3371 965 112.072 643.014 458.19
2098 0 88.1874 11.691 1031 104.631 642.777 460.055
2099 0 88.1021 12.599 1110 105.721 642.764 453.637
2100 0 93.1529 12.3346 1149 105.014 642.999 456.073
2101 0 95.1156 10.8605 1033 111.179 643.096 449.589
2102 0 101.226 12.9809 1314 105.909 642.96 450.455
2103 0 101.11 12.1155 1225 109.481 643.514 450.262
2104 0 103.174 11.97 1235 110.735 643.796 444.724
2105 0 109.199 11.6027 1267 111.155 643.464 447.067
2106 0 113.173 12.4146 1405 109.164 642.826 446.546
2107 0 116.279 13.1752 1532 108.79 642.616 444.448
2108 0 119.176 12.7626 1521 109.67 642.798 444.065
2109 0 124.109 12.7549 1583 113.011 642.493 440.789
2110 0 129.347 12.1224 1568 114.311 643.052 439.573
2111 0 134.373 12.3016 1653 119.234 643.362 434.241
2112 1 74.1892 11.7807 874 106.918 642.221 468.112
2113 0 72.1103 10.373 748 109.333 642.701 458.084
2114 0 74.115 8.99953 667 109.693 643.4 453.736
2115 0 78.1462 9.9429 777 107.218 643.218 456.068
2116 0 81.0852 10.9514 888 103.864 643.319 464.452
2117 0 84.2153 9.35697 788 109.041 643.687 458.656
2118 0 85.096 11.963 1018 103.418 643.817 457.802
2119 0 89.181 11.6056 1035 103.603 643.725 458.008
2120 0 88.1172 12.1089 1067 104.969 643.132 454.226
2121 0 89.1167 12.2873 1095 105.826 643.841 450.748
2122 0 95.1366 11.5098 1095 105.786 644.036 454.035
2123 0 96.1907 10.7495 1034 109.934 643.412 446.434
2124 0 102.119 10.8893 1112 107.944 643.375 450.756
2125 0 100.125 10.3171 1033 112.449 643.949 443.837
2126 0 105.127 11.0152 1158 110.919 643.238 441.839
2127 0 107.163 13.7174 1470 105.63 643.646 443.356
2128 0 116.075 11.8372 1374 107.314 643.498 443.215
2129 0 125.173 12.7743 1599 108.264 643.633 449.214
2130 0 129.168 12.9908 1678 108.805 643.737 445.381
2131 0 132.253 12.2342 1618 110.692 643.133 443.423
2132 0 134.168 11.8583 1591 113.118 643.257 438.926
2133 0 140.149 12.4297 1742 112.274 642.864 436.696
2134 0 143.159 10.9668 1570 114.762 643.846 436.666
2135 0 150.189 12.7239 1911 112.822 643.156 435.54
2136 0 154.532 12.7158 1965 113.849 642.169 433.114
2137 0 159.268 13.2795 2115 112.985 642.847 427.904
2138 1 90.0874 10.7451 968 112.377 642.296 455.866
2139 0 87.1303 11.5115 1003 108.632 642.484 451.046
2140 0 88.1442 11.2202 989 108.989 642.323 449.961
2141 0 95.1368 11.8251 1125 106.595 642.901 452.736
2142 0 95.3262 11.1407 1062 110.126 642.496 446.793
2143 0 97.0922 11.2676 1094 110.226 642.824 441.984
2144 0 96.1146 11.1117 1068 112.008 642.471 442.038
2145 0 98.1006 9.2762 910 117.192 641.26 438.221
2146 0 105.188 12.7961 1346 100.246 642.308 441.106
2147 1 117.171 11.4192 1338 108.323 642.445 448.977
2148 0 121.189 12.5671 1523 104.668 641.65 449.686
2149 0 125.172 12.7984 1602 105.031 641.11 447.282
2150 0 127.139 12.5689 1598 107.726 641.738 440.465
2151 0 134.319 12.4331 1670 106.862 641.636 442.017
2152 0 138.152 13.2897 1836 107.325 641.326 436.925
2153 0 145.207 12.9263 1877 109.649 641.36 439.137
2154 0 148.239 13.2691 1967 107.274 642.21 433.475
2155 0 151.265 12.4814 1888 107.865 641.976 430.492
2156 0 156.387 11.6954 1829 110.069 643.484 427.571
2157 0 162.296 12.0644 1958 109.779 642.958 426.224
2158 1 97.1416 11.8281 1149 101.815 644.171 458.722
2159 0 99.2478 11.9902 1190 102.103 641.78 458.764
2160 0 105.205 11.587 1219 104.838 642.607 458.661
2161 0 105.237 12.0585 1269 105.426 642.16 455.567
2162 0 109.382 10.8793 1190 107.809 643.541 453.563
2163 0 110.342 10.5309 1162 108.94 644.038 450.44
2164 0 115.362 11.5722 1335 107.917 643.651 444.19
2165 0 120.323 12.4664 1500 105.224 644.157 449.684
2166 0 122.342 12.089 1479 107.336 643.556 445.809
2167 0 122.342 12.1217 1483 136.119 643.558 445.842
2168 0 126.28 10.936 1381 110.58 643.762 443.684
2169 0 131.291 11.7906 1548 107.959 643.43 441.831
2170 0 136.139 11.9437 1626 107.037 644.195 441.498
2171 0 140.188 12.6615 1775 104.745 644.014 440.679
2172 0 144.277 11.6928 1687 107.362 643.714 434.653
2173 0 149.132 11.5536 1723 105.16 643.503 434.573
2174 0 152.53 10.9552 1671 106.32 643.631 431.767
2175 1 91.2388 9.87519 901 95.5117 644.242 465.662
2176 0 94.2674 11.6901 1102 93.0962 644.261 464.796
2177 0 98.2061 12.6672 1244 93.6278 644.013 462.514
2178 0 101.224 11.7659 1191 95.8976 643.811 461.909
2179 0 101.18 11.2374 1137 103.722 643.647 458.827
2180 0 107.239 12.309 1320 96.5136 643.981 458.04
2181 0 109.235 12.0017 1311 98.1419 643.64 456.622
2182 0 111.254 11.0917 1234 100.374 643.439 453.88
2183 0 115.332 12.2603 1414 98.0813 643.957 453.407
2184 0 115.141 11.1863 1288 100.703 643.755 450.584
2185 0 121.364 12.9445 1571 97.1731 644.021 448.23
2186 0 121.213 9.92467 1203 103.324 643.862 451.427
2187 0 125.236 11.9295 1494 99.4813 644.324 447.975
2188 0 127.269 10.1753 1295 103.898 643.351 443.568
2189 0 133.318 11.1088 1481 103.323 643.315 439.214
2190 0 135.365 11.65 1577 104.168 643.535 433.717
2191 1 81.187 10.4573 849 101.531 644.095 466.567
2192 0 84.3639 12.0312 1015 98.3399 643.373 465.488
2193 0 85.2277 11.0058 938 100.872 644.152 465.326
2194 0 86.1302 9.92683 855 100.331 644.328 467.731
2195 0 89.2535 11.6858 1043 97.5686 644.265 465.39
2196 0 92.2189 11.2125 1034 98.3056 644.568 463.701
2197 0 95.1703 12.1887 1160 95.9138 643.92 462.263
2198 0 97.2087 10.9764 1067 98.5408 644.813 462.564
2199 0 101.258 11.1991 1134 98.5926 644.197 459.825
2200 0 103.186 13.0444 1346 94.7296 644.131 459.495
2201 0 108.306 10.9135 1182 99.5931 643.965 455.34
2202 0 109.251 12.128 1325 97.157 644.149 455.123
2203 0 114.179 12.638 1443 94.808 643.997 456.668
2204 0 115.262 10.8882 1255 98.8653 644.147 450.373
2205 0 120.264 11.6161 1397 94.325 643.941 450.948
2206 0 122.198 11.3995 1393 95.3668 643.883 449.879
2207 0 126.304 10.7122 1353 104.022 643.943 443.721
2208 0 131.312 10.5626 1387 102.96 644.226 445.257
2209 0 137.168 11.6718 1601 101.83 643.714 442.827
2210 0 139.204 11.2569 1567 102.705 643.849 439.112
2211 1 82.059 8.7498 718 100.517 645.635 470.625
2212 0 84.0973 10.5235 885 98.0542 643.251 465.302
2213 0 89.1468 12.1597 1084 90.7279 645.122 467.744
2214 0 89.1389 12.1832 1086 93.535 644.638 467.424
2215 0 94.1742 12.668 1193 92.3043 644.077 464.049
2216 0 95.176 11.568 1101 95.2362 643.815 462.681
2217 0 99.1559 11.9509 1185 94.6245 644.284 464.237
2218 0 99.137 11.9834 1188 96.101 644.647 458.37
2219 0 104.194 12.4959 1302 95.5376 644.593 458.899
2220 0 107.205 13.8333 1483 92.9737 644.332 457.554
2221 0 109.14 12.461 1360 96.8662 643.84 454.47
2222 0 113.161 12.9196 1462 95.7873 644.462 452.953
2223 0 115.153 12.9567 1492 95.0677 644.137 453.164
2224 0 119.178 13.1064 1562 94.8547 644.402 450.209
2225 0 123.206 12.3127 1517 97.1747 644.018 448.306
2226 0 125.166 12.2477 1533 98.4605 644.236 446.479
2227 0 130.233 13.6678 1780 95.5006 644.294 447.625
2228 0 132.239 12.9235 1709 98.072 644.528 442.26
2229 1 79.0753 11.2172 887 103.177 644.087 471.486
2230 0 81.1821 10.7043 869 93.8654 642.56 464.878
2231 0 86.089 12.7775 1100 91.5618 641.068 468.018
2232 0 85.1064 11.1625 950 96.3547 641.547 464.641
2233 0 91.1329 11.8069 1076 93.9907 641.569 466.48
2234 0 94.1893 12.7191 1198 91.677 642.109 465.873
2235 0 94.097 12.4127 1168 92.9195 642.246 464.071
2236 0 97.1626 12.618 1226 92.925 642.241 462.7
2237 0 100.17 14.735 1476 90.0854 641.255 461.15
2238 0 102.138 12.2188 1248 94.2067 641.853 461.959
2239 0 104.193 12.0546 1256 95.0788 642.198 459.65
2240 0 108.249 13.358 1446 92.5436 642.071 458.25
2241 0 111.317 11.5886 1290 95.4395 641.665 454.674
2242 0 114.324 11.2312 1284 95.9361 642.372 454.664
2243 0 116.29 11.4111 1327 96.587 642.969 452.047
2244 0 119.463 12.8659 1537 92.633 642.93 447.944
2245 0 120.312 11.6696 1404 96.4245 642.172 440.739
2246 0 122.38 10.6635 1305 99.859 642.779 433.925
2247 0 129.289 11.6019 1500 100.541 643.053 438.36
2248 0 133.316 12.1366 1618 102.275 642.773 439.339
2249 0 136.376 12.2676 1673 102.088 642.387 438.127
2250 0 145.276 14.407 2093 99.397 642.634 437.249
2251 0 147.232 12.3954 1825 104.034 642.58 433.305
2252 0 153.24 13.071 2003 105.061 642.462 431.201
2253 1 85.2576 10.6853 911 94.5346 642.47 470.088
2254 0 89.1669 11.8878 1060 94.0698 642.147 469.399
2255 0 90.1003 10.9212 984 96.7215 642.207 466.448
2256 0 92.1591 10.6446 981 97.5525 641.768 466.037
2257 0 97.1963 12.9532 1259 93.9849 642.774 464.075
2258 0 99.2593 11.8578 1177 95.0221 642.046 463.924
2259 0 100.208 8.82168 884 99.3597 642.158 455.87
2260 0 104.269 11.6333 1213 94.4641 642.538 460.824
2261 0 108.208 11.9584 1294 94.0155 642.199 461.107
2262 0 109.148 10.7194 1170 98.0496 642.156 457.158
2263 0 112.225 10.6126 1191 98.6474 641.291 458.888
2264 0 115.201 10.5728 1218 100.11 641.113 458.288
2265 0 119.355 10.8584 1296 101.627 640.404 456.955
2266 0 122.337 11.1169 1360 100.51 640.958 459.117
2267 0 126.225 13.0403 1646 98.5978 640.041 456.803
2268 0 128.254 11.6098 1489 101.39 640.108 453.672
2269 0 133.256 12.0145 1601 99.7071 639.097 456.525
2270 0 134.164 11.2847 1514 102.894 639.804 449.98
2271 0 140.347 12.4549 1748 100.287 639.287 451.44
2272 0 145.214 11.8928 1727 102.01 639.597 446.444
2273 0 149.261 12.0929 1805 101.921 639.778 445.834
2274 0 154.145 12.3131 1898 102.018 639.095 444.101
2275 0 158.196 10.5375 1667 106.537 639.671 437.419
2276 1 97.2939 10.3295 1005 96.4507 639.511 472.858
2277 0 101.334 11.5262 1168 91.0265 640.359 471.233
2278 0 104.29 11.842 1235 92.1506 640.06 467.474
2279 0 107.237 11.0969 1190 97.5294 639.24 464.382
2280 0 110.305 10.5979 1169 98.6031 639.405 463.902
2281 0 111.453 11.6103 1294 97.5533 639.127 464.034
2282 0 116.643 12.3882 1445 96.3003 638.335 460.556
2283 0 122.434 14.0566 1721 92.9384 638.174 458.677
2284 0 124.49 11.5913 1443 97.1975 638.29 457.365
2285 0 126.438 12.3143 1557 96.4014 638.219 456.733
2286 0 131.378 11.623 1527 98.1493 637.972 452.193
2287 0 134.627 11.8624 1597 97.789 638.401 449.587
2288 0 140.583 12.313 1731 96.8504 637.872 449.86
2289 0 142.255 9.54625 1358 103.114 637.317 451.451
2290 1 83.1589 11.2075 932 91.6974 637.633 482.029
2291 0 85.3128 11.9208 1017 91.6224 638.281 479.174
2292 0 88.3422 11.2743 996 93.004 637.977 481.188
2293 0 91.3792 10.3415 945 95.2455 637.923 480.093
2294 0 94.2445 10.5152 991 95.1826 637.66 480.293
2295 0 97.3705 11.3587 1106 94.3273 637.599 475.825
2296 0 103.393 10.7067 1107 94.4643 637.617 474.369
2297 0 105.383 11.6907 1232 92.9302 637.588 476.14
2298 0 105.635 9.87364 1043 97.4765 637.199 466.334
2299 0 106.361 9.87203 1050 98.5657 636.67 462.153
2300 0 111.443 9.5385 1063 98.6642 637.144 468.096
2301 0 117.318 11.0299 1294 97.3207 637.273 463.23
2302 0 121.267 11.6272 1410 96.8326 636.108 459.784
2303 0 123.37 10.3428 1276 99.2845 636.38 458.96
2304 0 129.431 11.5273 1492 97.4397 636.298 458.048
2305 0 133.389 12.1299 1618 97.0025 636.121 457.917
2306 0 136.253 11.4933 1566 99.6954 636.146 454.114
2307 0 143.282 12.5836 1803 98.4631 636.239 450.092
2308 0 145.327 11.9936 1743 101.853 636.141 445.272
2309 0 149.322 11.666 1742 103.053 635.995 446.898
2310 0 154.343 10.4896 1619 105.983 635.749 443.575
2311 0 161.455 10.5045 1696 106.669 635.162 439.489
2312 0 166.275 12.0703 2007 103.953 635.6 441.613
2313 0 173.619 11.6117 2016 104.983 636.223 441.746
2314 0 177.608 13.1639 2338 102.99 636.498 438.947
2315 0 182.39 12.3746 2257 106.821 636.779 431.548
2316 0 187.453 12.4991 2343 107.022 636.748 429.729
2317 0 192.329 12.0367 2315 109.271 636.794 424.103
2318 0 198.529 13.4439 2669 107.805 637.814 420.694
2319 0 202.334 13.0132 2633 110.03 637.156 420.101
2320 0 211.582 13.8292 2926 108.186 637.295 417.013
2321 0 215.516 13.5303 2916 109.514 638.013 413.874
2322 0 221.658 14.0848 3122 108.232 637.856 415.361
2323 0 227.546 13.8038 3141 109.854 638.033 403.023
2324 0 235.42 15.1219 3560 106.477 637.428 407.001
2325 0 241.528 14.1806 3425 109.288 637.942 400.323
2326 0 250.53 14.8804 3728 106.697 638.399 402.558
2327 0 254.615 14.2765 3635 109.936 638.326 392.676
2328 1 202.725 12.9091 2617 111.361 637.964 423.379
2329 0 205.592 11.8341 2433 115.554 637.988 416.788
2330 0 215.554 12.4702 2688 115.136 638.04 411.951
2331 0 219.485 12.4246 2727 115.601 638.677 410.214
2332 0 225.699 12.4325 2806 115.982 637.773 406.075
2333 0 235.53 13.8666 3266 110.651 637.667 402.728
2334 0 241.532 12.487 3016 114.431 637.893 389.729
2335 0 246.471 11.9284 2940 117.759 637.722 380.131
2336 0 257.486 13.5076 3478 113.623 638.681 386.872
2337 0 265.514 11.9994 3186 116.772 638.123 383.922
2338 1 197.46 12.1088 2391 109.535 637.874 420.243
2339 0 203.453 14.19 2887 106.433 637.499 411.463
2340 0 210.521 13.5996 2863 108.691 637.243 407.975
2341 0 217.615 11.6352 2532 117.054 637.578 405.838
2342 0 226.721 13.5012 3061 113.468 638.275 400.582
2343 0 230.549 12.9994 2997 113.432 638.196 401.769
2344 0 236.779 12.8221 3036 114.278 638.053 399.224
2345 0 244.548 13.756 3364 113.079 637.852 393.859
2346 0 254.866 13.6895 3489 113.107 638.176 391.584
2347 1 197.53 12.7323 2515 113.592 638.096 416.068
2348 0 205.543 14.1576 2910 110.507 639.104 409.257
2349 0 208.621 13.455 2807 114.776 638.795 406.771
2350 0 214.62 12.5198 2687 116.776 638.757 410.233
2351 0 221.65 13.2867 2945 115.519 638.74 402.969
2352 0 229.868 13.3033 3058 116.856 638.866 397.036
2353 0 235.936 12.7958 3019 118.151 639.409 390.996
2354 0 244.945 13.9623 3420 114.321 639.691 397.004
2355 0 250.754 13.2919 3333 118.067 639.462 389.35
2356 0 261.046 14.0205 3660 118.691 639.482 377.932
2357 0 270.029 14.4614 3905 119.472 639.063 373.633
2358 0 275.937 13.3798 3692 123.586 639.682 366.537
2359 0 287.003 15.1949 4361 118.996 640.165 366.583
2360 1 70.3751 10.6714 751 99.3369 640.965 472.663
2361 0 74.502 12.3755 922 95.2473 640.651 474.803
2362 0 76.2671 10.9877 838 97.9642 641.095 475.286
2363 0 78.1295 11.9545 934 101.929 640.836 471.865
2364 0 80.2704 11.698 939 102.658 641.202 470.088
2365 0 85.3372 13.4877 1151 102.291 640.518 469.998
2366 0 86.328 14.0626 1214 101.777 640.64 468.619
2367 0 89.4299 12.5238 1120 106.254 640.647 469.315
2368 0 94.4416 12.7274 1202 108.672 641.204 467.637
2369 0 96.6082 12.7629 1233 109.75 641.036 466.501
2370 0 99.4412 12.5401 1247 108.997 641.144 462.681
2371 0 102.587 11.405 1170 109.11 641.662 461.019
2372 0 104.382 11.6687 1218 106.385 642.165 459.378
2373 0 106.298 11.5995 1233 104.539 642.543 455.991
2374 0 111.484 14.1007 1572 100.417 642.07 436.429
2375 0 112.508 11.5903 1304 108.6 642.306 416.342
2376 0 116.47 11.6682 1359 108.199 641.735 415.873
2377 0 116.304 11.8655 1380 109.998 641.922 421.137
2378 0 121.456 11.3375 1377 110.684 641.977 427.898
2379 0 124.71 11.8034 1472 110.274 641.559 427.199
2380 0 130.593 16.5859 2166 96.5125 641.348 428.094
2381 0 134.745 16.728 2254 97.1362 641.267 425.919
2382 0 138.973 16.4421 2285 98.0438 641.719 419.266
2383 0 139.796 14.7286 2059 104.003 641.598 424.705
2384 0 146.094 15.36 2244 102.548 641.991 429.924
2385 1 88.7316 11.7884 1046 100.783 641.113 465.656
2386 0 90.7338 11.429 1037 102.416 641.487 466.205
2387 0 95.9037 12.8462 1232 104.004 641.612 460.644
2388 0 99.5288 13.1118 1305 103.389 641.551 461.487
2389 0 102.041 12.5635 1282 104.402 641.516 461.224
2390 0 102.916 13.7393 1414 93.6471 641.847 460.26
2391 0 107.015 12.1665 1302 104.957 641.756 459.973
2392 0 108.693 12.8527 1397 105.807 641.63 455.483
2393 0 111.774 13.3394 1491 105.437 641.659 455.575
2394 0 117.906 13.9433 1644 103.691 641.69 453.102
2395 0 118.685 12.1076 1437 109.106 641.743 449.505
2396 0 124.806 14.0218 1750 105.125 641.764 448.946
2397 0 129.062 13.8383 1786 106.35 640.903 447.965
2398 0 131.923 13.9778 1844 106.809 641.263 446.386
2399 0 133.92 14.2398 1907 107.448 640.908 442.17
2400 0 136.861 13.7293 1879 109.014 641.081 438.102
2401 0 142.798 14.1949 2027 106.916 641.346 438.337
2402 0 146.879 14.2635 2095 107.915 641.146 434.815
2403 1 84.5919 12.8499 1087 102.943 640.566 467.764
2404 0 86.634 12.4893 1082 105.173 640.669 466.077
2405 0 90.602 13.4765 1221 103.765 640.754 466.354
2406 0 92.5449 12.3616 1144 106.774 641.142 465.577
2407 0 96.7904 12.9145 1250 106.475 640.436 462.966
2408 0 97.6215 13.4806 1316 106.712 641.046 459.603
2409 0 102.348 13.5909 1391 104.988 641.886 461.173
2410 0 106.375 13.9413 1483 104.44 641.761 460.92
2411 0 106.604 13.6768 1458 107.278 641.735 457.259
2412 0 110.567 13.5936 1503 108.455 641.826 455.191
2413 0 114.486 14.0017 1603 107.004 642.311 454.359
2414 0 116.661 14.315 1670 107.211 642.817 452.171
2415 0 119.632 14.1267 1690 107.943 642.548 448.722
2416 0 123.562 13.5802 1678 108.751 642.536 448.909
2417 0 127.521 14.0918 1797 107.109 641.504 447.677
2418 0 130.59 13.4772 1760 107.967 641.459 445.599
2419 1 76.4008 11.0208 842 104.977 642.011 472.572
2420 0 80.4298 12.284 988 102.262 641.8 471.507
2421 0 83.5124 12.9442 1081 101.924 641.411 468.908
2422 0 85.3112 13.0815 1116 103.151 641.17 467.524
2423 0 90.4965 13.5364 1225 100.684 641.064 468.055
2424 0 91.2528 11.8572 1082 104.437 641.362 465.872
2425 0 95.3172 12.5266 1194 103.443 641.467 462.142
2426 0 98.5761 11.9907 1182 103.95 641.86 461.693
2427 0 102.387 12.6187 1292 103.199 641.954 458.84
2428 0 104.475 12.0795 1262 104.304 641.59 459.254
2429 0 108.328 13.6068 1474 101.257 640.805 458.512
2430 0 109.382 12.9728 1419 103.848 641.603 455.266
2431 0 112.313 11.4769 1289 107.234 642.007 454.732
2432 0 117.51 13.1564 1546 104.561 641.689 452.307
2433 0 120.195 14.9757 1800 101.973 641.251 449.593
2434 0 123.261 13.735 1693 104.654 641.484 448.184
2435 0 127.337 12.1018 1541 109.742 641.231 446.843
2436 0 133.264 13.6646 1821 106.04 641.506 444.624
2437 1 63.2456 10.3881 657 95.5845 641.566 479.577
2438 0 65.3439 11.3553 742 95.2642 641.364 478.435
2439 0 67.1838 12.0714 811 93.6104 641.742 479.603
2440 0 68.2926 11.2311 767 95.7001 641.231 479.325
2441 0 72.1946 12.2862 887 94.7328 641.582 476.893
2442 0 72.2935 11.398 824 98.6226 641.2 474.502
2443 0 76.3656 12.5842 961 96.0916 641.693 474.666
2444 0 77.2201 11.2276 867 100.716 640.724 473.646
2445 0 79.3552 12.1983 968 102.276 640.884 472.349
2446 0 81.3091 11.5485 939 105.341 641.214 470.824
2447 0 82.2927 10.9973 905 108.471 641.839 468.324
2448 0 83.575 11.6063 970 108.34 641.525 469.118
2449 0 87.2885 10.8834 950 108.546 641.49 468.736
2450 0 90.24 11.6024 1047 107.322 641.606 468.161
2451 0 91.2416 12.0778 1102 109.024 641.366 464.743
2452 0 94.3034 12.0674 1138 108.422 641.569 465.524
2453 0 96.2451 12.0733 1162 109.719 642.267 463.977
2454 0 97.4949 10.8724 1060 114.072 641.318 458.22
2455 0 101.117 11.7884 1192 111.701 641.815 459.701
2456 0 105.299 13.5139 1423 108.787 642.101 458.342
2457 0 107.404 12.8021 1375 111.58 642.071 454.119
2458 0 109.304 11.3902 1245 114.704 642.044 456.251
2459 0 114.317 13.2263 1512 112.104 641.96 454.597
2460 0 114.284 11.1214 1271 118.29 641.886 449.382
2461 0 120.34 12.6973 1528 115.92 641.532 448.695
2462 0 124.191 13.1169 1629 115.527 641.853 448.553
2463 0 127.215 13.3789 1702 116.257 642.025 446.828
2464 0 131.284 13.9393 1830 116.057 641.573 445.291
2465 0 132.274 14.1222 1868 118.169 640.722 441.847
2466 0 135.304 14.0646 1903 118.707 640.674 443.073
2467 0 141.186 14.8527 2097 117.003 641.329 440.797
2468 0 144.31 14.4758 2089 119.914 641.425 437.238
2469 0 149.281 14.1076 2106 121.301 642.061 433.205
2470 0 154.255 14.8715 2294 122.083 641.663 432.123
2471 0 157.232 14.1257 2221 126.67 641.454 430.158
2472 0 164.239 14.004 2300 124.79 641.774 428.283
2473 0 170.23 15.2088 2589 120.824 641.591 424.236
2474 0 177.24 15.2618 2705 116.122 641.432 422.546
2475 1 106.198 12.9004 1370 118.956 640.791 455.715
2476 0 107.136 13.2449 1419 119.023 641.436 453.755
2477 0 113.341 14.2226 1612 116.262 641.013 453.237
2478 0 115.247 14.2303 1640 117.314 641.271 447.554
2479 0 120.274 13.9099 1673 116.922 640.67 449.701
2480 0 123.301 12.3194 1519 120.757 641.577 447.546
2481 0 126.332 12.76 1612 119.7 641.272 445.78
2482 0 130.192 14.3404 1867 116.295 641.823 443.272
2483 0 133.39 13.1569 1755 120.565 641.229 439.697
2484 0 135.273 12.6411 1710 122.709 641.487 435.399
2485 0 142.274 14.936 2125 116.343 641.9 438.043
2486 0 144.416 15.3099 2211 116.486 641.386 435.892
2487 0 147.262 13.5541 1996 122.765 641.066 431.249
2488 0 153.351 13.4397 2061 122.89 641.27 430.066
2489 0 156.335 13.842 2164 124.118 640.818 426.236
2490 0 162.383 13.4866 2190 125.185 641.281 424.526
2491 0 166.349 13.4236 2233 126.511 641.611 419.983
2492 0 169.411 13.5705 2299 127.009 641.56 420.265
2493 0 175.37 14.4209 2529 125.215 641.694 420.818
2494 0 179.468 14.309 2568 128.109 641.351 415.012
2495 1 18.002 4.3884 79 90.9367 644.785 500.835
2496 0 19.0068 5.68219 108 90.1204 644.667 498.935
2497 0 22.0115 6.45119 142 91.007 644.084 497.479
2498 0 16.0064 6.43494 103 89.301 644.864 500.398
2499 0 20.0454 4.04082 81 90.7778 644.704 500.173
2500 0 25.0375 7.74838 194 91.6392 645.742 495.691
2501 0 20.0285 5.44224 109 91.8349 645.771 498.394
2502 0 22.1463 6.9086 153 89.7908 645.974 497.993
2503 0 21.0656 5.9813 126 91.4841 645.167 498.278
2504 0 17.0164 4.87763 83 92.1084 645.458 498.88
2505 0 18.0159 3.94096 71 94.6338 645.042 496.704
2506 0 14.0132 3.1399 44 97.3864 644.886 496.068
2507 0 15.0416 5.05266 76 92.1842 644.671 496.382
2508 0 16.031 4.61606 74 90.9189 645.108 497.243
2509 0 17.0058 2.94018 50 94.26 644.78 497.38
2510 0 14.0208 1.42645 20 93.2 644.3 500.05
2511 0 11.0013 1.36347 15 99.1333 644.6 497.467
2512 0 14.0126 3.06867 43 90.8372 644 499.326
2513 0 10.0026 4.29887 43 91.2093 644.581 496.233
2514 0 10.0034 2.39919 24 95.25 642.583 496.458
2515 0 12.0183 2.91224 35 93.8286 644.686 497.143
2516 0 11.0099 5.26796 58 88.5172 644.862 496.345
2517 0 8.0007 3.87466 31 91.3871 644.677 494.774
2518 0 10.0016 4.29932 43 88.5116 644.628 496.395
2519 0 9.00062 5.22186 47 89 644.213 495.064
2520 1 189.458 9.58522 1816 128.404 642.804 392.366
2521 0 198.361 10.733 2129 126.232 643.51 392.504
2522 0 204.611 11.0062 2252 127.351 643.068 390.458
2523 0 212.587 10.7156 2278 128.009 643.604 379.186
2524 1 159.461 7.32467 1168 124.366 642.949 409.56
2525 0 165.4 9.6977 1604 119.956 643.171 405.542
2526 0 168.429 8.11025 1366 118.765 643.302 410.056
2527 0 176.63 8.92828 1577 118.393 643.202 410.317
2528 0 181.862 10.453 1901 116.914 643.609 403.981
2529 0 179.607 8.84711 1589 125.293 642.954 389.198
2530 1 12.0062 4.99743 60 87.1 642.417 490.583
2531 0 0 0 6.3745e-314 -nan -2.3867e+102 -2.33077e-106
2532 0 6 3.33333 20 86.3 642.85 487.05
2533 0 9 1.11111 10 87.6 641.2 490.9
2534 0 10.0011 5.39938 54 82.3889 640.833 489.741
2535 0 9.00053 6.11075 55 86.2909 641.4 487.109
2536 0 6 2.66667 16 90.25 642.375 488.438
2537 1 234.876 13.3816 3143 123.188 643.144 372.893
2538 0 241.893 12.7123 3075 123.76 643.545 358.485
2539 0 240.598 12.9843 3124 125.19 643.67 351.425
2540 1 193.504 7.33317 1419 119.439 644.331 406.496
2541 0 188.456 4.80749 906 120.824 644.949 421.321
2542 1 203.799 17.3455 3535 98.1146 643.894 378.885
2543 0 202.638 14.2717 2892 108.6 643.936 377.702
2544 0 202.474 14.0462 2844 110.924 644.324 386.125
2545 0 205.635 11.428 2350 114.691 643.152 391.703
2546 0 210.568 11.8394 2493 116.768 643.262 379.938
2547 0 216.554 12.0386 2607 118.56 642.807 373.243
2548 0 226.688 12.8988 2924 116.619 642.673 374.537
2549 0 233.819 12.2616 2867 118.503 643.489 374.649
2550 0 240.697 11.9985 2888 118.885 643.301 374.694
2551 0 245.817 11.3092 2780 123.183 642.71 363.453
2552 0 250.923 13.2192 3317 119.358 643.433 363.343
2553 0 251.726 11.735 2954 123.941 643.543 356.669
2554 0 256.991 12.5802 3233 123.394 643.892 347.041
2555 1 6 1.66667 10 84.9 647.4 486.3
2556 0 11.0012 1.90888 21 78.3333 646.762 490.619
2557 0 14.0018 3.42814 48 81.0417 646.896 490.833
2558 0 14.0016 5.71365 80 80.075 646.938 490.2
2559 0 15.017 4.99434 75 79.92 647.56 495.32
2560 0 322.746 15.4921 5000 111.144 642.784 331.773
2561 0 333.733 14.8562 4958 111.943 643.897 323.81
2562 0 342.552 15.4254 5284 111.237 643.162 317.384
2563 0 354.737 15.3776 5455 111.203 643.661 311.9
2564 0 366.749 14.8876 5460 112.108 643.614 300.712
2565 0 373.985 15.6851 5866 110.582 643.999 302.116
2566 0 386.033 15.4935 5981 112.413 643.517 295.611
2567 0 397.078 16.3595 6496 108.834 643.507 291.777
2568 0 343.983 14.2885 4915 110.972 643.404 316.797
2569 0 356.003 16.7555 5965 106.039 643.093 311.836
2570 0 361.06 14.3439 5179 112.576 643.149 304.135
2571 0 374.835 16.5513 6204 107.038 642.735 289.2
2572 0 382.997 15.4492 5917 110.137 643.348 296.602
2573 0 396.861 16.8598 6691 106.331 644.201 285.312
2574 0 407.304 16.457 6703 107.767 643.545 277.333
2575 0 417.178 17.1006 7134 105.299 643.533 271.916
2576 0 428.587 16.1834 6936 104.647 643.878 266.086
2577 0 423.505 16.7389 7089 105.307 644.743 254.523
