time division length width area intensity CMx CMy
0 0 54.0382 12.3986 670 140.009 881.628 478.882
1 0 57.0424 13.2533 756 138.298 882.132 477.532
2 0 59.0515 14.0725 831 135.857 881.542 476.965
3 0 58.0584 13.4347 780 139.531 881.794 476.387
4 0 60.0461 12.0407 723 142.657 882.286 475.448
5 1 33.0066 11.5735 382 145.725 881.987 488.961
6 0 33.0075 11.4823 379 147.037 880.934 489.609
7 0 32.0769 11.9401 383 145.561 880.817 489.851
8 0 36.0291 11.7127 422 143.841 881.22 488.706
9 0 36.0253 13.4905 486 138.846 881.364 488.265
10 0 38.0443 13.1689 501 139.894 881.623 487.798
11 0 38.0823 12.4992 476 142.221 881.527 488.468
12 0 40.1453 13.9244 559 132.784 881.816 488.453
13 0 37.0097 13.2398 490 138.351 881.559 489.259
14 0 39.0298 13.8868 542 135.004 880.768 489.066
15 0 41.0197 12.8962 529 136.784 881.393 489.425
16 0 42.037 13.7974 580 133.878 881.293 488.734
17 0 43.0641 13.4683 580 135.631 881.103 488.078
18 0 44.0143 13.3593 588 136.561 880.667 486.964
19 0 45.0438 13.831 623 135.846 881.061 487.185
20 0 47.0614 12.5581 591 135.87 880.675 488.02
21 0 50.1911 14.4448 725 130.812 880.727 486.491
22 0 50.1008 12.7343 638 137.608 880.08 485.723
23 0 51.0167 13.4466 686 136.258 880.348 485.3
24 0 53.0232 13.975 741 133.502 880.788 484.619
25 0 54.1536 13.4432 728 134.176 880.251 484.816
26 0 57.1234 14.0223 801 132.628 880.129 483.296
27 0 57.1033 14.2023 811 133.005 879.45 481.76
28 0 59.1275 14.4772 856 133.464 880.291 481.989
29 0 61.0724 13.7869 842 135.442 880.241 481.223
30 0 64.0389 13.8978 890 134.061 879.892 479.922
31 0 67.1056 13.9184 934 133.274 879.653 478.806
32 0 70.0805 15.368 1077 127.716 879.558 478.871
33 0 72.1672 13.8844 1002 131.827 879.237 477.482
34 0 73.0447 14.2105 1038 132.22 879.195 474.855
35 0 76.1353 14.4086 1097 131.316 878.738 473.207
36 0 81.0382 15.4125 1249 128.072 879.152 472.413
37 0 84.0659 15.2975 1286 127.714 878.917 472.328
38 0 86.1138 15.1079 1301 126.838 878.871 470.183
39 0 90.2027 14.9109 1345 127.016 878.448 468.358
40 0 93.1442 15.2344 1419 127.874 878.447 466.94
41 0 97.1729 14.9116 1449 132 878.449 466.026
42 1 51.0521 14.1032 720 127.775 879.219 488.575
43 0 50.0297 13.2921 665 130.986 878.72 488.398
44 0 52.0903 14.2445 742 130.415 878.385 487.735
45 0 55.0381 14.3719 791 128.456 878.33 485.393
46 0 55.0735 14.8166 816 127.529 877.643 484.641
47 0 59.1253 14.1564 837 127.302 877.412 485.737
48 0 61.0534 15.3964 940 125.399 878.034 483.334
49 0 63.1354 14.3976 909 127.073 877.732 481.705
50 0 64.0399 13.2261 847 130.682 878.165 480.92
51 0 66.1814 15.0042 993 126.895 877.869 478.21
52 0 69.1483 15.1414 1047 125.064 877.598 476.982
53 0 71.1494 14.4063 1025 126.9 877.175 475.508
54 0 75.0615 14.4149 1082 125.705 876.976 475.04
55 0 78.099 14.1871 1108 123.83 876.167 473.894
56 0 80.1324 14.0018 1122 123.791 876.421 471.769
57 0 83.1303 14.9284 1241 120.139 876.886 469.351
58 0 87.1662 14.4093 1256 118.544 876.964 468.478
59 0 88.0677 13.1036 1154 121.165 876.765 465.704
60 1 46.0466 11.4666 528 113.699 876.583 485.153
61 0 50.0479 11.6489 583 111.724 876.432 483.895
62 0 53.106 13.5954 722 107.392 877.386 482.776
63 0 55.0387 11.6645 642 116.31 877.931 486.558
64 0 56.072 13.5718 761 113.548 877.336 484.988
65 0 60.0713 13.2343 795 114.824 877.346 485.356
66 0 60.0888 14.0792 846 113.56 876.796 485.122
67 0 64.0543 14.0506 900 112.887 877.167 482.853
68 0 66.126 13.686 905 114.141 876.829 480.369
69 0 69.2101 14.0875 975 114.53 876.57 479.837
70 0 70.0768 13.371 937 117.007 876.568 477.47
71 0 73.4325 12.6238 927 118.456 876.513 476.143
72 0 76.2241 13.4603 1026 116.475 876.706 473.777
73 0 79.2879 13.6339 1081 115.79 876.093 473.809
74 0 81.192 13.2279 1074 114.266 876.178 473.881
75 0 84.0826 14.3193 1204 111.581 876.282 467.983
76 0 85.1942 12.0783 1029 112.06 875.624 466.794
77 0 89.1292 12.1733 1085 113.528 876.055 464.782
78 0 92.0923 13.2367 1219 112.322 875.678 464.119
79 0 96.1953 13.7221 1320 111.828 876.464 460.784
80 0 98.2799 11.2332 1104 117.475 876.337 459.529
81 0 103.135 12.8861 1329 113.149 875.872 458.639
82 1 53.074 10.2498 544 105.656 875.493 480.915
83 0 54.0633 11.1351 602 100.047 876.709 481.671
84 0 56.0654 10.131 568 105.282 876.933 481.912
85 0 60.0888 10.7175 644 101.806 877.065 480.984
86 0 60.0591 10.2732 617 103.431 877.045 480.238
87 0 64.062 10.9113 699 102.881 877.054 479.312
88 0 66.1368 10.4783 693 103.175 877.065 479.505
89 0 69.0874 12.6217 872 100.18 876.127 476.3
90 0 71.0628 11.7783 837 102.982 876.462 472.998
91 0 74.1533 11.9347 885 101.945 876.556 475.209
92 0 76.147 10.808 823 105.933 876.2 471.101
93 0 80.326 12.4617 1001 103.62 876.187 470.87
94 0 83.1406 12.0639 1003 106.91 875.15 468.331
95 0 86.1767 11.6505 1004 109.704 875.624 469.971
96 0 90.1086 11.7969 1063 110.181 875.673 467.925
97 0 91.1581 10.4434 952 113.396 875.593 463.931
98 0 98.1351 13.4101 1316 117.131 875.47 464.859
99 0 100.213 13.8605 1389 115.112 875.485 464.398
100 0 105.33 13.5954 1432 113.284 875.357 462.46
101 1 54.0666 11.6708 631 106.559 876.16 488.957
102 0 57.0885 10.3524 591 108.553 875.394 489.486
103 0 57.1451 11.5321 659 107.155 874.781 487.396
104 0 58.2557 10.2479 597 105.987 875.374 487.714
105 0 62.0978 11.5946 720 102.461 875.296 486.356
106 0 65.0828 13.552 882 98.9683 875.537 483.702
107 0 67.0544 13.064 876 100.499 875.082 482.583
108 0 69.0354 13.0658 902 101.486 875.579 483.028
109 0 70.0846 10.5159 737 106.684 874.482 482.725
110 0 73.2149 11.6643 854 106.206 874.347 480.536
111 0 77.2057 12.0717 932 102.388 875.671 479.394
112 0 78.1764 11.2694 881 105.74 875.118 476.691
113 0 81.0856 11.4077 925 107.215 875.107 475.506
114 0 84.2877 11.5319 972 106.881 875.827 475.23
115 0 87.1836 12.1124 1056 106.72 875.562 472.06
116 0 90.2562 11.1571 1007 107.752 875.383 472.461
117 1 49.2509 10.2536 505 103.042 876.156 492.834
118 0 49.3507 11.1245 549 105.248 875.905 491.874
119 0 48.1192 10.2038 491 102.267 874.9 493.126
120 0 51.0847 11.0796 566 100.638 874.65 491.196
121 0 51.0509 9.6962 495 103.564 874.733 492.368
122 0 53.0511 12.045 639 99.6667 874.917 488.908
123 0 55.3277 9.07321 502 104.02 874.906 489.767
124 0 56.1634 11.2707 633 101.784 875.872 487.359
125 0 60.2196 12.471 751 98.1438 875.485 486.993
126 0 60.1895 10.8158 651 102.952 874.972 484.98
127 0 61.1295 10.077 616 103.964 875.651 485.411
128 0 65.0708 12.0484 784 99.463 876.242 482.962
129 0 67.0669 11.5854 777 101.039 876.934 482.687
130 0 70.1737 12.4263 872 99.9312 876.112 479.655
131 0 71.0572 12.314 875 100.829 876.422 479.039
132 0 76.096 12.4842 950 99.5158 876.467 479.796
133 0 78.1909 12.7636 998 100.886 876.05 475.473
134 1 41.0566 12.0809 496 97.996 877.054 494.907
135 0 43.1078 10.091 435 101.83 876.913 493.798
136 0 45.0809 10.6919 482 99.6909 876.832 496.019
137 0 45.0533 10.6984 482 103.645 876.355 492.444
138 0 48.0486 12.3417 593 99.1282 877.248 491.862
139 0 48.1864 10.9782 529 102.24 877.817 491.274
140 0 50.0714 12.0428 603 100.111 877.584 489.849
141 0 50.0714 12.0428 603 120.128 877.584 489.849
142 0 54.1165 11.7524 636 101.778 877.549 487.736
143 0 54.0362 11.7144 633 100.624 877.327 486.891
144 0 55.0443 10.973 604 103.184 877.978 485.245
145 0 58.1031 12.1852 708 100.51 877.686 486.222
146 0 60.1899 11.6299 700 101.846 878.106 486.064
147 0 61.1 12.6514 773 100.649 877.388 484.039
148 0 64.198 12.5238 804 100.606 877.082 484.667
149 0 64.2293 12.5177 804 101.867 876.58 481.149
150 0 66.139 11.4456 757 102.38 876.437 482.872
151 0 69.1839 12.7342 881 100.39 876.495 481.329
152 0 71.1398 12.131 863 102.695 876.554 479.706
153 0 74.2873 12.2228 908 102.648 876.436 478.403
154 0 76.2819 10.802 824 106.176 876.83 477.85
155 0 79.2091 10.5417 835 107.998 876.257 473.037
156 0 83.2285 11.895 990 105.469 875.682 471.938
157 0 85.2905 12.1584 1037 105.284 875.69 470.871
158 1 44.0264 10.0167 441 107.569 877.113 492.537
159 0 46.037 9.60098 442 108.02 876.735 491.943
160 0 46.1716 10.6126 490 107.182 874.908 489.406
161 0 47.0449 10.6707 502 96.002 875.169 486.177
162 0 49.0378 9.19699 451 100.244 875.9 483.583
163 0 47.0462 11.4143 537 102.628 876.315 484.013
164 0 51.0866 10.5311 538 102.742 876.362 482.866
165 0 53.1649 8.76519 466 105.893 876.311 482.373
166 0 53.1044 9.60372 510 104.443 876.084 481.982
167 0 56.0509 10.7581 603 100.418 876.438 482.556
168 0 56.0782 9.86124 553 104.351 876.66 480.584
169 0 60.0447 11.4415 687 100.083 876.403 477.636
170 0 62.216 11.653 725 100.327 876.817 477.073
171 0 65.0828 11.4009 742 101.728 876.904 475.778
172 0 68.0584 11.9603 814 98.8808 875.796 476.996
173 0 70.0285 11.0098 771 100.844 875.733 475.401
174 0 71.0757 9.75016 693 104.322 876.186 470.235
175 0 72.0884 10.8617 783 102.436 875.723 469.504
176 0 77.0647 11.6655 899 100.779 875.669 468.334
177 0 81.1475 12.5081 1015 100.038 876.103 467.718
178 0 83.0488 11.993 996 101.671 875.792 467.314
179 0 85.1297 11.4531 975 103.92 875.855 464.427
180 0 89.1106 11.6709 1040 104.048 875.377 462.542
181 0 93.2593 11.0981 1035 102.901 875.371 462.639
182 1 44.0666 10.4161 459 95.2549 876.248 485.534
183 0 48.1186 10.2455 493 96.5984 875.986 487.724
184 0 52.167 12.4216 648 100.664 876.781 486.611
185 0 52.046 11.3746 592 104.047 876.693 488.255
186 0 54.0963 11.5535 625 103.534 876.955 488.95
187 0 54.0914 12.0537 652 104.936 876.979 487.701
188 0 56.0694 13.3763 750 102.129 876.165 486.445
189 0 58.0974 13.3569 776 103.686 876.296 484.318
190 0 60.0721 12.9844 780 104.546 876.09 484.203
191 0 62.1472 12.5187 778 105.612 875.871 483.215
192 0 64.111 12.8215 822 106.873 876.309 482.768
193 0 64.0932 12.357 792 108.99 876.229 481.354
194 0 68.1902 13.1251 895 106.92 875.959 481.02
195 0 68.1658 12.6016 859 109.3 875.773 480.026
196 0 73.1518 12.9047 944 108.118 876.212 478.788
197 0 72.1173 11.6477 840 112.779 876.69 478.006
198 0 77.2075 12.3045 950 110.897 876.615 477.075
199 0 80.2913 13.5382 1087 108.901 876.516 475.157
200 0 82.1867 13.2138 1086 111.072 876.127 473.789
201 0 84.2246 13.5471 1141 110.434 876.018 470.917
202 0 87.2672 13.3727 1167 111.543 875.78 471.378
203 0 90.1076 12.8513 1158 110.89 875.373 471.819
204 0 93.1431 12.3681 1152 113.908 875.053 468.826
205 0 97.2973 13.5153 1315 111.144 874.979 464.861
206 0 100.091 12.9482 1296 111.046 874.829 463.671
207 0 106.109 12.261 1301 108.778 875.058 466.639
208 1 58.069 11.3314 658 103.409 875.453 488.447
209 0 58.2093 12.4722 726 100.543 874.346 485.893
210 0 61.3283 12.0662 740 108.157 875.477 484.153
211 0 61.2446 11.5602 708 100.314 875.866 485.319
212 0 62.0807 11.0985 689 101.045 876.158 484.73
213 0 67.1612 12.0308 808 98.0916 875.46 482.656
214 0 69.0994 12.0406 832 98.6538 875.399 480.855
215 0 70.1377 11.4204 801 99.0212 876.235 482.147
216 0 73.1852 11.5597 846 98.2801 875.457 479.998
217 0 75.1685 11.0419 830 100.188 875.416 476.857
218 0 78.1146 13.2882 1038 96.1724 874.834 476.191
219 0 82.1864 11.6808 960 98.1177 876.107 475.527
220 0 83.1097 12.2729 1020 98.5284 876.012 476.324
221 0 88.3145 11.5836 1023 97.131 875.727 469.409
222 1 46.0403 11.7506 541 94.9002 877.209 491.867
223 0 47.1521 11.5159 543 95.7827 876.722 490.589
224 0 49.1229 11.5425 567 95.4233 876.413 491.566
225 0 52.147 12.0045 626 93.7316 876.756 491.331
226 0 52.1429 10.2795 536 97.6231 876.399 489.019
227 0 53.1229 10.2216 543 98.046 875.694 488.477
228 0 54.1206 11.7515 636 95.8695 875.841 488.006
229 0 58.1567 12.4491 724 93.5055 875.715 487.272
230 0 58.0645 12.9339 751 93.8802 875.862 484.643
231 0 60.2071 11.2279 676 96.2825 876.188 485.71
232 0 62.1825 11.9326 742 95.5067 876.218 483.699
233 0 65.2698 12.7164 830 94.8976 875.653 481.563
234 0 68.1358 11.6238 792 96.5694 875.702 481.828
235 0 67.1665 11.4641 770 98.8221 876.662 480.419
236 0 73.1555 12.822 938 95.1684 876.94 480.852
237 0 75.192 12.2752 923 97.2069 875.965 475.645
238 0 76.1455 12.2266 931 98.2632 876.208 475.013
239 0 80.1966 12.2075 979 98.7559 876.532 472.845
240 0 83.2553 11.8551 987 99.9483 876.011 473.801
241 0 84.2128 11.3284 954 102.1 876.072 473.028
242 0 86.1669 12.6267 1088 100.404 875.373 470.152
243 1 46.0691 10.7447 495 96.8242 876.802 494.19
244 0 46.029 11.3841 524 96.208 876.074 493.147
245 0 48.2513 12.2484 591 93.9662 874.112 492.212
246 0 49.1058 11.5465 567 96.1111 876.411 492.206
247 0 52.0692 13.5397 705 92.0355 876.288 490.278
248 0 52.0509 13.3139 693 93.8846 877.029 489.727
249 0 52.1224 12.7584 665 96.9699 876.493 488.968
250 0 56.1813 13.3674 751 96.5246 876.903 489.234
251 0 55.1808 12.16 671 109.091 875.112 486.264
252 0 58.216 12.9518 754 106.338 875.336 486.227
253 0 61.4011 12.5405 770 107.049 876.431 485.057
254 0 61.2921 13.1338 805 108.144 876.084 483.576
255 0 63.1956 12.7382 805 108.933 876.333 484.493
256 0 63.1712 13.0756 826 110.441 876.749 482.196
257 0 65.1639 12.9366 843 112.083 876.154 481.817
258 0 70.2095 14.7986 1039 108.037 876.149 479.98
259 0 72.2118 14.9283 1078 108.231 876.179 480.144
260 0 74.3206 12.6614 941 114.539 876.419 477.901
261 0 76.1725 13.9158 1060 111.824 876.434 476.698
262 0 77.1986 13.2774 1025 114.541 875.637 475.909
263 0 81.2299 13.4064 1089 113.607 875.61 474.535
264 0 85.347 14.0017 1195 112.699 875.288 472.551
265 0 88.1996 13.5602 1196 113.934 875.612 471.949
266 0 90.2438 13.3527 1205 111.067 875.897 470.92
267 1 44.0671 11.8456 522 106.916 876.906 493.408
268 0 47.0641 14.2784 672 100.592 877.031 493.158
269 0 49.0845 15.1983 746 96.5121 877.155 492.106
270 0 50.0326 12.3519 618 102.841 877.065 492.395
271 0 52.0521 12.0648 628 102.723 876.546 492.505
272 0 52.0576 12.8896 671 101.428 876.565 491.241
273 0 55.0598 14.1664 780 98.4038 876.913 489.04
274 0 55.086 13.3791 737 100.894 876.414 486.866
275 0 58.0721 12.8461 746 100.961 876.241 488.217
276 0 60.1506 14.497 872 98.0803 875.799 486.077
277 0 61.2705 12.7794 783 102.04 876.418 486.563
278 0 65.1432 13.1863 859 99.9441 876.385 485.39
279 0 66.1013 13.6155 900 100.774 876.444 483.137
280 0 67.2169 12.4225 835 104.204 875.95 481.511
281 0 71.1649 13.9957 996 100.573 876.404 480.378
282 0 74.1115 13.2368 981 100.63 876.482 480.732
283 0 77.1038 12.4637 961 102.778 875.604 477.742
284 0 78.1571 13.7032 1071 100.344 876.054 476.791
285 1 42.0162 10.615 446 106.262 876.446 495.034
286 0 44.0584 11.6209 512 107.393 876.852 493.709
287 0 44.0208 12.7894 563 105.4 876.073 492.247
288 0 45.2201 11.6762 528 108.801 875.199 490.792
289 0 47.139 14.383 678 95.9307 876.375 491.354
290 0 48.1616 12.2089 588 100.269 876.279 492.913
291 0 50.099 12.9144 647 100.073 877.213 491.257
292 0 51.0366 13.696 699 97.2175 876.675 489.655
293 0 51.0501 13.9862 714 97.063 876.978 489.807
294 0 52.0366 13.4905 702 100.352 877.236 488.839
295 0 53.0501 13.2893 705 99.8539 877.654 488.77
296 0 56.1273 13.9148 781 98.2625 876.563 486.955
297 0 55.1817 12.4135 685 103.086 876.693 486.196
298 0 59.127 13.5809 803 100.007 876.761 485.162
299 0 62.2459 12.7719 795 100.776 876.242 485.829
300 0 63.1597 12.9196 816 101.839 875.442 483.629
301 0 66.1839 14.8677 984 98.3059 875.706 483.209
302 0 66.1388 13.0785 865 102.627 875.161 482.531
303 0 70.1773 14.1499 993 99.7231 875.281 480.833
304 0 71.1852 13.514 962 103.771 875.136 479.42
305 0 73.1618 14.7755 1081 102.685 875.49 477.334
306 0 75.0927 13.5033 1014 105.87 876.206 478.014
307 0 77.1316 13.5742 1047 105.162 875.463 474.039
308 0 78.08 13.0379 1018 107.973 875.37 473.549
309 0 81.169 13.9216 1130 106.122 875.847 471.872
310 0 83.1565 12.9755 1079 108.878 875.623 471.519
311 0 86.1114 13.0761 1126 108.257 874.791 469.988
312 0 90.1262 13.6919 1234 106.589 875.243 465.96
313 0 94.1263 13.3544 1257 106.305 875.12 466.037
314 0 97.1682 13.8317 1344 104.105 875.089 465.548
315 0 98.0809 14.07 1380 106.128 875.089 463.599
316 1 52.1124 10.6501 555 113.142 875.715 488.838
317 0 52.056 10.3158 537 110.073 875.808 486.201
318 0 54.0894 11.9802 648 104.552 875.631 487.81
319 0 59.0686 13.2389 782 99.3964 875.89 487.431
320 0 59.1295 11.7708 696 102.845 875.727 485.408
321 0 61.113 13.8759 848 98.7241 876.188 483.208
322 0 64.2063 14.0485 902 97.429 875.884 482.569
323 0 64.1091 12.12 777 101.359 876.184 485.023
324 0 66.0667 13.9405 921 99.1346 875.228 480.419
325 0 70.0792 12.5715 881 101.313 875.627 481.125
326 0 72.1075 13.0083 938 100.633 875.681 478.834
327 0 73.3105 12.4266 911 103.67 876.032 475.928
328 0 77.322 13.1657 1018 100.977 876.411 477.444
329 0 80.1199 12.656 1014 101.552 876.12 477.425
330 0 82.1012 12.582 1033 101.976 875.454 474.336
331 0 85.1428 12.7433 1085 102.678 876.09 473.684
332 0 89.2865 12.2751 1096 104.398 876.563 471.342
333 0 92.2478 14.0274 1294 101.191 876.15 469.199
334 0 95.1629 12.0845 1150 105.459 875.748 467.18
335 1 50.0233 11.1748 559 100.648 876.166 492.098
336 0 51.0636 11.8088 603 99.9453 873.904 490.279
337 0 52.092 10.9806 572 101.598 874.273 489.85
338 0 53.112 13.5939 722 95.7576 874.658 487.486
339 0 54.118 12.1956 660 98.6197 875.912 490.052
340 0 54.1108 13.7311 743 97.3257 875.856 486.552
341 0 56.124 11.4746 644 101.009 876.317 485.531
342 0 60.153 12.4682 750 98.2107 876.132 485.56
343 0 61.1561 10.9883 672 100.756 876.592 485.408
344 0 63.2131 11.6115 734 99.5191 876.86 484.319
345 0 67.1268 12.2753 824 97.6966 876.508 483.545
346 0 68.2761 13.6944 935 95.9455 876.538 480.658
347 0 70.3868 12.6302 889 97.6378 876.694 479.769
348 0 72.2772 10.6811 772 101.038 875.863 479.452
349 0 77.2065 12.1751 940 98.4798 876.429 477.33
350 0 78.2038 11.5851 906 99.8046 876.082 476.925
351 0 82.3607 12.8338 1057 98.5033 876.539 475.165
352 0 82.2595 11.6825 961 102.328 876.97 472.063
353 0 88.2345 11.8548 1046 101.796 876.42 470.386
354 0 92.339 11.2304 1037 102.575 876.318 469.645
355 1 47.0749 10.4939 494 101.927 877.32 488.868
356 0 50.092 11.6186 582 101.562 876.789 489.854
357 0 50.0507 11.1887 560 95.3429 876.371 489.538
358 0 50.1259 11.93 598 94.9548 876.614 488.075
359 0 52.1179 10.6681 556 97.1727 876.822 486.941
360 0 55.1567 12.4735 688 94.0538 876.188 487.282
361 0 54.179 11.9788 649 96.1079 877.018 488.419
362 0 56.0396 12.2592 687 95.5109 876.977 486.898
363 0 59.1254 11.3319 670 96.3522 877.067 484.828
364 0 61.165 12.8832 788 94.2132 876.716 482.972
365 0 63.1483 12.146 767 95.7953 876.86 482.169
366 0 65.0872 11.4615 746 97.366 876.961 484.512
367 0 70.1973 13.2484 930 94.4237 876.489 481.727
368 0 70.1219 12.9346 907 96.0849 876.563 479.62
369 0 74.1289 12.9234 958 95.9154 877.12 478.312
370 0 76.2608 12.89 983 96.6063 876.742 478.052
371 0 79.1944 12.3999 982 97.7189 876.381 475.532
372 1 40.0497 11.261 451 96.8115 877.488 496.242
373 0 44.0919 12.7007 560 93.2 878.198 495.166
374 0 43.0539 10.1268 436 97.3647 877.606 493.654
375 0 42.0431 10.0611 423 98.8392 875.565 494.017
376 0 46.0244 11.9719 551 94.3194 876.167 493.203
377 0 45.0364 11.1909 504 97.9702 875.423 491.819
378 0 48.0487 12.9244 621 93.2415 875.543 492.779
379 0 48.0984 12.8071 616 93.3994 875.911 491.065
380 0 51.0173 11.4863 586 96.3225 875.696 490.84
381 0 54.0498 12.9695 701 93.3966 875.452 488.596
382 0 53.2301 10.9712 584 99.488 876.337 488.3
383 0 55.0667 11.6586 642 97.3598 876.41 486.659
384 0 58.1055 12.615 733 95.4843 877.271 486.072
385 0 59.1221 11.3325 670 98.1478 876.824 484.306
386 0 63.0987 11.1888 706 96.9433 876.691 482.911
387 0 64.1615 13.2634 851 92.8872 876.73 480.826
388 0 66.1717 12.4827 826 92.8898 877.242 481.818
389 0 68.174 12.3361 841 92.5458 876.371 479.662
390 0 71.2119 12.3996 883 93.0102 876.614 478.421
391 0 73.2439 11.0999 813 95.9311 876.801 478.588
392 0 77.16 12.7916 987 92.6667 876.734 475.135
393 0 79.2383 11.6232 921 95.0337 876.503 474.489
394 0 82.238 12.0017 987 94.8419 876.087 471.635
395 0 84.2058 13.3126 1121 93.2533 876.215 471.259
396 0 88.1786 12.0097 1059 95.7224 875.794 468.693
397 1 43.02 9.25151 398 98.5427 877.344 492.465
398 0 46.1722 10.4825 484 95.6777 877.597 491.056
399 0 49.0539 10.9268 536 95.7799 877.289 490.696
400 0 52.1004 12.2456 638 93.0376 877.871 488.918
401 0 52.0352 10.3199 537 80.324 876.97 491.81
402 0 53.0607 11.0063 584 92.9315 877.341 488.767
403 0 55.0855 12.5441 691 90.2504 877.356 489.472
404 0 57.1586 10.7945 617 92.8541 878.105 490.019
405 0 59.062 10.2773 607 93.8023 877.366 488.558
406 0 61.1157 12.1082 740 92.6743 877.212 483.758
407 0 62.1263 11.879 738 94.1653 877.687 484.593
408 0 65.0923 12.9816 845 92.3763 877.704 483.322
409 0 67.1022 12.9206 867 93.4671 877.437 482.08
410 0 68.1145 12.6111 859 94.7835 877.077 481.033
411 0 71.1425 12.2993 875 96.0869 877.47 481.75
412 0 73.2062 11.775 862 98.109 877.269 478.718
413 0 78.1574 14.2405 1113 93.2947 876.81 478.649
414 0 80.1743 11.8741 952 98.8162 876.267 476.963
415 0 83.2051 13.1843 1097 96.1796 876.404 475.665
416 0 84.1807 12.1524 1023 99.784 876.166 472.756
417 0 89.1659 12.2917 1096 98.9215 876.33 475.03
418 1 45.0408 12.1889 549 97.3024 877.297 495.224
419 0 47.0275 12.397 583 96.8559 877.477 493.472
420 0 47.0921 12.019 566 99.7562 877.217 493.875
421 0 50.0823 12.6392 633 97.6288 877.021 492.496
422 0 48.093 12.1847 586 102.213 877.266 492.157
423 0 49.1178 12.2562 602 102.841 877.508 491.806
424 0 50.0628 11.5855 580 103.505 877.284 493.493
425 0 51.0834 11.5106 588 105.406 877.697 491.088
426 0 54.0774 11.4466 619 105.204 877.018 489.541
427 0 57.2312 12.9649 742 101.547 877.442 489.534
428 0 59.1232 11.5691 684 104.637 876.87 489.231
429 0 59.0932 11.998 709 105.656 877.622 486.997
430 0 62.0754 12.1787 756 104.864 877.316 487.615
431 0 63.1255 12.689 801 104.668 877.213 485.256
432 0 65.0749 12.4165 808 105.73 877.329 483.837
433 0 68.1039 12.569 856 105.886 876.474 482.728
434 0 70.1301 11.4787 805 107.894 876.181 484.422
435 0 73.1155 13.8685 1014 102.618 876.804 482.42
436 0 75.1559 12.6005 947 106.64 876.962 480.097
437 0 78.2195 13.0274 1019 105.979 876.524 479.244
438 0 81.1258 13.0045 1055 105.895 876.545 476.408
439 0 83.1935 12.0081 999 107.228 876.565 477.873
440 1 44.0558 11.3946 502 107.972 877.984 495.247
441 0 46.0561 12.4848 575 108.92 877.708 492.242
442 0 46.1189 12.2076 563 103.174 877.757 492.774
443 0 47.0491 11.8387 557 104.373 877.835 493.461
444 0 52.1042 12.4174 647 102.632 877.607 492.233
445 0 49.0959 11.7729 578 106.77 877.893 490.469
446 0 52.1667 12.6517 660 104.248 878.764 490.153
447 0 56.1141 14.0606 789 99.4918 878.371 490.218
448 0 55.0975 12.5777 693 103.85 878.033 490.066
449 0 57.1229 11.4665 655 107.084 877.947 488.928
450 0 59.1282 14.1219 835 102.11 877.462 486.976
451 0 61.0929 12.8329 784 105.976 877.343 485.927
452 0 63.2568 13.1211 830 105.506 877.112 484.829
453 0 64.1418 12.3944 795 107.982 876.299 486.228
454 0 68.1826 13.4198 915 106.659 876.917 483.338
455 0 69.1611 13.577 939 107.703 877.199 481.501
456 0 72.2125 14.665 1059 105.5 877.404 480.822
457 0 73.1407 12.7426 932 110.134 877.01 480.857
458 0 76.2142 13.239 1009 110.32 876.717 476.839
459 0 79.3592 13.1932 1047 109.794 876.548 476.314
460 0 81.2139 15.4407 1254 103.439 876.538 477.62
461 1 43.1156 12.1766 525 106.928 875.848 496.074
462 0 44.257 13.4894 597 104.441 876.838 494.568
463 0 45.2617 12.9911 588 106.643 876.534 493.124
464 0 48.0932 13.4115 645 111.285 876.854 492.105
465 0 49.0529 11.5182 565 115.927 877.235 492.15
466 0 51.019 14.2888 729 109.642 877.571 490.69
467 0 49.0886 11.3265 556 120.198 877.176 489.252
468 0 54.0683 12.5767 680 114.007 876.606 490.203
469 0 55.102 11.7963 650 116.397 877.098 489.203
470 0 54.0521 13.043 705 114.834 877.121 488.362
471 0 57.0514 14.1627 808 111.391 876.86 486.87
472 0 60.0648 12.6031 757 114.736 876.663 486.62
473 0 59.0917 13.5891 803 114.03 876.397 486.667
474 0 61.1004 14.3207 875 113.725 876.355 485.718
475 0 64.0666 14.3444 919 111.945 876.31 484.6
476 0 66.2005 13.5951 900 114.952 876.852 484.051
477 0 68.2446 13.9205 950 114.157 877.279 483.734
478 0 70.117 13.449 943 116.809 876.812 482.279
479 0 72.2694 14.2522 1030 115.96 876.184 480.85
480 0 75.3173 14.4057 1085 115.665 875.7 480.312
481 0 77.2279 15.0982 1166 114.75 876.154 479.494
482 0 79.2756 13.7369 1089 118.738 875.502 479.162
483 0 81.2293 14.0097 1138 119.832 875.019 476.593
484 0 83.1746 15.1489 1260 119.337 875.469 473.325
485 0 88.3476 14.0242 1239 121.138 875.787 472.022
486 0 88.0649 13.297 1171 117.839 877.066 474.44
487 1 47.0366 10.8851 512 110.182 876.668 494.74
488 0 45.0893 11.4439 516 108.95 876.742 490.928
489 0 50.0483 12.5079 626 110.816 876.62 492.728
490 0 51.034 12.7562 651 110.244 877 493.687
491 0 51.0684 13.2763 678 110.642 876.649 491.914
492 0 54.1345 12.9307 700 110.507 876.649 491.443
493 0 56.1056 13.635 765 108.601 875.995 490.322
494 0 57.1267 13.6363 779 109.701 876.362 488.513
495 0 59.1408 12.8507 760 110.559 876.591 488.745
496 0 62.1498 13.8375 860 107.015 876.245 487.127
497 0 63.1161 13.9584 881 106.776 875.95 486.167
498 0 66.1767 14.6728 971 104.592 876.316 484.665
499 0 65.1204 12.5306 816 110.202 876.219 482.657
500 0 68.1643 12.3232 840 111.833 877.088 482.3
501 0 71.2181 12.0896 861 113.462 877.006 482.375
502 0 74.2169 13.1237 974 112.132 876.43 480
503 0 75.1415 11.7911 886 114.282 876.55 479.939
504 0 77.282 11.6327 899 114.106 876.749 479.135
505 0 81.2072 11.9201 968 114.575 876.429 476.347
506 0 84.2844 11.3307 955 114.681 876.129 475.443
507 0 86.1775 12.0333 1037 113.584 875.924 472.846
508 1 46.0817 11.1975 516 104.899 876.446 495.114
509 0 46.0532 11.8558 546 103.363 877.244 493.767
510 0 46.0833 11.6528 537 105.931 876.87 493.382
511 0 49.0466 11.8459 581 113.005 877.191 491.563
512 0 51.1149 12.0904 618 112.54 877.749 489.649
513 0 54.0564 12.4315 672 111.08 877.177 489.237
514 0 52.0646 12.1196 631 109.204 874.177 488.935
515 0 55.1996 11.9204 658 109.078 874.574 488.602
516 0 56.1421 12.5396 704 109.456 874.575 487.188
517 0 57.0577 11.3219 646 111.505 874.322 487.675
518 0 59.0663 10.7845 637 113.179 874.312 487.531
519 0 64.1462 12.2065 783 109.866 874.728 484.766
520 0 65.1776 12.1361 791 110.81 874.525 483.45
521 0 64.0345 11.2596 721 114.829 875.809 481.735
522 0 68.182 12.1146 826 113.322 875.295 481.424
523 0 73.1897 11.764 861 113.244 874.801 480.598
524 0 73.285 12.0079 880 114.751 875.256 478.649
525 0 76.1727 12.3141 938 113.896 875.844 477.168
526 0 79.2098 13.3064 1054 113.385 875.75 475.337
527 0 84.2448 13.3065 1121 111.789 875.691 475.318
528 0 85.2863 12.1239 1034 115.402 875.89 474.32
529 0 88.2749 11.872 1048 113.604 875.667 472.899
530 1 44.1571 9.01328 398 120.146 875.673 491.656
531 0 50.1544 10.9861 551 114.443 875.376 490.975
532 0 51.3458 10.5169 540 119.015 874.833 490.939
533 0 54.1609 11.2627 610 118.326 876.9 489.208
534 0 57.182 12.8362 734 113.916 877.478 488.482
535 0 56.1053 11.1219 624 119.22 876.875 487.92
536 0 56.0693 12.3954 695 113.75 877.022 488.177
537 0 56.1364 11.5077 646 116.67 877.062 489.429
538 0 58.1165 12.3889 720 116.161 876.488 487.228
539 0 61.148 13.2466 810 113.299 875.981 486.509
540 0 63.1953 12.9124 816 114.248 875.924 486.145
541 0 63.2567 11.5561 731 118.551 876.514 484.673
542 0 66.1217 12.7492 843 116.565 875.949 483.383
543 0 70.1354 13.3741 938 114.445 876.197 481.603
544 0 71.2327 11.4975 819 119.374 875.72 481.947
545 0 72.2248 12.918 933 117.793 876.392 479.793
546 0 78.2391 13.0497 1021 116.715 876.93 478.559
547 0 80.209 12.1308 973 118.988 876.559 479.333
548 0 83.2175 12.5935 1048 119.741 877.527 474.731
549 0 85.3102 12.9058 1101 118.45 876.539 476.384
550 0 86.2179 12.6888 1094 121.19 876.529 473.166
551 0 91.3029 12.7926 1168 120.729 876.186 472.842
552 0 94.2355 13.8801 1308 118.087 875.892 470.589
553 0 97.3822 13.9348 1357 118.267 875.394 467.15
554 0 101.398 13.9845 1418 117.505 875.477 466.75
555 1 53.5282 11.0783 593 112.617 876.371 488.481
556 0 52.3051 9.84607 515 107.526 875.505 487.239
557 0 53.176 9.2711 493 109.434 876.022 486.231
558 0 55.2532 11.5107 636 109.887 877.208 490.992
559 0 57.0579 11.7425 670 110.403 877.619 488.296
560 0 59.1396 10.9233 646 111.263 876.675 487.659
561 0 63.2732 11.9324 755 108.628 877.621 487.162
562 0 62.1424 10.4277 648 112.588 877.948 487.767
563 0 67.11 12.0101 806 108.452 877.784 486.21
564 0 67.0667 11.4215 766 111.033 877.731 485.745
565 0 71.1466 11.7785 838 110.245 878.144 483.613
566 0 72.1027 12.2187 881 109.731 878.044 483.179
567 0 76.1898 13.4401 1024 107.01 877.604 479.443
568 0 78.1319 12.2229 955 110.269 877.101 477.822
569 0 81.2049 12.0806 981 110.445 877.404 478.789
570 0 85.2187 12.3095 1049 110.375 877.138 478.239
571 0 89.1753 14.1968 1266 106.291 877.37 474.425
572 1 45.0817 10.2259 461 112.679 877.62 496.694
573 0 50.044 11.9495 598 109.798 877.441 494.234
574 0 50.0915 12.3774 620 110.131 876.94 492.571
575 0 52.0578 12.198 635 109.279 877.778 493.068
576 0 54.1594 11.54 625 109.43 877.424 492.592
577 0 57.0994 12.4345 710 107.792 877.492 491.989
578 0 56.1439 13.4832 757 107.834 877.305 489.645
579 0 58.1094 12.6313 734 109.62 877.846 489.429
580 0 61.104 11.7832 720 110.911 877.322 489.349
581 0 60.1227 12.3581 743 112.012 877.739 488.271
582 0 65.1149 13.0692 851 109.563 877.455 486.643
583 0 67.0999 12.9806 871 108.776 877.493 484.868
584 0 66.0602 10.4147 688 115.417 877.36 486.144
585 0 71.1326 12.4978 889 111.303 877.665 483.435
586 0 73.084 11.9862 876 112.725 877.129 482.175
587 0 75.0882 11.4399 859 114.574 876.782 479.246
588 0 77.1523 11.6652 900 113.776 876.882 479.954
589 0 82.1891 11.218 922 115.748 876.528 476.597
590 1 43.1713 10.3541 447 116.998 876.564 497.597
591 0 47.2599 11.5955 548 114.967 875.518 496.217
592 0 44.294 10.4077 461 108.902 875.909 488.432
593 0 46.0516 10.0757 464 112.183 874.601 490.942
594 0 48.1608 12.1883 587 113.191 877.698 494.189
595 0 50.1362 11.3291 568 114.343 877.085 494.826
596 0 50.1028 12.155 609 112.864 876.698 493.044
597 0 51.0903 10.7848 551 117.661 876.027 493.08
598 0 55.1075 13.1561 725 111.192 877.772 491.703
599 0 58.1193 11.9926 697 114.808 877.409 490.773
600 0 58.1832 12.4435 724 114.866 877.066 489.405
601 0 62.1353 14.227 884 109.046 877.133 488.183
602 0 64.078 12.0946 775 113.59 877.326 488.364
603 0 65.0753 12.4164 808 114.152 877.613 485.65
604 0 68.1966 12.4786 851 113.108 877.397 486.325
605 0 71.1188 12.9361 920 110.896 877.403 486.417
606 0 73.3996 12.0164 882 113.461 877.166 485.405
607 0 73.2991 11.9374 875 114.832 876.821 483.561
608 0 76.2459 11.8826 906 113.808 877.097 480.83
609 0 83.2005 13.2451 1102 109.429 876.8 479.456
610 0 83.1992 12.3679 1029 112.29 877.226 477.442
611 0 87.1118 13.0063 1133 110.198 876.642 476.559
612 1 48.0746 11.1702 537 112.814 877.065 495.495
613 0 49.112 11.036 542 114.33 877.149 493.998
614 0 50.0815 12.2201 612 112.211 877.369 492.534
615 0 53.2373 12.4912 665 102.221 876.507 492.371
616 0 54.1822 13.2885 720 100.486 876.325 491.406
617 0 55.1148 12.2472 675 102.018 876.745 493.037
618 0 58.1674 13.8738 807 98.1053 874.872 488.747
619 0 59.1025 11.6408 688 101.933 875.265 488.089
620 0 61.2306 11.2852 691 103.032 875.758 486.719
621 0 64.1393 12.2546 786 100.934 875.662 488.05
622 0 64.1575 12.0485 773 101.925 875.674 486.988
623 0 66.1494 12.9555 857 101.119 875.796 485.788
624 0 70.167 14.0664 987 98.1824 875.398 483.946
625 0 70.2118 12.4908 877 103.038 874.865 484.178
626 0 74.0975 12.686 940 101.898 875.281 482.083
627 0 76.1587 12.3558 941 102.07 875.182 483.031
628 0 80.224 12.8017 1027 102.745 875.611 479.808
629 0 82.1126 13.6033 1117 103.399 874.913 476.589
630 0 84.2664 12.4605 1050 104.645 874.407 476.053
631 0 87.1617 13.2742 1157 103.678 875.46 473.873
632 0 88.1996 11.2699 994 109.348 875.219 472.285
633 0 94.2709 13.0581 1231 107.218 875.461 472.17
634 0 96.3567 13.5538 1306 108.289 875.724 468.472
635 0 103.347 12.6951 1312 109.861 875.012 468.399
636 0 103.222 13.8052 1425 110.139 874.588 466.691
637 0 107.199 13.7501 1474 110.17 875.623 466.657
638 0 110.191 13.5129 1489 110.224 875.688 466.323
639 0 114.219 13.8856 1586 111.175 874.456 459.6
640 0 117.118 13.6017 1593 113.136 873.78 460.691
641 1 60.2733 11.4479 690 109.672 874.897 485.454
642 0 64.2251 12.3783 795 107.444 875.472 485.614
643 0 62.0599 12.3268 765 106.332 875.607 488.566
644 0 65.0622 12.6802 825 106.099 875.515 486.912
645 0 69.0983 12.6052 871 105.478 875.887 486.572
646 0 72.2424 13.2471 957 104.996 875.985 486.311
647 0 71.1275 12.6393 899 108.696 876.16 484.524
648 0 76.0934 12.9709 987 110.599 876.045 482.308
649 0 79.1002 13.7673 1089 110.299 876.529 481.07
650 0 79.1631 12.4806 988 115.007 876.3 479.899
651 0 82.1172 12.2995 1010 116.149 875.932 477.355
652 0 85.1531 13.3054 1133 113.97 875.528 476.816
653 0 88.2395 12.976 1145 115.729 874.935 473.953
654 0 92.2296 12.4472 1148 117.568 875.436 473.451
655 0 95.4116 13.185 1258 115.952 875.926 471.576
656 0 97.253 12.7811 1243 117.333 875.902 470.5
657 0 99.4638 12.0546 1199 120.339 875.422 468.516
658 0 103.414 12.1454 1256 120.144 875.153 465.964
659 0 107.341 13.0332 1399 117.687 874.741 465.516
660 0 110.36 11.8068 1303 121.273 875.101 462.125
661 0 115.314 13.0513 1505 117.638 874.878 462.194
662 1 58.1445 10.4911 610 111.859 876.033 490.464
663 0 63.2439 11.843 749 110.015 875.973 488.437
664 0 65.2221 13.845 903 105.223 875.239 487.775
665 0 66.1924 12.4486 824 109.354 875.661 486.226
666 0 70.1935 12.3658 868 109.643 875.474 485.205
667 0 72.1258 13.0744 943 109.117 876.067 482.549
668 0 73.2227 11.4992 842 113.787 875.828 482.317
669 0 75.1737 11.5333 867 113.962 875.277 481.507
670 0 79.2064 12.0571 955 113.623 875.403 481.396
671 0 83.1371 12.5696 1045 113.73 875.834 478.684
672 0 82.1434 12.2225 1004 117.49 875.6 476.866
673 0 88.2343 14.1328 1247 113.026 875.387 475.459
674 0 91.161 14.2056 1295 114.192 875.401 473.204
675 0 93.3544 14.0754 1314 115.425 875.056 473.2
676 0 98.3087 14.8614 1461 112.413 876.122 472.943
677 0 101.344 13.6663 1385 116.645 875.891 470.248
678 0 103.193 13.9254 1437 117.164 875.66 468.679
679 0 105.231 13.6556 1437 117.871 874.901 468.627
680 0 107.268 14.6922 1576 117.074 875.476 465.269
681 0 112.2 13.0838 1468 120.781 875.74 465.477
682 0 115.41 13.6557 1576 121.193 875.82 462.697
683 0 120.338 14.4178 1735 118.609 875.517 459.963
684 0 124.348 13.8643 1724 120.368 875.543 456.967
685 0 128.288 14.2024 1822 120.25 876.166 453.463
686 0 133.297 14.5539 1940 119.927 875.883 451.178
687 1 70.1631 13.2548 930 111.113 876.617 483.819
688 0 72.2044 12.3261 890 113.238 876.208 481.511
689 0 74.1703 12.5522 931 113.067 876.337 483.629
690 0 76.3239 12.6828 968 115.232 875.69 480.992
691 0 81.3395 13.2654 1079 112.283 875.158 481.32
692 0 83.1681 13.3465 1110 112.888 875.727 480.401
693 0 86.2026 12.9346 1115 116.126 875.257 476.199
694 0 88.248 13.2581 1170 116.562 875.397 475.661
695 0 91.354 13.9239 1272 117.24 875.923 474.143
696 0 93.2884 12.1987 1138 121.019 875.694 474.191
697 0 98.2324 12.9489 1272 119.556 875.766 471.226
698 0 102.254 11.9115 1218 121.553 875.646 470.034
699 1 55.0585 10.2255 563 119.43 875.76 492.432
700 0 54.0491 12.7292 688 115.051 877.31 491.156
701 0 58.0681 12.5887 731 115.469 876.479 490.67
702 0 61.0924 14.1425 864 106.787 876.483 489.365
703 0 62.1225 13.7631 855 108.447 876.421 487.833
704 0 65.0562 13.619 886 107.647 875.863 487.483
705 0 66.0981 13.9036 919 106.444 875.329 486.873
706 0 69.0544 13.1925 911 107.738 875.989 485.678
707 0 71.0558 13.5105 960 107.881 876.177 483.086
708 0 74.1109 13.0075 964 107.754 875.93 481.933
709 0 76.1921 13.2428 1009 107.304 875.567 480.7
710 0 78.1332 13.093 1023 107.679 876.026 477.761
711 0 80.0966 13.6835 1096 107.177 875.828 478.606
712 0 82.1376 12.0286 988 109.254 875.75 478.834
713 0 87.0904 13.4228 1169 107.729 875.502 475.855
714 0 90.0661 12.9682 1168 107.826 875.082 471.73
715 1 43.0299 11.5966 499 115.068 876.481 496.639
716 0 44.0265 11.5385 508 113.73 876.219 496.156
717 0 47.0844 12.7643 601 104.489 876.536 493.401
718 0 46.2094 12.1404 561 107.497 876.417 491.988
719 0 48.1994 12.6143 608 107.314 876.551 491.27
720 0 51.069 13.844 707 109.215 877.412 493.065
721 0 52.0932 13.3223 694 111.89 877.483 490.589
722 0 54.1603 13.8293 749 110.14 877.191 492.174
723 0 55.0841 13.5611 747 111.229 877.332 489.451
724 0 58.054 13.2635 770 110.53 876.456 489.644
725 0 60.0193 14.0788 845 108.801 877.114 488.677
726 0 61.065 14.4273 881 108.613 876.855 487.7
727 0 61.0642 13.8215 844 109.898 876.825 486.562
728 0 62.0454 13.5707 842 112.652 876.831 487.126
729 0 65.1033 13.4402 875 113.448 876.694 484.744
730 0 67.065 14.4785 971 110.202 876.408 486.1
731 0 70.1389 13.6586 958 112.17 875.914 483.646
732 0 74.044 14.4914 1073 109.664 875.924 483.924
733 0 76.0605 14.7383 1121 109.791 875.63 481.482
734 0 78.0711 14.6661 1145 110.25 876.038 479.468
735 0 80.1711 14.5564 1167 110.184 876.071 480.134
736 1 38.0825 12.2891 468 110.38 876.66 497.269
737 0 40.063 12.8797 516 111.477 876.122 497.298
738 0 43.0903 14.342 618 107.977 875.911 497.12
739 0 45.0257 13.1036 590 93.1288 875.481 496.175
740 0 45.1026 12.3496 557 111.431 875.749 495.851
741 0 47.1507 12.0253 567 110.753 875.494 494.168
742 0 47.0859 11.1498 525 113.93 875.81 493.356
743 0 51.1358 13.1806 674 108.816 875.769 492.818
744 0 52.1169 12.8749 671 110.346 875.753 490.969
745 0 54.1185 12.5281 678 111.978 875.805 490.611
746 0 54.1231 12.6194 683 113.496 875.953 489.511
747 0 58.0978 14.2346 827 110.031 875.92 488.837
748 0 60.0617 13.0865 786 113.066 875.29 488.793
749 0 62.1054 13.3 826 113.366 875.539 487.958
750 0 64.0387 13.6168 872 113.372 875.554 486.958
751 0 66.0423 13.2642 876 115.805 875.864 486.684
752 0 69.1129 13.6009 940 116.284 875.872 484.522
753 0 72.0475 14.074 1014 115.766 874.969 484.161
754 0 75.1247 14.0034 1052 114.614 875.209 482.298
755 0 78.0475 14.0812 1099 117.055 875.732 481.54
756 0 80.1255 13.8657 1111 119.649 875.147 481.298
757 0 83.1888 14.3529 1194 118.261 875.898 479.783
758 0 86.1461 14.9049 1284 118.005 875.879 478.083
759 0 88.0239 13.0987 1153 122.148 875.913 476.38
760 1 44.0291 15.0128 661 117.411 875.56 498.421
761 0 47.0716 14.7223 693 119.082 875.713 495.928
762 0 46.0534 13.2455 610 119.013 874.9 494.885
763 0 49.0452 13.4162 658 118.617 874.983 493.272
764 0 50.0538 14.4844 725 117.532 874.974 492.611
765 0 51.0691 13.7657 703 120.538 875.684 491.993
766 0 55.0879 14.5404 801 118.366 875.635 491.004
767 0 57.138 13.7212 784 120.182 875.452 489.76
768 0 58.1387 15.0158 873 117.078 875.719 488.655
769 0 59.1461 14.7432 872 120.364 875.375 487.078
770 0 63.0189 13.5356 853 120.685 874.937 488.455
771 0 67.0944 14.3678 964 119.306 875.066 486.497
772 0 68.0917 13.7168 934 122.213 874.091 484.59
773 0 71.1718 15.0622 1072 118.743 874.47 482.785
774 0 73.1297 13.1957 965 125.469 874.909 480.915
775 0 77.0701 14.636 1128 121.812 875.308 480.184
776 1 38.0098 13.5228 514 124.111 875.012 498.545
777 0 40.1924 13.2612 533 124.039 875.06 498.45
778 0 40.043 13.7352 550 127.431 875.807 496.976
779 0 42.0222 14.9921 630 124.805 875.24 496.725
780 0 43.0421 14.1954 611 123.921 875.694 497.327
781 0 44.0695 15.1806 669 120.819 875.154 494.764
782 0 45.0855 14.9715 675 122.327 875.633 493.884
783 0 47.2069 15.6969 741 120.656 875.281 492.509
784 0 48.1345 14.8334 714 122.035 875.444 493.301
785 0 50.0951 15.5105 777 120.426 875.09 491.885
786 0 53.1727 14.7068 782 121.769 875.426 490.747
787 0 56.1024 16.8977 948 118.168 875.968 489.402
788 0 55.064 14.0564 774 127.547 875.641 488.5
789 0 58.1204 15.1754 882 123.58 875.172 487.969
790 0 62.2375 16.0996 1002 120.498 875.968 487
791 0 62.1596 15.4119 958 125.037 875.238 485.193
792 0 66.1868 15.0483 996 124.811 875.385 483.654
793 0 69.1765 15.352 1062 123.25 875.152 482.524
794 0 73.0975 15.8555 1159 120.708 875.124 482.127
795 0 75.1534 16.5794 1246 121.138 875.094 479.474
796 0 76.1077 14.8211 1128 124.547 875.262 480.449
797 0 79.4039 14.8103 1176 125.926 875.007 479.077
798 0 80.0951 15.6564 1254 126.074 874.726 473.825
799 0 84.3388 14.7263 1242 129.767 875.158 472.839
800 0 87.3045 14.9362 1304 130.189 874.997 472.972
801 1 46.2773 13.7216 635 132.192 875.498 493.506
802 0 48.2825 14.498 700 130.036 875.76 492.986
803 0 49.188 15.5729 766 128.522 875.713 491.269
804 0 50.0316 14.3709 719 132.666 874.818 490.21
805 0 52.3963 15.3064 802 128.989 875.617 488.072
806 0 55.0769 16.1592 890 123.942 875.494 490.078
807 0 57.2188 14.6805 840 128.698 875.331 488.214
808 0 60.1096 16.0706 966 125.184 875.669 486.327
809 0 62.2382 14.9587 931 128.898 875.097 486.455
810 0 64.2633 14.8607 955 129.628 875.245 483.717
811 0 67.1106 15.6905 1053 127.97 874.91 481.757
812 0 69.3319 16.0532 1113 126.691 875.539 481.193
813 0 72.3596 15.7823 1142 128.127 875.166 479.603
814 0 74.1533 16.3041 1209 128.404 874.736 478.632
815 0 78.1141 15.1701 1185 130.729 874.869 477.527
816 0 80.0804 16.4335 1316 128.718 874.651 475.557
817 0 87.1658 14.9256 1301 130.151 875.147 475.425
818 0 86.2279 15.9345 1374 130.584 874.812 471.87
819 0 88.209 15.4633 1364 134.363 874.499 469.409
820 0 92.3226 16.1716 1493 132.77 874.392 469.713
821 0 95.1676 15.9088 1514 132.884 874.37 469.464
822 0 100.219 15.8053 1584 133.433 874.731 466.912
823 0 104.164 15.7252 1638 134.184 874.534 462.464
824 0 109.172 15.929 1739 132.407 874.674 460.873
825 0 113.429 15.1108 1714 136.859 874.147 457.779
826 1 58.0764 12.8279 745 135.879 875.075 484.946
827 0 61.0537 14.217 868 132.209 875.285 484.478
828 0 62.0875 13.3843 831 135.005 875.037 483.629
829 0 65.0321 14.0238 912 134.803 875.352 480.845
830 0 67.1002 14.3815 965 134.096 875.211 480.35
831 0 70.3512 14.6408 1030 133.468 875.318 478.174
832 0 73.1963 13.8122 1011 136.336 874.845 477.535
833 0 73.2447 12.8473 941 140.069 874.783 477.257
834 0 78.3062 13.3451 1045 136.973 875.234 475
835 0 83.1882 14.0645 1170 134.006 875.268 475.818
836 0 84.2163 14.6527 1234 132.965 875.054 473.978
837 0 88.1248 14.4795 1276 135.248 875.667 470.679
838 0 92.1534 14.7906 1363 134.04 875.023 470.258
839 1 51.0425 11.2847 576 126.927 875.038 492.991
840 0 55.0516 12.1704 670 124.358 875.257 490.609
841 0 56.0802 12.0363 675 124.846 875.461 489.513
842 0 58.0876 12.4984 726 120.558 874.189 489.419
843 0 61.1263 10.8791 665 124.343 873.788 489.878
844 0 62.0734 11.5186 715 123.383 873.331 488.106
845 0 66.1396 11.0221 729 123.281 874.163 487.122
846 0 68.2397 12.1484 829 120.517 874.207 485.064
847 0 71.1076 12.8959 917 118.327 874.165 481.768
848 0 72.1893 11.1928 808 121.864 874.056 481.512
849 0 75.176 11.8788 893 120.171 873.714 478.568
850 0 78.154 10.1978 797 120.364 873.04 479.365
851 0 82.1806 11.4017 937 118.158 873.821 476.686
852 0 82.1824 10.5375 866 121.452 873.603 473.516
853 1 41.0552 9.30454 382 109.435 875.199 499.128
854 0 40.0263 9.54372 382 107.599 875.168 498.277
855 0 42.0322 10.7774 453 105.23 874.901 496.828
856 0 43.0481 10.5463 454 106.055 875.396 496.914
857 1 26.0288 7.56853 197 109.482 875.964 505.183
858 0 26.0622 8.01929 209 110.354 876.306 503.493
859 1 45.0762 9.14008 412 109.35 875.93 494.255
860 0 47.158 7.04017 332 114.069 876.25 494.377
861 0 51.1156 9.15571 468 111.248 875.885 492.22
862 0 52.0494 9.72153 506 111.142 876.654 493.324
863 0 55.0705 10.7862 594 110.005 876.254 490.579
864 0 54.1057 8.0583 436 114.225 875.821 491.709
865 0 57.0849 9.09172 519 113.615 876.364 490.277
866 0 61.1714 10.6095 649 111.604 876.139 487.248
867 0 62.148 10.298 640 112.564 876.175 486.111
868 0 65.1146 11.0267 718 110.976 876.879 485.657
869 0 67.1278 10.7258 720 112.21 876.046 486.169
870 0 69.0499 10.5721 730 114.262 875.951 481.54
871 0 72.145 11.1997 808 113.025 876.222 483.843
872 0 74.1232 10.4016 771 116.009 875.46 483.37
873 0 76.2115 10.7202 817 117.529 875.939 479.042
874 0 80.1351 11.4681 919 117.554 875.688 477.143
875 0 83.1896 11.576 963 118.277 875.495 476.628
876 0 85.2974 11.2899 963 119.263 876.015 477.003
877 0 89.0867 11.7302 1045 119.852 876.574 473.796
878 0 89.0823 11.6521 1038 122.596 877.575 473.8
879 0 95.1424 12.1397 1155 118.987 875.37 472.17
880 0 96.1427 10.6716 1026 126.434 875.295 469.81
881 1 53.059 11.0443 586 116.691 875.771 491.99
882 0 54.25 9.62211 522 118.797 875.002 492.372
883 0 56.3561 11.7822 664 114.78 875.117 490.773
884 0 57.4533 12.2708 705 113.675 874.679 489.997
885 0 58.3739 11.6833 682 116.1 874.79 488.245
886 0 57.5884 10.8702 626 118.486 875.561 487.898
887 0 61.4021 10.8954 669 117.795 875.17 487.091
888 0 64.3634 11.6992 753 115.062 875.086 485.96
889 0 65.42 10.3944 680 117.172 875.21 484.576
890 0 68.313 12.0182 821 113.787 875.178 484.475
891 0 71.4656 12.1737 870 112.997 874.424 483.841
892 0 70.3643 10.4598 736 117.057 875.004 482.447
893 0 75.2699 11.1864 842 113.596 874.43 481.606
894 0 80.5104 12.2469 986 112.153 874.346 477.207
895 0 81.291 12.3015 1000 112.253 873.543 475.849
896 0 85.4593 11.5845 990 113.739 874.04 477.351
897 0 87.3846 11.6268 1016 114.149 874.46 473.167
898 0 92.2516 11.9239 1100 111.185 873.641 471.805
899 1 45.1291 10.193 460 105.378 875.276 497.915
900 0 49.1709 11.0228 542 106.904 874.469 490.251
901 0 49.4337 12.1779 602 102.884 875.744 494.336
902 0 52.3626 11.9169 624 104.458 875.373 493.247
903 0 53.3775 12.702 678 103.094 875.283 492.417
904 0 56.494 12.9748 733 102.026 875.347 491.538
905 0 57.2679 12.6249 723 104.127 875.379 490.537
906 0 58.4563 11.7524 687 105.764 875.354 491.889
907 0 59.4411 12.5334 745 104.859 875.03 491.878
908 0 61.4166 11.9512 734 108.037 874.792 488.495
909 0 62.451 11.8493 740 110.385 875.236 486.201
910 0 64.3249 12.1881 784 108.847 875.219 487.26
911 0 68.5138 12.2165 837 108.714 875.103 487.073
912 0 70.2878 13.2171 929 106.805 875.193 486.198
913 0 70.2403 12.7562 896 108.834 874.985 484.235
914 0 72.4128 13.133 951 107.956 874.584 483.228
915 0 73.3245 13.5153 991 108.8 874.857 480.48
916 0 77.4317 12.6951 983 108.436 874.229 481.893
917 0 79.4273 13.333 1059 108.677 874.215 479.387
918 0 81.2558 13.6606 1110 107.033 874.451 478.726
919 0 83.2422 11.6047 966 110.098 874.625 479.165
920 0 85.2984 13.4938 1151 107.677 874.748 473.965
921 1 41.1459 10.8395 446 106.762 876.74 499.276
922 0 44.154 11.324 500 106.642 873.994 494.354
923 0 43.1766 11.6498 503 107.237 874.427 490.179
924 0 46.2 13.0952 605 103.782 874.207 490.426
925 0 47.0241 11.5047 541 104.482 873.917 495.957
926 0 48.0217 11.4532 550 102.442 874.004 496.887
927 0 48.0557 12.4439 598 101.998 873.438 493.656
928 0 50.0725 13.2009 661 100.085 873.729 494.286
929 0 51.2332 12.5114 641 100.75 874.008 494.251
930 0 54.0971 12.8843 697 99.7331 874.179 493.01
931 0 53.1693 11.9618 636 102.528 874.225 492.557
932 0 54.0514 12.4511 673 102.248 874.352 492.166
933 0 57.106 13.7639 786 98.2201 873.908 489.523
934 0 60.1666 13.8449 833 99.6663 873.653 484.17
935 0 60.1923 12.9751 781 94.717 874.782 486.114
936 0 64.1008 14.8828 954 91.7704 874.531 483.411
937 0 66.1004 12.8895 852 96.1479 874.743 484.059
938 0 66.0849 12.8925 852 97.3392 875.167 484.377
939 0 69.2162 13.6095 942 96.1635 874.879 481.28
940 0 72.1129 12.2585 884 101.618 875.212 484.381
941 0 75.2655 13.6317 1026 97.8519 875.019 481.411
942 0 75.1284 13.3505 1003 100.494 875.146 482.167
943 0 78.1294 12.1337 948 100.581 874.637 475.823
944 0 81.2039 14.2111 1154 98.0919 874.763 475.317
945 0 84.2816 14.6533 1235 98.0162 875.309 475.203
946 0 84.3439 11.8799 1002 103.593 874.907 473.578
947 0 88.2975 13.2507 1170 100.92 874.374 473.615
948 0 89.3145 12.1929 1089 105.503 874.729 473.152
949 1 47.1198 11.2055 528 104.758 875.049 491.464
950 0 49.284 12.6207 622 102.045 875.416 492.024
951 0 51.0793 14.0174 716 100.612 875.686 490.599
952 0 52.1598 12.4809 651 103.825 875.479 491.742
953 0 54.193 12.9353 701 103.223 875.542 489.061
954 0 55.1719 12.1257 669 104.96 875.722 490.136
955 0 57.3803 12.1122 695 104.925 875.243 486.345
956 0 58.0988 14.0795 818 102.559 875.092 486.196
957 0 63.2554 12.9475 819 103.923 875.048 485.697
958 0 64.1397 13.8292 887 103.185 875.213 483.997
959 0 66.1537 15.2675 1010 100.592 875.737 483.038
960 0 67.1665 12.8189 861 108.459 874.945 481.398
961 0 70.1887 14.7175 1033 104.815 874.791 483.001
962 0 73.1944 13.4163 982 107.181 874.628 480.555
963 0 76.1235 14.5159 1105 104.995 874.981 481.129
964 0 76.1372 13.7778 1049 109.373 874.49 479.033
965 0 78.2199 13.6155 1065 111.006 874.887 476.752
966 0 81.1588 14.7612 1198 109.397 874.724 475.514
967 0 86.207 14.036 1210 113.6 874.498 472.115
968 0 86.2201 12.2825 1059 117.385 874.369 468.703
969 0 90.2064 12.937 1167 116.321 874.44 470.613
970 0 94.3259 14.5135 1369 114.202 873.969 466.087
971 0 95.2434 13.3447 1271 117.899 873.681 464.156
972 0 100.22 13.8696 1390 117.102 874.258 462.414
973 0 101.272 13.607 1378 118.295 873.589 460.852
974 0 105.307 14.6904 1547 115.876 873.917 459.609
975 0 107.333 14.0777 1511 118.183 873.523 458.022
976 0 112.229 13.9625 1567 117.246 873.34 455.099
977 0 117.368 15.0126 1762 115.753 873.998 454.31
978 0 120.266 14.26 1715 116.858 873.617 454.219
979 0 126.185 16.7611 2115 110.261 873.567 451.38
980 0 128.238 14.8864 1909 116.063 874.327 450.066
981 0 131.369 14.2651 1874 118.093 873.267 448.529
982 0 136.243 15.1641 2066 116.841 872.867 443.534
983 0 140.417 15.2118 2136 117.275 873.561 441.89
984 0 144.368 14.754 2130 119.252 873.969 439.018
985 0 151.268 14.5701 2204 119.42 874.074 440.287
986 0 157.223 14.1646 2227 120.238 874.293 437.773
987 0 162.369 14.3131 2324 121.322 874.144 432.888
988 0 171.332 15.4671 2650 118.054 873.817 431.397
989 0 174.307 14.3942 2509 121.637 874.21 429.629
990 0 180.355 13.3847 2414 125.266 873.8 425.11
991 0 189.351 14.8401 2810 123.622 874.449 416.571
992 0 197.522 15.5223 3066 122.515 873.877 416.844
993 1 63.048 10.4206 657 114.907 874.636 484.551
994 0 66.2509 9.19233 609 113.342 874.839 482.493
995 0 66.3991 10.0905 670 111.428 874.778 478.399
996 0 70.168 10.1898 715 112.516 874.399 480.684
997 0 70.0302 10.6383 745 112.024 875.404 480.075
998 0 72.0682 10.7121 772 115.806 875.163 477.541
999 0 77.1283 11.2151 865 112.308 874.439 477.976
1000 0 79.1275 11.1845 885 113.61 874.673 475.063
1001 0 81.1224 11.0574 897 113.506 874.591 471.472
1002 0 85.0826 10.9541 932 112.204 874.627 469.778
1003 0 88.0817 11.1147 979 112.172 874.897 467.774
1004 0 91.0766 11.8033 1075 110.327 874.954 465.65
1005 0 94.098 9.87269 929 113.959 875.198 464.983
1006 0 97.0516 9.93286 964 117.626 875.268 461.567
1007 0 102.064 11.2479 1148 113.562 875.571 460.009
1008 0 107.177 10.8512 1163 112.783 875.272 459.266
1009 1 57.0346 9.78354 558 101.541 873.778 485.643
1010 0 54.0503 10.3422 559 120.236 875.313 427.492
1011 0 57.2305 10.0471 575 99.8643 876.883 483.548
1012 0 58.1234 9.65189 561 100.889 876.654 480.877
1013 0 61.1619 8.95982 548 101.077 876.349 481.673
1014 1 33.0402 8.74692 289 100.612 877.111 497.097
1015 0 34.0641 6.13549 209 104.584 876.445 497.718
1016 0 36.0328 6.29981 227 103.89 877.088 493.925
1017 0 37.0457 6.66745 247 102.854 876.619 495.555
1018 0 35.0091 4.08465 143 106.958 876.615 494.371
1019 0 32.0623 6.30024 202 102.52 876.837 493.124
1020 0 41.0637 5.35753 220 102.109 876.7 493.859
1021 0 40.0582 6.76516 271 98.952 876.945 491.24
1022 0 41.0148 6.72928 276 99.2101 876.482 492.141
1023 0 44.0711 6.9887 308 97.0032 876.536 492.321
1024 0 45.037 6.94984 313 95.8115 876.859 494.642
1025 0 45.0442 6.88213 310 95.5323 876.61 487.603
1026 0 49.0718 8.1717 401 95.0948 876.661 490.98
1027 0 49.1178 9.62991 473 95.537 875.732 488.666
1028 0 48.3241 7.53248 364 97.3159 877.08 490.016
1029 0 50.0366 9.33316 467 95.3769 876.353 487.206
1030 0 47.1302 6.47144 305 102.062 876.734 493.187
1031 0 51.0579 9.69488 495 95.9677 876.218 491.545
1032 0 51.0693 6.59888 337 102.534 876.736 491.647
1033 0 54.0961 9.53858 516 99.6221 876.696 488.079
1034 0 59.1862 11.2357 665 97.1278 876.471 485.944
1035 0 57.0795 8.32172 475 102.994 876.817 488.629
1036 0 60.1867 10.7665 648 100.062 876.833 484.35
1037 0 63.2689 11.3326 717 100.151 876.669 485.312
1038 0 63.1815 10.5885 669 99.8774 876.381 486.248
1039 0 66.3174 12.1537 806 97.4529 876.548 483.715
1040 0 66.2858 10.1681 674 102.3 876.455 483.872
1041 0 71.2961 10.7439 766 99.7807 875.551 482.192
1042 0 72.2822 11.1507 806 102.066 876.413 479.187
1043 0 76.2936 11.7048 893 100.391 876.203 479.629
1044 0 78.2382 11.9123 932 101.593 876.426 477.306
1045 0 80.1942 12.557 1007 100.43 875.699 476.982
1046 0 84.2094 13.1933 1111 100.019 876.237 476.034
1047 0 86.3161 12.6743 1094 102.171 876.305 474.665
1048 0 87.254 11.5754 1010 105.011 876.703 474.228
1049 0 90.1746 10.6349 959 107.245 876.391 471.489
1050 1 49.0641 10.3334 507 106.414 877.59 490.049
1051 0 47.0647 10.8361 510 99.4176 877.622 488.259
1052 0 48.0638 10.382 499 99.8257 877.834 482.731
1053 0 51.0483 10.9504 559 98.8909 877.614 485.413
1054 0 51.098 9.86339 504 103.25 877.437 483.226
1055 0 51.1196 9.89835 506 103.832 877.219 484.144
1056 0 54.0703 9.87603 534 93.1049 875.536 484.528
1057 0 54.125 10.1062 547 93.5649 875.676 484.486
1058 0 54.0954 8.44803 457 95.8315 874.829 483.398
1059 0 58.1775 11.6024 675 92.1393 874.834 481.923
1060 0 58.1517 9.85353 573 95.0663 874.707 481.527
1061 0 62.0584 9.84556 611 95.8527 874.791 479.502
1062 0 65.0951 10.3387 673 95.3046 874.976 478.33
1063 0 65.1478 11.0671 721 96.0347 874.519 475.793
1064 0 68.232 9.68754 661 98.5461 875.297 476.558
1065 0 70.1477 10.9768 770 97.0455 874.683 476.052
1066 0 74.1265 9.83453 729 98.1193 874.567 477.292
1067 0 77.3877 12.082 935 96.4021 875.094 473.539
1068 0 77.1483 10.253 791 100.354 875.107 470.104
1069 0 82.3655 9.73709 802 100.833 875.042 472.162
1070 0 84.2132 12.2902 1035 98.2309 875.071 470.815
1071 1 42.0755 10.7664 453 104.126 876.402 490.247
1072 0 42.1733 12.5672 530 101.691 875.326 491.094
1073 0 44.1989 11.1315 492 104.965 874.587 489.266
1074 0 45.3332 10.6765 484 106.091 875.068 489.048
1075 0 46.295 10.7787 499 105.91 875.295 488.255
1076 0 48.1866 11.414 550 104.867 874.964 487.682
1077 0 49.3358 11.6548 575 103.918 874.584 485.837
1078 0 48.2959 10.4771 506 107.694 874.711 486.073
1079 0 51.3824 11.2879 580 105.088 874.919 485.593
1080 0 55.2857 11.8837 657 103.09 875.746 486.035
1081 0 55.3371 11.2221 621 103.849 875.138 485.501
1082 0 56.1988 13.3633 751 100.758 875.557 484.15
1083 0 56.2702 11.0716 623 101.729 875.722 479.23
1084 0 58.1448 10.3879 604 102.134 875.406 482.608
1085 0 61.1892 11.3746 696 100.864 874.822 479.131
1086 0 63.1572 11.9543 755 99.8291 875.15 480.383
1087 0 66.1772 11.8923 787 100.247 875.086 479.056
1088 0 68.1675 12.704 866 98.3418 875.803 479.677
1089 0 70.2162 12.0627 847 101.231 875.326 476.549
1090 0 71.1264 12.991 924 100.577 875.321 474.785
1091 0 74.156 12.231 907 101.163 875.454 474.938
1092 0 77.1885 11.5432 891 104.352 875.892 472.499
1093 0 78.1324 12.85 1004 102.278 875.512 471.01
1094 0 80.2641 11.8484 951 105.514 875.495 469.551
1095 0 85.1733 12.9501 1103 102.829 875.103 468.287
1096 0 84.2079 10.2128 860 107.823 874.408 468.577
1097 0 88.23 12.4107 1095 104.225 874.824 465.748
1098 0 90.181 10.49 946 108.987 874.205 464.651
1099 0 94.1844 12.2419 1153 106.437 873.808 462.918
1100 0 97.2293 11.7969 1147 106.098 873.933 460.162
1101 0 101.154 12.7727 1292 104.316 874.375 458.857
1102 0 105.183 13.5479 1425 103.046 874.566 456.91
1103 0 106.476 12.6977 1352 106.708 874.851 454.663
1104 0 110.495 11.9191 1317 107.276 874.125 455.997
1105 0 115.295 14.1897 1636 103.748 874.411 451.526
1106 0 117.337 12.528 1470 114.522 874.641 448.92
1107 0 125.487 14.0573 1764 115.71 874.077 449.819
1108 0 130.305 12.9696 1690 108.401 874.359 444.982
1109 1 57.0592 13.3546 762 100.866 874.391 486.928
1110 0 59.023 13.2999 785 98.4013 876.541 487.619
1111 0 60.0694 13.1681 791 97.9241 876.545 485.41
1112 0 62.166 11.228 698 100.218 876.45 486.769
1113 0 66.2268 13.7709 912 94.6206 876.227 484.194
1114 0 66.0788 12.5759 831 97.4079 876.509 484.535
1115 0 69.079 12.4206 858 97.9732 876.477 481.904
1116 0 71.1512 11.075 788 100.137 876.704 481.775
1117 0 76.1537 11.9233 908 96.9471 876.124 479.48
1118 0 77.1438 12.5221 966 96.8447 876.188 478.288
1119 0 82.1556 13.4257 1103 94.2829 875.839 476.813
1120 0 86.2652 13.2151 1140 95.3228 875.75 473.445
1121 0 86.1927 11.9616 1031 98.2173 875.283 474.698
1122 1 45.117 10.4174 470 104.374 875.764 494.553
1123 0 50.0266 12.7132 636 100.267 876.156 493.22
1124 0 49.0246 11.3004 554 104.531 876.22 490.883
1125 0 51.0223 11.3284 578 106.388 876.386 491.424
1126 0 52.036 11.3767 592 106.704 876.103 490.65
1127 0 55.0282 12.1938 671 104.723 876.569 488.894
1128 0 59.0623 12.4445 735 102.75 876.672 488.982
1129 0 60.1482 13.0511 785 102.027 876.526 488.738
1130 0 61.1455 12.4948 764 103.346 876.527 487.034
1131 0 61.0228 10.619 648 108.36 876.739 486.028
1132 0 65.1539 13.5525 883 101 876.789 484.376
1133 0 66.0712 12.5773 831 102.662 876.632 482.361
1134 0 69.1417 11.339 784 105.112 876.879 483.583
1135 0 70.0661 11.5891 812 105.42 876.919 480.712
1136 0 74.0608 14.0695 1042 100.325 876.777 480.561
1137 0 75.0746 12.1612 913 104.115 876.529 480.312
1138 0 77.052 12.2644 945 105.2 876.903 477.159
1139 0 79.232 12.5076 991 105.048 876.194 475.093
1140 0 82.0855 11.3662 933 105.886 875.8 475.678
1141 0 87.0976 12.8936 1123 101.89 875.102 474.362
1142 0 88.0855 11.9089 1049 103.813 875.488 471.749
1143 0 94.0606 12.8641 1210 102.829 875.821 469.627
1144 0 95.1244 12.5625 1195 104.473 875.068 466.964
1145 1 52.096 11.0565 576 98.3854 875.972 492.863
1146 0 49.1152 10.9131 536 94.5187 875.438 490.138
1147 0 53.2143 11.1248 592 94.4274 875.081 489.529
1148 0 57.1698 12.1218 693 91.1227 875.026 489.362
1149 0 60.198 12.1765 733 91.337 874.353 487.879
1150 0 58.1195 11.4247 664 93.4684 874.952 486.687
1151 0 62.1444 13.6456 848 89.3054 874.463 485.383
1152 0 64.1579 13.4824 865 89.5064 874.261 485.808
1153 0 65.2048 12.2537 799 92.1727 874.814 484.421
1154 0 67.1747 12.7578 857 91.825 874.25 484.041
1155 0 70.148 12.6162 885 92.4192 874.158 482.273
1156 0 72.2133 13.5709 980 90.8806 874.707 479.364
1157 0 74.1789 12.0519 894 93.6096 875.333 480.022
1158 0 77.1787 12.8144 989 91.5096 875.203 479.765
1159 0 77.168 13.5289 1044 92.3985 874.883 475.325
1160 0 78.0956 12.792 999 98.5225 872.822 477.833
1161 0 81.0996 12.7868 1037 98.1668 873.111 478.082
1162 0 83.2086 12.3545 1028 103.771 872.834 474.814
1163 0 87.2333 13.1028 1143 102.508 872.588 474.012
1164 0 88.3449 11.2853 997 106.668 872.862 474.072
1165 0 90.2672 12.5959 1137 105.314 873.12 471.446
1166 0 93.1133 10.4819 976 107.024 872.923 471.027
1167 1 55.0454 12.2626 675 96.3333 872.556 488.631
1168 0 57.3204 12.4737 715 96.3273 875.32 485.597
1169 0 59.0972 14.0277 829 92.9047 876.411 485.739
1170 0 61.0783 11.5262 704 98.2571 876.236 486.369
1171 0 63.1856 11.5058 727 99.663 875.986 486.052
1172 0 64.0857 11.5627 741 100.665 875.58 483.892
1173 0 67.0977 11.9378 801 101.464 876.258 481.883
1174 0 70.0907 12.1985 855 98.6982 876.103 479.359
1175 0 71.0737 12.6348 898 98.5345 876.031 476.364
1176 0 75.0662 12.0427 904 105.258 876.544 479.95
1177 0 78.1098 11.9831 936 104.47 875.85 477.577
1178 0 79.089 13.0865 1035 102.022 875.567 472.38
1179 0 82.1489 12.38 1017 103.265 875.794 475.53
1180 0 86.141 14.1396 1218 87.514 874.779 472.355
1181 0 88.1742 14.494 1278 99.9038 874.836 472.668
1182 0 92.2204 13.4677 1242 101.593 875.026 469.834
1183 0 92.2552 12.3462 1139 104.198 874.865 467.086
1184 0 97.2946 13.4026 1304 103.649 875.098 467.298
1185 0 99.3929 11.9123 1184 107.02 874.567 463.927
1186 0 104.367 12.5135 1306 105.668 874.607 462.921
1187 1 56.1259 11.5633 649 100.653 873.341 487.032
1188 0 59.1556 10.8189 640 104.858 872.541 486.914
1189 0 61.0826 12.9169 789 100.738 872.015 486.67
1190 0 62.1588 11.8728 738 106.079 872.408 484.642
1191 0 64.1401 13.1743 845 103.396 872.039 483.705
1192 0 63.1094 11.3295 715 106.66 872.248 483.266
1193 0 68.1679 12.7919 872 103.978 872.49 481.906
1194 0 69.2188 13.8691 960 101.817 872.3 480.957
1195 0 72.2863 13.2805 960 101.661 873.044 481.289
1196 0 75.1775 12.7698 960 103.486 873.445 478.764
1197 0 75.4576 13.7031 1034 101.753 873.368 479.684
1198 0 79.5495 12.3822 985 105.118 873.374 475.104
1199 0 81.8756 12.7022 1040 103.956 874.238 474.103
1200 0 86.3061 12.3282 1064 95.0573 874.429 474.123
1201 0 89.3207 12.136 1084 95.7445 874.623 471.331
1202 1 47.2254 11.5404 545 90.2569 875.811 493.782
1203 0 51.1511 10.2051 522 90.8793 875.559 494.343
1204 0 50.1495 11.4059 572 89.3654 875.469 491.906
1205 0 54.1984 13.9857 758 86.2348 874.931 489.834
1206 0 56.116 10.71 601 90.8735 875.681 490.336
1207 0 57.1288 12.113 692 90.1879 875.426 488.438
1208 0 58.039 11.4234 663 91.5309 875.383 488.795
1209 0 61.0526 13.0543 797 94.2535 875.617 487.197
1210 0 60.0457 11.4413 687 96.3857 875.469 486.386
1211 0 62.0849 11.0977 689 96.7692 874.932 488.634
1212 0 63.0406 13.7848 869 92.878 874.838 483.78
1213 0 67.0417 12.8726 863 93.4855 875.043 486.622
1214 0 69.1206 13.0207 900 93.2311 875.06 484.43
1215 0 70.1908 13.9192 977 91.2733 875.023 483.826
1216 0 72.1733 11.9296 861 93.5993 874.67 482.748
1217 0 73.1249 12.8684 941 91.6536 874.521 480.719
1218 0 75.1734 14.1672 1065 89.8038 874.931 479.927
1219 0 75.1942 12.2483 921 93.0271 875.443 479.416
1220 0 79.1327 13.8881 1099 87.6561 873.303 477.08
1221 0 81.1532 12.5811 1021 90.7111 873.671 475.71
1222 0 84.39 12.3711 1044 92.4119 872.659 473.893
1223 0 88.3152 12.9536 1144 91.5175 873.266 471.98
1224 0 90.224 13.1783 1189 90.8091 873.883 474.508
1225 0 91.4074 13.4234 1227 92.053 873.685 469.269
1226 0 92.3298 12.7261 1175 94.2187 874.112 470.806
1227 0 97.3409 11.845 1153 95.8023 874.233 470.605
1228 0 101.576 11.4889 1167 99.6898 873.647 467.922
1229 0 106.401 13.2988 1415 100.538 873.654 464.234
1230 0 107.498 13.6096 1463 96.8975 873.733 463.108
1231 0 111.551 13.0702 1458 97.0823 873.724 459.822
1232 0 114.305 13.9102 1590 93.656 873.536 462.413
1233 1 60.1867 10.4508 629 90.4881 875.038 490.167
1234 0 62.2055 11.9121 741 90.1039 874.725 486.926
1235 0 64.1042 11.7153 751 91.0599 874.465 485.021
1236 0 66.2787 13.3376 884 89.8009 875.416 482.326
1237 0 68.3225 11.0359 754 92.5053 874.545 484.723
1238 0 69.2318 11.0209 763 92.2595 873.942 484.553
1239 0 75.2591 13.6595 1028 89.5039 874.468 481.911
1240 0 76.192 12.9279 985 91.9868 874.194 478.437
1241 0 81.3112 13.3684 1087 90.8519 873.531 477.971
1242 0 84.1898 14.7999 1246 88.6477 873.86 474.494
1243 0 87.1824 13.489 1176 89.6845 873.695 476.148
1244 0 89.2278 11.9357 1065 92.5089 873.903 473.173
1245 0 94.3158 12.5324 1182 91.8249 873.571 472.709
1246 1 47.0949 10.4045 490 89.8306 874.604 493.792
1247 0 49.4814 11.2972 559 90.2665 874.342 490.243
1248 0 53.2496 12.2254 651 87.6083 874.043 491.82
1249 0 53.173 12.6568 673 88.3061 873.71 492.163
1250 0 55.1054 13.1747 726 88.4504 874.339 488.645
1251 0 56.1898 12.1552 683 90.5637 874.88 487.779
1252 0 59.0982 14.0783 832 86.994 873.775 487.696
1253 0 59.1505 12.6795 750 89.244 874.312 486.992
1254 0 60.1681 12.2822 739 89.9716 873.881 485.284
1255 0 64.179 13.2754 852 88.0282 874.608 484.788
1256 0 67.1868 12.7704 858 88.0105 874.839 483.258
1257 0 67.1868 12.2494 823 88.3463 874.738 485.056
1258 0 71.2436 12.5625 895 88.3073 874.439 481.085
1259 0 72.2142 11.7844 851 88.7709 874.053 479.503
1260 0 77.1933 12.6695 978 88.1401 874.946 479.365
1261 0 78.1727 11.4234 893 89.832 874.171 477.474
1262 0 83.2323 12.8556 1070 87.2963 873.988 478.019
1263 0 85.1801 12.2564 1044 89.3276 873.28 476.301
1264 0 89.3737 14.1652 1266 87.3175 873.652 471.917
1265 0 89.3422 10.2751 918 92.7397 874.173 471.17
1266 0 94.6001 13.4672 1274 88.2653 873.867 469.801
1267 0 97.2592 13.4589 1309 86.6089 873.999 473.39
1268 1 52.0685 13.4246 699 86.0658 874.358 490.744
1269 0 52.2137 9.7867 511 90.0294 875.205 492.524
1270 0 54.2452 10.3419 561 92.3262 874.469 489.544
1271 0 56.1585 10.8443 609 88.6782 874.452 489.726
1272 0 59.1432 12.7825 756 85.1587 874.593 489.569
1273 0 57.1796 12.2246 699 86.5007 874.431 487.343
1274 0 61.235 12.0356 737 86.806 874.277 486.566
1275 0 62.2249 11.4102 710 88.2972 874.304 486.061
1276 0 64.1951 12.6489 812 88.1773 874.193 483.958
1277 0 65.1685 11.079 722 90.4266 874.672 483.626
1278 0 68.2453 11.5612 789 89.0342 874.968 481.326
1279 0 69.2398 10.8319 750 88.9827 874.269 480.06
1280 0 72.293 9.95947 720 89.1347 874.925 484.347
1281 0 72.3504 12.3703 895 88.2972 874.801 476.915
1282 0 76.1749 11.9199 908 86.3557 874.739 481.949
1283 0 80.1723 10.9764 880 88.4886 873.894 479.574
1284 0 81.2545 13.3285 1083 88.1607 874.268 471.651
1285 0 85.3066 10.9487 934 93.1916 874.489 474.095
1286 0 89.2464 14.3087 1277 90.0705 874.007 472.047
1287 0 90.2729 10.7341 969 96.8793 873.944 470.918
1288 0 94.3122 13.6356 1286 94.0622 874.109 468.297
1289 0 96.1919 12.4751 1200 99.2808 873.777 465.277
1290 0 100.216 11.8045 1183 100.96 873.568 468.653
1291 0 104.188 12.2567 1277 100.83 874.009 465.031
1292 0 108.273 12.2099 1322 100.69 873.772 460.046
1293 0 108.173 11.1673 1208 100.614 873.43 455.538
1294 1 58.2228 12.0915 704 95.9503 875.565 488.054
1295 0 60.2085 12.191 734 90.5831 875.279 485.944
1296 0 63.145 11.7824 744 91.8898 875.513 485.696
1297 0 64.1298 11.196 718 93.3287 875.831 485.299
1298 0 64.1291 12.8959 827 91.6723 875.982 483.326
1299 0 66.0958 11.5741 765 94.7987 875.579 480.51
1300 0 67.1037 10.2528 688 97.1541 875.503 483.14
1301 0 71.2173 12.4268 885 94.2181 874.197 478.724
1302 0 71.1426 11.9057 847 94.6635 875.655 480.623
1303 0 76.1462 12.5417 955 93.8429 875.373 478.393
1304 0 79.1624 11.4827 909 95 874.213 476.29
1305 0 81.2291 12.2616 996 92.6727 873.172 472.572
1306 0 82.1884 11.352 933 94.0493 873.924 476.018
1307 0 84.2204 12.2536 1032 93.2151 873.286 474.62
1308 0 88.2078 11.3595 1002 96.9561 872.556 474.143
1309 0 92.1305 12.7862 1178 91.7436 872.995 468.952
1310 0 95.2605 12.681 1208 93.5141 874.799 465.267
1311 0 98.2325 12.1854 1197 94.0702 874.985 466.495
1312 1 51.2941 10.703 549 93.5228 875.375 489.851
1313 0 53.2522 12.5065 666 101.88 874.518 487.114
1314 0 56.0824 14.4787 812 96.3042 875.431 485.541
1315 0 55.0778 10.8574 598 104.851 875.952 486.309
1316 0 59.0848 12.7952 756 99.3823 875.159 486.496
1317 0 60.1393 12.1551 731 99.5171 874.39 486.081
1318 0 62.2675 11.9966 747 99.7671 875.12 483.161
1319 0 66.3176 12.5909 835 98.7964 875.836 482.43
1320 0 63.2517 12.7269 805 101.897 875.174 481.211
1321 0 69.2652 14.2207 985 97.9726 874.858 480.02
1322 0 68.5252 12.1123 830 103.852 875.155 478.996
1323 0 70.3395 11.544 812 105.606 873.831 478.08
1324 0 73.2736 12.2691 899 104.335 874.142 477.254
1325 0 76.3247 14.53 1109 99.2958 875.04 476.553
1326 0 78.191 12.7636 998 103.92 875.153 477.031
1327 0 80.3236 13.1593 1057 103.667 875.043 475.831
1328 0 80.3312 12.9838 1043 105.458 874.306 472.472
1329 0 86.4549 14.0304 1213 102.385 874.013 472.145
1330 0 88.2742 16.1655 1427 99.1829 874.205 466.908
1331 0 88.3983 13.0206 1151 104.645 873.651 468.062
1332 0 92.205 15.1293 1395 100.812 873.629 465.252
1333 0 94.1947 13.3766 1260 104.6 873.956 467.655
1334 0 96.5673 14.4459 1395 103.928 874.417 466.022
1335 0 102.394 15.9091 1629 101.433 874.251 461.068
1336 0 105.288 15.0825 1588 104.068 874.113 459.568
1337 0 109.264 14.8814 1626 103.514 874.126 459.039
1338 0 108.345 14.0015 1517 105.562 874.007 454.734
1339 0 112.415 13.8683 1559 99.4208 872.799 453.731
1340 0 117.542 14.6586 1723 97.6686 873.015 451.136
1341 0 117.274 11.7759 1381 102.424 873.636 447.741
1342 1 57.0792 11.8607 677 93.0148 874.538 481.749
1343 0 59.1385 10.5177 622 102.717 874.137 476.969
1344 0 62.0853 11.0171 684 99.9532 874.174 478.639
1345 0 64.0681 11.7531 753 99.9695 873.845 474.907
1346 0 66.0841 9.51817 629 102.073 873.321 474.126
1347 0 65.0755 7.94462 517 103.669 873.971 473.977
1348 0 70.2073 10.0132 703 102.768 874.088 471.188
1349 0 73.2199 12.0049 879 95.8316 872.958 471.928
1350 0 76.1769 11.6702 889 100.469 873.281 469.461
1351 0 75.0983 10.1467 762 104.672 873.882 465.525
1352 0 79.1331 10.5139 832 103.37 874.036 466.395
1353 1 173.388 13.2535 2298 111.243 873.336 421.037
1354 0 175.328 11.5099 2018 111.879 873.108 414.389
1355 0 182.513 11.906 2173 109.129 873.183 419.918
1356 1 92.2944 9.97893 921 99.937 874.009 458.874
1357 0 97.1977 10.957 1065 97.6094 873.685 458.65
1358 0 98.2245 11.0258 1083 97.0813 874.271 459.958
1359 0 101.345 9.67976 981 98.5117 874.671 457.038
1360 0 103.157 9.15113 944 98.9248 873.156 454.593
1361 0 104.485 9.08265 949 99.7081 872.131 450.094
1362 0 107.139 8.40961 901 94.5394 872.858 450.921
1363 0 114.268 10.5366 1204 90.3032 873.209 457.812
1364 0 113.273 9.74634 1104 93.5045 873.245 448.037
1365 0 118.326 9.76961 1156 93.3045 872.96 446.888
1366 0 125.151 5.44144 681 91.931 872.581 465.037
1367 0 126.374 9.2424 1168 93.339 872.98 446.168
1368 0 127.421 10.4536 1332 92.6141 872.947 443.64
1369 0 133.332 8.43005 1124 95.6468 872.858 437.282
1370 0 133.417 7.28544 972 98.1924 872.399 430.756
1371 0 142.558 9.53998 1360 94.3551 872.69 426.701
1372 0 146.206 10.9161 1596 92.933 872.935 430.464
1373 0 149.592 11.4177 1708 93.2272 872.701 424.59
1374 0 158.271 9.62275 1523 96.5607 873.097 422.081
1375 1 87.1673 10.9215 952 90.7132 873.894 456.873
1376 0 92.3401 10.6996 988 91.6812 873.714 457.524
1377 0 101.403 10.4336 1058 93.4915 873.675 464.114
1378 0 105.487 10.2857 1085 94.5548 874.356 463.512
1379 1 52.3188 11.3917 596 86.3238 875.164 490.334
1380 0 54.4433 10.4145 567 89.3369 875.259 488.815
1381 0 56.3056 12.1302 683 87.5798 874.981 486.496
1382 0 60.3413 12.8602 776 85.2706 875.039 487.117
1383 0 61.2598 11.492 704 86.4986 875.109 489.503
1384 0 63.3096 12.7469 807 86.0558 874.493 484.876
1385 0 65.3707 12.8039 837 85.5986 874.652 487.047
1386 0 64.2333 12.4235 798 86.9098 874.851 486.833
1387 0 67.3863 11.5899 781 87.0602 874.328 485.996
1388 0 71.2181 12.8198 913 85.7349 874.076 481.796
1389 0 70.3001 12.4182 873 87.5716 874.038 480.333
1390 0 75.5138 11.4019 861 90.0093 874.553 479.195
1391 0 78.2813 11.9697 937 89.9114 875.33 479.234
1392 0 78.3701 12.7472 999 90.008 874.363 477.908
1393 0 80.3691 11.6463 936 91.9274 874.119 476.716
1394 0 85.3046 12.6722 1081 89.7114 873.678 474.757
1395 0 87.1805 12.5372 1093 91.5169 873.848 474.157
1396 0 90.2754 13.5917 1227 90.1663 873.936 472.996
1397 1 47.1336 11.1173 524 91.6469 875.555 494.781
1398 0 49.2248 12.2702 604 90.0861 875.121 491.298
1399 0 51.1679 13.7 701 85.5036 875.098 488.713
1400 0 50.194 10.8579 545 90.0972 874.91 488.736
1401 0 55.1578 13.2166 729 84.9506 875.038 491.545
1402 0 57.191 12.7992 732 85.0929 874.831 488.481
1403 0 57.0572 12.5839 718 84.7103 874.419 487.21
1404 0 58.1032 13.0113 756 84.209 875.012 485.561
1405 0 59.0878 12.8284 758 83.7296 874.719 485.053
1406 0 64.1963 12.7422 818 82.7188 874.471 485.441
1407 0 65.2154 12.1444 792 83.8649 873.92 481.977
1408 0 69.0709 16.5627 1144 76.4476 873.302 483.834
1409 0 67.1688 13.1311 882 80.6327 874.051 482.215
1410 0 73.0876 15.7345 1150 79.78 873.803 478.88
1411 0 75.2359 12.8662 968 82.4587 873.775 480.729
1412 0 73.0997 12.2846 898 85.422 873.492 477.292
1413 0 76.2299 9.0778 692 89.6662 874.421 478.809
1414 0 82.167 13.3265 1095 85.0795 874.132 477.508
1415 0 85.1151 13.3701 1138 86.0448 873.542 472.063
1416 0 89.2085 11.3666 1014 87.2495 873.938 475.512
1417 0 100.393 10.6382 1068 86.9607 873.334 473.892
1418 0 100.589 11.3333 1140 86.9579 873.095 474.185
1419 0 98.5003 13.9086 1370 87.719 873.171 465.804
1420 0 100.464 12.5418 1260 88.0389 873.368 469.094
1421 1 55.1011 12.3046 678 87.174 874.46 488.982
1422 0 55.0639 12.204 672 89.2202 874.106 489.283
1423 0 58.0688 16.1016 935 83.9283 874.338 486.082
1424 0 58.1179 12.9736 754 87.1631 875.304 487.857
1425 0 61.2822 13.4949 827 86.6917 875.244 486.624
1426 0 61.0863 14.3895 879 86.9192 875.529 485.432
1427 0 64.066 13.5485 868 88.8376 876.369 484.026
1428 0 64.066 13.6422 874 126.482 877.35 483.904
1429 0 67.1595 12.7755 858 92.169 875.67 482.465
1430 0 69.1226 12.7744 883 93.1903 874.751 480.802
1431 0 70.1483 13.0866 918 93.8693 874.486 478.737
1432 0 71.1577 15.3743 1094 91.7505 874.691 476.142
1433 0 73.2041 14.0156 1026 95.5614 874.661 474.859
1434 0 75.0919 13.4369 1009 99.4906 874.954 473.857
1435 0 78.0952 13.522 1056 99.1515 874.59 475.353
1436 0 81.119 13.8808 1126 96.4174 874.089 471.887
1437 0 86.1962 15.6619 1350 95.203 874.561 471.281
1438 0 86.4008 15.0346 1299 97.0516 874.293 468.808
1439 0 89.1101 15.06 1342 98.1364 874.355 465.912
1440 0 92.1346 15.4231 1421 96.5545 874.794 466.647
1441 0 95.1766 14.8776 1416 98.6144 874.724 464.987
1442 1 50.1458 12.3041 617 102.031 875.013 488.019
1443 0 53.0863 12.5833 668 103.599 875.195 483.769
1444 0 56.1674 13.9583 784 100.958 875.128 486.075
1445 0 58.1257 13.9353 810 100.306 875.274 485.968
1446 0 57.0561 13.3027 759 101.97 875.215 486.204
1447 0 61.1168 14.6114 893 98.7996 875.577 485.024
1448 0 61.2976 12.2191 749 106.471 873.605 482.953
1449 0 64.1573 16.2881 1045 98.3081 874.15 483.807
1450 0 66.229 13.9365 923 101.855 873.554 481.627
1451 0 67.2602 12.5929 847 105.261 873.672 479.774
1452 0 70.1477 15.9806 1121 98.5584 873.586 479.178
1453 0 71.2336 12.5362 893 104.073 872.682 480.791
1454 0 74.1706 14.6958 1090 99.4092 872.84 477.083
1455 0 76.2422 12.762 973 101.968 873.319 480.052
1456 0 77.0969 13.0485 1006 102.094 872.84 475.898
1457 0 84.18 15.6688 1319 95.8196 873.286 475.015
1458 0 83.1224 12.7403 1059 100.387 872.825 474.175
1459 0 86.255 13.8311 1193 99.0545 872.783 472.889
1460 0 91.2285 14.7761 1348 98.8531 873.584 473.081
1461 0 91.2417 14.6863 1340 98.4045 873.174 470.226
1462 0 94.6698 13.6369 1291 98.2169 873.619 466.733
1463 0 96.3184 13.9226 1341 91.0477 872.503 465.136
1464 0 95.3271 12.6092 1202 94.2471 872.922 460.557
1465 0 102.408 14.4129 1476 91.1904 873.281 458.909
1466 0 101.403 13.7964 1399 92.0043 872.325 460.299
1467 1 53.2323 11.7973 628 88.1847 873.753 484.118
1468 0 53.2413 12.7157 677 89.5953 873.123 480.443
1469 0 55.1419 12.7489 703 90.8307 873.642 479.391
1470 0 57.2273 10.4321 597 93.6013 873.256 479.667
1471 0 58.3014 12.0923 705 92.1064 872.8 477.797
1472 0 63.4113 11.5752 734 91.5027 872.522 478.247
1473 0 63.2291 12.9687 820 90.9683 872.502 475.46
1474 0 65.3181 13.0745 854 91.1663 872.602 474.034
1475 0 67.2476 12.2086 821 92.2436 872.917 474.804
1476 0 70.4435 11.3708 801 90.9638 872.588 478.32
1477 0 72.2105 11.3834 822 92.3054 873.202 475.264
1478 0 75.3078 11.7385 884 92.9095 872.848 471.497
1479 0 79.227 12.4326 985 91.0995 873.375 474.062
1480 0 82.2711 14.2213 1170 89.6368 873.542 471.456
1481 0 82.2179 11.3114 930 93.4086 874.168 469.777
1482 0 87.345 13.4066 1171 91.4893 873.472 467.245
1483 1 40.0541 7.04047 282 88.3369 873.968 489.922
1484 0 39.1104 9.92065 388 88.732 872.662 484.915
1485 0 44.1063 10.0212 442 86.1787 872.928 487.172
1486 0 46.1031 10.8453 500 86.06 873.106 484.95
1487 0 49.1516 11.3933 560 84.8804 872.659 484.662
1488 0 49.0609 9.13151 448 87.529 872.748 484.201
1489 0 52.1067 9.11591 475 85.1095 873.541 485.027
1490 0 50.1663 13.4752 676 81.5015 873.306 483.55
1491 0 52.1626 12.8445 670 81.1836 873.351 480.245
1492 0 57.0699 15.1569 865 80.022 873.254 481.562
1493 0 56.0926 11.9267 669 85.6054 873.262 481.003
1494 0 62.0891 11.9828 744 85.5659 872.397 478.411
1495 0 61.0556 11.9891 732 85.4754 871.667 478.327
1496 0 64.023 12.0582 772 84.8122 871.952 474.793
1497 0 65.2245 12.5566 819 85.2161 872.142 473.063
1498 0 68.1157 15.0332 1024 82.8555 872.39 474.887
1499 0 68.1157 15.092 1028 110.515 873.428 474.717
1500 0 72.1266 11.7294 846 87.4232 872.639 469.836
1501 0 73.0938 12.012 878 88.4453 872.669 466.811
1502 0 77.2983 13.3121 1029 86.966 872.645 465.815
1503 0 78.3154 10.5982 830 91.3843 871.858 462.528
1504 0 86.3325 11.3283 978 95.1554 872.847 470.473
1505 0 88.2257 12.1507 1072 98.486 873.756 468.063
1506 1 43.1046 10.2077 440 95.625 874.723 490.72
1507 0 45.1871 10.9766 496 96.9637 875.19 493.905
1508 0 44.1443 9.87671 436 101.241 874.138 492.19
1509 0 44.1122 11.04 487 100.55 874.569 491.191
1510 0 46.1474 11.4633 529 100.388 874.119 491.741
1511 0 48.0504 11.5296 554 98.4025 873.865 492.02
1512 0 48.0638 10.7565 517 99.8897 873.781 491.472
1513 0 51.0666 13.2768 678 93.9027 872.935 488.881
1514 0 53.0352 11.1624 592 97.5963 873.412 488.755
1515 0 54.0848 12.4989 676 95.9793 873.155 486.275
1516 0 56.0839 12.3208 691 96.4674 874.049 486.205
1517 0 57.0704 12.6861 724 96.6395 873.142 486.504
1518 0 60.0993 12.6457 760 97.5803 872.747 487.08
1519 0 61.1672 11.8037 722 100.902 873.066 485.328
1520 0 63.1659 12.8709 813 100.695 872.355 482.578
1521 0 65.1237 12.5453 817 102.6 873.379 485.066
1522 0 67.1949 13.5725 912 102.656 872.751 481.098
1523 0 69.2769 13.2079 915 103.995 873.266 482.322
1524 0 70.18 12.8669 903 106.635 872.956 482.674
1525 0 72.1619 12.0978 873 109.344 872.978 481.553
1526 0 76.1274 13.0702 995 107.377 873.521 481.817
1527 0 77.1968 13.0187 1005 109.63 872.686 478.512
1528 1 42.0286 12.087 508 109.652 874.201 497.36
1529 0 42.0301 9.82629 413 116.939 873.903 498.419
1530 0 44.0235 13.3338 587 108.617 873.913 496.348
1531 0 44.0881 11.2729 497 114.505 873.924 496.602
1532 0 46.1 12.82 591 111.232 870.753 494.834
1533 0 47.1804 11.8693 560 113.627 870.72 494.857
1534 0 48.0958 13.5771 653 110.243 871.24 494.882
1535 0 49.1044 13.4815 662 110.622 871.508 493.482
1536 0 52.1713 12.9382 675 110.67 870.999 492.56
1537 0 53.072 12.5301 665 112.82 871.286 492.024
1538 0 54.1258 13.3023 720 110.736 871.507 491.256
1539 0 57.06 13.4771 769 109.312 871.349 490.745
1540 0 58.05 11.8346 687 113.294 870.94 491.052
1541 0 60.1536 12.7008 764 110.861 870.801 489.366
1542 0 60.1538 13.3491 803 110.676 871.791 488.572
1543 0 61.0515 12.0554 736 113.342 871.557 487.412
1544 0 64.1514 12.2211 784 111.658 870.732 489.084
1545 0 66.1939 13.3094 881 109.696 870.882 485.866
1546 0 69.1314 13.6118 941 109.828 871.845 484.108
1547 0 71.0549 13.5951 966 110.354 872.929 482.782
1548 0 73.2566 12.9681 950 111.304 872.856 481.874
1549 0 75.2126 13.8939 1045 110.055 872.663 480.547
1550 0 77.1767 14.5381 1122 108.955 872.851 478.68
1551 0 79.1481 13.5063 1069 111.685 871.951 475.906
1552 0 82.1748 12.4734 1025 112.564 872.119 476.624
1553 0 86.0803 15.5785 1341 105.055 871.614 475.961
1554 0 88.169 13.3494 1177 109.588 871.425 473.54
1555 0 91.1224 14.2117 1295 106.805 870.605 473.66
1556 0 95.2139 14.1681 1349 105.882 871.222 471.182
1557 1 50.0537 13.5854 680 102.431 872.474 491.265
1558 0 50.2101 11.193 562 96.7509 871.258 485.322
1559 0 49.0711 10.5765 519 98.2447 870.075 484.422
1560 0 51.1737 11.0408 565 97.5522 870.49 484.198
1561 0 51.0777 12.8236 655 95.9847 870.824 482.902
1562 0 53.1845 11.7139 623 97.764 870.525 481.626
1563 0 56.1438 13.127 737 95.2198 870.824 481.502
1564 0 55.1474 11.9498 659 98.3354 871.219 481.056
1565 0 59.0689 12.0876 714 97.1303 871.073 477.951
1566 0 62.1492 12.1804 757 96.0423 871.161 477.98
1567 0 64.1571 10.8639 697 98.0617 870.954 477.973
1568 0 62.0841 11.4361 710 99.1338 870.827 474.193
1569 0 66.1678 12.7857 846 96.6868 871.304 472.066
1570 0 70.2615 12.7808 898 96.9477 871.08 472.859
1571 0 73.0591 11.4154 834 98.9005 870.831 473.459
1572 0 75.0901 12.5183 940 98.5011 870.015 469.552
1573 0 77.2642 12.7744 987 98.7376 869.204 469.543
1574 0 78.1756 11.973 936 99.6079 869.877 467.377
1575 0 84.2634 11.737 989 99.7604 870.471 467.569
1576 0 86.0642 11.7819 1014 99.8235 870.25 466.365
1577 0 87.1356 12.2453 1067 98.9822 870.286 464.77
1578 0 93.133 13.0351 1214 98.3072 870.575 462.691
1579 0 94.2348 10.8771 1025 101.627 870.089 459.111
1580 0 96.2585 13.1001 1261 101.496 870.037 459.634
1581 1 48.1252 12.0103 578 99.2301 869.587 483.841
1582 0 48.0963 10.4998 505 96.1762 871.087 484.263
1583 0 53.0752 12.3033 653 92.1164 870.704 483.352
1584 0 55.0515 11.9706 659 93.1138 871.68 480.933
1585 0 56.0647 10.6841 599 98.6227 871.664 480.406
1586 0 57.0554 12.0935 690 95.971 871.333 477.836
1587 0 58.0566 12.8495 746 96.7507 871.273 479.233
1588 0 63.1105 12.5019 789 97.1242 871.65 477.459
1589 0 65.0809 13.7521 895 95.3911 871.345 475.483
1590 0 66.1048 11.3154 748 100.31 871.279 475.561
1591 0 69.2036 12.7739 884 99.6063 871.345 475.309
1592 0 69.0614 11.3522 784 102.532 870.733 472.509
1593 0 74.1821 12.9681 962 101.024 870.381 471.367
1594 0 77.1455 12.5736 970 101.549 870.324 472.862
1595 0 81.0816 13.4679 1092 100.263 870.446 471.103
1596 0 82.2275 13.718 1128 100.19 870.029 466.294
1597 0 87.3115 13.6752 1194 100.29 870.538 467.079
1598 0 87.1385 15.1598 1321 98.9871 870.654 465.618
1599 0 92.0895 12.3684 1139 103.256 870.74 462.456
1600 0 93.1382 12.154 1132 103.531 870.732 461.855
1601 0 99.3216 14.5688 1447 98.2916 870.552 461.381
1602 0 100.266 13.5639 1360 100.946 870.541 458.496
1603 0 106.199 12.5236 1330 102.013 870.439 456.852
1604 1 57.0385 12.29 701 109.482 869.953 489.715
1605 0 56.1749 10.6809 600 104.557 870.215 481.677
1606 0 59.0965 11.7097 692 101.159 870.142 480.214
1607 0 62.1783 10.5825 658 102.081 870.114 478.881
1608 0 65.1621 11.5558 753 98.8114 870.106 479.498
1609 0 64.181 10.7664 691 102.569 869.849 473.991
1610 0 69.1447 13.1753 911 96.9769 870.411 473.494
1611 0 67.1178 11.815 793 99.8537 870.092 473.909
1612 0 74.1956 12.7096 943 104.806 869.813 473.178
1613 0 75.138 12.843 965 99.0756 869.926 470.598
1614 0 74.184 11.4445 849 102.015 870.052 467.552
1615 0 78.1324 12.658 989 99.4378 869.46 468.491
1616 0 81.1448 12.4962 1014 93.8846 870.432 470.492
1617 0 82.1683 11.5495 949 97.1507 870.38 465.154
1618 0 87.1918 11.274 983 95.3571 870.121 467.99
1619 0 90.2536 11.9995 1083 94.867 870.778 461.243
1620 0 92.164 11.5772 1067 96.8144 870.714 460.078
1621 0 94.1877 11.8593 1117 95.5013 870.212 459.104
1622 0 98.2591 11.5511 1135 96.2123 870.061 454.829
1623 1 50.1536 9.92949 498 91.7369 870.873 481.291
1624 0 53.0714 10.2127 542 90.059 871.207 481.247
1625 0 51.0856 9.92452 507 91.8304 871.746 483.268
1626 0 55.1438 11.0439 609 90.2693 870.984 480.342
1627 0 55.1589 10.0981 557 91.3124 871.671 481.327
1628 0 58.1282 11.0101 640 90.6797 871.702 480.22
1629 0 60.1882 10.949 659 91.8346 871.662 477.757
1630 0 61.0757 10.1841 622 93.6479 871.477 476.426
1631 0 64.2919 11.0434 710 92.4141 870.983 476.752
1632 0 67.2842 11.1467 750 91.576 870.992 474.731
1633 0 71.2398 12.1421 865 89.978 870.269 470.96
1634 0 73.2446 13.2297 969 88.8762 870.529 471.26
1635 0 78.3198 12.2191 957 88.9707 870.504 468.716
1636 0 76.1955 11.4574 873 92.0103 870.778 466.294
1637 0 79.2819 10.2546 813 93.5978 870.8 465.077
1638 0 83.1055 12.8752 1070 89.786 870.25 463.293
1639 0 87.2283 10.6387 928 93.32 870.284 463.115
1640 1 41.0139 9.7528 400 88.7475 871.008 482.158
1641 0 46.1242 9.19257 424 87.8962 870.443 482.505
1642 0 48.1175 9.43524 454 87.4802 871.07 483.366
1643 0 47.0932 9.98022 470 89.1745 870.753 480.319
1644 0 52.1575 10.1424 529 87.2212 871.301 482.312
1645 0 50.1516 9.89002 496 87.5766 871.139 478.23
1646 0 53.0946 12.0163 638 84.7947 870.989 478.807
1647 0 58.162 11.5367 671 84.6408 870.626 479.228
1648 0 65.277 12.041 786 85.2023 871.307 484.312
1649 0 65.2777 12.1787 795 84.8302 871.107 481.119
1650 0 68.3463 11.1198 760 86.0816 871.051 476.629
1651 0 68.3674 11.4821 785 86.6586 871.582 479.373
1652 0 74.3215 11.235 835 86.5808 871.534 479.672
1653 0 74.349 9.71096 722 89.3532 871.134 478.927
1654 0 81.4623 12.2633 999 86.0881 871.15 477.712
1655 0 83.5038 13.7479 1148 86.7483 870.71 473.014
1656 0 84.3175 11.8362 998 89.7916 870.917 472.325
1657 0 85.4093 9.72961 831 91.2058 870.111 467.587
1658 0 88.346 11.3191 1000 87.79 869.694 471.262
1659 1 48.0287 10.9101 524 83.624 871.628 490.351
1660 0 49.1286 9.13928 449 85.8976 870.938 488.973
1661 0 45.0526 9.47781 427 85.2998 869.073 482.112
1662 0 46.1339 8.99555 415 84.612 870.227 485.465
1663 0 50.0784 9.90447 496 82.375 871.341 485.046
1664 0 51.1487 6.58864 337 85.908 870.938 483.92
1665 0 53.3376 10.5929 565 82.4673 871.087 482.296
1666 0 53.3939 6.46142 345 87.1884 870.948 480.177
1667 0 58.2816 11.2729 657 82.4094 871.312 479.381
1668 1 120.677 12.2642 1480 95.9676 869.808 446.131
1669 0 119.582 10.336 1236 99.5332 870.073 446.153
1670 0 123.602 12.0872 1494 99.1546 869.301 442.297
1671 1 65.1114 10.9965 716 86.1145 870.268 475.338
1672 0 65.3857 11.608 759 86.1686 869.632 471.758
1673 0 67.3744 9.55853 644 89.646 870.124 473.635
1674 0 70.4681 11.7642 829 86.6273 870.493 473.967
1675 0 75.6323 12.9178 977 84.2856 869.92 471.724
1676 0 74.6497 9.93975 742 88.9057 870.081 468.264
1677 0 80.4325 9.9338 799 89.9036 870.429 469.901
1678 0 80.3717 8.93349 718 91.5543 870.73 471.173
1679 0 87.6725 9.87767 866 90.9919 870.358 469.057
1680 0 92.4735 12.4036 1147 91.0488 870.726 468.67
1681 0 91.3325 7.85043 717 95.9874 870.762 476.296
1682 0 92.4493 8.78319 812 92.7808 871.676 478.812
1683 0 100.321 9.60916 964 95.3786 871.559 468.746
1684 1 56.0473 10.9015 611 92.3535 872.247 488.224
1685 0 56.2768 13.4869 759 87.1752 871.959 488.751
1686 0 56.1414 12.4329 698 89.1218 871.615 488.274
1687 0 57.2751 12.117 694 90.5504 871.305 485.984
1688 0 60.2422 12.7983 771 90.8729 871.636 484.148
1689 0 62.0932 12.0464 748 92.2487 871.158 486.691
1690 0 64.1066 13.9611 895 89.0626 871.631 484.693
1691 0 61.1623 11.8046 722 95.1759 872.244 485.827
1692 0 66.097 12.7842 845 92.4036 872.091 485.232
1693 0 70.3027 13.3281 937 91.6403 871.915 481.036
1694 0 71.1222 13.5823 966 92.176 871.617 481.949
1695 0 74.0774 14.9168 1105 91.1348 871.025 479.806
1696 0 75.0854 13.2915 998 94.5411 871.722 479.669
1697 0 79.1516 14.4785 1146 92.425 871.044 476.832
1698 0 80.0967 13.9831 1120 94.5429 871.479 475.047
1699 0 79.1663 11.0022 871 99.5752 871.984 475.39
1700 0 84.1976 12.4944 1052 97.6017 872.245 476.811
1701 0 83.2375 10.8485 903 101.041 871.777 475.898
1702 0 93.2089 14.0652 1311 95.8589 871.201 471.975