time division length width area intensity CMx CMy
0 0 35.0135 12.9093 452 135.586 802.254 487.765
1 0 35.0608 12.1503 426 132.239 805.54 487.016
2 0 35.0067 12.1976 427 132.534 804.906 487.752
3 0 36.0927 12.0523 435 134.255 804.92 486.832
4 0 38.0368 12.7508 485 131.909 805.548 486.01
5 0 40.054 12.0337 482 133.357 805.724 485.967
6 0 41.0998 12.0682 496 135.371 804.663 485.341
7 0 42.0581 13.7667 579 132.42 804.753 483.658
8 0 42.0882 12.0699 508 137.138 804.939 485.398
9 0 44.0644 13.0264 574 133.728 805.261 484.376
10 0 46.1186 13.0967 604 133.056 805.291 482.776
11 0 47.0454 12.3923 583 135.559 805.331 483.123
12 0 49.1555 14.4439 710 127.772 804.861 481.277
13 0 48.0813 13.082 629 132.383 804.418 481.933
14 0 51.0496 14.5153 741 126.109 803.866 481.262
15 0 53.1142 13.4804 716 128.659 804.5 482.024
16 0 52.0263 11.8978 619 134.126 804.255 482.386
17 0 54.0792 11.816 639 132.687 804.207 482.872
18 0 55.0493 12.3344 679 131.43 803.782 481.517
19 0 59.0834 13.2863 785 126.106 804.344 481.059
20 0 59.0867 12.2532 724 129.155 804.04 480.333
21 1 33.0527 11.3153 374 132.211 804.195 492.61
22 0 34.1267 11.7796 402 130.861 803.557 492.532
23 0 33.1008 11.1478 369 134.238 803.957 492.653
24 0 34.105 11.5819 395 132.433 804.205 490.924
25 0 38.076 13.1054 499 124.126 803.567 491.397
26 0 35.0657 11.6353 408 126.218 804.044 492.348
27 0 38.1211 13.1686 502 120.653 803.227 492.765
28 0 38.033 11.8318 450 127.367 803.898 490.758
29 0 39.0898 11.4864 449 129.036 803.875 491.1
30 0 43.0819 13.277 572 122.715 803.379 490.589
31 0 43.0578 12.4716 537 127.123 803.264 489.136
32 0 45.099 13.1045 591 125.046 803.179 488.386
33 0 48.0845 13.6219 655 122.827 802.948 487.359
34 0 46.1755 12.6907 586 128.097 802.838 487.761
35 0 48.1078 13.5945 654 124.456 802.384 487.911
36 0 50.0783 12.8798 645 126.42 802.722 486.138
37 0 50.0976 13.7132 687 125.204 802.045 484.281
38 0 52.0366 14.0286 730 123.741 802.007 483.71
39 0 54.0187 13.3102 719 126.008 801.441 482.665
40 0 56.0366 13.634 764 124.63 801.543 483.075
41 0 57.0153 12.9264 737 126.513 801.866 483.463
42 0 60.056 14.0036 841 123.496 802.059 481.622
43 0 61.024 14.0273 856 124.366 801.824 478.956
44 0 62.0505 13.7308 852 125.547 801.681 479.867
45 0 64.0598 13.6591 875 125.738 801.671 478.942
46 0 66.0511 13.5653 896 123.758 801.028 479.047
47 0 69.0309 13.226 913 126.153 800.963 478.249
48 0 71.0764 13.788 980 126.211 801.401 476.408
49 0 73.036 14.3217 1046 126.275 801.132 473.818
50 0 76.0257 14.3504 1091 125.77 801.182 473.555
51 0 80.0543 14.4277 1155 125.787 801.197 473.326
52 0 82.1134 12.9212 1061 129.484 800.906 473.373
53 1 42.0877 13.1155 552 123.511 801.221 491.951
54 0 41.0434 11.9386 490 128.271 800.739 491.884
55 0 43.2285 12.6768 548 127.022 800.783 489.5
56 0 47.0712 14.2975 673 120.847 800.719 490.508
57 0 47.1143 12.6713 597 127.462 800.57 488.637
58 0 49.0261 13.8906 681 124.069 800.633 489.211
59 0 52.0399 15.2768 795 120.353 800.278 488.691
60 0 53.0316 14.2368 755 122.448 800.462 488.808
61 0 54.0436 13.0265 704 126.943 800.295 487.233
62 0 58.0583 13.9515 810 123.975 800.827 485.94
63 0 59.0716 13.9153 822 126.68 800.685 483.344
64 0 59.133 14.1715 838 129.51 800.218 474.996
65 0 61.1589 13.1951 807 132.17 799.751 476.216
66 0 65.2393 13.6881 893 128.913 800.586 481.738
67 0 65.0949 14.3329 933 129.451 800.982 480.181
68 0 68.0632 14.1633 964 130.507 800.391 480.247
69 0 71.09 14.0104 996 133.446 799.634 478.651
70 0 74.0585 15.3257 1135 129.189 799.533 478.98
71 0 76.0829 13.8533 1054 134.922 799.261 477.218
72 0 78.1134 14.4021 1125 134.737 799.476 473.996
73 0 81.0373 14.0306 1137 135.631 798.898 474.481
74 0 85.1085 14.2171 1210 132.116 799.069 472.344
75 0 86.0879 13.6953 1179 133.644 799.855 472.468
76 0 90.0959 14.6178 1317 130.968 799.093 470.087
77 1 47.0306 12.056 567 128.436 799.303 493.049
78 0 48.1815 12.2454 590 128.602 799.251 491.186
79 0 52.0549 12.7942 666 125.407 800.137 490.796
80 0 53.1807 12.8618 684 127.099 800.016 490.463
81 0 55.1493 12.9829 716 125.506 799.651 490.128
82 0 56.0384 13.5086 757 122.919 799.276 487.806
83 0 58.1329 12.609 733 124.512 799.581 486.643
84 0 61.1788 13.812 845 123.02 799.951 483.863
85 0 62.1442 12.7606 793 121.276 800.184 485.913
86 0 64.1961 13.7392 882 116.861 800.257 484.651
87 0 66.2688 13.5056 895 117.75 800.418 484.999
88 0 68.313 13.8334 945 116.881 800.452 482.42
89 0 72.4709 14.0056 1015 114.962 799.683 481.606
90 0 73.4917 13.4165 986 119.696 799.922 478.154
91 0 74.4206 14.2299 1059 118.881 800.095 478.204
92 0 77.4831 13.0351 1010 121.887 799.766 477.138
93 0 81.5046 14.355 1170 118.091 799.829 475.129
94 0 83.6282 13.6916 1145 123.615 799.409 472.478
95 0 85.3986 13.5717 1159 124.532 799.784 469.444
96 0 89.489 14.6945 1315 120.735 800.123 470.873
97 0 92.6507 13.6858 1268 123.729 799.931 467.585
98 0 95.4251 13.9796 1334 123.094 799.728 466.048
99 0 99.4619 14.9706 1489 120.197 799.993 464.388
100 0 102.475 13.9643 1431 123.538 799.739 463.811
101 1 54.3424 12.1452 660 118.068 800.559 487.195
102 0 58.3364 12.3936 723 117.263 800.297 487.436
103 0 60.1339 12.8713 774 115.034 799.646 487.057
104 0 61.3529 13.3164 817 119.157 799.765 486.955
105 0 64.1154 14.2711 915 117.596 799.75 485.054
106 0 66.2231 13.7112 908 119.132 800.163 484.428
107 0 66.1595 14.1779 938 118.486 799.882 484.007
108 0 70.1916 14.2182 998 118.65 800.234 482.191
109 0 70.2095 11.836 831 125.404 799.302 481.975
110 0 73.1819 13.4049 981 123.675 799.042 480.804
111 0 75.2099 12.8839 969 124.369 799.007 478.998
112 0 78.1128 12.6612 989 126.158 798.429 477.877
113 0 83.1895 13.8239 1150 121.94 798.619 475.246
114 0 84.2315 13.0949 1103 123.337 799.22 473.733
115 0 86.1539 13.5803 1170 122.82 798.714 473.882
116 0 89.1766 13.5461 1208 122.662 798.948 472.313
117 0 93.1571 13.5577 1263 122.07 798.8 472.044
118 0 96.154 13.8112 1328 121.925 799.714 468.601
119 0 100.169 13.4573 1348 121.924 798.746 466.149
120 1 49.0491 11.0909 544 117.211 797.814 490.575
121 0 50.1119 11.7537 589 116.547 797.197 487.11
122 0 53.0914 12.3937 658 115.093 797.588 485.122
123 0 53.1278 12.5923 669 116.903 797.958 489.587
124 0 55.1698 12.9419 714 116.647 798.789 488.347
125 0 57.1356 12.5841 719 117.875 798.53 487.871
126 0 57.1766 12.2253 699 120.348 798.01 486.597
127 0 60.2196 12.4046 747 118.995 798.618 487.878
128 0 62.1768 13.2525 824 118.86 798.352 484.9
129 0 64.1057 13.8365 887 119.258 799.033 484.435
130 0 66.0902 13.4362 888 120.248 798.544 485
131 0 66.1746 12.195 807 126.284 798.798 483.164
132 0 70.0917 12.8546 901 125.156 798.839 482.415
133 0 71.2506 13.6139 970 125.389 798.741 480.138
134 0 75.1172 13.8317 1039 124.686 799.104 479.239
135 0 76.2082 13.4369 1024 126.646 798.984 478.848
136 0 78.1447 13.9613 1091 127.945 799.002 476.258
137 0 80.246 13.1471 1055 128.897 798.298 476.819
138 0 85.2053 13.3912 1141 130.737 799.188 473.601
139 0 87.2567 13.6035 1187 131.164 799.723 474.233
140 0 90.4331 13.9108 1258 128.324 799.812 472.184
141 0 90.4331 13.8666 1254 141.076 800.845 472.348
142 0 97.3557 13.3839 1303 131.24 799.584 469.273
143 1 51.2681 12.2688 629 126.609 800.798 489.638
144 0 51.4514 11.6032 597 131.702 801.417 488.171
145 0 53.3296 12.5446 669 131.909 800.561 486.389
146 0 55.0918 13.1417 724 128.873 800.829 487.307
147 0 56.0875 12.7479 715 131.203 799.985 486.601
148 0 58.1431 14.3267 833 125.718 799.866 486.124
149 0 61.1468 13.1323 803 128.141 799.593 484.012
150 0 61.2388 12.5411 768 127.421 799.046 484.75
151 0 61.2246 12.1846 746 129.578 799.18 483.686
152 0 65.2236 13.1548 858 127.298 799.646 483.274
153 0 65.1801 12.4578 812 130.789 799.57 481.324
154 0 69.3166 13.8784 962 125.726 799.854 478.379
155 0 71.2122 12.0204 856 129.812 799.243 478.829
156 0 72.2123 12.0478 870 130.348 798.605 476.236
157 0 76.1222 13.058 994 127.343 798.779 476.016
158 0 77.2423 13.1664 1017 129.007 799.251 472.031
159 0 81.2919 13.9128 1131 125.005 799.353 472.676
160 0 85.4274 13.2861 1135 126.227 798.737 471.257
161 0 85.3571 13.3088 1136 126.702 798.169 466.643
162 0 91.385 13.9738 1277 123.563 798.522 462.966
163 1 47.2932 11.7353 555 123.438 798.885 483.553
164 0 47.3815 12.0511 571 122.708 799.046 481.883
165 0 49.0831 11.4296 561 123.936 798.533 489.439
166 0 52.1026 13.0704 681 117.698 798.264 488.919
167 0 52.0768 12.2703 639 120.49 798.39 487.363
168 0 54.0997 12.403 671 118.617 799.069 488.982
169 0 54.08 11.5385 624 120.26 799 487.213
170 0 58.1556 11.8647 690 117.658 799.297 486.378
171 0 58.1377 10.5783 615 121.138 799.407 484.857
172 0 62.2889 11.6875 728 117.192 798.6 482.655
173 0 63.3537 13.1326 832 113.171 798.678 480.934
174 0 67.1986 11.6818 785 114.95 799.001 481.094
175 0 69.0844 12.9407 894 112.192 798.784 478.008
176 0 73.29 12.4301 911 111.622 798.886 479.002
177 0 76.1445 12.4369 947 118.01 799.343 476.703
178 0 78.2685 12.7382 997 116.582 799.135 475.79
179 0 81.2654 12.8468 1044 116.69 799.263 472.939
180 0 84.3758 13.7006 1156 114.313 798.808 472.785
181 0 86.2781 11.915 1028 120.051 799.826 470.654
182 0 89.3797 12.9224 1155 117.07 800.029 471.042
183 0 92.3297 12.7261 1175 118.905 799.158 466.345
184 0 95.3457 11.3796 1085 121.521 799.496 464.816
185 0 95.3857 11.3539 1083 121.273 799.351 464.105
186 1 44.1344 9.58435 423 114.513 799.693 489.31
187 0 51.1636 10.5153 538 110 799.721 491.184
188 0 52.2007 9.69335 506 112.032 798.561 489.862
189 0 56.2068 11.262 633 108.67 798.553 489.561
190 0 57.1096 12.8525 734 106.514 798.398 485.928
191 0 58.1803 11.3784 662 121.228 797.761 485.683
192 0 59.1822 11.9293 706 119.492 798.225 484.895
193 0 62.3137 12.4531 776 118.006 798.557 483.487
194 0 67.148 11.1694 750 119.464 798.3 484.705
195 0 67.3432 13.1565 886 115.927 798.518 482.494
196 0 68.1993 11.877 810 116.912 798.748 480.507
197 0 72.1961 12.5076 903 112.208 799.001 480.04
198 0 73.1948 12.214 894 112.447 799.185 480.518
199 0 75.249 13.1563 990 114.389 799.625 476.23
200 0 77.2585 13.6684 1056 114.463 799.7 475.834
201 0 78.5485 13.202 1037 117.02 799.778 472.293
202 0 81.7185 12.5798 1028 120.327 799.69 470.256
203 0 83.4893 12.3369 1030 120.983 799.617 469.384
204 0 86.5573 12.8008 1108 120.607 799.292 467.863
205 0 89.6352 13.4434 1205 119.843 799.461 465.026
206 0 91.4717 11.9381 1092 123.42 799.579 465.124
207 0 96.6209 13.0303 1259 120.535 799.594 463.925
208 0 98.7557 13.1334 1297 119.192 799.319 462.912
209 0 101.583 13.8212 1404 117.535 798.749 460.499
210 0 102.646 12.9182 1326 119.848 799.522 461.656
211 0 105.652 13.5824 1435 118.164 799.16 458.003
212 0 106.517 12.721 1355 121.379 799.311 456.218
213 0 111.788 14.0444 1570 115.884 798.783 455.267
214 0 114.586 13.3699 1532 117.433 798.874 455.262
215 0 120.542 14.4929 1747 114.472 799.654 453.725
216 0 122.494 13.8048 1691 117.972 798.986 449.735
217 0 125.669 12.899 1621 120.742 798.783 448.338
218 0 131.51 13.4439 1768 118.157 798.987 448.34
219 0 133.642 13.8729 1854 118.256 800.004 443.468
220 0 138.596 14.517 2012 118.416 800.055 438.463
221 0 144.663 14.2953 2068 118.256 799.168 438.908
222 0 148.687 13.8008 2052 121.19 799.422 438.025
223 0 152.474 13.0711 1993 123.996 799.19 434.803
224 0 158.729 14.3704 2281 120.93 799.16 434.381
225 0 162.618 13.7746 2240 123.612 799.283 428.098
226 0 166.602 13.4752 2245 124.498 798.902 425.573
227 1 177.709 12.1153 2153 127.416 798.601 428.069
228 0 177.699 13.5567 2409 126.311 798.79 422.901
229 0 183.74 13.3123 2446 128.09 798.52 420.617
230 0 190.562 14.2158 2709 127.203 798.715 417.234
231 0 197.7 13.5407 2677 127.743 798.897 413.732
232 0 203.727 13.8273 2817 127.685 799.053 411.624
233 0 209.525 13.9076 2914 126.529 798.73 409.996
234 0 217.688 12.9819 2826 132.501 798.315 404.337
235 0 226.745 14.3377 3251 130.892 799.401 402.5
236 1 160.427 12.7347 2043 134.774 799.579 432.673
237 0 167.545 14.1574 2372 129.459 799.215 429.1
238 0 170.528 12.2502 2089 135.068 799.494 426.832
239 0 176.588 14.0553 2482 130.676 800.041 423.327
240 0 184.619 13.5739 2506 132.581 799.366 420.527
241 0 191.595 13.8469 2653 130.27 799.596 418.388
242 0 197.478 14.6498 2893 126.861 798.96 416.739
243 0 204.565 14.9097 3050 127.367 799.201 409.704
244 0 208.513 13.6922 2855 131.161 798.853 407.84
245 0 215.463 14.0395 3025 129.784 798.996 407.169
246 0 223.451 13.6137 3042 131.749 798.603 400.41
247 0 231.571 14.2332 3296 129.958 798.403 397.897
248 0 237.444 14.3444 3406 130.119 799.433 395.185
249 0 245.366 14.028 3442 130.54 798.832 389.089
250 0 254.307 13.7118 3487 130.498 798.702 385.982
251 0 261.337 13.4118 3505 132.835 798.021 380.631
252 0 271.732 13.8519 3764 130.467 797.925 373.302
253 0 280.678 14.6859 4122 130.244 798.309 371.07
254 0 288.578 13.9616 4029 133.224 797.91 365.822
255 0 289.621 11.9259 3454 138.447 798.221 367.387
256 0 289.523 10.5795 3063 137.401 798.881 381.67
257 1 238.207 13.1315 3128 132.278 798.557 394.966
258 0 244.363 13.3285 3257 131.748 798.843 388.131
259 0 254.396 14.2573 3627 127.981 798.966 385.771
260 0 260.344 13.9892 3642 127.961 799.077 380.476
261 1 74.0707 11.246 833 105.49 800.199 478.432
262 0 75.0486 11.7257 880 105.04 798.167 475.492
263 0 76.1007 11.695 890 106.04 799.567 476.074
264 0 79.1081 10.6942 846 107.628 799.797 475.855
265 0 81.0605 10.9548 888 106.761 799.759 474.718
266 0 85.1034 12.9137 1099 100.995 799.648 473.409
267 0 87.1656 12.5967 1098 101.545 799.572 469.931
268 0 89.1074 11.7948 1051 105.453 799.275 470.991
269 0 90.1423 11.4042 1028 105.657 800.125 470.445
270 0 93.1508 11.6156 1082 105.063 799.881 467.363
271 0 97.1992 11.2861 1097 105.778 799.531 466.211
272 0 101.169 12.3061 1245 102.518 799.765 467.857
273 0 104.183 12.6316 1316 102.403 800.079 462.732
274 0 97.1217 9.76095 948 107.454 800.074 463.688
275 0 112.391 15.6863 1763 93.9569 799.233 457.965
276 0 114.36 15.4075 1762 95.4932 799.197 457.934
277 0 119.345 15.761 1881 100.508 799.774 454.46
278 0 122.377 15.8282 1937 99.9902 799.568 453.226
279 0 126.4 16.2658 2056 99.3745 800.089 451.425
280 0 131.481 16.5879 2181 98.7428 799.561 448.059
281 0 132.391 15.4694 2048 103.718 799.948 447.82
282 0 137.476 17.1957 2364 99.1113 799.635 442.886
283 1 74.1654 10.7867 800 105.732 799.49 479.355
284 0 77.241 11.9108 920 103.746 799.492 474.56
285 0 80.151 12.6137 1011 100.637 800.026 475.122
286 0 81.1065 14.0309 1138 96.2039 799.276 475.356
287 0 81.1678 12.9608 1052 98.8774 799.166 475.194
288 0 81.2655 11.4932 934 102.874 799.274 474.422
289 0 84.1164 13.2911 1118 100.186 798.931 471.615
290 0 87.3161 11.7161 1023 102.941 798.939 472.644
291 0 91.1488 12.8691 1173 100.515 799.731 472.563
292 0 93.1835 12.0944 1127 101.027 799.513 471.69
293 0 97.1116 12.9027 1253 99.8516 799.765 469.077
294 0 100.194 12.7952 1282 101.535 800.076 468.066
295 0 104.143 13.9999 1458 98.4897 800.178 465.512
296 0 107.248 14.3779 1542 98.3145 799.308 463.924
297 0 108.228 12.7879 1384 102.852 799.851 464.616
298 0 112.231 13.8197 1551 102.624 799.841 460.082
299 0 116.398 14.4848 1686 101.532 799.055 457.868
300 1 63.0881 12.3003 776 101.942 798.669 485.137
301 0 66.3121 12.2904 815 98.7313 798.114 482.277
302 0 69.2226 12.7415 882 97.7336 797.502 479.998
303 0 69.2183 12.5256 867 99.6275 797.8 479.612
304 0 70.1262 13.1762 924 98.1418 797.494 482.44
305 0 71.0379 10.783 766 104.069 797.961 480.752
306 0 76.1185 13.387 1019 98.8037 798.75 478.159
307 0 75.1436 12.017 903 103.053 798.2 475.001
308 0 81.0911 12.6524 1026 101.026 797.898 475.307
309 0 82.0934 13.2532 1088 100.465 798.268 474.14
310 0 84.0379 13.4701 1132 101.948 798.064 471.048
311 0 85.0742 11.5664 984 105.264 797.264 472.185
312 0 89.1778 12.705 1133 102.687 797.777 471.709
313 0 92.1059 12.2142 1125 105.055 798.246 467.021
314 0 95.1013 12.3342 1173 104.412 797.736 467.814
315 0 98.2262 13.5605 1332 103.061 797.773 464.626
316 0 100.109 13.755 1377 104.684 797.539 463.104
317 0 104.12 12.7449 1327 106.485 797.804 462.987
318 0 107.316 13.9401 1496 107.509 798.146 458.441
319 0 111.12 12.662 1407 108.481 798.429 458.824
320 0 114.12 14.7214 1680 103.905 798.3 457.279
321 0 117.148 12.8555 1506 109.665 798.487 455.487
322 0 120.165 12.6743 1523 107.88 798.393 455.844
323 0 125.237 13.9017 1741 104.617 798.172 453.003
324 1 73.1376 11.1297 814 101.623 797.469 480.862
325 0 74.1799 12.6989 942 100.261 798.012 478.272
326 0 77.1229 13.3942 1033 99.06 798.129 475.833
327 0 78.1288 12.1338 948 102.453 798.271 475.654
328 0 80.0494 11.3055 905 103.802 798.58 475.57
329 0 84.127 11.6134 977 104.2 798.622 472.041
330 0 87.0714 12.082 1052 103.599 798.172 471.987
331 0 92.0933 14.0835 1297 98.8188 798.756 471.355
332 0 93.1315 12.0582 1123 103.611 799.158 468.371
333 0 95.0785 12.3477 1174 103.825 798.954 465.757
334 0 99.1856 12.8345 1273 102.91 798.86 465.364
335 0 101.169 11.9108 1205 106.261 798.631 462.028
336 0 106.149 11.6534 1237 106.144 798.258 462.756
337 0 110.31 13.2354 1460 103.608 798.598 460.97
338 0 113.273 14.6018 1654 101.1 798.41 459.036
339 0 116.197 12.3325 1433 106.26 798.087 455.901
340 0 119.161 14.0734 1677 103.994 798.154 453.735
341 0 124.144 13.6857 1699 105.018 798.584 452.064
342 0 130.25 13.7275 1788 108.804 798.537 451.525
343 0 131.217 12.9099 1694 111.907 798.887 447.958
344 0 139.243 13.7601 1916 111.064 799.171 448.241
345 0 143.17 14.9193 2136 109.505 799.006 444.821
346 0 148.309 13.4382 1993 108.913 799.292 442.613
347 0 152.372 12.7123 1937 110.787 799.087 437.967
348 1 82.4458 11.8017 973 103.595 799.583 474.992
349 0 83.4639 13.2153 1103 103.833 800.005 469.07
350 0 85.0481 11.4641 975 106.185 798.562 470.682
351 0 87.0849 12.9644 1129 104.215 799.408 469.54
352 0 88.1515 11.6391 1026 107.867 800.198 470.388
353 0 92.1419 12.1335 1118 107.941 799.524 469.737
354 0 96.2853 13.2419 1275 106.489 799.443 467.136
355 0 99.2137 12.2765 1218 109.557 799.58 466.495
356 0 103.14 12.5751 1297 112.319 798.81 464.959
357 0 105.133 12.5555 1320 112.249 798.786 461.764
358 0 109.295 13.2943 1453 108.991 799.068 462.325
359 0 112.15 12.8756 1444 109.166 799.392 460.845
360 0 114.185 11.2011 1279 112.921 798.751 459.486
361 0 119.151 12.9584 1544 109.283 799.519 456.582
362 0 122.428 11.6069 1421 113.329 798.809 448.384
363 0 128.213 13.0954 1679 110.294 798.864 445.235
364 0 131.283 12.6064 1655 112.285 798.807 443.243
365 0 138.37 13.8108 1911 109.219 798.843 439.646
366 0 142.317 13.0132 1852 111.644 799.221 438.96
367 0 148.266 11.8234 1753 113.471 798.706 441.047
368 1 77.0714 11.7683 907 105.845 798.633 472.269
369 0 82.1748 11.4877 944 102.332 799.69 473.796
370 0 84.1829 11.8551 998 103.164 799.621 475.613
371 0 85.2222 12.3559 1053 104.18 799.397 472.701
372 0 87.1361 10.65 928 108.762 799.469 470.778
373 0 93.1749 12.3424 1150 104.865 799.883 471.322
374 0 96.1714 12.4361 1196 113.676 799.7 466.318
375 0 97.1915 11.7294 1140 116.552 799.07 463.289
376 0 100.124 10.7667 1078 118.435 798.835 464.376
377 0 106.105 11.7714 1249 116.592 798.207 460.978
378 0 108.096 13.192 1426 114.048 798.616 459.485
379 0 112.134 12.3691 1387 115.164 799.097 459.516
380 0 114.207 12.3022 1405 116.574 798.69 458.084
381 0 120.102 14.1629 1701 111.753 798.413 455.011
382 0 122.226 12.7469 1558 117.06 798.576 452.107
383 0 126.116 13.107 1653 113.397 798.703 453.114
384 0 130.067 12.7703 1661 114.789 799.448 450.49
385 0 135.187 12.5382 1695 117.437 799.258 445.717
386 0 138.186 12.8378 1774 116.585 799.401 443.806
387 0 142.161 12.8798 1831 115.93 799.601 441.926
388 0 147.322 12.2453 1804 113.839 799.716 436.875
389 0 150.253 12.1129 1820 117.018 799.063 435.716
390 1 77.2486 9.39823 726 108.076 800.468 475.225
391 0 81.2576 12.1712 989 102.171 799.93 475.294
392 0 83.0874 11.4698 953 100.778 799.59 474.7
393 0 84.1245 10.2229 860 104.92 798.714 471.805
394 0 85.073 10.732 913 103.446 798.547 469.097
395 0 90.1163 10.8859 981 103.47 798.708 469.452
396 0 93.1127 11.8888 1107 101.735 798.573 468.226
397 0 95.1032 10.8409 1031 102.412 798.664 468.963
398 0 99.0998 11.7861 1168 101.52 798.908 466.503
399 0 101.135 11.8159 1195 102.002 798.476 465.285
400 0 104.123 10.7661 1121 104.642 799.094 462.156
401 0 108.089 11.6756 1262 88.6624 798.693 457.971
402 0 110.099 11.4261 1258 103.812 798.965 457.697
403 0 114.15 11.7915 1346 104.117 799.27 455.795
404 0 119.195 11.9971 1430 103.677 800.294 455.191
405 0 124.321 12.4115 1543 101.896 799.977 450.483
406 0 130.303 11.4348 1490 104.309 800.498 447.177
407 0 133.316 11.2665 1502 105.488 801.061 444.764
408 0 137.27 11.1095 1525 105.166 801.169 443.622
409 0 143.263 12.5713 1801 102.787 800.902 442.321
410 0 148.239 12.5001 1853 103.029 800.53 440.757
411 0 153.208 13.0802 2004 102.215 800.997 439.74
412 0 157.301 11.6974 1840 105.468 800.98 437.964
413 0 162.267 12.4979 2028 103.824 800.811 439.229
414 0 168.38 12.7509 2147 104.898 800.231 430.103
415 0 173.253 12.5423 2173 105.449 800.393 427.431
416 0 177.421 12.3661 2194 105.738 800.17 425.826
417 0 181.353 11.2157 2034 108.119 800.219 423.799
418 0 189.407 12.159 2303 107.344 800.186 418.599
419 0 197.305 13.1776 2600 106.099 800.299 417.255
420 0 203.224 12.9513 2632 107.587 799.969 412.666
421 0 209.223 13.6505 2856 107.139 799.961 405.197
422 0 219.41 14.4114 3162 105.327 800.061 400.405
423 1 151.308 12.9736 1963 102.143 800.653 438.974
424 0 155.199 12.2553 1902 102.119 800.116 432.174
425 0 162.286 12.4472 2020 107.502 800.464 431.318
426 0 166.282 11.27 1874 107.818 799.531 425.553
427 0 175.216 11.8539 2077 103.01 799.972 428.576
428 0 180.125 12.6801 2284 100.968 799.514 422.675
429 0 184.256 11.9833 2208 103.197 800.278 419.072
430 0 191.59 10.7417 2058 106.057 800.073 413.127
431 0 198.402 12.4092 2462 102.33 799.686 411.625
432 0 203.22 11.8492 2408 102.568 799.951 410.294
433 0 210.408 12.029 2531 102.278 798.995 408.879
434 0 211.353 10.3145 2180 107.956 798.611 397.147
435 0 223.357 13.1359 2934 101.942 799.368 401.873
436 0 228.439 12.0032 2742 104.22 799.109 390.868
437 0 234.451 12.2499 2872 105.457 798.639 385.094
438 0 244.466 12.2716 3000 105.865 798.819 382.129
439 0 249.448 12.1107 3021 106.702 798.619 376.148
440 0 258.609 12.3043 3182 106.844 799.108 372.599
441 0 269.512 12.7082 3425 106.938 799.227 365.541
442 0 276.51 13.2509 3664 106.166 799.104 363.223
443 0 277.713 9.03451 2509 110.94 799.203 379.218
444 1 228.426 11.4391 2613 106.719 798.906 392.1
445 0 236.514 10.938 2587 108.833 799.392 381.06
446 0 244.501 12.9816 3174 105.236 800.05 380.228
447 0 251.773 12.1538 3060 107.76 799.661 372.489
448 0 261.615 13.2103 3456 105.732 799.543 370.329
449 0 271.611 12.8198 3482 106.929 799.476 362.669
450 0 279.563 12.7163 3555 107.314 799.112 362.517
451 0 287.605 11.4949 3306 110.66 798.703 360.625
452 1 66.014 11.2097 740 90.7689 797.4 480.761
453 0 70.0615 10.9047 764 93.0445 796.713 479.512
454 0 73.0742 12.5626 918 89.8214 797.481 478.502
455 0 75.1196 11.2887 848 93.171 798.034 478.768
456 0 74.1357 10.9259 810 95.3469 798.362 476.181
457 0 79.1521 11.56 915 93.776 798.126 478.622
458 0 80.0914 11.9988 961 89.5578 797.708 475.751
459 0 79.2027 8.66132 686 90.3863 798.327 481.252
460 0 80.0803 9.70276 777 90.5264 799.207 478.378
461 0 82.1214 10.2044 838 91.1169 798.334 476.253
462 0 86.0585 9.77242 841 91.4257 799.328 473.615
463 0 87.135 9.02048 786 93.6056 799.135 472.246
464 0 94.135 11.8022 1111 91.3429 797.809 470.236
465 0 99.1166 12.8435 1273 89.6968 798.357 467.756
466 0 98.0702 12.2055 1197 92.1771 799.993 466.77
467 0 102.093 10.461 1068 94.279 798.199 470.629
468 0 106.162 10.7572 1142 97.1629 797.468 463.419
469 0 109.077 11.2765 1230 96.5163 797.94 463.166
470 0 111.262 11.6482 1296 97.0525 797.988 462.986
471 1 61.0778 10.4293 637 97.5416 797.827 486.278
472 0 63.5594 9.83332 625 100.614 798.669 480.642
473 0 64.2157 12.1154 778 97.3612 797.799 483.319
474 0 64.1454 11.1621 716 95.5992 797.415 484.922
475 0 66.0994 11.3163 748 94.2072 797.5 486.682
476 0 66.0994 10.3027 681 97.5316 798.253 486.887
477 0 68.122 10.995 749 96.6449 798.481 484.806
478 0 71.1947 12.0515 858 95.5688 798.506 483.365
479 0 74.1845 13.2777 985 94.3685 798.574 481.971
480 0 75.311 11.1272 838 99.3067 798.064 479.94
481 0 78.2907 12.3003 963 97.9595 798.761 478.457
482 0 79.2901 11.9813 950 99.2947 798.508 477.273
483 0 81.268 12.1081 984 99.3567 798.251 478.051
484 0 83.1379 11.535 959 101.208 798.925 478.104
485 0 86.1824 12.9609 1117 99.1047 799.384 475.85
486 0 89.2717 12.2995 1098 100.503 799.575 476.842
487 0 92.3021 13.12 1211 100.7 799.784 472.725
488 0 95.1412 12.7705 1215 101.473 799.988 470.781
489 0 98.414 11.8987 1171 103.164 798.81 471.336
490 0 102.359 12.9153 1322 102.355 799.591 466.86
491 1 59.283 12.0439 714 105.046 799.038 488.02
492 0 59.4354 9.74167 579 102.435 800.207 486.551
493 0 60.4711 11.8734 718 99.9513 799.333 482.422
494 0 62.2266 12.0045 747 106.327 800.054 486.605
495 0 66.2578 12.8438 851 104.254 800.214 484.626
496 0 67.2091 11.2931 759 109.481 799.603 482.603
497 0 68.2295 12.1648 830 108.443 799.643 482.473
498 0 70.3034 11.5642 813 108.883 800.064 483.544
499 0 75.2566 13.4606 1013 105.04 800.137 481.853
500 0 76.2666 12.1941 930 111.045 800.808 480.583
501 0 77.3112 11.4602 886 113.05 800.8 481.103
502 0 79.228 12.6723 1004 112.134 799.906 477.898
503 0 83.2621 12.5147 1042 113.085 799.883 474.397
504 0 84.1573 11.8588 998 114.66 800.082 475.191
505 0 87.1985 13.4979 1177 111.861 800.048 473.059
506 0 91.2789 13.8696 1266 111.962 800.476 471.869
507 0 93.13 12.2195 1138 115.025 801.125 473.33
508 0 97.1808 11.813 1148 115.605 800.331 472.504
509 1 53.2193 11.8942 633 111.837 801.163 492.573
510 0 53.3369 12.3367 658 114.731 801.4 489.278
511 0 54.2975 11.3449 616 117.823 801.367 489.969
512 0 57.2765 12.815 734 114.621 800.907 489.516
513 0 57.3638 12.0459 691 118.946 800.256 488.453
514 0 59.255 12.5053 741 118.806 799.928 487.225
515 0 61.4064 12.0671 741 119.59 800.428 487.173
516 0 64.3265 12.8874 829 117.598 800.392 486.415
517 0 65.3302 12.4598 814 119.778 800.074 485.091
518 0 65.2393 12.799 835 120.535 800.043 484.109
519 0 68.4184 12.9205 884 119.637 800.196 483.541
520 0 68.2758 11.6879 798 123.584 800.064 483.34
521 0 71.2545 12.0975 862 122.86 801.142 481.726
522 0 74.2079 12.2628 910 120.216 799.989 480.843
523 0 77.2204 12.5355 968 119.851 799.494 478.652
524 0 79.3305 12.2777 974 120.526 799.665 477.124
525 0 79.2232 11.84 938 123.029 800.166 472.199
526 0 83.2783 12.7284 1060 119.678 800.293 471.699
527 1 42.0974 10.0244 422 118.867 800.346 490.358
528 0 44.0593 12.2562 540 110.4 800.802 491.806
529 0 47.3423 11.2584 533 113.552 800.167 488.674
530 0 47.0652 12.3658 582 111.072 800.859 490.369
531 0 49.1148 10.6282 522 120.389 798.059 491.709
532 0 51.0203 11.662 595 118.055 797.766 491.911
533 0 54.0251 12.6608 684 115.368 797.898 490.923
534 0 56.1969 12.9545 728 113.295 798.488 491.81
535 0 57.0752 13.4034 765 113.724 798.014 489.465
536 0 59.0574 12.4117 733 115.164 799.438 489.91
537 0 60.1893 13.6735 823 113.665 798.885 487.254
538 0 60.1449 13.0518 785 115.302 798.917 487.55
539 0 62.2194 12.8738 801 116.668 799.161 485.94
540 0 61.218 11.6306 712 120.618 799.007 484.999
541 0 65.1535 12.1406 791 118.276 799.661 485.91
542 0 70.1684 13.8524 972 113.187 799.32 483.945
543 0 69.0913 13.7933 953 115.549 799.284 481.794
544 0 72.1635 13.6496 985 115.795 798.939 480.93
545 0 75.1053 14.1934 1066 114.476 799.527 480.451
546 0 75.1259 13.3509 1003 119.039 799.717 479.019
547 0 79.1198 14.0546 1112 116.906 799.326 478.19
548 0 81.1125 14.0422 1139 117.649 801.584 477.06
549 0 84.0529 14.3838 1209 116.823 801.117 475.203
550 0 86.0853 14.2185 1224 118.638 801.109 473.745
551 0 88.1951 13.6175 1201 121.159 800.699 472.769
552 0 93.1827 14.3911 1341 118.494 799.685 470.381
553 0 93.1447 13.1945 1229 119.022 799.206 473.408
554 0 97.3898 14.2725 1390 116.881 799.94 469.706
555 0 102.278 14.2748 1460 117.45 799.915 466.168
556 0 104.34 12.1334 1266 126.784 799.25 464.541
557 1 55.1917 12.1757 672 117.254 800.638 490.842
558 0 55.3207 11.9123 659 119.143 800.762 489.727
559 0 57.2712 12.4845 715 119.503 801.084 487.808
560 0 60.0472 12.6068 757 119.198 798.09 487.44
561 0 63.0273 12.1535 766 120.86 798.775 484.979
562 0 64.0902 12.2172 783 121.192 798.999 485.167
563 0 68.032 12.3324 839 119.664 799.023 484.734
564 0 71.0351 13.4441 955 117.068 798.88 482.916
565 0 73.0599 13.441 982 117.441 799.554 482.216
566 0 75.2837 14.638 1102 115.725 801.211 480.052
567 0 75.1883 13.0871 984 121.169 800.66 480.129
568 0 78.1345 13.8223 1080 119.381 800.32 478.393
569 0 80.1678 13.8959 1114 120.738 800.297 477.142
570 0 83.1854 13.8245 1150 122.469 800.041 475.564
571 0 84.1657 14.0319 1181 123.103 800.32 475.373
572 0 89.1248 14.4629 1289 121.589 799.474 474.245
573 0 90.1326 13.7686 1241 124.815 799.487 473.78
574 0 95.0957 14.7746 1405 122.599 797.898 471.253
575 0 97.1139 13.9115 1351 126.352 798.769 469.168
576 0 100.11 14.474 1449 124.973 798.596 469.165
577 0 103.058 13.1868 1359 128.492 798.789 468.098
578 0 106.14 14.5092 1540 124.891 798.878 466.784
579 0 109.051 14.6537 1598 125.661 799.256 462.919
580 0 112.189 14.9391 1676 124.385 798.971 461.238
581 0 117.207 15.6901 1839 121.534 799.45 460.35
582 0 122.161 14.923 1823 123.716 799.41 457.766
583 0 125.133 14.8722 1861 122.829 799.581 458.312
584 0 125.327 13.6283 1708 127.719 799.239 454.974
585 0 134.394 14.5393 1954 121.764 799.713 452.256
586 0 137.308 14.2235 1953 122.697 799.454 450.485
587 0 141.309 13.1768 1862 125.92 799.549 448.645
588 0 147.476 14.4838 2136 122.444 800.309 444.265
589 0 151.368 13.4903 2042 125.262 800.079 440.551
590 0 157.598 14.188 2236 123.292 800.136 439.817
591 0 162.457 14.0776 2287 124.826 799.56 436.375
592 0 165.491 13.6322 2256 127.036 799.811 433.524
593 0 171.235 14.1969 2431 126.127 799.461 430.914
594 0 177.509 14.9176 2648 124.566 799.293 426.173
595 0 182.417 13.1676 2402 129.736 799.027 421.02
596 0 187.607 13.331 2501 127.846 799.054 420.86
597 0 195.599 14.5502 2846 124.896 798.984 416.603
598 0 203.182 14.898 3027 122.768 799.394 414.081
599 1 152.406 13.3 2027 123.494 799.575 438.299
600 0 157.384 13.8451 2179 122.799 799.429 435.949
601 0 161.412 13.1713 2126 127.913 799.455 427.831
602 0 169.418 14.5498 2465 121.154 799.743 431.394
603 0 176.587 13.3758 2362 123.273 800.149 427.11
604 0 181.537 13.1984 2396 124.497 800.013 422.609
605 0 189.46 14.8264 2809 120.737 799.876 417.232
606 0 196.556 14.2504 2801 122.086 800.036 415.43
607 0 203.679 14.1104 2874 121.78 799.778 412.272
608 0 210.495 14.3091 3012 120.627 799.96 410.126
609 0 217.611 14.2088 3092 120.891 799.98 408.893
610 1 48.1733 10.3169 497 110.513 801.632 490.666
611 0 51.017 11.0747 565 106.664 799.719 492.239
612 0 54.1553 11.1346 603 108.207 798.431 491.481
613 0 53.0637 11.6652 619 102.856 798.662 489.971
614 0 55.1094 10.9237 602 105.141 798.777 488.794
615 0 56.0576 11.3455 636 104.825 798.769 487.711
616 0 59.0752 11.3245 669 104.368 798.432 489.061
617 0 59.1553 11.2923 668 104.406 799.022 488.901
618 0 61.2032 11.372 696 102.832 798.851 485.746
619 0 65.0747 11.5099 749 101.677 799.446 484.913
620 0 66.1451 10.9759 726 103.854 800.01 483.532
621 0 68.0807 10.8401 738 104.477 799.841 483.136
622 0 73.0982 11.7103 856 103.82 799.796 480.428
623 1 39.0796 11.5917 453 101.823 798.843 497.477
624 0 40.1612 12.2755 493 103.842 799.032 496.57
625 0 38.0803 11.7646 448 102.248 798.857 498.94
626 0 38.1158 11.124 424 104.083 798.943 496.078
627 0 41.1542 10.5943 436 103.342 799.821 496.424
628 0 41.0951 10.3175 424 106.889 799.269 497.111
629 0 44.03 11.3105 498 104.954 798.311 494.669
630 0 46.1636 11.9575 552 102.25 797.629 494.848
631 0 48.0601 11.4024 548 103.42 798.212 493.571
632 0 48.0706 13.0017 625 101.606 797.984 493.376
633 0 49.0713 11.9214 585 106.397 799.161 492.868
634 0 51.0266 12.7777 652 105.408 799.121 491.848
635 0 54.1196 11.8256 640 105.22 797.964 491.438
636 0 56.0562 13.094 734 102.398 797.89 490.332
637 0 58.1152 12.4408 723 103.43 798.957 489.56
638 0 60.1135 12.9588 779 102.426 798.965 489.29
639 0 62.0977 12.899 801 102.652 797.864 487.31
640 0 60.1055 11.5297 693 107.452 797.356 487.304
641 0 66.0984 12.3755 818 104.307 798.29 487.401
642 0 67.0595 13.0481 875 102.842 798.617 487.208
643 0 68.0949 12.8203 873 104.845 798.037 485.583
644 0 71.1076 12.8256 912 105.51 797.884 482.923
645 0 72.0722 12.5846 907 107.147 798.133 480.101
646 0 76.1385 12.0701 919 108.387 798.011 478.783
647 0 79.1107 12.3498 977 108.317 798.227 480.027
648 0 82.0594 12.625 1036 106.885 797.889 478.394
649 1 44.0558 12.6203 556 104.396 797.993 496.394
650 0 45.0479 12.0982 545 108.683 797.877 496.798
651 0 45.0717 13.1568 593 108.444 797.194 494.838
652 0 47.1073 13.3313 628 109.008 797.037 495.08
653 0 48.0582 12.8386 617 111.227 796.502 493.715
654 0 50.0919 13.076 655 111.658 797.289 492.359
655 0 51.0274 13.189 673 111.716 797.755 491.944
656 0 52.1125 12.5881 656 112.075 798.037 492.812
657 0 55.0557 12.6054 694 112.584 797.533 491.337
658 0 55.0486 12.6797 698 113.739 797.352 491.11
659 0 57.1018 12.8542 734 112.782 796.978 489.354
660 0 59.1737 13.2153 782 112.318 797.535 488.381
661 0 59.1532 12.2732 726 115.132 797.517 487.733
662 0 62.1928 12.0432 749 115.096 798.113 486.561
663 0 64.1001 13.1201 841 112.919 798.024 485.346
664 0 66.0504 12.4905 825 112.319 797.501 485.589
665 0 71.1685 12.9833 924 109.293 798.484 485.066
666 0 70.1585 12.2152 857 112.489 798.679 483.412
667 0 75.1284 11.9928 901 112.168 799.296 480.559
668 0 78.142 12.8484 1004 109.543 798.835 481.633
669 0 80.3493 12.9435 1040 108.712 798.325 477.999
670 0 82.3341 11.6841 962 110.256 798.186 478.272
671 0 85.2196 11.7461 1001 110.884 798.802 477.738
672 1 43.0704 11.2838 486 106.551 798.173 495.582
673 0 46.0902 12.302 567 104.711 798.111 495.543
674 0 47.189 13.2658 626 104.952 798.089 495.93
675 0 48.3316 12.3315 596 108.433 798.094 493.815
676 0 50.2825 13.3645 672 105.644 799.24 494.814
677 0 50.1222 12.1303 608 109.898 798.987 492.581
678 0 51.3771 12.4764 641 109.246 798.661 491.984
679 0 53.1922 13.2726 706 107.35 798.262 491.5
680 0 52.1887 10.462 546 111.599 798.463 491.844
681 0 56.128 12.2577 688 107.993 798.488 490.677
682 0 58.0833 13.5667 788 104.977 798.633 490.341
683 0 60.0802 11.4014 685 109.289 798.238 489.26
684 0 61.1387 12.7579 780 107.251 798.426 487.036
685 0 61.178 11.442 700 111.11 798.809 485.309
686 0 65.1836 12.3037 802 106.945 798.716 487.939
687 0 68.1919 12.0835 824 108.586 798.262 485.228
688 0 70.1548 12.4582 874 108.662 798.721 483.939
689 0 73.2139 11.7874 863 109.341 798.407 483.346
690 0 73.1568 12.0016 878 111.008 798.682 481.503
691 0 77.2198 11.7457 907 110.029 798.372 480.856
692 0 80.1859 12.1468 974 109.068 797.824 478.548
693 0 82.1879 11.8874 977 108.122 798.045 476.813
694 1 42.3317 11.906 504 98.3433 799.331 497.002
695 0 41.1975 10.4861 432 102.616 799.808 496.255
696 0 43.3412 11.421 495 101.257 799.897 493.382
697 0 44.2804 11.8563 525 100.787 799.869 492.438
698 0 47.0844 11.2564 530 109.481 798.37 493.974
699 0 49.1758 12.4248 611 107.267 798.745 492.959
700 0 50.1574 11.1648 560 108.995 799.014 493.946
701 0 52.075 12.4052 646 108.485 798.435 492.099
702 0 54.0994 12.4401 673 108.688 798.703 491.629
703 0 53.1327 11.4995 611 112.827 798.579 490.624
704 0 56.1377 12.6653 711 110.647 798.737 488.475
705 0 56.1049 12.6727 711 111.761 798.276 486.979
706 0 60.0833 13.4979 811 109.387 798.803 486.667
707 0 61.4216 11.9665 735 114.307 799.045 486.484
708 0 64.4261 12.5881 811 112.742 798.831 486.369
709 0 65.2299 13.6287 889 110.52 798.497 484.315
710 0 64.2768 11.6527 749 116.473 798.968 483.997
711 0 69.1243 12.3401 853 114.777 798.8 483.106
712 0 71.1667 12.8431 914 114.984 798.737 479.74
713 0 74.1385 12.8813 955 115.543 798.624 480.599
714 0 77.3023 13.1432 1016 116.976 798.641 478.409
715 0 77.2863 12.3696 956 119.94 799.046 475.257
716 0 81.4045 13.4882 1098 117.267 799.216 474.464
717 0 84.323 13.6736 1153 116.953 799.765 473.796
718 1 42.3875 10.7815 457 117.654 800.453 494.899
719 0 44.2273 12.7523 564 115.408 800.176 492.787
720 0 45.2052 12.4764 564 116.199 800.514 494.133
721 0 47.2486 12.3178 582 119.517 800.424 492.856
722 0 48.1099 12.4091 597 118.791 799.739 492.737
723 0 49.2953 13.0438 643 118.322 799.773 492.383
724 0 51.101 13.2678 678 118.184 799.121 490.919
725 0 54.1098 12.9367 700 118.513 799.693 491.494
726 0 54.2068 13.799 748 117.936 799.75 489.93
727 0 54.2561 13.252 719 118.766 799.688 490.038
728 0 57.2204 14.383 823 116.219 799.812 488.377
729 0 60.1673 13.9278 838 116.853 799.649 486.295
730 0 60.1912 13.4239 808 119.498 799.641 485.942
731 0 62.0898 13.9959 869 117.816 799.201 485.807
732 0 64.1189 14.6759 941 116.368 799.401 485.932
733 0 65.201 13.282 866 120.066 799.082 484.406
734 0 68.1662 14.4793 987 115.589 799.659 484.438
735 0 70.2499 14.6477 1029 115.983 799.509 481.12
736 0 71.1307 14.3679 1022 116.181 800.274 482.545
737 0 73.0843 12.6429 924 118.66 799.363 482.214
738 0 77.1331 12.9646 1000 117.4 799.071 479.418
739 0 80.2709 13.7036 1100 100.101 799.023 476.649
740 0 83.1599 13.7326 1142 115.122 798.954 478.029
741 0 85.2388 14.477 1234 115.318 798.947 474.818
742 0 88.087 14.2586 1256 116.808 799.33 472.443
743 0 92.2166 13.7069 1264 117.049 799.394 473.138
744 0 95.2609 12.7229 1212 119.269 799.249 470.077
745 1 49.1595 11.5135 566 117.797 799.415 493.161
746 0 51.1176 12.3832 633 115.152 799.474 492.773
747 0 52.1112 12.4925 651 115.516 799.527 489.848
748 0 54.139 13.7978 747 113.248 798.343 487.695
749 0 55.2162 13.9995 773 112.961 798.071 486.683
750 0 56.1302 12.9698 728 116.581 798.228 482.856
751 0 60.2171 13.4513 810 114.244 798.381 481.623
752 0 61.3353 14.005 859 111.974 798.471 481.737
753 0 63.3181 12.5241 793 113.522 797.793 477.71
754 0 64.2099 13.5182 868 111.588 797.838 475.335
755 0 67.4115 13.8552 934 108.843 798.252 474.254
756 0 67.3178 11.7948 794 114.251 797.688 475.505
757 0 72.2125 12.851 928 109.239 798.338 477.181
758 0 73.2783 12.1182 888 111.565 798.301 476.403
759 0 75.1931 11.4106 858 112.28 798.429 473.397
760 0 79.1431 13.3808 1059 108.346 798.612 472.175
761 0 82.1734 13.0456 1072 108.942 798.896 472.1
762 0 84.2785 12.5299 1056 110.884 797.99 470.544
763 0 87.2534 13.478 1176 108.572 797.975 469.406
764 0 92.1842 13.3754 1233 108.818 798.161 470.16
765 0 93.1855 14.0472 1309 109.005 798.829 469.492
766 1 53.0432 10.8214 574 108.751 798.254 489.47
767 0 57.1468 12.8266 733 105.281 798.446 489.692
768 0 57.0618 13.0735 746 111.239 798.394 487.83
769 0 60.1132 12.5596 755 111.005 798.551 489.215
770 0 61.4628 11.9747 736 113.857 799.45 487.421
771 0 64.3359 12.4192 799 113.602 799.685 484.695
772 0 65.3152 12.034 786 114.644 798.968 485.944
773 0 69.1793 12.7639 883 112.99 799.365 483.855
774 0 71.2454 13.0535 930 113.652 799.855 483.727
775 0 75.3046 13.3724 1007 112.42 799.833 482.268
776 0 76.3016 13.0535 996 113.031 799.107 482.297
777 0 78.299 13.6017 1065 113.406 799.085 478.315
778 0 81.2293 13.0249 1058 115.519 799.768 478.026
779 0 84.2114 13.193 1111 115.604 799.157 475.926
780 0 87.1969 13.2918 1159 116.443 799.498 474.758
781 1 46.0302 11.3838 524 112.611 799.918 493.878
782 0 47.0762 11.3858 536 112.616 800.724 496.328
783 0 49.109 10.5683 519 115.459 799.289 493.453
784 0 51.1539 11.7684 602 112.593 798.543 494.002
785 0 49.0581 11.2927 554 109.57 798.883 494.354
786 0 51.0852 12.0387 615 107.62 799.428 493.73
787 0 53.1517 11.5142 612 111.75 800.557 491
788 0 54.0327 12.1038 654 109.356 799.657 492.274
789 0 55.0761 10.7851 594 112.29 799.443 490.897
790 0 57.0565 10.7963 616 112.39 800.174 490.487
791 0 60.1213 11.9093 716 111.367 799.532 489.183
792 0 62.0687 10.9717 681 113.423 800.86 488.595
793 0 65.0555 12.4355 809 110.314 799.857 486.823
794 0 65.1585 12.2471 798 111.202 798.721 484.629
795 0 67.283 11.2659 758 115.305 798.299 482.454
796 0 71.1672 11.6205 827 112.346 798.625 483.773
797 0 75.2622 11.626 875 112.968 798.627 482.2
798 0 76.3528 11.8529 905 113.424 798.308 479.945
799 0 78.2141 11.4046 892 114.508 798.507 479.151
800 0 83.1983 12.2959 1023 111.918 798.32 477.516
801 1 45.0269 10.4382 470 110.319 799.426 496.421
802 0 45.094 9.73521 439 110.223 799.554 494.207
803 0 48.0606 11.6519 560 109.577 799.673 494.034
804 0 47.0445 10.9471 515 104.744 798.548 497.113
805 0 46.0317 10.4493 481 106.511 799.449 495.457
806 0 47.0681 11.7702 554 103.744 799.258 496.054
807 0 50.0465 10.2904 515 106.282 799.097 494.34
808 0 53.1433 11.8359 629 102.132 799.881 493.216
809 0 54.1308 12.8208 694 100.439 799.389 493.506
810 0 56.1279 12.5606 705 100.919 799.535 491.57
811 0 57.0948 11.4546 654 104.145 799.24 490.044
812 0 59.1471 12.8662 761 100.972 800.038 489.154
813 0 60.2355 12.1855 734 102.542 799.816 488.661
814 0 63.1466 11.7504 742 104.054 799.482 486.702
815 0 63.0699 10.7658 679 105.971 799.866 486.661
816 0 67.0567 11.7513 788 104.232 799.665 486.046
817 0 69.1309 10.0389 694 105.105 799.922 486.082
818 0 68.2251 9.65919 659 107.086 799.534 485.065
819 0 73.1144 10.7913 789 105.199 798.98 484.056
820 0 77.0986 11.388 878 104.786 798.754 481.022
821 0 79.0701 12.0147 950 104.102 798.576 479.259
822 0 83.125 10.8752 904 106.301 799.028 477.854
823 0 87.0585 10.694 931 106.867 798.889 474.938
824 0 89.1562 12.9548 1155 102.781 798.787 471.776
825 1 48.0147 10.7884 518 103.077 798.396 496.083
826 0 48.138 11.2801 543 107.696 797.201 493.996
827 0 50.0621 10.6068 531 102.753 798.019 495.299
828 0 53.0491 11.8946 631 104.555 797.225 490.683
829 0 54.0868 12.9237 699 104.185 797.488 490.715
830 0 56.0598 12.1121 679 105.642 797.44 489.733
831 0 58.0792 13.3783 777 102.009 797.883 489.393
832 0 57.0341 12.2032 696 106.44 797.274 490.011
833 0 60.0382 13.0084 781 101.419 797.718 489.195
834 0 61.0543 12.8902 787 102.047 797.901 488.028
835 0 65.1156 13.6987 892 100.201 798.001 488.064
836 0 65.0388 12.7462 829 102.288 797.882 487.432
837 0 67.1305 13.3323 895 101.575 798.741 484.584
838 0 72.2287 14.7587 1066 98.0507 798.296 484.429
839 0 73.2513 12.9281 947 103.283 797.659 484.399
840 0 74.1933 13.1548 976 104.443 798.217 483.572
841 0 76.1361 13.1606 1002 104.89 798.432 482.351
842 0 79.1307 13.3703 1058 100.756 798.295 478.595
843 0 82.0845 13.3765 1098 101.663 797.72 478.602
844 0 84.1401 14.4164 1213 100.523 797.406 479.774
845 0 83.0929 12.2273 1016 108.361 798.458 481.07
846 0 86.1215 11.8437 1020 110.972 798.478 478.098
847 0 90.1361 13.0469 1176 107.179 798.767 476.978
848 0 94.2003 13.1316 1237 106.494 798.568 474.386
849 0 96.1304 13.3465 1283 106.637 798.39 475.102
850 0 100.169 13.8566 1388 109.032 797.306 473.329
851 0 103.085 13.7945 1422 111.488 798.004 468.611
852 0 105.14 12.8685 1353 114.866 797.957 470.33
853 0 110.189 12.9596 1428 111.525 797.326 466.392
854 0 115.149 14.8242 1707 108.154 797.36 464.702
855 1 60.0475 11.6075 697 119.984 796.707 487.283
856 0 62.0612 13.5189 839 114.794 796.872 488.255
857 0 63.0732 13.4289 847 114.956 796.871 485.277
858 0 66.0731 12.0775 798 118.069 797.201 485.584
859 0 68.1238 13.4314 915 115.278 797.328 483.778
860 0 71.1 13.1224 933 116.72 797.327 483.027
861 0 72.0602 12.6006 908 119.195 796.966 481.286
862 0 74.0874 13.835 1025 117.494 797.508 480.637
863 0 77.0837 13.8291 1066 116.778 797.415 479.031
864 0 78.1275 12.7868 999 119.237 797.03 480.133
865 0 81.0987 13.6747 1109 116.97 797.522 479.667
866 0 84.2058 12.7901 1077 120.622 797.817 476.694
867 0 87.2776 14.1273 1233 117.134 797.997 475.503
868 0 88.1982 13.1295 1158 120.701 798.77 474.226
869 0 92.2895 14.3028 1320 116.632 798.097 472.708
870 1 51.0248 11.8766 606 113.906 798.008 495.911
871 0 50.118 12.1513 609 111.264 797.801 493.384
872 0 53.1698 12.3566 657 109.35 797.56 483.895
873 0 55.0688 13.2561 730 116.558 797.747 490.612
874 0 57.0999 14.1331 807 115.278 797.822 489.964
875 0 57.0655 12.7047 725 120.086 797.102 489.243
876 0 59.0645 12.9011 762 119.39 797.248 488.819
877 0 62.0608 14.663 910 115.501 798.115 487.138
878 0 62.0608 14.6953 912 144.348 799.124 487.067
879 0 66.1712 13.2535 877 119.822 797.567 484.632
880 0 69.1322 14.1179 976 120.189 797.686 483.327
881 0 70.2108 14.6416 1028 118.197 797.792 483.013
882 0 74.1987 14.0029 1039 119.391 798.066 482.615
883 0 74.0633 14.2311 1054 122.058 797.948 479.952
884 0 76.105 13.8361 1053 121.311 797.974 478.807
885 0 80.105 14.2188 1139 119.765 798.274 477.972
886 0 82.1862 14.6375 1203 120.733 798.859 476.44
887 0 85.1181 14.1685 1206 121.203 798.691 475.157
888 0 87.1974 13.1999 1151 123.884 798.333 474.532
889 1 46.0555 11.1387 513 120.133 797.889 495.444
890 0 47.0885 12.3172 580 118.366 798.007 494.741
891 0 48.1443 14.2073 684 118.921 798.415 492.832
892 0 51.04 12.6176 644 121.376 797.797 492.382
893 0 51.0712 12.8448 656 123.087 797.261 491.64
894 0 53.0426 12.3863 657 125.029 797.329 490.753
895 0 54.053 11.7477 635 126.45 796.691 491.609
896 0 57.0903 13.5925 776 122.492 797.183 489.309
897 0 57.0854 12.6827 724 125.957 797.731 488.707
898 0 60.0244 14.0276 842 120.544 797.246 487.424
899 0 62.0726 14.3381 890 120.157 797.258 486.724
900 0 63.0914 13.3616 843 122.847 797.403 486.442
901 0 67.0616 13.7336 921 120.565 797.61 486.169
902 0 68.1212 13.6668 931 122.712 797.467 484.494
903 0 70.0342 12.8651 901 124.584 797.575 484.881
904 0 71.1269 14.8748 1058 120.336 797.523 481.39
905 0 75.2278 14.2235 1070 123.984 798.049 480.48
906 0 79.4113 13.8645 1101 123.516 797.942 480.778
907 0 78.3175 13.4453 1053 127.56 797.698 477.023
908 0 84.5339 14.5622 1231 123.37 797.522 476.662
909 0 85.2821 13.6019 1160 128.16 797.997 474.698
910 0 91.262 14.4748 1321 123.901 797.805 473.735
911 1 49.1122 11.7486 577 126.038 797.789 494.688
912 0 52.1266 14.1003 735 121.654 798.08 491.653
913 0 54.0572 14.0962 762 121.304 797.469 491.51
914 0 56.0632 13.128 736 123.236 797.148 491.654
915 0 57.0888 13.2075 754 124.434 797.546 490.568
916 0 59.0574 14.1388 835 120.684 797.036 491.113
917 0 60.1011 13.3109 800 124.488 796.948 489.698
918 0 61.0898 12.7681 780 123.788 797.403 490.004
919 0 65.1394 15.8276 1031 116.145 797.398 486.5
920 0 67.1288 15.2543 1024 118.814 797.712 485.121
921 0 69.1819 14.2812 988 121.573 798.027 483.058
922 0 72.2237 14.0813 1017 121.183 797.619 482.824
923 0 74.1975 14.1784 1052 121.726 798.223 482.497
924 0 77.1548 14.4385 1114 122.044 798.18 480.578
925 0 81.1162 14.0293 1138 122.32 798.004 478.721
926 0 80.2802 12.8799 1034 127.19 798.137 477.343
927 1 44.1207 12.9871 573 120.455 797.614 496.452
928 0 44.0462 12.5323 552 121.009 797.873 495.707
929 0 44.0917 12.1111 534 127.082 798.273 495.807
930 0 47.0549 11.7097 551 129.684 798.318 494.456
931 0 48.114 12.8861 620 127.108 798.545 492.997
932 0 51.2213 13.4319 688 124.115 798.679 493.869
933 0 52.0906 13.8797 723 121.047 798.086 493.657
934 0 51.1587 12.2951 629 122.199 797.836 493.347
935 0 54.0627 14.2057 768 117.13 797.68 491.628
936 0 53.1668 12.4326 661 123.628 797.693 490.648
937 0 56.1519 13.2498 744 121.126 797.977 489.073
938 0 58.0606 11.5569 671 124.994 798.516 490.092
939 0 62.2109 13.4382 836 119.507 798.435 488.51
940 0 63.0832 13.7596 868 119.396 798.415 487.287
941 0 64.16 11.5492 741 121.603 798.455 488.205
942 0 65.1249 12.3762 806 119.39 798.962 485.553
943 0 67.1535 12.4193 834 119.341 798.663 482.802
944 0 73.0993 12.1205 886 119.707 798.35 481.126
945 0 75.2098 13.0302 980 118.723 799.05 479.322
946 0 77.3647 13.0421 1009 118.078 798.651 480.167
947 0 80.1208 12.9679 1039 118.381 798.383 479.129
948 0 84.1015 13.9474 1173 122.541 798.956 475.1
949 0 87.433 13.9764 1222 120.64 798.962 474.435
950 0 90.3058 14.916 1347 116.247 799.486 472.373
951 1 45.2514 12.3311 558 123.462 799.987 493.099
952 0 48.2727 13.5895 656 120.787 799.316 489.171
953 0 51.1096 14.1852 725 118.866 798.328 493.462
954 0 51.0912 13.427 686 122.576 798 491.5
955 0 52.1218 13.6795 713 121.429 798.283 491.348
956 0 51.1853 12.3082 630 127.805 798.181 489.597
957 0 57.0942 12.1378 693 125.329 798.098 488.41
958 0 58.0619 13.7956 801 121.302 798.206 488.543
959 0 58.1301 12.9193 751 123.489 798.642 488.036
960 0 62.128 13.9872 869 120.481 797.997 487.803
961 0 63.1241 14.1784 895 121.508 797.923 485.287
962 0 65.0874 14.1195 919 121.881 797.966 483.498
963 0 67.1063 13.7543 923 122.375 798.557 482.698
964 0 68.043 13.2563 902 124.41 798.239 482.442
965 0 71.1032 13.614 968 123.538 798.55 481.311
966 0 74.134 13.9342 1033 122.382 798.311 479.171
967 0 72.0933 13.538 976 123.609 798.127 479.158
968 0 79.1212 13.4351 1063 120.698 798.43 478.539
969 0 80.0766 13.7993 1105 121.077 798.68 474.727
970 0 84.1989 14.1451 1191 116.334 798.396 473.539
971 0 88.1115 14.4817 1276 117.139 798.289 472.176
972 0 90.151 14.154 1276 119.083 798.841 469.147
973 0 92.1008 13.1595 1212 121.38 798.139 468.571
974 0 96.2496 13.6832 1317 118.67 798.506 466.115
975 1 50.2659 10.9816 552 110.5 797.674 489.027
976 0 53.1119 11.8806 631 108.48 797.613 487.918
977 0 53.2396 11.3637 605 114.764 798.484 488.583
978 0 57.1607 12.7535 729 108.601 798.067 489.299
979 0 57.0873 13.4881 770 107.049 798.126 489.152
980 0 59.2023 13.2427 784 109.292 798.931 487.25
981 0 60.2428 12.35 744 111.351 797.921 487.097
982 0 62.1149 13.2174 821 109.814 797.749 485.161
983 0 65.225 12.7558 832 110.71 798.234 484.863
984 0 68.1204 12.933 881 110.636 798.698 484.914
985 0 69.2819 12.8605 891 112.162 798.96 482.456
986 0 71.1463 13.0998 932 111.973 799.304 479.913
988 0 74.3327 13.6548 1015 110.747 799.289 480.881
989 0 76.2936 12.7403 972 114.343 799.101 477.508
990 0 79.2186 13.6837 1084 111.806 798.572 475.718
991 0 82.2396 13.9227 1145 111.26 798.358 472.966
992 0 84.1418 13.3465 1123 111.694 799.053 472.663
993 0 87.0797 12.9077 1124 111.111 798.463 473.746
994 1 49.0455 11.316 555 107.915 798.211 490.978
995 0 53.0695 10.7218 569 107.74 797.318 490.715
996 0 52.0663 12.2152 636 101.805 797.731 489.487
997 0 53.057 11.7609 624 99.7901 797.843 491.058
998 0 56.0557 12.2735 688 100.081 798.025 489.049
999 0 58.1139 12.1486 706 97.949 797.62 488.875
1000 0 59.1358 12.429 735 97.2966 797.971 487.207
1001 0 62.1289 12.5706 781 96.1831 798.157 486.556
1002 0 60.2143 13.3357 803 97.2516 797.941 486.144
1003 0 62.0892 12.2727 762 99.4816 798.115 485.096
1004 0 65.0771 11.4172 743 102.974 797.744 485.704
1005 0 69.0295 11.9659 826 102.465 797.995 481.473
1006 0 70.0296 12.8089 897 103.129 797.876 482.124
1007 0 72.1111 12.2034 880 105.123 798.156 477.481
1008 0 76.0567 13.0166 990 102.646 797.886 478.323
1009 0 78.0967 11.9083 930 104.956 797.906 478.022
1010 0 81.1446 12.3976 1006 104.153 798.239 475.777
1011 0 83.1585 11.8569 986 103.815 798.169 475.488
1012 1 41.0704 10.275 422 99.5877 797.685 496.13
1013 0 44.0203 13.1076 577 91.9705 797.69 494.636
1014 0 45.0414 12.0556 543 94.7072 798.109 491.593
1015 0 47.0487 13.0503 614 93.5277 797.314 492.021
1016 0 48.1934 11.3086 545 96.2055 797.791 491.611
1017 0 51.0809 11.1979 572 96.0874 797.189 489.684
1018 0 51.073 11.5521 590 95.2949 797.875 490.261
1019 0 54.1195 12.1952 660 92.7652 797.823 488.185
1020 0 56.0736 12.4123 696 91.5647 797.938 486.856
1021 0 58.1447 12.5377 729 90.8615 798.204 485.52
1022 0 60.1257 12.6901 763 90.6619 797.916 484.982
1023 0 61.1588 10.9387 669 92.7922 797.874 484.157
1024 0 63.0768 12.0012 757 91.5046 798.176 482.678
1025 0 67.194 12.2928 826 90.4031 798.018 483.942
1026 0 68.117 12.7721 870 90.8195 798.325 480.13
1027 0 71.0698 12.7903 909 92.0638 797.789 479.92
1028 0 74.1908 13.4248 996 91.5201 797.959 477.994
1029 0 74.1411 12.3413 915 94.7399 797.837 478.161
1030 0 77.1563 11.7942 910 97.5088 798.409 476.881
1031 0 81.0705 12.964 1051 95.8468 797.841 475.834
1032 1 42.0467 11.9867 504 99.6528 797.571 495.315
1033 0 45.0207 11.8834 535 102.669 798.015 494.961
1034 0 45.065 11.9605 539 105.226 798.083 494.265
1035 0 46.0602 12.6574 583 103.852 798.184 495.252
1036 0 49.08 12.7139 624 103.886 798.04 493.034
1037 0 52.0942 13.1876 687 104.393 797.684 491.888
1038 0 50.1237 12.8682 645 106.732 800.447 492.743
1039 0 53.1913 13.066 695 107.993 800.373 489.534
1040 0 53.309 12.118 646 111.777 800.015 489.217
1041 0 56.2242 14.0865 792 106.42 798.941 487.878
1042 0 59.2247 14.1833 840 106.473 799.936 487.306
1043 0 57.2271 13.228 757 110.864 799.911 487.181
1044 0 60.2931 13.9817 843 109.46 800.091 486.483
1045 0 61.2052 13.1198 803 112.623 799.522 484.658
1046 0 65.3592 12.5002 817 113.464 800.026 484.455
1047 0 67.3934 12.568 847 113.442 800.058 483.427
1048 0 69.313 13.3741 927 112.789 800.097 480.804
1049 0 72.2935 13.3207 963 112.009 799.812 482.182
1050 0 75.2553 14.1252 1063 109.385 800.143 482.397
1051 0 77.2575 12.5425 969 114.702 800.594 480.112
1052 0 81.1845 15.3231 1244 106.433 800.669 479.833
1053 0 82.1753 12.7167 1045 115.508 800.461 476.105
1054 1 45.0602 12.2947 554 111.193 801.043 496.435
1055 0 47.0881 11.4466 539 112.449 800.872 495.607
1056 0 49.177 13.1159 645 106.763 799.493 494.087
1057 0 50.1554 11.9229 598 110.644 801.344 493.724
1058 0 53.0626 13.8892 737 106.161 799.737 490.86
1059 0 53.0665 12.4372 660 110.448 799.72 491.412
1060 0 56.0935 12.6931 712 108.52 799.784 490.442
1061 0 55.0248 12.2308 673 111.177 799.871 490.137
1062 0 57.0275 12.7307 726 111.377 799.992 487.149
1063 0 62.0739 14.3861 893 105.083 799.606 487.403
1064 0 62.1082 13.557 842 108.603 800.407 485.096
1065 0 64.0836 13.8725 889 107.575 800.183 485.325
1066 0 67.0786 12.8208 860 110.303 800.123 483.599
1067 0 70.095 13.3533 936 108.608 800.96 483.908
1068 0 71.0354 12.8105 910 110.692 801.136 482.718
1069 0 72.1076 13.2025 952 111.64 800.77 479.504
1070 0 75.0322 13.2077 991 110.827 800.724 479.326
1071 0 78.1003 12.8425 1003 112.076 800.235 477.934
1072 0 82.0658 13.6354 1119 109.464 800.613 477.914
1073 0 85.0681 13.1307 1117 112.954 800.56 475.007
1074 1 46.098 11.8877 548 111.276 800.989 493.951
1075 0 46.2822 12.5534 581 111.549 800.764 492.776
1076 0 48.1027 12.3486 594 100.461 797.645 492.237
1077 0 49.0542 11.9052 584 102.646 797.339 492.577
1078 0 52.0357 13.3562 695 99.8029 797.699 491.6
1079 0 51.0938 11.7822 602 102.666 797.736 492.547
1080 0 52.068 11.677 608 105.054 798.694 491.87
1081 0 52.0871 12.5751 655 104.223 798.064 489.551
1082 0 56.0717 12.0738 677 105.028 798.569 491.086
1083 0 57.1183 11.59 662 107.249 798.846 489.992
1084 0 59.1519 13.2371 783 103.287 798.407 488.612
1085 0 59.0752 12.0186 710 105.079 797.824 488.696
1086 0 61.1037 11.6851 714 106.929 798.171 485.965
1087 0 64.0658 11.2541 721 105.709 798.148 488.294
1088 0 67.1081 11.5634 776 105.039 798.791 487.482
1089 0 70.0864 12.1136 849 106.356 798.456 484.237
1090 0 72.1806 12.5103 903 108.638 798.184 483.371
1091 0 74.0673 12.1781 902 109.994 798.088 483.127
1092 0 79.129 13.6739 1082 108.144 798.906 480.446
1093 0 81.086 12.0859 980 111.75 798.561 480.017
1094 0 83.0706 12.05 1001 112.634 798.5 478.42
1095 1 44.0714 10.7326 473 115.761 797.774 496.114
1096 0 47.1227 12.6054 594 110.887 796.955 495.047
1097 0 45.4142 11.8685 539 115.052 798.731 491.488
1098 0 50.0686 13.6013 681 111.592 796.737 492.307
1099 0 50.0315 13.9312 697 111.463 796.478 493.9
1100 0 52.0283 12.9737 675 112.837 796.545 492.862
1101 0 53.0414 12.7259 675 115.268 796.879 490.627
1102 0 56.0316 13.5459 759 112.046 797.278 490.115
1103 0 56.0794 12.5358 703 116.755 797.555 490.615
1104 0 58.0475 12.9894 754 115.52 797.151 488.135
1105 0 60.1196 13.3567 803 114.071 797.199 486.346
1106 0 62.0742 13.1939 819 113.702 797.314 487.705
1107 0 66.0257 14.1763 936 109.866 797.001 485.866
1108 0 68.0663 13.0167 886 112.391 797.702 485.586
1109 0 68.0475 12.9468 881 113.443 797.825 484.495
1110 0 72.1373 13.3357 962 110.607 797.629 482.978
1111 0 74.1079 14.317 1061 108.079 797.627 480.418
1112 0 77.0526 12.4071 956 111.03 797.482 480.952
1113 0 81.1257 13.1894 1070 109.264 797.587 480.674
1114 0 82.1225 13.2485 1088 109.347 797.517 477.197
1115 1 44.1146 11.4475 505 107.632 798.23 497.974
1116 0 44.0557 11.6444 513 109.949 798.049 494.741
1117 0 45.0448 13.1425 592 104.353 797.794 493.639
1118 0 47.0576 12.2403 576 108.571 797.905 493.054
1119 0 48.0555 14.0046 673 96.0966 797.731 492.74
1120 0 49.1121 12.1966 599 100.214 797.649 492.469
1121 0 50.1051 11.9748 600 100.275 797.095 490.725
1122 0 53.0648 11.7027 621 101.285 796.757 492.673
1123 0 54.0794 13.739 743 98.9273 797.21 489.615
1124 0 55.045 12.2627 675 102.089 797.11 488.887
1125 0 56.0152 12.5145 701 103.295 797.486 489.214
1126 0 58.1981 12.0794 703 104.068 797.208 487.559
1127 0 61.0811 12.5571 767 102.424 797.849 487.909
1128 0 63.099 11.9812 756 102.376 797.896 486.943
1129 0 66.099 13.2075 873 99.6334 797.84 484.084
1130 0 66.0676 14.3489 948 98.5812 798.04 485.386
1131 0 69.0508 12.2084 843 102.316 798.172 484.932
1132 0 69.0823 12.8108 885 101.992 798.591 483.666
1133 0 72.1131 12.8548 927 101.51 798.031 480.063
1134 0 72.0824 11.5007 829 105.3 798.309 481.226
1135 0 77.1006 13.6834 1055 100.174 798.391 479.509
1136 0 77.062 12.3018 948 104.02 798.796 479.598
1137 0 77.2269 12.405 958 109.819 798.49 482.316
1138 0 80.0599 13.1027 1049 110.035 798.916 478.734
1139 0 83.056 11.9678 994 112.313 798.781 475.47
1140 0 85.0779 10.7078 911 113.636 798.3 476.633
1141 1 45.0369 12.1456 547 109.72 797.965 497.857
1142 0 48.1739 12.6832 611 109.178 798.129 495.468
1143 0 47.026 12.3549 581 112.043 798.883 495.432
1144 0 49.0825 12.2447 601 111.428 797.572 494.409
1145 0 52.1439 12.9641 676 110.796 798.212 492.57
1146 0 52.1315 12.948 675 111.341 797.44 492.277
1147 0 56.1729 14.4732 813 107.164 797.138 491.412
1148 0 56.2071 14.6601 824 108.755 796.93 489.487
1149 0 58.1328 13.0563 759 111.816 796.424 490.542
1150 0 60.1377 14.5499 875 107.773 797.163 489.424
1151 0 59.1772 13.0963 775 113.311 796.465 487.698
1152 0 64.0894 13.5592 869 110.482 796.345 487.771
1153 0 65.1141 13.1615 857 112.242 797.183 486.095
1154 0 66.1404 13.426 888 113.084 796.408 484.256
1155 0 69.214 13.7544 952 112.331 796.358 483.262
1156 0 73.1544 14.4762 1059 110.065 796.751 483.313
1157 0 75.0908 14.569 1094 110.82 797.221 479.935
1158 0 75.1738 13.5154 1016 113.527 797.301 480.444
1159 0 78.2078 12.4924 977 116.807 797.211 478.514
1160 0 80.2009 13.5285 1085 115.253 796.943 476.602
1161 0 85.2991 14.1737 1209 111.495 797.304 476.49
1162 0 87.123 14.1983 1237 114.227 796.997 474.41
1163 0 89.1356 13.6197 1214 115.385 796.871 473.764
1164 0 90.307 14.2292 1285 114.539 797.21 469.651
1165 0 94.4074 13.7595 1299 114.583 797.727 470.266
1166 0 97.409 14.0233 1366 113.089 797.561 469.018
1167 0 101.396 15.7107 1593 108.675 797.443 467.112
1168 0 103.238 15.1301 1562 109.24 797.933 466.471
1169 0 108.312 14.9013 1614 110.14 798.413 462.994
1170 0 109.305 16.5317 1807 107.615 798.459 462.488
1171 0 113.493 16.2389 1843 108.996 798.31 459.754
1172 0 117.338 16.005 1878 110.158 797.93 458.017
1173 0 120.201 14.925 1794 110.966 798.688 457.91
1174 0 124.4 14.4695 1800 108.249 798.537 454.757
1175 0 130.437 15.9387 2079 104.165 798.629 452.106
1176 0 134.348 14.2913 1920 107.584 798.568 449.949
1177 0 138.323 13.3311 1844 106.998 797.731 448.529
1178 0 145.755 14.4558 2107 105.643 797.596 446.86
1179 0 151.598 15.3564 2328 103.043 797.551 447.227
1180 0 154.569 15.6111 2413 90.2163 796.831 442.931
1181 1 78.329 14.2859 1119 105.031 797.391 477.428
1182 0 78.2447 12.7421 997 108.471 797.689 474.204
1183 0 82.3105 13.9593 1149 104.926 797.52 472.856
1184 0 87.1668 13.9732 1218 104.082 798.032 472.273
1185 0 88.159 13.884 1224 103.308 797.734 467.82
1186 0 91.1471 15.0636 1373 97.0262 797.697 468.597
1187 0 94.116 14.7159 1385 97.7379 798.22 467.329
1188 0 99.1942 14.5271 1441 97.3858 797.613 466.709
1189 1 56.1519 14.0155 787 97.8259 796.926 486.728
1190 0 58.0637 14.088 818 99.5122 799.441 485.128
1191 0 59.1533 13.7101 811 95.8138 796.964 486.84
1192 0 61.1945 14.5438 890 94.0202 797.233 485.083
1193 0 63.1473 14.0465 887 95.4476 797.43 483.561
1194 0 65.1517 13.4456 876 95.6164 796.861 485.107
1195 0 68.1363 13.4436 916 95.0666 797.618 484.039
1196 0 68.2497 12.2784 838 98.2709 797.705 482.479
1197 0 73.2879 12.9216 947 96.5554 797.498 482.637
1198 0 75.1391 14.014 1053 95.3922 797.221 480.524
1199 0 76.1863 13.362 1018 97.5599 797.551 477.638
1200 0 81.1269 15.4573 1254 93.2305 797.495 476.707
1201 0 82.1513 14.5342 1194 95.139 797.538 477.164
1202 0 85.4534 13.1534 1124 97.4448 797.317 475.869
1203 0 88.2756 15.6895 1385 93.7054 797.199 472.206
1204 0 93.2649 13.7351 1281 96.4778 796.931 473.443
1205 0 95.2632 12.8696 1226 97.6403 797.093 473.493
1206 0 99.2017 14.2739 1416 95.5275 797.273 470.052
1207 0 100.241 13.4876 1352 98.5318 797.129 469.408
1208 0 105.239 13.6546 1437 97.2477 797.097 467.502
1209 0 108.177 14.0788 1523 102.299 797.526 462.685
1210 0 114.207 13.9834 1597 100.708 797.398 460.872
1211 0 117.295 13.6408 1600 109.561 797.086 457.922
1212 1 56.2041 10.7643 605 107.342 796.777 488.463
1213 0 59.3484 13.3786 794 95.4887 798.736 486.94
1214 0 64.1603 13.7312 881 101.639 797.25 483.722
1215 0 63.1881 13.5152 854 102.937 797.4 484.824
1216 0 65.1757 12.7962 834 101.454 797.659 484.254
1217 0 67.2003 12.738 856 101.993 798.741 480.083
1218 0 70.2504 13.9643 981 98.8675 798.827 481.242
1219 0 73.2868 13.9316 1021 98.8786 799.19 478.602
1220 0 76.2105 14.893 1135 96.9736 797.822 478.27
1221 0 79.2031 15.4034 1220 97.1672 798.398 477.673
1222 0 79.1921 13.8145 1094 100.843 797.083 476.234
1223 0 84.2005 14.7386 1241 97.7808 797.853 475.608
1224 0 87.1789 14.0745 1227 102.385 798.065 471.487
1225 0 89.271 13.1062 1170 104.427 797.826 472.987
1226 0 92.3688 14.3988 1330 100.765 798.303 471.167
1227 0 95.4217 14.0744 1343 102.048 797.993 467.286
1228 0 99.2549 13.3696 1327 103.147 798.046 466.737
1229 0 101.436 13.3877 1358 103.498 798.07 466.962
1230 0 106.286 13.9153 1479 100.579 798.193 466.041
1231 1 52.0408 11.7216 610 100.03 799.054 488.703
1232 0 54.1443 12.5221 678 98.1976 796.855 488.136
1233 0 57.1306 11.3424 648 100.199 798.829 489.58
1234 0 58.0778 13.017 756 98.3796 799.057 489.497
1235 0 61.0451 14.0552 858 97.4207 798.727 486.697
1236 0 64.0953 15.945 1022 94.1008 799.441 486.498
1237 0 67.1742 14.6485 984 95.4746 798.923 485.732
1238 0 66.37 12.37 821 101.801 798.495 482.942
1239 0 68.1832 12.6277 861 100.63 798.424 485.276
1240 0 71.0633 13.6639 971 99.0288 798.327 483.021
1241 0 72.2174 13.1824 952 102.015 797.669 478.731
1242 0 76.2213 13.592 1036 100.118 798.409 479.984
1243 0 78.386 14.3648 1126 99.6732 797.975 477.463
1244 0 82.3527 15.1786 1250 97.5464 798.176 476.63
1245 0 84.4245 14.3323 1210 99.8025 797.917 476.34
1246 0 86.406 14.2235 1229 100.896 798.242 473.476
1247 0 89.3419 13.7561 1229 103.076 798.465 470.932
1248 0 92.2602 14.1665 1307 102.799 798.233 469.551
1249 0 94.5663 14.3709 1359 104.292 797.89 467.943
1250 0 98.6181 13.8413 1365 105.012 798.401 467.531
1251 0 99.5154 13.415 1335 98.0839 798.863 469.467
1252 0 98.4006 11.7276 1154 104.479 796.574 469.679
1253 1 55.0822 11.5645 637 103.093 795.86 489.922
1254 0 56.2144 12.0788 679 99.4094 795.801 488.672
1255 0 59.1708 12.3372 730 102.548 796.979 487.911
1256 0 61.46 13.2118 812 99.5948 797.203 487.534
1257 0 62.2963 12.5208 780 100.253 796.788 487.222
1258 0 62.2571 13.5406 843 99.9466 796.684 485.649
1259 0 68.3468 12.7877 874 99.8867 796.315 485.035
1260 0 69.3543 14.2313 987 99.5846 797.149 482.326
1261 0 72.2599 12.7872 924 99.9123 796.306 482.773
1262 0 74.3011 13.4722 1001 99.008 796.168 482.74
1263 0 77.2044 13.0174 1005 100.928 795.345 479.731
1264 0 78.0781 12.0905 944 101.554 795.522 479.657
1265 0 83.2803 15.1777 1264 95.5973 796.29 479.404
1266 0 82.163 12.8403 1055 100.985 795.768 477.634
1267 0 86.0874 14.311 1232 97.4748 796.075 475.588
1268 0 89.1637 15.0285 1340 95.8455 796.098 473.889
1269 0 91.1526 14.3386 1307 91.746 796.822 472.558
1270 1 50.1391 12.585 631 91.2345 795.978 494.041
1271 0 52.0502 13.6407 710 90.1394 795.79 490.765
1272 0 51.0996 12.6615 647 96.7774 796.272 493.114
1273 0 52.0968 12.7071 662 95.994 796.446 491.471
1274 0 54.1444 12.873 697 93.7934 796.006 488.918
1275 0 57.0649 14.2469 813 91.9717 796.499 489.758
1276 0 56.1126 11.4769 644 98.5528 796.283 489.533
1277 0 60.0638 15.0673 905 91.9624 797.001 486.262
1278 0 63.1825 12.4401 786 95.1094 797.369 489.87
1279 0 63.0939 11.8553 748 97.7634 796.483 485.969
1280 0 65.2487 14.621 954 93.0314 797.262 485.503
1281 0 67.1325 14.8065 994 92.6559 797.591 482.498
1282 0 71.2309 15.1198 1077 91.6778 797.325 482.301
1283 0 70.2204 13.8991 976 94.7643 796.529 483.372
1284 0 74.1199 13.6401 1011 92.4688 797.383 483.092
1285 0 75.1815 13.7667 1035 95.2531 797.328 479.306
1286 0 78.1651 15.0579 1177 94.3925 797.131 479.893
1287 0 81.2232 13.2721 1078 98.5065 797.109 478.806
1288 0 81.2305 12.9139 1049 100.766 797.301 475.795
1289 0 84.0938 12.6882 1067 103.933 797.138 473.578
1290 0 91.0703 15.0323 1369 99.5325 796.706 474.173
1291 0 93.1351 12.7771 1190 104.12 797.017 474.261
1292 1 46.0348 12.6643 583 103.873 796.925 494.676
1293 0 48.0658 13.4815 648 102.824 797.201 493.69
1294 0 48.06 13.3167 640 104.567 797.564 492.48
1295 0 50.0526 12.367 619 103.682 797.236 493.919
1296 0 53.111 15.0816 801 99.8377 797.419 489.925
1297 0 53.1068 13.3693 710 103.617 797.521 491.362
1298 0 57.0617 13.7045 782 101.321 797.946 490.12
1299 0 56.1181 13.3825 751 103.228 797.309 488.21
1300 0 59.1785 11.7441 695 104.931 796.945 490.499
1301 0 62.1951 14.2776 888 101.161 796.377 486.946
1302 0 60.0827 13.1818 792 104.472 797.419 486.087
1303 0 65.1203 14.3273 933 100.36 797.372 485.847
1304 0 67.1491 13.6115 914 101.863 796.261 483.178
1305 0 69.2132 13.6101 942 101.781 795.791 482.754
1306 0 73.1298 14.1803 1037 99.8226 796.446 481.978
1307 0 72.0981 12.3027 887 103.944 796.692 482.512
1308 0 76.1814 12.7721 973 102.196 796.349 479.592
1309 0 79.1441 12.1677 963 101.848 796.462 478.607
1310 0 83.2149 13.0265 1084 100.777 797.339 476.779
1311 0 84.1643 11.9647 1007 101.114 797.193 479.687
1312 0 85.2461 12.2234 1042 102.005 796.991 476.452
1313 0 90.2414 12.6993 1146 100.792 797.046 475.948
1314 0 94.1885 12.252 1154 101.168 797.209 472.099
1315 1 47.0565 11.1568 525 103.356 796.956 494.556
1316 0 49.1059 11.7501 577 100.308 796.489 489.643
1317 0 51.282 12.792 656 95.1159 796.197 491.579
1318 0 54.0429 12.7121 687 94.5095 797.45 492.07
1319 0 54.0155 11.9965 648 96.9784 797.878 491.225
1320 0 56.095 12.9958 729 94.3855 796.771 489.686
1321 0 58.0417 12.3876 719 97.3686 796.954 488.438
1322 0 60.1599 13.5638 816 95.3591 797.299 486.885
1323 0 60.0852 13.0315 783 96.3563 796.335 488.867
1324 0 62.0287 13.0101 807 97.5229 796.615 486.084
1325 0 67.0346 14.2165 953 94.1595 797.268 481.824
1326 0 70.1362 14.2152 997 94.2608 797.396 485.373
1327 0 69.0596 12.7716 882 97.983 797.273 484.178
1328 0 72.1979 13.4907 974 96.0842 796.669 482.323
1329 0 76.1281 13.3328 1015 91.7635 795.978 478.751
1330 0 79.137 12.6616 1002 92.4381 796.241 479.782
1331 0 78.2058 12.6078 986 92.8661 796.371 479.642
1332 0 79.1179 13.7264 1086 92.4834 797.013 480.022
1333 0 80.1806 10.8505 870 97.2586 797.457 478.647
1334 0 87.1499 14.0218 1222 92.7774 797.295 477.331
1335 0 90.2333 13.3543 1205 92.6556 797.406 478.031
1336 0 93.1868 13.7573 1282 94.1934 797.637 473.254
1337 0 93.1588 12.3445 1150 96.0461 797.943 475.803
1338 0 98.1888 11.9769 1176 98.3759 798.02 471.551
1339 0 101.231 13.2272 1339 96.1718 798.208 473.122
1340 0 106.101 15.4193 1636 95.0141 798.064 466.859
1341 0 108.308 13.8309 1498 97.4206 798.315 467.82
1342 1 61.1715 14.4675 885 97.1729 797.807 488.606
1343 0 62.1756 13.1884 820 97.5817 797.427 488.167
1344 0 65.3542 14.0465 918 93.963 797.392 487.013
1345 0 65.0562 12.2817 799 107.528 798.67 485.934
1346 0 68.0756 13.6466 929 102.67 797.945 486.911
1347 0 71.0704 13.7469 977 101.702 798.495 482.884
1348 0 74.0667 14.3384 1062 101.941 798.754 483.638
1349 0 75.0324 13.4609 1010 103.914 798.073 483.464
1350 0 76.078 13.2496 1008 105.541 798.074 482.196
1351 0 82.1042 14.981 1230 100.228 798.265 480.025
1352 0 84.0623 14.8461 1248 101.703 798.865 479.136
1353 0 86.1634 14.6814 1265 102.453 799.013 475.696
1354 0 89.0893 13.6604 1217 100.581 798.623 475.012
1355 0 91.1348 14.3743 1310 98.1779 798.323 476.146
1356 0 93.2524 13.9192 1298 101.991 797.656 473.579
1357 0 97.266 14.4758 1408 101.352 797.988 470.1
1358 1 50.0431 11.65 583 105.561 798.659 492.715
1359 0 53.0457 12.6872 673 102.489 798.902 491.636
1360 0 54.0695 13.2052 714 100.468 798.237 493.097
1361 0 57.1892 13.3941 766 98.2872 798.027 492.052
1362 0 57.0884 13.8382 790 98.8456 797.741 490.79
1363 0 58.1213 12.6116 733 100.895 798.154 491.881
1364 0 62.1454 13.4201 834 100.508 798.185 488.519
1365 0 63.1611 13.141 830 101.382 797.931 487.596
1366 0 67.4019 14.9996 1011 97.1147 797.414 487.373
1367 0 69.4339 13.5813 943 100.168 797.977 484.994
1368 0 72.3265 14.8908 1077 97.8997 797.782 483.346
1369 0 75.2785 15.2633 1149 97.0113 797.743 482.564
1370 0 77.2083 15.633 1207 96.3853 797.343 481.196
1371 0 80.186 16.2372 1302 93.4969 797.558 480.651
1372 0 83.2496 13.6817 1139 98.5066 797.825 478.861
1373 0 85.4235 13.9072 1188 97.3603 797.62 479.047
1374 0 89.2241 14.7942 1320 98.1417 797.863 476.648
1375 0 92.3082 16.1632 1492 96.6997 798.237 472.667
1376 0 92.2606 13.7437 1268 101.58 798.134 472.568
1377 0 97.2618 15.1139 1470 96.9612 798.114 472.984
1378 1 50.0159 14.9153 746 96.6206 797.445 493.637
1379 0 52.0486 14.7939 770 97.0818 797.134 493.725
1380 0 51.0926 14.0138 716 102.163 799.028 491.972
1381 0 53.0733 14.0372 745 102.271 798.723 489.988
1382 0 56.1482 14.8535 834 98.9137 798.778 489.284
1383 0 56.1554 14.2106 798 101.089 798.585 485.693
1384 0 58.3238 15.2253 888 99.5529 798.181 484.944
1385 0 59.2926 15.7187 932 99.3273 798.386 483.58
1386 0 61.1694 16.2336 993 97.8389 798.444 483.518
1387 0 65.1532 16.6224 1083 95.2835 797.789 483.808
1388 0 65.0625 16.0307 1043 97.3845 797.733 482.844
1389 0 66.0704 16.21 1071 97.3912 797.89 482.952
1390 0 69.1551 15.2556 1055 100.608 798.407 481.746
1391 0 71.2348 15.8911 1132 100.716 799.016 481.29
1392 0 72.1746 15.2962 1104 102.628 798.126 480.724
1393 0 74.1641 15.0342 1115 103.96 797.958 478.678
1394 0 78.2184 15.2777 1195 102.517 797.529 478.506
1395 0 80.1664 14.5697 1168 104.72 797.611 478.506
1396 0 80.436 13.3647 1075 106.602 797.766 478.095
1397 0 85.1552 15.5011 1320 102.198 797.608 475.838
1398 0 87.0809 14.1707 1234 104.693 797.849 473.222
1399 0 88.2116 15.2588 1346 101.385 797.762 475.632
1400 0 93.1357 17.802 1658 96.5929 797.462 473.004
1401 1 44.125 15.2295 672 100.546 797.101 494.845
1402 0 46.154 15.7949 729 97.9287 797.13 495.738
1403 0 47.0623 15.2776 719 99.5897 796.928 494.885
1404 0 48.0747 16.4119 789 98.5589 797.899 492.906
1405 0 51.0847 16.9718 867 97.8593 797.43 490.238
1406 0 52.2149 17.3705 907 96.462 797.08 492.161
1407 0 55.2375 18.3752 1015 94.8759 796.813 488.93
1408 0 58.2467 17.3057 1008 94.9355 796.329 489.561
1409 0 59.2156 17.6136 1043 95.2522 796.814 488.013
1410 0 61.1633 17.5269 1072 99.653 797.104 485.21
1411 0 64.1187 16.3291 1047 101.574 796.727 486.409
1413 0 64.1384 17.6961 1135 100.783 796.473 484.404
1414 0 66.0525 17.4104 1150 103.021 797.374 484.085
1415 0 67.1961 16.3105 1096 105.608 797.018 484.943
1416 0 70.1972 16.1687 1135 106.745 796.601 482.611
1417 0 77.2745 19.929 1540 97.4279 797.049 481.386
1418 0 76.2581 18.4243 1405 101.999 797.172 479.029
1419 0 80.3487 16.9387 1361 105.193 797.128 479.904
1420 0 84.3451 17.0372 1437 104.84 797.319 477.737
1421 0 85.1336 18.0305 1535 106.106 797.094 475.459
1422 0 89.1 17.5421 1563 108.57 797.237 476.01
1423 0 90.1372 16.02 1444 112.191 796.869 472.504
1424 0 93.2625 15.762 1470 110.41 797.782 471.52
1425 1 47.2437 17.0816 807 107.326 797.487 493.81
1426 0 47.1649 16.6649 786 111.29 797.961 491.253
1427 0 48.2486 15.9383 769 112.75 798.83 492.537
1428 0 51.1619 16.5357 846 113.379 797.857 490.727
1429 0 54.0987 17.1723 929 111.143 798.057 488.586
1430 0 56.2388 16.9989 956 111.424 797.115 489.483
1431 0 57.1397 17.1859 982 113.435 796.894 485.896
1432 0 59.1593 17.9008 1059 112.966 797.444 485.329
1433 0 61.1093 17.6241 1077 114.103 797.211 484.409
1434 0 60.1786 16.4344 989 120.631 797.223 484.395
1435 0 62.0858 17.5241 1088 119.326 796.99 481.37
1436 0 64.1423 17.352 1113 118.779 796.668 482.157
1437 0 68.3145 16.4094 1121 121.063 797.166 480.872
1438 0 71.1894 18.1207 1290 116.164 797.015 481.74
1439 0 71.5219 17.3094 1238 121.085 797.074 481.043
1440 0 73.1114 17.6853 1293 121.582 797.48 478.025
1441 0 75.223 17.5744 1322 120.53 797.386 477.687
1442 0 77.1961 19.0683 1472 117.284 797.079 477.468
1443 0 80.5701 16.5694 1335 123.197 797.029 476.294
1444 0 82.2787 17.4286 1434 123.921 797.158 475.667
1445 0 85.2014 16.5373 1409 125.159 797.317 475.327
1446 0 88.2346 16.4448 1451 125.772 797.358 473.859
1447 1 44.1625 15.8958 702 125.835 797.571 493.806
1448 0 45.1534 15.0598 680 129.346 797.687 492.659
1449 0 45.2197 15.1262 684 130.485 797.69 492.744
1450 0 47.1532 16.9872 801 126.524 797.513 490.851
1451 0 49.2078 15.7495 775 129.916 797.488 491.394
1452 0 51.0923 16.4995 843 127.689 797.415 491.136
1453 0 52.1826 16.1165 841 129.249 796.628 489.716
1454 0 55.4114 16.7114 926 127.308 796.815 488.434
1455 0 54.2302 15.6186 847 133.523 797.413 487.609
1456 0 60.122 18.0965 1088 122.76 796.974 487.619
1457 0 61.0829 16.4694 1006 127.662 797.427 486.769
1458 0 63.2429 16.9031 1069 123.558 797.08 486.527
1459 0 65.0486 17.8789 1163 122.382 797.157 484.485
1460 0 66.2144 16.9601 1123 126.378 797.809 484.026
1461 0 68.2658 17.5051 1195 123.232 797.674 483.505
1462 0 70.127 17.5539 1231 121.89 797.316 483.845
1463 0 73.1705 18.491 1353 120.444 797.503 480.662
1464 0 74.1713 16.9607 1258 124.571 797.978 480.555
1465 0 77.0683 16.7384 1290 124.609 798.317 480.143
1466 0 79.1157 18.4161 1457 122.111 797.48 476.268
1467 0 83.1192 19.5863 1628 119.794 798.19 476.535
1468 0 85.0743 18.0313 1534 124.633 797.589 474.757
1469 0 86.157 17.3056 1491 128.518 798.254 473.214
1470 0 91.1819 15.7049 1432 131.328 797.542 473.604
1471 0 93.1604 16.4018 1528 131.115 797.06 469.986
1472 0 99.2666 18.6367 1850 124.882 796.719 468.462
1473 0 103.18 18.0947 1867 126.074 796.77 466.168
1474 1 58.0713 15.326 890 133.86 797.004 487.183
1475 0 61.0294 16.5658 1011 130.576 797.01 484.122
1476 0 65.0967 18.2805 1190 124.34 796.462 483.701
1477 0 65.1548 15.8853 1035 132.033 796.99 483.414
1478 0 69.14 20.2054 1397 120.931 797.015 481.13
1479 0 70.0681 17.0834 1197 129.366 797.123 479.539
1480 0 72.0314 15.8542 1142 132.196 797.351 478.391
1481 0 76.1729 17.4603 1330 127.251 797.317 476.997
1482 0 78.1354 17.4057 1360 128.364 796.862 475.869
1483 0 80.0738 17.6212 1411 128.67 796.916 475.662
1484 0 83.0847 17.7169 1472 130.323 796.632 472.285
1485 0 85.1326 17.0557 1452 131.939 796.883 472.118
1486 0 87.1715 17.001 1482 133.63 796.925 467.474
1487 0 91.1165 17.3953 1585 131.456 796.583 466.777
1488 0 93.0897 16.9944 1582 132.562 796.638 467.39
1489 0 98.3722 19.3144 1900 122.999 796.682 464.354
1490 0 102.315 16.2439 1662 129.973 796.433 460.884
1491 0 106.133 18.4485 1958 122.949 796.774 459.424
1492 0 108.345 16.7705 1817 130.501 796.48 458.308
1493 0 112.285 17.4021 1954 131.956 796.349 453.25
1494 1 59.1385 14.1025 834 134.844 796.329 479.561
1495 0 58.0861 14.9433 868 130.915 795.707 480.689
1496 0 59.1505 14.8773 880 130.318 795.785 479.817
1497 0 63.1765 15.0689 952 129.546 796.182 477.411
1498 0 64.1403 14.3903 923 133.688 796.115 475.28
1499 0 65.2053 13.9252 908 134.709 796.123 474.611
1500 0 70.2748 15.2259 1070 130.456 795.89 473.462
1501 0 71.1601 15.4581 1100 129.675 796.105 472.857
1502 0 72.1351 14.0154 1011 134.757 795.882 470.569
1503 0 79.3246 15.2916 1213 126.802 795.315 472.365
1504 0 81.2907 14.7495 1199 134.069 796.069 468.848
1505 0 82.2465 14.9307 1228 142.036 796.896 467.691
1506 0 84.2765 15.0457 1268 147.926 797.027 466.293
1507 0 85.2564 13.7702 1174 151.138 797.121 467.086
1508 0 88.1381 14.6702 1293 148.117 795.843 467.425
1509 0 88.212 15.0433 1327 150.032 796.454 465.425
1510 0 90.1759 13.9727 1260 154.33 795.969 467.165
1511 0 91.2403 13.3055 1214 150.787 795.948 464.307
1512 0 93.0772 14.5148 1351 148.116 795.902 463.23
1513 0 93.1517 12.9144 1203 151.029 795.219 463.657
1514 0 98.1064 13.8115 1355 147.72 795.621 462.633
1515 0 100.327 13.7251 1377 149.95 795.421 459.028
1516 0 102.625 13.4373 1379 149.837 796.301 458.962
1517 0 107.321 13.986 1501 147.92 795.443 454.9
1518 0 111.482 13.3833 1492 149.698 795.115 454.148
1519 1 53.3961 9.94455 531 115.382 796.04 490.375
1520 0 55.2262 9.75986 539 118.655 795.614 485.801
1521 0 58.2206 10.2885 599 118.785 796.676 485.095
1522 0 59.311 7.43538 441 122.937 796.304 486.17
1523 1 28.1739 9.05093 255 117.035 796.871 500.761
1524 0 29.4357 7.81365 230 121.135 796.47 501.513
1525 0 31.1693 11.3252 353 111.589 796.943 499.555
1526 0 32.1734 9.57314 308 112.37 797.286 502.224
1527 0 32.1039 10.3726 333 112.357 796.174 501.009
1528 0 30.0815 10.0394 302 124.56 796.175 500.182
1529 0 30.046 10.3508 311 124.961 796.514 499.704
1530 0 33.1575 8.9874 298 125.312 795.983 501.292
1531 0 33.0096 7.60385 251 128.833 795.633 502.219
1532 0 33.0211 10.6296 351 123.823 795.422 500.744
1533 0 34.0521 9.83787 335 128.54 795.119 500.501
1534 0 33.0567 8.6518 286 133.846 795.5 500.129
1535 0 36.0118 10.9131 393 128.239 795.573 499.774
1536 0 36.0672 9.28821 335 133.4 794.821 499.161
1537 0 37.0947 10.1093 375 132.651 795.259 498.179
1538 0 37.0627 11.0084 408 130.262 795.365 497.782
1539 0 41.0863 11.2203 461 127.36 795.139 497.035
1540 0 41.0554 10.4006 427 130.211 794.932 496.033
1541 0 40.1216 8.72348 350 133.366 794.743 496.763
1542 0 43.0483 10.4069 448 129.585 795.938 495.877
1543 0 44.0586 10.6676 470 127.853 795.649 496.189
1544 0 45.0777 10.3377 466 127.792 795.039 495.195
1545 0 45.1107 9.53211 430 129.151 794.928 493.619
1546 0 48.1385 10.2205 492 123.764 795.862 493.878
1547 0 48.0873 9.81548 472 125.284 795.267 492.956
1548 0 55.0857 7.62448 420 127.15 794.945 493.314
1549 0 55.2891 8.66355 479 126.695 794.722 491.236
1550 0 56.2082 9.25133 520 124.64 795.183 491.504
1551 0 55.018 10.9964 605 122.628 794.385 488.375
1552 0 56.3638 9.04836 510 126.469 794.3 485.596
1553 0 58.3019 8.61036 502 126.227 793.904 485.671
1554 0 59.349 10.4972 623 130.077 793.496 483.573
1555 0 62.1083 8.29197 515 132.303 792.759 485.231
1556 0 64.2023 9.90619 636 129.042 794.005 484.215
1557 1 37.0894 9.65235 358 122.994 793.494 496.821
1558 0 39.1085 10.7394 420 118.224 793.226 495.464
1559 0 37.1522 8.9093 331 121.837 792.837 494.924
1560 0 40.3028 9.65195 389 118.679 794.419 493.81
1561 0 40.3899 10.9928 444 116.266 794.25 492.311
1562 0 41.3156 9.05226 374 119.519 794.382 491.655
1563 0 42.2405 8.85406 374 119.104 794.495 490.914
1564 0 49.2697 12.7056 626 107.973 795.431 491.268
1565 0 51.2459 10.8887 558 111.509 796.05 490.446
1566 0 51.3719 11.5822 595 110.98 795.724 488.316
1567 0 52.3686 12.1065 634 112.659 795.65 487.923
1568 0 55.5073 13.5658 753 108.639 795.558 487.141
1569 0 55.1645 12.0549 665 111.835 796.129 487.101
1570 0 57.2246 13.0189 745 109.796 795.995 487.132
1571 0 58.2708 13.0082 758 110.666 795.632 485.02
1572 0 59.3178 12.2729 728 112.701 795.091 484.78
1573 0 59.2504 12.6919 752 111.691 794.436 485.79
1574 0 61.3523 11.2465 690 115.128 795.152 484.68
1575 0 64.292 14.1075 907 110.267 795.47 481.716
1576 0 66.3771 13.0015 863 112.976 794.914 483.408
1577 0 69.4269 12.4159 862 114.756 795.038 481.03
1578 0 72.5084 14.8948 1080 110.139 795.211 480.13
1579 0 74.5013 13.5702 1011 114.067 794.739 478.778
1580 0 75.4038 12.9834 979 118.021 794.81 477.152
1581 0 75.1249 12.406 932 114.44 794.7 479.4
1582 0 75.1833 11.5185 866 116.573 795.441 478.688
1583 0 79.1098 10.9468 866 117.309 795.219 477.926
1584 0 83.1653 13.2627 1103 114.193 795.54 473.681
1585 0 85.2649 12.8306 1094 118.732 795.546 472.221
1586 0 88.1484 13.0235 1148 117.79 795.144 472.356
1587 0 92.151 12.6531 1166 121.744 793.776 472.286
1588 0 95.1594 12.9887 1236 121.231 794.182 470.562
1589 0 98.1436 11.4628 1125 124.451 793.691 469.373
1590 0 102.255 11.9603 1223 123.053 793.934 468.489
1591 0 104.195 11.824 1232 124.922 793.926 468.351
1592 0 107.199 12.9759 1391 122.692 793.364 463.808
1593 0 111.362 12.1855 1357 125.685 793.029 461.387
1594 0 113.41 11.7009 1327 126.604 793.093 458.173
1595 1 60.2296 11.2735 679 123.862 793.392 485.617
1596 0 63.1354 12.0376 760 123.892 794.079 484.066
1597 0 60.1113 12.3604 743 116.799 793.829 487.38
1598 0 63.21 11.2799 713 119.073 794.065 486.574
1599 0 65.1863 11.7356 765 115.89 794.231 486.014
1600 0 68.1111 13.6248 928 111.695 794.317 483.22
1601 0 69.1943 12.0386 833 115.576 794.146 483.411
1602 0 71.3311 12.1406 866 117.014 794.009 479.674
1603 0 74.2196 11.5468 857 116.935 793.991 482.207
1604 0 76.2475 10.8856 830 118.353 794.177 479.507
1605 0 80.2556 11.7001 939 116.029 794.311 477.967
1606 0 82.1511 11.3449 932 116.409 794.104 475.127
1607 0 88.2214 10.8477 957 107.324 794.492 476.1
1608 0 88.1557 9.8689 870 109.555 794.214 473.94
1609 0 93.4031 11.0275 1030 108.674 794.436 468.72
1610 1 47.1568 9.43661 445 106.31 794.87 491.897
1611 0 49.1397 10.6024 521 117.33 793.956 490.484
1612 0 48.1214 9.10198 438 119.53 794.29 490.304
1613 0 50.0682 10.7853 540 106.335 794.411 490.246
1614 0 53.0949 11.3194 601 104.629 794.488 489.589
1615 0 56.314 10.6368 599 104.71 793.659 487.928
1616 0 56.3495 11.6949 659 101.703 793.948 488.517
1617 0 58.2635 10.3839 605 104.464 794.04 486.425
1618 0 61.1608 11.3144 692 100.483 793.743 486.159
1619 0 65.1862 12.1191 790 96.3519 794.082 483.172
1620 0 67.1659 10.1391 681 98.094 793.711 480.646
1621 0 71.1882 10.4793 746 97.6877 793.146 480.071
1622 0 74.2369 12.9316 960 93.675 792.88 477.497
1623 0 73.1372 11.8271 865 96.3225 793.706 477.437
1624 0 79.1759 12.1375 961 94.2227 793.714 475.841
1625 0 83.2516 11.6634 971 95.4634 793.678 474.663
1626 0 85.3708 13.0958 1118 93.2147 793.213 473.305
1627 0 88.2398 12.0467 1063 94.0771 793.766 473.685
1628 0 91.2082 12.6853 1157 94.6162 793.787 470.057
1629 0 94.2968 12.0259 1134 96.1455 793.675 469.317
1630 1 51.1045 11.1732 571 96.3975 792.919 489.044
1631 0 53.2353 11.0453 588 95.8112 792.553 489.408
1632 0 58.0509 12.9541 752 91.9894 792.955 487.771
1633 0 57.1054 12.3456 705 96.9092 792.313 486.719
1634 0 57.063 12.53 715 91.035 793.036 488.754
1635 0 60.1149 14.2228 855 87.8842 793.337 485.743
1636 0 63.0902 13.98 882 87.2154 793.189 486.529
1637 0 63.102 12.8839 813 90.3887 793.001 484.958
1638 0 66.1238 13.5352 895 89.0972 792.543 482
1639 0 68.158 12.2363 834 90.8369 792.67 483.129
1640 0 69.1293 11.6159 803 91.1096 792.666 483.928
1641 0 74.0992 14.7235 1091 86.4675 793.073 477.468
1642 0 74.1394 13.7444 1019 88.2139 793.147 478.767
1643 0 76.1883 12.6791 966 90.6967 792.66 476.872
1644 0 79.2623 15.0513 1193 87.1324 793.358 474.571
1645 0 81.124 12.9062 1047 90.2178 792.995 475.086
1646 0 85.0507 12.957 1102 90.6933 793.372 473.413
1647 0 85.1162 13.2525 1128 89.9965 792.995 474.168
1648 0 91.1702 14.7197 1342 87.4091 793.197 469.749
1649 0 94.1143 12.7717 1202 90.0499 792.867 467.814
1650 0 99.1836 11.9173 1182 90.7775 792.771 467.409
1651 1 52.0446 12.5469 653 89.9449 792.729 489.335
1652 0 52.1912 12.1476 634 91.97 794.076 487.737
1653 0 55.3684 12.0466 667 91.1829 795.361 489.793
1654 0 55.4083 13.3734 741 92.1026 795.022 485.893
1655 0 56.3776 11.4585 646 97.0201 794.762 486.277
1656 0 57.4573 12.4788 717 94.5007 795.043 485.159
1657 0 58.4152 12.6851 741 93.8273 794.75 485.549
1658 0 61.417 12.2604 753 93.5511 794.112 487.588
1659 0 64.4347 13.89 895 92.1587 794.856 484.949
1660 0 64.3455 12.8059 824 97.2961 794.484 482.723
1661 0 67.3401 13.0383 878 95.3542 794.199 480.895
1662 0 71.4191 13.8758 991 91.4299 794.471 482.209
1663 0 72.2823 12.6725 916 93.9803 794.569 477.913
1664 0 73.3297 13.828 1014 92.1105 795.525 478.599
1665 0 76.3296 13.3893 1022 91.9638 794.899 478.932
1666 0 78.3146 13.3819 1048 93.1775 794.894 475.314
1667 0 79.2668 12.7039 1007 95.4449 795.116 474.542
1668 0 82.3537 13.5513 1116 93.5842 795.058 472.999
1669 0 85.3077 13.4923 1151 94.5717 795.417 471.288
1670 0 88.2509 14.98 1322 92.2481 794.772 475.148
1671 0 91.3255 13.6435 1246 96.7022 794.461 469.313
1672 0 95.3012 13.9663 1331 95.8032 794.024 467.079
1673 0 97.2349 13.9045 1352 97.2722 794.464 466.129
1674 0 100.246 13.6265 1366 98.5066 794.689 464.277
1675 0 104.234 13.2394 1380 97.7355 794.338 465.143
1676 0 106.353 12.261 1304 99.2048 794.387 463.712
1677 1 55.1124 11.3768 627 95.7847 796.077 488.357
1678 0 58.1604 11.8122 687 94.0262 795.76 484.766
1679 0 58.0549 13.315 773 92.2639 792.787 488.292
1680 0 62.0747 12.9843 806 91.4132 792.144 487.046
1681 0 61.0852 11.6722 713 94.9285 791.851 486.459
1682 0 65.0156 12.92 840 91.4012 792.521 483.231
1683 0 66.063 12.9422 855 91.3088 792.698 485.359
1684 0 68.0426 12.4775 849 93.3828 792.629 481.607
1685 0 71.0932 12.983 923 92.1614 792.588 479.347
1686 0 73.0661 11.907 870 94.3471 791.974 478.941
1687 0 76.0614 13.7257 1044 91.9579 791.978 474.986
1688 0 77.0593 12.1335 935 96.4171 792.357 475.937
1689 0 82.1072 12.5933 1034 94.4139 791.668 475.278
1690 0 82.0934 11.5478 948 97.8956 792.165 472.327
1691 0 85.1529 12.4952 1064 96.1034 792.81 475.976
1692 0 89.0942 13.8617 1235 95.4162 792.731 471.077
1693 0 92.1983 13.7638 1269 95.3617 792.608 471.017
1694 0 93.1677 12.6331 1177 99.7884 792.208 468.077
1695 0 97.0925 13.7704 1337 98.2565 791.935 468.292
1696 0 101.204 14.199 1437 97.7766 792.729 465.157
1697 0 103.373 12.9144 1335 99.0787 792.245 465.398
1698 0 104.261 12.4112 1294 102.131 793.385 462.617