time division length width area intensity CMx CMy
0 0 42.2839 12.2742 519 136.303 653.212 479.574
1 0 40.2698 11.3485 457 144.558 653.853 478.33
2 0 42.1675 12.9009 544 137.094 653.311 478.062
3 0 43.3106 12.0756 523 138.906 653.388 478.163
4 0 45.2695 11.9065 539 137.709 654.054 478.651
5 0 46.2259 12.8716 595 138.891 654.145 476.271
6 0 49.2217 13.1852 649 144.465 652.767 477.418
7 0 48.109 12.5756 605 135.18 653.261 475.871
8 0 51.1353 13.0438 667 131.801 653.244 476.192
9 0 52.1607 13.8035 720 143.462 653.178 476.294
10 0 54.1686 12.2765 665 146.329 653.238 477.182
11 0 55.2082 13.5849 750 141.435 654.149 477.964
12 0 56.2927 13.643 768 141.15 653.652 477.68
13 0 57.2197 13.9987 801 138.516 653.414 477.261
14 0 59.2451 14.4822 858 135.618 652.695 477.717
15 0 58.1958 14.0216 816 138.391 653.197 476.624
16 0 61.087 14.1601 865 133.243 653.864 476.228
17 0 61.1496 12.1342 742 140.571 653.499 476.522
18 0 64.1802 14.5995 937 133.152 652.842 474.542
19 0 67.1225 14.8534 997 130.791 653.118 475.182
20 0 69.1539 13.4483 930 133.178 652.826 472.783
21 0 72.2094 14.0979 1018 130.503 652.937 473.01
22 0 74.1428 13.7707 1021 130.778 652.272 471.365
23 0 73.0843 13.2723 970 134.202 652.525 470.912
24 0 79.166 13.0612 1034 132.525 653.008 470.169
25 0 81.2205 13.2971 1080 129.818 652.424 469.345
26 1 43.0822 12.1396 523 135.734 653.168 487.153
27 0 44.0826 11.1835 493 138.292 652.584 487.852
28 0 47.0091 12.4869 587 135.457 653.136 486.203
29 0 47.122 13.0512 615 135.47 651.203 483.558
30 0 49.2471 14.1734 698 132.057 651.649 485.361
31 0 48.2132 13.3158 642 138.266 651.335 483.682
32 0 51.2521 14.1848 727 134.829 651.34 482.806
33 0 54.2956 13.3344 724 134.394 651.468 483.479
34 0 56.1587 14.0673 790 131.57 651.29 482.823
35 0 57.2147 14.1222 808 130.627 650.735 481.903
36 0 58.218 13.5697 790 131.739 651 481.646
37 0 59.1887 13.0599 773 132.356 650.898 480.794
38 0 62.2045 12.6197 785 128.321 651.289 479.403
39 0 64.2099 14.6862 943 122.481 650.754 477.604
40 0 65.1178 13.5447 882 124.177 650.8 477.942
41 0 66.1162 12.0999 800 125.731 651.178 477.836
42 0 71.2165 13.6485 972 119.815 651.201 476.63
43 0 73.2083 14.0558 1029 118.151 650.842 474.777
44 0 75.1757 13.6613 1027 119.28 650.663 472.445
45 0 77.0781 13.0776 1008 119.719 650.575 473.811
46 0 81.1639 13.4419 1091 117.447 650.038 470.42
47 0 84.0831 12.9872 1092 119.59 649.824 467.863
48 0 88.1361 14.0238 1236 116.731 650.295 467.786
49 0 88.167 13.1682 1161 120.658 650.122 466.874
50 0 92.1114 12.5826 1159 120.764 650.316 465.506
51 0 95.1124 13.258 1261 120.565 650.136 461.69
52 0 100.128 13.3628 1338 120.094 649.775 461.073
53 1 55.0249 12.9214 711 123.249 650.412 480.875
54 0 56.1081 12.868 722 122.841 647.825 480.266
55 0 57.0819 13.0865 747 117.799 649.282 482.195
56 0 58.1565 13.6356 793 117.082 649.817 482.411
57 0 60.1405 13.8343 832 115.137 650.129 481.43
58 0 63.1345 13.7801 870 115.286 650.022 480.446
59 0 66.1306 12.6568 837 115.663 649.829 480.767
60 0 67.1659 13.757 924 113.673 649.699 479.943
61 0 68.2392 14.0975 962 113.27 649.563 476.873
62 0 70.1807 12.0403 845 118.021 650.396 479.162
63 0 72.095 13.08 943 116.139 650.38 476.929
64 0 77.2278 13.9199 1075 112.469 649.781 475.95
65 0 80.1109 14.3676 1151 111.801 649.16 472.946
66 0 83.1142 13.704 1139 111.673 649.985 472.629
67 0 84.2085 13.1697 1109 113.464 650.154 468.702
68 0 90.251 13.9389 1258 110.205 649.749 468.581
69 0 92.1959 14.1763 1307 111.725 649.044 464.563
70 0 95.2837 12.8668 1226 114.727 648.76 464.577
71 0 99.1747 12.7956 1269 116.119 648.444 462.865
72 0 103.188 13.1798 1360 114.004 648.973 461.743
73 1 54.1265 11.7872 638 109.227 649.157 487.174
74 0 58.0764 10.9683 637 107.851 649.093 483.107
75 0 61.1169 11.928 729 105.986 649.797 482.564
76 0 63.1774 12.3779 782 106.405 646.839 482.223
77 0 66.2477 12.9212 856 111.972 647.817 478.665
78 0 69.3085 13.1874 914 110.442 647.503 478.857
79 0 70.3727 12.7322 896 111.989 648.052 478.045
80 0 74.317 13.8192 1027 109.986 647.978 477.193
81 0 76.3678 12.9898 992 111.976 647.657 475.923
82 0 77.4741 12.7526 988 113.494 647.391 471.323
83 0 81.3012 13.5422 1101 112.965 647.717 471.938
85 0 84.2594 13.5534 1142 116.385 647.863 470.969
86 0 86.2317 12.8491 1108 117.276 648.064 471.264
87 0 88.2004 14.2176 1254 116.508 648.126 469.42
88 0 93.2836 13.6787 1276 118.465 648.217 468.299
89 0 93.3069 12.9572 1209 122.361 648.203 465.132
90 0 99.3847 14.5093 1442 116.696 647.32 463.94
91 1 51.1457 11.086 567 112.531 648.071 482.145
92 0 55.0871 11.6361 641 110.406 647.151 484.992
93 0 51.0411 10.3054 526 108.095 647.591 482.53
94 0 55.1406 11.1352 614 109.332 647.145 482.479
95 0 59.087 11.0346 652 107.87 648.113 483.768
96 0 61.0755 11.7068 715 107.222 648.674 483.674
97 0 62.0703 11.6803 725 108.68 648.517 481.24
98 0 65.0934 11.7063 762 106.853 648.238 480.734
99 0 68.0817 11.8975 810 107.385 648.44 475.074
100 0 69.1202 11.4583 792 109.763 648.385 476.687
101 0 72.0738 13.3058 959 104.308 648.597 478.754
102 0 72.0877 12.0409 868 109.336 648.656 475.258
104 0 78.1519 12.3477 965 108.997 648.516 473.777
105 0 79.1179 12.0706 955 109.931 648.593 472.637
106 0 81.1244 13.0294 1057 110.291 648.357 469.623
107 0 85.2311 12.2608 1045 110.634 648.633 471.468
108 0 85.1266 11.759 1001 114.184 648.119 467.276
109 0 89.2051 11.8715 1059 115.193 648.518 467.052
110 0 93.0738 12.0979 1126 116.426 647.486 464.878
111 0 95.1614 11.759 1119 118.535 646.979 463.845
112 0 100.166 11.6506 1167 121.815 647.172 465.207
113 0 103.192 12.4719 1287 118.913 647.267 464.655
114 0 107.128 11.4162 1223 118.836 647.801 466.724
115 1 59.1436 10.9226 646 119.441 648.52 485.48
116 0 61.2323 11.2686 690 118.959 648.27 483.096
117 0 61.0946 11.7195 716 103.209 647.275 477.878
118 0 64.1459 11.9883 769 107.412 648.675 478.194
119 0 63.0917 11.1108 701 104.68 647.703 478.123
120 0 65.1191 10.9338 712 106.154 647.125 474.758
121 0 67.2143 10.5632 710 106.704 647.168 474.807
122 0 70.1397 10.8213 759 105.472 647.256 474.042
123 0 74.1008 11.6598 864 105.325 647.331 471.932
124 0 76.2663 12.1286 925 106.69 648.041 458.12
125 0 79.0764 12.1402 960 104.23 647.962 470.252
126 0 82.0555 12.5768 1032 105.128 647.488 469.448
127 0 83.1889 12.5858 1047 107.388 647.874 464.015
128 0 89.152 12.6189 1125 106.641 647.518 464.732
129 0 90.1947 11.9076 1074 108.95 648.082 462.896
130 0 93.1795 12.1164 1129 108.348 647.694 463.224
131 0 99.2892 12.3075 1222 115.655 648.474 462.609
132 0 104.188 13.015 1356 107.367 648.359 462.123
133 0 107.221 14.1297 1515 104.899 647.739 458.637
134 0 111.257 14.2193 1582 105.282 647.97 457.061
135 0 115.284 13.3323 1537 109.1 647.759 454.926
136 1 61.0837 10.9194 667 104.975 648.925 486.376
137 0 62.0658 12.5995 782 107.821 648.363 481.743
138 0 62.1194 10.0935 627 102.64 648.373 477.238
139 0 66.1389 11.9446 790 106.527 649.733 481.915
140 0 68.0819 12.6612 862 104.727 649.629 481.689
141 0 68.0819 12.6906 864 129.573 649.613 481.681
142 0 72.2388 13.0262 941 106.069 649.298 480.403
143 0 75.1275 13.9629 1049 104.91 649.622 474.643
144 0 76.2188 11.8606 904 110.936 649.769 473.712
145 0 80.2123 12.5293 1005 110.092 649.432 474.371
146 0 83.0665 13.1942 1096 109.716 650.047 471.668
147 0 84.2175 13.857 1167 109.404 649.262 470.609
148 0 87.1261 13.842 1206 109.908 649.186 469.847
149 0 89.1372 12.5088 1115 113.741 648.84 468.32
150 0 92.1547 13.9005 1281 110.325 648.146 465.884
151 0 97.1364 13.9186 1352 110.798 648.292 466.534
152 0 98.1969 13.9006 1365 114.065 648.244 464.975
153 0 100.263 13.9035 1394 115.362 648.125 461.202
154 0 105.165 14.6817 1544 111.618 648.725 462.834
155 0 108.199 13.6138 1473 114.115 648.487 462.688
156 0 111.235 13.3771 1488 116.269 647.698 457.628
157 0 115.263 13.1178 1512 116.987 647.8 455.497
158 0 120.283 14.4576 1739 116.316 647.996 454.285
159 0 123.12 14.7174 1812 116.72 647.933 453.006
160 0 127.407 13.7826 1756 120.513 647.314 449.99
161 0 134.278 15.4008 2068 121.68 645.784 446.051
162 1 66.187 10.6365 704 117.369 646.743 472.018
163 0 70.2133 11.3226 795 110.166 647.662 473.367
164 0 74.1082 11.0109 816 110.94 647.586 473.333
165 0 76.1605 10.688 814 112.543 647.979 472.072
166 0 79.2724 11.7443 931 110.556 647.477 470.924
167 0 83.1585 11.7607 978 110.53 647.667 470.3
168 0 82.1327 11.384 935 113.624 648.37 468.47
169 0 87.1653 11.4839 1001 113.132 648.042 466.957
170 0 87.1797 12.1588 1060 113.051 648.153 466.908
171 0 92.1978 12.4406 1147 112.724 648.221 464.887
172 0 94.0892 12.0311 1132 114.983 647.393 461.845
173 0 98.1426 12.2373 1201 115.558 647.357 444.669
174 0 99.1522 12.7279 1262 113.978 647.625 459.411
175 0 104.175 13.151 1370 112.879 647.444 457.993
176 0 105.184 12.0265 1265 115.627 647.438 456.801
177 0 110.24 12.7087 1401 117.249 648.001 456.62
178 0 115.303 14.6831 1693 118.943 647.827 455.829
179 0 119.233 13.7713 1642 120.33 647.694 455.252
180 0 122.252 13.5294 1654 121.653 647.153 453.434
181 1 65.1414 10.6845 696 128.07 648.886 479.318
182 0 66.1041 10.6347 703 115.138 648.478 475.95
183 0 68.0611 11.1371 758 107.175 647.127 477.753
184 0 77.1539 13.8813 1071 95.3268 647.937 471.281
185 0 72.088 11.4305 824 108.835 648.249 471.32
186 0 75.1162 10.6369 799 110.832 647.732 470.101
187 0 76.1102 11.4308 870 111.329 647.357 471.697
188 0 79.2452 10.8019 856 112.127 646.513 469.481
189 0 82.139 11.4197 938 111.761 647.106 470.114
190 0 85.1128 10.7739 917 111.859 646.851 467.749
191 0 88.1503 12.9325 1140 108.253 646.477 465.238
192 0 91.1763 12.1413 1107 111.939 646.87 463.696
193 0 93.1149 12.2537 1141 114.436 646.683 460.025
194 0 96.2232 11.9618 1151 114.51 646.291 459.46
195 0 100.165 11.9503 1197 114.474 646.252 458.462
196 1 52.1089 9.19229 479 103.338 647.532 486.217
197 0 53.0467 11.2354 596 103.369 646.406 483.169
198 0 55.1226 12.2636 676 106.37 647.135 485.275
199 0 59.1773 13.5356 801 109.87 648.308 484.22
200 0 60.0363 12.5424 753 110.487 648.845 484.036
201 0 62.0292 14.332 889 106.118 648.862 483.236
202 0 63.1943 13.4348 849 108.205 648.693 483.161
203 0 66.0731 14.4083 952 104.659 648.378 481.524
204 0 67.1787 12.6231 848 103.237 647.678 471.513
205 0 67.0907 12.8334 861 105.581 648.106 477.866
206 0 71.0833 13.1255 933 109.657 648.458 479.76
207 0 75.1733 13.3026 1000 108.881 648.252 479.003
208 0 76.1392 13.3046 1013 107.7 648.193 479.208
209 0 78.0638 13.8476 1081 107.646 647.611 477.075
210 0 81.1159 13.4376 1090 110.168 647.97 474.452
211 0 84.1193 13.0767 1100 110.201 647.682 473.954
212 0 85.232 12.5305 1068 111.606 648.037 472.176
213 0 90.0796 13.8877 1251 108.437 647.222 469.564
214 0 93.1003 13.1901 1228 111.183 647.292 469.424
215 0 94.2728 13.026 1228 114.344 648.002 468.02
216 1 48.0848 11.6877 562 118.518 648.171 489.58
217 0 51.0255 13.1307 670 111.396 648.521 489.645
218 0 52.0485 11.912 620 109.637 648.181 488.131
219 0 54.1383 13.2069 715 106.015 649.192 489.281
220 0 53.1295 12.7424 677 110.812 648.889 488.61
221 0 54.1277 12.1934 660 110.689 648.276 487.502
222 0 58.0636 14.2947 830 105.446 648.461 485.283
223 0 59.1797 12.7409 754 109.202 648.301 486.069
224 0 60.1085 12.6438 760 109.972 647.968 485.128
225 0 65.1896 15.0024 978 103.522 648.253 484.192
226 0 65.1105 13.0394 849 110.284 647.592 481.264
227 0 66.099 12.92 854 112.643 647.227 480.67
228 0 69.1794 14.0649 973 110.288 647.304 480.222
229 0 72.2185 14.5115 1048 108.513 647.077 478.305
230 0 74.2312 14.8186 1100 109.202 647.374 478.765
231 0 76.1547 13.8271 1053 111.844 647.581 478.962
232 0 79.2024 13.9263 1103 111.928 647.862 477.505
233 0 82.1796 14.7482 1212 113.755 647.192 474.046
234 0 83.294 13.8786 1156 116.266 646.976 473.571
235 0 87.2462 13.674 1193 116.839 647.967 471.4
236 0 90.187 14.6141 1318 114.338 648.644 470.417
237 0 91.1082 12.9626 1181 118.343 648.461 468.524
238 0 96.1802 14.4624 1391 110.945 648.52 467.446
239 0 99.0824 13.2819 1316 114.847 648.973 466.316
240 1 51.1209 12.1086 619 106.601 648.979 489.796
241 0 52.2127 11.7021 611 108.183 647.9 489.34
242 0 54.0982 12.9394 700 109.159 648.013 486.551
243 0 57.3669 13.5095 775 108.432 647.905 487.6
244 0 56.3183 12.4116 699 112.219 647.644 487.066
245 0 59.3652 13.4085 796 109.441 647.786 485.315
246 0 62.2817 13.6156 848 107.343 647.679 484.689
247 0 61.1923 13.0899 801 110.489 647.547 484.258
248 0 64.2609 12.8694 827 112.102 648.288 482.169
249 0 64.2393 12.2978 790 113.977 647.946 481.908
250 0 67.2131 12.9142 868 112.571 647.938 480.275
251 0 69.2891 12.3252 854 113.864 647.239 479.151
252 0 72.2888 12.7959 925 112.387 647.595 477.874
253 0 73.2285 13.3828 980 112.705 647.851 476.414
254 0 75.261 12.636 951 114.98 647.655 476.609
255 0 79.2383 14.286 1132 110.88 647.8 475.617
256 0 80.2744 12.968 1041 114.259 648.249 474.875
257 0 83.1898 12.778 1063 114.633 647.571 473.881
258 0 86.1946 12.6342 1089 115.898 647.524 470.883
259 0 87.43 12.7416 1114 114.972 647.476 469.378
260 0 91.1749 13.008 1186 114.03 646.86 467.193
261 0 92.1578 13.3684 1232 113.351 648.287 467.575
262 1 50.0594 11.5663 579 106.756 648.437 490.473
263 0 52.049 12.469 649 103.604 648.248 489.205
264 0 51.1026 11.0562 565 108.667 647.95 488.533
265 0 54.0911 12.405 671 105.87 648.192 487.55
266 0 53.1535 11.9089 633 110.761 648.438 485.85
267 0 56.0588 12.2015 684 104.3 648.335 486.156
268 0 58.0713 12.2263 710 104.631 648.596 484.754
269 0 58.1107 11.9255 693 105.15 649.006 484.219
270 0 62.1041 12.5434 779 102.958 648.644 484.325
271 0 64.2004 13.0996 841 102.775 648.222 482.851
272 0 68.0963 13.525 921 101.676 647.75 481.498
273 0 68.1515 12.9711 884 104.334 648.704 478.519
274 0 71.1595 13.8702 987 102.838 647.625 479.619
275 0 73.1199 13.0334 953 105.242 647.526 477.695
276 0 76.1539 14.7333 1122 101.58 647.392 476.943
277 0 77.096 14.0604 1084 104.887 647.973 475.444
278 0 80.2026 14.426 1157 104.434 647.299 475.829
279 0 81.1214 14.1516 1148 107.332 647.382 472.611
280 0 85.172 14.4531 1231 104.383 647.535 470.415
281 0 85.1291 12.7806 1088 108.4 648.514 470.435
282 0 90.0702 14.1223 1272 110.838 648.167 467.564
283 0 93.0866 16.0281 1492 106.504 647.376 466.716
284 0 96.1173 14.1806 1363 104.908 647.822 466.251
285 0 98.0927 12.7227 1248 114.337 647.284 462.464
286 1 48.1134 10.309 496 102.56 647.923 486.599
287 0 51.1785 10.9225 559 103.946 646.499 485.036
288 0 52.1349 12.2567 639 105.607 648.105 489.369
289 0 55.1147 13.9527 769 101.887 647.723 486.86
290 0 56.2115 13.3425 750 103.887 647.817 486.927
291 0 59.1174 13.1433 777 104.09 648.744 487.234
292 0 59.1002 12.2165 722 106.314 648.424 486.089
293 0 62.0891 14.8174 920 100.795 648.448 483.364
294 0 63.0789 13.8557 874 106.245 648.756 482.537
295 0 64.1136 12.3063 789 107.738 649.195 483.798
296 0 67.134 13.5103 907 106.518 648.331 480.94
297 0 70.1286 12.6625 888 109.5 648.624 479.428
298 0 72.127 12.9771 936 109.502 648.712 477.798
299 0 75.0995 14.7937 1111 105.36 648.112 475.995
300 0 76.1287 12.9386 985 109.91 647.515 476.011
301 0 82.1707 14.4699 1189 105.129 647.643 476.278
302 0 82.1402 12.9656 1065 109.858 646.977 474.1
303 0 88.2886 14.1581 1250 106.362 647.184 473.409
304 0 88.1311 13.8998 1225 110.136 647.013 470.602
305 1 48.0993 11.7257 564 111.188 648.144 491.287
306 0 50.1286 12.5278 628 107.231 648.729 491.406
307 0 49.101 11.4458 562 111.109 648.331 491.117
308 0 50.2665 11.817 594 111.818 647.21 489.542
309 0 51.3182 12.1984 626 111.815 647.657 487.174
310 0 51.2995 11.3841 584 113.817 647.473 488.053
311 0 56.2002 12.5444 705 111.515 646.855 485.46
312 0 57.2063 12.7259 728 110.081 647.173 486.431
313 0 58.2255 12.5546 731 111.483 647.1 484.945
314 0 61.2066 12.564 769 111.908 646.993 483.226
315 0 61.2969 13.0675 801 113.106 646.803 479.979
316 0 65.2267 12.8322 837 113.043 646.814 481.562
317 0 65.2368 12.6922 828 113.948 647.157 481.083
318 0 69.3702 13.5072 937 110.618 646.874 478.464
319 0 72.2894 14.1514 1023 107.997 647.102 477.563
320 0 74.316 13.8463 1029 109.333 646.853 474.808
321 0 75.207 12.685 954 112.734 647.334 474.21
322 0 80.212 13.5017 1083 109.847 647.239 473.073
323 0 78.3069 11.8125 925 115.337 647.356 473.634
324 1 43.0746 12.0721 520 108.488 648.188 492.369
325 0 43.1224 11.7804 508 109.268 648.465 491.947
326 0 42.1288 10.3729 437 107.014 648.65 493.334
327 0 43.1295 12.3581 533 104.6 648.848 491.165
328 0 47.1527 12.2581 578 103.685 649.061 486.258
329 0 47.0308 11.3968 536 105.849 649.17 491.729
330 0 51.1246 11.6382 595 104.627 648.766 489.489
331 0 50.1018 10.4986 526 108.297 649.044 490.629
332 0 53.1023 12.5795 668 104.244 649.449 488.38
333 0 54.1627 12.3332 668 104.783 649.31 488.985
334 0 56.1312 11.5622 649 106.47 648.786 486.781
335 0 57.1482 13.1413 751 104.154 648.782 486.233
336 0 60.1596 12.3172 741 105.943 648.382 486.518
337 0 63.2143 13.0508 825 105.006 648.673 484.725
338 0 63.162 12.8083 809 106.571 648.294 482.468
339 0 64.1823 11.8724 762 109.615 647.822 481.367
340 0 67.1637 12.5663 844 108.217 648.001 482.224
341 0 72.1035 12.8427 926 108.396 648.19 474.877
342 0 73.2464 12.4238 910 109.699 648.309 481.179
343 0 77.1169 12.8377 990 109.686 648.705 477.877
344 0 78.0858 12.5631 981 110.986 648.787 476.264
345 0 81.3663 12.1795 991 110.836 648.478 476.309
346 1 43.2888 10.8342 469 111.305 648.806 495.072
347 0 42.1736 11.7372 495 110.194 649.065 494.303
348 0 44.278 11.4956 509 112.896 647.281 492.45
349 0 46.429 13.0307 605 108.587 648.152 492.745
350 0 46.3425 12.7097 589 111.851 647.747 489.598
351 0 47.2273 11.5611 546 115.079 648.289 490.002
352 0 49.1877 12.1779 599 114.274 649.055 489.803
353 0 52.2349 13.3627 698 111.019 648.191 487.854
354 0 53.4049 12.4708 666 112.8 647.985 487.245
355 0 54.3071 11.8769 645 114.279 648.175 486.177
356 0 56.3341 13.0472 735 112.127 647.465 485.99
357 0 55.1118 11.6672 643 116.348 647.429 485.378
358 0 57.2299 12.3362 706 114.473 647.693 484.188
359 0 61.2555 14.2028 870 108.744 647.963 482.806
360 0 63.2132 13.1143 829 111.426 647.311 482.548
361 0 66.1709 12.6188 835 113.249 647.937 479.867
362 0 67.1879 12.6511 850 112.915 648.091 482.367
363 0 71.2645 14.0182 999 109.86 648.182 479.191
364 0 72.1551 12.5563 906 114.411 647.969 474.819
365 0 75.121 12.9391 972 112.961 648.143 476.669
366 1 40.0477 11.8858 476 107.616 649.697 495.559
367 0 39.058 12.2382 478 106.059 649.268 495.605
368 0 40.0679 10.5571 423 109.447 649.319 495.939
369 0 44.0817 11.9778 528 107.485 650.138 494.106
370 0 42.04 11.9172 501 107.768 649.727 493.575
371 0 46.0788 13.0429 601 104.095 649.451 494.145
372 0 47.069 12.1099 570 106.328 649.481 493.765
373 0 47.0484 12.4553 586 106.609 649.858 492.892
374 0 48.1544 12.3768 596 107.247 649.785 492.708
375 0 51.0483 13.5166 690 105.057 648.909 489.657
376 0 52.1135 12.5303 653 108.407 648.835 491.368
377 0 55.1043 14.3365 790 104.423 647.971 489.196
378 0 53.1081 12.5216 665 110.707 648.426 489.062
379 0 57.1058 12.7483 728 108.842 648.874 488.391
380 0 59.0947 12.9961 768 109.406 648.422 487.038
381 0 61.1225 13.1539 804 108.6 647.961 485.369
382 0 63.1571 13.4743 851 109.06 648.009 483.347
383 0 65.1631 13.4892 879 107.563 648.163 483.436
384 0 66.1579 13.3771 885 109.302 648.99 482.388
385 0 69.1259 13.4392 929 110.146 648.795 481.953
386 0 72.1003 13.4673 971 110.567 648.708 480.047
387 0 72.1031 13.4807 972 110.924 648.778 480.405
388 0 77.1539 14.3739 1109 108.569 648.894 478.463
389 0 81.261 14.7303 1197 106.648 648.195 476.463
390 0 82.1762 13.9213 1144 109.378 648.444 475.034
391 0 85.1497 13.306 1133 111.401 648.476 473.078
392 0 87.0984 13.7086 1194 110.908 648.393 471.634
393 0 89.3429 12.0995 1081 112.358 648.003 472.52
394 1 48.2646 11.8721 573 116.457 648.393 491.148
395 0 48.1354 12.7141 612 110.592 648.253 481.092
396 0 51.0671 14.9215 762 102.974 648.647 486.085
397 0 51.1158 11.0729 566 110.534 648.938 493.115
398 0 53.098 12.637 671 107.823 649.072 489.93
399 0 55.2127 12.4609 688 109.462 648.522 489.689
400 0 56.0911 11.8022 662 109.101 649.252 489.295
401 0 59.2806 12.6686 751 90.8495 648.583 489.952
402 0 62.145 13.9512 867 104.617 648.609 485.677
403 0 62.2276 13.2256 823 106.413 648.707 485.704
404 0 65.219 12.6804 827 105.162 649.403 484.15
405 0 67.0887 11.9096 799 106 648.801 483.121
406 0 69.0953 14.328 990 101.414 648.698 481.037
407 0 71.1283 12.7797 909 104.717 649.402 480.862
408 0 73.1738 12.6548 926 106.527 647.553 479.378
409 0 75.3359 13.0482 983 107.462 647.885 477.11
410 0 78.3721 12.9893 1018 107.957 647.8 475.661
411 0 82.3611 14.0236 1155 104.887 647.958 476.392
412 0 84.4895 11.9423 1009 107.003 647.792 474.53
413 0 88.2269 12.2752 1083 105.86 647.473 473.611
414 0 89.385 11.9819 1071 106.762 646.953 470.283
415 0 95.3776 13.651 1302 102.708 647.027 466.788
416 1 47.1226 11.9475 563 105.064 645.957 492.922
417 0 45.2065 11.7682 532 106.867 645.925 491.643
418 0 50.1113 12.8115 642 103.293 645.958 489.793
419 0 54.061 13.4293 726 103.813 645.725 489.629
420 0 54.0549 12.8758 696 106.556 645.415 488.537
421 0 56.0809 13.2844 745 104.839 645.451 488.114
422 0 58.0872 14.0478 816 104.168 645.746 486.52
423 0 58.0868 12.8945 749 108.529 645.94 485.907
424 0 62.1542 13.3378 829 107.089 645.7 485.268
425 0 63.1191 13.8627 875 107.779 646.073 484.018
426 0 64.0709 13.5319 867 110.206 645.497 482.772
427 0 68.0598 13.7379 935 109.556 646.02 481.82
428 0 71.0183 13.1938 937 108.712 645.602 481.407
429 0 72.0797 13.5683 978 110.414 646.613 477.84
430 0 74.0602 12.3413 914 113.244 646.609 478.928
431 0 75.0849 11.9731 899 115.245 646.249 477.356
432 0 81.1715 13.453 1092 108.801 648.218 478.788
433 1 42.0973 11.8772 500 108.148 648.794 495.948
434 0 43.1163 11.3646 490 108.986 648.549 495.514
435 0 45.145 11.8728 536 105.729 649.164 493.644
436 0 47.1145 12.7137 599 101.983 649.417 494.561
437 0 46.0819 12.9118 595 104.304 649.188 492.882
438 0 48.0701 11.9409 574 105.789 649.395 493.916
439 0 49.1681 12.7115 625 104.16 649.078 492.403
440 0 50.0687 12.2831 615 104.447 649.787 493.042
441 0 51.0724 13.0012 664 103.304 649.648 491.277
442 0 52.1387 12.5435 654 104.402 649.531 491.014
443 0 54.0557 13.5231 731 102.004 649.482 491.227
444 0 57.0457 13.7434 784 101.801 649.236 488.133
445 0 60.0435 13.6235 818 101.597 649.675 487.13
446 0 59.0886 12.5405 741 105.842 650.476 484.613
447 0 61.0626 13.5926 830 103.673 650.072 484.892
448 0 60.0731 11.6691 701 109.387 649.863 482.12
449 0 67.0861 13.4305 901 103.639 649.728 483.153
450 0 69.0983 12.9815 897 104.64 649.273 482.718
451 0 72.1155 13.6864 987 104.073 649.055 481.645
452 0 75.0788 12.7333 956 104.76 648.634 478.07
453 0 78.1033 12.7523 996 104.97 647.712 477.555
454 0 78.2254 13.231 1035 108.292 647.174 476.712
455 1 43.1758 11.8585 512 111.951 646.52 491.551
456 0 45.1514 11.7826 532 113.008 646.617 492.63
457 0 47.1863 12.6732 598 112.545 646.495 486.925
458 0 47.0908 12.0406 567 106.778 649.115 491.859
459 0 47.1016 12.2926 579 100.221 648.216 489.769
460 0 46.1107 10.4314 481 105.557 648.449 489.736
461 0 50.0779 12.4206 622 102.428 648.299 488.547
462 0 49.0535 11.8034 579 106.415 648.216 487.354
463 0 53.1474 13.2462 704 102.188 647.839 487.584
464 0 52.0474 12.8729 670 105.222 648.124 486.106
465 0 54.1238 13.1181 710 104.901 648.462 484.693
466 0 56.116 12.4029 696 107.654 648.614 485.109
467 0 58.1177 11.9413 694 110.34 648.233 485.961
468 0 58.0821 12.7406 740 108.168 647.743 484.504
469 0 58.1765 12.3417 718 111.256 648.38 485.435
470 0 59.1385 12.4285 735 114.396 648.189 482.437
471 0 63.0997 13.55 855 114.474 647.949 481.525
472 0 66.0675 13.8343 914 114.143 646.804 480.45
473 0 65.0563 11.4977 748 122.382 646.448 480.255
474 0 69.1686 13.6189 942 117.796 647.146 479.928
475 0 71.1705 13.4325 956 117.271 647.256 479.421
476 0 74.1102 14.2356 1055 115.355 647.892 477.75
477 0 77.1547 14.1663 1093 116.852 648.292 476.321
478 0 78.1828 14.9266 1167 116.523 647.903 474.627
479 0 80.1829 13.6812 1097 119.677 647.946 475.425
480 0 85.1716 15.3103 1304 113.719 647.538 472.468
481 0 87.287 14.2862 1247 115.999 648.092 471.608
482 0 90.1325 14.2346 1283 114.836 647.366 465.526
483 0 93.2129 14.8048 1380 115.018 647.023 465.253
484 1 47.1202 11.5237 543 107.943 648.293 490.282
485 0 47.0614 11.8144 556 114.926 648.64 491.601
486 0 50.1919 12.6714 636 113.417 648.645 490.923
487 0 52.1879 12.7807 667 115.081 648.48 489.333
488 0 53.1703 12.9396 688 115.382 648.491 486.884
489 0 52.2182 12.1031 632 118.226 647.505 487.566
490 0 56.2636 13.2235 744 114.036 648.121 486.923
491 0 58.1379 12.78 743 115.712 647.497 486.182
492 0 59.1567 12.7627 755 114.97 647.694 485.078
493 0 62.2648 13.0571 813 114.977 646.913 482.673
494 0 63.0956 12.7426 804 115.823 647.362 482.499
495 0 66.2256 13.001 861 109.794 647.727 480.058
496 0 67.2014 12.7974 860 110.267 647.153 477.951
497 0 71.1507 13.5065 961 108.207 646.862 476.86
498 0 73.1386 13.2898 972 109.994 647.417 475.355
499 0 76.217 12.6875 967 111.477 647.255 475.129
500 0 79.2936 13.4437 1066 113.947 648.214 474.983
501 0 83.215 14.4085 1199 111.405 648.281 476.467
502 0 87.2403 13.629 1189 115.939 647.759 472.073
503 0 89.1867 13.6904 1221 116.358 647.74 471.122
504 1 46.1037 11.4091 526 118.289 649.072 492.593
505 0 46.0464 13.052 601 121.594 646.674 491.053
506 0 51.0949 12.6823 648 125.935 646.918 488.356
507 0 50.0427 13.2887 665 120.388 649.556 491.224
508 0 52.1711 13.4366 701 117.767 649.191 490.799
509 0 53.0894 13.0346 692 118.542 649.59 490.691
510 0 56.1203 14.5402 816 114.836 649.629 489.409
511 0 57.0938 13.7143 783 117.014 649.506 487.485
512 0 58.1121 13.4568 782 118.578 649.214 487.676
513 0 61.2805 14.3928 882 116.054 648.408 485.829
514 0 64.1446 13.5475 869 118.41 648.358 485.054
515 0 66.1435 14.2418 942 117.722 648.594 483.341
516 0 69.1719 14.211 983 117.982 648.544 481.776
517 0 69.1096 13.1964 912 122.625 648.457 481.038
518 0 73.2066 14.4932 1061 118.779 648.394 480.074
519 0 75.2214 14.8229 1115 118.933 648.619 478.907
520 0 78.1543 15.2775 1194 117.57 648.422 479.638
521 0 81.1257 15.137 1228 118.664 649.515 476.98
522 0 83.1555 14.1903 1180 121.068 648.714 476.4
523 0 86.1806 14.0403 1210 122.621 647.973 468.05
524 0 89.128 14.1818 1264 123.562 648.247 460.548
525 0 90.2361 13.7085 1237 120.205 648.824 466.829
526 1 46.2448 9.21185 426 115.707 648.749 482.303
527 0 49.1488 12.3503 607 110.455 648.768 492.338
528 0 52.2308 13.5169 706 113.054 648.882 491.904
529 0 53.1583 13.3187 708 114.938 649.404 490.703
530 0 55.0701 14.7267 811 111.782 649.583 490.37
531 0 57.3029 13.8038 791 114.884 648.606 488.611
532 0 58.0839 14.634 850 113.665 648.195 487.365
533 0 59.2099 13.8659 821 115.503 648.164 487.112
534 0 60.2272 13.0672 787 117.544 648.775 487.544
535 0 61.1321 13.5608 829 118.001 647.965 485.421
536 0 65.1843 14.1905 925 115.443 648.601 484.122
537 0 66.1351 13.5934 899 117.158 648.531 483.66
538 0 67.2184 13.5677 912 118.317 647.985 481.516
539 0 72.1844 13.701 989 118.099 648.017 481.505
540 0 74.2606 14.0047 1040 117.419 647.22 479.263
541 0 77.278 13.5744 1049 118.143 648.428 479.587
542 0 79.3351 15.2013 1206 115.064 647.902 477.042
543 0 81.3296 14.2015 1155 118.177 647.502 476.17
544 0 82.4164 14.5966 1203 117.943 647.19 474.164
545 0 85.3068 13.7973 1177 119.076 647.758 472.74
546 0 89.3671 15.1398 1353 115.763 648.038 467.703
547 0 91.3849 13.7112 1253 118.061 647.733 469.093
548 0 92.1615 14.7024 1355 114.565 648.395 467.911
549 0 95.2507 14.8345 1413 113.611 647.772 466.429
550 0 97.2324 14.0797 1369 117.355 647.852 465.486
551 0 101.184 13.5594 1372 119.319 647.418 457.767
552 0 105.335 14.7435 1553 114.589 647.555 460.021
553 0 109.486 13.7369 1504 116.31 647.553 458.385
554 0 114.401 14.4055 1648 115.041 647.398 453.354
555 0 115.293 14.0512 1620 116.852 647.45 451.857
556 0 121.152 15.138 1834 115.064 647.031 447.459
557 0 127.328 15.4326 1965 114.182 647.748 444.778
558 0 133.522 14.7541 1970 116.229 647.425 443.918
559 0 136.487 13.7229 1873 118.566 647.689 438.885
560 0 140.28 12.6818 1779 119.722 646.501 438.872
561 0 149.276 13.8602 2069 117.957 647.623 439.254
562 1 72.3215 12.721 920 111.221 648.432 475.714
563 0 77.2075 12.9392 999 109.636 648.683 474.885
564 0 80.3347 13.9168 1118 111.115 648.228 473.679
565 0 81.1778 12.5773 1021 118.803 648.405 473.31
566 0 84.2916 13.9041 1172 115.788 648.664 473.023
567 0 87.2512 12.3895 1081 119.473 648.168 469.907
568 0 91.4213 13.6183 1245 117.202 647.798 469.035
569 0 94.3147 13.5398 1277 117.772 647.842 467.254
570 0 98.3498 13.7062 1348 117.836 647.639 464.677
571 0 101.469 13.4228 1362 117.82 648.09 462.96
572 0 106.38 13.48 1434 116.384 647.149 460.496
573 1 49.1847 11.04 543 108.586 647.856 484.271
574 0 55.176 11.1462 615 107.075 647.798 485.867
575 0 58.0641 11.9867 696 102.483 648.441 487.082
576 0 60.1169 12.2095 734 101.768 648.271 484.47
577 0 63.1188 12.0883 763 102.73 648.461 484.505
578 0 65.0964 12.4277 809 102.922 648.624 482.873
579 0 69.3351 12.3603 857 102.519 648.989 482.953
580 0 69.1532 12.2771 849 104.284 648.53 482.064
581 0 74.1156 12.9662 961 102.828 648.802 480.804
582 0 75.0969 13.0365 979 106.022 648.367 464.208
583 0 78.1582 12.7562 997 105.908 648.919 472.371
584 0 79.2609 10.4339 827 110.023 648.43 475.913
585 0 83.3768 13.3011 1109 105.477 648.762 472.561
586 0 85.4342 11.7634 1005 108.619 648.205 472.434
587 0 88.3354 12.3054 1087 107.478 647.99 474.133
588 0 92.4582 14.1037 1304 115.313 648.351 472.165
589 1 47.3821 11.6289 551 117.136 648.913 495.737
590 0 48.1597 10.7351 517 117.576 648.983 495.304
591 0 50.2792 12.2516 616 117.489 648.51 493.049
592 0 50.1734 12.2575 615 109.966 649.465 494.738
593 0 53.047 12.536 665 108.995 649.374 491.265
594 0 55.0654 11.9131 656 111.316 649.186 491.425
595 0 56.1973 12.3316 693 110.664 648.892 488.859
596 0 59.1712 13.2835 786 107.2 648.828 487.877
597 0 61.1875 13.5485 829 107.581 648.696 486.812
598 0 63.1193 12.3576 780 110.192 649.188 488.236
599 0 65.171 12.7511 831 109.96 648.545 485.355
600 0 67.2355 13.5048 908 109.458 648.177 484.053
601 0 69.1328 12.7581 882 111.605 648.408 483.909
602 0 72.2178 14.1101 1019 109.921 648.606 481.999
603 0 74.1106 13.9251 1032 112.266 648.999 481.351
604 0 76.2124 13.1081 999 115.561 648.828 479.419
605 0 78.2124 13.6168 1065 115.371 648.681 479.003
606 0 81.168 13.9464 1132 113.009 648.692 477.334
607 0 84.1704 13.0212 1096 114.609 648.412 476.573
608 0 86.1736 13.5308 1166 112.276 648.451 475.25
609 0 88.2672 13.2665 1171 120.456 648.288 473.427
610 0 92.2067 13.6216 1256 119.497 648.682 471.837
611 0 95.1789 12.8705 1225 113.307 648.438 473.167
612 0 100.206 14.7396 1477 107.243 648.332 470.605
613 1 51.1091 10.5069 537 114.25 649.222 491.585
614 0 55.084 12.0725 665 109.74 649.323 491.344
615 0 57.0506 11.9368 681 117.746 649.188 490.502
616 0 57.0915 11.8406 676 119.536 648.899 489.102
617 0 60.0409 13.8406 831 112.525 649.36 488.484
618 0 61.047 12.4003 757 115.952 648.929 488.079
619 0 65.1299 12.3906 807 115.063 649.294 485.467
620 0 67.08 11.8664 796 116.466 649.775 484.868
621 0 67.0367 12.4857 837 116.455 649.657 484.722
622 0 70.0853 13.398 939 114.119 649.628 481.741
623 0 75.0563 12.6838 952 113.178 649.542 482.653
624 0 75.1013 12.5164 940 115.432 649.171 480.451
625 0 77.1212 13.3426 1029 113.71 648.468 478.061
626 0 80.1195 13.6671 1095 112.059 648.397 476.648
627 0 83.108 13.1997 1097 111.762 648.01 475.772
628 0 85.1403 13.9417 1187 111.987 648.424 473.587
629 0 88.1261 13.3445 1176 113.724 648.266 473.537
630 1 44.2165 10.245 453 116.439 648.15 492.234
631 0 48.4103 10.411 504 116.123 648.113 491.181
632 0 49.393 13.1598 650 109.111 647.895 488.742
633 0 52.291 11.9524 625 117.558 647.888 491.861
634 0 55.1205 12.7902 705 116.407 648.633 490.657
635 0 57.0505 12.7256 726 115.787 648.64 490.705
636 0 57.0506 13.0761 746 117.165 648.245 488.004
637 0 60.0798 12.9661 779 116.872 649.487 488.263
638 0 59.0186 12.0979 714 120.898 649.633 486.588
639 0 63.0908 13.853 874 115.312 648.39 487.206
640 0 63.1092 11.8683 749 121.854 647.81 485.725
641 0 66.0986 13.0865 865 119.384 648.643 484.208
642 0 68.0896 12.4835 850 121.221 648.871 482.158
643 0 71.0737 14.2669 1014 116.005 648.299 482.001
644 0 73.059 13.8929 1015 117.783 648.378 481.491
645 0 74.1459 13.3655 991 120.717 648.465 480.24
646 0 78.0629 14.0912 1100 117.585 648.295 480.287
647 0 81.0976 13.0337 1057 119.764 648.526 481.021
648 0 80.2846 13.365 1073 120.98 647.692 477.624
649 0 86.1913 13.4584 1160 120.532 648.037 477.709
650 0 87.2027 14.0936 1229 119.202 647.773 476.009
651 0 90.2982 13.6991 1237 121.261 647.223 472.044
652 0 92.198 13.6771 1261 122.738 647.123 471.072
653 0 95.2396 14.4688 1378 120.618 646.532 470.825
654 0 98.2035 13.8081 1356 123.474 647.275 467.713
655 0 100.245 13.6066 1364 123.651 647.757 466.773
656 0 105.283 13.497 1421 122.583 647.869 465.426
657 0 107.183 12.9405 1387 122.266 647.414 463.372
658 0 111.169 14.0957 1567 118.191 647.186 462.819
659 0 114.289 13.7896 1576 118.945 646.76 458.77
660 0 117.371 14.2966 1678 118.698 647.192 456.041
661 0 123.308 13.673 1686 120.477 647.034 453.53
662 0 125.244 13.869 1737 119.048 647.637 452.904
663 0 130.355 15.174 1978 115.97 646.893 449.329
664 0 136.287 14.5135 1978 114.458 645.793 449.324
665 0 139.419 13.1402 1832 116.63 646.168 443.843
666 0 145.349 13.6499 1984 112.918 646.007 443.905
667 0 150.276 14.2604 2143 112.35 646.508 439.384
668 0 155.539 14.5752 2267 112.388 646.146 435.764
669 0 159.283 13.6675 2177 115.461 645.662 435.774
670 0 165.288 13.9514 2306 114.11 645.657 434.363
671 0 171.213 14.4382 2472 114.471 646.144 430.526
672 0 178.445 15.1587 2705 114.025 645.604 427.676
673 0 182.493 14.258 2602 117.852 645.631 421.077
674 0 190.346 14.4631 2753 118.875 645.541 420.261
675 0 197.221 14.6131 2882 118.577 645.318 409.325
676 0 202.25 13.6069 2752 121.565 646.457 412.28
677 0 210.378 13.8513 2914 121.389 646.197 411.07
678 0 218.373 14.2646 3115 120.821 645.887 404.121
679 0 226.299 14.7946 3348 119.123 645.216 402.87
680 0 233.219 14.317 3339 119.821 645.956 397.86
681 1 64.0321 10.2761 658 115.609 644.942 482.074
682 0 68.089 12.6746 863 111.094 646.476 482.9
683 0 72.118 12.2854 886 111.442 646.31 483.85
684 0 73.2784 12.937 948 110.598 646.494 482.656
685 0 76.2558 12.0122 916 113.008 646.83 478.913
686 0 78.3563 12.5963 987 110.33 646.757 481.217
687 0 80.3497 11.6117 933 112.551 646.452 477.401
688 0 84.1502 13.3214 1121 106.566 646.917 476.465
689 0 87.1113 12.9375 1127 109.32 645.521 472.213
690 0 89.1808 12.5812 1122 110.93 646.152 473.474
691 0 92.264 12.5401 1157 110.136 646.309 472.532
692 0 95.3199 13.0193 1241 108.366 645.69 470.537
693 0 95.2287 12.2652 1168 110.163 645.533 467.686
694 0 99.177 11.908 1181 101.141 647.184 466.204
695 0 103.333 9.81291 1014 101.265 647.684 465.092
696 0 104.258 9.41897 982 104.44 646.938 458.405
697 0 109.352 11.6779 1277 101.718 647.082 458.572
698 0 111.447 10.8392 1208 106.322 647.024 453.908
699 0 114.327 10.6537 1218 107.576 647.811 452.943
700 1 63.188 10.2709 649 99.3652 649.436 487.097
701 0 64.0824 11.6569 747 97.1995 648.451 485.47
702 0 65.2696 10.8167 706 93.1856 646.84 480.576
703 0 69.1148 10.374 717 96.8382 648.45 480.819
704 0 72.1827 13.1749 951 92.1241 648.084 481.049
705 0 76.1619 11.9876 913 93.3746 647.715 482.908
706 0 78.1771 12.0368 941 93.6886 648.281 480.793
707 0 79.1456 12.6476 1001 94.0619 648.299 477.878
708 0 82.222 13.9257 1145 92.007 647.986 476.204
709 0 86.124 13.4922 1162 92.3735 647.659 474.867
710 0 88.1825 12.0432 1062 95.5716 648.289 474.842
711 0 90.2064 12.4492 1123 95.268 647.876 472.776
712 0 93.1086 11.4812 1069 96.8765 647.834 468.733
713 0 96.2278 12.8133 1233 94.9392 647.405 467.984
714 0 98.2908 10.2451 1007 96.3456 647.27 467.574
715 0 104.303 11.7734 1228 95.4129 647.856 468.139
716 0 105.258 13.3671 1407 93.3582 647.751 462.762
717 0 111.255 14.8578 1653 89.8488 648.102 464.102
718 0 113.304 12.6562 1434 95.9275 648.295 461.043
719 0 114.526 12.3728 1417 99.0064 648.099 458.108
720 1 61.5059 10.6006 652 99.1718 648.127 488.485
721 0 63.3761 11.6448 738 102.32 648.71 486.866
722 0 66.1444 12.639 836 100.873 649.16 484.964
723 0 66.2261 12.6536 838 102.149 648.943 483.467
724 0 68.2977 11.6988 799 103.865 648.205 482.692
725 0 70.3052 12.4884 878 103.648 648.658 481.451
726 0 73.4426 13.0987 962 102.72 648.41 479.19
727 0 76.4887 12.4594 953 103.983 648.264 477.897
728 0 78.3161 11.6707 914 107.358 648.319 477.825
729 0 78.4662 11.1258 873 112 647.944 474.313
730 0 80.5271 13.4737 1085 106.997 647.796 473.778
731 0 83.3357 14.4236 1202 104.349 647.182 474.726
732 0 86.3056 14.5645 1257 105.814 647.238 471.758
733 0 87.4065 12.4819 1091 111.616 646.947 472.054
734 0 90.2926 14.3423 1295 106.653 647.154 469.887
735 0 91.3369 14.0031 1279 107.995 647.101 469.78
736 0 95.2251 13.2318 1260 108.268 647.252 467.601
737 0 97.2247 13.7825 1340 109.596 646.98 463.49
738 0 101.64 13.5577 1378 104.881 646.422 461.392
739 0 102.327 13.9944 1432 91.3191 647.413 460.035
740 0 108.45 15.3895 1669 103.255 646.49 464.718
741 0 113.288 14.0527 1592 106.413 646.231 462.08
742 0 115.449 14.0408 1621 105.458 646.891 458.751
743 0 118.354 13.3244 1577 108.259 646.98 456.975
744 1 61.2838 11.1938 686 101.128 648.589 488.171
745 0 63.3692 10.6519 675 101.913 648.741 488.025
746 0 66.1124 10.7998 714 102.431 648.81 486.637
747 0 69.1579 12.8257 887 98.7835 648.685 484.594
748 0 69.1284 12.5419 867 99.9573 648.123 484.331
749 0 73.1317 12.457 911 100.577 647.95 485.065
750 0 75.2455 12.3728 931 102.172 647.976 482.828
751 0 75.0806 13.4389 1009 102.393 648.259 478.667
752 0 78.3161 12.0537 944 104.779 648.534 480.213
753 0 80.1763 13.0463 1046 103.48 647.904 478.908
754 0 83.2522 12.2639 1021 106.614 647.88 476.856
755 0 87.1998 13.5895 1185 103.699 648.152 474.081
756 0 89.25 13.6919 1222 104.774 647.618 474.534
757 0 89.187 12.9503 1155 107.048 648.298 472.41
758 0 95.3699 12.9391 1234 106.275 648.096 472.421
759 0 96.3803 12.3988 1195 107.183 648.127 470.39
760 0 99.373 13.1323 1305 107.956 648.372 466.649
761 0 104.265 14.4344 1505 106.347 648.712 465.961
762 0 108.327 14.6501 1587 105.742 647.711 465.006
763 0 109.491 12.9052 1413 109.643 647.752 464.444
764 0 114.411 14.142 1618 108.124 647.713 459.091
765 1 59.1628 10.6993 633 103.79 649.488 488.998
766 0 61.3069 10.2925 631 102.688 649.228 486.93
767 0 63.1817 10.5094 664 101.727 648.489 488.643
768 0 67.1017 12.5034 839 97.4565 649.462 483.399
769 0 70.1306 10.7086 751 100.397 648.967 486.028
770 0 71.1049 12.348 878 97.91 648.255 484.068
771 0 71.0877 11.6054 825 99.6703 648.576 481.634
772 0 77.135 13.1458 1014 95.3037 647.559 479.738
773 0 77.0865 11.5455 890 98.8921 648.064 481.003
774 0 81.0721 13.1365 1065 95.3277 648.488 477.75
775 0 81.0796 11.3839 923 98.7887 648.849 477.233
776 0 87.1143 13.1896 1149 94.745 647.983 475.461
777 0 88.0967 11.2717 993 98.6274 648.034 474.841
778 0 89.0792 11.922 1062 98.0282 648.784 475.693
779 0 93.0971 13.2228 1231 96.1519 648.119 472.363
780 0 95.0886 11.3789 1082 100.076 648.517 472.198
781 0 98.1409 12.4209 1219 96.9836 647.772 469.132
782 0 100.19 10.3104 1033 100.8 648.075 468.323
783 0 106.142 11.1455 1183 99.6965 647.181 465.815
784 1 54.1229 9.60777 520 97.3712 648.252 491.617
785 0 60.3816 10.9636 662 95.1526 647.867 487.414
786 0 61.4182 12.2928 755 90.8795 648.342 487.858
787 0 63.126 10.883 687 93.8049 649.489 489.297
788 0 64.0659 11.9564 766 92.483 649.009 488.145
789 0 66.0699 12.0781 798 92.094 648.783 485.855
790 0 69.076 12.2474 846 92.3853 649.061 484.071
791 0 70.0801 12.4572 873 93.3001 648.317 484.077
792 0 70.1191 10.5963 743 98 648.872 480.41
793 0 75.0987 10.6527 800 97.7662 648.601 483.119
794 0 76.1418 12.2534 933 96.3966 648.402 479.914
795 0 78.0687 11.1184 868 100.343 648.334 476.434
796 0 82.18 12.0346 989 98.2659 648.478 477.842
797 0 83.0938 12.0587 1002 99.7894 648.04 476.615
798 0 85.2127 11.1603 951 101.785 647.732 476.29
799 0 89.2308 11.05 986 103.733 648.126 476.071
800 0 90.0545 11.6152 1046 103.684 647.535 473.967
801 0 94.1853 10.3626 976 104.702 647.994 475.439
802 0 98.0927 10.5309 1033 105.86 648.492 470.838
803 0 102.197 11.106 1135 106.97 647.619 470.154
804 1 58.2549 10.3339 602 110.296 646.606 491.184
805 0 58.252 12.1026 705 102.487 648.03 490.183
806 0 56.1724 8.77655 493 108.146 648.134 493.112
807 0 57.0437 10.6585 608 104.387 648.303 491.661
808 0 60.1808 10.2524 617 105.472 648.838 490.943
809 0 61.1855 10.1985 624 106.556 648.591 490.909
810 0 65.2323 11.7886 769 104.337 648.486 487.507
811 0 66.1413 9.75185 645 108.95 648.016 485
812 0 69.1805 12.3301 853 105.07 648.737 475.19
813 0 70.1691 11.344 796 108.552 648.118 473.906
814 0 73.1602 11.5637 846 109.924 647.817 479.056
815 0 75.2045 9.9994 752 113.432 648.416 481.589
816 0 78.1471 11.0305 862 112.135 647.961 479.182
817 0 81.1149 12.772 1036 109.443 648.319 476.014
818 0 85.0874 12.7986 1089 108.303 648.173 476.802
819 1 42.0517 10.1542 427 114.443 648.576 496.4
820 0 45.0415 10.9677 494 115.182 648.413 495.146
821 0 43.196 11.0427 477 117.855 645.468 493.727
822 0 47.3194 11.7077 554 115.733 645.765 494.684
823 0 48.353 12.2847 594 115.69 646.232 494.744
824 0 48.5337 12.4862 606 118.695 646.228 487.904
825 0 47.318 11.4333 541 124.272 645.579 492.553
826 0 51.3722 12.0298 618 121.476 645.984 493.778
827 0 53.4203 12.4672 666 119.556 646.236 493.764
828 0 53.4269 13.0833 699 119.657 646.049 492.881
829 0 55.3931 13.5035 748 119.134 646.388 491.684
830 0 56.4369 13.3778 755 120.852 645.71 490.012
831 0 58.0918 12.9794 754 122.241 645.092 489.59
832 0 60.0706 13.7172 824 121.159 644.738 488.017
833 0 61.0921 12.964 792 123.505 644.717 488.547
834 0 62.153 13.692 851 121.04 645.437 486.342
835 0 66.1341 13.9111 920 118.424 645.488 487.115
836 0 65.2262 12.7249 830 120.652 645.452 485.805
837 0 68.3157 13.6718 934 118.035 646.349 485.182
838 0 69.2723 12.5447 869 120.865 645.783 484.223
839 0 73.2927 13.0709 958 117.646 645.402 483.414
840 0 75.3088 13.7169 1033 116.825 646.045 482.221
841 0 76.1933 12.8489 979 117.316 646.263 481.247
842 0 80.1951 14.0033 1123 111.565 646.259 479.668
843 0 82.1407 13.416 1102 107.435 645.21 477.777
844 0 85.1136 12.9239 1100 107.8 645.079 476.384
845 1 45.1499 11.2736 509 112.878 645.218 494.678
846 0 46.0286 11.9926 552 114.024 644.98 494.645
847 0 47.2439 12.2556 579 108.067 647.703 493.981
848 0 48.1599 12.6454 609 111.918 645.951 494.908
849 0 50.2855 12.8466 646 111.124 646.084 493.605
850 0 51.4212 13.3602 687 108.785 645.361 493.408
851 0 52.1885 12.474 651 110.839 645.992 492.886
852 0 54.2873 13.9443 757 107.917 646.003 491.092
853 0 55.2909 12.8231 709 110.484 645.803 491.193
854 0 57.2079 12.8479 735 110.634 645.633 490.192
855 0 57.2343 13.9078 796 109.804 645.384 488.582
856 0 60.3339 13.5413 817 109.77 645.709 488.965
857 0 62.2781 13.3273 830 111.889 646.214 473.248
858 0 62.3069 13.0804 815 112.618 646.637 482.628
859 0 66.1602 13.9359 922 110.492 646.343 486.067
860 0 65.3322 12.7808 835 115.811 646.614 484.134
861 0 69.3443 13.4834 935 114.149 646.388 482.055
862 0 72.2218 13.0847 945 116.132 646.928 482.923
863 0 74.2613 13.0081 966 116.117 646.643 481.86
864 0 74.2937 13.0025 966 118.178 646.459 478.218
865 0 79.1694 13.9322 1103 115.834 647.088 478.092
866 0 81.2307 12.84 1043 119.456 646.965 476.241
867 0 84.2249 13.1552 1108 118.898 646.962 473.56
868 1 44.096 11.3389 500 118.242 648.904 495.116
869 0 45.1236 11.2136 506 118.042 645.439 481.889
870 0 44.144 12.0062 530 110.93 645.458 493.355
871 0 46.037 11.1215 512 110.09 645.84 491.4
872 0 47.1622 10.941 516 100.056 647.141 495.122
873 0 48.1099 10.9749 528 102.492 647.735 492.958
874 0 48.0852 11.4796 552 103.605 647.449 492.321
875 0 50.0592 11.6063 581 102.912 647.169 492.775
876 0 52.0203 11.0726 576 105.408 647.25 489.698
877 0 52.0386 10.9342 569 106.916 648.002 489.054
878 0 54.1067 11.348 614 107.163 647.292 486.979
879 0 55.0496 11.3897 627 107.415 646.887 484.53
880 0 59.0614 11.7674 695 107.22 646.873 486.653
881 0 61.0768 11.8048 721 106.433 647.146 486.495
882 0 64.0559 13.0823 838 105.911 647.217 483.074
883 0 65.0904 12.8898 839 108.124 647.36 482.279
884 0 69.1371 12.9742 897 107.188 647.096 481.596
885 0 70.1464 11.4902 806 111.8 646.855 476.373
886 0 71.1248 12.6257 898 111.776 647.437 477.64
887 0 76.1363 12.7403 970 110.842 647.045 476.993
888 0 78.1022 12.5989 984 112.131 647.238 475.657
889 0 79.1512 13.3163 1054 111.035 647.363 475.27
890 0 80.0769 12.6379 1012 115.714 647.288 472.664
891 0 87.1028 13.0191 1134 113.878 646.479 471.866
892 0 89.19 13.1853 1176 113.986 646.935 469.446
893 0 91.2053 12.598 1149 117.353 646.578 468.258
894 1 46.1181 11.167 515 113.12 647.179 489.466
895 0 48.2138 11.6564 562 112.778 646.251 489.03
896 0 48.1669 11.1487 537 112.793 646.615 488.765
897 0 50.3626 9.90815 499 112.679 647.625 490.501
898 0 53.0811 11.4542 608 105.872 647.039 490.615
899 0 55.121 12.2639 676 105.438 647.058 487.982
900 0 56.0757 11.217 629 107.746 647.224 487.44
901 0 60.0773 12.6171 758 104.385 646.943 485.123
902 0 60.0652 11.9703 719 106.056 647.127 486.033
903 0 62.0574 12.3595 767 105.08 647.299 484.993
904 0 65.1565 12.2014 795 105.486 647.374 483.203
905 0 67.0915 13.3996 899 103.905 647.418 480.779
906 0 67.0495 12.3342 827 106.086 647.363 479.855
907 0 71.1402 11.9482 850 105.992 646.893 479.529
908 0 72.1448 12.2947 887 106.115 647.001 478.625
909 0 77.1416 14.3502 1107 102.868 647.275 476.697
910 0 76.1321 12.741 970 107.953 647.139 473.301
911 0 80.107 12.708 1018 108.324 647.139 473.111
912 0 83.1709 13.0935 1089 107.051 647.147 471.422
913 0 87.1856 13.1558 1147 105.373 647.1 472.316
914 0 90.148 13.1561 1186 104.325 646.6 466.889
915 0 95.1658 11.5272 1097 106.912 646.931 466.367
916 1 48.1218 12.3437 594 114.882 645.886 492.751
917 0 49.3139 11.2341 554 117.926 645.626 493.309
918 0 52.2478 12.3259 644 114.447 646.68 491.79
919 0 54.3308 12.5343 681 113.408 646.709 491.094
920 0 57.2607 14.076 806 110.278 646.768 488.639
921 0 58.2982 13.2937 775 112.865 646.99 487.47
922 0 60.2896 12.3073 742 113.976 646.88 488.747
923 0 64.2197 14.1545 909 109.48 647.389 484.702
924 0 65.1804 13.9152 907 111.185 647.304 484.631
925 0 67.33 14.0799 948 110.307 647.182 484.27
926 0 68.2126 14.9239 1018 109.495 647.219 483.621
927 0 69.1338 14.0886 974 110.156 647.283 484.338
928 0 72.0866 13.2896 958 112.416 647.622 481.645
929 0 75.2143 14.6382 1101 110.837 646.717 470.75
930 0 77.1502 13.1043 1011 112.413 647.946 480.182
931 0 81.0561 13.3981 1086 111.224 647.98 478.269
932 0 83.2015 14.1704 1179 109.896 648.053 475.914
933 0 85.1111 12.842 1093 105.999 647.172 472.513
934 0 86.092 12.4169 1069 108.377 646.361 466.228
935 0 91.1565 11.2883 1029 109.415 646.25 467.435
936 0 94.2174 11.6964 1102 103.372 645.71 466.043
937 0 100.184 14.0941 1412 98.4001 646.734 467.424
938 0 101.1 13.1948 1334 101.442 647.365 467.156
939 0 106.168 13.6105 1445 100.219 646.792 464.52
940 1 53.0865 13.0353 692 95.0968 647.646 491.188
941 0 54.1548 11.3194 613 97.9413 647.551 492.927
942 0 56.1735 10.9304 614 99.702 647.748 490.511
943 0 58.0724 12.2089 709 96.7334 647.65 490.355
944 0 61.0876 13.1942 806 95.7568 647.552 488.891
945 0 63.0367 12.0723 761 98.6925 648.209 488.577
946 0 64.1738 12.3727 794 98.9673 647.887 486.372
947 0 66.1562 12.2135 808 98.9752 647.608 487.524
948 0 69.0777 12.6379 873 100.117 647.912 485.246
949 0 70.1305 13.1327 921 99.873 647.71 484.59
950 0 71.1678 11.9717 852 103.336 648.364 482.41
951 0 75.1635 12.9185 971 102.437 648.295 479.804
952 0 76.1812 12.1815 928 104.834 647.614 479.276
953 0 81.1611 14.3788 1167 100.99 647.544 477.455
954 0 80.2708 12.5201 1005 106.351 647.92 477.872
955 0 85.2976 12.9429 1104 105.898 647.409 475.699
956 0 88.1903 13.1987 1164 105.771 647.318 475.432
957 1 45.0293 10.0157 451 105.69 648.31 497.627
958 0 45.0425 11.3004 509 104.546 648.312 496.338
959 0 48.0176 12.3705 594 102.727 648.852 494.155
960 0 49.0146 11.8332 580 106.247 648.255 494.383
961 0 50.1119 13.5497 679 100.243 647.813 492.23
962 0 50.1253 12.369 620 104.098 647.81 493.208
963 0 52.1028 12.7248 663 103.665 648.329 492.19
964 0 54.0935 12.312 666 104.616 648.129 492.06
965 0 56.0669 12.5564 704 104.467 648.339 492.087
966 0 56.1003 11.9964 673 106.596 648.517 487.825
967 0 59.0693 14.0344 829 101.626 648.025 488.369
968 0 59.1265 11.3824 673 108.455 648.319 488.588
969 0 62.0721 12.7916 794 105.485 648.819 488.554
970 0 65.1174 11.748 765 108.324 648.569 486.837
971 0 66.2031 14.5008 960 104.042 648.22 484.645
972 0 69.1116 13.7748 952 103.013 648.377 486.95
973 0 70.1034 14.5927 1023 102.112 647.688 482.421
974 0 72.0759 13.9714 1007 105.096 648.304 474.099
975 0 72.0786 12.3338 889 107.906 648.033 481.098
976 0 75.0728 14.0664 1056 103.225 647.762 477.594
977 0 79.1122 13.2849 1051 105.765 648.193 478.95
978 0 81.1021 13.8098 1120 104.093 647.953 476.951
979 0 84.2027 13.5388 1140 103.929 647.889 476.734
980 0 86.1094 12.0544 1038 108.485 648.475 474.618
981 0 88.271 14.1156 1246 104.604 645.757 471.135
982 1 49.1064 11.2409 552 112.156 644.203 486.736
983 0 51.0734 13.0205 665 105.535 645.459 484.48
984 0 50.0436 12.1694 609 106.195 645.962 489.258
985 0 50.0412 11.8902 595 109.091 646.224 487.81
986 0 53.0711 12.455 661 106.69 646.328 487.853
987 0 56.0304 13.8675 777 104.667 646.495 487.297
988 0 56.1679 12.4448 699 109.114 646.282 484.685
989 0 56.1382 12.0952 679 109.913 646.704 485.415
990 0 61.0946 13.7492 840 106.864 646.323 484.243
991 0 61.2085 12.8087 784 108.883 646.991 483.533
992 0 63.2477 13.0598 826 108.375 646.265 481.515
993 0 67.3841 12.9556 873 105.667 647.167 477.244
994 0 70.1075 13.1798 924 106.15 646.01 478.41
995 0 71.1149 11.8962 846 104.119 645.976 477.726
996 0 74.1226 13.4372 996 103.57 647.063 468.012
997 0 74.0925 13.3617 990 108.462 646.867 464.024
998 0 79.1658 12.9854 1028 109.942 647.548 467.605
999 0 82.1453 14.2796 1173 107.621 646.514 471.106
1000 0 83.2262 13.193 1098 112.126 646.648 470.505
1001 1 40.0512 10.2619 411 102.129 645.8 492.866
1002 0 40.024 9.91906 397 105.209 647.615 492.338
1003 0 44.0651 10.7795 475 100.263 647.693 493.099
1004 0 48.0636 11.5264 554 98.5957 647.661 493.222
1005 0 47.132 10.4388 492 104.051 647.404 492.157
1006 0 46.0555 10.5308 485 112.854 646.52 490.138
1007 0 50.0923 10.3808 520 112.242 646.938 488.954
1008 0 52.101 11.8232 616 110.015 646.664 489.304
1009 0 52.1536 13.1726 687 111.76 646.119 488.709
1010 0 55.0471 13.2432 729 117.048 645.984 487.765
1011 0 58.0997 12.4269 722 118.089 646.422 488.137
1012 0 56.0531 11.9886 672 122.217 646.199 485.679
1013 0 61.0894 11.9006 727 122.201 645.894 484.887
1014 0 61.1135 12.1904 745 122.246 646.111 482.511
1015 0 63.1536 12.4617 787 120.629 645.621 484.349
1016 0 68.1143 12.8167 873 119.794 645.942 482.519
1017 0 68.2999 11.9034 813 121.824 646.228 476.51
1018 0 71.1068 13.2195 940 118.932 645.773 477.802
1019 0 73.1086 13.5688 992 116.85 645.913 478.297
1020 0 77.1263 13.238 1021 118.219 646.063 478.021
1021 0 78.1271 11.7117 915 121.494 646.277 477.379
1022 0 81.2558 13.6975 1113 116.701 646.055 475.082
1023 0 83.1828 13.2119 1099 117.389 646.106 474.122
1024 0 87.2649 12.8459 1121 117.359 646.565 472.385
1025 0 89.2656 12.2668 1095 119.356 646.042 471.256
1026 0 93.1145 13.2955 1238 115.737 646.184 469.343
1027 1 47.0878 11.1069 523 104.839 646.595 492.742
1028 0 49.0475 11.9884 588 102.51 647.243 491.541
1029 0 51.1189 12.109 619 102.347 646.948 489.918
1030 0 54.0754 11.521 623 102.86 647.581 490.18
1031 0 57.106 12.1879 696 102.167 647.063 487.18
1032 0 58.1264 10.8901 633 105.054 647.226 486.422
1033 0 59.1945 11.2004 663 106.783 647.762 485.151
1034 0 61.1517 11.8231 723 106.855 647.635 483.746
1035 0 65.1456 14.0915 918 101.5 647.439 483.538
1036 0 67.0981 12.057 809 105.294 647.534 481.884
1037 0 68.0694 14.0298 955 102.162 647.385 480.772
1038 0 69.1174 12.5439 867 106.017 647.701 480.084
1039 0 72.0508 12.6577 912 107.13 648.004 478.974
1040 0 74.1073 11.7937 874 107.494 647.507 478.411
1041 0 78.1111 12.4438 972 106.707 646.467 465.447
1042 0 81.162 13.1465 1067 104.783 647.583 475.466
1043 0 82.1278 12.3953 1018 108.41 647.486 471.591
1044 0 85.1811 13.078 1114 106.965 647.73 471.443
1045 0 88.1492 12.5356 1105 109.358 646.719 471.204
1046 0 92.1942 13.016 1200 110.511 647.081 469.467
1047 0 94.3344 13.7278 1295 110.393 647.164 468.853
1048 1 47.3679 11.1468 528 109.386 647.96 492.873
1049 0 50.289 13.0446 656 109.797 647.942 494.596
1050 0 51.1305 14.2185 727 102.16 648.563 493.473
1051 0 52.1054 13.799 719 103.099 649.099 492.958
1052 0 54.1103 14.6368 792 101.337 649.182 491.188
1053 0 56.1071 14.2584 800 101.718 648.949 490.129
1054 0 58.1351 14.3631 835 102.071 648.737 489.057
1055 0 59.1169 14.3445 848 102.333 648.847 487.988
1056 0 61.1508 15.5027 948 97.7827 648.128 488.402
1057 0 63.1143 12.8972 814 103.518 648.344 486.94
1058 0 64.0792 13.5301 867 102.834 647.558 486.354
1059 0 67.0927 14.3533 963 101.48 647.479 485.11
1060 0 68.1064 12.9797 884 105.33 647.391 484.413
1061 0 69.1124 13.9194 962 105.338 647.116 482.891
1062 0 71.1675 13.8406 985 105.4 647.376 482.643
1063 0 75.3679 14.0909 1062 105.694 646.761 480.088
1064 0 78.3942 13.4194 1052 106.61 647.464 479.925
1065 0 80.297 13.6244 1094 104.856 647.086 479.56
1066 0 84.1506 14.4978 1220 105.771 647.199 477.761
1067 0 86.1464 15.3227 1320 112.702 647.919 473.133
1068 0 88.3242 14.6053 1290 105.687 647.406 473.909
1069 0 89.2577 13.4666 1202 109.488 647.114 471.743
1070 0 94.4613 14.5668 1376 106.449 647.117 469.192
1071 0 97.2583 14.7134 1431 106.089 646.73 470.81
1072 0 97.5111 14.101 1375 109.951 647.099 468.543
1073 0 102.305 15.2681 1562 108.864 646.976 464.009
1074 0 104.31 15.0513 1570 109.28 646.96 465.97
1075 0 109.377 14.8568 1625 110.026 647.118 463.096
1076 0 111.406 15.1608 1689 111.326 646.75 459.754
1077 0 114.423 15.0843 1726 111.199 646.711 455.76
1078 0 117.183 14.3195 1678 114.091 647.095 456.209
1079 0 121.255 14.9849 1817 109.128 647.133 451.591
1080 0 125.259 13.9471 1747 115.104 647.981 453.749
1081 0 130.572 14.268 1863 115.937 647.193 442.959
1082 0 135.761 15.2032 2064 113.042 647.643 442.923
1083 1 72.0354 13.8404 997 114.009 648.531 471.593
1084 0 73.2326 14.0238 1027 114.619 647.873 473.671
1085 0 75.228 12.8144 964 117.522 647.477 473.161
1086 0 78.3438 13.1599 1031 117.396 647.689 472.121
1087 0 82.1513 14.3881 1182 112.924 647.48 472.92
1088 0 83.1951 13.883 1155 115.971 648.197 471.631
1089 0 86.1018 14.1112 1215 115.773 647.7 471.6
1090 0 89.054 15.0246 1338 115.735 647.659 468.347
1091 0 92.2254 14.4429 1332 113.595 647.164 460.947
1092 0 94.118 12.9412 1218 118.014 647.913 465.933
1093 0 97.1875 12.9132 1255 118.967 647.38 462.97
1094 1 51.2681 11.04 566 120.306 647.027 487.806
1095 0 53.1042 11.1667 593 104.331 647.118 484.993
1096 0 57.3464 13.1133 752 100.57 645.959 483.741
1097 0 54.0929 11.5542 625 100.539 646.741 483.421
1098 0 57.2098 12.8999 738 98.2317 646.091 483.717
1099 0 60.1654 12.233 736 99.7038 645.745 482.886
1100 0 62.2258 11.9404 743 98.8466 645.813 480.354
1101 0 63.2522 12.7743 808 98.7673 646.244 478.567
1102 0 65.2036 11.3031 737 103.912 646.609 477.387
1103 0 68.1746 12.3506 842 105.011 647.129 475.255
1104 0 71.2331 12.1152 863 105.012 646.506 476.469
1105 0 72.0605 11.9622 862 107.227 646.803 475.345
1106 0 76.1673 12.7745 973 105.858 646.775 474.656
1107 0 79.1692 12.8838 1020 104.044 646.491 472.41
1108 0 82.1481 13.5974 1117 104.897 647.121 473.515
1109 0 85.0732 12.9888 1105 104.539 647.233 470.786
1110 0 89.0753 12.8655 1146 104.338 647.117 468.366
1111 0 89.0613 10.9026 971 112.093 647.181 463.658
1112 1 47.0469 10.2664 483 98.5549 646.48 489.553
1113 0 47.097 10.4465 492 101.49 646.15 489.579
1114 0 51.1319 11.441 585 95.0872 647.275 489.232
1115 0 51.1156 10.3295 528 98.6307 647.983 488.549
1116 0 54.1652 10.4864 568 98.6268 648.312 488.815
1117 0 58.1336 11.7488 683 96.1903 647.868 488.236
1118 0 57.0962 11.8747 678 98.3628 647.765 484.096
1119 0 61.1673 12.1143 741 97.946 647.619 485.375
1120 0 63.1133 12.5013 789 97.3169 647.593 484.416
1121 0 66.0877 12.8314 848 97.7087 646.941 483.275
1122 0 68.1049 12.701 865 100.002 646.686 482.654
1123 0 67.1284 10.547 708 106.662 646.876 481.836
1124 0 72.1553 13.2769 958 100.573 646.77 481.062
1125 0 74.174 12.6594 939 106.448 647.051 480.761
1126 0 77.1048 12.5025 964 109.207 646.9 479.036
1127 0 81.2537 12.7871 1039 108.398 647.423 477.74
1128 1 44.1149 13.1475 580 109.681 648.334 496.174
1129 0 44.082 11.7281 517 115.468 648.178 495.323
1130 0 46.2489 13.1895 610 110.574 647.985 495.543
1131 0 47.4691 12.4713 592 118.731 647.561 493.525
1132 0 49.2293 12.6551 623 118.498 647.449 486.878
1133 0 50.2755 12.8293 645 117.75 647.371 491.76
1134 0 51.356 13.0072 668 118.849 647.627 490.963
1135 0 54.2746 12.9526 703 117.75 647.731 490.964
1136 0 53.3703 13.6405 728 118.916 647.973 490.604
1137 0 56.4067 13.4204 757 118.199 647.571 489.042
1138 0 59.2271 13.3216 789 118.708 647.984 487.743
1139 0 59.2735 12.8051 759 121.013 647.53 487.224
1140 0 62.2358 14.2844 889 116.628 646.903 482.795
1141 0 62.3507 13.0392 813 120.043 646.542 486.107
1142 0 65.305 13.6284 890 118.257 646.882 484.911
1143 0 67.3774 13.2092 890 119.988 647.247 483.193
1144 0 69.4784 13.4718 936 118.755 646.684 482.23
1145 0 70.1578 14.2963 1003 115.756 646.84 480.13
1146 0 73.3394 13.8943 1019 120.339 646.704 475.766
1147 0 77.3095 14.125 1092 117.225 646.28 480.177
1148 0 78.3496 15.0224 1177 116.979 645.95 476.534
1149 0 80.2973 14.0353 1127 120.126 645.402 472.949
1150 0 84.3403 14.1569 1194 117.889 646.065 473.987
1151 0 85.3782 13.9029 1187 119.715 645.543 470.648
1152 0 89.2544 14.341 1280 117.538 645.564 469.073
1153 0 92.3198 14.2765 1318 117.774 646.324 464.998
1154 0 96.3319 13.931 1342 117.145 645.303 464.514
1155 1 50.1183 11.5327 578 115.142 645.699 486.955
1156 0 51.0819 11.2564 575 120.511 646.875 489.663
1157 0 57.049 11.4814 655 118.203 647.597 488.441
1158 0 58.0496 13.7641 799 111.961 647.698 488.457
1159 0 59.1649 13.4032 793 115.227 647.59 485.636
1160 0 61.0749 13.3607 816 114.064 647.342 484.059
1161 0 65.1282 13.0051 847 113.238 647.581 483.421
1162 0 65.0706 13.1857 858 115.575 647.3 481.936
1163 0 68.0966 13.569 924 114.372 647.136 479.715
1164 0 70.0771 14.2272 997 111.658 647.379 479.733
1165 0 74.0268 13.4681 997 112.152 647.536 480.048
1166 0 74.0315 13.913 1030 111.709 646.896 476.547
1167 0 76.1166 13.2297 1007 113.615 647.21 466.764
1168 0 80.0926 13.1723 1055 112.378 647.532 468.378
1169 0 79.0569 11.7637 930 116.792 648.025 467.345
1170 0 85.1198 13.5339 1152 112.012 647.662 465.584
1171 0 87.2439 13.0783 1141 113.632 647.104 464.467
1172 0 90.2134 12.6589 1142 114.526 646.82 467.573
1173 1 48.1347 11.3016 544 111.721 647.857 490.215
1174 0 50.2538 12.7552 641 98.1903 647.516 488.081
1175 0 52.1375 13.5987 709 101.793 647.286 488.216
1176 0 54.2682 11.8486 643 105.851 647.132 486.98
1177 0 54.5546 11.7314 640 103.566 646.595 484.181
1178 0 57.4568 12.2875 706 99.2776 646.268 483.596
1179 0 56.3515 12.5995 710 101.11 646.382 482.294
1180 0 57.4355 11.9786 688 87.2892 645.785 482.167
1181 0 60.3412 13.8214 834 100.101 645.414 478.719
1182 0 64.3975 12.1589 783 101.266 645.687 476.299
1183 0 64.5176 13.5002 871 99.3249 645.476 473.696
1184 0 68.4984 14.6573 1004 96.8705 646.308 475.438
1185 0 68.3844 13.5557 927 100.099 645.853 471.076
1186 0 72.4326 13.4746 976 99.7213 646.525 471.406
1187 0 76.561 13.8844 1063 98.0847 646.939 470.913
1188 0 77.47 13.5536 1050 99.0648 646.578 470.502
1189 0 82.4732 13.9439 1150 96.953 646.064 469.389
1190 0 82.5801 13.1024 1082 102.565 646.43 467.242
1191 0 87.1929 14.1755 1236 99.9134 646.084 466.069
1192 1 43.121 12.0127 518 96.1911 647.112 489.28
1193 0 45.1268 12.2987 555 100.568 647.503 489.256
1194 0 50.0981 11.8767 595 99.8202 647.057 491.01
1195 0 49.1373 12.8416 631 98.8764 645.886 490.483
1196 0 50.1718 12.796 642 100.062 646.223 488.307
1197 0 52.1972 11.8589 619 101.738 645.969 488.149
1198 0 53.2685 11.1135 592 101.215 645.995 483.782
1199 0 57.2731 13.2174 757 99.3857 646.613 485.411
1200 0 56.2623 12.3173 693 103.244 645.67 485.841
1201 0 59.1848 13.3818 792 102.926 645.741 485.913
1202 0 60.4253 13.4546 813 101.305 646.343 482.603
1203 0 60.3735 12.8865 778 102.004 646.085 480.924
1204 0 64.2505 13.8832 892 97.6984 645.871 480.214
1205 0 66.383 13.1208 871 98.6073 646.036 479.02
1206 0 70.3076 12.7298 895 102.808 646.235 477.849
1207 0 71.4075 12.8278 916 103.836 646.179 477.285
1208 0 75.3253 12.3863 933 103.577 646.054 476.834
1209 0 77.3037 12.8713 995 111.113 646.527 474.374
1210 0 79.3602 12.6638 1005 109.679 646.42 471.659
1211 0 80.2283 12.452 999 111.064 645.907 469.59
1212 0 83.4363 12.968 1082 109.84 646.129 470.498
1213 0 87.3798 12.4399 1087 111.687 646.405 467.911
1214 0 91.2689 13.7506 1255 109.69 646.943 467.127
1215 0 91.4707 11.7524 1075 116.163 647.215 466.532
1216 1 48.0406 11.5319 554 107.457 647.7 489.787
1217 0 53.098 12.2792 652 104.982 647.589 488.679
1218 0 54.184 12.4576 675 105.596 644.39 491.727
1219 0 56.3904 14.3641 810 98.3543 646.259 489.954
1220 0 56.2658 12.2277 688 103.798 643.469 488.525
1221 0 59.1445 11.9707 708 105.143 643.894 487.236
1222 0 60.2277 13.2331 797 103.094 642.817 485.503
1223 0 63.1924 14.0365 887 100.971 643.375 484.601
1224 0 65.1715 12.2293 797 103.614 643.906 484.458
1225 0 67.2231 12.3023 827 103.42 643.852 484.773
1226 0 70.2861 13.1463 924 101.326 644.216 482.013
1227 0 74.291 14.8605 1104 96.9565 644.362 481.534
1228 0 74.4941 12.6721 944 102.308 644.118 481.094
1229 0 74.4319 13.7844 1026 101.426 644.131 479.338
1230 0 78.522 12.7098 998 102.16 644.264 476.183
1231 0 80.3177 14.3181 1150 99.7591 644.354 475.474
1232 0 82.372 12.9534 1067 101.829 643.987 472.261
1233 0 84.6562 14.5648 1233 99.7843 644.586 469.147
1234 0 87.7315 14.5444 1276 100.553 644.642 468.087
1235 0 89.7956 12.9739 1165 104.649 644.386 469.427
1236 0 88.3999 12.353 1092 108.489 645.215 466.714
1237 0 91.1035 14.478 1319 102.679 645.955 437.989
1238 0 93.2446 12.3653 1153 105.964 644.107 438.91
1239 0 93.2172 10.792 1006 96.6362 645.015 458.605
1240 0 97.1939 13.3959 1302 101.442 644.833 461.451
1241 0 101.634 12.181 1238 100.386 644.186 455.668
1242 0 105.509 15.5342 1639 92.3807 644.54 454.52
1243 0 104.377 12.4548 1300 96.11 644.978 450.459
1244 0 112.47 13.8437 1557 91.4277 645.389 454.257
1245 1 58.091 9.26134 538 90.8327 646.23 478.957
1246 0 62.1439 10.2343 636 88.0582 646.668 482.215
1247 0 64.0814 9.1134 584 91.6045 646.599 477.925
1248 0 67.1066 10.461 702 90.1011 646.209 479.286
1249 0 71.1019 10.07 716 92.4344 645.947 476.605
1250 0 71.0768 10.974 780 90.1897 646.703 478.294
1251 0 75.1681 11.1217 836 90.9258 646.86 475.148
1252 0 76.1477 11.412 869 90.7629 645.85 474.153
1253 0 76.1554 10.2028 777 93.1313 646.367 470.404
1254 0 83.2254 11.3787 947 90.8838 645.851 470.173
1255 0 84.1588 10.3257 869 91.0932 646.793 470.381
1256 0 88.1554 12.6368 1114 87.2567 646.955 468.849
1257 1 45.017 10.2628 462 85.4848 647.567 492.829
1258 0 49.0855 13.7923 677 85.7164 647.322 494.025
1259 0 48.4315 12.0376 583 95.3002 646.192 493.3
1260 0 51.1965 13.6923 701 92.9643 646.174 493.534
1261 0 50.1224 13.3473 669 91.9417 646.49 488.88
1262 0 47.2045 11.948 564 88.4184 645.441 486.372
1263 0 48.1585 11.1299 536 89.5187 645.119 483.435
1264 0 52.2252 13.2503 692 84.5477 645.601 486.195
1265 0 54.1303 10.641 576 86.5434 646.066 486.727
1266 0 55.1167 12.283 677 86.5687 645.877 483.182
1267 0 59.1216 13.9205 823 81.8141 645.869 486.147
1268 0 57.0996 10.4029 594 87.6094 646.382 481.714
1269 0 62.1058 14.3787 893 83.5666 646.658 480.017
1270 0 62.0469 11.9909 744 88.1237 645.997 481.906
1271 0 66.0919 12.4372 822 87.5195 645.706 477.833
1272 0 66.0647 11.4433 756 92.4775 646.101 477.074
1273 0 71.1468 14.7863 1052 84.9439 645.878 478.537
1274 0 69.1612 12.0154 831 91.6992 645.721 474.26
1275 0 73.2403 12.9846 951 90.4763 645.862 473.971
1276 0 76.1639 13.4053 1021 90.1822 645.841 473.235
1277 0 78.1364 13.63 1065 90.63 646.254 470.397
1278 0 82.4049 12.2444 1009 92.445 646.651 470.091
1279 0 85.2701 15.6796 1337 86.8512 645.724 468.58
1280 0 88.1546 13.0566 1151 90.3397 646.23 468.605
1281 0 92.1953 15.9769 1473 85.613 645.847 467.604
1282 0 92.2215 13.8471 1277 91.5881 646.446 462.612
1283 0 95.4458 15.8834 1516 85.5013 644.79 462.324
1284 1 45.0693 10.2065 460 82.6326 645.046 488.439
1285 0 47.1227 8.40359 396 86.7551 645.182 486.997
1286 0 50.2426 9.73278 489 86.1145 645.254 486.777
1287 0 52.2324 9.59174 501 87.2715 645.08 485.729
1288 0 54.2054 12.1206 657 85.3318 645.393 482.137
1289 0 55.1406 11.8062 651 89.3625 645.418 481.739
1290 0 60.0705 12.0192 722 88.6537 645.292 482.425
1291 0 61.1875 10.2472 627 91.4737 645.904 483.45
1292 0 65.1522 11.6497 759 87.0764 646.232 481.476
1293 0 65.1669 9.72887 634 91.3249 646.569 478.868
1294 0 67.2088 11.561 777 90.4698 646.714 477.794
1295 0 71.1315 11.4858 817 89.8237 646.174 478.636
1296 0 72.1932 10.9844 793 91.5511 646.241 476.99
1297 0 75.2115 11.1419 838 90.895 646.418 478.7
1298 0 76.303 13.7871 1052 89.0238 646.802 474.016
1299 0 78.1625 11.5912 906 93.3057 646.359 470.804
1300 0 81.2598 10.891 885 96.991 645.786 470.374
1301 0 85.2576 11.4711 978 95.9018 644.945 471.185
1302 0 90.241 12.7769 1153 94.5325 646.181 469.471
1303 0 92.3456 12.7889 1181 93.2312 646.053 467.92
1304 0 94.4062 12.0861 1141 95.5513 644.89 464.473
1305 1 46.0948 9.19844 424 87.6179 644.642 490.302
1306 0 45.1009 8.73596 394 93.599 646.114 486.66
1307 0 47.0889 11.68 550 82.6055 645.895 488.227
1308 0 51.1869 10.8817 557 83.7738 645.732 486.643
1309 0 51.0276 11.1704 570 82.4982 645.419 487.451
1310 0 53.0909 10.4538 555 84.3441 646.867 487.245
1311 0 56.2191 11.6508 655 83.1405 646.241 483.956
1312 0 56.1616 11.004 618 86.1327 645.869 481.019
1313 0 58.071 10.6766 620 85.3758 645.84 483.927
1314 0 57.0891 10.1946 582 87.1357 645.923 480.832
1315 0 59.1185 10.1829 602 86.8239 646.241 479.36
1316 0 64.323 14.8936 958 80.2338 645.881 474.652
1317 0 63.1659 9.81542 620 85.6258 645.723 476.929
1318 0 67.1994 10.9227 734 84.6567 646.193 475.872
1319 0 69.3164 11.4547 794 85.6499 646.669 471.674
1320 0 72.2183 11.4098 824 86.4818 646.222 470.192
1321 0 74.1815 11.5528 857 86.9767 646.061 471.756
1322 0 76.2126 10.7987 823 92.7485 646.564 469.179
1323 0 81.3077 10.7985 878 92.0911 645.407 469.403
1324 0 85.4172 10.8643 928 102.972 643.745 472.989
1325 0 88.3389 11.6483 1029 99.7629 644.996 466.745
1326 1 44.3628 11.3158 502 96.6135 646.064 493.313
1327 0 47.1151 11.8646 559 91.8909 643.878 493.259
1328 0 49.0854 12.6107 619 93.0679 643.078 492.717
1329 0 51.0514 13.555 692 91.3743 643.066 491.324
1330 0 50.0596 11.8459 593 95.629 643.272 491.172
1331 0 53.1738 13.1456 699 91.8255 642.835 490.197
1332 0 54.0776 13.4437 727 92.7331 642.536 484.008
1333 0 56.0771 12.1618 682 93.6129 642.667 487.779
1334 0 57.1325 12.1472 694 95.732 643.503 487.203
1335 0 60.0811 12.9824 780 93.7423 643.688 486.465
1336 0 61.1298 13.8394 846 94.4846 644.022 486.933
1337 0 62.2723 12.5096 779 98.2105 644.401 485.773
1338 0 66.2101 13.0796 866 97.6363 643.536 483.507
1339 0 68.4237 13.5626 928 97.8847 644.232 461.08
1340 0 71.4656 13.503 965 96.4694 645.618 482.024
1341 0 71.6704 13.3109 954 98.9916 646.041 481.939
1342 0 74.2808 13.1393 976 101.947 645.69 480.329
1343 0 75.4457 13.4666 1016 102.378 644.881 479.697
1344 0 76.5367 12.2164 935 105.539 645.025 477.06
1345 0 81.4674 13.5514 1104 103.141 644.572 475.001
1346 0 82.5831 12.4117 1025 103.491 643.823 474.696
1347 0 86.2001 13.3758 1153 90.5681 644.395 474.53
1348 0 87.2914 13.1514 1148 98.8676 644.895 473.593
1349 0 89.28 12.1752 1087 96.8473 644.071 472.832
1350 0 94.2999 11.983 1130 97.2947 644.084 473.243
1351 1 48.0505 11.2382 540 95.3389 643.296 493.174
1352 0 48.0735 11.0872 533 97.5985 644.163 493.899
1353 0 52.183 12.9927 678 92.6475 645.704 492.827
1354 0 54.2159 12.5056 678 87.9218 647.086 491.981
1355 0 55.2486 12.6157 697 87.439 646.943 492.161
1356 0 63.3762 14.6901 931 81.652 646.656 486.895
1357 0 60.4396 14.0967 852 86.1608 647.162 490.069
1358 0 59.1236 13.7678 814 88.7604 647.5 487.891
1359 0 60.2825 12.8396 774 91.0517 647.468 487.181
1360 0 65.1395 14.1082 919 87.0468 646.987 486.361
1361 0 66.2107 13.6534 904 86.9137 646.028 483.971
1362 0 71.1517 13.2815 945 87.5704 645.884 471.969
1363 0 70.176 13.0814 918 87.3595 646.222 484.276
1364 0 72.1578 12.4588 899 88.1568 646.476 484.26
1365 0 74.1644 11.9869 889 88.4567 646.305 481.63
1366 0 77.2757 13.7171 1060 86.3358 645.528 480.305
1367 0 80.1874 15.5137 1244 84.1857 645.939 478.28
1368 0 84.1901 14.0753 1185 85.9494 645.768 476.772
1369 0 86.3055 12.6991 1096 88.1834 644.518 474.676
1370 0 88.3329 14.0265 1239 86.8071 644.358 473.663
1371 0 91.2419 11.8586 1082 87.5213 644.533 470.793
1372 1 48.2353 13.0817 631 86.7829 644.518 489.54
1373 0 50.1108 13.4103 672 81.1161 643.592 494.321
1374 0 52.1617 12.3079 642 84.0312 643.861 493.439
1375 0 51.1482 12.5713 643 85.8227 644.42 491.081
1376 0 52.1326 12.6792 661 86.2526 644.284 489.867
1377 0 56.0774 13.624 764 83.4071 644.196 490.568
1378 0 54.05 11.8594 641 88.5741 644.256 489.122
1379 0 58.0628 13.9849 812 85.3596 644.56 489.23
1380 0 60.0931 13.4458 808 86.9394 644.843 486.974
1381 0 64.1191 14.3795 922 84.8698 644.624 486.761
1382 0 64.0706 12.9076 827 87.5103 645.024 485.065
1383 0 66.1697 13.42 888 87.4842 644.711 484.113
1384 0 67.2266 13.3132 895 91.667 644.932 477.499
1385 0 72.2611 13.6034 983 91.2208 645.25 479.367
1386 0 76.3099 13.1307 1002 91.8972 645.39 478.169
1387 0 77.271 13.5756 1049 91.7769 644.827 476.331
1388 0 81.2484 14.2649 1159 89.8248 644.954 476.311
1389 0 86.323 12.6038 1088 92.0423 645.131 475.926
1390 0 88.1974 13.2997 1173 92.5575 645.512 472.636
1391 0 87.1773 13.4783 1175 89.6085 647.084 460.178
1392 1 43.1948 11.3671 491 80.3177 646.717 490.564
1393 0 47.0678 11.579 545 86.8147 646.602 493.572
1394 0 48.1343 12.382 596 85.7919 646.213 494.948
1395 0 50.1943 15.0017 753 82.992 646.657 493.085
1396 0 52.029 11.9741 623 88.0674 646.759 492.08
1397 0 52.1243 12.4318 648 87.2577 646.528 494.261
1398 0 54.0565 14.5218 785 84.7057 646.489 489.636
1399 1 4 9.75 39 60.2821 646.718 465.282
1400 1 60.1482 13.7494 827 84.6106 646.317 489.688
1401 0 59.112 11.8758 702 88.0812 646.254 491.207
1402 0 61.1401 13.5427 828 85.9457 646.25 487.899
1403 0 58.2738 13.5395 789 85.9721 646.309 486.802
1404 0 63.0563 11.3074 713 92.7672 644.589 425.98
1405 0 69.2084 16.2697 1126 85.2691 645.802 436.651
1406 0 69.3048 15.1216 1048 88.146 645.449 437.416
1407 0 73.4102 15.1478 1112 86.5045 643.596 441.251
1408 0 73.1445 16.2008 1185 86.0996 643.186 443.176
1409 0 76.1266 13.3593 1017 89.1524 643.808 444.227
1410 0 79.1468 13.9614 1105 95.4824 643.656 417.586
1411 0 83.1416 15.9246 1324 92.5355 643.468 420.113
1412 0 80.1706 20.1071 1612 85.3021 644.758 140.094
