time division length width area intensity CMx CMy
0 0 48.1319 12.1957 587 115.06 117.026 470.293
1 0 48.4516 12.0326 583 120.058 117.539 468.497
2 0 50.1604 12.8787 646 118.339 117.322 469.56
3 0 52.1728 12.2478 639 120.412 116.222 466.986
4 0 54.2343 12.6488 686 118.698 116.197 468.004
5 0 53.1816 11.4701 610 123.174 116.7 467.269
6 0 56.2232 12.7172 715 119.512 116.684 465.89
7 0 59.2642 13.4483 797 116.794 118.085 462.7
8 0 62.3254 13.1728 821 115.893 117.879 464.018
9 0 63.3471 13.2918 842 117.134 117.758 461.724
10 0 65.2491 12.3373 805 119.96 116.825 459.984
11 0 66.3476 12.8565 853 119.141 117.116 459.64
12 0 72.4127 13.4645 975 114.311 119.174 460.283
13 0 72.4553 12.104 877 121.073 118.883 457.918
14 0 75.2975 13.5463 1020 116.493 118.838 457.552
15 0 76.5819 13.2016 1011 119.433 118.51 455.671
16 0 79.2413 13.4778 1068 118.186 118.993 453.729
17 0 86.3348 15.2661 1318 111.417 118.667 448.683
18 0 85.4955 14.2815 1221 117.428 118.342 449.622
19 0 89.671 13.6834 1227 117.709 118.826 451.461
20 0 92.3601 14.0212 1295 117.56 118.684 446.35
21 1 48.534 11.0026 534 120.712 119.311 469.451
22 0 50.1363 14.0617 705 103 118.745 470.772
23 0 52.1378 13.3876 698 103.476 118.483 470.38
24 0 53.1344 11.6873 621 109.301 119.987 467.454
25 0 55.0776 11.7652 648 109.255 119.912 466.606
26 0 58.1009 13.4938 784 103.514 120.519 466.374
27 0 59.1514 11.2593 666 110.195 120.213 466.2
28 0 59.1868 12.9928 769 107.804 119.269 462.641
29 0 63.2093 12.9253 817 107.435 119.506 462.341
30 0 66.1842 13.3264 882 106.014 119.289 462.127
31 0 67.1327 13.3169 894 106.72 119.194 460.801
32 0 70.2103 12.6904 891 107.898 119.387 460.659
33 0 72.1682 13.3023 960 105.656 119.925 458.254
34 0 74.1687 12.4042 920 109.159 119.575 456.903
35 0 76.2573 13.4938 1029 105.862 118.715 457.707
36 0 78.1558 12.5902 984 108.209 118.605 455.618
37 0 80.1982 12.9429 1038 107.897 118.414 454.852
38 0 82.0917 11.9013 977 111.485 118.654 452.795
39 0 87.3097 12.7248 1111 109.583 118.664 450.95
40 0 91.1036 12.5901 1147 109.017 118.406 450.055
41 1 46.0433 10.5987 488 116.881 119.703 469.762
42 0 48.0826 10.8147 520 115.1 120.223 470.092
43 0 48.0675 12.0872 581 114.246 120.852 466.898
44 0 51.0363 12.4029 633 117.264 120.921 467.191
45 0 54.0309 12.9 697 116.446 120.506 466
46 0 55.118 12.1739 671 119.34 118.356 466.131
47 0 57.0711 12.2829 701 118.402 117.825 464.603
48 0 58.0993 12.4442 723 119.084 119.313 463.321
49 0 61.113 12.2233 747 119.629 118.315 462.447
50 0 61.357 12.3213 756 120.341 118.382 461.229
51 0 62.1868 12.1408 755 120.939 118.46 461.493
52 0 64.2095 12.5059 803 120.608 118.898 460.605
53 0 67.2177 13.6125 915 116.843 119.393 459.84
54 0 70.2186 12.7459 895 118.982 118.855 460.069
55 0 69.2518 12.7794 885 119.71 119.26 459.475
56 0 74.2765 13.3824 994 116.664 119.368 458.3
57 0 75.1799 14.5518 1094 115.69 118.771 457.199
58 0 76.2353 13.419 1023 120.442 118.879 453.961
59 0 81.2833 13.5575 1102 118.964 118.142 454.138
60 0 79.215 14.2397 1128 117.621 118.637 452.627
61 0 81.2121 12.9045 1048 119.403 118.332 453.734
62 0 79.1711 10.8247 857 122.12 119.177 456.807
63 0 80.2365 10.2572 823 123.53 118.972 456.454
64 0 79.1168 9.32798 738 124.318 119.533 458.417
65 1 48.1021 11.1638 537 118.309 120.019 468.324
66 0 48.0182 10.2461 492 120.124 119.825 469.754
67 0 53.2064 13.3255 709 108.55 119.728 468.64
68 0 53.0716 11.5316 612 114.551 119.9 468.072
69 0 54.2727 12.7136 690 108.732 120.296 465.459
70 0 59.1041 12.5034 739 108.87 120.535 462.766
71 0 60.1513 13.8318 832 71.2704 120.794 463.347
72 0 61.1354 12.8894 788 109.057 120.447 463.542
73 0 62.1783 13.9438 867 106.621 119.655 463.871
74 0 63.1902 12.9134 816 109.89 119.792 461.911
75 0 66.2024 12.9149 855 109.156 119.656 462.518
76 0 67.1505 12.7177 854 110.185 119.359 460.33
77 0 68.1459 12.3412 841 113.805 119.765 460.27
78 0 69.156 11.8717 821 114.799 119.661 461.847
79 0 71.2106 12.0488 858 113.77 119.72 459.336
80 0 75.156 13.1726 990 110.403 119.629 458.728
81 0 77.2001 11.5803 894 115.23 119.874 458.607
82 0 80.1259 12.1184 971 114.957 120.612 456.194
83 0 83.2485 11.6038 966 117.154 120.425 452.117
84 0 87.0826 11.7015 1019 115.02 119.956 453.591
85 0 90.3068 11.8928 1074 113.294 121.249 448.439
86 0 92.0875 11.1307 1025 114.567 120.349 452.257
87 1 53.0145 11.544 612 118.152 120.296 466.536
88 0 55.0353 12.8463 707 114.284 119.818 466.222
89 0 56.0935 12.4079 696 117.886 120.029 467.231
90 0 55.0821 12.2 672 120.43 120.65 467.35
91 0 59.0435 12.7364 752 116.727 120.168 466.516
92 0 59.0619 12.6139 745 118.407 119.961 464.895
93 0 63.0509 13.4812 850 113.609 119.664 465.865
94 0 65.1169 12.8845 839 113.586 119.548 464.697
95 0 66.1548 13.7254 908 111.637 119.291 464.03
96 0 69.0844 13.925 962 112.014 119.848 462.143
97 1 89.554 20.3676 1824 84.1924 120.06 451.151
98 0 87.1928 17.0198 1484 93.9272 119.142 451.449
99 0 87.1015 20.7804 1810 86.7801 119.809 448.619
100 0 89.3897 21.658 1936 78.1343 119.304 447.477
101 0 88.1286 17.0092 1499 89.8239 119.728 448.648
102 0 85.0879 15.7837 1343 96.7923 119.178 450.622
103 0 85.0898 13.0921 1114 105.803 119.122 454.406
104 0 86.1445 13.1871 1136 106.436 120.04 452.864
105 0 89.1927 12.0974 1079 109.91 119.081 450.296
106 1 47.0902 10.2994 485 106.856 119.742 472.765
107 0 47.1634 11.1527 526 107.319 118.329 470.426
108 0 47.1518 11.9401 563 107.366 116.504 468.959
109 0 50.1922 11.8743 596 87.198 118.331 466.577
110 0 49.204 10.3447 509 97.776 118.246 464.271
111 0 52.138 10.7024 558 100.692 119.19 465.21
112 0 53.1201 9.82679 522 102.305 118.852 465.178
113 0 55.069 8.60739 474 106.688 118.224 461.253
114 0 58.1027 10.4814 609 101.499 118.225 460.452
115 0 59.0959 10.3222 610 102.549 118.079 460.361
116 0 60.0923 11.8984 715 98.6713 118.439 459.915
117 0 62.115 11.7846 732 98.9413 118.738 459.799
118 0 64.2404 11.0989 713 101.213 118.088 457.799
119 0 66.399 10.0604 668 99.7111 118.091 459.328
120 0 68.1472 10.1398 691 100.498 118.936 456.165
121 0 70.2611 10.888 765 98.9556 119.009 455.978
122 0 70.1238 11.4797 805 99.795 118.591 453.002
123 0 74.1951 11.6045 861 97.7782 118.83 454.105
124 0 78.2314 12.4247 972 96.2438 117.823 451.485
125 0 80.1339 10.6072 850 101.327 117.745 449.912
126 0 81.0531 13.0532 1058 96.6569 117.736 446.595
127 0 83.1302 11.5241 958 101.576 117.672 446.721
128 0 86.3421 11.5239 995 100.224 118.253 447.929
129 0 89.2488 11.6304 1038 101.825 117.211 446.283
130 0 90.3774 11.1864 1011 104.374 117.412 426.355
131 0 96.1196 12.4428 1196 100.411 118.656 430.203
132 1 49.0772 10.3714 509 91.5737 117.902 442.228
133 0 53.1587 10.5909 563 103.384 118.167 443.394
134 0 54.1027 12.1436 657 94.8006 118.432 446.647
135 0 56.0633 12.4145 696 95.2816 118.649 448.045
136 0 58.1294 13.8312 804 93.0361 119.066 452.276
137 0 61.1761 12.8318 785 95.2433 118.471 453.783
138 0 62.0654 12.938 803 94.8493 119.181 452.341
139 0 63.1332 12.038 760 98 118.336 445.737
140 0 65.09 11.6454 758 98.7876 118.637 448.703
141 0 68.1817 13.7427 937 94.9605 118.426 448.686
142 0 69.1471 12.9723 897 97.5006 118.104 450.923
143 0 72.0472 12.7694 920 98.2467 118.662 448.205
144 0 72.0992 12.4689 899 101.113 118.976 448.115
145 0 75.1518 13.2133 993 99.8228 118.936 446.927
146 0 78.2409 13.0622 1022 100.861 119.485 450.185
147 0 80.0952 12.3728 991 102.915 118.625 452.305
148 0 84.1396 13.5251 1138 100.32 117.947 452.548
149 0 87.1564 13.7569 1199 99.7448 118.456 451.383
150 0 89.1733 13.3224 1188 101.481 118.646 450.56
151 0 92.1765 13.984 1289 100.853 118.148 446.748
152 0 96.14 12.9811 1248 102.996 117.002 448.916
153 0 99.244 12.4542 1236 104.821 117.25 447.663
154 1 50.1437 12.544 629 108.21 117.154 466.777
155 0 52.2637 13.2788 694 101.527 118.441 465.535
156 0 53.2275 12.5687 669 103.918 117.191 465.851
157 0 55.2651 12.1415 671 105.307 117.812 462.571
158 0 56.4059 12.5873 710 104.249 117.749 462.717
159 0 59.3143 13.066 775 102.077 117.83 464.426
160 0 58.054 12.2472 711 107.72 116.647 464.231
161 0 61.0267 12.9779 792 104.922 116.799 462.779
162 0 61.126 11.779 720 108.383 116.264 463.064
163 0 65.2105 13.1727 859 104.499 116.47 460.518
164 0 68.2325 13.6445 931 102.818 116.062 459.882
165 0 67.2456 11.2572 757 109.538 115.099 458.269
166 0 70.1968 12.5647 882 105.241 116.333 457.888
167 0 76.1128 14.623 1113 98.5804 116.232 453.412
168 0 79.1462 12.7991 1013 102.468 116.406 454.415
169 0 78.1081 12.854 1004 102.899 116.253 453.374
170 0 83.0762 13.8668 1152 99.2804 115.714 449.568
171 0 82.172 11.2569 925 107.13 116.023 449.768
172 0 86.2057 11.8786 1024 104.889 116.265 450.001
173 1 49.106 10.8134 531 104.077 115.855 469.776
174 0 48.1131 10.9118 525 106.356 117.503 468.914
175 0 49.0175 11.0165 540 105.989 118.494 467.528
176 0 51.1473 11.3398 580 105.098 118.067 466.738
177 0 54.044 11.8792 642 103.676 117.773 465.034
178 0 57.0266 11.8717 677 102.858 117.674 464.155
179 0 57.0648 12.7224 726 100.442 117.634 464.288
180 0 57.0769 10.9326 624 105.042 117.987 461.652
181 0 63.0811 11.937 753 99.2882 118.291 463.807
182 0 62.1786 11.467 713 102.049 118.295 461.036
183 0 66.067 12.2149 807 100.325 117.814 461.617
184 0 70.148 11.6753 819 101.545 117.222 458.626
185 0 70.1454 11.3764 798 101.238 116.509 458.826
186 0 71.2261 10.1087 720 103.958 116.667 457.872
187 0 76.1062 11.7467 894 100.443 116.603 455.95
188 0 79.1844 11.2901 894 100.224 116.705 456.432
189 0 80.2082 10.7844 865 100.988 116.901 454.147
190 0 84.1509 12.2993 1035 97.0686 116.682 453.762
191 0 86.1558 11.9319 1028 97.3278 117.089 450.957
192 0 90.0886 11.6219 1047 98.192 116.938 450.486
193 1 44.1256 10.0848 445 96.0809 116.548 472.272
194 0 48.1042 10.7267 516 92.5736 116.682 469.566
195 0 49.0832 11.0221 541 88.5527 117.104 471.155
196 0 50.119 10.3554 519 90.8401 116.62 469.372
197 0 51.0443 12.0484 615 88.7431 117.65 468.915
198 0 53.06 12.288 652 88.3374 117.213 466.653
199 0 54.1902 11.1275 603 91.0017 117.332 468.269
200 0 55.0759 11.0575 609 92.5353 117.261 467.376
201 0 55.1674 11.7461 648 93.0432 116.495 465.716
202 0 59.1698 11.9994 710 92.4592 116.424 464.162
203 0 62.2844 12.1379 756 92.6601 116.898 464.585
204 0 61.1201 11.7146 716 94.0587 116.813 463.761
205 0 64.13 10.6346 682 95.9897 116.12 461.293
206 0 68.1475 13.0306 888 91.0529 116.738 460.485
207 0 68.1687 12.9972 886 93.1569 116.271 459.383
208 0 70.1452 12.5454 880 95.3602 116.244 458.78
209 0 73.166 12.2325 895 95.8816 117.2 458.939
210 0 76.1376 13.2129 1006 94.5427 116.093 457.63
211 0 77.0462 13.1999 1017 95.7316 116.644 455.612
212 0 78.199 12.8518 1005 97.8687 116.753 454.381
213 0 83.2359 14.2847 1189 95.4954 116.123 454.381
214 0 85.0969 12.5387 1067 101.002 116.581 450.79
215 0 86.23 12.803 1104 101.911 117.495 449.529
216 0 90.3074 13.6091 1229 99.3613 118.103 447.92
217 0 92.1772 13.6693 1260 99.1135 117.646 449.45
218 1 48.1336 11.8005 568 100.31 118.408 468.308
219 0 47.1445 10.2027 481 98.1393 115.636 461.505
220 0 49.1029 10.3456 508 96.2205 116.26 461.537
221 0 48.1253 9.66228 465 98.643 116.385 461.469
222 0 50.1058 9.67952 485 92.1505 117.522 462.915
223 0 53.1579 9.59406 510 91.0392 117.678 465.029
224 0 55.1287 10.2125 563 90.5702 118.043 463.629
225 0 53.0808 8.76023 465 94.9613 118.654 461.084
226 0 57.0685 10.356 591 92.4738 118.433 460.613
227 0 61.1456 11.2355 687 91.5983 117.182 457.68
228 0 62.109 11.3671 706 91.3059 117.707 458.599
229 0 65.0797 11.9238 776 91.0966 117.169 456.389
230 0 67.1065 11.3402 761 91.4402 117.423 457.754
231 0 69.0553 10.7305 741 92.9636 117.399 456.675
232 0 71.1006 11.5189 819 93.1038 117.26 455.687
233 0 75.2805 12.4468 937 91.8111 117.447 452.711
234 0 75.1532 11.8425 890 94.4831 117.891 451.22
235 0 79.1389 11.5999 918 95.2135 117.57 448.566
236 0 83.0739 12.0616 1002 95.9092 117.593 449.233
237 0 85.0893 11.4115 971 103.132 117.551 449.552
238 0 89.0639 11.9016 1060 103.908 116.694 445.22
239 0 91.149 12.1998 1112 102.797 116.761 443.694
240 0 95.2171 11.6681 1111 105.12 116.644 441.574
241 1 50.0761 11.5225 577 93.3432 117.033 465.728
242 0 53.0891 12.3001 653 99.7917 118.018 467.351
243 0 56.1894 13.4367 755 100.901 118.061 467.634
244 0 59.1302 12.7346 753 103.502 118.51 468.215
245 0 59.1334 13.2413 783 103.807 118.64 466.814
246 0 62.134 14.5492 904 99.3728 118.004 467.664
247 0 63.0965 13.5824 857 102.376 118.315 465.742
248 0 64.1424 13.7662 883 103.785 118.554 462.793
249 0 67.1526 13.5512 910 103.352 118.255 464.87
250 0 70.1192 15.2027 1066 99.9071 118.371 462.348
251 0 72.1907 13.6583 986 104.048 118.385 459.967
252 0 75.2031 13.6298 1025 104.399 118.039 460.676
253 0 78.1437 14.2814 1116 102.073 119.082 459.572
254 0 79.0995 13.2365 1047 107.124 118.521 458.079
255 0 83.0964 15.2714 1269 102.411 117.701 455.41
256 0 86.089 14.4966 1248 103.881 118.327 454.919
257 1 44.0572 11.2127 494 115.717 118.66 472.16
258 0 44.0241 11.2438 495 111.986 117.848 469.562
259 0 44.0582 10.4634 461 97.8395 117.657 463.195
260 0 48.1641 10.5265 507 96 117.923 468.732
261 0 48.1847 10.6258 512 97.1211 118.25 466.477
262 0 51.1597 11.4739 587 94.7359 118.167 466.549
263 0 51.1472 12.3565 632 94.1899 117.305 464.478
264 0 53.0758 11.1915 594 97.1616 117.852 465.237
265 0 57.1657 12.9273 739 103.279 116.882 465.093
266 0 55.1218 10.9575 604 110.031 117.467 462.278
267 0 58.0706 11.4344 664 108.788 117.559 462.652
268 0 61.2582 11.3454 695 108.955 117.122 461.233
269 0 61.1541 11.8062 722 107.647 117.54 461.199
270 0 64.2056 12.5067 803 107.582 117.3 458.161
271 0 65.1414 11.5748 754 110.127 117.427 457.415
272 0 67.16 12.2692 824 108.587 117.09 457.208
273 0 70.1842 13.0229 914 106.435 117.379 456.231
274 0 72.156 12.1819 879 109.509 117.546 453.188
275 0 75.1119 12.9806 975 107.206 117.186 451.802
276 0 79.1281 12.7136 1006 107.038 117.521 452.304
277 0 79.1748 13.5649 1074 106.115 118.181 450.635
278 0 83.1337 12.8107 1065 107.51 117.147 449.618
279 0 87.1274 13.75 1198 105.841 116.794 444.635
280 0 88.1101 12.2233 1077 109.812 118.087 444.344
281 1 50.0955 11.1587 559 97.9893 117.131 459.766
282 0 51.0856 12.9586 662 101.944 116.835 467.095
283 0 53.1436 12.645 672 94.817 118.21 467.121
284 0 52.041 12.4133 646 97.2415 117.921 465.175
285 0 55.0907 12.0891 666 97.8514 117.821 458.788
286 0 57.0955 14.5546 831 92.4597 117.296 458.548
287 0 57.055 14.004 799 93.4643 117.198 460.487
288 0 59.1296 12.2781 726 96.1309 118.391 459.486
289 0 59.1447 12.089 715 98.3021 118.348 455.91
290 0 60.0525 11.5232 692 99.2009 118.496 456.153
291 0 64.1816 13.2904 853 94.4256 118.604 455.89
292 0 66.1314 12.4752 825 96.7176 117.743 453.828
293 0 67.3316 13.4409 905 94.6597 118.074 454.402
294 0 70.2407 12.6422 888 97.4279 118.02 453.02
295 0 71.2819 12.9907 926 98.2732 117.188 450.069
296 0 71.1726 11.6758 831 101.86 116.6 449.88
297 0 76.0439 12.7426 969 99.8359 117.273 448.312
298 0 78.1436 13.5776 1061 98.524 116.942 447.189
299 0 81.0705 12.0636 978 102.192 117.642 445.967
300 0 84.0589 11.0399 928 104.388 118.816 442.422
301 0 89.0548 13.0369 1161 101.158 117.872 440.324
302 0 92.2107 12.6016 1162 103.418 118.121 441.381
303 1 50.0381 10.7518 538 103 117.37 467.862
304 0 54.1386 12.2279 662 108.215 117.607 468.015
305 0 55.1484 13.2914 733 107.258 118.222 465.711
306 0 50.408 11.6053 585 114.737 117.313 462.511
307 0 58.2956 12.6253 736 109.5 117.886 458.958
308 0 61.3297 13.778 845 108.983 118.246 458.653
309 0 63.197 14.8741 940 105.326 118.621 459.163
310 0 63.2078 12.894 815 110.955 117.998 461.546
311 0 67.3921 13.6663 921 108.078 117.772 459.977
312 0 67.405 14.361 968 107.751 118.259 456.875
313 0 70.2589 13.7918 969 109.19 117.908 456.939
314 0 73.4072 13.9496 1024 108.72 118.596 453.887
315 0 75.3742 12.7497 961 107.631 118.787 455.939
316 0 80.3457 13.6286 1095 103.826 119.135 455.556
317 0 79.2119 12.031 953 101.749 118.765 453.656
318 0 83.1757 12.167 1012 102.116 118.719 454.164
319 0 85.1514 13.3409 1136 101.896 118.149 453.534
320 0 88.2626 13.4598 1188 101.603 118.444 452.692
321 0 93.1437 13.4631 1254 100.414 118.75 450.6
322 1 47.007 10.5516 496 96.369 118.667 472.032
323 0 48.182 12.7849 616 103.729 117.674 471.972
324 0 47.329 11.5574 547 111.715 118.282 469.331
325 0 51.1184 14.2806 730 99.237 118.648 469.904
326 0 52.0765 12.8849 671 103.756 118.148 467.668
327 0 55.1033 13.5564 747 101.174 119.118 468.254
328 0 53.091 12.0359 639 106.82 118.721 469.565
329 0 58.1766 13.6825 796 101.842 119.866 461.864
330 0 56.1171 12.6343 709 108.226 118.518 466.623
331 0 60.1879 12.4111 747 104.544 118.039 464.308
332 0 62.1907 14.15 880 100.223 117.992 462.553
333 0 64.1392 12.8782 826 103.516 117.76 462.877
334 0 66.145 13.4855 892 103.997 117.527 461.693
335 0 66.0686 12.7897 845 106.123 117.523 461.311
336 0 69.1743 13.4732 932 104.481 117.817 459.648
337 0 73.1329 14.125 1033 102.856 117.764 458.652
338 0 76.0996 13.5217 1029 103.709 118.156 459.282
339 0 76.139 13.2652 1010 106.552 118.073 454.722
340 0 82.3614 13.6836 1127 102.941 118.263 454.508
341 1 46.3597 11.7343 544 102.042 118.346 467.088
342 0 45.3805 12.0316 546 102.302 118.06 465.229
343 0 45.1829 12.1506 549 102.787 117.74 463.568
344 0 44.0286 10.1071 445 94.9393 118.436 467.193
345 0 48.091 10.3138 496 94.7278 118.087 467.502
346 0 48.0897 10.1061 486 92.6008 118.228 469.601
347 0 50.1625 10.3464 519 94.6724 118.037 465.094
348 0 53.0847 11.3781 604 93.2434 119.608 468.038
349 0 55.1486 11.2061 618 93.3479 118.183 464.293
350 0 54.1289 10.5489 571 96.9615 118.643 463.658
351 0 57.0997 11.0684 632 93.3038 117.973 458.044
352 0 57.0164 10.8039 616 94.5519 117.295 458.554
353 0 60.1005 11.0981 667 93.5082 117.624 457.96
354 0 62.0992 11.8037 733 94.2374 117.731 452.947
355 0 66.0753 10.9118 721 94.6685 117.709 453.795
356 0 71.1836 13.2615 944 89.9958 117.37 449.02
357 0 77.1277 14.8196 1143 86.3596 116.946 444.412
358 0 74.2613 12.1732 904 94.3142 117.365 447.365
359 0 74.0692 11.5838 858 96.8531 117.36 447.329
360 0 79.0996 11.593 917 96.9128 117.016 445.932
361 0 83.1464 10.9085 907 97.1951 117.239 447.791
362 0 85.2271 12.4608 1062 96.8456 117.568 445.515
363 1 45.2512 10.8947 493 99.6004 117.947 463.71
364 0 46.1961 11.3429 524 97.9599 117.323 463.647
365 0 46.1506 10.2274 472 88.7691 118.008 463.716
366 0 50.2976 11.6109 584 98.5548 119.207 472.682
367 0 51.1575 11.4157 584 99.3442 118.219 471.798
368 0 53.0776 12.2462 650 96.2154 119.343 471.225
369 0 56.173 11.3578 638 98.9013 118.944 467.638
370 0 58.3018 11.8693 692 97.7081 119.632 468.152
371 0 59.4524 11.9928 713 97.4965 119.125 465.867
372 0 61.3052 10.0155 614 100.122 118.749 466.116
373 0 63.2196 12.3063 778 96.7892 118.535 464.585
374 0 66.2606 12.4056 822 97.1363 118.364 463.322
375 0 68.182 12.0413 821 97.5652 118.448 464.699
376 0 69.1303 11.8183 817 98.1089 118.503 462.438
377 0 73.2086 12.3073 901 97.2564 118.661 460.6
378 0 76.2385 12.3953 945 97.8677 118.107 460.272
379 0 77.283 12.5772 972 99.2932 118.541 456.832
380 0 80.3336 12.6224 1014 98.7032 118.415 458.487
381 0 82.4616 12.4907 1030 100.474 117.623 453.987
382 1 46.0676 12.1126 558 101.699 118.959 471.102
383 0 48.0858 11.8122 568 102.165 118.224 471.674
384 0 51.1003 11.8786 607 101.4 118.633 472.359
385 0 52.057 13.0242 678 99.91 119.156 470.945
386 0 53.0643 10.9301 580 104.591 118.897 471.805
387 0 55.0684 13.2926 732 100.399 118.69 470.795
388 0 57.1485 12.8962 737 100.859 118.638 470.752
389 0 58.1186 12.9219 751 101.736 118.931 470.506
390 0 60.4439 12.7887 773 103.278 118.098 468.723
391 0 61.1077 13.3862 818 102.166 117.472 466.746
392 0 63.2259 12.1944 771 105.08 118.261 466.262
393 0 63.1112 13.595 858 104.043 117.506 463.463
394 0 67.344 14.0027 943 101.745 117.796 464.839
395 0 67.244 13.0123 875 104.546 117.418 461.567
396 0 71.5316 14.9025 1066 98.439 117.72 461.326
397 0 73.5229 13.6556 1004 101.291 118.155 460.208
398 0 73.6112 12.8513 946 104.14 118.332 454.874
399 0 73.3421 13.0484 957 105.444 117.96 452.421
400 0 78.5083 12.8394 1008 104.308 117.335 451.609
401 0 82.4101 14.537 1198 100.398 117.795 447.691
402 0 84.4655 13.9939 1182 101.759 117.982 450.003
403 0 86.5516 13.4833 1167 102.339 117.439 448.919
404 0 86.198 13.3414 1150 104.427 117.753 447.009
405 0 90.2318 12.4236 1121 105.553 117.335 447.151
406 0 94.3545 13.7884 1301 101.906 117.931 447.646
407 0 94.2028 12.8234 1208 100.456 116.728 450.1
408 0 99.296 12.4275 1234 100.934 116.415 449.947
409 1 55.0435 12.2085 672 101.638 116.198 470.188
410 0 55.1011 13.1032 722 102.12 116.42 467.853
411 0 59.0704 14.2711 843 99.2135 116.794 465.579
412 0 61.0279 14.6327 893 94.3203 116.651 465.704
413 0 61.0762 13.9007 849 98.3428 116.722 465.58
414 0 63.015 13.108 826 100.443 116.769 465.15
415 0 66.0545 13.3223 880 100.777 116.192 461.922
416 0 69.0798 14.7076 1016 97.5945 116.967 461.29
417 0 71.1117 13.6827 973 100.237 117.046 460.035
418 0 73.1924 14.6737 1074 98.8464 116.351 458.704
419 0 74.2781 13.4091 996 103.227 116.812 453.147
420 0 78.2392 14.8902 1165 100.165 116.657 451.204
421 0 79.1842 14.0558 1113 104.399 116.987 450.493
422 0 80.0451 14.4294 1155 104.77 117.433 450.085
423 0 83.1097 14.2583 1185 105.4 116.661 450.441
424 0 84.1157 13.85 1165 108.654 117.27 447.761
425 0 89.2095 14.5612 1299 105.988 117.754 446.494
426 0 91.2992 14.0308 1281 108.559 117.685 446.886
427 0 94.0636 13.4165 1262 110.578 117.798 443.68
428 0 98.245 13.9447 1370 109.384 117.826 443.049
429 0 101.254 14.4389 1462 107.698 117.507 439.588
430 1 55.371 12.1002 670 113.425 118.237 463.918
431 0 57.1715 12.2439 700 113.849 117.656 461.68
432 0 59.0782 12.255 724 114.797 117.2 459.64
433 0 61.0382 13.1885 805 112.354 117.246 460.405
434 0 63.0588 14.6054 921 107.51 117.828 458.46
435 0 64.1929 12.9765 833 112.417 117.867 459.699
436 0 65.1823 13.8688 904 113.123 117.7 455.998
437 0 68.1033 13.8907 946 113.557 117.373 455.498
438 0 71.1209 13.9059 989 112.729 117.126 455.009
439 0 73.3859 14.2398 1045 112.049 117.396 454.547
440 0 76.3655 13.4223 1025 114.051 117.62 453.945
441 0 78.1539 14.7146 1150 111.833 117.41 450.333
442 0 81.2352 15.0058 1219 111.097 117.384 449.253
443 0 83.3175 14.4867 1207 114.187 117.367 448.267
444 0 87.0743 14.5049 1263 113.328 117.725 446.404
445 0 90.3856 13.9181 1258 114.344 117.188 445.824
446 0 94.2357 14.7078 1386 112.481 116.946 444.885
447 0 96.3353 14.9063 1436 112.303 117.126 444.027
448 0 99.2584 14.6285 1452 114.245 116.937 438.519
449 0 103.25 14.402 1487 114.907 117.111 436.371
450 1 54.0683 11.4485 619 113.05 116.927 461.239
451 0 59.1135 13.3303 788 108.629 117.496 458.793
452 0 59.1281 11.9402 706 112.711 117.902 457.654
453 0 60.1058 12.0621 725 113.92 117.363 457.661
454 0 61.1342 12.3008 752 114.505 117.253 461.61
455 0 62.0774 12.9355 803 110.628 118.267 459.77
456 0 66.1137 13.2197 874 109.174 117.371 456.892
457 0 69.1755 13.3718 925 108.387 117.84 454.832
458 0 70.1335 13.1891 925 109.457 117.539 454.025
459 0 74.1981 12.6149 936 110.118 117.817 451.143
460 0 76.1798 13.4288 1023 108.783 117.734 449.661
461 0 75.1338 11.2998 849 114.643 117.875 449.359
462 0 82.1568 13.2917 1092 108.551 117.766 448.193
463 0 83.1585 12.8309 1067 110.132 116.521 446.427
464 0 84.0916 13.295 1118 105.946 116.989 446.26
465 0 90.1497 12.2796 1107 107.005 117.238 445.631
466 0 92.1372 12.4597 1148 108.591 117.228 441.648
467 0 94.1041 12.5181 1178 110.717 117.109 438.63
468 1 49.2283 7.78008 383 103.885 117.943 466.29
469 0 50.1372 9.49396 476 99.7626 117.227 462.697
470 0 53.1254 11.087 589 94.1154 117.146 462.537
471 0 55.1269 11.6459 642 93.7165 117.206 461.466
472 0 56.07 11.1289 624 95.1891 117.607 461.356
473 0 57.0803 11.1072 634 96.295 118.191 459.987
474 0 59.082 10.2569 606 97.4884 117.691 457.937
475 0 62.1712 12.0795 751 94.225 117.684 457.76
476 0 64.0789 10.7056 686 97.5131 118.499 456.939
477 0 66.0923 10.7577 711 96.9944 117.184 457.637
478 0 69.0438 10.0226 692 98.2645 117.689 454.986
479 0 74.1306 12.6668 939 93.8083 117.816 456.131
480 0 72.1563 10.0892 728 100.889 118.176 453.067
481 0 78.0849 11.3594 887 98.4352 117.667 454.993
482 0 79.1147 11.4265 904 100.235 117.527 453.853
483 0 84.0899 12.1655 1023 100.595 117.454 452.498
484 0 89.0861 12.7966 1140 108.818 117.178 453.674
485 0 92.0968 13.931 1283 105.395 116.961 451.213
486 0 95.148 13.0428 1241 107.225 117.264 450.732
487 1 51.0855 11.8233 604 106.528 116.611 471.959
488 0 53.0414 12.6316 670 100.927 116.669 472.097
489 0 55.0343 12.1379 668 98.7036 117.331 471.18
490 0 56.0379 13.7586 771 96.8366 117.228 469.364
491 0 57.0365 11.5014 656 101.829 117.155 471.194
492 0 59.0438 11.3306 669 104.36 116.622 470.795
493 0 63.0719 12.4461 785 102.445 116.278 468.442
494 0 63.0511 12.3392 778 104.69 116.595 467.374
495 0 65.0326 11.6249 756 106.52 116.783 465.616
496 0 67.1275 11.0089 739 107.936 117.528 467.072
497 0 69.0926 11.926 824 106.437 116.772 464.731
498 0 72.0693 12.3492 890 105.67 117.153 463.593
499 0 74.2093 12.2761 911 106.048 117.381 460.689
500 0 76.1124 12.9414 985 106.134 116.995 461.785
501 0 79.0459 12.9798 1026 105.865 117.694 461.066
502 0 78.136 11.9023 930 110.841 116.665 459.386
503 0 81.1068 12.5514 1018 110.867 116.893 457.229
504 0 86.1245 13.3528 1150 108.63 116.58 457.176
505 0 85.1333 11.1472 949 113.855 117.455 456.27
506 0 90.0359 12.6283 1137 110.522 117.661 454.936
507 0 92.0909 12.5637 1157 111.428 116.822 453.794
508 0 95.1662 12.599 1199 111.216 117.271 450.877
509 0 100.156 12.5604 1258 110.047 116.313 450.412
510 0 104.19 11.5366 1202 114.166 117.727 447.691
511 0 106.172 10.7656 1143 115.688 117.248 443.501
512 0 109.099 11.6683 1273 114.026 116.738 443.949
513 1 58.137 12.9694 754 105.554 118.052 470.52
514 0 60.1268 13.2886 799 105.25 118.631 468.571
515 0 62.1467 13.098 814 104.856 118.778 469.687
516 0 62.102 12.2701 762 107.953 118.366 467.626
517 0 66.2308 12.6678 839 106.304 118.29 465.731
518 0 69.1923 12.6893 878 105.369 118.01 467.317
519 0 70.1405 14.0147 983 104.423 117.642 463.758
520 0 73.0873 13.8054 1009 104.685 117.807 462.935
521 0 73.132 12.9765 949 108.121 117.602 462.47
522 0 74.132 11.8977 882 110.939 117.27 462.257
523 0 78.1092 13.7372 1073 106.567 117.158 458.386
524 0 80.061 13.9643 1118 106.682 117.118 458.817
525 0 83.0859 13.7809 1145 106.909 117.677 458.312
526 0 85.0522 13.9209 1184 106.101 117.416 459.581
527 0 86.0922 12.4285 1070 109.666 117.309 458.433
528 0 91.0537 13.9478 1270 106.609 116.849 456.81
529 0 90.0918 13.231 1192 106.014 116.779 453.067
530 0 94.0758 12.5962 1185 106.608 116.791 453.067
531 0 96.1153 13.8167 1328 105.334 116.928 449.061
532 0 100.135 13.5218 1354 112.876 116.683 450.807
533 0 104.259 14.1666 1477 111.271 116.805 448.345
534 0 107.129 13.3577 1431 108.885 117.283 446.881
535 0 110.149 12.4377 1370 107.174 117.299 439.844
536 0 114.138 12.6864 1448 105.847 117.171 438.655
537 0 117.206 12.7041 1489 106.415 117.05 437.132
538 0 122.246 12.9412 1582 108.975 116.779 434.474
539 1 57.0259 10.2585 585 113.976 117.554 460.484
540 0 60.323 11.3721 686 112.787 117.717 457.856
541 0 63.1169 11.6292 734 111.545 117.534 458.27
542 0 65.0766 11.4173 743 114.895 117.666 453.773
543 0 70.1827 12.8949 905 109.598 117.765 455.671
544 0 71.238 12.002 855 111.586 117.681 456.057
545 0 72.0899 11.6937 843 114.779 118.293 452.391
546 0 76.1518 12.3306 939 112.409 117.548 457.719
547 0 79.1205 12.7022 1005 112.04 118.124 456.555
548 0 80.3538 13.0921 1052 122.661 118.55 458.226
549 0 86.2273 12.6758 1093 119.344 118.074 458.465
550 0 88.0824 12.9424 1140 117.038 116.691 456.678
551 0 91.1171 11.2932 1029 113.305 116.739 455.05
552 0 91.3091 12.277 1121 111.808 117.077 446.45
553 0 95.4043 11.5299 1100 114.477 117.349 446.194
554 0 98.2392 12.5103 1229 112.436 117.493 446.762
555 0 99.3844 11.2291 1116 116.861 118.384 443.357
556 0 105.211 12.8504 1352 107.875 117.641 447.633
557 0 106.284 12.5043 1329 113.441 117.33 446.415
558 0 106.247 11.8027 1254 117.829 117.28 444.127
559 0 106.569 12.1799 1298 111.175 117.156 442.398
560 0 107.43 12.2591 1317 111.173 117.328 443.418
561 0 107.388 10.9417 1175 117.611 117.081 443.434
562 0 108.311 11.3746 1232 117.926 117.117 442.688
563 0 111.227 11.7687 1309 118.82 117.032 441.011
564 0 112.272 11.009 1236 121.865 116.546 441.822
565 0 115.255 11.93 1375 118.489 116.887 441.184
566 0 118.34 11.7627 1392 118.921 116.5 439.499
567 1 64.149 10.5536 677 109.91 117.043 468.589
568 0 66.0618 9.33974 617 108.514 115.898 469.549
569 0 69.039 9.7626 674 107.85 115.782 466.54
570 0 71.0559 10.4143 740 105.242 116.564 463.836
571 0 76.0868 12.4857 950 100.035 116.069 459.935
572 0 76.1236 10.772 820 103.406 116.29 458.165
573 0 79.1891 11.9082 943 100.613 116.573 457.406
574 0 81.2271 11.0062 894 101.36 117.626 456.779
575 0 84.3919 11.7191 989 101.524 116.87 455.214
576 0 85.3555 11.7391 1002 102.084 116.71 453.315
577 0 86.2241 11.9572 1031 102.677 116.968 451.274
578 0 91.305 11.4671 1047 102.336 116.419 451.683
579 1 45.0793 9.80493 442 105.292 115.448 473.464
580 0 47.2001 13.1356 620 106.968 117.166 472.442
581 0 49.0444 11.826 580 116.395 117.716 474.088
582 0 49.1923 11.9937 590 115.785 118.259 475.076
583 0 49.0975 11.7521 577 117.166 118.338 475.102
584 0 52.1439 11.8135 616 118.305 117.718 473.443
585 0 53.122 12.2548 651 118.859 117.143 472.926
586 0 54.1166 12.547 679 119.315 117.166 471.23
587 0 56.1149 12.1536 682 121.526 117.462 470.334
588 0 57.1316 11.7623 672 123.232 117.967 470.646
589 0 57.0535 12.3744 706 123.234 118.212 469.868
590 0 60.1215 13.19 793 121.893 117.963 467.328
591 0 62.1402 12.4396 773 123.9 117.263 469.233
592 0 62.142 12.053 749 127.382 117.356 467.541
593 0 66.173 12.6184 835 124.166 117.474 466.467
594 0 67.1641 12.5365 842 126.897 117.429 465.124
595 0 70.1546 13.4132 941 124.868 117.81 463.169
596 1 36.1507 10.2626 371 128.111 118.482 478.941
597 0 37.0528 9.74287 361 127.457 117.922 480.665
598 0 39.1231 11.3999 446 118.368 117.608 479.336
599 0 40.0984 11.3471 455 119.207 116.646 479.512
600 0 40.1785 12.2951 494 118.3 116.713 473.081
601 0 42.0309 12.3243 518 119.612 117.33 476.288
602 0 43.0814 12.0934 521 119.194 117.685 478.618
603 0 44.0501 12.622 556 117.804 118.221 476.383
604 0 44.0676 12.2993 542 120.345 117.856 477.041
605 0 46.124 12.0328 555 119.935 117.742 475.497
606 0 48.1463 13.1267 632 116.682 117.799 474.967
607 0 49.201 12.8453 632 117.53 117.589 474.233
608 0 48.1617 11.8767 572 120.774 117.769 474.617
609 0 54.2127 13.3733 725 114.116 116.85 473.836
610 0 52.1929 13.1627 687 116.48 116.913 473.575
611 0 55.168 13.7217 757 114.106 116.816 470.934
612 0 55.2192 12.224 675 118.241 117.121 470.744
613 0 58.1376 12.8832 749 114.39 117.16 467.999
614 0 57.2182 11.7096 670 119.07 117.272 469.687
615 0 61.1498 14.1783 867 112.493 116.488 465.075
616 0 62.1911 12.3812 770 116.878 116.408 464.262
617 0 66.2642 13.9744 926 112.077 116.11 463.108
618 0 66.2252 12.2612 812 116.534 116.076 462.599
619 0 68.2854 12.7992 874 115.416 116.038 459.848
620 0 71.3546 13.4539 960 113.498 115.028 460.241
621 0 73.3327 12.6956 931 115.376 116.084 458.358
622 0 75.0901 13.1708 989 113.094 115.99 458.825
623 0 82.1893 14.3693 1181 111.638 116.285 458.595
624 1 42.0587 12.2923 517 111.946 116.101 476.103
625 0 44.0741 11.6849 515 114.518 115.412 474.287
626 0 46.2725 13.0315 603 107.395 115.733 464.171
627 0 48.1303 11.6974 563 112.618 115.357 469.121
628 0 50.0875 12.6778 635 112.276 115.701 474.852
629 0 49.0933 12.8735 632 112.334 114.907 474.415
630 0 52.0266 12.0131 625 112.947 115.571 474.979
631 0 52.1498 12.1381 633 112.878 116.359 473.716
632 0 57.1087 14.7263 841 103.222 115.442 472.084
633 0 59.1171 14.6151 864 103.332 115.347 469.356
634 0 59.1238 13.7339 812 107.773 115.958 470.408
635 0 61.0888 13.0629 798 109.492 115.997 468.935
636 0 62.1086 13.3315 828 109.742 115.227 467.007
637 0 64.0516 13.7389 880 108.47 115.64 465.099
638 0 67.1191 12.8726 864 111.263 116.144 464.852
639 0 68.0439 13.6236 927 109.423 116.2 462.469
640 0 72.0778 13.6658 985 108.972 116.348 462.014
641 0 75.0622 14.2016 1066 107.469 115.668 462.872
642 0 77.1525 13.1687 1016 111 116.101 460.168
643 0 78.1211 12.6598 989 112.505 115.309 458.186
644 0 83.0623 12.8699 1069 111.503 115.818 459.447
645 0 87.0394 13.9937 1218 108.455 115.801 456.944
646 0 89.0776 15.3911 1371 106.133 115.919 454.026
647 0 91.325 14.9466 1365 107.126 116.863 454.774
648 1 49.1023 11.6084 570 110.444 116.809 474.737
649 0 51.1646 12.2741 628 108.82 117.346 472.965
650 0 53.2246 12.0997 644 111.328 116.399 470.986
651 0 55.2558 10.9491 605 112.838 116.693 470.922
652 0 55.2905 12.9498 716 110.696 115.933 470.163
653 0 57.3265 13.0655 749 110.031 116.367 469.543
654 0 60.112 13.5747 816 110.395 116.384 469.062
655 0 62.1289 14.0192 871 108.32 117.432 467.608
656 0 65.1583 13.6283 888 108.09 117.387 467.383
657 0 67.2091 14.0308 943 111.486 116.994 463.234
658 0 68.1444 14.029 956 111.055 117.695 464.196
659 0 70.1916 13.1782 925 114.705 117.585 462.042
660 0 74.1444 13.4872 1000 113.406 117.211 462.687
661 0 77.1678 14.3065 1104 111.906 116.332 460.71
662 0 79.2115 12.6497 1002 114.883 116.54 460.189
663 0 83.2516 13.0568 1087 114.063 117.12 449.259
664 0 84.1548 13.7009 1153 113.326 117.081 449.781
665 0 87.1053 12.835 1118 115.274 118.031 449.183
666 0 91.3236 12.3407 1127 116.817 117.043 446.578
667 1 48.2454 11.4208 551 115.942 117.514 470.592
668 0 50.1095 11.6744 585 108.357 118.456 471.39
669 0 52.1002 12.1689 634 105.677 118.153 473.749
670 0 52.1423 11.7946 615 107.763 118.185 473.442
671 0 54.1026 11.7924 638 106.354 116.019 474.265
672 0 53.0951 10.5283 559 110.834 116.109 473.605
673 0 57.0821 12.5608 717 105.721 116.086 470.845
674 0 61.0423 11.6149 709 105.65 116.56 471.172
675 0 62.0915 11.4025 708 106.516 116.069 468.856
676 0 67.0335 12.5758 843 103.316 116.11 467.058
677 0 67.0335 11.636 780 105.147 116.633 467.353
678 0 71.0869 11.7743 837 104.223 115.857 465.158
679 0 76.0978 12.4314 946 100.701 116.722 464.309
680 0 77.0579 12.4192 957 103.239 116.399 460.034
681 0 81.0894 12.4431 1009 102.101 115.854 458.833
682 0 84.0597 13.1335 1104 101.039 116.341 456.293
683 0 88.1095 12.3937 1092 102.666 115.943 455.216
684 0 90.0746 10.9465 986 106.591 116.102 455.79
685 0 94.0912 11.9352 1123 103.797 116.585 453.402
686 1 51.0772 11.6295 594 103.965 115.886 474.766
687 0 53.0398 12.4058 658 103.856 115.549 472.799
688 0 54.0852 11.223 607 105.545 115.629 472.285
689 0 55.1788 12.1061 668 104.763 117.813 468.582
690 0 55.2016 11.5033 635 107.589 118.039 467.609
691 0 60.1619 13.1146 789 102.743 117.286 467.215
692 0 60.1525 12.2688 738 105.847 118.061 467.061
693 0 63.1793 13.4221 848 103.846 118.198 464.144
694 0 65.0956 11.9363 777 107.79 118.582 464.553
695 0 67.2713 12.9178 869 105.496 118.644 464.428
696 0 69.3279 12.1019 839 109.864 118.714 459.858
697 0 72.2877 13.7921 997 105.152 118.659 460.538
698 0 73.2231 13.6842 1002 107.042 117.975 459.669
699 0 74.1775 12.9285 959 110.432 118.105 457.595
700 0 78.2324 12.0922 946 111.042 118.523 457.13
701 0 80.2016 13.1419 1054 109.199 118.306 456.285
702 0 84.1259 13.349 1123 107.716 118.152 453.691
703 0 86.1892 13.0991 1129 109.406 117.822 452.468
704 0 89.199 14.1033 1258 105.347 118.099 452.636
705 0 91.2264 12.5073 1141 109.909 118.136 448.945
706 1 48.0878 11.2087 539 112.813 117.57 470.173
707 0 50.0511 11.3084 566 113.756 117.47 469.141
708 0 51.254 10.0285 514 112.735 117.366 466.053
709 0 54.1953 10.7943 585 102.405 117.588 467.415
710 0 54.2405 10.8406 588 104.32 117.248 465.145
711 0 56.382 10.3047 581 105.057 117.317 463.735
712 0 59.1991 11.4022 675 103.039 117.333 462.828
713 0 61.2265 11.0736 678 102.128 117.941 464.316
714 0 61.1225 11.8614 725 101.48 117.91 464.457
715 0 64.1843 11.5605 742 102.491 117.388 460.973
716 0 68.1894 12.1867 831 100.071 117.41 461.847
717 0 69.1002 11.7945 815 102.088 117.56 460.44
718 0 72.1235 12.8252 925 99.027 118.289 463.09
719 0 74.1566 11.5836 859 101.738 118.48 461.232
720 0 77.128 13.4322 1036 97.8581 118.381 461.681
721 0 78.1211 12.1606 950 100.873 119.124 459.817
722 0 87.1689 14.0532 1225 94.151 118.828 453.647
723 0 90.1135 19.0094 1713 84.7548 118.553 450.667
724 0 91.207 16.1391 1472 92.7249 118.746 451.265
725 0 89.257 12.2455 1093 104.809 117.823 451.53
726 0 92.0981 12.4541 1147 104.901 117.411 452.065
727 0 95.1013 11.0093 1047 108.278 117.396 449.406
728 0 98.1961 11.6094 1140 108.028 117.535 447.278
729 0 103.147 12.7779 1318 106.302 117.171 445.049
730 0 106.202 12.7305 1352 106.857 117.418 445.303
731 1 55.0716 12.2205 673 104.984 116.798 469.456
732 0 56.2371 12.6607 712 103.726 116.975 468.802
733 0 57.1099 12.7298 727 104.56 117.312 468.986
734 0 59.0387 13.5166 798 103.242 116.82 468.774
735 0 61.0678 13.4604 822 105.191 116.783 467.511
736 0 62.0546 13.617 845 107.316 116.585 468.282
737 0 64.0349 13.1491 842 109.264 115.836 468.624
738 0 66.0964 13.4198 887 109.439 116.626 465.202
739 0 68.122 13.241 902 110.162 116.231 466.507
740 0 71.0541 13.1168 932 110.109 116.606 465.747
741 0 75.059 13.8558 1040 108.55 116.58 463.747
742 0 79.0709 14.898 1178 105.959 116.272 461.08
743 0 79.1637 14.3247 1134 108.836 116.785 457.891
744 0 83.0554 12.6422 1050 112.346 116.29 459.772
745 1 44.0297 12.4916 550 112.698 116.251 478.271
746 0 46.1003 13.0368 601 108.707 116.148 474.28
747 0 44.0472 11.6012 511 102.26 116.305 469.806
748 0 46.113 12.7947 590 99.1119 116.958 465.971
749 0 47.0436 11.7976 555 102.047 116.481 461.501
750 0 50.0287 11.8332 592 101.275 116.458 463.135
751 0 50.1014 12.5346 628 102.39 116.339 458.763
752 0 53.0395 14.1593 751 98.3888 116.402 459.341
753 0 57.2028 12.3421 706 100.591 116.34 461.038
754 0 55.0721 12.184 671 103.338 116.529 459.751
755 0 60.124 13.8713 834 98.5552 116.616 457.873
756 0 59.096 12.1328 717 103.926 117.185 459.646
757 0 62.1303 13.6648 849 104.072 117.124 457.392
758 0 64.1631 13.2007 847 109.411 117.281 459.325
759 0 68.1494 13.6171 928 109.355 116.421 458.325
760 0 69.2424 13.951 966 107.669 116.363 456.572
761 0 77.224 16.0831 1242 100.466 115.765 454.754
762 0 75.1368 14.7198 1106 108.52 115.982 453.596
763 0 80.1292 14.7137 1179 106.001 115.908 450.547
764 0 77.1464 12.8846 994 115.008 115.511 455.694
765 1 44.041 12.9879 572 115.481 115.636 478.78
766 0 45.0529 12.9847 585 117.48 115.738 475.301
767 0 44.0211 12.9256 569 115.047 115.724 478.724
768 0 43.0407 12.2675 528 118.456 116.388 477.286
769 0 45.0295 11.6812 526 118.441 115.378 478.654
770 0 49.063 12.9425 635 114.964 115.894 477.173
771 0 49.0292 12.2172 599 118.048 115.503 476.07
772 0 50.0679 12.2234 612 117.333 115.869 476.366
773 0 52.0464 13.315 693 115.316 115.824 473.72
774 0 54.0404 12.3796 669 116.176 116.133 474.783
775 0 57.0546 12.8298 732 115.148 116.081 472.012
776 0 59.0466 14.0906 832 111.617 116.197 472.216
777 0 61.0711 13.951 852 113.036 115.734 469.761
778 0 64.0591 13.3627 856 113.525 115.563 469.009
779 0 66.0958 12.7088 840 114.473 115.639 468.562
780 0 68.1054 12.0255 819 114.894 115.814 468.79
781 1 37.0188 10.9404 405 120.22 115.635 482.42
782 0 37.0085 11.3217 419 119.628 116.148 482.203
783 0 37.0906 12.9683 481 146.767 116.274 481.133
784 0 39.0442 13.3438 521 143.284 115.574 480.877
785 0 37.0805 12.4863 463 116.663 115.529 483.575
786 0 38.0074 13.4184 510 115.782 115.708 481.733
787 0 40.0253 11.8675 475 119.135 116.147 481.684
788 0 41.0895 13.6045 559 116.229 115.438 481.776
789 0 42.0125 12.2107 513 118.875 115.402 481.322
790 0 43.0327 12.1303 522 119.596 115.695 480.609
791 0 43.086 12.6027 543 118.212 114.983 481.429
792 0 44.1632 12.5897 556 117.685 114.885 479.748
793 0 46.1307 11.359 524 121.42 115.12 480.258
794 0 49.0681 13.4303 659 119.291 115.083 477.152
795 0 50.0354 13.6703 684 117.39 115.336 477.203
796 0 53.1258 13.7033 728 116.359 115.185 475.709
797 0 56.2732 12.4749 702 117.882 116 473.95
798 0 59.1119 12.8908 762 115.21 115.92 473.531
799 0 59.0815 11.391 673 117.572 115.143 472.709
800 0 61.0339 13.0583 797 113.652 115.566 471.453
801 0 63.1322 11.959 755 115.17 115.193 471.03
802 0 66.0599 12.4887 825 113.272 115.956 469.067
803 0 68.1135 11.0698 754 116.088 115.198 465.093
804 0 73.0787 12.4934 913 111.575 115.525 466.49
805 1 40.0275 11.9918 480 110.51 115.456 483.96
806 0 39.1071 11.4046 446 112.583 115.359 482.724
807 0 41.068 12.4184 510 111.982 116.516 480.408
808 0 41.0511 12.5941 517 112.236 115.259 480.395
809 0 44.0467 12.237 539 111.594 115.386 479.095
810 0 43.0357 11.7577 506 115.903 115.755 478.733
811 0 44.0211 11.7671 518 116.724 116.56 478.183
812 0 46.0145 12.7569 587 114.881 116.116 477.015
813 0 48.0581 11.611 558 116.769 115.579 476.151
814 0 51.0459 12.4202 634 114.082 115.538 474.776
815 0 51.0511 11.1261 568 118.011 115.4 475.224
816 0 55.05 12.5341 690 113.364 115.639 474.548
817 0 59.1675 13.1491 778 110.454 115.833 473.788
818 0 60.0889 12.5314 753 113.615 115.025 470.806
819 0 62.0572 12.5529 779 113.058 116.028 472.1
820 0 65.133 12.4207 809 113.765 115.323 469.163
821 0 67.0608 13.9127 933 111.078 115.175 466.789
822 0 70.1153 13.0642 916 113.667 115.644 465.719
823 0 73.1761 11.9438 874 116.181 115.285 465.223
824 0 76.1209 11.7182 892 117.269 115.823 463.721
825 0 79.1766 13.6151 1078 114.117 115.687 460.318
826 0 83.1214 13.2216 1099 115.46 115.117 460.248
827 0 86.095 11.9868 1032 121.234 115.113 459.045
828 1 47.0675 13.0663 615 112.733 116.437 478.867
829 0 46.0193 13.038 600 113.063 115.002 476.463
830 0 47.0601 13.3234 627 112.346 115.104 476.66
831 0 48.0248 12.6601 608 114.844 115.503 476.579
832 0 50.0495 12.6275 632 115.272 115.456 475.34
833 0 50.0804 13.2587 664 116.053 116.081 474.633
834 0 50.0161 12.416 621 119.155 116.184 474.433
835 0 56.0278 12.9757 727 115.103 115.827 473.435
836 0 59.0893 13.7927 815 112.613 115.753 472.686
837 0 57.0466 12.8842 735 118.978 115.177 470.808
838 0 59.0881 13.7591 813 115.282 115.683 471.637
839 0 62.1688 12.4982 777 117.967 115.848 471.866
840 0 65.0832 13.0141 847 118.115 116.064 468.954
841 0 66.1009 11.8607 784 120.261 116.73 468.634
842 0 70.0937 13.7958 967 116.26 116.323 465.694
843 0 71.0536 12.8917 916 120.355 116.237 464.66
844 0 76.1383 13.8432 1054 116.793 117.019 462.608
845 0 79.1166 13.7771 1090 117.942 116.666 461.969
846 0 81.0652 13.853 1123 119.486 116.545 460.549
847 0 84.0505 12.9208 1086 120.52 116.852 459.87
848 0 89.0569 13.8339 1232 118.752 116.429 457.494
849 1 47.049 10.606 499 125.164 116.9 479.23
850 0 50.042 13.5486 678 123.429 117.252 476.416
851 0 51.0352 13.1478 671 127.256 116.914 474.376
852 0 50.0241 12.0342 602 118.161 117.045 476.937
853 0 53.0277 12.9366 686 116.195 117.035 474.12
854 0 54.095 11.5168 623 120.761 116.587 474.257
855 0 58.07 11.6928 679 115.708 116.521 475.968
856 0 60.0385 11.9757 719 117.837 116.737 471.473
857 0 63.0961 12.584 794 115.826 115.409 470.83
858 0 64.0807 12.5155 802 115.676 115.716 470.607
859 0 67.0888 11.7009 785 118.546 115.26 467.954
860 0 69.0503 13.4974 932 114.208 115.192 468.51
861 0 72.0561 13.0037 937 116.692 115.829 464.847
862 0 73.0533 13.0863 956 117.276 115.684 464.887
863 0 76.0585 12.0959 920 120.242 115.323 463.262
864 0 79.0707 12.5331 991 119.794 116.291 461.047
865 0 83.0637 13.4596 1118 116.554 115.607 460.557
866 0 84.0622 12.7881 1075 119.807 116.006 459.084
867 0 86.0581 12.7704 1099 120.63 115.495 458.317
868 1 47.0271 11.5678 544 121.515 115.107 476.853
869 0 49.0661 11.8208 580 118.847 115.091 475.805
870 0 52.1188 13.0855 682 117.116 113.969 474.469
871 0 53.0551 13.3069 706 115.5 114.652 474.715
872 0 53.0293 11.8048 626 119.578 115.147 474.503
873 0 52.0784 12.75 664 119.169 115.083 473.325
874 0 55.1041 11.1425 614 120.899 115 472.604
875 0 58.0515 11.6621 677 119.507 114.697 472.338
876 0 60.1424 11.9882 721 117.967 115.546 470.05
877 0 64.0584 12.8945 826 114.804 116.132 468.616
878 0 65.1002 11.5821 754 117.344 116.109 468.93
879 0 67.0724 13.0903 878 114.822 116.054 465.006
880 0 70.0766 13.0286 913 114.415 115.818 464.85
881 0 73.0782 12.6714 926 115.013 115.362 463.524
882 0 75.1239 12.6058 947 114.637 115.386 463.614
883 0 78.0436 11.8523 925 117.013 115.172 460.31
884 0 81.0724 12.5937 1021 114.703 114.967 460.034
885 0 85.0284 12.4429 1058 114.149 115.338 457.448
886 0 89.0924 12.7059 1132 114.365 114.795 456.721
887 1 45.0798 11.6017 523 118.31 115.023 475.656
888 0 47.1161 11.6733 550 119.595 115.38 476.04
889 0 47.0844 11.2352 529 109.323 115.643 477.526
890 0 47.0295 11.2483 529 110.461 116.484 475.915
891 0 49.0415 12.0102 589 109.199 116.132 474.572
892 0 51.0419 11.1281 568 109.641 116.621 474.377
893 0 52.0503 10.2017 531 111.188 116.987 474.026
894 0 56.1304 10.4043 584 109.889 116.125 472.517
895 0 57.0642 11.7061 668 108.084 115.79 470.443
896 0 58.0245 12.1156 703 107.626 116 469.838
897 0 60.1289 11.1095 668 109.26 116.475 468.611
898 0 64.067 9.63055 617 109.715 116.869 469.379
899 0 66.0546 11.8236 781 106.653 117.223 464.828
900 0 69.1449 10.6154 734 106.91 117.157 467.505
901 0 71.1495 10.9909 782 108.097 116.895 462.504
902 0 74.0623 11.0988 822 108.056 116.759 463.102
903 0 77.0449 10.8768 838 108.455 117.323 461.258
904 0 79.0673 11.7748 931 107.415 116.927 459.446
905 1 42.12 11.1111 468 109.13 117.481 475.897
906 0 44.0216 10.0632 443 109.201 117.228 475.291
907 0 42.0198 10.614 446 104.969 116.592 477.471
908 0 43.0266 8.85499 381 106.207 117.202 479.803
909 0 48.1138 11.93 574 101.92 116.953 475.026
910 0 49.1623 11.4315 562 103.772 116.459 474.402
911 0 49.1623 11.5536 568 105.155 116.511 472.509
912 0 51.0858 11.0794 566 105.595 117.486 472.064
913 0 53.0878 10.85 576 105.986 116.465 470.318
914 0 56.1132 11.6372 653 103.917 116.205 470.743
915 0 57.0979 11.6817 667 104.717 115.931 469.216
916 0 59.088 11.7621 695 105.622 115.878 467.004
917 0 60.0814 11.3679 683 108.867 115.613 467.51
918 0 60.2534 11.7504 708 110.203 115.655 464.075
919 0 68.152 12.2374 834 106.517 115.631 464.609
920 0 69.194 12.5155 866 107.815 115.912 462.221
921 0 69.0947 11.0428 763 112.123 115.588 460.811
922 0 74.183 12.0917 897 108.522 116.533 461.761
923 0 76.2854 12.1386 926 110.523 116.064 460.837
924 0 79.2129 11.5764 917 112.731 116.492 459.571
925 0 80.1902 11.3979 914 114.841 115.887 456.342
926 0 83.1097 11.4427 951 115.393 115.287 453.905
927 0 88.1956 12.2342 1079 111.994 116.313 454.733
928 0 90.1962 10.965 989 115.418 116.196 452.796
929 0 93.1947 11.3633 1059 114.962 116.309 452.019
930 1 46.0164 11.0396 508 107.319 117.014 474.285
931 0 47.0191 10.2937 484 110.178 117.161 474.105
932 0 48.0481 10.8225 520 110.158 116.888 472.885
933 0 50.0454 10.4905 525 112.463 116.589 472.08
934 0 50.0778 10.0843 505 114.04 116.915 472.307
935 0 53.0854 12.3198 654 109.277 116.555 469.246
936 0 57.0693 11.9679 683 110.245 116.367 468.697
937 0 57.0979 11.8393 676 110.805 116.212 468.531
938 0 59.0563 11.2266 663 114.302 116.398 464.498
939 0 62.0739 11.3574 705 112.977 116.928 466.04
940 0 63.0783 12.1753 768 112.996 117.173 464.163
941 0 67.1795 11.7149 787 113.086 117.114 463.582
942 0 70.0591 13.1318 920 110.163 116.978 461.928
943 0 72.0872 12.9288 932 110.997 117.062 461.208
944 0 73.0624 12.2224 893 113.739 116.577 460.167
945 0 75.0855 11.8265 888 115.056 116.171 458.132
946 0 78.0606 12.0932 944 115.868 115.956 457.182
947 0 82.0624 12.1249 995 115.193 116.134 456.629
948 1 43.0225 10.878 468 118.784 116.528 472.925
949 0 48.0157 11.2255 539 114.273 116.239 473.362
950 0 47.0544 11.9436 562 115.39 117.05 471.847
951 0 47.0111 10.9549 515 111.439 116.297 475.542
952 0 46.073 11.2647 519 114.031 115.584 472.832
953 0 50.0184 10.976 549 112.791 116.362 473.109
954 0 51.0182 12.2897 627 111.855 116.1 470.923
955 0 53.0468 12.1779 646 111.466 115.884 471.229
956 0 54.0508 11.4892 621 114.341 116.143 470.267
957 0 58.0695 12.089 702 111.887 116.226 469.537
958 0 57.0277 10.8193 617 114.901 116.041 471.081
959 0 59.0172 10.4376 616 116.635 116.662 468.432
960 0 63.0391 11.3422 715 113.025 116.902 468.143
961 0 66.0522 11.4001 753 114.726 116.975 466.89
962 0 68.1115 11.7601 801 115.973 116.993 463.831
963 0 72.0855 12.6378 911 113.881 116.211 461.901
964 0 73.1592 12.2199 894 115.377 116.046 460.95
965 0 76.0528 12.7543 970 114.209 116.165 461.271
966 0 78.1909 11.7916 922 119.321 116.287 459.374
967 1 43.0494 11.8933 512 118.406 116.4 474.221
968 0 44.0427 10.3763 457 120.4 116.142 474.326
969 0 46.0238 12.0373 554 115.762 115.836 473.3
970 0 46.0226 11.1032 511 120.82 115.759 473.157
971 0 48.0414 11.6982 562 119.164 115.671 473.279
972 0 49.0637 12.5143 614 117.77 115.699 472.088
973 0 51.0797 12.2749 627 118.818 115.089 470.416
974 0 52.063 12.0815 629 118.979 115.099 469.898
975 0 54.0702 12.5208 677 118.75 114.552 469.038
976 0 55.044 12.4628 686 119.21 114.978 468.691
977 0 57.1401 11.7081 669 120.984 114.602 466.442
978 0 58.0717 11.7613 683 120.917 115.327 467.769
979 0 62.0409 12.8464 797 117.612 114.977 464.849
980 0 64.0813 11.8443 759 119.813 116.144 465.217
981 0 63.1035 12.3606 780 120.045 115.788 462.883
982 0 67.1113 12.591 845 119.15 115.723 461.64
983 0 71.0748 11.9733 851 119.591 115.226 461.297
984 0 72.1613 12.5414 905 117.255 115.181 458.706
985 0 75.1075 11.61 872 120.008 115.373 458.797
986 0 77.086 12.8169 988 119.337 115.721 456.221
987 0 80.0896 12.5859 1008 119.018 115.079 457.351
988 1 45.1919 10.8427 490 116.884 116.445 473.729
989 0 41.0779 10.3949 427 105.344 116.155 471.501
990 0 45.045 11.3442 511 105.722 117.669 470.004
991 0 46.1218 11.5347 532 106.992 117.338 468.57
992 0 47.0212 10.3783 488 108.443 117.152 470.178
993 0 49.0778 10.0045 491 110.259 117.206 467.825
994 0 49.0614 10.3544 508 110.813 117.185 466.939
995 0 52.1522 11.1213 580 108.502 116.102 463.088
996 0 58.0822 11.3288 658 116.205 116.096 468.365
997 0 58.1616 10.4536 608 119.967 115.206 467.436
998 0 61.0836 11.6889 714 113.782 115.682 466.319
999 0 63.106 11.9165 752 104.548 116.039 462.343
1000 0 65.0873 10.4629 681 108.565 116.182 458.868
1001 0 67.0852 10.9264 733 107.82 116.374 458.694
1002 0 70.2128 11.9067 836 106.158 115.703 458.273
1003 0 74.2268 11.0472 820 107.738 116.222 458.476
1004 0 76.1191 11.7185 892 106.998 116.589 455.351
1005 0 77.1535 11.1725 862 108.292 116.726 455.845
1006 1 41.0177 9.53247 391 104.527 116.77 473.834
1007 0 46.0362 11.1434 513 98.1345 117.304 474.324
1008 0 44.0292 10.493 462 100.792 116.69 473.903
1009 0 47.0593 11.2411 529 95.242 117.584 469.11
1010 0 48.0644 10.3819 499 95.3948 117.681 468.154
1011 0 50.0609 10.4273 522 94.9751 117.393 467.674
1012 0 51.0641 11.3191 578 94.0329 117.022 466.282
1013 0 53.0537 10.2726 545 95.2624 117.297 466.36
1014 0 55.0924 11.6894 644 92.2298 117.672 464.138
1015 0 58.0613 10.0583 584 95.1336 117.358 465.062
1016 0 59.1059 11.3187 669 92.8266 117.049 462.375
1017 0 60.1291 11.3423 682 92.9208 117.975 462.32
1018 0 63.1416 12.3849 782 91.3619 117.629 461.289
1019 0 63.0734 9.44931 596 97.4195 118.117 461.06
1020 0 68.1317 10.9494 746 93.4973 118.403 460.885
1021 0 69.0862 11.2179 775 93.4245 118.241 458.534
1022 0 73.117 10.914 798 94.1742 117.625 456.258
1023 0 74.0575 10.8429 803 94.2503 117.012 454.167
1024 0 79.0968 11.5175 911 92.8035 117.745 452.584
1025 0 83.0789 11.3627 944 93.6324 117.549 451.125
1026 1 43.0527 8.24572 355 94.6338 117.792 471.273
1027 0 46.0375 10.9476 504 96.1726 117.141 472.837
1028 0 47.1519 10.0314 473 92.5285 117.573 470.376
1029 0 45.0528 10.2324 461 99.6291 118.108 473.03
1030 0 48.0731 9.31914 448 93.5848 117.33 468.692
1031 0 48.1012 10.5611 508 98.685 118.059 471.033
1032 0 51.037 10.561 539 97.7291 117.26 471.69
1033 0 51.0388 11.6774 596 98.651 117.101 467.386
1034 0 54.0496 11.1009 600 98.5933 116.337 468.56
1035 0 55.0183 9.56046 526 94.4905 117.165 465.646
1036 0 59.0336 11.9593 706 95.83 116.963 466.728
1037 0 58.0446 9.76835 567 100.134 117.109 467.947
1038 0 60.26 10.7368 647 99.7017 116.434 465.048
1039 0 63.1143 11.9783 756 97.8439 116.247 464.632
1040 0 66.0662 12.4269 821 97.0877 117.233 462.799
1041 0 67.0419 11.1572 748 100.136 116.876 462.557
1042 0 71.0316 12.2622 871 98.31 116.698 461.225
1043 0 73.0702 12.9601 947 99.0116 116.424 459.18
1044 0 77.0604 11.9776 923 101.694 116.525 459.225
1045 0 79.0634 12.5975 996 101.781 116.844 456.69
1046 0 82.0923 12.961 1064 100.983 116.758 456.039
1047 0 82.0489 11.5785 950 106.48 116.007 452.282
1048 0 87.0874 12.1257 1056 103.95 116.688 454.993
1049 0 90.1103 13.3281 1201 102.578 117.368 452.861
1050 0 92.1264 12.7108 1171 106.207 117.32 451.918
1051 0 92.0631 11.3075 1041 110.613 117.359 449.342
1052 0 97.1836 12.9343 1257 106.905 117.105 448.449
1053 0 99.1157 11.5824 1148 110.522 117.321 447.935
1054 1 55.0679 10.823 596 110.716 117.564 469.943
1055 0 56.1692 13.3703 751 108.401 117.75 465.545
1056 0 60.0967 12.9791 780 107.049 117.69 465.203
1057 0 62.0858 12.7726 793 108.681 116.573 464.878
1058 0 63.0629 12.6699 799 108.667 116.824 464.342
1059 0 67.1037 13.3674 897 107.834 117.018 463.705
1060 0 68.0671 12.708 865 109.272 117.616 463.005
1061 0 72.0711 12.6125 909 109.598 116.741 460.827
1062 0 76.1633 12.552 956 110.149 116.542 460.563
1063 0 78.1972 12.8649 1006 121.924 116.898 457.669
1064 0 79.1465 12.6853 1004 123.967 116.76 455.104
1065 0 82.2086 12.6507 1040 123.67 117.167 456.166
1066 0 84.1471 13.2149 1112 123.91 116.541 454.396
1067 0 89.155 13.8074 1231 120.447 116.157 451.955
1068 0 90.0952 13.4413 1211 122.857 116.074 450.56
1069 0 93.1835 13.5968 1267 123.595 116.75 449.732
1070 0 96.0827 14.6644 1409 121.652 117.7 447.123
1071 0 97.2148 14.1748 1378 123.648 117.006 444.676
1072 1 55.0485 11.8804 654 123.586 116.196 467.847
1073 0 56.1399 12.4867 701 124.387 116.993 466.18
1074 0 58.0855 12.8776 748 119.231 116.591 464.509
1075 0 58.0472 12.4209 721 132.589 115.897 461.657
1076 0 63.1061 13.3901 845 127.405 116.031 462.4
1077 0 64.0266 14.1816 908 125.144 116.598 460.687
1078 0 64.0755 12.7974 820 130.588 116.221 461.274
1079 0 68.0424 14.0648 957 126.548 116.35 459.323
1080 0 69.1239 13.3673 924 129.197 116.472 457.654
1081 0 71.0715 13.2683 943 127.758 116.591 457.548
1082 0 75.0716 14.3729 1079 123 116.892 455.12
1083 0 77.086 14.2957 1102 123.264 117.553 454.059
1084 0 78.0255 14.2005 1108 123.145 117.569 451.159
1085 0 82.0576 14.0998 1157 120.207 117.965 454.264
1086 0 85.1133 13.2177 1125 119.8 117.97 453.34
1087 1 44.0304 10.5609 465 118.411 118.712 473.11
1088 0 46.03 12.166 560 115.38 118.45 470.777
1089 0 46.0196 12.386 570 117.804 117.886 468.523
1090 0 47.0222 12.8663 605 109.238 117.785 470.793
1091 0 48.0415 13.4883 648 109.685 118.463 469.974
1092 0 49.0449 12.5191 614 112.547 117.938 470.122
1093 0 52.1441 12.312 642 112.422 117.403 467.732
1094 0 52.11 12.1666 634 113.38 117.399 466.532
1095 0 56.1064 12.6011 707 110.157 117.051 462.762
1096 0 56.0697 11.5749 649 113.157 116.783 462.92
1097 0 59.0267 12.164 718 111.936 117.21 462.62
1098 0 61.2121 13.6247 834 108.65 118.008 460.891
1099 0 63.0497 11.7368 740 111.743 117.296 460.95
1100 0 64.0635 13.0964 839 109.576 117.778 455.948
1101 0 67.1585 13.148 883 109.651 117.33 455.835
1102 0 70.1249 12.1783 854 112.014 117.123 458.322
1103 0 71.1375 11.8925 846 113.709 116.864 455.251
1104 0 75.144 11.8306 889 115.331 116.621 453.287
1105 0 78.1044 13.9301 1088 112.139 117.305 442.654
1106 0 79.0848 12.7585 1009 114.989 116.943 447.561
1107 0 82.1261 12.8217 1053 114.932 117.802 447.683
1108 0 85.0953 13.432 1143 114.178 116.705 444.665
1109 0 90.069 14.1669 1276 111.81 117.201 444.733
1110 0 91.1323 13.5956 1239 112.822 117.678 444.864
1111 1 47.1085 12.1846 574 110.246 118.056 464.512
1112 0 48.0631 12.0258 578 99.6125 118.23 460.858
1113 0 47.136 10.1409 478 101.092 117.82 460.801
1114 0 50.0408 10.6313 532 99.9944 118.288 462.882
1115 0 49.0861 9.55464 469 103.072 117.736 460.443
1116 0 53.1574 10.6288 565 100.138 118.57 460.837
1117 0 56.0804 10.0035 561 99.5651 118.444 460.627
1118 0 57.0445 9.76431 557 102.469 117.72 457.343
1119 0 61.0856 12.5889 769 108.85 118.867 459.585
1120 0 64.0877 10.7665 690 111.641 118.058 460.197
1121 0 68.1125 12.817 873 107.647 118.483 456.434
1122 0 71.0808 13.6464 970 105.612 118.94 454.498
1123 0 74.1039 12.3745 917 107.831 118.421 455.344
1124 0 75.1122 12.914 970 107.597 118.678 452.165
1125 0 78.1865 11.8307 925 109.859 118.068 452.614
1126 0 82.1587 11.8064 970 110.909 118.49 450.426
1127 0 82.1993 11.8006 970 111.322 118.374 447.4
1128 0 88.1826 12.4514 1098 108.991 117.684 449.341
1129 0 89.0829 12.6399 1126 110.75 117.799 444.583
1130 1 46.0981 11.0851 511 105.82 118.027 462.9
1131 0 44.0967 10.9759 484 106.372 118.283 460.246
1132 0 45.0892 10.0911 455 107.684 119.354 460.301
1133 0 48.0916 9.71063 467 107.602 118.537 460.741
1134 0 50.0701 10.4054 521 99.4031 118.643 462.121
1135 0 56.1261 11.0109 618 101.348 117.51 465.325
1136 0 57.1592 11.9141 681 102.156 119.214 463.357
1137 0 59.1233 11.0447 653 102.614 118.081 462.354
1138 0 62.0981 10.886 676 105.284 118.74 463.152
1139 0 63.1686 11.6514 736 104.837 118.628 459.682
1140 0 67.0694 11.8683 796 103.71 118.555 460.236
1141 0 69.1113 11.7347 811 100.956 117.351 456.768
1142 0 71.0948 11.6886 831 97.1709 118.403 453.894
1143 0 73.1371 12.8252 938 98.613 117.861 455.388
1144 0 77.137 11.3953 879 100.53 117.506 454.745
1145 0 79.128 10.7168 848 102.096 117.943 452.606
1146 0 83.1107 12.1164 1007 99.8391 117.952 452.23
1147 0 87.1144 13.0977 1141 95.9833 117.428 446.62
1148 0 89.1839 12.7601 1138 97.5844 117.688 443.904
1149 1 47.0336 10.5457 496 97.4294 117.214 469.536
1150 0 49.0548 10.2538 503 97.6163 117.207 468.907
1151 0 49.058 12.0062 589 94.0985 117.136 465.37
1152 0 50.2291 10.5118 528 94.9848 118.104 463.22
1153 0 53.0795 12.1139 643 91.6563 118.098 462.512
1154 0 50.1319 9.83407 493 98.9655 118.032 462.209
1155 0 53.176 10.1173 538 97.2881 117.323 461.788
1156 0 57.0825 11.6323 664 93.8117 117.532 462.194
1157 0 58.0603 12.4698 724 92.9019 117.869 461.086
1158 0 61.089 12.1953 745 93.4779 117.923 460.988
1159 0 62.162 12.017 747 93.6774 118.225 460.552
1160 0 65.1575 12.1859 794 92.9018 117.951 457.899
1161 0 67.0613 12.4364 834 92.2422 118.655 456.606
1162 0 69.1236 12.1377 839 93.2157 118.366 454.322
1163 0 72.1113 12.7858 922 91.6594 118.243 455.652
1164 0 72.0875 11.8467 854 93.9251 117.754 453.686
1165 0 78.1737 12.4211 971 91.7425 117.064 452.292
1166 0 80.0881 12.3114 986 92.6775 117.867 448.764
1167 0 80.107 11.0228 883 96.3375 117.13 447.883
1168 0 85.1082 11.4678 976 95.0143 117.324 446.442
1169 0 89.1833 11.8632 1058 92.8346 117.714 445.397
1170 0 92.1924 12.2244 1127 92.598 118.306 443.962
1171 0 93.196 10.7086 998 97.2866 117.476 441.517
1172 1 46.0612 8.92291 411 92.0487 117.852 460.577
1173 0 46.139 10.0132 462 90.3745 118.682 460.05
1174 0 48.1234 11.1796 538 95.119 118.327 457.045
1175 0 52.0846 11.5005 599 87.7863 118.285 461.611
1176 0 54.0921 11.8317 640 86.7109 118.344 460.669
1177 0 54.115 10.2375 554 90.1625 117.585 460.686
1178 0 57.0387 11.1678 637 89.4772 117.892 458.777
1179 0 59.151 11.9018 704 87.7812 117.523 460.116
1180 0 61.0536 12.1533 742 88.0728 117.594 459.186
1181 0 61.0822 11.902 727 88.7304 117.538 456.265
1182 0 65.205 11.8549 773 87.7581 117.51 457.036
1183 0 67.1555 11.2723 757 89.2166 117.649 456.865
1184 0 68.1784 12.1299 827 88.3265 117.726 455.671
1185 0 71.1351 12.3427 878 88.2278 118.043 456.642
1186 0 71.0743 11.7483 835 89.9844 117.613 457.572
1187 0 74.1102 11.6043 860 90.6965 117.734 457.126
1188 0 77.2199 11.409 881 91.0227 117.865 452.966
1189 0 81.1172 12.5867 1021 89.189 117.736 452.467
1190 0 82.1143 12.9575 1064 88.8966 118.142 447.617
1191 0 83.1411 11.3903 947 92.4541 117.935 444.818
1192 0 88.0582 11.3788 1002 91.9451 117.578 448.964
1193 0 90.1443 11.648 1050 92.4343 117.441 444.697
1194 0 91.1346 12.476 1137 91.2568 117.478 445.492
1195 0 95.1484 12.78 1216 91.241 117.148 442.172
1196 0 98.2306 13.9977 1375 89.8175 117.264 442.228
1197 0 100.22 13.65 1368 90.8969 116.643 440.036
1198 0 104.334 12.8147 1337 91.5924 117.4 433.453
1199 0 108.063 13.1497 1421 91.4687 117.757 438.676
1200 0 110.081 14.6892 1617 89.9103 117.845 434.852
1201 0 114.223 13.8764 1585 91.8 117.461 430.286
1202 0 116.25 12.6366 1469 96.1396 117.901 430.639
1203 0 121.216 13.5625 1644 98.6405 116.762 426
1204 0 126.369 15.3914 1945 97.4848 116.478 427.298
1205 0 132.383 14.239 1885 100.555 116.765 425.912
1206 0 135.263 14.7416 1994 99.2628 116.262 423.672
1207 0 138.223 13.963 1930 102.447 116.072 419.594
1208 0 147.476 15.5212 2289 97.163 116.813 418.08
1209 0 148.367 12.031 1785 101.999 116.604 415.198
1210 1 86.5174 11.7317 1015 96.3389 117.464 451.796
1211 0 91.1819 13.2592 1209 96.5749 117.979 448.312
1212 0 94.3731 13.1287 1239 97.2906 117.236 445.215
1213 0 95.27 12.0185 1145 100.083 116.506 441.107
1214 0 98.2207 11.7592 1155 100.284 116.603 441.175
1215 0 100.441 11.778 1183 101.774 116.281 437.765
1216 0 105.168 11.7621 1237 102.114 117.033 436.705
1217 0 106.315 12.8393 1365 101.475 116.86 433.371
1218 0 111.173 12.7549 1418 101.496 116.22 438.025
1219 0 115.309 13.2947 1533 101.756 116.509 434.86
1220 0 118.366 12.7064 1504 104.572 116.88 434.938
1221 0 120.217 12.4941 1502 107.655 117.118 434.013
1222 0 125.168 13.8374 1732 104.527 117.033 431.176
1223 0 127.285 12.1381 1545 108.257 117.216 429.447
1224 0 133.257 13.4177 1788 106.148 117.85 426.312
1225 0 139.191 13.1474 1830 106.627 117.426 424.315
1226 0 142.094 13.2377 1881 108.081 117.938 421.956
1227 0 148.228 13.7491 2038 107.309 118.221 420.697
1228 0 151.32 13.4219 2031 109.282 117.156 417.302
1229 0 157.177 13.1762 2071 111.642 116.537 413.34
1230 0 163.245 14.2302 2323 106.533 117.158 412.928
1231 0 170.307 14.2801 2432 104.298 117.773 409.676
1232 0 173.284 12.4131 2151 112.342 117.656 407.626
1233 1 91.1812 12.1297 1106 102.939 117.373 447.254
1234 0 95.2131 12.3512 1176 102.941 118.571 445.525
1235 0 98.1789 11.8763 1166 103.992 118.093 445.098
1236 0 100.155 11.8816 1190 104.808 117.78 444.044
1237 0 104.114 11.3722 1184 105.951 118.037 441.329
1238 0 109.311 12.9081 1411 103.026 117.887 440.867
1239 0 113.062 12.6833 1434 104.4 118.117 439.008
1240 0 116.108 11.9974 1393 108.151 117.704 438.057
1241 1 63.0633 10.8621 685 100.848 118.632 465.704
1242 0 67.1202 12.1871 818 98.3643 118.092 464.116
1243 0 67.0929 11.0891 744 101.485 118.767 463.269
1244 0 69.114 12.4287 859 99.7253 118.644 459.186
1245 0 70.0782 12.1436 851 100.066 118.075 459.938
1246 0 74.0872 12.7822 947 98.0222 117.407 460.478
1247 0 77.225 13.4153 1036 96.806 118.15 456.965
1248 0 80.1313 13.3531 1070 96.7084 117.88 456.948
1249 0 80.1199 11.5452 925 101.586 117.235 456.729
1250 0 82.0971 11.328 930 102.033 117.555 455.714
1251 0 87.0688 11.3129 985 102.155 117.139 453.387
1252 0 88.2211 11.5959 1023 103.373 117.543 451.268
1253 0 92.2398 12.9662 1196 101.044 117.693 447.699
1254 0 93.1735 11.5591 1077 105.549 118.007 448.125
1255 0 99.1799 13.8334 1372 100.823 117.866 447.133
1256 0 99.1765 12.1198 1202 105.987 117.566 445.369
1257 0 104.229 13.1537 1371 104.098 117.685 441.301
1258 0 107.232 12.1605 1304 108.137 117.169 438.847
1259 1 57.2457 10.0444 575 105.431 117.812 468.511
1260 0 59.1757 12.0151 711 100.761 118.302 467.301
1261 0 60.1946 11.7951 710 102.748 118.09 465.785
1262 0 61.1508 11.5452 706 101.982 118.091 464.278
1263 0 62.3085 12.6147 786 100.21 118.163 463.992
1264 0 65.1268 12.9286 842 99.5356 117.895 462.878
1265 0 67.317 11.8247 796 101.646 117.898 464.399
1266 0 68.1841 12.4076 846 102.24 117.582 460.7
1267 0 70.0487 12.7054 890 101.083 118.037 460.497
1268 0 70.1074 12.2098 856 103.428 117.511 458.187
1269 0 71.2214 11.3028 805 105.907 118.251 457.943
1270 0 72.0783 11.5014 829 105.619 118.709 458.475
1271 0 75.1124 11.5294 866 105.634 118.127 455.964
1272 0 75.2022 11.0236 829 107.432 117.842 456.636
1273 0 79.0931 12.2893 972 102.73 118.275 453.181
1274 0 82.122 11.8604 974 103.517 117.719 452.041
1275 0 86.0808 12.9646 1116 99.733 117.179 453.909
1276 0 86.1186 11.9719 1031 103.859 117.975 448.816
1277 0 91.2701 12.1398 1108 102.015 117.222 448.705
1278 0 93.0916 13.0409 1214 101.231 117.8 447.078
1279 0 96.0872 12.6135 1212 102.737 117.713 446.035
1280 0 101.236 11.5473 1169 105.328 117.994 445.236
1281 0 105.169 12.323 1296 104.758 117.431 443.732
1282 0 107.137 12.8341 1375 103.948 117.907 441.227
1283 1 57.0579 10.5682 603 104.806 117.841 467.453
1284 0 57.0763 11.1605 637 109.568 118.361 463.174
1285 0 59.1452 12.5454 742 106.437 118.73 463.183
1286 0 60.1376 12.9869 781 99.1178 117.456 464.622
1287 0 65.1055 12.9021 840 97.5881 117.421 462.604
1288 0 65.0603 11.8659 772 99.8148 117.852 463.253
1289 0 68.1033 13.1858 898 96.7216 118.634 459.542
1290 0 70.093 12.6404 886 98.4876 118.291 460.667
1291 0 70.1052 11.2688 790 101.714 118.354 458.837
1292 0 72.0836 12.43 896 100.942 118.366 455.984
1293 0 75.067 13.4147 1007 98.7944 119.041 454.22
1294 0 77.3421 12.5288 969 100.502 118.49 454.488
1295 0 80.1667 12.1622 975 102.749 118.763 452.833
1296 0 81.1593 13.3934 1087 100.419 118.581 451.109
1297 0 85.0898 13.5974 1157 99 118.086 451.05
1298 0 85.0974 13.8077 1175 100.076 118.876 448.264
1299 0 88.1238 12.403 1093 101.973 118.748 451.22
1300 0 92.0811 13.7596 1267 99.9495 118.515 448.619
1301 0 96.0768 13.6557 1312 100.888 118.638 446.736
1302 0 98.1991 13.3912 1315 102.221 118.443 445.215
1303 0 99.1296 13.5277 1341 103.395 118.122 443.153
1304 0 102.132 13.2966 1358 102.968 118.314 445.088
1305 0 105.167 13.0934 1377 104.165 118.464 441.752
1306 0 109.196 13.1232 1433 105.005 118.289 439.488
1307 0 112.215 13.9464 1565 104.119 117.856 438.571
1308 0 115.072 13.7305 1580 104.733 118.117 434.493
1309 0 117.246 12.7851 1499 105.823 119.149 435.958
1310 1 62.0441 10.6054 658 105.111 120.117 461.742
1311 0 66.0839 13.2861 878 99.3588 120.021 458.843
1312 0 66.0882 12.6195 834 101.791 120.112 458.512
1313 0 71.085 12.1685 865 108.797 119.501 457.424
1314 0 73.1209 13.2931 972 105.399 120.399 456.367
1315 0 74.1386 12.8408 952 108.445 119.813 454.651
1316 0 77.0892 13.413 1034 106.429 120.008 453.887
1317 0 79.0724 13.279 1050 107.633 119.629 452.917
1318 0 81.2055 13.4597 1093 107.682 119.931 452.423
1319 0 82.073 12.4036 1018 111.09 120.099 452.396
1320 0 84.1715 13.223 1113 111.087 119.637 449.8
1321 0 87.1862 12.7199 1109 112.344 119.693 449.903
1322 0 91.259 13.4453 1227 111.269 118.412 447.972
1323 0 91.193 13.8607 1264 110.715 118.889 448.932
1324 0 94.2172 14.3604 1353 109.932 118.717 447.599
1325 0 96.0948 12.9143 1241 115.724 118.995 445.159
1326 0 100.164 14.606 1463 110.72 117.549 446.602
1327 0 103.194 12.898 1331 116.389 117.03 442.748
1328 0 108.098 13.5617 1466 114.158 116.6 443.095
1329 0 110.163 14.5148 1599 111.954 116.737 443.233
1330 0 111.128 13.381 1487 116.882 116.941 441.648
1331 0 116.188 13.306 1546 117.323 116.761 439.21
1332 0 120.201 14.0431 1688 113.517 117.011 439.213
1333 0 122.448 13.1811 1614 118.465 117.312 433.886
1334 0 128.295 14.0379 1801 113.793 116.026 435.169
1335 0 129.279 11.5409 1492 117.32 116.708 434.22
1336 1 73.0854 11.8492 866 111.885 116.159 461.129
1337 0 76.1196 12.6249 961 104.393 115.014 457.784
1338 0 75.2657 11.8513 892 99.2825 116.285 454.334
1339 0 77.102 11.4005 879 101.086 115.576 454.21
1340 0 79.1688 11.065 876 101.317 115.985 454.583
1341 0 83.1182 12.0671 1003 99.7787 115.584 451.718
1342 0 85.0991 11.422 972 101.624 115.928 450.006
1343 0 87.0427 10.1445 883 105.377 115.407 448.604
1344 0 90.0752 9.6919 873 105.715 115.7 447.281
1345 0 93.2066 11.5657 1078 102.403 115.615 445.148
1346 0 94.1969 11.0619 1042 103.614 115.449 445.436
1347 0 98.1328 9.54828 937 106.801 115.884 442.546
1348 0 101.092 11.9198 1205 103.251 115.03 438.48
1349 0 105.34 10.4139 1097 106.247 115.118 436.768
1350 0 110.29 10.8441 1196 106.352 114.997 435.862
1351 1 63.0788 10.257 647 102.308 115.111 457.504
1352 0 67.2035 12.9458 870 112.024 114.392 464.124
1353 0 67.0655 10.7656 722 107.533 114.691 465.337
1354 0 70.0738 11.702 820 102.162 115.932 463.234
1355 0 70.1255 10.4527 733 105.768 115.831 460.566
1356 0 71.1086 10.0832 717 106.683 115.893 463.609
1357 0 76.1806 11.7878 898 102.173 116.556 462.43
1358 0 74.1568 10.3969 771 106.152 116.92 460.227
1359 0 79.1136 10.9589 867 104.884 115.889 459.976
1360 0 81.1115 10.8616 881 104.633 115.549 459.35
1361 0 83.1623 11.0266 917 105.495 115.541 457.269
1362 0 84.0971 9.71496 817 107.379 115.592 457.895
1363 0 90.113 11.8296 1066 103.41 115.307 455.204
1364 0 91.1257 11.1604 1017 106.044 115.78 453.081
1365 0 94.218 10.6349 1002 107.419 115.373 453.824
1366 0 97.1074 10.6377 1033 108.161 115.112 450.382
1367 0 100.273 12.1368 1217 104.961 114.867 444.763
1368 0 101.242 10.3811 1051 108.292 114.878 446.259
1369 0 107.17 11.5984 1243 106.694 115.245 441.879
1370 0 109.207 11.0799 1210 111.179 114.712 439.712
1371 0 113.295 11.5892 1313 110.412 113.762 438.947
1372 0 116.251 11.4149 1327 111.038 114.592 437.161
1373 0 119.331 11.8913 1419 110.369 114.399 433.249
1374 1 67.1366 11.2755 757 102.82 114.325 459.108
1375 0 70.1693 11.287 792 103.694 114.346 462.016
1376 0 73.3303 11.6323 853 101.91 114.172 459.185
1377 0 76.201 11.614 885 101.102 114.299 460.169
1378 0 76.1465 11.1102 846 103.34 114.375 459.265
1379 0 78.2763 12.0215 941 101.945 114.618 457.484
1380 0 79.331 11.1306 883 105.217 114.58 459.099
1381 0 83.1471 12.063 1003 102.829 114.167 457.503
1382 0 87.1988 12.7639 1113 102.531 114.42 454.486
1383 0 91.1123 13.0279 1187 102.286 114.474 454.974
1384 0 92.132 13.0248 1200 103.016 114.795 453.066
1385 0 95.1825 12.3867 1179 104.732 114.408 454.925
1386 0 98.1178 12.4952 1226 106.243 114.271 450.78
1387 0 99.1695 12.4938 1239 107.638 114.341 443.537
1388 0 103.111 12.2198 1260 108.035 114.05 443.276
1389 0 109.249 13.2358 1446 104.728 114.053 442.746
1390 0 110.235 13.1174 1446 106.564 113.494 439.858
1391 0 116.105 13.2208 1535 106.083 113.264 439.73
1392 0 114.316 11.4158 1305 111.763 112.755 438.665
1393 0 120.203 12.5455 1508 108.786 112.965 439.792
1394 0 124.155 12.275 1524 110.057 112.957 436.18
1395 0 125.278 13.0429 1634 108.898 112.931 434.086
1396 1 66.2409 10.8543 719 105.559 113.644 461.637
1397 0 66.2273 11.1585 739 105.936 114.315 457.375
1398 0 71.2103 11.768 838 104.558 114.652 458.504
1399 0 74.1505 12.1375 900 100.821 113.727 458.497
1400 0 76.2243 12.2796 936 100.896 113.96 454.776
1401 0 77.1918 13.9911 1080 98.8352 113.901 455.085
1402 0 81.1492 12.4709 1012 102.362 113.49 456.184
1403 0 84.1649 12.6062 1061 101.766 113.861 454.092
1404 0 82.2291 12.2219 1005 105.277 113.306 450.478
1405 0 89.1222 12.9597 1155 102.43 113.258 451.419
1406 0 91.2797 12.5877 1149 104.188 113.312 450.741
1407 0 93.1881 12.4694 1162 104.602 113.266 450.17
1408 0 96.1805 13.038 1254 104.767 113.645 449.754
1409 0 96.2254 12.2421 1178 109.256 114.158 446.074
1410 0 99.2367 14.0976 1399 106.122 114.006 440.611
1411 0 104.234 12.5391 1307 108.265 113.603 444.225
1412 0 106.345 12.9108 1373 108.264 113.406 443.719
1413 0 109.239 13.8595 1514 106.768 113.893 439.659
1414 0 112.333 13.0683 1468 108.064 113.094 440.33
1415 0 115.342 13.1695 1519 108.839 113.234 437.901
1416 0 117.242 11.9752 1404 110.097 113.598 436.926
1417 0 122.192 12.2348 1495 108.899 113.034 431.635
1418 0 127.378 12.5453 1598 107.148 113.48 431.045
1419 0 131.264 13.1186 1722 105.501 113.697 432.286
1420 1 70.146 11.6614 818 100.395 113.344 461.005
1421 0 73.2232 10.8026 791 103.7 113.062 460.059
1422 0 71.2774 10.3259 736 105.296 113.751 457.728
1423 0 79.1617 12.4681 987 97.617 113.367 458.38
1424 0 79.2382 11.7494 931 101.195 113.612 455.853
1425 0 81.1275 12.1537 986 100.662 113.59 454.453
1426 0 85.1777 13.1959 1124 98.0836 113.746 454.36
1427 0 86.2733 11.7418 1013 101.443 114.272 454.221
1428 0 89.2789 11.0104 983 102.151 114.624 454.918
1429 0 91.212 12.016 1096 100.854 114.682 450.143
1430 0 95.3904 12.7057 1212 99.1658 114.152 449.677
1431 0 97.4117 12.4112 1209 101.533 114.756 447.37
1432 0 99.3486 12.2498 1217 103.896 114.131 445.697
1433 0 102.282 11.5074 1177 105.54 113.425 444.651
1434 0 104.316 12.3471 1288 105.347 113.734 442.193
1435 0 107.279 12.2671 1316 105.65 113.647 439.76
1436 0 109.128 11.4728 1252 103.569 114.468 445.518
1437 0 112.169 12.1692 1365 102.737 114.795 445.577
1438 0 115.104 11.8067 1359 103.57 114.754 444.002
1439 0 121.244 12.6935 1539 102.317 113.956 438.607
1440 0 126.165 13.1653 1661 102.547 114.269 438.069
1441 1 71.2275 11.737 836 101.329 114.943 465.48
1442 0 74.4671 13.375 996 103.564 113.57 458.804
1443 0 75.1443 12.9617 974 103.995 113.28 458.856
1444 0 79.1545 13.4294 1063 101.752 112.976 458.787
1445 0 78.2207 13.2829 1039 103.948 113.022 456.452
1446 0 82.1165 13.493 1108 102.593 113.609 456.18
1447 0 83.1195 14.3167 1190 100.755 113.115 454.525
1448 0 87.1356 12.6699 1104 104.094 113.142 452.903
1449 0 90.2205 13.866 1251 101.221 113.396 451.98
1450 0 93.2793 13.4649 1256 101.342 112.148 450.31
1451 0 93.257 13.0928 1221 102.406 113.414 447.846
1452 0 96.2632 14.8655 1431 97.6646 113.674 444.423
1453 0 97.2156 13.6398 1326 99.1259 112.807 441.91
1454 0 98.1716 11.2965 1109 104.939 113.629 440.317
1455 0 102.146 11.1409 1138 103.855 113.297 440.493
1456 0 105.378 11.9759 1262 101.709 114.025 439.361
1457 0 104.263 11.6245 1212 103.704 113.75 437.792
1458 0 113.311 13.0437 1478 98.4127 113.904 438.314
1459 0 114.287 12.5474 1434 100.332 114.022 436.126
1460 0 116.204 12.7105 1477 100.819 113.138 431.283
1461 0 123.28 12.9948 1602 98.5006 113.43 431.396
1462 0 121.347 12.6827 1539 99.7206 113.319 429.347
1463 0 128.159 12.7263 1631 98.2354 113.578 428.411
1464 0 132.286 11.5961 1534 100.704 113.449 424.958
1465 1 72.0552 10.4087 750 91.6213 114.507 454.445
1466 0 76.1294 11.1258 847 90.6694 113.477 451.595
1467 0 76.181 11.3414 864 89.9155 113.953 454.639
1468 0 75.2854 8.9526 674 95.7018 113.892 449.985
1469 0 81.1205 11.4644 930 90.9849 114.567 447.453
1470 0 85.1586 11.0147 938 91.9968 114.613 448.173
1471 0 86.2098 11.2168 967 92.7229 113.94 444.586
1472 0 91.2701 11.2414 1026 92.3021 113.983 446.262
1473 0 94.1503 11.4816 1081 92.7151 113.744 445.014
1474 0 95.2069 12.9823 1236 91.3536 113.87 442.325
1475 0 96.2109 10.8927 1048 96.4132 114.156 441
1476 0 101.306 11.9045 1206 93.8541 114.175 442.617
1477 0 101.281 11.394 1154 96.3388 114.436 435.438
1478 0 108.205 12.7905 1384 93.2016 114.265 438.957
1479 0 108.172 12.0642 1305 94.7326 113.969 437.847
1480 0 112.233 11.7969 1324 95.79 114.277 434.903
1481 0 113.11 11.8911 1345 96.9606 114.033 433.416
1482 0 120.12 12.3377 1482 97.166 113.648 433.465
1483 0 122.2 12.4058 1516 96.9169 114.237 434.633
1484 0 129.278 12.0825 1562 97.8367 113.882 427.682
1485 0 132.276 13.3811 1770 98.5051 113.538 428.277
1486 1 71.123 10.5592 751 100.024 114.65 457.992
1487 0 72.1518 11.4342 825 97.9491 113.904 455.92
1488 0 77.0851 11.1305 858 97.1364 113.45 454.486
1489 0 78.1635 11.7062 915 97.6339 114.107 452.774
