time division length width area intensity CMx CMy
0 0 48.0805 11.3144 544 136.844 272.399 481.079
1 0 49.1031 12.097 594 136.394 272.591 479.088
2 0 48.0358 11.8245 568 136.702 273.134 479.1
3 0 50.0722 10.9642 549 137.08 272.9 479.069
4 0 50.0371 11.5115 576 136.872 274.002 478.229
5 0 53.0995 12.5802 668 133.487 274.145 475.449
6 0 55.0785 12.6002 694 132.004 274.206 476.033
7 0 54.0832 11.4083 617 134.715 273.58 476.279
8 0 57.0672 12.5641 717 129.537 273.022 474.993
9 1 29.0478 11.8425 344 132.959 272.733 489.581
10 0 29.0212 10.2684 298 137.523 272.651 488.983
11 0 30.1149 11.2901 340 134.338 272.75 489.447
12 0 32.019 11.9304 382 130.526 272.615 488.626
13 0 34.0258 11.9321 406 129.461 272.746 488.074
14 0 33.0304 11.9889 396 135.192 274.563 488.144
15 0 34.1329 11.3966 389 128.332 272.373 490.589
16 0 32.1255 10.8948 350 133.269 272.46 489.78
17 0 34.1376 11.7173 400 130.438 272.668 489.04
18 0 36.1051 11.4942 415 129.99 271.961 489.234
19 0 36.1248 12.18 440 129.093 272.593 488.266
20 0 38.0503 11.7476 447 128.875 272.387 487.821
21 0 39.1845 12.1221 475 127.798 272.091 487.333
22 0 42.0829 13.0457 549 124.097 272.077 487.093
23 0 42.1291 12.5566 529 126.431 271.575 486.934
24 0 43.1486 12.6076 544 126.272 271.623 488.092
25 0 45.0264 13.8363 623 121.929 271.947 486.103
26 0 46.1767 14.4445 667 120.975 271.538 486.343
27 0 47.082 13.8269 651 123.602 271.694 486.625
28 0 50.1615 13.7157 688 122.371 271.571 485.674
29 0 51.223 11.5378 591 129.68 270.929 484.694
30 0 52.1357 13.1004 683 125.864 270.966 483.435
31 0 53.2245 14.1476 753 123.312 270.568 482.817
32 0 56.228 13.4452 756 123.722 270.761 483.578
33 0 58.2152 13.5188 787 123.855 270.225 481.69
34 0 59.1741 12.8097 758 127.814 270.121 480.278
35 0 62.3504 12.8307 800 125.346 270.516 478.995
36 0 63.2851 12.2146 773 127.012 270.766 478.71
37 0 66.2357 12.9839 860 125.507 270.623 476.936
38 0 71.0581 13.3693 950 122.441 270.505 475.896
39 0 72.2739 12.3143 890 126.76 270.398 473.455
40 0 75.1441 13.361 1004 123.91 270.815 471.575
41 1 36.0177 10.4671 377 130.668 271.178 490.992
42 0 39.0661 12.722 497 123.121 271.193 490.421
43 0 42.0835 11.4534 482 125.649 271.392 490.707
44 0 44.0308 12.673 558 124.199 270.952 488.864
45 0 43.0375 12.036 518 126.759 271.201 489.546
46 0 45.0221 13.3712 602 122.088 270.188 489.635
47 0 46.059 11.8978 548 127.106 269.765 489.137
48 0 47.032 11.9706 563 126.528 270.76 488.751
49 0 50.061 12.6046 631 124.187 270.802 488.117
50 0 51.0374 12.6378 645 126.14 270.423 486.983
51 0 51.0518 11.9878 612 127.832 270.381 486.433
52 0 53.137 11.555 614 129.251 271.114 486.567
53 0 55.0217 13.3765 736 125.273 271.048 484.963
54 0 57.0286 13.5721 774 124.57 270.041 483.544
55 0 60.0836 14.0471 844 121.899 270.395 482.539
56 0 62.048 13.1511 816 124.001 270.869 482.172
57 0 65.1294 14.3867 937 119.54 271.732 481.519
58 0 66.0351 13.1748 870 123.494 270.448 481.083
59 0 69.0356 13.1816 910 124.179 270.77 477.625
60 0 71.0844 12.8157 911 125.105 270.495 478.01
61 0 74.0789 13.2966 985 123.544 270.465 475.536
62 0 76.1793 14.3477 1093 121.832 270.924 475.01
63 0 78.1238 13.197 1031 124.01 271.055 474.706
64 0 82.1772 14.7364 1211 120.686 270.702 473.235
65 0 83.1901 13.3069 1107 126.215 270.69 472.921
66 0 87.1739 14.6489 1277 123.683 270.254 469.591
67 0 90.1856 13.8049 1245 127.112 270.472 467.815
68 0 92.1743 13.9193 1283 128.875 270.252 465.911
69 0 95.2364 13.4507 1281 128.625 269.501 464.817
70 1 53.1448 13.228 703 120.592 269.892 486.403
71 0 57.1245 13.7419 785 118.34 270.008 486.571
72 0 58.0676 13.1054 761 121.698 270.47 486.712
73 0 57.0544 12.5845 718 125.422 269.348 484.624
74 0 60.0525 13.5548 814 122.98 269.72 483.577
75 0 64.1129 13.679 877 120.725 269.642 484.143
76 0 66.0741 14.1962 938 120.991 269.933 482.919
77 0 65.1059 13.0556 850 125.962 270.229 480.246
78 0 70.0709 13.4863 945 122.862 270.39 479.479
79 0 71.1534 12.9439 921 125.758 270.054 478.742
80 0 72.2242 13.5273 977 125.513 270.46 478.134
81 0 76.1272 13.2673 1010 125.731 270.772 476.165
82 0 76.1614 13.4189 1022 126.265 270.123 475.206
83 0 81.169 13.4904 1095 125.385 270.332 473.85
84 0 83.0606 13.4841 1120 127.391 269.8 470.343
85 0 86.1728 12.5214 1079 133.925 270.201 470.754
86 0 89.2498 13.1765 1176 132.088 269.302 469.889
87 0 92.1922 13.9383 1285 129.195 269.71 466.818
88 0 94.1172 12.6226 1188 132.013 268.975 466.642
89 0 99.1093 12.9049 1279 131.83 268.527 463.876
90 1 55.1226 11.4472 631 126.908 268.739 487.647
91 0 55.1609 12.2188 674 126.277 268.154 485.994
92 0 57.3806 12.9661 744 125.495 268.211 481.938
93 0 60.119 12.9743 780 121.017 267.718 483.258
94 0 61.0731 12.3459 754 120.529 266.851 483.527
95 0 62.0525 12.4088 770 121.16 267.212 482.11
96 0 65.0895 12.1832 793 121.646 267.352 480.75
97 0 66.0573 13.4277 887 118.559 267.548 480.738
98 0 69.1666 12.694 878 120.241 267.678 479.267
99 0 71.0798 12.282 873 121.77 268.84 478.423
100 0 74.0869 13.4842 999 118.881 269.383 478.571
101 0 75.0795 12.3602 928 123.398 268.543 475.346
102 0 78.1207 13.748 1074 121.419 268.54 474.602
103 0 81.0746 12.914 1047 124.404 268.742 473.187
104 0 83.1196 13.7272 1141 122.263 268.267 474.183
105 0 85.0857 11.9291 1015 129.696 268.067 469.769
106 0 88.0577 12.9006 1136 126.47 267.464 469.153
107 0 92.1459 13.1748 1214 126.387 267.194 467.473
108 0 94.1368 12.4393 1171 129.202 267.196 466.632
109 0 97.0668 13.5783 1318 126.385 266.958 465.391
110 0 103.401 13.0366 1348 128.513 267.927 461.15
111 1 53.1478 11.0447 587 123.959 268.463 485.133
112 0 54.1503 12.2252 662 122.452 268.663 483.718
113 0 55.1876 11.778 650 124.182 265.994 485.003
114 0 59.1584 12.7454 754 127.107 266.29 485.702
115 0 60.1601 12.4335 748 129.983 266.602 484.401
116 0 60.1729 13.2285 796 129.785 266.832 481.511
117 0 63.1656 13.2192 835 128.184 266.692 481.386
118 0 66.1434 12.8811 852 129.353 266.682 479.738
119 0 68.0969 13.3193 907 128.856 267.385 480.031
120 0 68.1526 12.8682 877 132.52 266.319 478.376
121 0 71.1106 12.4032 882 134.005 266.076 477.661
122 0 72.1218 13.0058 938 133.408 266.319 476.322
123 0 74.154 12.8921 956 134.26 265.951 474.847
124 0 77.1725 13.7484 1061 132.631 266.535 474.039
125 0 81.146 13.9009 1128 132.875 266.216 471.218
126 0 83.1946 14.4721 1204 131.381 265.945 471.011
127 0 85.1867 12.7602 1087 136.616 266.263 468.868
128 0 88.1721 13.0313 1149 134.132 265.965 468.735
129 0 92.2077 13.3286 1229 135.091 266.274 465.514
130 0 97.1915 12.9024 1254 133.667 266.586 466.486
131 0 97.0902 12.2052 1185 133.418 266.443 464.676
132 0 103.158 13.1934 1361 129.722 266.554 463.153
133 1 55.0307 12.3749 681 124.023 266.065 487.06
134 0 57.04 12.5351 715 123.894 266.517 485.148
135 0 57.0231 11.9601 682 130.625 268.463 483.147
136 0 58.0847 13.4631 782 127.583 268.83 483.299
137 0 64.061 13.6432 874 123.895 268.728 483.071
138 0 66.0636 12.8815 851 124.85 268.941 482.288
139 0 66.1134 11.5408 763 130.932 268.987 479.748
140 0 69.0837 12.8829 890 126.415 269.489 479.024
141 0 69.0628 12.8144 885 127.922 269.179 478.071
142 0 71.0849 13.6597 971 125.709 268.869 477.426
143 0 74.1661 13.5102 1002 127.15 268.604 475.181
144 0 76.092 13.3785 1018 127.851 268.97 473.892
145 0 80.145 13.6378 1093 127.241 268.713 473.596
146 0 81.074 13.4815 1093 129.625 268.494 472.756
147 0 81.0712 13.0996 1062 131.85 267.65 472.627
148 0 84.1169 14.6582 1233 127.501 268.173 471.415
149 0 87.1257 12.9009 1124 124.468 267.626 468.148
150 0 88.2225 11.607 1024 127.614 267.863 468.172
151 0 92.0975 12.4325 1145 124.011 267.723 465.693
152 0 94.2378 11.5771 1091 126.911 267.8 466.236
153 0 99.2362 13.8357 1373 122.275 267.64 462.671
154 1 54.0909 11.2034 606 124.748 268.343 485.616
155 0 54.164 12.1483 658 121.286 268.354 484.892
156 0 59.1922 13.2112 782 118.198 268.02 484.309
157 0 61.0721 13.3449 815 115.952 269.487 482.253
158 0 64.1131 12.0724 774 118.964 268.594 481.323
159 0 64.1374 12.9877 833 117.065 268.825 479.372
160 0 66.165 13.6175 901 115.553 269.201 479.049
161 0 68.1571 12.0457 821 118.341 268.789 476.942
162 0 70.0906 13.3113 933 117.119 266.596 478.307
163 0 74.2176 11.4932 853 119.693 266.612 478.679
164 0 75.1344 12.6174 948 117.617 267.197 475.069
165 0 78.0724 12.6165 985 117.697 266.876 474.437
166 0 80.0806 12.4375 996 117.173 266.79 473.326
167 0 84.0322 12.2334 1028 117.357 266.474 471.31
168 0 87.054 11.5446 1005 117.474 266.575 471.177
169 0 89.0612 12.0142 1070 117.868 267.123 468.727
170 0 93.062 12.669 1179 116.5 267.718 467.186
171 0 96.1174 12.6304 1214 115.848 268.444 464.733
172 0 99.1678 12.5041 1240 114.448 267.965 465.226
173 0 102.316 12.4419 1273 114.274 268.433 458.847
174 1 51.23 10.9506 561 113.677 269.08 485.39
175 0 56.0252 11.8875 666 107.673 269.029 486.248
176 0 55.0417 11.1552 614 108.941 267.808 486.738
177 0 57.0534 11.6558 665 108.956 267.783 485.823
178 0 57.0862 10.9659 626 110.468 268.217 484.979
179 0 59.0807 11.1373 658 110.907 267.568 481.985
180 0 64.1148 12.1033 776 107.161 267.71 480.803
181 0 65.1447 12.7716 832 104.881 267.665 479.12
182 0 66.1039 11.3155 748 107.876 267.606 480.587
183 0 66.1305 10.9934 727 110.483 266.876 478.587
184 0 70.185 11.7974 828 108.286 267.071 477.766
185 0 72.0565 12.0045 865 108.316 267.021 475.348
186 0 75.1013 13.7148 1030 104.77 267.077 474.936
187 0 78.1128 13.0068 1016 107.952 266.863 473.584
188 0 81.1178 11.699 949 112.154 267.187 471.703
189 0 83.1368 13.5079 1123 108.093 267.324 469.183
190 0 85.0973 11.3517 966 113.878 267.125 470.839
191 0 89.1255 12.6788 1130 110.472 267.198 469.366
192 0 91.1167 12.8407 1170 110.897 267.359 467.153
193 0 94.0729 12.5541 1181 111.455 267.589 465.673
194 0 99.115 12.7327 1262 111.345 267.354 464.466
195 0 102.089 12.2638 1252 111.539 268.618 462.558
196 1 52.044 11.1636 581 112.707 269.26 486.64
197 0 52.0651 11.7737 613 116.491 269.56 482.168
198 0 59.0457 11.4318 675 114.778 269.733 484.022
199 0 58.1039 13.0972 761 106.172 269.033 482.612
200 0 60.0521 14.0878 846 104.271 269.021 483.686
201 0 62.0398 13.04 809 107.112 268.266 480.389
202 0 63.0903 12.9814 819 108.054 268.578 480.707
203 0 67.1509 12.8219 861 107.654 268.69 480.145
204 0 67.2329 12.4939 840 109.693 268.226 476.826
205 0 71.0852 12.5061 889 109.876 268.27 476.835
206 0 74.1626 14.0098 1039 106.595 268.562 475.954
207 0 75.1507 13.9985 1052 108.448 268.631 473.796
208 0 77.1364 13.353 1030 106.642 268.227 473.699
209 0 81.1175 14.2016 1152 105.238 268.146 471.082
210 0 82.1422 12.661 1040 110.188 268.631 473.035
211 0 84.1878 13.0779 1101 109.726 268.47 469.597
212 0 89.1245 12.7911 1140 109.592 268.668 468.475
213 0 92.2235 12.9143 1191 109.507 268.286 467.018
214 0 93.1233 12.8969 1201 110.536 268.311 465.868
215 0 97.1771 13.1821 1281 110.429 268.85 463.455
216 1 50.0596 10.2278 512 116.271 269.781 486.418
217 0 50.0992 11.1179 557 114.268 269.741 485.025
218 0 56.1034 11.2827 633 112.48 270.022 485.725
219 0 56.0436 12.1691 682 107.818 269.223 484.422
220 0 57.0556 12.2512 699 109.136 269.27 483.461
221 0 60.0521 13.455 808 105.624 269.028 481.694
222 0 60.0753 11.4357 687 111.278 268.747 481.732
223 0 62.1445 13.1307 816 107.211 268.681 480.912
224 0 66.0572 12.5951 832 107.96 269.23 478.98
225 0 68.1365 13.2381 902 107.414 268.977 478.978
226 0 70.1163 12.9642 909 108.853 268.917 475.241
227 0 73.0775 12.9452 946 108.457 268.484 476.258
228 0 74.1128 12.8453 952 110.099 268.247 476.407
229 0 77.2049 12.9655 1001 110.34 268.277 473.65
230 0 81.1946 13.0181 1057 110.119 267.643 473.237
231 0 82.1778 12.0349 989 112.953 267.984 472.176
232 0 88.2438 13.1114 1157 110.178 268.283 471.489
233 0 90.3163 13.9399 1259 109.057 267.921 468.346
234 0 94.3108 13.3601 1260 114.136 268.157 466.848
235 0 96.2848 13.19 1270 115.749 267.821 463.875
236 1 51.1458 10.0693 515 116.423 267.831 485.79
237 0 53.1424 12.363 657 109.849 266.569 483.262
238 0 56.0395 11.9915 672 102.914 266.138 486.826
239 0 56.1051 11.7636 660 104.615 267.192 484.545
240 0 56.0412 11.0454 619 106.817 266.522 484.339
241 0 60.0692 11.1704 671 105.039 266.34 483.689
242 0 62.0298 11.7524 729 102.316 266.314 482.953
243 0 64.1904 12.2137 784 101.267 266.177 481.149
244 0 64.0935 12.2477 785 101.697 266.138 478.761
245 0 67.0734 11.2563 755 101.915 266.932 478.017
246 0 71.0713 12.6493 899 97.2047 266.873 477.638
247 0 71.0302 10.573 751 101.755 266.803 477.273
248 0 76.0674 12.6072 959 96.1606 267.377 476.241
249 0 78.0483 12.1591 949 96.5764 267.087 474.033
250 0 80.0591 12.116 970 96.7711 267.587 472.58
251 0 83.0369 12.934 1074 95.216 267.169 469.658
252 0 85.2466 12.0826 1030 96.4495 268.805 466.558
253 0 88.1941 12.4612 1099 96.0091 269.029 467.864
254 1 50.0704 10.7249 537 96.2607 269.862 487.791
255 0 51.1217 11.678 597 97.866 269.633 487.348
256 0 53.1416 13.1724 700 97.7029 268.717 485.773
257 0 54.0955 11.3873 616 103.019 269.102 486.295
258 0 53.1591 11.8512 630 103.822 267.505 483.229
259 0 55.2352 12.2024 674 100.417 267.696 485.467
260 0 57.0986 11.4714 655 102.449 267.931 483.499
261 0 59.2022 10.8611 643 103.54 268.659 480.098
262 0 60.266 11.7645 709 102.334 268.795 481.306
263 0 63.1792 12.7574 806 100.256 268.8 481.107
264 0 65.1959 11.5191 751 103.553 268.317 480.249
265 0 66.2669 12.7967 848 101.742 268.723 478.849
266 0 69.1418 13.2626 917 100.063 268.533 478.617
267 0 70.2538 12.4548 875 102.979 268.883 477.649
268 0 72.3307 11.3368 820 105.363 268.52 478.828
269 0 75.2819 13.3897 1008 103.037 268.256 474.17
270 0 76.3909 12.6193 964 104.553 268.105 472.187
271 0 79.3858 13.3903 1063 104.009 268.663 471.84
272 0 83.5003 12.5149 1045 103.692 267.88 471.757
273 0 86.3681 12.8983 1114 102.634 267.645 469.6
274 1 46.057 11.6812 538 95.5465 268.851 489.149
275 0 48.0961 10.3335 497 97.9638 267.674 490.258
276 0 49.284 10.267 506 100.698 266.486 487.36
277 0 51.3041 12.0653 619 97.8433 266.759 484.357
278 0 52.1019 11.3431 591 101.244 266.132 487.783
279 0 54.1199 12.2136 661 99.9092 266.79 486.408
280 0 56.1426 11.0433 620 103.179 266.334 485.7
281 0 57.1467 12.0392 688 101.786 266.493 485.422
282 0 58.1985 12.0794 703 103.465 266.508 483.9
283 0 59.1153 11.7567 695 104.121 266.905 483.564
284 0 60.133 11.7573 707 104.028 266.983 483.819
285 0 63.1885 12.2174 772 103.499 266.948 482.095
286 0 64.1434 11.7081 751 104.796 267.818 482.611
287 0 67.2198 12.2285 822 102.721 267.394 482.156
288 0 69.1291 12.8021 885 102.071 267.212 480.896
289 0 72.2636 12.8695 930 102.9 267.899 477.995
290 0 73.1137 12.7062 929 103.878 268.195 476.205
291 0 74.1912 12.3195 914 105.082 267.536 476.35
292 0 77.2107 12.4983 965 105.425 268.045 474.028
293 0 82.1267 13.1017 1076 103.394 267.906 472.717
294 0 86.1339 12.6896 1093 104.057 267.385 472.756
295 0 88.2979 12.3219 1088 104.871 267.668 471.928
296 0 90.1056 13.0514 1176 105.009 267.632 467.086
297 1 48.0973 11.2065 539 104.8 266.557 488.462
298 0 51.0851 12.4107 634 99.6498 267.487 490.071
299 0 53.2109 12.7417 678 105.99 266.276 486.518
300 0 51.2177 11.1875 573 105.222 266.607 487.92
301 0 54.0827 12.0741 653 101.83 266.173 487.853
302 0 54.0919 10.7964 584 104.57 266.567 487.454
303 0 56.1396 11.0439 620 104.127 266.823 485.844
304 0 59.0901 11.8463 700 102.017 266.884 484.391
305 0 61.2454 11.9846 734 102.86 267.144 482.862
306 0 62.0813 11.4366 710 103.207 266.759 482.411
307 0 66.1401 10.9918 727 102.851 267.535 481.732
308 0 67.1511 10.2604 689 105.274 266.467 481.903
309 0 70.1737 11.842 831 102.258 267.338 476.199
310 0 75.1227 12.1668 914 100.179 266.976 476.279
311 0 77.0916 11.6225 896 100.998 266.596 477.247
312 0 77.0605 11.0043 848 103.472 267.404 473.699
313 0 82.0757 12.0377 988 101.878 267.531 471.3
314 0 83.1543 11.4727 954 102.571 267.094 471.824
315 0 87.1186 11.2031 976 103.68 266.473 470.641
316 0 91.1705 11.3524 1035 103.871 267.056 468.552
317 0 94.1042 11.4873 1081 102.364 266.477 470.127
318 1 50.0238 11.0147 551 103.287 266.376 489.998
319 0 52.0629 11.0443 575 103.807 266.386 488.487
320 0 52.1724 11.577 604 102.225 267.18 484.904
321 0 54.0768 12.7042 687 96.9694 266.658 486.061
322 0 56.1025 12.798 718 97.1337 266.983 485.384
323 0 56.1793 12.1041 680 99.2206 267.35 483.787
324 0 62.0887 12.5627 780 96.25 266.588 483.029
325 0 62.1487 11.4886 714 99.0798 266.819 482.261
326 0 64.1607 11.8764 762 97.8097 267.319 481.06
327 0 65.1778 12.4736 813 96.8991 267.027 481.402
328 0 65.0903 12.2445 797 97.5721 267.558 480.287
329 0 69.1917 12.7905 885 95.0927 267.652 478.549
330 0 71.1452 11.7506 836 97.512 267.579 477.532
331 0 74.1336 12.3965 919 96.2927 267.423 476.212
332 0 75.151 11.9227 896 97.827 266.674 474.621
333 0 80.1634 12.4995 1002 95.6926 266.566 473.582
334 0 81.0776 11.0141 893 98.5633 266.844 473.475
335 0 85.1834 11.7159 998 97.6733 266.605 470.199
336 0 89.2121 14.516 1295 98.3838 268.561 470.09
337 0 92.1118 12.4523 1147 102.577 268.331 470.052
338 0 92.0555 10.4719 964 107.058 268.029 468.005
339 0 96.1282 11.9944 1153 103.567 268.34 465.303
340 0 99.0791 10.7389 1064 105.759 268.716 465.496
341 0 102.148 11.0526 1129 105.109 268.409 462.06
342 0 107.088 11.4766 1229 103.562 269.011 460.701
343 0 111.093 12.8271 1425 101.648 268.073 460.381
344 0 113.117 11.8019 1335 102.578 268.455 458.861
345 0 119.125 12.5499 1495 100.598 268.151 456.108
346 1 61.0655 10.022 612 100.595 268.874 485.19
347 0 64.2333 11.9564 768 97.776 267.402 480.232
348 0 66.086 12.6653 837 93.4827 266.28 479.393
349 0 69.1637 12.6801 877 92.927 266.851 478.647
350 0 70.1483 12.6589 888 93.9279 266.695 477.556
351 0 72.1379 13.2108 953 92.553 266.182 475.969
352 0 73.1146 11.9402 873 95.2096 265.977 475.207
353 0 76.203 11.3513 865 96.7514 266.333 473.435
354 0 81.1623 12.9001 1047 92.7402 265.955 474.666
355 0 82.1765 11.9742 984 96.187 265.689 470.481
356 0 85.1299 12.9332 1101 94.3896 265.396 472.141
357 0 88.0884 11.9539 1053 96.6762 265.873 469.976
358 0 90.0956 12.7975 1153 95.6843 266.001 465.598
359 0 92.0551 11.0912 1021 98.907 266.249 467.095
360 0 96.1227 11.4437 1100 99.1355 265.943 465.853
361 1 54.1603 10.949 593 99.8094 265.84 484.911
362 0 57.0758 11.1431 636 99.1289 266.524 484.234
363 0 60.0896 10.8671 653 99.1026 269.27 484.074
364 0 58.1004 9.87944 574 96.5488 269.603 484.972
365 0 60.1327 11.3748 684 94.7924 270.072 483.499
366 0 62.1216 10.0931 627 97.1515 270.062 484.584
367 0 65.1622 11.4484 746 95.8217 269.727 481.902
368 0 66.1099 12.0708 798 95.8596 269.672 479.568
369 0 70.1546 10.8617 762 97.3281 269.152 480.526
370 0 71.1454 11.357 808 98.3342 269.257 478.012
371 0 73.1772 12.4766 913 97.3384 269.445 476.327
372 0 75.0855 11.7732 884 98.4943 268.761 478.068
373 0 79.0579 11.637 920 98.6826 269.339 476.51
374 0 81.1188 12.0934 981 99.7146 268.986 475.179
375 0 84.1428 11.9321 1004 100.465 268.913 475.141
376 0 87.128 12.3152 1073 100.946 268.91 471.827
377 0 89.1914 13.2188 1179 99.2782 268.849 472.182
378 0 91.2368 11.9141 1087 102.931 268.753 470.894
379 0 95.2178 12.3401 1175 102.647 267.888 468.414
380 0 100.163 13.0388 1306 101.59 268.743 465.639
381 0 104.112 13.3702 1392 101.072 268.398 463.501
382 1 56.0742 11.3956 639 105.681 268.059 485.945
383 0 61.0288 13.1577 803 98.7621 268.797 486.521
384 0 64.0351 12.9304 828 99.8309 269.521 484.884
385 0 63.1036 12.8043 808 105.382 269.587 483.187
386 0 65.027 12.1949 793 106.122 269.533 482.874
387 0 66.0634 11.7766 778 107.775 269.429 481.432
388 0 70.0535 14.7459 1033 101.844 269.296 479.96
389 0 72.0274 12.8562 926 105.681 269.241 480.179
390 0 73.1356 13.81 1010 105.392 268.526 477.614
391 0 74.0595 12.3009 911 110.37 268.733 473.148
392 0 77.0466 12.2004 940 110.688 268.953 474.997
393 0 83.1152 12.3924 1030 109.283 269.077 472.884
394 0 84.0793 13.3445 1122 108.85 268.708 471.517
395 0 87.1216 13.154 1146 108.777 268.78 472.716
396 0 89.0862 12.2802 1094 110.346 268.744 470.835
397 0 92.0427 12.0379 1108 111.425 268.971 468.694
398 1 49.0623 11.0268 541 108.022 269.601 489.701
399 0 51.014 13.3493 681 100.611 268.244 488.698
400 0 52.1231 12.7583 665 100.615 269.095 488.441
401 0 54.0885 12.1283 656 103.733 268.976 486.733
402 0 55.1054 12.957 714 102.238 270.025 485.426
403 0 54.1248 12.1571 658 105.728 269.819 485.079
404 0 57.219 13.125 751 103.615 269.859 485.771
405 0 58.1199 11.4247 664 108.054 269.587 484.91
406 0 60.1151 12.659 761 105.64 269.472 484.629
407 0 62.1099 13.0575 811 105.423 268.969 483.224
408 0 65.1507 13.6453 889 103.634 269.548 480.299
409 0 66.136 12.9582 857 105.781 269.488 480.754
410 0 68.0887 12.939 881 107.581 269.437 478.701
411 0 71.0542 13.4545 956 106.507 268.019 478.593
412 0 70.1575 12.7428 894 111.111 268.705 476.739
413 0 72.1838 12.0526 870 113.307 268.474 476.584
414 0 75.1684 13.6361 1025 109.606 268.29 475.612
415 0 79.0824 12.4933 988 111.971 268.408 474.96
416 0 84.0895 14.2348 1197 106.89 268.124 472.959
417 0 85.1168 12.5592 1069 111.808 268.314 471.073
418 0 87.1266 11.753 1024 113.589 268.258 471.75
419 0 92.149 13.3045 1226 109.883 268.473 469.547
420 0 95.1995 13.2564 1262 110.335 268.84 467.857
421 0 97.1764 13.2542 1288 111.307 268.274 465.67
422 0 100.082 13.9585 1397 110.634 268.4 461.386
423 1 53.2022 11.7288 624 111.827 269.468 484.394
424 0 53.0722 11.7764 625 105.152 266.642 481.227
425 0 53.0936 11.6963 621 109.51 269.243 486.689
426 0 58.0958 13.0474 758 104.958 269.765 485.334
427 0 59.0408 11.9578 706 108.156 268.799 483.843
428 0 61.0838 11.5088 703 108.664 268.644 485.566
429 0 62.0407 11.5086 714 110.651 269.178 481.064
430 0 66.115 12.1304 802 107.465 269.411 481.996
431 0 67.1097 10.8777 730 110.921 269.399 482.392
432 0 70.172 12.5691 882 108.015 269.766 479.534
433 0 73.1571 12.4663 912 108.964 268.99 478.436
434 0 75.1247 13.2313 994 108.21 269.011 478.477
435 0 77.1163 12.1116 934 110.93 268.991 476.185
436 0 79.1218 12.07 955 112.672 269.467 472.895
437 0 82.1381 11.2372 923 111.85 269.672 474.949
438 0 85.1564 11.9662 1019 111.102 269.223 470.262
439 0 87.3499 12.2381 1069 110.735 268.969 466.921
440 0 89.0963 11.9421 1064 110.851 269.094 464.665
441 0 94.6285 11.3179 1071 111.825 268.437 466.154
442 1 53.3007 10.1124 539 113.746 268.33 486.653
443 0 52.052 9.60578 500 105.654 269.096 480.038
444 0 53.1815 10.812 575 96.6452 268.591 483.03
445 0 53.0303 9.65486 512 98.6191 269.113 482.105
446 0 57.1645 10.1637 581 97.8726 268.675 478.432
447 0 56.0437 10.4026 583 98.1784 269.329 479.017
448 0 58.1322 11.2158 652 96.7975 269.363 477.879
449 0 61.09 10.64 650 97.6908 268.771 475.72
450 0 61.1052 10.441 638 99.0972 268.572 475.282
451 0 67.1018 10.4617 702 97.4416 268.47 473.755
452 0 67.0707 10.3324 693 97.6638 267.775 476.313
453 0 66.099 10.4238 689 98.5922 267.949 472.8
454 0 66.07 8.33964 551 102.296 267.998 469.9
455 0 73.27 10.1952 747 98.3641 268.534 470.013
456 0 70.1034 9.95673 698 100.917 268.36 463.682
457 0 75.1024 9.25404 695 100.403 268.285 465.873
458 0 81.136 11.9306 968 95.7955 267.827 465.655
459 0 81.1142 9.91195 804 100.454 267.751 465.626
460 0 86.1887 11.1848 964 98.9512 268.331 460.561
461 0 91.1799 10.4628 954 100.769 267.692 457.412
462 1 44.0625 7.71632 340 99.7206 268.209 481.003
463 0 49.267 10.3721 511 94.5812 267.906 479.787
464 0 51.0415 10.7364 548 91.3449 267.63 478.642
465 0 48.066 8.65476 416 97.601 267.531 478.74
466 0 52.1462 10.2404 534 94.5693 268.506 479.61
467 0 54.0724 9.94963 538 95.5967 268.154 479.955
468 0 51.1007 7.47544 382 100.893 267.45 476.12
469 0 58.1094 10.3254 600 96.0967 268.015 477.503
470 0 58.1374 9.52916 554 97.9928 267.922 478.975
471 0 59.1624 10.2261 605 97.5835 268.329 477.217
472 0 64.1098 10.9812 704 96.6207 267.783 474.92
473 0 64.014 11.2475 720 97.8681 267.783 474.788
474 0 65.1327 11.2693 734 98.6771 268.038 470.856
475 0 70.1213 10.1824 714 100.12 268.377 472.35
476 0 73.0939 10.7533 786 100.151 268.669 471.144
477 0 78.2286 11.5431 903 98.6047 268.75 471.806
478 0 80.3293 11.2288 902 98.9047 268.34 472.381
479 0 84.1303 12.6352 1063 99.1806 269.151 468.104
480 0 86.2541 12.0342 1038 102.093 268.667 466.337
481 1 44.1066 12.0163 530 96.9434 268.558 487.215
482 0 46.0784 11.5672 533 98.6848 268.816 487.019
483 0 48.1423 10.5105 506 104.399 268.352 486.014
484 0 47.1109 10.9316 515 104.517 268.75 485.113
485 0 50.1045 12.2145 612 103.328 267.835 482.935
486 0 54.0303 12.1784 658 102.296 268.573 490.103
487 0 53.1047 12.1646 646 103.628 269.06 488.7
488 0 55.1633 12.889 711 102.85 267.885 487.278
489 0 58.0939 12.2388 711 104.474 267.817 487.561
490 0 58.2281 11.8156 688 105.993 267.58 486.372
491 0 60.1455 12.37 744 104.375 268.243 484.148
492 0 60.0535 10.9069 655 108.176 268.371 484.769
493 0 64.1451 10.788 692 108.491 268.146 484.873
494 0 67.0673 11.6897 784 107.429 267.952 482.672
495 0 70.1008 12.696 890 105.371 267.978 482.028
496 0 72.1539 12.5565 906 108.31 268.661 479.672
497 0 74.1418 13.0561 968 109.475 268.473 477.314
498 0 79.1167 12.9808 1027 109.617 268.271 477.552
499 0 81.1653 13.3555 1084 111.611 267.999 474.247
500 0 84.2008 13.4084 1129 114.022 269.121 474.923
501 0 86.1178 14.2015 1223 115.2 268.378 471.836
502 0 88.1137 12.7108 1120 120.804 268.608 471.515
503 1 46.0632 10.008 461 107.876 268.505 488.445
504 0 48.0523 10.2596 493 109.574 267.882 487.846
505 0 47.0503 11.0095 518 109.743 267.419 487.193
506 0 49.1376 10.5622 519 105.622 267.692 487.206
507 0 51.0553 11.3211 578 103.597 267.988 487.458
508 0 54.0734 12.7604 690 101.326 267.372 485.412
509 0 55.0502 11.1171 612 105.175 267.748 485.837
510 0 57.0583 12.8465 733 103.19 267.251 482.239
511 0 60.1069 12.6941 763 102.409 267.413 483.242
512 0 62.0406 12.7658 792 102.818 267.542 481.652
513 0 63.0991 12.0287 759 104.296 267.465 482.485
514 0 65.1239 13.6355 888 101.366 267.535 479.673
515 0 68.0831 13.1457 895 102.917 267.603 479.057
516 0 67.1456 12.3612 830 107.355 267.436 477.489
517 0 72.0795 13.1521 948 104.556 267.295 476.668
518 0 74.1671 14.0898 1045 102.615 267.896 476.748
519 0 76.2481 13.5741 1035 104.458 267.946 475.926
520 0 79.1023 13.4762 1066 104.95 268.043 476.38
521 0 81.1078 13.3156 1080 107.093 267.669 473.791
522 0 83.123 14.3763 1195 105.606 268.479 472.038
523 0 86.2006 13.9094 1199 106.548 267.465 471.762
524 0 87.1806 13.1795 1149 110.211 266.874 469.452
525 0 90.3072 13.9191 1257 113.681 266.472 466.558
526 0 93.1385 13.2276 1232 111.521 267.561 467.42
527 0 96.1143 12.5372 1205 113.105 267.249 467.753
528 0 99.0463 12.5699 1245 113.19 266.284 466.433
529 0 103.135 12.5563 1295 114.802 266.908 463.506
530 0 106.213 13.247 1407 116.627 267.041 459.05
531 1 57.0894 11.6659 666 109.227 268.619 484.557
532 0 59.056 10.7017 632 113.229 268.074 485.046
533 0 63.1458 12.4315 785 119.893 266.143 482.261
534 0 67.0529 12.9301 867 117.671 265.744 483.616
535 0 65.0903 12.5825 819 116.078 265.891 482.966
536 0 69.0341 13.8193 954 111.597 266.086 480.851
537 0 71.0207 13.5876 965 111.458 266.393 481.355
538 0 75.057 14.0959 1058 109.808 266.602 476.726
539 0 77.0703 13.8705 1069 110.13 265.611 476.255
540 0 78.0709 12.9882 1014 112.053 266.017 477.695
541 0 81.1154 13.7458 1115 110.632 266.85 474.199
542 0 84.0693 12.4183 1044 113.025 266.217 474.438
543 0 88.1521 14.3842 1268 107.482 267.182 472.218
544 0 89.0745 12.5962 1122 113.447 266.46 470.135
545 0 95.0742 14.4939 1378 108.34 266.388 469.933
546 0 99.1954 14.6479 1453 108.285 266.171 469.17
547 0 102.102 14.4072 1471 109.817 265.971 466.85
548 0 105.192 14.3452 1509 110.377 266.916 462.316
549 0 107.277 14.0663 1509 111.533 267.581 463.677
550 0 110.388 14.304 1579 112.618 267.213 459.229
551 1 59.0977 12.0478 712 120.551 266.181 486.612
552 0 60.0314 12.3935 744 119.681 266.352 486
553 0 64.0716 13.7034 878 116.024 266.213 484.786
554 0 64.1095 12.697 814 119.73 266.614 484.507
555 0 65.093 11.2301 731 123.881 267.007 483.019
556 0 69.1794 12.9229 894 119.64 266.098 480.235
557 0 72.1346 12.851 927 118.779 266.554 479.374
558 0 74.1269 12.573 932 120.064 266.719 478.283
559 0 75.0758 12.7072 954 120.871 266.271 477.413
560 0 77.0551 12.8869 993 120.921 267.186 476.145
561 0 80.0279 12.9205 1034 122.38 266.89 473.801
562 0 83.0528 12.9677 1077 121.33 266.963 473.067
563 0 87.1136 13.6718 1191 118.852 267.433 470.924
564 0 91.1128 14.74 1343 115.899 267.515 470.083
565 0 93.0583 13.0348 1213 120.531 266.9 469.596
566 0 97.1022 14.2736 1386 117.618 267.431 466.281
567 0 101.104 13.5009 1365 120.094 266.897 465.903
568 0 102.132 11.9747 1223 118.507 267.529 466.102
569 0 108.211 12.0875 1308 118.352 268.425 462.681
570 0 111.181 13.1317 1460 116.733 269.016 460.505
571 1 60.1101 13.2091 794 112.791 269.387 485.354
572 0 61.0713 13.2141 807 113.649 269.062 484.026
573 0 61.0705 13.4599 822 114.236 268.775 484.56
574 0 63.1404 13.177 832 114.965 268.821 482.947
575 0 68.077 13.5435 922 112.451 269.169 483.834
576 0 70.1072 13.6648 958 112.922 268.305 482.436
577 0 70.1085 13.85 971 113.329 268.864 480.872
578 0 74.0874 14.2939 1059 112.178 268.925 477.973
579 0 76.0471 13.5837 1033 115.188 268.806 479.554
580 0 79.1914 15.0521 1192 112.643 268.205 477.378
581 0 80.1221 14.1409 1133 116.27 269.164 476.01
582 0 83.1632 13.2751 1104 118.765 268.876 475.744
583 0 87.1834 14.1082 1230 118.147 268.663 472.646
584 0 89.149 15.289 1363 116.461 268.85 471.626
585 0 93.1941 15.3336 1429 117.488 268.611 469.378
586 0 98.1911 15.4291 1515 116.634 268.342 469.974
587 0 99.3139 14.5599 1446 121.179 268.663 467.01
588 0 101.134 14.5945 1476 124.904 268.271 466.828
589 0 105.247 14.0812 1482 129.958 269.002 462.598
590 1 56.0842 11.8215 663 130.002 269.428 488.807
591 0 57.0555 11.5502 659 121.575 268.91 486.734
592 0 61.112 12.9271 790 117.851 269.113 486.1
593 0 62.0589 12.6976 788 118.06 269.296 486.293
594 0 64.1412 13.1429 843 118.203 268.337 483.409
595 0 67.1855 13.619 915 117.013 268.342 482.57
596 0 69.1189 13.9325 963 117.506 268.38 481.933
597 0 71.0953 14.2344 1012 116.218 269.062 481.461
598 0 74.1942 13.6399 1012 120.092 268.843 480.021
599 0 76.1565 14.3389 1092 119.868 268.385 480.4
600 0 79.0783 13.847 1095 120.776 268.891 478.448
601 0 82.0983 13.3255 1094 123.189 269.277 476.755
602 0 84.0693 14.5475 1223 121.723 269.114 473.362
603 0 87.1454 14.9176 1300 121.232 268.808 472.159
604 0 92.1382 15.2814 1408 119.256 269.205 473.143
605 0 92.1265 13.7745 1269 126.032 269.129 470.03
606 0 96.1895 15.3031 1472 121.45 268.442 468.68
607 1 49.0357 10.9104 535 129.695 269.417 492.015
608 0 52.1141 11.4748 598 126.572 269.438 492.59
609 0 54.2025 12.2503 664 124.41 269.136 491.252
610 0 54.0579 12.0056 649 127.131 269.451 490.519
611 0 56.1246 12.3832 695 126.702 269.114 486.553
612 0 58.1132 12.3552 718 125.315 268.873 488.283
613 0 59.0914 14.2999 845 120.768 268.742 486.572
614 0 61.1038 13.8944 849 122.498 269.131 485.875
615 0 61.2775 12.7616 782 126.009 269.031 485.543
616 0 66.2186 13.3044 881 122.757 268.924 483.01
617 0 68.1384 13.3552 910 122.215 268.441 483.177
618 0 68.291 13.0178 889 124.514 268.803 481.946
619 0 71.2964 13.0862 933 122.605 268.202 481.588
620 0 74.1996 13.275 985 122.205 268.559 479.626
621 0 75.283 13.1371 989 122.147 269.03 479.173
622 0 75.1985 13.5641 1020 123.692 268.922 474.578
623 0 80.2304 13.6233 1093 120.44 268.378 476.897
624 0 82.3202 13.2896 1094 121.64 268.186 475.766
625 0 85.2901 14.0227 1196 119.537 268.045 475.467
626 0 87.4605 13.2746 1161 121.327 267.308 473.04
627 0 89.1489 11.9239 1063 114.851 267.77 472.521
628 0 94.119 13.2492 1247 112.354 267.713 470.259
629 0 95.1884 11.1253 1059 119.017 267.856 469.119
630 1 55.1993 10.8516 599 110.065 266.22 488.788
631 0 56.1469 12.5207 703 105.872 266.479 488.293
632 0 54.2238 12.4115 673 109.245 266.854 485.675
633 0 59.2751 13.5807 805 104.768 267.319 486.091
634 0 62.0587 12.182 756 108.487 266.964 486.3
635 0 63.1213 12.2938 776 108.098 267.278 484.655
636 0 65.0781 12.3851 806 108.278 267.167 483.767
637 0 65.1193 11.4098 743 111.528 267.653 483.93
638 0 69.0996 11.7367 811 110.737 268.263 481.609
639 0 71.1595 12.5493 893 108.858 268.247 479.188
640 0 75.1421 13.4678 1012 106.676 269.375 477.222
641 0 76.1645 12.1316 924 111.028 269.458 477.306
642 0 78.0655 12.5023 976 111.202 268.955 475.648
643 0 80.0742 11.6017 929 113.693 269.327 475.491
644 0 85.1902 11.3745 969 113.702 269.499 474.424
645 0 87.1767 11.9642 1043 112.942 268.678 472.435
646 0 90.198 13.4482 1213 111.646 268.096 471.27
647 1 49.0824 11.1038 545 117.85 269.305 491.945
648 0 51.1026 11.3693 581 113.924 266.981 490.232
649 0 52.0563 13.1012 682 110.538 267.68 488.296
650 0 54.0244 12.2722 663 110.698 268.789 487.627
651 0 54.0355 11.77 636 114.476 268.524 487.604
652 0 54.0272 11.2721 609 117.13 268.3 488
653 0 56.0457 11.5085 645 116.039 268.096 490.287
654 0 57.0597 11.9875 684 117.611 268.385 483.794
655 0 60.0886 11.5663 695 117.183 268.138 486.285
656 0 62.0328 13.0092 807 114.461 268.494 482.673
657 0 64.0961 11.6076 744 117.737 268.993 482.723
658 0 66.1381 13.2148 874 114.927 268.023 483.572
659 0 68.149 11.4308 779 118.082 266.176 481.909
660 0 72.1099 12.689 915 114.756 266.824 481.211
661 0 74.1223 11.4001 845 117.488 266.321 481.001
662 0 76.0649 13.3307 1014 115.371 266.146 475.548
663 0 78.0947 12.2159 954 116.726 266.559 477.64
664 0 82.1553 12.5981 1035 116.371 265.972 474.437
665 1 44.0641 10.7344 473 115.235 264.662 494.839
666 0 45.0278 11.9482 538 112.182 265.128 490.939
667 0 48.062 11.4436 550 111.111 268.485 489.495
668 0 49.1779 12.9936 639 115.135 266.365 492.48
669 0 50.052 12.8067 641 116.621 266.179 490.947
670 0 50.1143 12.5513 629 118.196 265.784 490.448
671 0 53.0823 13.1306 697 115.519 266.562 490.76
672 0 54.0843 13.4974 730 116.182 266.833 489.275
673 0 53.0678 12.2862 652 120.902 266.615 488.948
674 0 57.0773 13.105 748 118.139 266.584 488.179
675 0 58.0672 13.1572 764 117.342 266.537 488.743
676 0 58.0705 13.2253 768 118.598 267.078 488.456
677 0 62.1267 12.9735 806 117.73 267.236 487.514
678 0 63.1183 13.34 842 119.177 266.865 484.366
679 0 64.0798 13.2959 852 119.489 267.379 485.034
680 0 67.1471 13.5375 909 118.051 267.416 485.419
681 0 70.3888 13.8374 974 117.937 267.938 483.02
682 0 72.1781 14.3395 1035 117.944 268.583 481.187
683 0 72.1671 14.0923 1017 119.816 268.304 480.276
684 0 76.3261 14.5691 1112 118.657 268.013 478.737
685 0 76.1313 14.186 1080 121.803 267.515 476.807
686 0 79.1426 12.9134 1022 118.484 267.583 481.735
687 0 79.106 13.3745 1058 119.32 267.606 480.793
688 0 81.141 13.6676 1109 119.61 267.18 478.894
689 0 85.1137 13.7111 1167 118.85 267.317 477.745
690 0 87.1319 14.1165 1230 119.384 267.02 476.137
691 0 89.1465 13.82 1232 122.136 267.258 473.924
692 0 91.0993 13.2712 1209 123.225 267.452 475.122
693 0 96.1046 14.3802 1382 122.533 267.491 470.858
694 0 98.1723 12.6003 1237 129.501 266.683 472.756
695 1 55.0375 11.5921 638 122.462 267.094 488.729
696 0 56.0467 12.8821 722 118.175 266.821 485.26
697 0 58.1026 13.5278 786 111.006 267.039 487.889
698 0 59.1412 13.5946 804 112.484 267.51 484.95
699 0 62.0934 14.14 878 111.663 267.112 482.093
700 0 64.0861 13.2478 849 113.671 268.184 484.918
701 0 67.0881 13.445 902 114.481 267.499 482.487
702 0 67.033 13.4411 901 115.961 267.374 480.917
703 0 69.1192 12.8908 891 117.447 267.834 481.044
704 0 73.0684 13.7679 1006 115.447 266.963 478.678
705 0 74.0682 14.6892 1088 114.21 266.483 476.473
706 0 77.0833 13.0638 1007 117.735 266.634 477.329
707 0 79.0816 13.9223 1101 116.676 267.519 473.24
708 0 82.0871 13.9364 1144 117.85 267.149 473.412
709 0 83.1152 13.6076 1131 122.279 266.816 468.889
710 0 86.231 13.4986 1164 123.285 266.793 469.282
711 0 90.18 13.2735 1197 124.266 267.278 467.246
712 0 95.2246 14.45 1376 122.733 266.944 467.293
713 1 48.0882 12.1859 586 126.307 266.804 488.77
714 0 52.0748 12.9237 673 125.456 267.01 487.663
715 0 54.0255 13.0124 703 119.805 267.785 486.525
716 0 54.0199 13.2729 717 128.416 267.828 489.185
717 0 59.0498 14.2083 839 122.527 268.287 487.945
718 0 60.1833 13.8577 834 124.876 268.526 486.222
719 0 62.0576 14.3254 889 123.477 268.029 485.118
720 0 64.0558 14.3781 921 123.295 268.923 485.075
721 0 67.0305 13.8743 930 124.354 268.338 483.49
722 0 68.0707 14.2499 970 118.247 268.335 479.37
723 0 71.0357 13.4017 952 119.154 268.301 479.293
724 0 74.0866 14.2401 1055 117.107 267.984 477.828
725 0 75.0603 13.2693 996 120.672 267.682 476.288
726 0 81.1256 14.3235 1162 116.895 267.248 474.76
727 0 79.0679 13.1153 1037 122.892 267.085 473.185
728 0 84.0972 13.2941 1118 122.123 266.453 471.436
729 0 89.1283 13.6769 1219 120.043 266.911 470.96
730 0 91.1113 14.0048 1276 119.625 266.85 469.013
731 1 48.1058 12.7012 611 115.987 267.633 492.162
732 0 50.1288 12.807 642 121.498 267.928 493.19
733 0 50.0221 13.3341 667 121.306 267.841 492.708
734 0 52.0856 13.689 713 118.676 267.627 492.619
735 0 54.093 12.423 672 122.363 267.379 491.116
736 0 56.0258 12.7977 717 119.703 268.088 491.204
737 0 59.1109 13.6692 808 118.627 267.177 487.778
738 0 58.0538 11.6616 677 124.012 267.216 488.712
739 0 63.1165 14.0217 885 117.281 267.419 485.72
740 0 64.0805 11.8913 762 121.787 268.009 486.72
741 0 67.0653 13.0172 873 119.766 267.553 483.584
742 0 68.1378 11.9317 813 122.367 267.684 485.046
743 0 73.1263 12.6904 928 119.101 267.663 483.62
744 0 74.0658 13.056 967 119.728 267.317 481.29
745 0 78.1766 13.5974 1063 118.212 267.315 480.189
746 0 80.28 13.1415 1055 120.296 267.234 478.592
747 0 82.1886 14.1626 1164 118.378 267.261 475.734
748 0 86.1606 14.206 1224 116.739 267.197 475.477
749 0 88.1848 12.9501 1142 120.842 266.781 475.378
750 0 92.1824 13.6035 1254 120.329 266.6 471.823
751 0 96.1563 13.6132 1309 120.602 266.826 467.11
752 1 50.0552 11.7071 586 121.701 267.23 493.526
753 0 52.1017 12.9746 676 119.896 266.88 491.265
754 0 55.0573 13.9309 767 115.469 267.12 489.394
755 0 55.1393 13.0216 718 117.911 268.568 489.641
756 0 56.047 11.8115 662 115.462 267.55 488.257
757 0 59.0542 14.1057 833 113.808 267.836 487.648
758 0 61.0889 14.3725 878 110.413 267.653 485.631
759 0 63.0392 12.5636 792 116.128 267.775 486.99
760 0 66.1036 14.5832 964 111.314 268.473 482.982
761 0 68.088 13.2769 904 113.332 268.323 482.937
762 0 72.1155 15.2533 1100 109.232 267.902 481.214
763 0 72.089 13.6775 986 113.441 267.988 480.696
764 0 76.0905 12.8663 979 115.697 267.654 480.017
765 0 78.0935 13.1637 1028 116.718 267.632 478.136
766 0 81.0443 14.0787 1141 115.665 267.287 475.263
767 0 84.065 14.4055 1211 114.344 267.595 477.616
768 0 86.0828 14.0098 1206 118.436 267.375 473.983
769 0 88.0467 14.4355 1271 118.597 267.072 471.807
770 0 93.1432 13.8926 1294 121.768 266.313 470.415
771 0 97.0656 15.3814 1493 118.396 266.238 467.853
772 1 49.0673 13.1452 645 124.626 266.524 490.736
773 0 52.0673 15.2687 795 120.713 266.526 488.333
774 0 51.0748 14.9389 763 121.738 266.526 488.573
775 0 54.0359 14.953 808 120.806 266.547 487.469
776 0 56.1233 14.7176 826 120.668 266.222 486.929
777 0 58.0596 15.708 912 118.052 266.992 486.323
778 0 60.0564 14.6695 881 122.785 267.001 484.219
779 0 62.0937 14.913 926 121.946 266.869 485.018
780 0 64.1805 15.2071 976 121.712 267.326 483.164
781 0 66.1214 15.1842 1004 121.915 266.884 482.814
782 0 70.115 15.0182 1053 122.596 267.293 481.329
783 0 71.073 15.1816 1079 123.62 266.893 480.411
784 0 74.1055 15.9502 1182 121.36 267.371 479.954
785 0 76.1286 14.8302 1129 124.898 267.236 480.06
786 0 77.0949 14.787 1140 126.788 267.649 477.757
787 0 82.1922 14.8311 1219 124.994 267.018 476.98
788 0 83.1737 15.5338 1292 124.173 267.481 474.704
789 0 86.1754 14.2964 1232 128.123 266.77 475.234
790 0 90.1129 14.1822 1278 128.948 266.71 471.864
791 1 46.0769 13.6728 630 134.841 267.648 492.99
792 0 47.0529 15.7482 741 129.283 267.325 492.484
793 0 50.0603 15.1218 757 130.999 267.523 490.406
794 0 50.0857 15.0542 754 132.214 267.249 489.91
795 0 54.0462 16.4304 888 125.899 267.173 489.19
796 0 57.0654 15.5085 885 126.697 267.581 487.244
797 0 59.0973 16.0413 948 124.84 267.038 485.866
798 0 59.0938 15.5854 921 127.554 266.928 485.689
799 0 64.2323 15.9421 1024 123.681 267.604 483.197
800 0 65.0795 15.2429 992 125.577 267.445 482.693
801 0 68.1344 15.1319 1031 124.664 267.644 481.225
802 0 72.1054 14.6314 1055 124.896 268.04 480.712
803 0 76.1996 15.6694 1194 121.071 268.266 479.283
804 0 78.1463 16.1236 1260 120.125 267.94 477.931
805 0 81.3267 15.9726 1299 121.031 268.199 475.693
806 0 82.198 14.7814 1215 125.363 267.167 474.107
807 0 87.0626 15.127 1317 123.024 267.487 473.393
808 0 90.1953 15.8101 1426 122.435 267.574 471.529
809 0 94.3919 14.5457 1373 127.578 266.913 470.015
810 1 48.1566 15.0343 724 131.105 266.548 489.565
811 0 51.0496 16.5525 845 125.875 267.273 488.437
812 0 52.1574 16.8912 881 123.958 267.034 487.704
813 0 54.0912 15.2705 826 128.071 266.909 487.19
814 0 56.1247 15.9644 896 127.886 267.097 485.499
815 0 59.0893 15.942 942 126.84 266.2 485.466
816 0 61.1414 15.9957 978 126.794 266.428 482.032
817 0 64.1717 16.4558 1056 124.425 266.616 481.96
818 0 66.1551 17.988 1190 120.746 266.554 480.224
819 0 68.1924 16.7907 1145 124.865 267.322 481.077
820 0 70.1787 15.5888 1094 128.551 266.882 481.717
821 0 73.2007 17.049 1248 124.994 267.458 478.124
822 0 76.0987 16.2289 1235 127.082 267.56 477.679
823 0 78.1552 15.047 1176 131.274 267.095 476.31
824 0 80.2684 16.1209 1294 127.957 267.652 475.984
825 0 81.1297 15.8265 1284 131.044 267.432 474.104
826 0 82.237 14.592 1200 136.358 266.794 473.199
827 0 86.1164 16.6867 1437 130.69 266.685 470.457
828 0 90.1579 15.8389 1428 132.843 267.202 469.924
829 0 94.0771 16.2952 1533 132.119 266.881 466.033
830 0 96.3013 15.275 1471 137.185 267.203 463.775
831 0 103.112 16.2639 1677 132.044 266.929 463.301
832 1 51.0476 12.3414 630 140.205 266.532 484.737
833 0 55.1996 14.2392 786 133.555 266.702 484.374
834 0 58.2853 13.8285 806 135.821 266.422 482.457
835 0 60.2753 14.5001 874 134.543 266.705 480.695
836 0 63.3211 13.4552 852 135.128 266.87 480.072
837 0 65.1553 14.3503 935 131.943 267.286 479.471
838 0 66.1592 14.2233 941 134.046 266.812 477.106
839 0 71.4125 14.1992 1014 133.94 266.662 476.376
840 0 72.0793 14.706 1060 133.443 267.254 475.08
841 0 76.1816 15.8175 1205 129.036 267.659 474.639
842 0 76.3328 13.8997 1061 135.54 267.418 472.566
843 0 82.4247 15.1896 1252 130.819 267.076 471.579
844 0 86.1237 14.5721 1255 132.505 267.426 470.603
845 0 88.3692 15.2089 1344 131.045 266.977 469.489
846 0 92.301 14.9186 1377 132.702 266.874 465.392
847 0 93.2778 15.2662 1424 132.847 267.279 466.47
848 0 98.4711 14.2885 1407 136.122 266.555 464.605
849 1 55.2075 10.2341 565 127.74 266.081 490.35
850 0 57.1321 10.8345 619 126.491 266.67 488.071
851 0 57.3564 10.3563 594 128.53 266.072 487.089
852 0 59.1873 13.094 775 123.563 266.848 485.277
853 0 63.2045 12.5782 795 123.468 266.174 483.84
854 0 66.2318 13.3622 885 120.811 266.25 482.139
855 0 69.247 12.2605 849 122.214 265.936 482.406
856 0 70.2741 12.3801 870 122.491 266 479.3
857 0 72.1964 13.02 940 121.004 266.08 477.697
858 0 73.227 11.5395 845 124.517 265.856 476.588
859 0 78.1933 12.0726 944 122.657 265.962 476.882
860 0 81.4835 12.297 1002 122.263 266.111 472.945
861 0 82.3391 11.8048 972 124.223 266.373 473.81
862 0 87.2635 11.5971 1012 124.981 266.941 471.576
863 0 89.1905 11.6044 1035 123.709 266.717 470.66
864 0 92.3831 12.21 1128 122.458 266.719 468.768
865 0 95.4176 12.1885 1163 123.241 266.687 466.935
866 0 99.3641 12.6907 1261 121.271 266.458 465.812
867 0 100.322 12.3801 1242 123.154 266.576 461.848
868 0 106.272 12.0728 1283 121.857 266.886 462.62
869 0 109.375 11.3462 1241 123.156 266.877 461.508
870 0 114.253 11.8246 1351 121.63 266.478 458.288
871 0 118.279 12.2085 1444 118.799 266.325 454.486
872 0 122.304 11.4469 1400 119.593 266.117 455.134
873 0 125.323 10.9317 1370 123.463 266.096 449.282
874 0 128.321 10.5828 1358 125.032 266.407 447.74
875 0 131.218 9.06891 1190 121.565 267.186 449.297
876 1 71.1304 10.783 767 107.115 266.299 479.091
877 0 73.1525 10.5806 774 108.199 267.124 476.191
878 0 74.0981 8.43476 625 113.386 266.685 476.382
879 0 77.1138 8.63658 666 113.057 266.039 476.695
880 0 79.2135 8.04156 637 114.397 266.887 474.294
881 0 83.1508 9.53689 793 111.794 267.034 470.304
882 0 88.2215 10.2583 905 111.002 267.057 470.676
883 0 87.2271 8.96511 782 114.237 267.453 468.055
884 0 89.2894 7.64928 683 117.401 267.477 466.553
885 1 44.0595 5.67414 250 112.748 268.728 495.604
886 0 44.0266 8.85829 390 108.238 268.318 492.203
887 0 48.0386 8.11847 390 109.195 268.379 491.01
888 0 49.0811 8.41465 413 107.622 268.7 490.397
889 0 54.063 9.35945 506 105.283 267.648 488.581
890 0 56.0798 8.29176 465 107.606 267.544 487.858
891 0 59.0722 8.68429 513 106.144 268.127 488.526
892 0 61.1887 10.9824 672 104.787 267.323 484.289
893 0 56.0797 8.82672 495 111.141 267.713 486.899
894 0 57.1322 8.47158 484 110.818 268.384 490.275
895 0 58.1323 8.56667 498 112.068 267.795 488.201
896 0 66.1833 10.5616 699 108.681 266.907 482.625
897 0 71.1727 10.3832 739 108.866 267.272 482.969
898 0 73.2051 11.7888 863 107.323 266.766 480.937
899 0 75.2036 11.05 831 110.592 266.409 479.85
900 0 80.3507 12.0596 969 108.93 266.091 479.283
901 0 82.2617 11.3297 932 113.311 265.622 477.071
902 0 85.3195 13.467 1149 110.19 266.203 476.23
903 0 86.1989 11.8911 1025 114.68 266.176 475.803
904 0 87.2848 11.5942 1012 117.8 266.385 473.621
905 0 91.3973 12.2323 1118 115.703 266.215 473.086
906 0 94.4338 12.9721 1225 115.329 265.968 468.504
907 0 95.5345 11.9643 1143 118.747 266.019 468.225
908 1 45.2522 10.5851 479 123.816 266.257 490.622
909 0 46.2645 13.0338 603 118.003 266.511 491.449
910 0 48.2131 12.5899 607 120.379 266.644 490.641
911 0 51.5061 11.9209 614 121.671 265.607 490.694
912 0 54.155 12.1688 659 122.845 266.115 492.903
913 0 54.2074 12.5629 681 124.37 265.791 491.805
914 0 57.2347 12.1779 697 128.785 266.265 489.516
915 0 59.1088 14.0081 828 122.07 266.465 490.86
916 0 57.2351 12.7544 730 128.751 266.114 488.485
917 0 61.2188 13.1332 804 127.106 265.437 485.284
918 0 62.2857 12.2661 764 128.702 265.885 485.95
919 0 66.3024 13.6647 906 125.961 265.894 483.571
920 0 67.3011 13.5213 910 125.614 265.373 484.695
921 0 70.4455 13.2017 930 127.405 266.243 481.671
922 0 69.3988 12.2625 851 130.128 266.486 482.685
923 0 73.5571 13.7444 1011 126.714 266.403 479.721
924 0 74.5607 12.6474 943 128.924 266.537 480.897
925 0 78.3451 13.5044 1058 126.94 266.367 478.637
926 0 80.4239 13.5283 1088 127.345 266.108 479.233
927 0 79.382 13.5673 1077 128.902 265.408 477.463
928 1 174.525 11.7748 2055 131.518 266.22 437.4
929 0 179.74 12.8686 2313 127.338 266.372 435.958
930 1 88.3958 15.5663 1376 123.299 265.602 475.183
931 0 90.3835 13.2546 1198 130.342 265.972 474.845
932 0 93.4896 15.2958 1430 125.003 265.556 472.908
933 0 95.4687 15.6491 1494 124.448 265.654 471.096
934 0 98.3949 14.5536 1432 127.358 266.026 467.845
935 0 100.244 14.1156 1415 128.75 266.001 469.433
936 0 107.442 14.8731 1598 124.7 266.081 466.451
937 1 52.0195 14.3216 745 128.791 266.464 490.227
938 0 55.1516 14.85 819 125.86 266.796 489.14
939 0 56.3023 14.3156 806 128.775 266.218 487.141
940 0 58.1656 14.0977 820 128.944 266.595 486.154
941 0 62.1506 15.3498 954 124.209 266.138 485.002
942 0 63.186 14.6868 928 126.524 266.209 484.318
943 0 67.2999 15.3343 1032 123.581 266.198 482.966
944 0 68.4469 14.7414 1009 126.405 266.125 481.733
945 0 69.3258 15.1747 1052 127.231 265.887 479.922
946 0 71.3702 14.67 1047 128.648 266.288 478.213
947 0 72.2198 16.1175 1164 125.741 266.063 476.753
948 0 74.4307 14.2011 1057 130.994 265.693 477.04
949 0 79.3649 15.6744 1244 125.961 265.665 474.371
950 0 81.4842 16.4449 1340 124.711 265.537 473.145
951 0 83.2096 15.527 1292 127.82 265.627 473.495
952 0 86.3422 15.925 1375 126.86 265.802 471.819
953 0 89.2725 15.9848 1427 127.545 265.144 470.42
954 0 91.4838 15.8061 1446 127.945 265.539 470.517
955 0 95.4154 16.9155 1614 124.799 265.631 467.674
956 0 97.3714 15.2201 1482 130.568 266.214 466.531
957 0 100.283 15.8651 1591 130.209 266.292 465.275
958 0 105.302 16.4669 1734 128.427 265.595 464.428
959 0 108.416 15.8463 1718 131.377 266 461.595
960 0 113.489 15.8694 1801 131.562 266.034 459.785
961 0 114.256 15.5177 1773 135.962 265.693 460.053
962 0 122.486 16.6958 2045 126.612 265.892 455.101
963 1 61.2286 14.699 900 133.472 266.231 484.542
964 0 63.2993 15.5136 982 133.819 266.499 482.19
965 0 65.4187 15.6836 1026 133.174 266.515 481.596
966 0 68.3765 15.0198 1027 135.647 266.759 479.759
967 0 71.4139 16.9015 1207 129.886 266.511 479.477
968 0 74.3673 16.0823 1196 131.291 266.166 479.058
969 0 75.3102 16.1731 1218 133.447 266.418 476.268
970 0 77.1514 16.4223 1267 133.974 266.174 474.51
971 0 80.4483 16.5323 1330 133.808 266.029 473.053
972 0 83.3171 17.4994 1458 130.736 265.523 472.462
973 0 86.2954 16.3856 1414 133.674 265.677 473.315
974 0 89.2298 17.0347 1520 133.018 265.641 469.864
975 0 92.3734 16.7039 1543 133.417 266.269 468.189
976 0 96.3796 16.0096 1543 133.186 265.969 467.576
977 0 99.3645 16.5351 1643 131.993 266.338 464.255
978 0 102.308 16.7045 1709 131.72 266.568 464.661
979 1 49.1952 14.168 697 138.171 266.937 488.357
980 0 54.2367 14.6027 792 136.566 267.021 487.736
981 0 54.2348 16.281 883 136.471 266.446 484.213
982 0 57.2111 14.6999 841 139.395 266.398 485.388
983 0 59.324 16.9071 1003 134.182 266.038 483.826
984 0 59.2452 14.5666 863 143.065 266.01 483.152
985 0 62.1384 16.4793 1024 137.53 266.497 481.33
986 0 65.3202 15.9675 1043 138.196 266.385 481.824
987 0 64.3726 15.4103 992 143.682 266.852 478.025
988 0 66.3197 15.0785 1000 144.331 267.024 479.246
989 0 71.2583 15.9981 1140 140.119 266.711 477.959
990 0 72.3939 15.4157 1116 144.326 266.677 475.777
991 0 76.1949 16.9171 1289 137.757 266.827 476.069
992 0 77.176 15.3545 1185 144.472 266.721 473.948
993 0 79.2274 15.7521 1248 143.135 266.585 473.38
994 0 83.3304 15.3605 1280 143.465 266.682 472.085
995 0 87.493 15.4412 1351 142.86 266.35 469.285
996 0 90.1678 15.6708 1413 142.389 266.809 467.041
997 0 95.2716 16.5317 1575 139.202 266.69 464.347
998 0 100.434 16.339 1641 139.57 266.566 463.316
999 1 52.2758 13.6009 711 137.703 266.506 486.796
1000 0 50.4471 12.5874 635 142.413 266.324 485.89
1001 0 54.2454 14.3238 777 136.12 266.753 484.462
1002 0 56.2989 13.0376 734 139.614 266.553 483.732
1003 0 59.2085 13.6298 807 137.401 266.545 483.938
1004 0 62.374 14.4772 903 134.734 266.647 481.812
1005 0 63.3405 13.3248 844 138.539 267.004 480.979
1006 0 67.4482 14.0552 948 135.628 267.459 479.428
1007 0 70.4082 14.8846 1048 132.811 266.514 478.439
1008 0 70.5301 14.1642 999 135.981 266.946 477.476
1009 0 74.3619 15.0749 1121 132.061 266.995 476.408
1010 0 76.482 13.4934 1032 135.367 266.792 474.979
1011 0 78.5119 13.8196 1085 135.919 266.612 473.394
1012 0 81.4318 13.7538 1120 135.647 267.012 470.894
1013 0 85.3492 13.0054 1110 135.518 266.628 471.059
1014 0 88.7659 14.0031 1243 134.085 266.372 468.301
1015 1 46.3463 12.1908 565 124.989 266.097 490.865
1016 0 47.1576 12.4476 587 126.051 265.963 490.157
1017 0 48.0665 11.0888 533 130.615 266.987 490.298
1018 0 51.0482 12.067 616 127.825 266.713 490.107
1019 0 53.2008 13.7592 732 124.232 267.4 486.705
1020 0 53.3308 12.6194 673 128.455 267.887 486.196
1021 0 57.3939 12.8759 739 126.663 267.605 484.256
1022 0 58.3521 11.6363 679 129.747 267.943 482.567
1023 0 59.4115 11.7149 696 131.437 267.983 479.728
1024 0 61.3751 12.0407 739 131.039 267.705 479.084
1025 0 64.4183 12.9311 833 127.635 267.91 479.125
1026 0 67.6911 12.9264 875 127.542 268.099 477.851
1027 0 67.4506 12.6908 856 129.324 267.909 477.623
1028 0 71.5549 12.4799 893 129.101 267.888 475.206
1029 0 72.4973 12.1798 883 129.644 267.892 474.659
1030 0 77.3665 13.1452 1017 126.076 267.709 472.868
1031 0 77.4749 11.1133 861 130.937 267.521 472.826
1032 0 80.3515 11.6488 936 130.462 266.923 470.618
1033 1 42.2468 10.8411 458 121 268.026 490.459
1034 0 45.1458 11.784 532 116.105 267.357 492.78
1035 0 43.1281 10.9441 472 121.739 267.159 492.269
1036 0 47.1615 11.3652 536 120.235 267.063 490.603
1037 0 48.1683 11.6882 563 125.977 267.428 489.657
1038 0 50.2554 11.1431 560 124.212 267.516 489.038
1039 0 51.1766 11.2747 577 123.341 267.378 487.984
1040 0 54.1773 11.4254 619 120.36 267.456 488.575
1041 0 54.3058 11.9877 651 120.983 266.562 486.398
1042 0 56.5595 11.068 626 122.69 267.034 484.478
1043 0 57.4819 12.5779 723 120.04 266.513 480.353
1044 0 60.4351 11.6489 704 120.02 266.443 483.528
1045 0 63.4435 12.3259 782 118.72 267.04 480.942
1046 0 65.6317 10.9703 720 122.615 267.228 479.16
1047 0 66.5842 11.5943 772 121.374 267.794 479.15
1048 0 68.5427 11.4235 783 120.935 266.458 479.554
1049 0 72.5188 12.4657 904 119.5 266.61 475.684
1050 0 75.4685 11.5147 869 120.121 266.339 476.01
1051 0 75.7343 11.4743 869 121.397 266.964 474.045
1052 1 39.2765 11.1772 439 116.868 267.216 492.979
1053 0 38.2194 11.4601 438 117.105 267.635 493.763
1054 0 39.0237 9.94267 388 119.276 267.845 494.698
1055 0 42.0093 12.3544 519 120.778 266.405 493.894
1056 0 44.2302 13.2037 584 122.459 266.534 492.757
1057 0 45.277 12.3683 560 125.425 266.25 492.488
1058 0 46.3299 12.9722 601 123.692 266.378 490.16
1059 0 45.2587 12.3733 560 125.429 266.514 490.791
1060 0 48.3456 12.5761 608 124.663 266.196 488.627
1061 0 49.2361 12.3893 610 119.175 265.859 490.334
1062 0 49.2736 12.2784 605 121.068 265.866 486.932
1063 0 51.2159 13.2381 678 120.336 265.813 485.507
1064 0 51.3493 12.5416 644 122.975 266.436 484.492
1065 0 54.593 13.2251 722 120.186 265.648 485.889
1066 0 58.4694 13.8363 809 117.32 265.629 483.761
1067 0 59.4505 13.1706 783 120.529 266.9 482.725
1068 0 60.6452 13.109 795 121.737 266.664 481.779
1069 0 61.5625 13.5797 836 122.245 266.787 481.102
1070 0 65.9324 14.2115 937 119.255 267.139 481.096
1071 0 65.9059 13.7924 909 121.692 266.54 480.711
1072 0 67.6591 13.6567 924 122.781 266.15 479.092
1073 0 69.5588 14.8364 1032 120.176 266.201 476.384
1074 0 72.8181 13.5543 987 123.545 265.468 476.54
1075 0 74.6305 13.4395 1003 123.415 266.177 476.227
1076 0 76.5818 12.8098 981 124.673 266.308 476.637
1077 0 79.4704 13.3006 1057 123.501 266.087 471.396
1078 0 81.77 12.8042 1047 123.949 265.713 472.945
1079 0 83.4022 11.9901 1000 125.927 266.066 471.205
1080 0 89.4031 13.0644 1168 122.098 266.711 470.491
1081 1 47.4384 12.7745 606 122.87 266.751 487.809
1082 0 45.2808 11.506 521 127.012 266.217 488.971
1083 0 49.207 13.6566 672 120.658 266.134 487.539
1084 0 51.2075 13.8066 707 119.286 266.274 486.62
1085 0 54.2457 13.2914 721 118.989 266.01 487.567
1086 0 55.2589 13.1562 727 120.287 266.133 486.374
1087 0 55.2813 13.3499 738 122.695 266.572 483.566
1088 0 58.3996 13.6816 799 120.08 266.403 484.7
1089 0 59.2392 14.011 830 120.792 266.827 482.283
1090 0 62.3022 11.9418 744 125.46 266.422 482.703
1091 0 62.3086 13.2084 823 123.445 266.791 481.073
1092 0 67.3563 13.2282 891 123.059 266.415 479.613
1093 0 68.4052 14.4726 990 121.172 266.238 478.412
1094 0 70.2815 13.574 954 125.839 266.177 477.183
1095 0 72.4898 13.3674 969 125.986 265.683 475.099
1096 0 74.2425 13.4424 998 126.854 265.099 476.086
1097 0 77.423 14.311 1108 125.29 265.81 474.221
1098 0 79.3499 13.9383 1106 126.967 266.197 474.255
1099 0 83.3284 13.4288 1119 130.147 265.769 472.525
1100 0 86.3029 14.9589 1291 125.693 266.268 471.227
1101 0 87.2789 13.9323 1216 130.405 266.113 469.746
1102 0 92.3472 15.6041 1441 124.651 266.272 467.519
1103 0 95.2777 14.8933 1419 128.209 266.062 463.952
1104 0 100.283 13.7411 1378 131.356 266.581 463.754
1105 0 104.339 13.9832 1459 129.779 266.426 462.483
1106 1 54.2409 12.592 683 129.884 266.236 483.649
1107 0 56.0764 11.2525 631 125.157 266.96 484.379
1108 0 56.2783 13.1667 741 124.065 267.236 483.131
1109 0 61.0853 13.9313 851 120.235 266.905 485.182
1110 0 60.1776 12.4964 752 125.418 268.013 485.392
1111 0 62.2068 12.2655 763 128.676 266.697 482.064
1112 0 64.3058 13.0315 838 127.987 266.229 478.826
1113 0 67.2725 13.75 925 126.64 266.577 476.362
1114 0 69.4564 14.5991 1014 124.52 266.247 477.704
1115 0 71.4281 14.0141 1001 126.632 266.818 475.749
1116 0 73.4702 13.9649 1026 126.577 266.494 474.153
1117 0 75.3088 13.1724 992 129.168 266.129 475.093
1118 0 76.2492 13.4034 1022 129.988 266.293 472.687
1119 0 80.4734 12.9608 1043 132.09 266.327 471.203
1120 0 81.4143 12.8847 1049 133.984 266.522 469.398
1121 0 85.4807 14.0149 1198 130.908 266.821 466.634
1122 0 87.2864 13.5187 1180 132.83 266.104 463.819
1123 0 92.4869 14.402 1332 130.135 266.529 463.997
1124 0 92.3549 12.5278 1157 136.537 265.869 461.85
1125 0 96.4463 13.4686 1299 132.786 266.345 463.654
1126 0 101.438 13.555 1375 132.233 266.434 461.05
1127 0 103.647 13.0925 1357 134.286 266.286 458.78
1128 0 108.357 13.5663 1470 132.472 267.076 456.082
1129 0 113.63 12.3119 1399 135.663 266.521 454.804
1130 1 58.5737 11.7971 691 126.841 266.944 482.01
1131 0 56.5108 10.0512 568 128.051 267.349 482.326
1132 0 62.6771 11.4715 719 122.224 266.46 479.905
1133 0 62.1488 10.6679 663 122.751 266.368 479.528
1134 0 66.2027 12.1445 804 121.379 267.514 480.265
1135 0 68.287 11.6713 797 125.488 268.082 476.651
1136 0 70.4729 12.927 911 122.102 268.178 475.149
1137 0 72.5661 13.436 975 122.006 268.234 474.342
1138 0 73.5422 12.741 937 126.291 268.102 473.482
1139 0 76.6661 11.6349 892 129.898 268.186 472.295
1140 0 78.643 12.3342 970 129.762 268.219 471.162
1141 0 79.7305 11.2755 899 133.3 267.895 468.94
1142 0 83.5656 13.3428 1115 127.525 267.775 468.94
1143 0 86.3859 13.9606 1206 127.007 268.065 467.318
1144 0 89.6291 13.0426 1169 129.433 267.777 466.851
1145 0 90.4557 13.5757 1228 129.602 267.675 464.759
1146 0 92.3278 12.3473 1140 135.06 267.223 463.239
1147 0 96.5905 13.5521 1309 132.053 267.568 462.157
1148 0 97.5129 13.2393 1291 133.397 267.331 458.782
1149 0 101.491 13.3016 1350 133.8 266.65 458.753
1150 0 106.358 13.0033 1383 132.104 266.546 460.466
1151 0 109.566 12.8416 1407 133.994 266.335 455.026
1152 0 114.551 12.8153 1468 133.737 266.18 453.631
1153 0 116.462 13.5666 1580 131.319 266.287 452.841
1154 0 122.413 13.3319 1632 130.93 266.241 450.466
1155 0 126.443 12.4245 1571 133.812 266.243 448.99
1156 1 68.3325 10.3172 705 122.329 267.254 478.387
1157 0 71.3842 11.3891 813 118.669 267.034 476.731
1158 0 72.3734 11.3163 819 119.617 267.057 475.987
1159 0 76.5433 10.9611 839 121.079 266.386 474.123
1160 0 80.2341 12.2766 985 120.239 265.69 473.934
1161 0 81.1267 11.8457 961 121.096 265.561 471.095
1162 0 83.3984 11.1033 926 124.714 267.025 468.745
1163 0 85.552 11.4901 983 125.405 266.538 464.477
1164 0 89.4855 10.6833 956 126.135 267.094 465.524
1165 0 91.4372 10.8709 994 125.149 267.212 464.586
1166 0 94.7389 11.4525 1085 124.302 267.02 462.481
1167 0 96.4698 12.3251 1189 121.754 267.241 459.18
1168 0 99.3887 11.7116 1164 122.719 267.65 458.43
1169 0 101.39 11.007 1116 125.228 267.384 458.048
1170 0 103.457 10.4294 1079 126.438 267.997 457.316
1171 0 107.456 11.2419 1208 124.739 268.406 455.233
1172 0 111.408 11.3815 1268 123.151 267.832 455.851
1173 0 112.376 10.0199 1126 128.401 267.486 450.105
1174 0 117.443 10.8649 1276 125.418 267.651 452.248
1175 0 119.381 12.3387 1473 122.781 267.69 450.579
1176 0 122.431 11.5738 1417 127.112 266.826 444.409
1177 0 125.329 10.9951 1378 128.976 267.382 444.221
1178 0 129.385 11.0523 1430 129.045 266.797 443.573
1179 0 133.486 11.1398 1487 131.084 267.005 439.377
1180 0 138.304 10.8023 1494 131.884 267.726 439.016
1181 0 139.467 10.3609 1445 133.407 267.369 435.665
1182 0 144.328 10.7117 1546 132.654 267.298 433.5
1183 0 149.398 11.6535 1741 131.76 266.983 428.331
1184 0 152.47 10.9399 1668 133.636 266.827 429.278
1185 0 160.507 12.7035 2039 129.497 266.935 426.04
1186 0 164.414 12.3043 2023 130.652 266.721 423.088
1187 0 164.474 9.85567 1621 139.373 267.165 414.29
1188 0 174.443 11.5339 2012 133.022 267.211 417.797
1189 0 180.423 12.0328 2171 131.546 266.919 415.007
1190 0 182.643 11.2843 2061 135.296 266.396 409.257
1191 0 188.579 11.5071 2170 134.453 266.281 409.249
1192 0 195.553 12.6308 2470 131.753 265.775 405.79
1193 0 201.683 12.247 2470 133.97 265.424 401.365
1194 1 36.0823 7.92632 286 104.273 264.388 492.091
1195 0 38.0992 8.47786 323 101.08 266.26 493.372
1196 0 37.2806 8.15437 304 103.296 265.388 494.763
1197 0 36.0365 8.10289 292 96.2603 263.887 495.178
1198 0 33.1178 7.76017 257 100.938 266.833 495.167
1199 0 36.1575 8.10345 293 99.3379 267.461 494.546
1200 0 38.1035 8.16198 311 98.8457 267.232 493.569
1201 0 40.1173 8.92384 358 97.0223 267.405 493.899
1202 0 40.1666 8.91287 358 98.5363 266.726 493.042
1203 0 41.1987 9.8304 405 97.8963 267.178 491.899
1204 0 42.2551 8.63802 365 99.9616 267.06 491.23
1205 0 43.0965 10.024 432 97.5694 266.757 491.65
1206 0 44.0993 8.66227 382 101.592 266.346 491.063
1207 0 44.0856 8.80106 388 102.549 266.956 491.941
1208 0 48.204 9.52202 459 100.19 267.303 490.063
1209 0 49.1492 9.74584 479 100.998 267.24 488.244
1210 0 50.1442 9.21344 462 100.939 267.071 490.186
1211 0 50.2158 9.67823 486 101.582 267.479 490.062
1212 0 53.114 11.1835 594 97.9983 267.675 487.278
1213 0 55.1832 10.1299 559 100.889 267.76 486.331
1214 0 62.1514 10.2653 638 108.227 269.105 482.35
1215 0 64.2326 8.74945 562 111.954 268.402 481.039
1216 0 63.1915 9.63737 609 110.386 268.585 479.852
1217 0 67.3027 10.6979 720 107.175 267.982 479.404
1218 0 67.202 11.2348 755 106.917 268.272 478.079
1219 0 70.2004 10.2706 721 108.624 268.268 479.616
1220 0 72.2378 10.5762 764 108.465 268.588 478.327
1221 0 74.1847 11.4579 850 106.341 268.531 478.489
1222 0 75.2039 11.05 831 109.193 267.414 478.039
1223 0 78.2389 10.5191 823 110.652 267.643 476.826
1224 1 38.051 9.09305 346 112.751 266.913 494.572
1225 0 37.1031 8.30119 308 104.075 267.286 490.76
1226 0 41.1335 10.1864 419 105.957 266.041 493.053
1227 0 40.0422 10.464 419 103.816 268.372 493.413
1228 0 44.0188 9.45052 416 105.197 269.087 492.317
1229 0 42.0149 9.73465 409 107.271 268.968 492.836
1230 0 45.062 11.0514 498 102.982 268.787 490.972
1231 0 47.0128 11.0183 518 114.421 268.707 490.56
1232 0 47.0706 10.0912 475 116.078 268.987 491.019
1233 0 47.0587 11.815 556 113.469 269.567 490.442
1234 0 51.0155 9.84014 502 118.283 268.867 489.982
1235 0 51.0649 10.5748 540 117.843 267.941 489.652
1236 0 54.0534 10.6376 575 117.951 269.101 486.317
1237 0 58.0451 11.0948 644 115.702 268.359 486.87
1238 0 58.0779 12.6726 736 113.982 267.478 486.167
1239 0 67.2238 9.50556 639 119.576 267.41 486.033
1240 0 68.1235 10.9947 749 115.559 268.411 486.644
1241 0 67.1424 11.7809 791 114.46 268.312 485.121
1242 0 67.1493 12.3307 828 114.623 268.145 483.705
1243 0 67.113 12.397 832 114.806 268.361 482.68
1244 0 68.1155 12.5963 858 114.237 268.14 482.185
1245 0 77.1786 10.1323 782 117.055 268.352 483.362
1246 0 76.0684 9.42573 717 119.57 269.117 481.937
1247 0 75.1204 11.1954 841 115.938 268.848 479.014
1248 0 76.1606 13.2352 1008 111.839 268.148 477.619
1249 0 77.1217 12.9665 1000 111.63 268.389 477.464
1250 0 81.1834 12.4656 1012 112.817 268.159 475.841
1251 0 83.1256 12.9924 1080 110.957 268.443 473.544
1252 0 90.1968 12.0736 1089 111.581 268.093 474.721
1253 0 90.1356 12.3259 1111 111.135 268.233 474.582
1254 1 48.1034 12.2445 589 106.969 268.414 492.716
1255 0 48.1297 12.7364 613 102.409 268.556 492.005
1256 0 48.1529 12.3357 594 103.929 267.773 492.091
1257 0 52.0518 12.7565 664 102.018 268.148 490.574
1258 0 52.0384 12.9904 676 104.015 267.626 489.155
1259 0 54.0343 12.4921 675 103.809 267.456 489.45
1260 0 57.0462 12.8317 732 102.335 267.019 487.713
1261 0 57.0479 13.8831 792 100.957 266.955 487.197
1262 0 57.0186 12.7152 725 104.392 267.462 487.506
1263 0 59.029 12.028 710 106.773 266.614 485.065
1264 0 63.0529 12.9574 817 103.873 266.802 485.638
1265 0 63.0921 12.5689 793 106.343 267.521 482.879
1266 0 65.0869 12.7829 832 104.862 267.03 482.721
1267 0 67.1158 13.5587 910 104.414 266.49 480.233
1268 0 68.0564 12.2252 832 108.042 266.915 479.7
1269 0 70.0992 13.6236 955 105.07 267.503 480.066
1270 0 74.1097 12.6569 938 106.708 267.06 479.144
1271 0 76.2503 15.7114 1198 100.422 265.802 476.532
1272 0 80.3025 14.6322 1175 103.04 266.703 475.249
1273 0 82.3648 12.8089 1055 107.259 266.773 474.702
1274 0 84.234 12.7146 1071 107.869 266.655 472.401
1275 0 88.2841 13.6491 1205 104.823 266.545 470.395
1276 0 90.2791 12.993 1173 106.569 265.663 468.645
1277 0 94.2868 12.8014 1207 108.213 266.601 466.352
1278 1 48.2032 11.742 566 114.73 266.125 486.784
1279 0 50.0699 11.6437 583 114.305 266.604 487.702
1280 0 51.0597 12.8869 658 113.033 264.137 486.667
1281 0 53.0098 13.2994 705 111.896 264.767 486.295
1282 0 54.0158 13.6442 737 112.364 264.129 483.167
1283 0 55.0362 13.1005 721 114.65 264.682 482.768
1284 0 57.0253 12.2928 701 115.932 264.939 484.344
1285 0 61.0324 12.5016 763 114.997 265.164 483.752
1286 0 61.0473 14.1857 866 112.979 265.336 480.517
1287 0 63.0805 12.3176 777 117.695 265.005 480.014
1288 0 66.1021 13.4338 888 114.151 264.926 479.533
1289 0 65.0908 13.4274 874 116.35 264.809 477.64
1290 0 69.1194 14.1494 978 113.588 265.37 476.858
1291 0 72.1177 13.3393 962 115.509 265.34 476.069
1292 0 73.0795 13.67 999 116.106 265.588 474.729
1293 0 76.1384 13.3835 1019 115.877 265.353 473.894
1294 0 79.097 13.0852 1035 117.115 265.958 471.845
1295 0 80.0621 13.3272 1067 116.855 265.242 471.754
1296 0 83.0924 12.7208 1057 118.467 265.57 469
1297 0 89.1253 14.575 1299 114.976 264.77 464.007
1298 0 93.082 13.9984 1303 115.773 265.383 464.31
1299 1 48.0355 10.8461 521 117.827 265.286 486.33
1300 0 49.1357 11.9872 589 115.362 264.798 486.482
1301 0 52.077 12.4239 647 118.683 264.845 487.808
1302 0 55.0415 12.1726 670 119.187 264.524 487.542
1303 0 56.0489 13.292 745 117.544 264.715 485.499
1304 0 58.1215 12.8352 746 119.237 264.802 484.849
1305 0 59.074 12.7129 751 120.189 264.302 484.12
1306 0 62.0286 13.7033 850 117.486 264.182 483.353
1307 0 64.0345 13.1336 841 119.866 264.34 480.63
1308 0 67.0745 13.3285 894 117.632 264.468 480.131
1309 0 70.0562 12.3758 867 119.661 264.316 477.977
1310 0 72.0592 12.9754 935 117.929 264.338 476.266
1311 0 74.0736 13.0816 969 118.054 264.336 476.424
1312 0 78.0521 12.8504 1003 117.94 264.887 474.081
1313 1 42.0222 9.94711 418 118.129 264.091 494.156
1314 0 42.0355 10.848 456 115.454 264.022 492.721
1315 0 43.0647 12.191 525 109.299 264.065 492.339
1316 0 43.0772 11.5142 496 110.55 264.645 492.536
1317 0 47.0353 11.9272 561 107.547 264.476 490.822
1318 0 48.1341 11.8835 572 107.92 264.348 490.315
1319 0 50.0824 12.0202 602 108.196 264.824 487.914
1320 0 52.144 12.1586 634 107.981 264.681 488.648
1321 0 54.0496 12.9696 701 107.825 264.2 487.777
1322 0 55.1034 11.9412 658 111.175 264.614 486.061
1323 0 56.0502 13.024 730 108.61 264.344 485.136
1324 0 56.0571 12.6121 707 109.989 264.272 485.158
1325 0 60.1427 12.4371 748 108.64 264.406 483.742
1326 0 59.0401 12.4492 735 110.212 264.801 483.645
1327 0 62.0652 12.0357 747 109.594 264.954 481.842
1328 0 65.0948 12.5509 817 106.96 265.239 481.388
1329 0 69.1171 12.7754 883 105.471 265.334 481.379
1330 0 71.1239 13.6663 972 103.2 264.549 479.479
1331 0 71.1133 12.6277 898 106.131 264.58 478.449
1332 0 75.1391 13.8676 1042 103.148 265.201 477.987
1333 0 77.0878 12.8295 989 105.627 265.99 474.503
1334 0 82.1379 14.5 1191 100.489 265.312 474.039
1335 0 84.1859 13.9335 1173 101.994 264.913 472.379
1336 0 83.065 12.0628 1002 108.056 264.372 470.254
1337 0 90.1465 13.5557 1222 104.641 264.781 470.52
1338 0 94.1085 12.5387 1180 106.141 264.898 468.474
1339 0 96.4049 11.9496 1152 105.286 266.181 464.325
1340 0 98.5338 11.5595 1139 106.194 265.507 467.856
1341 1 52.193 12.9902 678 104.133 265.413 487.243
1342 0 54.3158 12.6114 685 104.774 264.749 486.55
1343 0 54.2347 11.7268 636 108.002 265.516 484.239
1344 0 57.158 11.7569 672 107.149 265.356 485.009
1345 0 59.2669 14.0044 830 101.881 265.483 482.82
1346 0 61.2092 12.2857 752 105.452 265.547 481.765
1347 0 62.2886 12.6829 790 104.329 265.103 480.525
1348 0 65.168 12.7824 833 103.594 265.08 478.683
1349 0 67.0957 12.1766 817 105.39 264.633 480.758
1350 0 71.1091 12.6707 901 103.636 264.969 478.719
1351 0 71.0362 11.7264 833 107.304 264.8 477.664
1352 0 76.0491 12.7812 972 103.891 264.565 476.341
1353 0 76.0419 11.5463 878 107.882 265.148 474.921
1354 0 81.1148 13.1789 1069 103.86 265.014 473.737
1355 0 85.2328 12.3896 1056 104.917 265.316 472.891
1356 1 43.0668 11.1919 482 103.853 265.237 491.438
1357 0 45.2959 11.4801 520 102.21 265.663 490.777
1358 0 46.0291 11.2972 520 103.883 264.577 489.59
1359 0 48.0282 10.7645 517 104.725 264.942 488.389
1360 0 48.0306 11.3886 547 104.642 264.335 488.85
1361 0 51.0501 11.8707 606 102.384 264.886 488.167
1362 0 52.0459 11.7396 611 104.139 263.321 486.288
1363 0 54.0547 11.6919 632 104.152 264.603 487.12
1364 0 53.1781 10.8879 579 107.468 265.007 486.589
1365 0 56.1631 11.5556 649 104.712 265.45 486.672
1366 0 58.0512 12.0756 701 104.562 265.02 484.361
1367 0 60.0978 12.8957 775 104.012 265.449 482.924
1368 0 62.0946 12.642 785 104.443 264.451 481.224
1369 0 64.0221 11.824 757 106.596 264.433 481.247
1370 0 64.0984 11.4511 734 109.601 264.501 480.184
1371 0 69.0803 12.4493 860 107.217 264.284 477.231
1372 0 71.1762 12.2091 869 109.43 264.392 476.566
1373 0 72.1767 12.3586 892 109.818 266.582 477.899
1374 0 75.3622 11.7964 889 112.352 266.745 476.092
1375 0 78.2768 11.6254 910 113.371 266.949 475.809
1376 0 81.2342 12.0762 981 113.018 267.099 474.486
1377 1 44.0217 11.2445 495 110.695 268.075 492.96
1378 0 44.088 10.6151 468 112.733 266.906 493.128
1379 0 48.0266 11.6394 559 109.71 268.127 490.415
1380 0 47.08 10.1954 480 114.819 267.738 492.469
1381 0 50.1381 11.8273 593 111.545 267.567 488.562
1382 0 50.0473 10.9297 547 114.088 267.452 489.561
1383 0 52.1155 11.1099 579 115.356 266.81 487.539
1384 0 54.0343 11.1226 601 114.933 268.14 486.547
1385 0 55.028 11.5759 637 115.834 267.783 483.738
1386 0 60.0634 12.0373 723 112.505 268.274 485.793
1387 0 59.074 12.1543 718 115.535 267.104 483.827
1388 0 61.0579 11.4809 701 117.131 268.472 482.11
1389 0 64.0594 12.8162 821 113.272 268.369 483.073
1390 0 66.0834 12.1362 802 114.7 268.203 481.464
1391 0 66.0422 11.8258 781 117.182 268.483 481.663
1392 0 70.0556 13.1752 923 112.497 268.224 479.735
1393 0 69.0996 11.7656 813 117.435 267.322 479.902
1394 0 75.0484 13.3247 1000 111.665 267.553 475.637
1395 0 77.0368 11.7736 907 115.06 267.976 475.476
1396 0 79.0796 12.2914 972 113.716 268.122 476.419
1397 0 82.0526 12.5895 1033 112.621 268.526 474.338
1398 0 86.1714 12.7188 1096 111.809 267.748 472.59
1399 0 89.2754 12.9599 1157 110.898 267.632 471.261
1400 1 46.122 11.5563 533 109.054 268.133 491.075
1401 0 47.4563 12.3482 586 104.457 267.703 490.889
1402 0 49.0052 12.8558 630 106.378 264.175 490.903
1403 0 52.0151 13.0924 681 105.305 263.774 488.83
1404 0 51.0931 12.1739 622 109.519 264.138 487.476
1405 0 50.0603 12.0255 602 110.874 263.708 487.292
1406 0 55.078 12.9998 716 107.043 263.198 485.95
1407 0 54.0311 11.9376 645 110.847 263.012 485.425
1408 0 57.0363 12.0976 690 109.262 263.29 484.135
1409 0 59.0465 12.7696 754 106.589 263.334 485.938
1410 0 61.0715 12.8047 782 107.082 263.221 482.564
1411 0 62.0289 11.4785 712 110.746 263.542 482.89
1412 0 65.1399 13.5247 881 105.619 263.427 481.42
1413 0 66.1451 13.8635 917 105.568 263.517 479.771
1414 0 69.0392 13.6734 944 106.055 263.646 478.758
1415 0 70.0846 14.2399 998 105.204 263.97 477.269
1416 0 70.0898 12.0845 847 110.939 263.738 476.255
1417 0 75.0517 14.1769 1064 104.92 264.466 475.551
1418 0 77.0397 13.214 1018 107.831 264.134 474.311
1419 0 79.0775 13.9483 1103 106.538 263.887 473.135
1420 0 79.082 13.0877 1035 110.195 263.934 471.594
1421 0 86.0994 14.3207 1233 105.748 264.277 472.062
1422 0 86.1258 13.3758 1152 109.057 264.221 470.336
1423 0 89.1417 12.5979 1123 111.686 264.608 468.125
1424 0 93.1073 13.6939 1275 108.102 264.431 464.609
1425 0 97.2207 12.9499 1259 109.283 265.415 464.087
1426 0 99.2112 12.4885 1239 109.581 265.354 467.198
1427 1 52.057 11.814 615 110.595 266.233 486.571
1428 0 54.2324 11.8379 642 105.143 267.539 480
1429 0 58.1143 12.8024 744 101.672 268.148 480.449
1430 0 58.0638 12.1418 705 103.277 267.479 479.735
1431 0 58.0778 12.2939 714 104.277 267.564 477.761
1432 0 61.0758 13.737 839 101.068 267.447 477.493
1433 0 61.0228 13.4212 819 102.946 267.142 476.879
1434 0 63.0523 12.5134 789 105.561 266.937 475.535
1435 0 66.1773 12.6932 840 105.112 267.482 473.412
1436 0 68.044 11.8453 806 106.921 267.14 474.113
1437 0 70.0471 13.0626 915 105.405 266.767 472.786
1438 0 73.0592 13.3317 974 105.923 266.221 470.603
1439 0 75.2982 12.6696 954 108.138 267.472 471.085
1440 0 78.1355 12.1072 946 108.755 267.239 468.782
1441 0 79.1715 12.9466 1025 107.457 267.126 468.807
1442 0 83.0823 13.3482 1109 106.335 266.793 468.839
1443 0 86.1999 12.7842 1102 101.074 266.545 466.4
1444 0 90.1739 12.121 1093 102.694 266.361 464.074
1445 0 93.2279 13.172 1228 100.791 266.481 463.976
1446 0 94.1184 12.0274 1132 104.342 266.287 461.87
1447 1 49.0973 11.6096 570 103.028 267.251 485.419
1448 0 52.3656 12.3745 648 103.119 266.137 483.539
1449 0 54.1015 12.7353 689 100.029 267.466 482.858
1450 0 56.196 12.7411 716 100.651 267.025 481.514
1451 0 58.3413 13.6781 798 98.6591 267.273 482.084
1452 0 57.1446 12.2146 698 103.566 267.408 482.905
1453 0 62.2146 12.923 804 101.767 267.264 479.617
1454 0 64.1278 13.8006 885 100.581 266.574 477.423
1455 0 65.2436 13.4879 880 101.726 267.19 476.509
1456 0 68.1961 13.9158 949 101.219 267.248 478.826
1457 0 70.4173 14.2437 1003 102.159 266.773 476.256
1458 0 73.2729 14.9168 1093 103.011 267.456 479.835
1459 0 73.207 12.5534 919 111.067 267.176 478.568
1460 0 78.3508 15.1115 1184 104.542 267.406 476.781
1461 0 78.2053 14.4108 1127 108.417 267.673 476.183
1462 0 81.1788 13.9322 1131 109.689 267.559 474.814
1463 0 83.1791 13.4529 1119 111.125 267.689 475.455
1464 0 87.1373 14.2648 1243 110.583 266.93 472.422
1465 0 87.1792 13.5583 1182 114.24 267.176 471.756
1466 0 91.2126 14.2853 1303 112.887 266.49 469.217
1467 0 94.262 14.1839 1337 113.441 266.363 468.458
1468 0 95.2005 13.6974 1304 115.087 266.202 467.41
1469 0 99.1732 13.4915 1338 115.428 266.209 464.949
1470 0 103.23 14.0947 1455 112.349 266.879 465.556
1471 1 50.0968 11.7972 591 112.565 266.997 490.821
1472 0 52.1484 13.3274 695 108.725 266.755 490.15
1473 0 53.1424 14.4706 769 106.651 266.563 488.986
1474 0 56.1454 12.5567 705 111.304 266.777 487.011
1475 0 58.0792 13.3611 776 108.651 266.589 485.965
1476 0 61.1092 14.0241 857 106.265 266.536 485.163
1477 0 62.1063 13.4286 834 107.662 266.261 484.67
1478 0 65.0632 14.2323 926 105.704 266.117 483.11
1479 0 69.0799 14.5484 1005 104.755 266.596 480.149
1480 0 70.2376 14.3513 1008 105.623 266.267 481.9
1481 0 71.1223 14.0322 998 106.883 266.538 480.665
1482 0 75.1748 14.7257 1107 105.092 265.564 478.197
1483 0 79.1241 14.4836 1146 105.203 266.282 478.209
1484 0 80.1559 14.4469 1158 106.085 265.834 474.283
1485 0 82.1252 13.8204 1135 107.902 265.878 472.885
1486 0 85.0702 13.8121 1175 106.879 265.486 473.174
1487 1 45.1335 12.5849 568 111.692 265.886 491.357
1488 0 47.2432 12.7849 604 111.884 265.627 492.613
1489 0 49.1404 14.7943 727 109.686 265.924 489.915
1490 0 50.1569 13.4378 674 112.905 265.688 491.064
1491 0 51.1952 12.8918 660 114.636 265.903 491.073
1492 0 53.1341 14.3034 760 111.414 265.829 489.517
1493 0 55.1861 13.826 763 115.505 265.714 487.925
1494 0 57.0882 13.1201 749 117.772 265.805 486.443
1495 0 59.1265 13.8347 818 115.663 265.517 486.855
1496 0 61.0936 14.0931 861 116.022 265.045 484.465
1497 0 62.1444 14.2732 887 116.253 265.602 484.315
1498 0 65.2112 14.3534 936 116.654 265.738 483.153
1499 0 67.1569 15.7095 1055 113.1 265.632 483.071
1500 0 69.1931 14.5679 1008 116.781 265.659 481.501
1501 0 71.1005 15.6117 1110 115.58 265.242 480.506
1502 0 73.1461 14.9154 1091 117.968 265.302 480.71
1503 0 76.1425 14.5517 1108 117.825 266.14 480.079
1504 0 80.0865 15.4957 1241 109.078 266.349 476.4
1505 0 81.093 15.4021 1249 111.527 265.526 474.666
1506 0 79.1523 14.251 1128 119.832 266.066 476.633
1507 0 82.0955 14.8486 1219 118.726 266.121 472.281
1508 0 83.1239 14.4002 1197 116.351 265.166 470.071
1509 0 84.2098 14.7726 1244 118.017 264.809 469.224
1510 0 88.12 14.1285 1245 119.706 264.772 471.414
1511 1 44.0229 10.6536 469 119.117 265.623 493.365
1512 0 45.0257 13.1258 591 120.041 264.905 493.459
1513 0 47.0805 12.4468 586 114.328 265.734 491.21
1514 0 50.1595 13.1979 662 109.341 265.353 490.944
1515 0 51.0488 12.4978 638 111.031 265.973 490.042
1516 0 51.1278 13.2218 676 108.586 265.726 490.222
1517 0 55.1231 13.4426 741 107.103 265.709 488.061
1518 0 55.0915 12.8151 706 109.986 265.544 487.602
1519 0 57.043 13.446 767 109.924 265.193 486.001
1520 0 60.0508 12.7059 763 112.022 265.396 487.579
1521 0 65.1704 17.4466 1137 96.6315 265.902 480.602
1522 0 66.2341 14.7507 977 105.769 265.218 481.896
1523 0 68.1432 14.4695 986 106.833 265.426 483.633
1524 0 67.163 13.6087 914 112.332 265.451 482.406
1525 0 69.1131 13.9481 964 112.687 265.259 480.711
1526 0 70.204 12.4779 876 117.053 265.684 483.021
1527 0 73.0726 13.9587 1020 115.563 265.506 480.113
1528 0 75.1594 14.2497 1071 115.8 265.131 480.373
1529 0 77.1589 13.388 1033 121.423 265.51 477.829
1530 1 39.1404 11.6248 455 119.16 265.479 495.266
1531 0 42.0718 11.8131 497 118.056 264.97 495.795
1532 0 42.1103 12.1823 513 117.353 264.988 496.115
1533 0 45.1719 12.375 559 115.131 265.338 494.58
1534 0 46.0695 12.8719 593 114.196 266.209 492.184
1535 0 47.0406 12.7337 599 115.055 265.835 491.953
1536 0 50.0986 12.675 635 114.35 265.704 492.932
1537 0 50.0302 13.272 664 113.617 265.489 490.358
1538 0 52.087 11.9608 623 116.584 265.706 491.526
1539 0 53.0507 13.5154 717 113.328 265.353 489.819
1540 0 53.0573 13.4006 711 115.408 265.239 489.959
1541 0 54.0197 13.0508 705 115.291 265.157 488.435
1542 0 58.0577 12.8321 745 113.774 265.259 486.886
1543 0 60.1154 14.023 843 110.955 265.638 485.815
1544 0 63.1151 12.9921 820 113.648 265.36 485.426
1545 0 64.0812 12.687 813 114.169 265.4 483.332
1546 0 69.2677 14.711 1019 107.886 264.68 482.093
1547 0 70.2698 13.5051 949 110.048 265.021 482.005
1548 0 72.3745 12.7393 922 112.243 264.13 479.166
1549 0 73.1707 12.2043 893 113.642 264.059 476.239
1550 0 76.1889 11.4977 876 114.263 263.858 475.518
1551 0 80.1473 12.7889 1025 109.177 264.222 475.877
1552 0 82.0629 11.479 942 111.729 263.761 474.67
1553 1 42.119 10.9214 460 109.133 264.278 493.565
1554 0 44.0885 11.3635 501 105.381 264.19 492.844
1555 0 44.0591 10.9853 484 107.952 264.052 493.163
1556 0 46.2234 11.2064 518 105.878 264.131 491.261
1557 0 46.132 11.7489 542 105.465 264.55 491.832
1558 0 50.0815 11.4813 575 104.363 263.857 490.089
1559 0 52.177 12.4384 649 102.433 264.253 489.701
1560 0 53.2298 12.4742 664 102.995 263.923 486.949
1561 0 54.1555 11.707 634 104.295 264.164 488.202
1562 0 57.1369 11.9713 684 103.19 264.452 486.775
1563 0 58.1613 12.3106 716 103.284 264.165 484.374
1564 0 60.0771 12.0012 721 103.741 264.556 485.829
1565 0 62.084 12.1931 757 103.139 264.597 483.934
1566 0 66.0966 13.2382 875 101.003 264.512 481.599
1567 0 68.1061 12.9944 885 101.301 264.019 480.875
1568 0 68.1345 10.8902 742 106.115 264.443 480.23
1569 0 72.0472 11.5063 829 105.016 264.538 479.834
1570 0 75.129 12.5917 946 103.254 264.353 477.149
1571 0 76.1504 10.755 819 107.966 264.039 476.354
1572 0 79.1423 11.6752 924 105.996 263.601 475.484
1573 0 85.1229 12.9577 1103 102.524 263.885 475.403
1574 0 88.189 12.7113 1121 102.974 263.577 473.8
1575 1 46.0906 12.6056 581 101.108 264.568 493.437
1576 0 46.2544 11.9772 554 105.928 263.836 488.908
1577 0 50.19 12.1538 610 105.261 264.546 491.362
1578 0 51.1574 13.2727 679 103.406 264.163 490.638
1579 0 52.1829 11.3639 593 107.314 264.258 491.521
1580 0 53.047 12.0082 637 108.336 264.743 489.418
1581 0 56.1179 11.7075 657 107.849 264.125 489.785
1582 0 58.1392 13.0205 757 105.556 264.787 488.132
1583 0 58.157 12.9821 755 106.29 265.007 488.038
1584 0 61.1619 12.7367 779 106.798 264.877 486.275
1585 0 64.1801 13.914 893 104.172 264.87 484.314
1586 0 65.2775 14.6145 954 103.027 264.219 483.827
1587 0 66.2141 12.9278 856 107.709 264.662 482.634
1588 0 68.2006 12.8885 879 107.538 264.056 483.046
1589 0 73.2175 13.9447 1021 104.693 264.269 481.642
1590 0 74.2397 12.9176 959 107.523 263.778 479.828
1591 0 77.2589 13.2282 1022 106.56 263.639 477.784
1592 1 41.0995 11.387 468 107 264.103 495.397
1593 0 44.027 12.2879 541 102.658 264.525 495.712
1594 0 42.0734 11.0284 464 106.239 265.39 493.89
1595 0 45.1787 13.347 603 101.735 265.235 493.146
1596 0 45.0327 12.6575 570 98.5281 264.907 493.626
1597 0 46.0987 13.5579 625 97.8448 264.742 491.654
1598 0 48.0101 12.0183 577 101.418 265.404 492.863
1599 0 47.1305 11.988 565 103.085 265.612 490.451
1600 0 49.1425 11.6193 571 104.219 265.261 491.186
1601 0 52.0739 13.212 688 100.532 265.064 489.493
1602 0 54.0635 13.2067 714 100.632 265.312 489.13
1603 0 53.0974 12.2793 652 104.779 265.089 488.566
1604 0 58.0558 13.0047 755 102.037 265.477 488.513
1605 0 57.0376 13.8155 788 102.494 265.168 487.036
1606 0 59.0463 14.0737 831 101.974 265.237 486.741
1607 0 62.0787 13.2574 823 104.165 265.062 484.309
1608 0 62.073 13.7097 851 104.682 265.2 484.66
1609 0 66.1112 13.4168 887 104.637 264.299 483.652
1610 0 67.0717 14.4472 969 103.209 264.701 482.375
1611 0 68.0845 13.7329 935 106.06 263.949 482.646
1612 0 71.1351 13.6782 973 106.058 264.561 479.445
1613 0 72.029 13.6195 981 107.197 264.09 480.905
1614 0 75.0623 15.5338 1166 102.433 264.041 478.774
1615 0 78.0906 14.4576 1129 104.57 264.62 477.512
1616 0 78.0925 13.0486 1019 109.023 264.114 476.335
1617 0 81.1028 12.9465 1050 109.505 264.299 474.153
1618 1 42.0681 10.5068 442 113.005 264.604 492.846
1619 0 43.0303 10.5042 452 107.033 264.6 490.92
1620 0 43.1044 10.3702 447 101.624 265.369 488.81
1621 0 45.068 11.1165 501 103.214 263.97 486.553
1622 0 45.1929 10.776 487 104.774 264.201 485.959
1623 0 45.1996 11.0842 501 105.661 264.248 485.016
1624 0 48.1047 9.41697 453 108.225 264.649 485.095
1625 0 49.1172 10.1797 500 107.12 264.606 485.262
1626 0 51.1135 11.6016 593 103.481 264.01 485.017
1627 0 53.2845 11.9359 636 102.95 264.415 483.228
1628 0 55.0928 10.7274 591 105.25 263.777 481.486
1629 0 58.1119 11.3574 660 103.292 263.827 481.505
1630 0 58.2158 11.1825 651 105.684 263.81 478.055
1631 0 65.1358 11.3916 742 103.675 263.187 479.108
1632 0 66.2345 12.4406 824 101.356 262.795 479.814
1633 0 68.1942 12.3471 842 103.272 262.556 475.684
1634 0 69.0449 11.4998 794 105.089 263.166 476.475
1635 0 71.1463 11.0898 789 106.474 263.046 475.625
1636 0 74.113 12.2786 910 103.453 262.725 473.475
1637 0 77.1038 12.4118 957 100.529 263.249 471.536
1638 0 80.2102 11.794 946 102.142 263.145 472.297
1639 0 82.2065 12.0185 988 101.88 263.838 469.672
1640 0 83.2586 11.6985 974 104.251 263.686 467.99
1641 0 87.152 11.3021 985 104.853 263.638 465.836
1642 0 90.1905 11.3759 1026 104.593 263.476 465.742
1643 0 92.1848 9.68707 893 107.928 263.917 463.352
1644 0 97.1631 11.2594 1094 105.153 263.852 462.235
1645 1 53.0733 11.5689 614 99.8062 263.704 486.427
1646 0 55.0369 11.8284 651 107.364 264.29 487.733
1647 0 55.067 13.5108 744 103.136 264.07 487.543
1648 0 59.063 15.0179 887 99.6516 263.89 486.919
1649 0 60.0941 11.9978 721 105.731 264.074 485.426
1650 0 62.1005 12.1738 756 105.429 264.239 483.824
1651 0 66.045 12.2341 808 105.681 264.484 482.63
1652 0 69.087 12.9692 896 103.706 264.198 480.663
1653 0 71.1163 13.1615 936 104.337 264.403 477.971
1654 0 75.1472 14.079 1058 102.048 264.249 478.52
1655 0 77.1206 12.6296 974 106.253 264.091 477.44
1656 0 77.1533 12.8575 992 106.005 264.698 476.686
1657 0 81.1368 13.3602 1084 105.059 264.457 474.148
1658 0 84.124 14.1933 1194 104.098 264.219 472.628
1659 0 86.0523 13.7358 1182 106.28 263.849 472.454
1660 0 91.169 13.9631 1273 105.786 264.059 470.907
1661 0 92.1502 12.4796 1150 110.012 263.559 468.37
1662 0 96.1414 14.7907 1422 105.902 263.855 465.309
1663 1 54.0677 12.022 650 111.626 264.583 488.283
1664 0 51.1241 11.5601 591 105.909 263.514 485.514
1665 0 51.0402 10.6583 544 109.54 263.785 482.2
1666 0 58.0655 11.642 676 106.379 264.092 481.84
1667 0 60.0603 11.2221 674 106.55 264.053 480.512
1668 0 61.1337 11.3522 694 106.527 263.85 480.463
1669 0 62.0345 11.139 691 107.204 264.181 479.948
1670 0 65.1322 11.1466 726 107.03 263.807 479.227
1671 0 66.0389 11.5841 765 106.803 263.127 476.793
1672 0 68.0733 11.752 800 106.905 262.599 474.598
1673 0 70.0613 12.0894 847 106.465 262.885 473.71
1674 0 74.3107 10.7791 801 108.456 263.092 471.08
1675 0 75.1783 11.9316 897 106.181 262.842 471.319
1676 0 79.0965 9.83609 778 110.292 263.122 469.051
1677 0 84.0574 11.9561 1005 106.365 263.135 467.985
1678 0 87.3993 11.2816 986 107.14 262.955 464.887
1679 0 89.1208 11.1646 995 107.283 263.426 464.841
1680 0 94.1723 13.624 1283 98.8129 262.938 463.051
1681 1 45.0398 9.50272 428 98.9603 262.617 485.661
1682 0 48.1271 11.4281 550 105.976 263.022 484.789
1683 0 50.0461 11.889 595 105.225 264.534 486.299
1684 0 51.0684 11.6315 594 107.138 263.97 485.567
1685 0 52.0604 11.0257 574 103.758 263.983 484.186
1686 0 56.0367 12.2955 689 100.98 263.871 483.226
1687 0 55.0628 10.824 596 105.081 263.305 481.8
1688 0 59.0812 12.1866 720 101.681 263.347 479.751
1689 0 59.0606 11.5813 684 103.387 263.484 479.203
1690 0 62.1692 11.5652 719 102.63 262.643 478.961
1691 0 63.1508 10.9104 689 104.869 262.605 476.808
1692 0 66.1797 12.4358 823 101.989 263.064 475.994
1693 0 68.1353 11.7267 799 103.237 262.925 476.116
1694 0 70.1545 11.3179 794 104.472 262.467 474.252
1695 0 71.202 11.7132 834 103.927 262.58 473.59
1696 0 75.1354 12.564 944 102.466 262.982 471.176
1697 0 77.232 11.6661 901 103.517 263.11 471.849
1698 0 80.1671 10.5405 845 107.144 262.536 468.595
1699 0 81.1936 10.4565 849 107.236 263.472 468.954
1700 0 84.1542 10.8848 916 107.885 262.508 464.709
1701 0 89.2029 11.9503 1066 105.847 262.598 465.29
1702 0 91.1723 10.7269 978 108.938 262.844 463.148
1703 0 94.1981 12.0491 1135 107.728 262.755 461.952
1704 0 99.1563 13.2518 1314 104.869 262.483 457.669
1705 0 101.186 12.4721 1262 103.708 262.638 457.17
1706 0 104.162 11.8374 1233 107.383 262.98 452.705
1707 0 109.136 12.269 1339 105.15 263.049 451.164
1708 1 58.0354 12.0788 701 107.355 264.208 483.95
1709 0 58.1048 11.0318 641 107.743 265.17 481.952
1710 0 60.1897 12.0619 726 104.627 262.336 476.567
1711 0 57.1536 8.94082 511 108.07 263.589 476.217
1712 0 62.182 11.209 697 103.264 263.28 477.96
1713 0 65.1958 10.4148 679 104.932 263.704 476.757
1714 0 70.1336 12.4192 871 98.8737 263.463 475.978
1715 0 72.1192 11.5781 835 101.728 263.152 473.285
1716 0 74.1585 11.3271 840 103.199 262.799 474.79
1717 0 75.1712 10.3497 778 106.695 263.012 471.171
1718 0 81.2086 12.0307 977 103.559 262.926 470.58
1719 0 82.1006 11.8391 972 105.77 263.021 470.662
1720 0 87.1688 12.3324 1075 105.286 262.863 469.183
1721 0 88.211 11.8806 1048 108.044 262.227 468.998
1722 0 91.2629 12.7324 1162 109.631 262.323 467.992
1723 0 95.2046 12.5729 1197 112.791 262.962 467.084
1724 0 99.1603 12.1621 1206 113.902 264.501 466.9
1725 0 102.342 12.1162 1240 115.93 263.934 463.19
1726 1 55.1575 10.8236 597 113.37 264.657 486.71
1727 0 55.0732 9.75066 537 117.97 264.806 484.672
1728 0 56.0555 11.6313 652 114.811 265.181 484.517
1729 0 61.1477 13.0013 795 110.818 265.104 484.478
1730 0 63.3127 13.0148 824 111.078 264.468 484.157
1731 0 63.3142 13.2198 837 119.184 263.744 483.348
1732 0 67.31 13.9504 939 116.461 263.207 481.599
1733 0 68.2657 13.008 888 118.697 263.465 481.945
1734 0 70.4117 13.7335 967 117.229 263.414 479.555
1735 0 74.2559 14.652 1088 113.502 262.945 478.938
1736 0 75.3949 14.2583 1075 114.992 262.961 479.126
1737 0 77.3473 13.3036 1029 117.765 263.039 476.271
1738 0 80.4606 13.7707 1108 115.901 263.471 475.656
1739 0 83.3685 14.6458 1221 113.508 263.182 472.896
1740 0 85.434 13.9523 1192 114.774 263.169 473.88
1741 0 87.4373 13.6669 1195 116.505 263.485 470.331
1742 0 90.4417 11.8308 1070 120.669 262.978 470.805
1743 0 94.421 14.2235 1343 115.093 262.899 465.78
1744 0 95.5931 13.5784 1298 116.646 263.116 466.204
1745 0 99.4261 12.8638 1279 117.226 263.428 464.371
1746 0 102.558 14.4114 1478 114.189 263.463 458.047
1747 0 107.539 14.3576 1544 113.099 263.484 457.864
1748 0 109.622 12.9536 1420 116.615 263.033 457.331
1749 0 112.712 13.7608 1551 114.841 262.719 455.798
1750 1 60.3609 12.0111 725 110.095 264.32 480.803
1751 0 62.0669 10.8592 674 113.66 264.126 483.013
1752 0 65.2274 13.3073 868 105.839 263.886 481.942
1753 0 68.4247 13.6793 936 104.209 263.212 479.948
1754 0 69.3864 13.922 966 105.008 262.589 476.875
1755 0 69.612 12.5409 873 108.683 263.341 478.07
1756 0 74.4055 13.5877 1011 105.349 263.115 477.49
1757 0 75.1622 12.932 972 108.724 263.837 477.164
1758 0 77.3224 14.0451 1086 106.413 263.716 474.222
1759 0 81.4429 13.9975 1140 106.773 263.304 470.159
1760 0 85.3133 13.6087 1161 108.108 263.208 471.333
1761 0 87.2687 13.8194 1206 108.493 263.242 468.694
1762 0 88.3063 13.5891 1200 109.538 263.264 469.448
1763 0 90.2027 14.3122 1291 109.303 263.492 466.394
1764 0 93.3148 14.36 1340 109.925 263.625 466.296
1765 0 97.2457 13.9955 1361 110.944 263.605 463.373
1766 0 99.1893 14.4875 1437 110.625 263.248 462.164
1767 0 102.382 14.2212 1456 111.816 263.198 460.644
1768 0 104.407 13.2846 1387 115.22 263.368 459.023
1769 1 55.1893 10.8173 597 116.591 262.58 483.886
1770 0 55.2216 12.2054 674 114.261 262.909 483.623
1771 0 56.1869 11.1236 625 118.834 263.506 485.466
1772 0 58.3135 12.7415 743 114.922 263.969 482.699
1773 0 61.1817 12.8143 784 115.112 263.556 481.796
1774 0 63.3374 12.3781 784 115.926 263.448 480.583
1775 0 65.284 11.8559 774 116.702 263.421 481.152
1776 0 67.4004 12.4332 838 116.362 263.879 477.967
1777 0 69.4268 13.1793 915 114.965 262.967 477.337
1778 0 72.4434 12.5891 912 116.357 262.931 475.141
1779 0 75.3154 13.9148 1048 112.307 263.323 472.574
1780 0 78.2459 13.5726 1062 113.176 263.606 471.304
1781 0 80.368 13.1147 1054 114.39 263.106 469.176
1782 0 83.2754 13.3773 1114 113.134 263.408 470.189
1783 0 86.3184 13.3228 1150 113.516 263.537 467.13
1784 0 89.2025 12.9817 1158 114.432 262.746 464.854
1785 0 93.2066 13.218 1232 113.619 262.776 463.752
1786 0 93.5619 12.783 1196 115.971 262.761 461.022
1787 1 45.1372 8.95049 404 111.688 262.334 486.653
1788 0 48.0864 10.5851 509 108.839 262.181 485.293
1789 0 51.2412 10.031 514 107.576 262.467 485.331
1790 0 53.228 11.3098 602 103.36 264.013 487.151
1791 0 55.1621 10.8408 598 104.943 263.98 486.98
1792 0 56.0593 12.4333 697 102.659 262.525 484.953
1793 0 60.0917 12.4976 751 101.534 262.917 485.028
1794 0 60.1307 11.2255 675 104.993 262.797 484.825
1795 0 62.1642 11.4535 712 104.744 262.758 484.989
1796 0 66.1501 13.3484 883 101.067 262.995 482.869
1797 0 68.118 12.3022 838 103.961 263.079 481.29
1798 0 70.1098 13.3648 937 104.132 263.628 480.71
1799 0 70.1749 12.2836 862 107.962 263.698 481.176
1800 0 74.1314 11.8169 876 108.671 263.86 480.099
1801 0 76.1294 11.9927 913 108.94 263.512 479.055
1802 0 80.1865 12.3462 990 106.648 263.465 476.912
1803 0 81.1378 12.2877 997 109.078 263.341 473.415
1804 0 84.1558 12.263 1032 110.614 263.532 473.724
1805 0 87.1278 12.5333 1092 110.563 263.487 472.579
1806 0 91.1617 12.9001 1176 109.546 263.291 471.678
1807 0 94.302 12.5448 1183 111.202 263.462 468.947
1808 0 97.1455 12.5379 1218 111.378 263.674 468.355
1809 0 100.117 12.6751 1269 113.664 263.622 467.924
1810 1 51.058 11.438 584 109.37 263.298 491.916
1811 0 52.1223 12.1829 635 108.698 263.545 489.688
1812 0 54.1943 12.9349 701 106.282 263.902 487.22
1813 0 55.1093 11.704 645 109.296 263.943 487.688
1814 0 56.1718 11.9811 673 108.672 263.614 486.978
1815 0 62.2236 12.8408 799 104.466 263.743 485.875
1816 0 60.2225 11.9723 721 107.735 263.613 486.241
1817 0 65.1571 12.984 846 104.363 263.586 484.521
1818 0 64.269 12.1054 778 108.835 263.825 480.094
1819 0 67.2101 12.2601 824 108.352 263.413 481.024
1820 0 72.1912 12.6331 912 106.481 263.337 480.742
1821 0 73.2216 12.9743 950 106.38 263.14 478.737
1822 0 75.3334 12.8363 967 107.021 263.308 477.303
1823 0 81.317 13.4166 1091 103.897 263.057 478.047
1824 0 81.2758 12.7467 1036 108.794 262.953 473.695
1825 0 84.2474 11.8579 999 111.644 263.221 473.313
1826 0 86.19 12.3912 1068 110.252 264.369 471.508
1827 0 88.3261 11.8312 1045 111.129 264.844 472.442
1828 0 89.3276 11.3963 1018 113.183 264.408 469.334
1829 0 94.3229 12.0543 1137 111.387 264.77 468.055
1830 0 97.4425 10.7038 1043 112.817 264.49 470.468
1831 0 100.325 12.8084 1285 110.501 264.279 463.433
1832 0 103.284 12.209 1261 111.485 263.6 461.569
1833 0 105.127 11.1674 1174 113.537 264.198 462.288
1834 1 56.1444 11.4526 643 103.079 264.031 485.277
1835 0 59.1761 11.1701 661 103.477 263.632 484.461
1836 0 60.0876 11.7495 706 102.191 263.882 484.71
1837 0 64.0473 11.4447 733 102.08 263.617 483.636
1838 0 65.071 11.9869 780 101.656 263.558 482.108
1839 0 67.0884 10.7768 723 103.906 263.864 480.943
1840 0 70.1464 11.8752 833 101.948 263.421 480.084
1841 0 71.1481 11.5112 819 103.696 263.841 478.25
1842 0 74.1084 11.1323 825 104.235 263.96 478.284
1843 0 77.2095 11.3069 873 105.669 263.561 475.992
1844 0 81.3213 11.4976 935 104.619 262.872 474.496
1845 0 81.1701 11.2849 916 105.614 263.11 470.379
1846 0 85.221 10.4904 894 107.968 263.207 470.755
1847 0 88.1223 11.3592 1001 106.743 263.479 470.185
1848 0 89.3102 11.6336 1039 108.212 263.339 467.73
1849 0 90.1849 10.4452 942 111.738 262.915 463.222
1850 0 95.2921 11.2916 1076 110.406 263.294 463.965
1851 1 52.0688 10.5437 549 104.681 263.796 489.018
1852 0 53.2054 10.6756 568 108.069 263.507 486.718
1853 0 55.2543 12.2343 676 105.8 263.546 483.754
1854 0 56.125 10.637 597 110.712 263.821 486.35
1855 0 58.0685 11.3142 657 109.513 264.008 486.621
1856 0 59.0681 10.8349 640 111.581 263.869 484.756
1857 0 61.0717 12.4608 761 108.18 263.155 484.407
1858 0 63.0709 11.1303 702 110.207 263.199 483.054
1859 0 66.0651 12.745 842 106.436 263.178 482.154
1860 0 68.1051 11.7759 802 108.51 263.652 479.421
1861 0 70.1276 11.4363 802 110.611 263.741 479.96
1862 0 72.1136 13.0766 943 106.075 263.403 481.224
1863 0 74.0914 12.714 942 106.972 263.843 477.449
1864 0 77.0795 12.6104 972 107.265 263.431 476.461
1865 0 80.1447 12.7644 1023 106.57 263.646 476.431
1866 0 83.1459 13.4342 1117 104.556 263.831 475.34
1867 0 85.1499 13.9166 1185 104.392 264.027 472.619
1868 0 86.0608 12.3285 1061 109.616 264.388 472.686
1869 0 90.1401 12.8578 1159 108.5 264.274 470.154
1870 0 94.1665 13.1788 1241 107.936 263.89 470.003
1871 1 47.1412 11.8792 560 109.671 264.625 491.391
1872 0 49.0836 11.3684 558 109.052 264.104 492.059
1873 0 50.0776 12.3608 619 106.254 264.716 489.735
1874 0 50.0988 12.3556 619 106.859 264.32 490.415
1875 0 53.0557 12.9675 688 104.599 263.865 489.669
1876 0 54.1104 13.5464 733 103.786 263.76 489.497
1877 0 56.104 12.9581 727 105.158 263.462 489.242
1878 0 55.1104 13.1373 724 106.298 263.543 488.646
1879 0 57.0748 12.0894 690 108.416 264.148 486.938
1880 0 60.0847 13.4976 811 105.339 263.239 486.762
1881 0 61.0747 12.7876 781 107.843 263.127 484.496
1882 0 63.1073 13.3582 843 105.897 263.497 484.233
1883 0 64.1982 13.1001 841 107.417 263.277 484.023
1884 0 68.1975 14.1208 963 104.417 262.936 481.757
1885 0 71.1612 13.4343 956 105.617 263.234 482.717
1886 0 71.0731 12.8459 913 108.792 262.917 480.873
1887 0 75.0845 13.305 999 107.137 263.067 477.817
1888 0 76.1088 13.4281 1022 107.427 263.143 478.912
1889 0 78.1421 13.2707 1037 109.503 263.41 476.027
1890 0 83.2187 14.2396 1185 105.998 263.388 475.505
1891 0 84.1976 13.6346 1148 109.225 263.313 472.591
1892 0 85.1378 14.6468 1247 107.502 263.492 472.466
1893 0 91.3018 14.5342 1327 107.191 263.174 470.638
1894 0 94.278 14.2981 1348 107.441 263.223 469.5
1895 0 95.1765 13.0179 1239 110.897 262.801 468.642
1896 0 98.2647 13.4026 1317 110.582 263.003 466.522
1897 0 101.183 13.0062 1316 109.97 262.711 467.045
1898 0 104.254 12.834 1338 111.071 262.864 464.799
1899 1 54.0751 11.4285 618 110.403 263.769 490.01
1900 0 55.1405 11.2984 623 102.926 263.613 490.449
1901 0 57.1265 11.0632 632 98.3497 262.369 484.597
1902 0 59.2141 10.8927 645 98.445 262.563 485.155
1903 0 62.1186 12.8947 801 94.0499 262.658 482.598
1904 0 64.1817 11.5142 739 95.7023 262.865 482.809
1905 0 67.2842 10.9981 740 96.9797 262.672 479.903
1906 0 68.2045 11.2163 765 97.3373 262.688 480.186
1907 0 69.1856 12.7194 880 95.2125 262.451 477.3
1908 0 72.113 12.522 903 96.0598 262.605 477.997
1909 0 75.1307 11.5266 866 97.8753 263.073 478.614
1910 0 75.2007 12.0478 906 98.1589 262.872 476.383
1911 0 79.0956 11.4292 904 99.4336 262.765 475.549
1912 0 80.1707 11.8747 952 98.395 262.743 476.366
1913 0 83.2577 11.3383 944 100.447 263.131 475.079
1914 0 87.2391 11.9442 1042 98.7716 262.31 476.488
1915 0 88.092 12.3167 1085 100.628 262.14 470.803
1916 0 94.2784 12.9616 1222 99.2177 262.367 469.534
1917 0 93.2344 10.7578 1003 103.87 262.121 467.367
1918 0 98.1776 12.8135 1258 100.819 261.887 465.178
1919 0 100.274 11.5983 1163 106.752 261.548 465.218
1920 1 52.0714 9.46776 493 103.538 263.122 490.996
1921 0 52.0655 10.0066 521 105.57 263.403 490.234
1922 0 58.0933 12.6865 737 98.9688 263.056 489.349
1923 0 57.0984 10.6308 607 104.446 262.39 487.288
1924 0 61.1637 12.7527 780 99.5949 262.721 486.463
1925 0 62.0949 12.5936 782 100.474 263.21 486.372
1926 0 65.2072 12.6673 826 101.341 262.496 484.847
1927 0 69.0565 12.8011 884 99.6267 262.208 482.86
1928 0 70.1077 13.0799 917 100.036 262.385 482.609
1929 0 71.0969 12.0962 860 102.787 263.464 482.008
1930 0 76.1177 12.2836 935 101.252 263.453 482.271
1931 0 78.1108 12.9047 1008 102.454 263.112 479.554
1932 0 81.065 13.2116 1071 104.632 263.106 477.272
1933 0 83.0528 12.5944 1046 107.1 263.136 474.402
1934 0 85.1592 11.9658 1019 109.785 262.844 474.232
1935 0 89.1892 13.1294 1171 107.808 263.102 474.348
1936 0 90.2536 13.2183 1193 108.695 262.63 472.721
1937 0 95.1818 14.1834 1350 106.461 262.525 470.012
1938 1 48.2313 11.0509 533 118.156 262.493 489.244
1939 0 52.1301 13.2553 691 114.285 261.786 488.573
1940 0 51.2618 13.2457 679 116.773 261.374 489.405
1941 0 53.2764 12.7636 680 119.085 261.615 489.726
1942 0 54.2243 12.393 672 121.952 261.762 487.851
1943 0 57.1812 12.2593 701 123.204 261.314 488.33
1944 0 59.3058 13.7423 815 119.294 261.783 484.996
1945 0 61.2263 13.5563 830 119.381 261.97 484.071
1946 0 63.4373 13.068 829 121.976 261.549 482.013
1947 0 65.3173 13.1971 862 122.258 262.036 479.95
1948 0 66.3814 13.8744 921 123.021 261.67 478.251
1949 0 70.2248 14.5817 1024 123.704 261.629 478.233
1950 0 71.307 13.7714 982 128.05 261.816 477.562
1951 0 76.372 15.5031 1184 121.686 261.817 477.265
1952 0 75.3289 13.7928 1039 129.768 262.248 476.198
1953 0 79.3949 15.1647 1204 126.115 261.893 474.934
1954 0 80.5674 14.0379 1131 131.217 261.696 472.994
1955 0 84.5818 14.0811 1191 130.746 261.467 472.085
1956 0 87.3702 14.2497 1245 131.043 261.454 470.17
1957 0 89.3662 14.0993 1260 133.202 262 468.054
1958 0 91.3236 15.1111 1380 129.972 261.457 466.911
1959 1 46.184 12.1904 563 131.911 261.611 490.549
1960 0 48.1817 12.183 587 132.562 261.671 487.825
1961 0 50.1656 13.2561 665 128.486 261.58 487.868
1962 0 53.1303 13.8151 734 126.02 261.965 486.089
1963 0 53.1535 13.0189 692 129.481 261.671 488.001
1964 0 54.1225 13.0999 709 130.185 261.512 486.364
1965 0 57.1378 12.6011 720 129.7 261.739 486.112
1966 0 58.1836 13.0277 758 129.112 261.702 485.032
1967 0 61.0819 14.5215 887 124.694 261.715 482.681
1968 0 64.1241 14.1445 907 124.002 261.847 482.963
1969 0 65.0968 13.3801 871 128.708 261.922 479.604
1970 0 67.1128 14.8854 999 124.648 261.313 479.812
1971 0 69.1233 13.7146 948 127.755 261.653 477.475
1972 0 72.1335 13.9048 1003 126.244 261.465 476.439
1973 0 73.1987 14.0713 1030 125.308 261.457 476.728
1974 0 76.1189 13.2162 1006 127.498 261.996 474.103
1975 0 79.1801 14.8396 1175 122.912 261.557 473.429
1976 0 82.2931 14.8008 1218 123.072 261.597 471.371
1977 0 85.1267 14.3433 1221 124.161 261.559 470.024
1978 0 87.1674 13.9846 1219 124.878 261.229 469.19
1979 0 90.2564 13.8051 1246 125.914 260.872 466.878
1980 0 93.182 14.5307 1354 123.826 260.804 464.182
1981 0 96.1875 13.9935 1346 124.338 260.854 464.729
1982 0 99.1742 13.7838 1367 124.28 260.595 463.072
1983 1 53.092 12.0734 641 121.598 260.552 485.353
1984 0 57.1107 11.9592 683 119.988 261.376 483.158
1985 0 58.0786 11.1056 645 106.842 262.584 481.423
1986 0 58.1489 12.0209 699 105.279 262.578 480.591
1987 0 61.1132 12.1578 743 105.686 261.953 477.541
1988 0 63.0981 11.3474 716 107.071 262.547 476.763
1989 0 65.0926 11.2455 732 107.324 262.339 476.577
1990 0 66.0859 11.0614 731 109.031 262.115 473.856
1991 0 70.0796 11.9721 839 106.242 262.458 472.249
1992 0 68.1542 11.2392 766 109.354 263.171 471.262
1993 0 73.22 12.5785 921 105.418 263.253 471.759
1994 0 76.1429 11.1764 851 109.334 262.872 469.408
1995 0 75.1453 10.3267 776 110.854 263.231 469.455
1996 0 78.2004 12.5703 983 108.087 263.045 464.696
1997 0 82.1809 12.4116 1020 108.1 263.063 464.317
1998 0 86.2366 13.1731 1136 106.689 262.32 464.35
1999 0 91.2385 12.8455 1172 107.511 262.778 462.663
2000 0 91.1735 11.5604 1054 113.393 262.883 456.93
2001 0 93.2355 11.5836 1080 112.038 262.21 457.647
2002 0 99.27 10.9096 1083 110.922 261.537 461.006
2003 0 103.316 11.3922 1177 111.427 261.802 457.958
2004 1 53.0647 9.66744 513 106.09 261.464 477.577
2005 0 55.0617 10.3702 571 100.732 261.963 484.151
2006 0 60.0846 11.384 684 103.385 261.687 485.295
2007 0 61.2923 11.8286 725 103.652 260.836 485.127
2008 0 63.2387 12.1445 768 103.451 261.049 481.997
2009 0 65.0586 12.312 801 102.624 260.665 481.08
2010 0 68.1849 13.1407 896 100.886 260.665 480.333
2011 0 70.1108 12.0951 848 102.19 261.097 480.323
2012 0 70.0714 11.8022 827 104.139 260.554 478.632
2013 0 71.1633 11.1996 797 106.922 260.934 477.844
2014 0 72.0546 11.1166 801 106.889 261.974 478.3
2015 0 75.0732 10.936 821 107.697 262.353 475.652
2016 0 78.1693 10.4645 818 107.79 262.504 476.789
2017 0 81.3507 13.2636 1079 103.621 262.964 466.7
2018 0 83.122 10.5267 875 108.082 262.31 472.423
2019 0 87.1275 10.9495 954 107.41 262.285 470.693
2020 0 88.0821 11.2282 989 107.984 260.612 468.001
2021 0 91.1207 10.5355 960 110.136 260.728 464.284
2022 0 95.0808 12.4946 1188 106.545 260.183 464.198
2023 0 97.2566 12.2048 1187 105.977 260.971 459.916
2024 0 99.2023 12.3082 1221 106.948 261.194 458.609
2025 0 104.223 11.1299 1160 110.613 260.663 458.583
2026 0 106.1 10.9614 1163 111.833 260.76 459.55
2027 0 109.309 12.332 1348 108.743 261.254 454.657
2028 0 112.312 11.7441 1319 109.227 261.198 453.763
2029 0 118.327 12.8204 1517 107.135 261.495 446.201
2030 0 122.465 12.5342 1535 106.569 261.324 450.863
2031 0 125.322 12.017 1506 107.853 261.048 450.016
2032 0 128.281 11.5762 1485 109.013 261.469 447.508
2033 0 132.385 11.4136 1511 109.862 261.332 444.288
2034 0 136.358 11.7338 1600 109.352 260.992 440.014
2035 0 137.355 10.6148 1458 112.049 261.167 434.819
2036 0 147.394 12.6531 1865 107.058 261.304 434.999
2037 1 80.2682 10.4026 835 102.176 261.116 473.364
2038 0 82.1643 11.2336 923 102.002 261.402 469.122
2039 0 86.2426 10.9807 947 102.352 261.229 469.195
2040 0 88.3597 12.087 1068 101.378 261.546 465.062
2041 0 89.3559 11.7396 1049 103.294 261.706 464.032
2042 0 94.1468 11.5033 1083 108.954 261.704 464.738
2043 0 98.2475 13.1199 1289 104.849 260.756 462.943
2044 0 99.4551 12.5383 1247 107.501 260.726 458.293
2045 0 101.466 12.0139 1219 110.495 260.906 454.006
2046 0 104.438 11.7869 1231 110.933 260.757 453.225
2047 0 107.529 11.4853 1235 111.087 260.838 453.12
2048 0 111.467 12.2906 1370 109.458 260.909 453.506
2049 0 112.501 11.5998 1305 112.793 260.533 450.628
2050 0 115.447 11.659 1346 114.004 260.371 445.949
2051 0 122.323 12.8594 1573 110.722 260.838 444.008
2052 0 126.391 12.6987 1605 111.852 260.53 442.419
2053 0 129.442 12.523 1621 113.411 260.096 441.112
2054 0 136.558 13.1519 1796 111.468 261.415 439.54
2055 0 137.542 12.2362 1683 114.023 261.329 440.222
2056 0 142.494 12.6953 1809 114.401 260.632 436.109
2057 0 147.536 12.7969 1888 114.001 260.969 433.405
2058 0 150.289 12.5158 1881 116.196 260.665 429.742
2059 0 158.52 13.4999 2140 112.948 260.685 429.769
2060 0 159.349 11.8607 1890 117.733 260.802 427.439
2061 0 168.351 13.2759 2235 114.136 260.484 427.68
2062 0 172.482 11.9027 2053 119.001 260.926 424.295
2063 1 92.2937 11.225 1036 109.708 261.451 465.353
2064 0 94.3645 11.8053 1114 109.921 262.126 465.426
2065 0 98.4389 13.2265 1302 108.583 262.035 463.969
2066 0 102.629 12.4331 1276 110.421 261.991 462.212
2067 0 103.584 12.8977 1336 110.461 262.075 458.469
2068 0 105.542 11.6067 1225 113.267 262.011 456.989
2069 0 109.695 12.5803 1380 110.967 261.107 456.782
2070 0 114.756 13.5591 1556 110.141 260.862 452.485
2071 0 117.808 13.1909 1554 116.152 261.311 449.558
2072 0 120.723 12.9056 1558 118.096 261.397 444.989
2073 0 122.655 12.9143 1584 117.384 261.744 443.85
2074 0 128.673 13.4217 1727 116.084 261.823 442.79
2075 0 130.478 12.7072 1658 117.573 262.017 438.385
2076 0 137.697 13.5224 1862 115.244 262.086 435.006
2077 0 139.266 13.1116 1826 111.99 263.09 433.47
2078 0 143.284 12.2972 1762 114.922 262.566 436.528
2079 0 146.335 12.9292 1892 114.17 262.203 438.329
2080 0 152.277 14.2175 2165 109.223 262.432 436.136
2081 0 155.294 13.5034 2097 113.992 262.027 430.224
2082 1 71.0406 10.3462 735 111.551 263.125 473.497
2083 0 74.0782 11.4204 846 111.643 262.436 465.947
2084 0 76.172 12.498 952 108.73 261.652 466.996
2085 0 78.1165 12.1101 946 111.055 262.431 464.645
2086 0 81.1653 13.0967 1063 108.23 262.752 464.58
2087 0 83.257 12.2152 1017 111.101 262.807 462.798
2088 0 85.2971 12.1575 1037 112.349 262.076 458.879
2089 0 89.5565 12.7852 1145 110.995 261.54 460.217
2090 0 90.1899 11.7197 1057 112.481 262.691 467.427
2091 0 92.1546 10.8947 1004 116.65 262.264 464.573
2092 0 91.122 11.117 1013 119.15 262.567 455.834
2093 0 96.3273 10.9938 1059 118.874 261.997 457.503
2094 0 99.2533 12.5638 1247 115.195 261.427 453.745
2095 0 104.364 13.2996 1388 113.214 261.721 452.171
2096 0 103.396 13.3757 1383 115.39 261.779 450.009
2097 0 108.298 12.7426 1380 116.428 262.041 450.609
2098 0 107.23 13.7181 1471 115.972 262.133 450.232
2099 0 107.249 12.9885 1393 118.88 261.897 448.655
2100 0 111.207 12.9308 1438 119.839 261.591 446.757
2101 0 111.192 13.2743 1476 119.711 261.282 446.831
2102 0 112.41 12.6768 1425 121.543 261.347 446.96
2103 0 112.305 13.5256 1519 120.389 262.21 444.702
2104 0 112.344 12.4528 1399 124.846 261.534 445.821
2105 0 113.35 12.7305 1443 124.06 261.607 447.89
2106 0 114.244 13.0247 1488 123.097 261.713 443.956
2107 0 116.19 12.075 1403 126.262 261.375 444.255
2108 0 119.251 13.7609 1641 119.458 261.747 444.193
2109 0 120.342 13.3786 1610 120.173 261.804 443.177
2110 0 120.272 13.1951 1587 121.598 261.822 443.129
2111 0 118.417 12.6333 1496 124.398 262.107 440.491
2112 0 119.254 13.1317 1566 121.748 262.125 441.388
2113 0 120.243 13.4312 1615 120.766 261.866 442.562
2114 0 117.321 13.6549 1602 121.626 261.72 437.451
2115 0 120.228 13.7322 1651 120.472 262.353 441.275
2116 0 121.243 13.0564 1583 121.155 262.498 442.117
2117 0 119.228 12.9751 1547 121.9 262.234 438.68
2118 0 122.186 13.0211 1591 120.686 262.343 439.557
2119 0 121.184 12.9473 1569 121.486 261.839 440.191
2120 0 121.202 12.838 1556 121.296 262.142 441.454
2121 0 123.162 12.3739 1524 121.488 261.728 439.534
2122 0 121.25 12.3134 1493 122.093 262.242 436.5
2123 0 125.221 14.3187 1793 115.386 261.47 437.991
2124 0 126.237 13.8311 1746 116.517 261.127 439.514
2125 0 125.245 12.9745 1625 118.06 261.9 441.351
2126 0 123.233 12.9998 1602 118.866 261.386 436.464
2127 0 125.242 13.0707 1637 117.833 260.871 439.005
2128 0 123.251 12.7058 1566 119.246 261.082 436.634
2129 0 123.22 13.7559 1695 115.466 261.142 439.636
2130 0 123.157 13.4544 1657 116.578 261.177 435.533
2131 0 125.195 13.3951 1677 115.145 260.943 440.199
2132 0 125.157 12.5602 1572 118.272 260.92 437.558
2133 0 125.218 12.2666 1536 119.302 260.852 438.826
2134 0 124.201 13.1158 1629 117.118 260.7 438.171
2135 0 124.257 12.0557 1498 119.493 260.662 438.886
2136 0 125.155 12.6643 1585 117.312 260.617 438.879
2137 0 123.305 11.4188 1408 121.1 261.329 439.504
2138 0 122.152 11.7313 1433 120.555 261.17 435.328
2139 0 124.33 12.3783 1539 117.606 260.899 438.679
2140 0 123.285 11.226 1384 120.211 261.446 438.708
2141 0 127.177 11.7788 1498 117.503 261.181 437.774
2142 0 126.17 11.1991 1413 119.636 261.2 435.387
2143 0 128.231 14.3179 1836 110.199 261.194 432.743
2144 0 128.26 13.6597 1752 111.491 260.932 432.106
2145 0 126.141 12.383 1562 115.161 260.685 432.59
2146 0 124.257 12.2247 1519 115.68 260.692 430.618
2147 0 125.182 12.6695 1586 114.159 260.958 434.433
2148 0 126.174 12.2054 1540 114.342 261.277 433.643
2149 0 128.183 13.2467 1698 112.288 260.6 435.672
2150 0 125.308 12.9521 1623 115.453 260.903 436.914
2151 0 123.165 12.4549 1534 117.474 260.653 435.26
2152 0 126.151 12.4771 1574 115.565 261.017 435.681
2153 0 123.213 11.5978 1429 118.027 261.09 434.672
2154 0 124.276 11.3216 1407 117.359 261.085 436.531
2155 0 122.242 11.2727 1378 118.245 261.226 436.289
2156 0 123.217 9.536 1175 120.255 261.151 438.008
2157 0 122.214 9.30338 1137 120.755 261.376 437.792
2158 0 125.182 12.0465 1508 114.565 261.513 437.843
2159 0 124.089 11.4192 1417 115.365 261.462 437.646
2160 0 124.24 11.6146 1443 115.223 261.711 433.723
2161 0 124.127 11.5769 1437 113.649 261.957 436.729
2162 0 124.223 11.5679 1437 113.445 261.846 436.77
2163 0 125.185 11.8865 1488 113.091 260.641 433.242
2164 0 125.187 11.319 1417 113.59 261.328 434.159
2165 0 125.179 10.7207 1342 115.125 260.94 437.915
2166 0 125.15 10.7551 1346 115.466 260.74 436.224
2167 0 126.272 11.0634 1397 114.839 260.818 438.738
2168 0 124.207 11.1749 1388 116.837 260.744 433.373
2169 0 126.267 10.6204 1341 116.634 261.083 440.046
2170 0 125.253 12.4469 1559 113.608 260.678 438.042
2171 0 125.19 12.2054 1528 113.272 261.035 437.822
2172 0 123.323 12.147 1498 114.266 261.125 434.577
2173 0 122.218 11.7904 1441 113.954 261.108 439.316
2174 0 122.167 10.502 1283 116.393 261.052 436.104
2175 0 123.226 11.2638 1388 114.392 260.839 437.36
2176 0 123.181 11.1624 1375 114.694 260.669 435.995
2177 0 125.352 10.7776 1351 114.329 261.182 437.5
2178 0 125.239 13.0311 1632 109.864 260.631 434.586
2179 0 125.213 11.4525 1434 113.031 260.991 433.85
2180 0 125.257 10.8098 1354 112.847 261.546 436.596
2181 0 124.188 11.3135 1405 112.849 261.44 433.248
2182 0 124.267 11.2016 1392 112.042 260.691 435.658
2183 0 127.206 12.0277 1530 108.259 261.02 439.516
2184 0 122.222 10.5955 1295 111.572 261.146 435.28
2185 0 125.137 11.843 1482 108.63 260.841 436.018
2186 0 126.202 12.1235 1530 108.286 260.706 436.334
2187 0 124.144 10.7215 1331 112.345 261.257 435.884
2188 0 126.171 12.1185 1529 109.555 260.705 437.961
2189 0 125.176 12.3506 1546 108.97 260.975 438.618
2190 0 126.25 12.2851 1551 110.401 260.925 436.234
2191 0 123.112 10.6651 1313 113.816 261.069 435.538
2192 0 123.276 11.6568 1437 111.332 260.722 433.02
2193 0 124.143 12.7353 1581 108.369 260.642 436.098
2194 0 125.213 11.1969 1402 110.863 260.65 434.636
2195 0 123.264 11.5281 1421 110.26 260.811 434.429
2196 0 127.269 11.7389 1494 109.653 261.154 434.072
2197 0 124.359 10.5984 1318 112.966 260.907 433.454
2198 0 126.319 12.5397 1584 109.208 260.268 431.458
2199 0 122.184 11.2862 1379 111.817 260.515 433.326
2200 0 123.29 10.601 1307 111.842 261.717 435.07
2201 0 125.308 11.5556 1448 108.812 261.123 439.541
2202 0 127.216 12.129 1543 108.065 261.218 436.978
