time division length width area intensity CMx CMy
0 0 55.1021 13.3752 737 159.195 726.607 476.008
1 0 55.0515 13.224 728 161.419 727.391 474.549
2 0 59.1256 14.7314 871 151.701 727.925 473.71
3 0 59.0506 13.4292 793 156.223 728.096 473.038
4 0 62.0287 13.3487 828 153.686 729.272 472.986
5 0 63.0847 13.1252 828 155.905 729.35 471.141
6 0 64.0477 13.8491 887 152.276 729.284 472.418
7 0 67.113 14.3936 966 147.246 728.464 471.487
8 0 68.0508 13.5781 924 149.333 727.975 471.15
9 1 33.0082 12.2394 404 146.354 727.171 488.136
10 0 34.084 11.2369 383 150.394 727.791 487.775
11 0 35.0259 12.6478 443 144.524 727.876 487.763
12 0 35.0838 11.7148 411 144.827 727.569 487.796
13 0 36.0141 12.384 446 141.365 727.693 487.215
14 0 38.1082 14.144 539 132.468 727.089 486.469
15 0 39.0265 13.0937 511 137.613 726.918 487.029
16 0 39.0269 13.4522 525 138.358 727.145 487.413
17 0 40.0129 12.8459 514 140.426 726.944 487.486
18 0 43.0204 13.7144 590 135.832 726.195 486.897
19 0 43.0551 13.2621 571 138.364 726.856 487.394
20 0 47.0913 13.2084 622 136.833 726.463 485.971
21 0 46.0107 13.9533 642 139.134 725.547 484.625
22 0 47.037 14.8819 700 136.569 725.444 485.816
23 0 48.0192 14.8691 714 136.794 725.147 485.021
24 0 49.0779 15.1188 742 136.451 725.255 484.398
25 0 50.0391 14.3288 717 137.227 725.325 484.902
26 0 54.0145 14.9034 805 134.436 724.776 482.352
27 0 55.1072 15.3156 844 132.877 725.089 482.2
28 0 57.0381 15.7965 901 131.092 725.152 481.02
29 0 59.0411 15.5993 921 132.49 724.606 480.719
30 0 58.0818 14.7723 858 137.143 724.51 481.571
31 0 59.0804 13.744 812 139.932 724.103 480.84
32 0 63.033 14.9604 943 136.162 724.084 477.908
33 0 63.1085 14.3721 907 136.938 723.762 479.839
34 0 66.1067 14.6732 970 136.105 723.71 478.194
35 0 69.1482 14.5918 1009 135.763 723.852 475.663
36 0 70.1826 14.0206 984 138.547 724.037 475.604
37 0 72.0605 14.2797 1029 138.402 723.553 475.687
38 0 76.0339 14.9933 1140 135.634 723.713 472.225
39 0 78.1144 14.7476 1152 137.095 723.68 470.613
40 0 81.0941 14.6003 1184 137.217 723.923 471.132
41 0 83.1051 15.0773 1253 136.863 724.126 469.429
42 0 83.1384 14.109 1173 140.309 723.743 468.76
43 0 87.0814 14.1017 1228 140.494 723.646 466.932
44 0 91.0776 15.3825 1401 136.192 723.386 465.359
45 0 92.0766 14.716 1355 137.283 723.377 463.81
46 0 100.144 15.2081 1523 131.2 723.001 463.276
47 0 101.106 15.093 1526 131.143 722.588 459.175
48 0 107.08 15.465 1656 129.199 722.862 457.459
49 0 110.15 14.7344 1623 130.772 723.461 454.54
50 0 115.104 14.3523 1652 134.55 723.272 454.744
51 1 63.0703 13.3978 845 133.908 723.2 481.583
52 0 65.0993 13.0723 851 135.651 722.751 478.718
53 0 68.0453 14.4022 980 130.938 723.815 479.382
54 0 70.0757 15.7259 1102 126.764 723.785 478.251
55 0 73.1098 13.6644 999 133.119 723.538 475.796
56 0 78.0655 15.5511 1214 126.546 723.595 476.166
57 0 78.0963 14.5333 1135 131.658 724.465 474.742
58 0 79.0704 13.4058 1060 136.389 723.603 473.994
59 0 85.0803 14.7625 1256 131.511 723.643 472.496
60 0 88.0639 15.0913 1329 130.875 723.321 469.522
61 0 90.1205 14.181 1278 132.937 723.412 470.203
62 0 94.1366 15.1269 1424 131.188 723.878 465.261
63 0 97.0834 15.6566 1520 129.859 724.238 465.442
64 0 100.222 14.8869 1492 133.308 723.804 462.979
65 0 104.08 14.2198 1480 143.368 723.598 460.295
66 1 54.0242 13.494 729 134.033 722.889 487.364
67 0 56.1387 12.8076 719 136.994 722.866 484.705
68 0 56.0802 12.7318 714 128.363 723.132 481.648
69 0 59.0922 13.4366 794 127.195 722.285 485.79
70 0 59.0719 13.2889 785 129.01 722.222 482.911
71 0 63.0662 13.2083 833 128.078 722.322 482.396
72 0 66.077 14.3469 948 124.755 722.253 481.778
73 0 70.1 14.2225 997 123.79 722.25 481.204
74 0 70.1199 13.263 930 127.115 722.213 480.224
75 0 76.1337 13.9623 1063 123.763 722.218 478.56
76 0 77.0708 14.5191 1119 124.438 722.618 475.791
77 0 79.0684 14.127 1117 124.743 722.864 476.637
78 0 80.0633 13.6267 1091 126.792 722.752 474.118
79 0 85.096 13.6317 1160 126.517 723.589 471.998
80 0 88.0548 14.1503 1246 125.419 723.159 472.511
81 0 88.1472 13.2846 1171 128.643 723.465 470.781
82 0 93.0379 14.5532 1354 123.882 722.836 470.159
83 0 99.1344 14.1222 1400 123.06 723.791 465.815
84 0 100.155 13.9284 1395 125.692 722.725 465.427
85 0 105.162 14.3208 1506 124.055 723.054 463.824
86 0 105.077 13.7993 1450 125.539 722.203 464.217
87 0 111.106 14.1306 1570 125.685 722.769 459.218
88 1 55.0671 11.2953 622 125.543 721.404 487.849
89 0 56.0285 11.9939 672 125.254 721.097 486.44
90 0 59.1181 12.8725 761 120.905 720.284 484.064
91 0 62.0824 12.8539 798 120.523 720.107 483.977
92 0 63.0965 12.8058 808 121.149 722.176 483.995
93 0 66.0996 12.8594 850 120.76 721.294 483.382
94 0 65.0633 11.9422 777 124.34 721.254 481.596
95 0 71.1359 12.6518 900 120.968 721.638 481.276
96 0 73.098 13.3519 976 119.37 721.831 478.873
97 0 74.107 12.6844 940 121.498 721.227 478.319
98 0 76.2812 13.4109 1023 120.494 721.717 476.569
99 0 79.052 12.8017 1012 122.412 721.852 476.211
100 0 81.2198 12.6324 1026 123.599 722.373 476.947
101 0 83.2553 12.7559 1062 122.718 721.391 472.108
102 0 87.1359 13.2781 1157 120.562 721.625 471.952
103 0 91.098 13.9191 1268 118.885 721.944 469.087
104 0 92.1349 13.871 1278 122.098 721.311 467.744
105 0 98.2628 13.4537 1322 122.25 720.92 467.43
106 0 103.246 14.5187 1499 123.212 721.139 465.098
107 0 104.234 13.959 1455 124.806 720.522 463.006
108 0 108.28 12.5693 1361 125.166 720.768 463.849
109 0 113.346 12.5721 1425 125.039 720.542 460.995
110 0 116.267 13.4002 1558 127.427 720.807 457.099
111 1 63.2625 12.3454 781 124.093 720.598 483.515
112 0 66.3149 12.893 855 122.481 721.05 483.08
113 0 66.2101 12.7473 844 126.331 720.313 481.076
114 0 69.1155 13.0362 901 123.946 721.69 480.978
115 0 69.1309 12.1798 842 128.895 721.859 480.236
116 0 72.2386 12.0573 871 129.181 721.738 478.303
117 0 74.2118 13.3133 988 127.033 721.897 476.805
118 0 77.2009 13.303 1027 126.966 721.647 473.406
119 0 80.1065 12.7206 1019 128.9 722.472 474.176
120 0 84.298 13.4997 1138 126.041 721.301 472.353
121 0 84.2004 12.304 1036 130.154 720.918 471.458
122 0 87.269 13.8308 1207 127.148 721.016 470.321
123 0 90.3439 13.2162 1194 127.209 720.402 468.636
124 0 94.3251 13.7185 1294 122.696 721.124 467.437
125 0 97.5833 14.0393 1370 124.469 720.506 465.838
126 0 99.3897 13.3112 1323 128.026 720.101 461.913
127 0 103.395 13.1438 1359 126.363 720.482 462.08
128 0 106.514 12.1299 1292 129.053 720.098 460.494
129 1 57.1321 11.4121 652 123.656 721.31 483.859
130 0 60.1088 12.9931 781 118.47 722.174 483.519
131 0 59.0942 10.7286 634 112.801 721.852 486.55
132 0 62.1376 12.3597 768 108.327 721.974 484.715
133 0 63.091 10.5562 666 112.829 721.923 483.577
134 0 64.1405 11.1318 714 110.856 721.829 481.896
135 0 67.2582 11.7012 787 110.141 720.961 478.442
136 0 70.1133 9.98385 700 110.753 721.721 482.111
137 0 73.1336 12.1148 886 107.652 721.414 477.609
138 0 75.0709 10.9363 821 108.022 721.604 477.748
139 0 79.2401 10.7269 850 107.452 721.653 476.858
140 0 80.0716 11.4148 914 106.774 722.267 472.289
141 0 85.1471 11.1337 948 105.209 721.963 474.757
142 0 87.1214 10.2501 893 107.634 721.568 472.031
143 0 92.1732 11.0227 1016 107.413 720.776 467.596
144 0 96.0869 12.2285 1175 105.865 721.249 465.764
145 1 51.0376 9.69874 495 104.487 722.083 489.907
146 0 53.17 10.5134 559 104.964 720.519 485.324
147 0 58.0879 11.3277 658 100.213 720.35 486.362
148 0 58.1333 12.1789 708 98.4718 719.976 484.202
149 0 59.1807 11.5071 681 99.2379 719.645 482.797
150 0 61.1566 11.397 697 99.4448 720.128 481.628
151 0 64.1659 11.5014 738 98.3306 720.041 481.636
152 0 65.1434 11.206 730 99.0247 720.449 479.87
153 0 69.1363 11.6147 803 97.7758 720.447 481.11
154 0 69.0632 11.294 780 99.8526 720.554 477.232
155 0 72.1608 11.7931 851 100.098 720.84 475.202
156 0 71.1473 10.7383 764 107.305 720.491 473.592
157 0 70.1132 9.38483 658 110.457 721.731 474.603
158 0 78.1942 11.0622 865 107.216 720.949 471.932
159 0 83.2589 11.7225 976 105.709 721.671 470.765
160 0 84.4414 10.1372 856 109.689 722.246 470.772
161 0 89.4995 11.3632 1017 107.373 721.811 465.567
162 1 43.1909 10.3494 447 102.541 721.492 489.098
163 0 43.3786 8.48344 368 106.717 721.962 488.476
164 0 45.2203 10.1282 458 103.454 722.559 488.052
165 0 50.2146 12.586 632 98.1028 721.829 487.813
166 0 51.2823 12.324 632 104.241 721.741 486.644
167 0 52.1478 11.4866 599 110.893 721.147 486.022
168 0 54.2409 11.8177 641 108.899 721.412 486.582
169 0 54.2541 10.672 579 113.737 721.87 485.074
170 0 58.2553 11.8101 688 110.105 722.254 484.897
171 0 59.2491 11.612 688 109.567 722.932 484.166
172 0 61.2548 11.5093 705 110.142 722.126 482.827
173 0 62.2612 11.3072 704 109.626 722.294 482.263
174 0 66.2991 11.7196 777 107.855 722.228 481.009
175 0 66.4119 12.3773 822 106.459 722.873 480.208
176 0 69.3146 12.638 876 104.942 722.671 479.275
177 0 70.2075 11.6512 818 105.782 722.388 478.247
178 0 73.2112 10.217 748 106.96 722.977 478.437
179 0 77.1393 11.369 877 105.448 722.267 475.399
180 0 77.1885 10.4679 808 107.922 722.235 474.026
181 0 81.091 11.3453 920 105.47 722.754 471.504
182 0 85.143 12.2735 1045 102.445 722.861 469.856
183 0 88.1544 11.8542 1045 103.343 721.872 469.495
184 0 89.1558 13.2016 1177 102.241 721.709 466.839
185 0 91.0579 12.5415 1142 104.952 721.761 462.315
186 0 96.113 13.0784 1257 103.849 721.68 463.97
187 0 98.238 13.0398 1281 105.883 721.655 462.512
188 0 101.252 13.3133 1348 106.349 722.128 460.053
189 0 102.22 13.2166 1351 106.558 721.809 459.631
190 0 107.348 11.6164 1247 109.662 721.708 458.35
191 0 109.48 13.2901 1455 107.397 721.614 454.456
192 0 113.376 12.2337 1387 109.247 721.818 456.484
193 0 115.339 13.3953 1545 107.263 721.874 454.986
194 0 121.465 12.8268 1558 108.964 721.465 450.033
195 0 123.436 11.9577 1476 111.008 721.831 447.571
196 0 129.375 13.1632 1703 109.353 721.889 446.705
197 1 70.193 12.5938 884 103.6 722.374 473.267
198 0 73.1358 11.9777 876 110.16 722.537 473.934
199 0 75.0577 10.845 814 109.27 722.279 473.507
200 0 76.0281 11.5352 877 109.205 722.116 471.792
201 0 80.0676 13.3137 1066 106.087 720.696 471.044
202 0 83.0654 13.3028 1105 106.506 721.055 470.36
203 0 85.1055 12.7136 1082 109.417 721.143 468.182
204 0 87.1313 11.6032 1011 111.798 721.032 469.226
205 0 90.0912 11.999 1081 112.251 721.328 466.144
206 0 94.1964 12.8137 1207 111.128 721.769 461.999
207 0 98.2712 13.7273 1349 109.44 721.999 460.09
208 0 98.3024 12.9803 1276 111.445 721.607 457.71
209 0 102.378 13.5673 1389 108.788 721.719 460.307
210 0 106.333 12.9123 1373 111.955 722.173 456.998
211 0 108.37 12.891 1397 113.284 722.042 453.56
212 0 112.295 13.6338 1531 111.476 722.227 454.069
213 0 117.482 14.1128 1658 111.248 721.797 449.04
214 0 122.33 13.0958 1602 112.541 721.781 447.766
215 1 65.1332 12.4053 808 102.774 722.874 479.255
216 0 63.1125 12.0103 758 106.464 722.21 480.33
217 0 66.091 12.5584 830 105.702 721.904 478.141
218 0 70.134 13.4172 941 103.478 721.735 477.232
219 0 71.0591 12.7359 905 105.917 721.662 475.251
220 0 73.1353 12.7982 936 106.344 721.561 476.503
221 0 76.0779 14.472 1101 103.618 721.535 474.114
222 0 77.0508 13.3808 1031 108.5 720.728 472.556
223 0 80.0644 13.2893 1064 109.122 720.641 471.086
224 0 83.114 12.9461 1076 109.764 721.267 469.253
225 0 86.1348 13.0377 1123 110.341 721.28 469.487
226 0 89.211 12.8011 1142 111.083 721.841 466.581
227 0 89.0703 12.1365 1081 113.825 721.168 463.811
228 0 94.0818 12.521 1178 112.252 720.735 463.297
229 0 98.2076 12.8401 1261 111.109 721.623 462.841
230 0 100.164 13.5878 1361 110.866 721.338 458.419
231 0 104.176 13.7652 1434 110.033 721.751 456.628
232 1 53.0574 9.91379 526 110.213 722.949 483.487
233 0 56.1652 12.1962 685 104.283 722.921 481.165
234 0 58.1809 11.6705 679 105.901 722.797 479.738
235 0 59.052 10.9564 647 107.688 721.66 481.801
236 0 60.0207 11.596 696 107.514 721.902 483.602
237 0 63.0502 11.245 709 109.358 721.367 479.295
238 0 64.0392 12.2581 785 108.655 720.768 478.073
239 0 66.0328 11.1308 735 110.521 721.63 477.913
240 0 70.1055 11.9677 839 109.304 721.057 477.822
241 0 72.1143 11.9255 860 110.873 720.749 475.122
242 0 74.1051 11.7536 871 110.743 720.58 475.706
243 0 75.1439 12.2831 923 111.904 720.795 472.635
244 0 77.028 10.1781 784 114.99 720.634 474.088
245 0 80.0907 11.8865 952 111.56 721.513 471.203
246 0 84.0748 11.6087 976 112.524 721.861 470.844
247 0 86.0983 12.207 1051 112.166 722.097 468.474
248 0 90.0764 13.1777 1187 110.151 722.572 466.284
249 0 91.1194 11.1063 1012 114.397 722.259 465.13
250 0 96.1856 12.1432 1168 113.781 722.372 465.207
251 1 53.1781 10.8879 579 110.01 721.361 486.615
252 0 51.1817 10.2185 523 109.998 719.553 482.648
253 0 52.0543 10.8156 563 110.007 721.817 485.147
254 0 55.035 11.102 611 107.956 722.191 486.658
255 0 57.0109 10.8576 619 108.226 722.016 486.152
256 0 59.066 11.0724 654 107.498 721.388 484.05
257 0 61.0345 11.1576 681 109.865 721.206 481.863
258 0 63.0399 12.5 788 107.07 721.802 479.819
259 0 63.0288 12.2325 771 108.329 721.553 480.498
260 0 65.0524 11.9288 776 109.909 721.698 478.052
261 0 67.156 11.4212 767 109.213 721.741 476.81
262 0 71.1519 11.7355 835 106.331 720.315 476.547
263 0 73.1479 12.3038 900 105.612 720.812 474.1
264 0 74.1674 11.2179 832 108.614 720.269 473.492
265 0 77.1028 12.2823 947 105.675 720.229 472.355
266 0 80.121 12.7682 1023 104.081 720.008 471.679
267 0 84.2503 12.5697 1059 105.501 720.653 470.188
268 0 85.2055 11.7481 1001 108.609 720.33 467.892
269 0 88.2566 12.2144 1078 107.169 720.439 469.597
270 1 45.3192 10.3929 471 102.843 721.214 489.07
271 0 45.2627 11.0908 502 96.6195 723.022 485.962
272 0 47.1083 12.2484 577 95.9896 722.7 487.312
273 0 48.051 11.3005 543 97.1694 719.285 486.425
274 0 50.026 11.4141 571 97.0648 719.736 489.014
275 0 52.0403 12.2982 640 95.2422 719.402 488.234
276 0 51.0344 10.248 523 102.298 719.092 488.56
277 0 55.0296 12.5205 689 96.9086 719.968 486.27
278 0 53.0705 11.7768 625 100.478 719.776 485.134
279 0 53.0682 11.6077 616 102.07 720.576 486.073
280 0 57.1141 11.4508 654 101.78 720.63 484.18
281 0 57.1197 10.9244 624 103.131 720.035 483.788
282 0 56.1497 8.5842 482 108.293 719.809 483.035
283 0 61.1546 11.381 696 102.397 720.249 482.216
284 0 63.1242 11.6912 738 102.909 720.364 479.885
285 0 66.0963 11.2563 744 104.36 720.16 478.516
286 0 68.088 11.162 760 104.862 721.021 479.48
287 0 72.1973 12.8952 931 100.713 721.037 475.755
288 0 74.0983 11.6737 865 104.09 720.854 476.076
289 0 78.0481 12.6589 988 103.128 721.476 474.457
290 1 41.0732 10.0309 412 105.687 721.405 491.005
291 0 41.0759 9.90847 407 105.511 721.01 491.803
292 0 43.049 10.2209 440 103.923 720.666 489.17
293 0 48.2079 10.9318 527 103.565 720.634 489.882
294 0 49.1543 11.9827 589 101.708 720.005 490.107
295 0 50.139 12.5252 628 100.632 720.457 489.712
296 0 50.1603 11.7025 587 104.617 720.559 488.172
297 0 53.0466 11.9518 634 104.677 720.134 487.519
298 0 55.1205 13.0441 719 101.679 720.463 486.861
299 0 54.122 10.9937 595 107.618 719.684 486.393
300 0 57.1165 13.1486 751 103.016 719.715 485.477
301 0 58.0439 13.0419 757 103.399 719.505 485.322
302 0 60.1777 13.9919 842 102.778 720.099 483.053
303 0 63.1303 12.6089 796 104.913 720.143 483.608
304 0 62.1387 12.7618 793 107.125 720.096 481.456
305 0 65.1072 14.2381 927 104.599 720.41 481.092
306 0 67.1199 13.8707 931 105.134 720.173 479.946
307 0 69.2331 13.5773 940 106.862 721.374 477.651
308 0 72.2225 14.5938 1054 105.284 720.41 479.309
309 0 75.1661 15.499 1165 103.236 721.019 477.705
310 0 75.2393 13.1314 988 110.358 720.815 475.852
311 0 79.4349 13.6716 1086 109.396 720.547 475.135
312 0 81.2446 13.5024 1097 109.69 721.512 473.486
313 1 42.1135 11.3265 477 108.86 721.556 494.279
314 0 43.3307 11.7007 507 109.84 721.671 492.282
315 0 45.0671 12.67 571 104.226 721.049 491.41
316 0 46.0214 12.3638 569 105.958 722.148 491.306
317 0 47.0362 12.8199 603 105.521 721.579 491.041
318 0 50.0355 13.5504 678 103.882 721.73 490.832
319 0 50.1398 12.505 627 108.506 721.443 489.662
320 0 51.0449 13.1845 673 106.737 721.926 488.361
321 0 54.113 14.6545 793 103.513 721.858 489.084
322 0 55.0142 14.0327 772 105.991 721.61 486.598
323 0 55.0764 13.2362 729 108.781 722.169 487.752
324 0 58.0302 13.6653 793 107.805 721.499 487.233
325 0 58.0762 13.3618 776 110.97 720.718 485.746
326 0 60.078 12.5504 754 110.76 720.757 483.893
327 0 64.1201 12.9757 832 109.8 720.569 481.088
328 0 66.0991 13.9034 919 107.192 720.865 481.602
329 0 69.1249 14.2785 987 105.041 721.297 481.528
330 0 70.1513 14.0411 985 106.843 721.461 479.477
331 0 73.1296 13.9068 1017 106.191 721.295 479.348
332 0 74.144 14.337 1063 106.233 720.56 476.654
333 0 78.0729 13.5258 1056 107.27 720.191 475.67
334 0 80.1514 12.7384 1021 108.199 720.669 475.373
335 0 84.1056 13.2452 1114 106.176 720.031 473.964
336 0 86.2195 13.8832 1197 105.796 719.85 470.604
337 0 88.0594 12.8663 1133 108.814 720.137 471.23
338 0 91.1109 12.161 1108 110.069 719.581 468.968
339 0 95.21 13.2759 1264 107.135 719.945 467.167
340 1 43.0234 10.9475 471 111.047 719.331 491.437
341 0 46.0726 12.502 576 108.339 719.302 490.149
342 0 48.0501 12.8616 618 106.655 720.379 489.864
343 0 50.0159 11.0365 552 111.192 720.324 488.632
344 0 51.1086 13.4224 686 105.56 719.662 490.131
345 0 54.0251 13.7529 743 103.606 719.672 490.105
346 0 53.0581 12.4015 658 109.465 719.915 486.954
347 0 57.0768 13.5607 774 106.198 720.214 487.32
348 0 57.096 12.8731 735 110.882 720.086 485.295
349 0 60.0278 13.4271 806 108.54 720.636 485.205
350 0 61.0853 13.4566 822 109.628 720.704 483.584
351 0 62.0979 13.7686 855 109.223 720.133 483.991
352 0 65.0918 12.7205 828 112.426 719.838 483.278
353 0 67.0453 14.0353 941 111.164 720.052 480.965
354 0 69.068 15.0721 1041 108.552 720.035 480.37
355 0 72.051 15.4751 1115 107.312 719.816 478.909
356 0 74.0709 14.4051 1067 111.165 719.545 478.055
357 0 76.0738 14.0127 1066 112.063 719.937 477.34
358 0 80.0741 14.3118 1146 111.652 719.947 475.253
359 0 81.1117 13.6972 1111 113.81 720.334 474.204
360 0 82.1233 13.7841 1132 115.473 720.216 473.661
361 0 86.2992 13.8704 1197 114.376 720.633 474.122
362 0 88.1069 14.4597 1274 114.288 720.932 470.261
363 0 90.1369 14.6666 1322 115.029 720.949 471.238
364 0 93.1646 13.6962 1276 118.151 720.927 469.416
365 0 97.2184 14.2463 1385 116.726 721.422 467.475
366 0 99.0936 14.3702 1424 116.901 721.086 465.39
367 0 105.191 14.4118 1516 116.582 721.373 463.443
368 0 107.328 14.2182 1526 121.37 721.59 459.655
369 1 55.0603 12.114 667 116.081 720.297 487.543
370 0 56.0328 11.5468 647 114.702 721.849 488.496
371 0 58.145 12.6236 734 114.324 720.732 485.266
372 0 59.1091 13.0098 769 115.674 720.113 484.272
373 0 61.0705 12.9031 788 115.651 720.775 484.383
374 0 64.1119 13.1489 843 114.945 720.471 484.254
375 0 66.1244 14.2912 945 114.538 720.592 481.923
376 0 68.135 13.0183 887 117.202 720.569 482.555
377 0 72.1167 13.4782 972 116.912 720.109 481.032
378 0 74.0964 14.8725 1102 113.72 720.544 478.142
379 0 75.1165 13.1795 990 119.132 719.908 476.636
380 0 78.1517 12.9492 1012 119.467 720.258 476.762
381 0 81.1118 13.056 1059 119.142 720.062 475.433
382 0 84.1725 14.7435 1241 116.765 719.118 472.9
383 0 88.0996 13.8934 1224 118.753 719.954 471.636
384 0 90.108 13.2397 1193 121.482 720.058 469.255
385 0 93.1408 14.0755 1311 119.725 720.292 468.167
386 0 96.0557 13.6171 1308 120.36 720.722 469.589
387 0 102.122 16.1865 1653 112.297 720.433 467.064
388 1 52.1088 11.7638 613 116.608 720.481 484.825
389 0 55.1342 11.8075 651 114.157 721.419 483.167
390 0 55.0778 10.5669 582 110.229 720.055 485.936
391 0 56.0387 10.689 599 110.097 720.284 485.316
392 0 57.0853 9.84491 562 111.52 720.406 484.957
393 0 59.1597 10.8689 643 110.403 720.302 482.76
394 0 62.1385 11.3617 706 110.492 720.143 479.633
395 0 64.1906 11.2478 722 110.582 720.334 479.95
396 0 66.0425 12.4617 823 108.747 720.414 479.29
397 0 68.0837 12.749 868 107.289 720.608 480.174
398 0 72.1304 12.214 881 110.112 721.251 476.339
399 0 74.1036 10.9846 814 110.774 721.407 476.865
400 0 77.121 10.8012 833 111.636 721.367 474.824
401 0 79.1111 11.2247 888 110.55 721.239 474.572
402 0 80.1514 11.3161 907 113.095 722.337 471.071
403 0 86.2541 11.2922 974 114.051 721.875 467.923
404 0 87.1788 10.9545 955 115.221 721.953 466.262
405 1 49.1963 10.4276 513 107.076 722.832 486.891
406 0 50.0841 12.0198 602 110.179 722.429 483.65
407 0 52.105 11.4001 594 104.611 721.795 487.52
408 0 53.0515 12.403 658 112.152 722.989 490.044
409 0 55.0679 13.4198 739 108.541 722.835 488.858
410 0 57.043 11.8858 678 112.445 722.951 485.867
411 0 59.1266 13.0229 770 109.481 722.153 486.038
412 0 60.1176 12.9247 777 110.389 722.349 484.792
413 0 63.091 12.0302 759 111.455 721.993 482.642
414 0 66.0853 12.4687 824 109.465 721.803 481.938
415 0 68.0933 12.5269 853 109.025 722.476 481.254
416 0 72.0957 12.8995 930 107.26 721.851 481.13
417 0 73.0452 11.8283 864 110.984 722.562 479.068
418 0 76.1412 12.8446 978 108.048 722.429 478.615
419 0 80.1617 12.9239 1036 108.072 722.742 476.689
420 0 83.1125 12.826 1066 109.7 722.494 474.917
421 0 85.1918 12.1491 1035 108.613 721.228 471.807
422 0 88.2515 12.0111 1060 111.174 721.582 470.61
423 0 92.1001 11.8892 1095 111.393 722.149 470.239
424 1 47.0234 12.4619 586 103.826 722.44 492.254
425 0 49.0394 11.1951 549 106.337 722.499 491.982
426 0 50.0382 12.6303 632 102.964 722.56 489.983
427 0 52.084 12.4223 647 103.315 722.218 489.59
428 0 54.0782 12.4449 673 103.218 721.929 489.328
429 0 55.047 12.0988 666 104.691 722.757 487.836
430 0 56.1201 12.9722 728 102.654 722.769 485.659
431 0 57.15 12.6334 722 103.504 722.679 486.654
432 0 60.1317 12.007 722 103.907 722.971 484.683
433 0 61.1175 12.206 746 103.424 722.413 484.818
434 0 64.1594 12.1728 781 103.657 722.542 483.383
435 0 66.1336 12.0211 795 103.326 722.382 482.995
436 0 69.1369 11.8605 820 103.143 722.83 479.765
437 0 71.1838 11.8285 842 102.501 722.885 480.716
438 0 72.1736 12.1236 875 102.687 722.498 477.497
439 0 75.1191 11.129 836 104.894 722.323 475.688
440 0 79.1483 12.9756 1027 100.363 722.839 474.98
441 0 82.057 11.9917 984 102.593 723.141 475.422
442 0 85.1757 12.3157 1049 102.398 722.904 474.173
443 1 43.0195 11.5296 496 103.766 723.042 495.411
444 0 43.0703 11.3303 488 104.779 722.418 495.133
445 0 44.0457 12.1011 533 102.816 723.437 493.336
446 0 45.0169 11.9289 537 104.473 722.996 491.838
447 0 45.0116 11.7303 528 106.434 723.42 492.956
448 0 50.0639 12.2843 615 103.457 723.483 492.348
449 0 48.0781 11.6477 560 107.688 723.102 487.538
450 0 51.0523 12.4578 636 105.965 722.814 489.179
451 0 52.0653 12.7724 665 105.474 722.746 488.323
452 0 52.0495 12.1231 631 108.962 722.58 489.602
453 0 55.1026 11.6691 643 109.883 722.655 485.695
454 0 57.0436 14.5152 828 103.153 722.664 486.208
455 0 59.1049 13.2815 785 106.392 723.048 486.422
456 0 59.1051 12.4186 734 110.091 722.974 485.275
457 0 61.1222 12.6959 776 107.888 722.814 485.322
458 0 63.0898 12.9498 817 108.573 722.542 482.684
459 0 63.1126 12.8817 813 109.768 722.31 482.663
460 0 68.1307 13.0925 892 108.065 722.908 481.494
461 0 69.1247 12.9332 894 108.527 722.079 480.609
462 0 71.0807 13.2807 944 108.192 722.378 479.531
463 0 74.1475 13.7968 1023 106.336 722.243 479.379
464 0 75.0722 12.2549 920 109.927 721.475 477.061
465 0 78.1325 12.3636 966 109.171 719.685 478.366
466 0 81.0977 14.2174 1153 105.605 720.77 475.262
467 0 83.1039 12.8153 1065 108.767 720.427 474.192
468 0 86.1317 12.8524 1107 107.745 719.579 473.404
469 0 88.0923 12.5323 1104 108.702 720.228 472.709
470 0 92.1622 11.5123 1061 109.669 719.981 472.64
471 1 49.0386 12.3168 604 109.656 719.788 490.526
472 0 53.0163 12.7131 674 110.414 719.009 488.663
473 0 52.0959 12.5922 656 106.668 719.407 489.668
474 0 54.0692 13.1683 712 105.567 719.978 489.628
475 0 55.0441 13.2621 730 105.678 720.504 488.781
476 0 57.2227 12.7048 727 107.135 720.59 487.232
477 0 60.0384 14.0244 842 104.23 720.433 485.444
478 0 62.0855 13.5136 839 105.074 720.321 484.48
479 0 62.0485 12.6353 784 108.869 721.084 483.115
480 0 66.0456 14.1872 937 104.636 720.432 485.344
481 0 66.1795 13.8714 918 107.724 720.512 481.312
482 0 69.0625 13.133 907 108.925 720.546 482.03
483 0 75.0564 13.8562 1040 106.153 720.17 481.694
484 0 76.081 14.3268 1090 106.587 720.53 478.364
485 0 79.137 13.6219 1078 108.288 719.731 478.081
486 0 80.0928 13.3345 1068 110.783 720.481 476.59
487 0 83.0768 14.3361 1191 109.391 720.323 475.635
488 0 87.131 14.3692 1252 108.089 719.665 473.643
489 0 88.0762 13.8062 1216 110.36 719.973 472.733
490 0 91.2823 13.9786 1276 110.699 719.751 469.995
491 0 95.1206 13.9402 1326 110.732 720.046 470.463
492 0 98.2258 13.5504 1331 112.224 720.153 467.682
493 1 52.1777 11.1159 580 115.021 719.333 490.972
494 0 54.0967 12.718 688 111.115 719.576 490.834
495 0 55.0795 13.1265 723 113.064 719.846 487.812
496 0 57.1074 13.2207 755 109.564 720.045 488.114
497 0 60.1983 13.5718 817 107.081 720.143 488.208
498 0 61.2898 12.808 785 109.713 719.726 487.352
499 0 62.1543 13.4182 834 110.044 719.511 484.049
500 0 64.1356 12.4892 801 114.22 720.596 484.923
501 0 67.1107 13.5597 910 113.585 720.076 482.969
502 0 70.1146 13.6919 960 116.955 719.889 481.091
503 0 71.0857 12.506 889 120.286 719.949 482.048
504 0 74.1777 13.2789 985 118.133 720.028 480.152
505 0 77.1703 13.1657 1016 119.193 719.387 478.296
506 0 80.0818 13.2115 1058 118.174 719.741 479.302
507 0 80.0661 12.6271 1011 121.543 720.215 476.047
508 0 85.0886 12.5516 1068 121.148 720.09 474.061
509 1 46.1041 13.4044 618 115.515 719.825 494.013
510 0 45.1057 12.7922 577 119.991 719.357 491.572
511 0 48.2429 12.7687 616 120.039 719.599 491.687
512 0 48.0626 12.13 583 122.762 719.628 491.834
513 0 50.0846 12.7584 639 120.93 719.299 491.908
514 0 52.1175 12.491 651 121.499 719.378 491.263
515 0 54.0538 13.1166 709 120.276 719.472 489.179
516 0 56.1538 13.5165 759 119.883 719.601 487.462
517 0 55.1056 13.084 721 121.175 719.957 485.438
518 0 57.1471 12.3016 703 122.869 721.613 486.862
519 0 63.1259 13.8929 877 115.323 721.788 486.338
520 0 63.2172 12.6073 797 119.487 721.632 484.646
521 0 64.1187 11.8842 762 121.625 721.425 484.122
522 0 67.1666 13.0422 876 117.341 722.271 484.021
523 0 68.2884 11.9932 819 120.429 721.299 482.059
524 0 70.1099 12.3948 869 118.444 721.246 481.097
525 0 73.1659 12.8475 940 118.035 721.033 479.849
526 0 75.0899 12.3319 926 118.637 721.146 480.599
527 0 77.1694 13.8008 1065 116.744 720.751 475.687
528 0 80.2127 12.7037 1019 120.073 720.311 474.476
529 0 84.2297 13.6413 1149 116.878 720.869 477.166
530 0 84.1362 12.8958 1085 121.016 721.304 472.637
531 0 88.1805 12.928 1140 120.539 721.234 471.502
532 0 92.2416 13.2912 1226 119.139 720.659 470.377
533 0 95.1273 13.0352 1240 119.821 721.006 470.302
534 0 98.1923 14.5123 1425 117.097 720.848 465.585
535 0 101.242 13.6603 1383 120.434 720.84 464.242
536 0 104.201 13.7427 1432 121.114 720.788 460.031
537 0 107.357 12.2955 1320 124.233 720.998 460.121
538 1 57.1335 11.3594 649 117.838 722.459 485.897
539 0 59.0729 12.3407 729 114.405 719.225 486.085
540 0 61.078 13.0816 799 113.497 719.462 484.139
541 0 63.1272 14.4787 914 109.108 720.857 483.281
542 0 65.182 12.5188 816 114.324 720.265 482.864
543 0 68.1315 13.2097 900 112.664 720.74 483.748
544 0 69.3024 13.2607 919 114.703 720.296 482.305
545 0 72.2855 13.9585 1009 113.965 720.383 480.63
546 0 74.1555 14.3887 1067 114.48 720.167 479.447
547 0 77.1803 13.8507 1069 117.116 719.967 478.521
548 0 82.1036 14.7862 1214 114.013 720.111 475.419
549 0 80.1241 13.8785 1112 119.292 720.91 476.085
550 0 83.2184 13.795 1148 121 720.51 475.722
551 0 88.3747 14.6535 1295 118.242 720.201 474.889
552 0 89.2926 13.159 1175 123.059 720.433 471.711
553 0 91.2582 14.4864 1322 120.169 719.941 472.002
554 0 96.3636 14.7981 1426 119.633 720.047 465.926
555 0 100.411 14.6 1466 119.467 720.241 467.636
556 0 102.212 14.0297 1434 121.805 720.54 467.266
557 0 106.259 14.8881 1582 119.496 721.106 465.386
558 0 107.179 13.3701 1433 123.921 721.3 464.986
559 1 58.0736 12.6736 736 125.433 720.262 488.709
560 0 60.1208 13.6725 822 119.646 721.232 485.607
561 0 62.1575 15.3481 954 116.23 721.126 485.581
562 0 64.2741 14.4693 930 116.896 720.995 485.613
563 0 67.2226 13.0611 878 120.021 721.416 485.859
564 0 68.3991 14.1084 965 119.253 721.244 481.839
565 0 68.3238 13.1872 901 122.996 721.044 484.353
566 0 71.2149 13.4242 956 122.184 721.699 482.438
567 0 72.3019 13.983 1011 122.099 720.916 479.689
568 0 75.3216 14.219 1071 120.492 720.608 478.424
569 0 79.3166 13.9946 1110 119.957 720.503 476.586
570 0 80.2625 13.1817 1058 122.926 720.91 474.859
571 0 85.2408 13.3622 1139 122.459 720.897 473.202
572 0 86.2035 13.2013 1138 122.575 720.627 472.215
573 0 88.2652 13.8673 1224 121.907 720.444 468.593
574 0 92.427 13.7189 1268 122.196 720.468 466.868
575 0 97.2811 15.1314 1472 117.613 720.935 464.41
576 0 99.305 14.1081 1401 121.488 720.235 462.803
577 0 103.329 14.3328 1481 120.42 720.788 460.681
578 0 106.381 14.3729 1529 120.794 720.903 455.966
579 1 58.1839 12.323 717 122.551 720.919 483.137
580 0 58.1721 12.3771 720 123.918 720.556 481.429
581 0 59.3497 13.0919 777 121.247 722.22 482.941
582 0 63.1443 13.7463 868 116.915 722.43 482.992
583 0 64.1367 14.0013 898 117.663 721.972 481.486
584 0 67.151 14.6982 987 114.891 722.027 480.651
585 0 69.1165 14.0632 972 117.765 722.107 478.919
586 0 72.1307 13.2953 959 120.003 721.76 477.664
587 0 73.0831 12.7663 933 121.815 722.294 475.762
588 0 77.1123 13.8759 1070 118.673 721.931 474.808
589 0 80.1129 13.8305 1108 119.354 722.634 473.96
590 0 84.0812 15.0569 1266 115.845 722.454 470.724
591 0 88.0941 14.1553 1247 118.849 721.92 470.374
592 0 90.2039 14.2566 1286 118.975 722.278 468.108
593 0 91.3487 12.5891 1150 124.979 721.993 465.417
594 0 95.1499 14.3038 1361 121.033 721.168 462.42
595 1 49.1817 12.9723 638 123.926 721.666 483.707
596 0 51.1421 12.8075 655 124.533 721.808 485.295
597 0 53.0711 12.7753 678 125.99 722.544 488.968
598 0 54.0528 13.6903 740 125.661 722.311 486.027
599 0 58.0749 13.7581 799 124.428 721.765 485.919
600 0 58.1291 12.9883 755 126.306 722.212 486.535
601 0 60.0393 13.8743 833 126.555 722.575 483.987
602 0 62.1085 13.2188 821 128.3 722.437 481.501
603 0 64.0517 13.4423 861 128.779 722.217 481.293
604 0 66.0328 13.9325 920 126.621 722.537 481.033
605 0 69.0852 13.9538 964 126.256 722.316 479.798
606 0 74.1303 14.4745 1073 124.417 721.802 477.835
607 1 145.427 13.3675 1944 126.102 721.374 445.343
608 1 77.1027 13.6701 1054 128.049 721.806 476.099
609 0 81.0735 14.493 1175 125.551 721.677 473.64
610 0 82.1217 13.4191 1102 129.221 722.031 472.487
611 0 87.1434 15.1245 1318 122.693 721.59 469.181
612 1 43.0733 11.9099 513 130.097 720.77 490.558
613 0 45.2114 12.895 583 125.093 720.42 490.859
614 0 45.1178 11.2816 509 133.024 720.953 488.356
615 0 49.1196 13.6809 672 124.414 721.104 487.21
616 0 51.1069 14.1664 724 121.931 721.257 486.383
617 0 52.0939 13.1493 685 125.893 720.888 485.153
618 0 54.1113 13.4168 726 125.576 721.079 484.293
619 0 55.121 12.9352 713 126.029 720.703 484.139
620 0 55.1002 12.6315 696 128.218 721.162 481.99
621 0 58.1196 14.0056 814 123.029 721.65 480.776
622 0 63.1724 13.8035 872 122.104 721.726 480.123
623 0 65.1733 14.1469 922 120.897 721.048 480.002
624 0 66.0469 14.8834 983 118.081 721.135 479.379
625 0 70.0464 14.0621 985 118.934 721.013 480.761
626 0 70.1514 13.4566 944 121.941 720.38 478.601
627 0 73.1793 14.2663 1044 120.207 720.461 475.754
628 0 76.1263 15.3167 1166 117.129 720.49 472.756
629 0 79.0865 14.0985 1115 120.894 720.613 474.472
630 0 82.0585 14.3922 1181 120.772 719.898 471.725
631 0 84.1356 14.8213 1247 119.534 720.209 470.953
632 0 86.0768 14.1269 1216 123.115 720.288 467.353
633 0 91.2075 14.7576 1346 121.398 721.897 466.681
634 0 92.3763 14.1378 1306 124.524 721.511 465.187
635 1 48.2496 11.5027 555 124.317 721.8 485.495
636 0 52.2569 12.0176 628 124.193 721.728 484.366
637 0 53.1872 12.409 660 125.08 722.015 483.302
638 0 53.0343 11.2191 595 119.245 722.939 483.687
639 0 55.1662 12.9246 713 116.281 722.426 480.892
640 0 56.0708 11.6817 655 119.511 722.402 481.907
641 0 60.2369 13.6461 822 114.516 722.605 479.775
642 0 61.1011 11.6692 713 119.951 721.849 479.388
643 0 62.0396 12.0729 749 118.406 722.206 479.68
644 0 65.0984 13.518 880 115.341 722.384 478.442
645 0 69.1601 13.1145 907 116.363 722.075 476.778
646 0 71.2296 12.93 921 118.705 721.395 474.764
647 0 73.0852 14.8731 1087 114.953 721.902 472.797
648 0 76.2335 14.4556 1102 116.055 721.611 472.074
649 0 76.103 12.4305 946 125.126 721.673 471.364
650 0 79.1874 13.588 1076 123.424 721.681 469.371
651 0 82.1373 12.8809 1058 128.217 721.326 467.915
652 0 86.1482 14.0572 1211 125.412 721.112 466.692
653 0 87.2311 13.5158 1179 129.253 721.073 463.977
654 0 91.3135 14.9595 1366 125.717 721.267 461.109
655 0 93.1964 14.3031 1333 128.802 721.405 461.107
656 0 95.3493 14.1165 1346 130.637 721.747 460.407
657 0 97.2124 13.6094 1323 133.465 721.307 458.729
658 0 100.245 13.3373 1337 135.091 720.762 459.308
659 0 104.319 14.1105 1472 133.798 720.552 456.528
660 0 106.169 14.3827 1527 134.565 720.954 453.65
661 0 113.181 14.4989 1641 132.622 720.503 453.504
662 0 115.218 14.1991 1636 135.044 720.435 449.37
663 0 118.221 13.83 1635 136.212 720.783 447.098
664 0 123.253 13.5656 1672 135.611 720.325 446.795
665 0 127.171 14.1069 1794 131.907 719.822 444.561
666 0 132.238 14.421 1907 130.835 720.198 438.77
667 0 137.274 13.9939 1921 133.05 720.493 434.041
668 0 142.333 14.6136 2080 130.232 720.554 436.388
669 0 147.219 14.1422 2082 132.244 720.312 433.565
670 0 153.266 13.8779 2127 132.334 719.98 431.94
671 0 158.231 14.2703 2258 132.368 720.268 421.702
672 0 162.226 14.4305 2341 131.588 720.497 426.014
673 0 167.238 13.8306 2313 133.326 720.39 423.701
674 0 171.233 13.5605 2322 134.366 720.196 421.152
675 0 179.312 13.5295 2426 132.147 719.92 419.066
676 0 186.339 14.7365 2746 126.766 720.916 416.749
677 0 191.337 13.3011 2545 131.203 720.941 411.509
678 0 200.515 13.5601 2719 129.12 720.803 414.905
679 0 203.353 13.538 2753 133.878 721.19 413.188
680 0 212.405 13.7379 2918 133.429 721.2 408.151
681 0 221.451 15.5339 3440 128.257 721.11 405.888
682 1 171.393 12.2117 2093 128.084 721.86 418.075
683 0 175.38 12.1678 2134 127.44 721.48 417.338
684 0 182.263 12.9428 2359 129.905 721.304 415.61
685 0 188.379 13.1225 2472 130.887 720.641 411.042
686 0 194.381 12.4858 2427 132.323 720.689 414.77
687 0 202.45 12.9217 2616 132.365 720.854 412.341
688 0 207.319 13.2839 2754 131.69 719.468 407.806
689 0 215.42 12.4501 2682 133.954 719.803 403.019
690 0 224.362 12.9032 2895 133.571 719.501 401.741
691 0 232.452 13.5038 3139 133.119 719.828 393.327
692 0 240.369 12.4766 2999 135.918 720.018 393.244
693 0 247.444 12.9322 3200 136.454 720.168 383.548
694 0 257.511 13.413 3454 135.089 719.314 383.633
695 0 264.411 13.4752 3563 135.428 719.293 381.2
696 0 274.654 15.0662 4138 131.31 719.775 365.722
697 0 282.59 13.7443 3884 135.624 719.529 364.923
698 1 310.519 21.1774 6576 109.949 720.336 331.446
699 0 335.102 25.7116 8616 96.3847 720.833 310.388
700 0 342.762 22.8964 7848 102.768 721.46 312.789
701 0 344.712 26.3234 9074 97.4766 720.992 309.371
702 0 339.73 21.264 7224 111.7 720.281 311.387
703 0 341.626 16.6381 5684 125.475 720.26 332.812
704 1 326.741 8.51744 2783 138.318 719.682 367.566
705 0 327.673 9.75057 3195 134.425 719.307 369.279
706 0 324.671 10.8541 3524 134.988 719.375 358.458
707 0 328.578 13.1111 4308 131.119 720.207 350.688
708 1 339.496 13.573 4608 132.639 719.748 295.854
709 1 56.1552 11.1299 625 103.454 719.138 446.376
710 0 56.0498 9.22393 517 109.553 721.054 433.464
711 0 58.0444 10.8882 632 108.953 722.106 433.366
712 0 62.0242 13.1562 816 107.491 722.379 441.683
713 0 64.0651 11.8161 757 110.799 721.995 450.226
714 0 65.0704 11.4645 746 111.606 722.464 455.688
715 0 65.0818 10.3869 676 114.766 722.432 465.564
716 0 68.0309 10.5246 716 112.613 722.479 476.471
717 0 69.0908 10.3921 718 104.684 719.153 480.675
718 0 69.0908 10.4355 721 119.293 719.137 480.548
719 1 40.0729 10.5558 423 104.856 718.53 496.147
720 0 42.0742 11.1945 471 104.747 719.459 493.512
721 0 43.0324 12.9437 557 101.715 719.142 493.984
722 0 42.253 11.4548 484 108.508 719.742 493.8
723 0 47.3342 12.0209 569 102.84 720.03 494.842
724 0 47.2185 11.775 556 104.099 719.335 494.165
725 0 47.1043 11.0181 519 107.05 718.934 494.503
726 0 50.1661 12.1795 611 104.589 719.072 493.399
727 0 51.2816 13.2016 677 102.994 719.179 491.77
728 0 52.2557 12.4006 648 105.64 718.489 492.289
729 0 54.269 12.9356 702 104.698 719.66 490.345
730 0 55.3286 13.2481 733 103.784 719.553 490.046
731 0 59.3547 13.731 815 101.652 719.551 489.539
732 0 60.2309 12.5351 755 105.4 719.874 488.536
733 0 61.2727 13.2359 811 103.393 719.678 489.194
734 0 62.2583 12.3678 770 106.292 719.565 486.209
735 0 65.3281 13.7919 901 104.046 719.521 485.898
736 0 65.1892 12.2873 801 107.709 720.077 485.809
737 0 67.3348 14.4947 976 104.184 719.455 482.92
738 0 68.4105 12.9951 889 107.745 719.525 484.027
739 0 72.3368 15.2066 1100 102.505 719.78 483.482
740 0 73.2832 12.9088 946 107.616 720.285 482.401
741 0 75.1829 14.059 1057 106.623 719.898 480.219
742 0 77.2502 13.3204 1029 108.033 719.869 480.729
743 0 81.2715 13.6333 1108 107.354 720.036 479.056
744 0 80.2689 13.2804 1066 110.544 719.786 475.668
745 0 84.312 12.4656 1051 111.265 719.795 477.683
746 0 85.3461 13.1465 1122 111.926 719.666 473.212
747 0 91.4547 14.9036 1363 106.595 719.855 472.486
748 0 93.5398 13.6199 1274 110.323 719.793 471.135
749 0 95.518 12.7934 1222 110.054 719.525 470.148
750 1 54.0548 10.8963 589 100.676 719.832 491.16
751 0 54.1208 11.1233 602 102.937 719.306 485.925
752 0 57.2589 12.2601 702 99.5057 719.42 484.993
753 0 60.1131 13.0254 783 96.9872 720.571 488.775
754 0 58.1466 12.7952 744 101.191 721.228 486.778
755 0 61.1737 10.9851 672 104.942 722.036 488.615
756 0 63.1522 12.4936 789 102.427 721.432 487.672
757 0 65.1166 12.1781 793 103.821 721.55 487.081
758 0 67.1732 12.9665 871 102.933 721.356 484.597
759 0 70.2092 13.0752 918 102.194 720.968 482.88
760 0 72.1963 12.092 873 104.742 721.841 482.882
761 0 74.1246 12.8837 955 103.599 721.715 481.234
762 0 75.1718 12.6377 950 105.083 721.449 479.983
763 0 80.1869 13.6681 1096 101.887 721.454 477.747
764 0 82.0585 12.6861 1041 106.214 720.953 474.982
765 0 85.2421 12.1067 1032 108.554 720.708 474.354
766 0 86.1519 12.3271 1062 109.268 720.431 472.288
767 0 90.2313 12.1244 1094 108.588 720.507 471.462
768 0 92.1393 11.7648 1084 110.35 720.03 467.381
769 0 96.421 12.0202 1159 110.224 719.55 462.82
770 1 53.3168 12.6789 676 102.004 720.203 484.377
771 0 52.254 12.7454 666 104.009 720.287 483.547
772 0 53.1966 11.7489 625 105.322 720.322 485.658
773 0 56.2117 12.1149 681 104.26 720.703 486.485
774 0 58.2331 11.2307 654 102.453 720.488 488.523
775 0 59.0756 11.9339 705 101.779 720.441 486.895
776 0 60.043 12.4244 746 99.6769 720.154 485.846
777 0 63.2047 11.5498 730 100.67 720.816 485.077
778 0 65.0895 11.3075 736 102.268 720.785 484.562
779 0 67.2038 9.96967 670 104.679 720.676 484.091
780 0 70.1077 11.3682 797 102.317 721.142 482.661
781 0 73.1162 10.7774 788 103.911 720.669 481.53
782 0 75.0706 11.1362 836 104.426 720.9 477.244
783 0 78.1207 12.2631 958 102.055 720.204 477.593
784 0 82.1897 11.7046 962 103.281 720.802 477.088
785 0 86.1102 12.5769 1083 102.27 720.67 476.322
786 0 86.2582 11.709 1010 106.775 720.954 474.311
787 0 90.1474 11.7696 1061 107.024 720.468 472.689
788 0 94.1275 12.3237 1160 105.707 721.341 471.353
789 0 96.1299 12.5975 1211 107.163 720.363 469.449
790 0 100.091 12.8083 1282 106.608 720.438 467.204
791 0 104.124 12.2739 1278 107.875 720.789 466.579
792 0 108.212 11.995 1298 110.104 720.173 463.211
793 1 58.0916 11.1376 647 105.247 720.827 488.459
794 0 57.313 11.0795 635 106.8 720.096 483.025
795 0 61.0925 11.0816 677 106.374 720.848 483.496
796 0 65.3253 11.7872 770 110.945 721.021 485.47
797 0 67.2305 11.8101 794 111.929 720.972 484.307
798 0 69.2266 11.9896 830 110.901 721.012 483.418
799 0 73.2328 12.7675 935 109.368 721.492 481.398
800 0 74.3052 11.4124 848 112.165 721.651 481.255
801 0 76.1827 12.0106 915 112.066 721.58 477.376
802 0 81.0978 11.6896 948 110.914 722.592 478.699
803 0 83.0714 12.4471 1034 109.562 722.807 477.492
804 0 85.0396 12.1826 1036 110.431 722.412 476.375
805 0 87.057 12.3942 1079 112.032 722.711 472.863
806 0 92.0797 12.9996 1197 109.226 721.61 471.997
807 0 94.0329 12.7828 1202 109.515 721.838 471.255
808 0 97.1283 13.0446 1267 110.424 721.804 469.676
809 0 97.1517 11.5592 1123 114.6 721.18 468.499
810 0 103.17 12.7265 1313 110.928 720.925 466.778
811 1 52.2538 10.2959 538 107.846 722.175 490.045
812 0 54.2668 11.2407 610 107.436 721.848 487.485
813 0 57.3431 11.9282 684 106.963 721.547 485.086
814 0 58.4781 12.0558 705 109.701 721.877 484.213
815 0 59.0586 12.9871 767 114.785 719.961 487.512
816 0 59.0316 12.2646 724 118.89 721.11 486.365
817 0 63.0485 14.7188 928 111.251 720.931 486.514
818 0 67.0793 12.8654 863 115.467 720.862 485.798
819 0 68.0991 12.9517 882 118.163 721.633 483.211
820 0 69.0294 12.5599 867 119.712 721.159 485.175
821 0 73.0472 13.8814 1014 117.035 721.74 482.03
822 0 73.0551 14.1263 1032 119.059 721.949 479.504
823 0 76.0332 13.0338 991 122.834 721.557 477.873
824 0 77.0997 13.6965 1056 122.317 722.144 477.246
825 0 81.0652 14.5562 1180 121.884 721.875 476.209
826 0 83.0864 13.6003 1130 125.688 721.303 476.059
827 0 86.0921 14.1592 1219 122.663 721.645 475.107
828 0 87.056 13.589 1183 126.188 721.883 473.621
829 0 91.0959 13.5791 1237 127.251 721.64 470.684
830 0 93.0797 13.8591 1290 128.389 721.764 469.247
831 0 96.0828 13.9775 1343 128.075 720.835 468.282
832 0 99.0923 12.8567 1274 131.17 720.94 466.302
833 0 102.16 14.4577 1477 125.833 719.788 463.401
834 0 104.176 13.2468 1380 131.817 719.502 461.83
835 0 108.163 14.1731 1533 128.474 719.911 460.356
836 0 111.134 14.0011 1556 127.175 720.617 461.018
837 0 114.129 14.247 1626 121.593 720.886 460.775
838 0 116.141 13.3459 1550 128.479 719.925 454.847
839 0 122.11 13.9383 1702 127.085 719.938 453.978
840 0 126.137 14.6904 1853 123.867 720.627 451.649
841 0 130.142 13.5621 1765 126.727 720.835 450.892
842 0 134.141 14.5891 1957 123.802 720.573 448.079
843 1 71.1992 10.9833 782 118.101 719.391 481.124
844 0 71.2701 10.4672 746 120.243 719.777 481.157
845 0 72.1151 11.5926 836 119.279 719.641 480.688
846 0 73.1777 12.3535 904 119.42 721.232 480.933
847 0 77.2017 12.7199 982 128.516 721.531 476.868
848 0 77.3332 13.4612 1041 127.03 720.749 478
849 0 80.2447 12.9728 1041 125.347 720.082 475.127
850 0 83.215 12.8102 1066 125.295 720.384 474.268
851 0 86.1851 12.7516 1099 124.559 719.802 472.984
852 0 89.2713 12.8597 1148 126.989 720.503 471.094
853 0 91.1739 12.4487 1135 125.07 720.097 470.187
854 0 94.2565 12.657 1193 123.054 719.208 470.947
855 0 97.2012 12.7776 1242 121.451 719.033 467.356
856 0 100.114 12.8953 1291 119.635 719.315 466.615
857 0 104.303 12.6841 1323 119.958 719.359 464.956
858 0 108.256 12.7107 1376 119.773 719.22 461.006
859 0 109.183 12.2455 1337 122.301 719.091 460.933
860 0 114.151 11.6337 1328 122.861 719.242 459.249
861 0 116.165 12.379 1438 121.554 719.495 458.103
862 0 120.31 11.2875 1358 124.391 720.108 455.117
863 1 65.1467 11.2515 733 119.917 719.213 480.963
864 0 66.2543 11.5313 764 114.546 719.404 483.072
865 0 70.2896 13.2879 934 114.873 718.836 480.403
866 0 70.2175 11.3504 797 120.957 718.609 477.803
867 0 72.1779 10.6819 771 121.287 719.591 479.78
868 0 76.2689 13.3344 1017 116.092 718.982 475.48
869 0 80.1949 11.3224 908 119.942 719.195 475.263
870 0 81.275 11.3934 926 119.79 719.094 473.963
871 0 83.2001 11.1058 924 120.719 719.002 474.694
872 0 88.2212 11.7319 1035 119.88 718.981 469.755
873 0 91.2045 12.7735 1165 117.889 719.231 468.418
874 0 94.3308 13.0392 1230 117.623 719.766 467.897
875 1 50.0856 11.1609 559 114.297 720.068 490.199
876 0 50.129 9.15637 459 118.778 719.959 489.878
877 0 54.0489 10.768 582 110.976 720.294 489.201
878 0 55.0971 12.5233 690 104.561 721.487 486.848
879 0 54.1241 10.79 584 109.658 720.83 487.622
880 0 58.0966 12.0661 701 106.519 721.345 487.953
881 0 58.1254 12.9375 752 104.06 721.685 487.032
882 0 59.0284 11.5199 680 109.959 721.409 485.616
883 0 61.0718 10.8561 663 110.258 721.656 487.57
884 0 62.171 11.9348 742 107.039 721.523 485.278
885 0 65.081 11.4012 742 107.319 721.278 485.05
886 0 65.175 10.5102 685 109.839 720.982 483.488
887 0 69.0795 12.6521 874 104.799 721.173 482.061
888 0 71.1562 11.9174 848 106.238 721.427 481.643
889 0 74.0709 12.569 931 104.668 720.404 480.499
890 0 76.0888 12.1568 925 105.65 720.477 478.208
891 0 80.1412 12.191 977 105.011 721.055 477.06
892 0 82.098 13.0819 1074 102.41 720.896 477.196
893 0 83.1094 12.3091 1023 105.539 720.855 475.838
894 0 86.1371 13.3856 1153 103.337 721.158 471.681
895 0 90.2494 11.5679 1044 106.293 720.479 471.976
896 0 90.2494 11.5347 1041 137.941 720.485 472.054
897 0 100.262 14.891 1493 100.616 721.033 465.493
898 0 100.281 12.8239 1286 106.11 720.601 461.981
899 0 102.346 11.8714 1215 110.299 720.435 464.399
900 1 57.131 10.6597 609 107.788 720.826 488.476
901 0 59.1704 12.2358 724 106.662 720.826 484.827
902 0 62.0773 12.3878 769 112.346 721.476 484.009
903 0 66.0538 14.0189 926 108.608 721.418 484.618
904 0 65.0483 12.4369 809 114.747 721.689 483.54
905 0 66.0747 11.8199 781 109.552 719.448 484.726
906 0 67.0527 12.3485 828 109.313 719.402 483.723
907 0 68.1503 11.7534 801 110.804 719.236 482.166
908 0 72.1161 12.3689 892 109.001 719.42 479.561
909 0 74.1364 12.4365 922 108.971 719.446 480.563
910 0 77.0869 12.6351 974 108.848 719.669 479.04
911 0 78.1475 12.7451 996 109.468 718.6 476.05
912 0 80.1798 12.9833 1041 109.033 719.067 474.289
913 0 85.1232 13.5921 1157 106.022 718.81 475.705
914 0 87.0469 12.9815 1130 108.413 719.083 473.615
915 0 90.0953 13.9186 1254 106.101 719.561 471.238
916 0 92.0926 12.1291 1117 111.008 720.371 471.972
917 1 49.0253 11.0147 540 112.422 720.193 492.131
918 0 50.044 10.6306 532 115.444 721.769 491.56
919 0 52.072 12.6364 658 109.263 721.163 489.748
920 0 53.0387 12.4437 660 113.271 721.592 487.964
921 0 54.0559 11.6361 629 111.378 722.372 487.178
922 0 58.1151 13.9379 810 104.168 722.542 487.12
923 0 58.0547 12.1782 707 110.168 722.434 486.03
924 0 60.1049 13.3101 800 108.571 722.018 485.112
925 0 61.0769 12.4761 762 110.807 721.999 483.101
926 0 62.0396 12.9111 801 110.883 722 483.675
927 0 66.0366 13.1745 870 109.192 721.198 481.67
928 0 67.052 13.9593 936 108.049 721.531 479.935
929 0 67.0687 13.3147 893 110.504 721.839 482.347
930 0 69.0442 12.5717 868 113.645 721.365 478.815
931 0 72.1192 12.6735 914 112.393 721.651 479.573
932 0 76.1328 12.8197 976 110.348 721.285 479.028
933 0 77.2245 12.3277 952 111.766 721.384 476.398
934 0 81.0729 11.5205 934 111.399 721.61 476.624
935 0 85.1132 13.0884 1114 108.067 721.451 473.162
936 0 89.0987 12.2 1087 109.598 721.41 473.793
937 0 90.1154 12.3397 1112 110.523 721.347 469.371
938 0 94.2301 11.9176 1123 108.963 721.007 471.792
939 0 97.0671 12.682 1231 105.877 720.483 469.023
940 1 49.0876 12.6101 619 104.191 718.62 492.103
941 0 50.0321 12.7518 638 103.223 718.912 490.332
942 0 51.0733 13.5296 691 102.25 719.382 490.679
943 0 51.0129 12.2322 624 108.639 718.66 488.458
944 0 54.1228 12.8781 697 106.151 718.582 487.286
945 0 57.0411 12.6926 724 105.648 718.309 488.552
946 0 60.0303 11.4276 686 106.803 718.644 488.369
947 0 60.0799 12.4667 749 105.939 718.537 485.856
948 0 63.0523 12.3072 776 105.923 718.134 484.398
949 0 64.0929 12.6847 813 105.322 718.252 483.169
950 0 66.0819 12.7569 843 106.013 718.223 481.563
951 0 70.0489 13.0766 916 104.873 718.366 480.107
952 0 70.043 13.4489 942 104.547 718.502 477.262
953 0 74.0314 14.1832 1050 102.626 717.79 478.606
954 0 76.0588 12.7401 969 106.839 717.967 477.021
955 0 78.0483 13.4148 1047 104.76 718.009 478.723
956 0 80.0425 13.4928 1080 106.275 718.538 474.44
957 0 84.0912 13.8897 1168 106.384 718.732 471.943
958 0 86.1742 12.6836 1093 110.253 718.138 472.014
959 0 86.2077 12.2379 1055 112.505 718.46 469.98
960 0 92.0939 13.3885 1233 109.358 718.599 469.935
961 0 92.0822 12.706 1170 112.192 718.141 468.525
962 0 97.1188 12.7164 1235 113.283 718.317 465.287
963 1 51.0276 10.5825 540 111.924 718.561 489.557
964 0 54.0247 13.1607 711 106.851 718.945 487.232
965 0 57.0383 10.7472 613 111.992 719.02 487.506
966 0 55.0794 11.8011 650 107.497 719.615 486.618
967 0 56.1142 12.2073 685 108.66 720.077 487.448
968 0 58.0413 13.008 755 107.362 719.281 485.911
969 0 61.0866 12.867 786 107.321 719.393 487.268
970 0 63.1929 12.992 821 108.42 719.266 483.625
971 0 66.0879 13.9057 919 106.361 719.097 483.8
972 0 67.1471 12.5992 846 111.16 718.771 481.818
973 0 71.0791 14.0266 997 106.757 718.745 480.737
974 0 72.1224 12.5897 908 112.509 718.889 479.994
975 0 73.1526 11.7699 861 114.413 718.987 479.724
976 0 78.1482 13.5512 1059 109.353 718.818 476.59
977 0 79.1502 12.9501 1025 110.204 719.23 480.19
978 0 82.2677 13.0185 1071 112.476 719.428 474.401
979 0 85.2437 13.3734 1140 111.422 719.975 474.1
980 1 47.1838 11.1479 526 114.861 720.26 491.19
981 0 48.1325 12.4448 599 112.22 719.376 491.538
982 0 50.2701 12.9103 649 110.649 721.325 489.267
983 0 51.3469 12.0358 618 114.317 720.79 487.702
984 0 51.2333 11.3598 582 115.761 720.893 489.005
985 0 56.2074 12.3471 694 111.293 721.729 488.947
986 0 56.2886 13.0044 732 111.641 721.265 486.671
987 0 58.137 12.935 752 113.358 721.62 482.569
988 0 60.1242 12.3079 740 114.526 721.703 484.338
989 0 62.1925 12.5739 782 113.295 721.572 483.826
990 0 62.3284 13.3968 835 110.989 721.307 481.177
991 0 66.2704 12.9771 860 110.83 721.619 482.349
992 0 67.17 12.1334 815 113.872 721.375 481.231
993 0 70.1491 12.6017 884 111.57 721.119 480.641
994 0 71.2157 11.8092 841 114.08 721.069 478.653
995 0 72.2004 12.0775 872 108.72 720.716 479.128
996 0 75.1356 12.8434 965 107.28 721.19 477.691
997 0 76.1894 11.7208 893 111.303 720.873 475.355
998 0 80.1454 12.0531 966 111.288 720.756 472.208
999 0 84.2162 12.1473 1023 110.157 720.968 473.705
1000 0 86.2226 12.7229 1097 110.048 720.571 470.012
1001 0 89.3196 12.3825 1106 109.799 720.75 469.531
1002 1 45.2625 10.892 493 108.503 720.225 490.298
1003 0 47.2659 10.5361 498 109.41 719.56 487.882
1004 0 49.2947 11.3805 561 106.563 720.043 488.018
1005 0 51.0436 12.6558 646 103.259 722.087 490.497
1006 0 51.0382 12.7748 652 100.713 722.844 487.699
1007 0 54.0273 11.3646 614 102.933 722.075 488.248
1008 0 54.0623 11.9122 644 102.689 722.382 489.082
1009 0 54.0306 12.3634 668 102.542 722.222 486.298
1010 0 56.047 12.2754 688 101.866 722.015 487.847
1011 0 56.0465 10.3664 581 107.096 721.766 486.917
1012 0 60.0496 12.856 772 101.429 721.94 485.475
1013 0 62.0511 12.5864 781 102.207 721.753 484.271
1014 0 63.0524 12.783 806 102.237 721.313 483.572
1015 0 67.0611 13.182 884 100.432 721.51 482.603
1016 0 65.0911 11.4762 747 106.41 721.054 480.902
1017 0 70.1597 13.341 936 101.936 721.607 478.486
1018 0 72.0887 12.873 928 103.64 721.105 478.898
1019 0 75.0949 12.877 967 103.246 721.165 478.094
1020 0 76.0844 13.0907 996 103.522 721.428 475.496
1021 0 77.1055 12.8914 994 105.235 720.929 475.03
1022 0 83.1541 13.2766 1104 102.852 721.36 472.676
1023 0 85.0877 12.9866 1105 104.15 721.511 470.103
1024 0 88.1183 12.3697 1090 105.132 721.197 468.363
1025 0 91.1548 13.4058 1222 103.108 721.52 469.816
1026 0 89.0867 12.3251 1098 108.101 721.781 466.015
1027 0 93.1412 12.7548 1188 106.829 721.598 465.863
1028 0 96.1091 12.6835 1219 108.332 721.669 464.618
1029 0 99.1437 11.8515 1175 111.645 721.736 465.314
1030 0 102.136 13.2862 1357 107.868 721.42 466.273
1031 0 105.073 13.2003 1387 109.851 721.001 457.298
1032 0 111.149 13.1085 1457 111.804 720.758 459.323
1033 0 115.132 13.2544 1526 105.995 720.971 457.263
1034 1 62.1344 12.0706 750 104.295 721.341 482.144
1035 0 64.104 11.3721 729 107.757 721.25 481.252
1036 0 68.0706 11.6791 795 102.331 720.859 476.907
1037 0 69.1054 12.3724 855 105.085 721.489 479.577
1038 0 72.1231 10.5791 763 107.805 721.554 480.286
1039 0 76.164 12.6569 964 104.035 721.522 478.087
1040 0 78.0875 11.2566 879 107.304 721.784 475.809
1041 0 81.2483 11.2618 915 107.825 721.155 476.729
1042 0 84.163 12.6778 1067 105.092 721.79 474.902
1043 0 83.2703 11.3726 947 108.685 721.282 473.445
1044 0 87.0575 11.9806 1043 108.082 721.074 470.927
1045 0 89.2914 12.3192 1100 107.509 721.678 470.89
1046 0 93.2714 12.5333 1169 107.23 721.583 467.602
1047 0 97.2482 13.8923 1351 104.038 722.172 465.932
1048 0 102.197 12.7107 1299 106.345 720.916 464.867
1049 0 104.318 13.5356 1412 104.876 721.112 462.927
1050 0 106.213 13.68 1453 104.836 720.833 459.988
1051 0 111.117 13.2023 1467 105.539 721.464 460.849
1052 0 115.131 13.2719 1528 105.96 721.694 456.094
1053 1 60.1283 10.3944 625 107.71 723.067 483.65
1054 0 62.1745 12.1754 757 105.992 719.785 483.598
1055 0 67.2528 13.085 880 102.642 719.569 481.15
1056 0 68.162 13.688 933 101.474 719.31 478.928
1057 0 70.3368 12.7103 894 104.424 719.023 479.265
1058 0 74.2593 13.1566 977 102.195 719.336 480.04
1059 0 76.2266 12.9614 988 104.514 719.569 477.203
1060 0 78.3605 13.3996 1050 104.255 719.532 475.549
1061 0 79.2816 11.9069 944 109.219 718.958 475.1
1062 0 81.2984 12.202 992 108.412 719.349 472.375
1063 0 83.417 12.8031 1068 108.625 719.479 470.699
1064 0 84.2434 11.9535 1007 110.48 719.536 469.816
1065 0 87.1355 11.4305 996 112.397 718.912 468.705
1066 0 89.1127 12.097 1078 110.813 718.773 467.532
1067 0 92.1364 12.2536 1129 111.081 720.025 464.733
1068 0 97.2054 12.8799 1252 109.328 719.912 464.333
1069 0 100.147 12.4717 1249 111.331 719.921 462.271
1070 0 103.197 12.9462 1336 110.138 720.51 460.59
1071 0 107.26 12.7074 1363 111.032 719.842 458.326
1072 0 114.29 15.2595 1744 103.854 719.536 453.058
1073 0 115.241 14.6215 1685 106.842 719.609 449.616
1074 0 117.243 13.0498 1530 111.965 718.805 452.984
1075 0 123.254 13.5898 1675 110.141 719.606 449.875
1076 0 125.169 13.2221 1655 112.274 719.641 447.999
1077 0 129.317 13.5172 1748 112.437 719.57 443.569
1078 0 132.298 12.6231 1670 115.442 719.155 442.77
1079 0 136.257 13.57 1849 112.744 719.606 442.99
1080 0 142.288 12.3904 1763 115.677 720.273 442.153
1081 0 149.134 14.5574 2171 110.888 720.363 437.609
1082 0 151.26 12.8785 1948 116.706 719.564 428.718
1083 0 159.17 13.1872 2099 116.916 719.434 424.394
1084 1 84.3159 12.0974 1020 112.819 719.505 462.699
1085 0 87.2556 11.346 990 113.651 719.519 460.365
1086 0 90.1 12.0755 1088 113.543 718.962 468.376
1087 0 93.1325 12.4339 1158 113.334 719.317 467.069
1088 0 98.3214 12.7439 1253 111.796 719.564 463.01
1089 0 100.253 13.4161 1345 110.452 719.99 457.992
1090 0 103.187 13.054 1347 111.921 719.597 459.376
1091 0 107.231 11.9368 1280 114.562 719.776 457.138
1092 0 111.252 12.0357 1339 114.243 719.753 454.456
1093 1 58.1416 9.95845 579 106.926 719.473 475.19
1094 0 60.214 11.2764 679 110.349 718.962 480.097
1095 0 63.2799 12.5948 797 109.221 719.417 480.307
1096 0 65.2111 12.5899 821 110.945 717.87 483.471
1097 0 67.2298 12.3308 829 112.721 718.65 480.2
1098 0 67.1498 12.0626 810 114.022 718.978 480.305
1099 0 70.3327 12.0712 849 114.773 718.809 478.923
1100 0 74.2586 12.5238 930 113.061 720.149 477.831
1101 0 75.5556 12.375 935 115.094 719.939 476.205
1102 0 78.4789 12.5257 983 113.999 720.21 475.297
1103 0 80.6081 12.6786 1022 113.961 720.018 473.085
1104 0 81.4912 12.5535 1023 114.65 720.412 473.38
1105 0 86.3958 12.5932 1088 113.178 720.403 472.39
1106 1 43.2948 10.8789 471 110.473 719.826 490.603
1107 0 44.2951 9.70762 430 113.97 720.144 486.947
1108 0 48.2172 11.0956 535 111.024 719.763 489.032
1109 0 50.1008 12.7543 639 107.131 719.496 490.507
1110 0 51.3516 12.5605 645 107.53 719.129 489.887
1111 0 50.0871 11.2404 563 112.076 719.156 488.872
1112 0 50.2024 10.5971 532 110.53 718.769 488.37
1113 0 52.1382 12.5819 656 106.136 719.255 489.492
1114 0 53.2705 11.1131 592 111.049 718.931 487.867
1115 0 55.1026 12.1773 671 108.235 719.62 487.183
1116 0 56.0729 11.271 632 109.897 719.09 486.739
1117 0 59.2168 12.3782 733 107.078 718.944 485.681
1118 0 60.1552 10.9716 660 111.044 719.177 483.703
1119 0 63.249 11.8579 750 108.869 719.261 482.767
1120 0 64.1252 11.4776 736 108.897 719.376 484.064
1121 0 69.1975 12.9774 898 106.194 719.874 481.33
1122 0 68.2847 11.3202 773 111.125 719.242 479.599
1123 0 71.2308 12.8034 912 107.595 720.037 476.334
1124 0 73.1964 12.9241 946 108.289 719.423 475.304
1125 0 74.2227 11.2904 838 112.118 720.081 475.036
1126 0 79.4801 11.9653 951 108.515 720.461 476.08
1127 0 82.3418 13.1889 1086 106.65 720.391 472.802
1128 0 83.4658 12.4243 1037 109.116 721.071 470.333
1129 0 86.4265 13.5838 1174 106.6 720.563 469.315
1130 0 88.483 12.7369 1127 109.026 720.956 467.398
1131 0 92.4018 13.5928 1256 106.992 720.952 466.611
1132 0 95.4574 13.5872 1297 106.422 720.234 464.245
1133 0 97.4669 13.5225 1318 107.91 720.725 464.651
1134 0 98.4159 13.8087 1359 108.847 721.012 463.804
1135 0 101.354 12.4218 1259 113.568 720.525 460.648
1136 0 104.337 12.6897 1324 112.561 720.542 460.33
1137 0 108.2 12.8928 1395 111.48 720.381 458.624
1138 0 112.283 13.2077 1483 111.225 720.52 455.655
1139 0 115.402 11.8022 1362 115.858 720.672 457.195
1140 1 59.106 8.88235 525 109.128 720.899 475.884
1141 0 63.0893 12.3159 777 103.275 720.744 475.869
1142 0 65.102 10.8138 704 97.027 720.216 478.713
1143 0 65.1131 8.32398 542 102.696 720.518 478.906
1144 0 70.1287 11.9352 837 96.1386 720.121 476.755
1145 0 73.2468 11.0585 810 99.4358 721.04 474.872
1146 0 74.1093 11.8474 878 97.9704 719.967 473.861
1147 0 79.1061 10.8209 856 99.1051 720.289 472.946
1148 0 81.1401 11.8191 959 97.5912 720.241 471.236
1149 0 84.1181 11.2699 948 100.742 719.686 467.463
1150 0 88.1724 11.727 1034 98.3781 719.132 467.565
1151 0 89.1229 10.4126 928 102.311 719.416 465.587
1152 0 94.1574 11.3215 1066 100.902 719.408 464.992
1153 1 48.0282 9.95248 478 96.6172 718.128 485.929
1154 0 50.0471 11.0696 554 104.814 720.888 487.612
1155 0 56.1194 12.0636 677 99.3235 720.789 488.585
1156 0 55.1075 13.0835 721 98.4632 720.82 486.94
1157 0 55.0434 11.1912 616 103.753 719.955 487.817
1158 0 60.0144 13.3135 799 97.0726 720.272 486.845
1159 0 59.0435 11.3645 671 102.252 720.25 484.025
1160 0 61.0373 11.8124 721 101.291 720.718 482.981
1161 0 63.0575 12.1794 768 99.9362 720.814 481.855
1162 0 63.071 10.7498 678 105.18 721.167 481.176
1163 0 67.0619 12.4363 834 100.385 720.766 478.38
1164 0 69.0972 12.0844 835 101.624 721.244 476.992
1165 0 71.0987 12.2787 873 100.588 721.482 476.457
1166 0 76.167 11.4223 870 101.724 721.057 474.915
1167 0 78.0785 12.8076 1000 98.656 721.224 474.21
1168 0 81.0475 12.4618 1010 99.2604 720.86 474.591
1169 0 83.1187 11.8626 986 101.047 721.327 470.349
1170 0 85.108 11.785 1003 101.573 721.884 468.853
1171 1 46.0518 10.4882 483 104.168 722.832 489.923
1172 0 47.079 11.4276 538 104.401 721.381 492.093
1173 0 48.3269 11.5671 559 107.496 719.467 487.707
1174 0 48.0143 10.3094 495 112.063 717.659 488.703
1175 0 51.0595 11.8293 604 107.825 718.502 488.955
1176 0 52.0405 12.1444 632 108.291 717.04 486.676
1177 0 52.058 11.8137 615 109.805 717.54 486.314
1178 0 53.1486 11.9853 637 110.788 717.044 483.655
1179 0 55.1081 12.1761 671 110.586 717.441 483.909
1180 0 56.0863 11.6428 653 112.845 718.213 482.605
1181 0 58.0258 12.5978 731 111.737 718.062 481.461
1182 0 61.0442 12.8759 786 111.246 717.822 479.438
1183 0 63.062 12.6859 800 112.076 718.049 481.13
1184 0 63.0684 13.3347 841 112.232 717.823 477.995
1185 0 65.0717 11.8792 773 116.441 718.06 479.01
1186 0 68.1663 13.9072 948 111.195 719.967 478.208
1187 0 70.1544 14.0405 985 111.518 720.698 478.635
1188 0 74.1584 14.523 1077 109.963 720.903 479.167
1189 0 73.1788 13.4055 981 115.796 720.741 476.981
1190 0 76.1443 12.8966 982 117.122 720.466 475.781
1191 0 80.1669 13.4469 1078 115.808 720.767 475.5
1192 0 82.1954 13.0908 1076 118.261 720.498 473.772
1193 0 84.1897 13.3033 1120 118.796 720.4 472.674
1194 0 87.1781 13.4438 1172 117.163 720.55 471.367
1195 0 93.0722 15.2892 1423 110.337 718.765 466.219
1196 0 93.2447 13.3198 1242 121.952 719.076 469.22
1197 1 53.0994 10.5839 562 121.192 718.441 490.335
1198 0 52.0766 11.5215 600 121.193 717.807 488.63
1199 0 55.5008 11.7476 652 119.966 720.704 484.813
1200 0 56.2502 10.6311 598 112.371 719.91 481.258
1201 0 58.2885 10.4995 612 112.982 720.366 480.92
1202 0 60.2728 11.6304 701 110.188 719.688 481.001
1203 0 59.3158 11.6664 692 112.416 719.879 479.279
1204 0 59.0808 11.205 662 114.196 721.048 483.107
1205 0 62.074 11.4863 713 112.698 720.941 484.878
1206 0 63.0948 10.7299 677 115.716 720.69 482.82
1207 0 64.0196 10.528 674 117.582 721.013 483.639
1208 0 68.0347 10.9062 742 116.164 721.133 483.209
1209 0 71.0871 11.6195 826 114.027 720.887 481.582
1210 0 73.1101 11.5306 843 114.762 719.628 480.136
1211 0 76.1539 12.6192 961 113.42 720.079 477.812
1212 0 78.1677 11.4625 896 115.613 720.327 476.71
1213 0 83.094 12.0225 999 113.548 720.375 477.021
1214 0 86.22 12.816 1105 112.456 720.339 472.605
1215 0 88.35 12.2694 1084 115.089 720.057 470.113
1216 0 91.1477 12.6717 1155 115.306 720.372 469.548
1217 0 96.1094 13.006 1250 116.242 719.764 469.47
1218 0 98.2158 11.77 1156 118.963 719.217 466.633
1219 1 55.2964 11.9718 662 115.486 719.586 483.562
1220 0 58.3251 12.9447 755 113.098 720.155 481.689
1221 0 59.1188 12.3819 732 113.811 719.575 484.872
1222 0 59.0522 12.091 714 116.28 719.326 486.066
1223 0 65.1593 12.9222 842 112.164 719.646 483.992
1224 0 64.1021 12.8389 823 114.047 720.004 482.309
1225 0 67.1455 14.8037 994 108.685 719.953 481.638
1226 0 68.1563 13.4984 920 112.477 719.421 481.382
1227 0 73.1593 14.1882 1038 109.335 719.724 478.88
1228 0 73.1531 12.4123 908 114.845 720.217 478.013
1229 0 77.1419 13.2354 1021 111.54 720.156 476.868
1230 0 79.1607 12.6957 1005 112.306 720.187 475.896
1231 0 80.14 11.6546 934 114.554 719.531 475.532
1232 0 83.0933 11.9865 996 113.088 719.939 473.203
1233 0 86.1265 11.6341 1002 113.211 720.058 473.637
1234 0 91.1359 12.037 1097 113.486 719.74 471.433
1235 0 92.1677 12.5098 1153 111.366 719.561 469.69
1236 0 97.251 9.65543 939 116.18 719.92 470.919
1237 1 48.1379 10.6361 512 111.439 718.66 490.635
1238 0 51.1329 11.4995 588 110.986 718.906 486.206
1239 0 54.2574 13.2885 721 106.724 718.71 484.017
1240 0 55.1555 12.8546 709 107.772 719.384 483.495
1241 0 58.1644 12.7226 740 106.645 719.059 484.93
1242 0 59.1505 12.1723 720 108.428 718.904 485.306
1243 0 60.1754 12.2808 739 109.039 719.241 483.574
1244 0 61.1378 12.4473 761 110.152 719.254 482.415
1245 0 62.0855 11.8224 734 112.275 719.658 482.248
1246 0 66.093 14.0711 930 105.412 720.872 481.44
1247 0 69.1987 13.1794 912 106.954 721.741 481.002
1248 0 70.0866 12.4275 871 109.664 720.939 478.937
1249 0 73.191 13.1983 966 107.89 721.255 477.589
1250 0 73.1809 12.6672 927 110.863 721.096 477.029
1251 0 76.1243 13.0576 994 108.672 721.423 477.277
1252 0 79.056 13.2817 1050 109.423 720.974 473.836
1253 0 82.2462 12.2437 1007 111.375 721.205 473.006
1254 0 84.1671 11.9762 1008 112.892 721.359 473.005
1255 0 88.0926 12.8047 1128 112.444 721.234 470.431
1256 0 90.1752 12.143 1095 115.728 720.9 468.509
1257 1 43.1243 10.8987 470 110.4 721.277 491.211
1258 0 46.1691 13.104 605 106.15 720.271 490.215
1259 0 47.2391 10.4786 495 110.523 720.226 489.693
1260 0 49.055 11.5992 569 107.619 720.457 489.77
1261 0 50.1728 10.5635 530 110.774 719.87 489.579
1262 0 53.1989 11.6168 618 107.422 720.227 489.283
1263 0 53.18 10.267 546 111.581 719.205 488.643
1264 0 56.1443 13.3406 749 103.881 719.423 488.406
1265 0 57.3243 12.3333 707 106.062 720.208 486.352
1266 0 58.3378 12.3248 719 107.058 719.943 484.736
1267 0 61.2692 12.8939 790 105.165 719.5 485.354
1268 0 63.1674 13.1397 830 105.463 719.745 481.645
1269 0 65.2049 12.6678 826 107.303 720.276 482.907
1270 0 66.1678 12.4381 823 108.796 719.865 482.533
1271 0 69.2996 13.1891 914 107.748 718.929 481.228
1272 0 72.1837 14.089 1017 107.055 719.629 479.907
1273 0 73.148 13.4795 986 111.1 719.671 477.767
1274 0 76.2639 13.2041 1007 110.905 719.602 479.2
1275 0 78.3324 13.2895 1041 112.508 719.304 475.407
1276 0 83.4501 13.6968 1143 112.113 718.6 471.919
1277 0 84.515 13.9265 1177 112.435 719.204 470.801
1278 0 88.5215 13.8836 1229 112.36 719.071 471.081
1279 1 43.2442 11.8397 512 115.793 718.986 489.021
1280 0 44.3721 10.8852 483 118.13 718.602 489.965
1281 0 46.3699 12.6806 588 115.832 719.155 489.209
1282 0 48.2853 12.7368 615 117.967 718.964 488.807
1283 0 51.1624 12.861 658 113.761 720.862 490.381
1284 0 53.0768 13.6029 722 111.68 721.191 490.219
1285 0 55.1553 13.0541 720 114.447 721.361 487.708
1286 0 57.1079 13.9735 798 112.367 721.466 488.109
1287 0 56.1143 13.0092 730 118.103 721.001 486.358
1288 0 59.0739 13.2546 783 115.847 721.181 487.352
1289 0 61.1194 12.6474 773 119.49 720.862 484.898
1290 0 65.0622 13.8022 898 115.453 721.386 484.369
1291 0 66.0893 13.0581 863 119.041 721.491 483.114
1292 0 69.1534 13.0869 905 119.31 721.651 482.187
1293 0 73.2396 13.6265 998 118.108 721.47 481.144
1294 0 73.1075 12.379 905 125.085 722.001 478.209
1295 0 76.1284 12.3213 938 124.658 721.232 477.634
1296 0 78.2363 12.1555 951 125.102 721.575 476.379
1297 0 82.241 12.512 1029 123.903 720.476 474.318
1298 0 85.2748 13.2865 1133 122.578 720.991 471.63
1299 0 88.2373 12.0244 1061 124.275 720.818 474.137
1300 1 44.2254 11.4866 508 123.555 720.659 493.354
1301 0 47.1473 11.9837 565 121.501 720.871 493.175
1302 0 49.1531 12.1254 596 119.508 720.587 492.336
1303 0 49.1201 12.276 603 119.327 720.662 492.095
1304 0 52.177 13.2434 691 121.699 718.722 487.712
1305 0 55.1378 12.5867 694 122.089 718.285 488.987
1306 0 57.0609 13.1439 750 120.963 718.351 487.643
1307 0 58.0467 14.0921 818 119.631 718.244 487.853
1308 0 62.0676 14.5486 903 117.798 718.326 485.543
1309 0 63.0792 14.7117 928 118.827 718.2 483.672
1310 0 64.0845 14.1844 909 120.55 718.051 484.491
1311 0 66.1245 12.915 854 124.132 718.096 482.537
1312 0 70.0325 13.6508 956 121.163 718.827 481.725
1313 0 71.2425 12.9979 926 123.121 718.194 482.505
1314 0 75.1065 14.2198 1068 119.048 718.092 480.243
1315 0 75.1731 13.3957 1007 123.38 718.044 478.138
1316 0 79.184 13.9927 1108 121.204 718.545 477.51
1317 0 87.1902 11.6412 1015 124.841 718.403 478.705
1318 0 86.1578 14.4154 1242 119.436 718.259 472.932
1319 1 44.0409 11.6256 512 122.951 718.469 493.035
1320 0 45.1939 11.9042 538 119.264 719.089 489.206
1321 0 46.2044 12.1417 561 118.23 718.948 488.246
1322 0 48.18 12.5778 606 109.089 720.117 491.688
1323 0 50.0377 12.8703 644 108.323 719.615 491.321
1324 0 52.1099 12.6272 658 110.097 719.652 489.743
1325 0 53.0754 13.3207 707 108.468 719.685 489.207
1326 0 52.0438 12.4318 647 113.311 719.954 488.294
1327 0 55.1497 13.5812 749 109.573 720.08 488.732
1328 0 57.1854 13.1852 754 110.334 720.229 487.126
1329 0 60.0799 14.0147 842 108.213 720.437 486.55
1330 0 62.0519 14.7135 913 107.065 719.766 486.089
1331 0 64.0961 14.7435 945 107.013 719.793 485.88
1332 0 65.1022 13.4404 875 112.011 720.144 484.766
1333 0 65.0871 14.2578 928 111.148 720.739 484.272
1334 0 67.0622 13.0476 875 113.749 720.017 483.19
1335 0 70.0713 13.3864 938 113.629 719.737 480.628
1336 0 72.0768 14.0822 1015 113.417 719.224 481.078
1337 0 75.1232 14.0969 1059 114.37 719.564 479.599
1338 0 75.1937 12.275 923 120.263 719.725 477.815
1339 0 78.2576 12.9572 1014 118.404 719.543 477.292
1340 0 80.0872 13.5602 1086 117.704 719.102 477.993
1341 0 83.2673 12.4779 1039 119.91 719.544 476.352
1342 0 86.2592 13.7377 1185 117.804 718.924 473.184
1343 0 92.2415 14.126 1303 117.093 719.12 466.943
1344 0 95.2449 13.7855 1313 122.072 718.712 470.663
1345 1 45.0395 12.1005 545 120.815 719.428 491.178
1346 0 49.1686 12.7114 625 119.488 719.35 489.44
1347 0 49.2036 13.1088 645 120.205 718.913 488.166
1348 0 50.0491 12.4478 623 122.074 719.005 489.732
1349 0 53.2049 14.5099 772 116.036 719.269 490.4
1350 0 56.1033 13.4395 754 118.751 719.509 488.428
1351 0 58.2346 13.6345 794 118.882 719.288 485.286
1352 0 58.3182 13.855 808 119.252 718.9 483.108
1353 0 62.1222 13.8115 858 117.557 719.467 484.597
1354 0 64.2475 13.7904 886 118.964 719.385 481.848
1355 0 66.1716 13.9335 922 118.536 719.241 481.068
1356 0 67.2819 14.625 984 117.079 719.166 479.619
1357 0 70.235 13.526 950 119.031 718.835 477.801
1358 0 72.1437 13.8751 1001 118.587 718.947 475.992
1359 0 75.1959 13.8438 1041 117.967 719.241 475.651
1360 0 78.1767 14.6079 1142 116.409 718.876 474.741
1361 0 80.4142 13.9776 1124 116.922 719.004 473.752
1362 0 82.1855 13.0802 1075 119.905 718.545 472.058
1363 0 85.2245 14.2917 1218 116.421 718.823 469.387
1364 0 88.1473 13.727 1210 117.41 718.821 470.488
1365 0 94.3048 15.4287 1455 112.005 719.115 466.731
1366 0 95.2481 14.52 1383 114.969 718.775 465.288
1367 1 47.0888 12.1897 574 119.359 719.889 488.064
1368 0 53.265 13.8177 736 112.071 719.595 486.45
1369 0 55.2774 12.9348 715 111.669 719.724 488.894
1370 0 56.1524 12.5907 707 115.663 719.802 487.18
1371 0 58.0666 12.7957 743 118.038 719.413 486.318
1372 0 58.0712 13.8795 806 117.22 719.572 483.984
1373 0 63.1749 13.6921 865 115.109 719.956 483.832
1374 0 63.1313 13.3373 842 117.049 720.274 482.452
1375 0 67.1266 13.765 924 115.774 720.225 481.692
1376 0 69.2004 13.1647 911 118.607 720.297 478.892
1377 0 71.2643 12.6431 901 119.476 720.248 477.998
1378 0 74.3709 14.5084 1079 115.304 719.836 475.68
1379 0 75.4073 13.4337 1013 117.303 719.936 475.745
1380 0 80.2209 13.6623 1096 117.25 720.202 472.801
1381 0 80.4863 13.5427 1090 117.819 720.225 471.672
1382 0 84.1661 13.6041 1145 117.618 719.947 470.295
1383 0 87.3775 13.6534 1193 118.407 719.31 468.386
1384 0 91.4722 13.9059 1272 117.067 719.369 465.893
1385 1 46.188 11.2367 519 111.193 719.59 490.127
1386 0 46.3662 10.5896 491 111.503 720.31 490.208
1387 0 50.1467 10.6687 535 110.293 720.245 491.211
1388 0 51.41 13.1492 676 108.284 719.951 487.975
1389 0 51.273 11.546 592 112.191 720.841 486.331
1390 0 54.2806 12.3985 673 109.805 720.103 487.944
1391 0 57.1748 11.666 667 114.276 720.636 488.373
1392 0 59.1498 12.9502 766 111.543 720.188 486.234
1393 0 60.2182 11.5746 697 114.055 720.336 487.438
1394 0 61.1163 11.8135 722 116.413 719.442 483.752
1395 0 66.0671 11.8364 782 115.261 719.992 483.783
1396 0 67.1781 12.251 823 114.769 720.241 482.863
1397 0 69.1336 12.7145 879 116.579 720.214 479.046
1398 0 72.2063 12.8659 929 116.318 719.79 478.774
1399 0 77.3033 13.2595 1025 114.523 719.935 478.188
1400 0 76.2394 11.9754 913 119.612 719.917 473.463
1401 0 79.3608 12.8905 1023 118.895 719.74 469.467
1402 0 82.1427 13.5496 1113 117.423 719.815 472.454
1403 0 84.3182 13.9472 1176 116.491 719.496 472.21
1404 0 88.1787 13.0871 1154 119.421 719.629 466.795
1405 0 93.282 14.0434 1310 115.78 719.252 461.306
1406 0 92.1485 12.5341 1155 122.672 718.7 461.638
1407 0 95.4325 12.8992 1231 122.606 718.447 460.623
1408 0 102.344 15.5847 1595 113.313 718.752 456.625
1409 1 52.1205 12.1066 631 117.87 718.954 483.826
1410 0 53.1223 12.1418 645 119.763 719.439 485.581
1411 0 59.3145 13.1503 780 119.594 719.031 485.867
1412 0 59.2403 12.4408 737 122.339 719.145 483.57
1413 0 60.2501 12.083 728 123.688 718.337 481.485
1414 0 61.084 11.3123 691 114.705 719.25 485.525
1415 0 65.077 12.4468 810 113.926 718.974 482.041
1416 0 68.0646 11.4156 777 116.524 718.337 481.085
1417 0 69.1543 11.9732 828 116.36 719.122 478.844
1418 0 71.0712 11.8051 839 117.263 718.708 479.386
1419 0 73.0736 11.1531 815 118.137 718.503 478.08
1420 0 78.1431 11.6197 908 117.271 718.519 476.485
1421 0 78.1094 10.3829 811 120.195 718.592 476.778
1422 0 83.1359 11.8481 985 117.41 718.284 473.918
1423 0 85.0888 11.9757 1019 119.288 718.608 470.227
1424 0 89.1168 12.4219 1107 116.348 718.87 468.855
1425 1 45.0487 11.1435 502 112.851 718.908 490.624
1426 0 46.1349 11.0762 511 114.35 720.532 486.734
1427 0 49.1264 12.2948 604 110.27 720.642 487.305
1428 0 51.1 12.1135 619 110.32 719.695 489.092
1429 0 52.0285 12.4163 646 110.485 719.364 486.615
1430 0 52.0561 12.1792 634 112.292 719.063 486.032
1431 0 54.0847 12.8132 693 111.498 719.097 484.483
1432 0 58.0992 12.1172 704 112.058 719.169 483.719
1433 0 57.1381 11.0434 631 115.328 718.861 483.366
1434 0 61.1138 12.1576 743 112.98 718.895 479.751
1435 0 63.2984 11.9592 757 119.288 719.297 480.015
1436 0 62.2252 10.6066 660 119.453 719.144 476.888
1437 0 66.1858 12.48 826 116.025 718.976 474.028
1438 0 69.1132 12.4868 863 116.904 718.34 476.393
1439 0 72.0992 12.8018 923 117.199 719.919 474.733
1440 0 73.1159 10.9552 801 121.608 719.401 475.001
1441 0 76.1971 10.8141 824 122.768 719.483 472.36
1442 0 80.1042 11.1355 892 121.339 719.418 472.244
1443 1 39.1814 10.0558 394 113.855 721.343 490.431
1444 0 42.3037 11.0392 467 114.069 720.852 486.812
1445 0 42.2143 11.3469 479 113.284 720.856 486.599
1446 0 44.1875 10.9081 482 113.988 720.751 485.832
1447 0 44.1646 13.0421 576 112.172 720.967 487.905
1448 0 46.0495 13.0295 600 112.717 720.83 488.683
1449 0 45.093 11.5761 522 118.916 721.209 488.63
1450 0 48.2075 12.2388 590 113.846 720.569 488.51
1451 0 49.0577 12.9032 633 113.543 720.559 486.442
1452 0 52.2386 13.7063 716 110.788 720.923 487.034
1453 0 53.0952 11.7525 624 116.814 720.974 485.562
1454 0 55.1937 12.9725 716 113.401 720.595 485.063
1455 0 55.1668 13.1238 724 114.221 721.124 484.837
1456 0 58.1386 12.195 709 116.117 720.946 484.319
1457 0 59.1459 12.41 734 116.023 720.548 483.086
1458 0 62.2363 13.9468 868 111.056 720.873 481.463
1459 0 64.0952 13.2771 851 111.906 720.619 482.571
1460 0 67.3383 12.7416 858 113.199 720.869 481.621
1461 0 68.2175 13.0905 893 113.084 720.867 479.168
1462 0 69.3851 12.7981 888 113.197 720.731 478.459
1463 0 72.2773 12.964 937 113.035 720.851 478.168
1464 0 75.2338 13.9698 1051 110.578 720.074 475.587
1465 0 77.4477 12.2663 950 115.383 720.356 475.486
1466 1 41.3586 11.7509 486 114.912 719.689 491.208
1467 0 42.1775 11.8784 501 109.87 718.936 492.401
1468 0 42.341 11.9034 504 111.927 718.585 488.76
1469 0 42.093 10.9519 461 115.189 719.777 493.794
1470 0 43.1436 11.6124 501 113.343 720.497 493.361
1471 0 45.1662 10.6053 479 113.069 720.975 489.555
1472 0 47.1168 12.6282 595 109.19 720.442 488.924
1473 0 47.0343 11.0983 522 116.216 720.036 490.92
1474 0 49.05 11.2131 550 112.318 720.316 489.045
1475 0 53.195 11.2041 596 109.933 720.086 488.631
1476 0 55.277 12.0846 668 107.38 720.078 488.939
1477 0 55.1506 11.4777 633 109.18 719.613 487.6
1478 0 57.1483 11.4264 653 110.066 719.815 485.443
1479 0 59.2142 12.2268 724 108.144 720.12 485.341
1480 0 59.1861 11.5061 681 110.574 720.053 485.253
1481 0 62.3016 12.4395 775 107.743 720.43 483.338
1482 0 64.1826 11.1868 718 112.077 719.609 482.028
1483 0 67.1291 12.6324 848 107.958 719.822 481.019
1484 0 68.3132 12.3402 843 108.578 719.841 480.929
1485 0 68.2044 11.7148 799 111.431 719.776 479.641
1486 0 71.1632 12.1552 865 111.852 719.238 478.556
1487 0 74.2237 12.6779 941 110.457 719.228 477.637
1488 0 78.1524 12.8595 1005 109.528 719.197 477.637
1489 0 80.2028 12.1941 978 111.905 719.271 476.801
1490 0 82.1931 12.0691 992 113.787 719.332 473.837
1491 1 46.0387 12.1637 560 116.336 720.261 493.459
1492 0 42.1136 9.71182 409 113.807 719.494 487.467
1493 0 44.1384 10.5804 467 108.218 718.437 488.916
1494 0 48.0458 10.8022 519 108.73 718.366 489.644
1495 0 49.0179 13.2401 649 113.724 717.888 493.421
1496 0 49.0839 12.1017 594 118.773 717.029 492.135
1497 0 49.0948 12.0379 591 121.015 717.56 491.146
1498 0 52.051 11.9882 624 121.607 718.043 489.681
1499 0 53.0095 12.6958 673 118.278 717.713 491.015
1500 0 56.0776 12.1974 684 120.035 717.651 488.548
1501 0 57.1232 12.5518 717 119.583 717.442 487.121
1502 0 61.1039 12.3396 754 118.691 717.537 486.786
1503 0 61.1318 13.2991 813 116.301 718.535 484.289
1504 0 61.1442 11.4647 701 114.835 718.779 482.573
1505 0 63.171 12.6324 798 113.198 718.051 483.005
1506 0 63.1179 13.7362 867 115.487 718.495 482.085
1507 0 64.0603 12.0668 773 121.021 718.545 481.642
1508 0 64.0701 11.8776 761 123.269 717.933 481.426
1509 0 65.0992 12.5962 820 124.016 717.587 479.235
1510 0 66.1994 12.7947 847 124.44 717.315 480.75
1511 0 71.1072 12.8538 914 121.937 717.748 479.042
1512 0 73.1057 12.5845 920 121.402 717.585 478.316
1513 0 75.1396 12.6298 949 119.468 717.289 477.298
1514 0 76.1044 12.9165 983 118.697 716.949 476.159
1515 0 78.0899 11.9222 931 120.23 717.269 475.032
1516 0 84.0587 13.8118 1161 114.345 717.288 473.304
1517 0 86.037 12.3319 1061 117.342 717.285 474.658
1518 1 46.0143 11.7137 539 118.892 716.842 491.599
1519 0 47.1255 12.3076 580 118.816 717.481 489.969
1520 0 46.0382 11.056 509 123.126 716.405 491.267
1521 0 48.0053 12.1028 581 122.136 716.907 490.842
1522 0 50.0741 11.9024 596 122.636 716.173 490.837
1523 0 51.0366 12.8731 657 121.921 716.441 490.091
1524 0 52.0193 12.6491 658 124.883 716.544 489.559
1525 0 53.0577 13.3063 706 124.422 716.506 487.895
1526 0 55.0282 12.8843 709 125.449 716.804 488.054
1527 0 57.0247 14.6779 837 122.697 716.756 486.895
1528 0 58.0284 13.5106 784 127.791 716.436 486.538
1529 0 60.0698 13.734 825 128.539 716.794 484.499
1530 0 63.0262 12.5821 793 132.282 716.304 485.035
1531 0 64.0576 13.4722 863 132.548 716.139 483.514
1532 0 65.0669 14.0471 914 132.356 716.152 482.834
1533 0 67.0354 13.2766 890 135.918 716.49 482.908
1534 0 68.0704 13.2069 899 137.747 717.107 482.749
1535 0 68.0429 13.0506 888 142.12 716.846 480.761
1536 0 72.0338 14.8403 1069 136.517 717.062 480.123
1537 0 75.066 14.827 1113 137.703 716.973 479.443
1538 0 76.0749 13.8153 1051 141.845 717.23 479.324
1539 0 79.0178 14.212 1123 141.167 717.05 477.773
1540 0 82.0455 13.651 1120 143.166 716.987 477.01
1541 0 85.0984 13.7958 1174 142.851 716.841 474.859
1542 0 86.0439 13.435 1156 143.81 716.951 473.862
1543 0 90.1248 13.5035 1217 140.916 717.389 472.809
1544 0 93.0945 12.8579 1197 143.038 716.942 471.997
1545 1 50.0194 12.1553 608 140.132 716.65 491.873
1546 0 53.0482 12.8374 681 135.667 716.656 490.442
1547 0 55.1434 13.2019 728 129.625 716.952 487.949
1548 0 57.1051 13.3088 760 128.649 716.075 487.904
1549 0 57.0914 12.3486 705 131.492 716.228 488.179
1550 0 59.1306 13.5463 801 127.381 716.228 485.961
1551 0 62.1825 14.3288 891 124.975 716.081 484.688
1552 0 64.1264 13.9568 895 124.806 715.73 482.878
1553 0 66.1359 13.941 922 124.315 716.026 483.118
1554 0 68.0625 14.6189 995 122.452 715.883 482.376
1555 0 68.0353 12.6111 858 128.682 715.34 483.186
1556 0 72.0463 13.1027 944 126.172 715.503 479.066
1557 0 75.0686 13.0281 978 125.014 715.935 479.922
1558 0 78.0684 12.9246 1009 125.407 715.35 477.989
1559 0 80.0627 14.1764 1135 121.278 715.866 474.769
1560 0 83.0702 13.6029 1130 122.789 715.448 474.491
1561 0 87.2091 13.1408 1146 122.486 715.721 473.908
1562 0 88.1654 12.1249 1069 125.759 716.128 473.249
1563 0 92.1232 12.7764 1177 122.193 715.973 470.043
1564 0 96.1146 14.0353 1349 117.784 716.71 468.9
1565 0 97.2164 12.1173 1178 121.958 716.52 467.473
1566 0 102.146 13.0598 1334 118.748 716.531 467.179
1567 1 51.1524 12.453 637 122.614 715.436 489.162
1568 0 53.0976 12.7124 675 121.154 715.778 488.348
1569 0 53.1203 13.2153 702 120.688 715.949 488.517
1570 0 56.0748 13.6068 763 119.623 715.86 486.174
1571 0 57.0685 12.9844 741 120.877 715.88 487.135
1572 0 59.2269 12.7814 757 121.933 715.379 485.523
1573 0 62.0874 13.6421 847 119.279 715.754 483.954
1574 0 63.1944 12.6277 798 123.13 715.466 484.001
1575 0 65.1104 13.2851 865 121.629 715.671 481.792
1576 0 67.1131 12.3076 826 123.975 716.127 481.683
1577 0 70.1416 12.9025 905 121.644 716.02 480.923
1578 0 70.1166 12.4507 873 123.89 715.506 477.472
1579 0 74.2703 12.7776 949 122.237 715.843 478.851
1580 0 75.2195 11.1939 842 126.03 716.211 477.76
1581 0 80.2942 13.2886 1067 120.995 715.878 475.3
1582 0 83.1498 13.3013 1106 120.429 716.67 473.567
1583 0 87.232 13.1603 1148 120.595 716.89 471.567
1584 0 89.1786 12.3797 1104 122.425 716.737 471.808
1585 0 92.2973 13.0556 1205 121.022 716.856 469.008
1586 1 48.1587 11.5244 555 122.263 716.409 489.052
1587 0 48.1475 11.0909 534 121.33 716.94 485.384
1588 0 48.1667 10.7543 518 117.981 716.342 481.625
1589 0 49.1738 11.4085 561 122.143 717.273 482.522
1590 0 52.234 13.5735 709 115.508 716.807 481.056
1591 0 55.2463 12.9602 716 116.591 716.672 480.024
1592 0 57.2372 13.5576 776 116.01 716.357 478.997
1593 0 58.2202 13.552 789 117.513 716.57 478.641
1594 0 60.2008 13.3221 802 118.322 717.137 477.8
1595 0 61.1615 13.5052 826 118.862 717.184 474.561
1596 0 63.1963 12.928 817 121.094 716.645 474.782
1597 0 67.2078 13.4955 907 118.71 716.739 475.141
1598 0 68.1923 12.8167 874 121.432 717.286 473.854
1599 0 71.1133 12.6559 900 121.399 717.697 474.692
1600 0 73.1434 13.8495 1013 119.614 717.207 471.622
1601 0 77.0866 14.2048 1095 118.985 717.342 470.727
1602 0 77.1066 14.1622 1092 120.185 717.538 469.975
1603 0 81.1821 13.7346 1115 120.608 717.213 467.847
1604 0 83.1407 14.1567 1177 119.506 717.736 467.777
1605 0 86.2215 14.2656 1230 120.106 717.581 466.563
1606 0 87.2047 13.0498 1138 123.906 717.688 465.571
1607 0 93.2177 14.9757 1396 117.75 717.501 462.011
1608 0 96.1877 14.3054 1376 120.773 717.819 460.614
1609 1 48.2198 10.8876 525 120.838 717.402 484.046
1610 0 50.1567 11.2448 564 120.871 717.699 483.945
1611 0 54.2499 12.9217 701 112.853 716.427 482.412
1612 0 57.1459 11.5669 661 115.87 717.469 481.88
1613 0 58.1408 12.6245 734 108.7 717 481.392
1614 0 60.1344 12.6384 760 108.892 717.107 478.859
1615 0 58.2605 11.9463 696 112.983 717.534 477.961
1616 0 63.1994 11.709 740 112.045 717.12 477.688
1617 0 64.3327 12.3421 794 111.244 717.232 475.695
1618 0 67.1377 12.3775 831 111.101 717.276 475.977
1619 0 71.4566 13.9665 998 107.81 717.199 474.352
1620 0 71.4563 12.889 921 112.329 718.107 471.782
1621 0 75.2521 13.1691 991 112.042 716.639 470.402
1622 0 76.1641 13.2871 1012 113.564 717.134 470.813
1623 0 77.2774 13.1086 1013 116.139 717.229 469.908
1624 0 77.1717 13.4894 1041 118.334 717.741 467.884
1625 0 82.1872 13.5788 1116 116.938 717.616 467.582
1626 0 84.208 13.7042 1154 116.384 717.226 464.309
1627 0 88.2807 12.5962 1112 117.331 717.442 463.694
1628 0 91.3137 13.8205 1262 114.853 716.755 462.009
1629 0 92.3997 13.2793 1227 115.909 716.81 460.606
1630 0 96.3136 12.8746 1240 116.941 716.754 458.524
1631 0 103.4 13.5977 1406 114.001 716.255 456.28
1632 1 55.3269 11.4411 633 117.164 716.145 477.242
1633 0 58.1652 12.4817 726 114.574 715.95 477.24
1634 0 62.1873 12.9448 805 112.82 716.415 481.452
1635 0 64.0805 12.9212 828 113.527 716.194 480.576
1636 0 67.1442 13.4338 902 111.649 716.108 480.681
1637 0 70.2384 13.7674 967 110.238 716.425 478.628
1638 0 72.3258 14.2411 1030 110.376 716.411 473.39
1639 0 71.2696 12.8245 914 115.488 716.836 474.182
1640 0 77.2369 14.9799 1157 109.868 716.497 471.037
1641 0 80.1975 13.7037 1099 114.123 716.469 471.569
1642 0 81.2632 13.8562 1126 115.939 716.353 471.273
1643 0 84.3943 12.7497 1076 118.36 716.731 468.475
1644 0 86.3303 12.6375 1091 118.731 716.567 468.92
1645 0 90.3227 13.9057 1256 116.557 716.002 465.365
1646 0 91.3255 13.2712 1212 121.252 716.375 464.488
1647 0 96.3394 14.1894 1367 119.477 715.971 461.128
1648 0 98.4006 15.071 1483 116.817 715.711 460.701
1649 0 98.3025 12.7057 1249 124.241 716.049 459.543
1650 0 103.232 12.6608 1307 121.179 715.976 455.76
1651 0 107.205 13.3762 1434 119.106 716.096 453.683
1652 0 110.158 13.5715 1495 118.983 716.183 448.635
1653 1 57.04 10.291 587 110.521 716.79 479.545
1654 0 58.1102 10.4973 610 110.736 716.562 476.266
1655 0 61.0722 10.6104 648 104.605 716.048 477.21
1656 0 65.1362 12.0363 784 101.454 716.814 475.949
1657 0 67.0606 12.1979 818 100.895 716.131 475.807
1658 0 68.0815 11.4422 779 103.761 715.981 474.698
1659 0 68.0428 10.611 722 107.03 716.269 472.594
1660 0 74.0605 11.8282 876 104.521 716.403 471.533
1661 0 77.0344 11.4494 882 105.384 716.103 471.412
1662 0 78.1163 12.0846 944 104.899 716.483 467.956
1663 0 82.1166 11.6054 953 105.646 716.621 468.994
1664 0 84.1573 12.1677 1024 104.733 716.772 465.197
1665 0 89.2095 11.8597 1058 107.919 715.877 466.59
1666 0 89.0778 12.0906 1077 121.293 715.153 469.538
1667 0 92.1856 13.0064 1199 122.469 716.902 465.945
1668 0 96.228 12.512 1204 123.718 716.85 465.435
1669 0 100.24 13.2382 1327 121.497 717.219 466.113
1670 0 103.222 13.4371 1387 121.696 716.846 464.08
1671 0 105.264 13.4899 1420 123.196 716.197 462.123
1672 0 107.201 12.6212 1353 125.642 715.797 460.68
1673 0 111.241 12.9989 1446 125.961 716.14 459.481
1674 0 115.256 14.047 1619 124.697 716.48 455.311
1675 0 119.326 14.1042 1683 125.412 716.131 452.548
1676 0 123.139 13.0828 1611 117.021 716.138 451.882
1677 0 127.25 12.7544 1623 118.668 716.311 449.827
1678 0 132.164 14.1113 1865 116.139 716.518 446.725
1679 1 68.199 9.13503 623 115.621 717.915 483.613
1680 0 72.0908 12.082 871 112.487 717.261 479.553
1681 0 74.1412 11.9232 884 112.519 716.889 478.109
1682 0 76.3723 11.4963 878 115.423 716.853 475.407
1683 0 78.2113 11.3283 886 116.179 717.605 476.833
1684 0 80.2913 12.3176 989 114.578 716.906 474.189
1685 0 82.1924 11.5947 953 116.039 717.106 474.061
1686 0 84.159 12.9636 1091 113.177 716.787 469.873
1687 0 87.2509 11.954 1043 115.321 716.216 468.659
1688 0 91.1957 12.0291 1097 114.629 716.453 469.304
1689 0 95.1642 11.3593 1081 116.593 716.655 466.938
1690 0 98.1113 12.5266 1229 114.832 716.264 464.909
1691 0 99.2027 12.298 1220 115.889 716.106 463.136
1692 0 102.24 11.5024 1176 117.883 715.199 458.967
1693 0 106.255 12.0653 1282 117.139 714.964 458.342
1694 0 111.27 12.3483 1374 116.154 714.585 456.697
1695 0 114.207 13.0027 1485 116.873 714.644 455.484
1696 0 118.241 12.1447 1436 119.72 715.348 454.046
1697 0 122.371 11.4978 1407 120.349 715.664 454.326
1698 1 65.261 11.2318 733 117.022 714.924 482.093
1699 0 66.1813 12.9795 859 115.397 716.106 479.738
1700 0 69.1862 11.9388 826 113.602 715.031 479.609
1701 0 70.1599 11.8444 831 115.856 715.03 478.87
1702 0 73.1921 11.5996 849 115.694 715.455 476.211
1703 0 75.132 11.6062 872 116.62 715.319 477.245
1704 0 79.2327 11.9143 944 115.662 715.336 474.69
1705 0 82.1772 13.2154 1086 109.056 715.703 473.566
1706 0 81.1476 10.5733 858 118.586 715.697 472.8
1707 0 84.2124 11.4947 968 116.135 715.846 470.867
1708 0 86.1377 11.3655 979 118.404 715.129 467.462
1709 0 93.1321 13.207 1230 112.202 715.726 466.966
1710 0 94.1576 12.5216 1179 115.432 714.916 466.908
1711 0 96.1755 11.1983 1077 118.094 714.762 465.741
1712 0 101.193 11.7301 1187 116.919 714.766 462.69
1713 0 105.1 11.8078 1241 115.584 715.205 462.459
1714 1 55.2474 11.3309 626 112.206 714.364 486.995
1715 0 57.3892 11.483 659 111.096 717.064 485.504
1716 0 58.1189 13.4036 779 106.307 717.63 480.982
1717 0 58.1346 11.4046 663 110.511 717.992 483.916
1718 0 60.025 11.6118 697 110.273 717.469 484.354
1719 0 63.0485 12.4983 788 108.692 717.524 482.472
1720 0 63.0542 12.6241 796 109.01 717.492 482.065
1721 0 66.1135 13.0382 862 108.008 717.215 480.548
1722 0 67.0885 12.6549 849 111.13 717.47 479.637
1723 0 70.0217 13.353 935 108.828 718.13 479.411
1724 0 73.0491 13.0597 954 109.571 717.938 479.684
1725 0 75.0417 13.0727 981 110.534 717.456 478.702
1726 0 78.146 14.4345 1128 107.135 717.369 476.371
1727 0 76.123 11.9675 911 118.676 717.463 476.265
1728 0 79.1169 12.8291 1015 117.104 717.847 474.721
1729 0 80.141 12.6028 1010 118.263 718.182 472.913
1730 0 84.1233 11.923 1003 120.51 718.164 470.281
1731 0 86.1695 13.1485 1133 117.644 717.932 468.981
1732 0 90.2619 13.1949 1191 118.019 717.395 468.227
1733 0 91.2532 12.3831 1130 119.916 717.75 469.516
1734 0 94.2536 12.8589 1212 119.356 717.875 467.265
1735 0 98.2303 13.336 1310 118.904 717.275 464.57
1736 1 55.0884 12.489 688 121.328 717.198 487.327
1737 0 54.2792 11.7909 640 124.536 715.703 485.003
1738 0 55.2125 12.1711 672 125.458 716.287 485.836
1739 0 58.0395 12.457 723 124.73 717.481 486.866
1740 0 61.0455 13.3835 817 122.506 717.252 484.346
1741 0 61.0301 12.1252 740 126.459 718.723 484.128
1742 0 64.033 12.8528 823 123.522 718.098 483.665
1743 0 66.0382 12.7048 839 125.731 718.292 481.729
1744 0 70.0824 13.3414 935 122.369 718.538 481.209
1745 0 71.0941 13.5032 960 123.704 718.608 478.18
1746 0 73.0411 12.9379 945 124.635 718.857 479.29
1747 0 74.0485 12.0191 890 128.774 718.855 476.947
1748 0 77.1129 12.9291 997 125.702 718.305 475.255
1749 0 81.1177 13.0058 1055 125.064 718.012 475.588
1750 0 82.0768 13.3777 1098 124.561 718.502 474.084
1751 0 86.029 13.0421 1122 124.236 717.655 472.622
1752 0 88.0408 14.3683 1265 119.531 717.89 470.702
1753 1 47.1901 10.7014 505 129.331 714.818 489.089
1754 0 48.2043 10.7044 516 116.742 715.554 484.035
1755 0 49.1156 9.93575 488 117.756 716.762 484.299
1756 0 49.1312 9.48481 466 114.805 716.618 483.144
1757 0 52.1328 10.1855 531 113.194 717.077 482.944
1758 0 52.2187 9.84322 514 114.397 717.125 482.644
1759 0 54.2964 9.59548 521 115.205 716.808 481.589
1760 0 53.072 10.0806 535 115.744 716.839 481.781
1761 0 55.1302 9.2327 509 116.866 716.819 481.232
1762 0 57.0949 10.2461 585 113.779 717.157 482.419
1763 0 58.0816 9.67603 562 115.911 717.283 476.685
1764 0 62.2899 10.708 667 111.34 717.279 479.747
1765 0 64.0672 10.8792 697 110.458 717.29 477.739
1766 0 67.0988 10.8944 731 111.953 715.666 479.756
1767 0 69.183 10.4361 722 112.143 716.366 478.079
1768 0 72.1036 10.8039 779 109.892 716.46 478.371
1769 0 73.1835 10.2072 747 111.795 716.194 477.295
1770 0 76.1449 10.5063 800 111.332 716.361 474.494
1771 0 78.2023 10.1531 794 112.539 716.592 474.165
1772 0 82.4837 10.7779 889 111.616 716.992 468.792
1773 1 46.3715 10.6531 494 107.188 715.976 485.419
1774 0 46.269 11.498 532 110.429 715.077 483.825
1775 0 47.2643 11.1712 528 111.6 715.066 484.223
1776 0 49.2641 10.6975 527 112.078 715.666 482.947
1777 0 50.2385 10.2511 515 113.623 714.85 483.264
1778 0 53.2398 10.6499 567 112.443 715.229 482.233
1779 0 55.3339 11.5661 640 109.622 715.597 480.931
1780 0 56.255 10.8257 609 112.212 716.041 480.176
1781 0 57.2092 10.5403 603 113.051 715.559 479.401
1782 0 57.2333 9.48749 543 116.066 715.941 478.847
1783 0 60.2545 11.3352 683 112.302 716.258 477.568
1784 0 64.2768 10.8748 699 112.684 716.123 478.595
1785 0 64.1952 9.9696 640 114.956 716.105 478.416
1786 0 68.1838 12.085 824 109.813 716.222 475.919
1787 0 71.2464 12.0146 856 110.377 716.137 475.298
1788 0 75.3262 11.9082 897 110.384 716.091 473.821
1789 0 75.3367 11.8534 893 110.908 716.19 473.367
1790 0 79.3757 11.9558 949 110.807 716.367 471.384
1791 0 81.2252 12.8532 1044 109.716 716.56 472.069
1792 0 83.3791 12.0294 1003 110.738 715.797 471.83
1793 0 84.3274 11.1115 937 114.435 716.029 469.42
1794 1 45.25 10.1215 458 111.221 717.002 491.21
1795 0 48.1877 11.5797 558 107.072 716.905 490.262
1796 0 48.0963 10.9988 529 110.183 717.178 491.263
1797 0 49.4057 10.8692 537 112.812 715.503 484.404
1798 0 48.2935 10.167 491 116.568 715.711 481.322
1799 0 54.1669 9.87687 535 113.813 716.084 484.94
1800 0 53.264 11.8654 632 110.68 716.117 484.133
1801 0 56.1918 10.8201 608 113.385 715.76 482.533
1802 0 56.1918 10.9269 614 128.617 714.751 482.541
1803 0 60.2134 11.4094 687 113.071 716.108 481.041
1804 0 62.3105 12.213 761 111.552 716.172 478.753
1805 0 63.4081 11.1815 709 114.956 716.113 479.137
1806 0 67.1992 12.4406 836 110.843 716.139 478.823
1807 0 67.2578 10.9876 739 115.693 716.112 476.229
1808 0 69.3603 11.7214 813 114.669 716.368 476.365
1809 0 72.3079 12.101 875 113.695 716.501 475.952
1810 0 75.2712 11.6778 879 115.129 716.267 473.729
1811 0 78.2448 12.4226 972 113.967 716.367 474.05
1812 0 81.2523 11.8274 961 116.16 716.189 473.045
1813 0 85.2458 11.3437 967 117.335 716.18 472.629
1814 0 88.1684 12.8617 1134 114.882 715.919 471.026
1815 0 93.4079 13.3179 1244 114.454 715.805 468.143
1816 0 93.3405 13.5311 1263 116.614 715.348 460.676
1817 0 97.334 12.9348 1259 118.851 715.789 463.06
1818 0 101.336 12.572 1274 119.885 716.164 461.903
1819 1 50.2793 9.84501 495 113.467 716.745 489.436
1820 0 52.2635 11.2698 589 115.341 716.732 489.173
1821 0 53.1736 11.4718 610 115.356 716.589 488.767
1822 0 53.2442 10.5364 561 113.85 717.207 488.715
1823 0 55.2801 11.2156 620 113.742 716.976 486.103
1824 0 56.1773 10.3956 584 115.252 717.171 487.402
1825 0 56.1773 10.3244 580 128.905 717.166 487.402
1826 0 56.1724 10.3254 580 128.398 717.166 487.402
1827 0 62.3373 10.9886 685 114.124 717.695 484.539
1828 0 65.3858 10.8739 711 114.56 717.242 482.249
1829 0 69.3057 12.5387 869 111.59 717.628 481.008
1830 0 69.0547 11.5126 795 116.143 717.405 480.067
1831 0 72.1999 12.8948 931 113.149 717.28 478.143
1832 0 75.3551 11.97 902 116.656 716.523 476.367
1833 0 79.2259 12.9629 1027 112.949 716.934 475.646
1834 0 83.4733 13.2617 1107 112.852 716.544 473.265
1835 0 83.4034 12.9012 1076 115.961 716.375 471.055
1836 0 87.2608 12.8924 1125 117.388 716.307 469.897
1837 0 90.6396 12.9634 1175 117.176 715.85 470.266
1838 0 94.8127 13.1839 1250 117.327 715.902 463.313
1839 1 50.3092 11.648 586 117.918 716.452 486.256
1840 0 53.3969 11.4988 614 116.303 715.979 486.313
1841 0 55.4487 12.4079 688 114.6 716.294 484.156
1842 0 55.4487 12.3718 686 144.296 716.294 484.143
1843 0 57.0705 11.4069 651 115.372 716.081 487.066
1844 0 60.2895 12.7717 770 112.432 715.384 485.766
1845 0 62.2469 10.7475 669 117.232 715.697 485.96
1846 0 64.1243 12.5849 807 113.079 715.855 483.685
1847 0 67.3344 12.7127 856 113.933 716.022 478.803
1848 0 68.2444 12.4113 847 115.305 715.875 480.13
1849 0 71.2785 13.4262 957 112.524 715.469 478.024
1850 0 71.3718 11.6853 834 118.246 715.958 473.905
1851 0 74.4238 13.2485 986 118.115 715.381 475.7
1852 0 78.2057 12.9402 1012 119.567 714.745 472.785
1853 0 80.2542 14.2173 1141 116.479 715.403 470.609
1854 0 81.297 11.9316 970 123.419 715.239 468.637
1855 0 87.5572 13.2599 1161 119.718 715.488 467.466
1856 0 90.3455 13.9686 1262 118.573 715.471 466.546
1857 1 46.1087 11.0391 509 117.084 714.754 488.945
1858 0 49.2569 11.2066 552 117.991 714.688 487.156
1859 0 51.1157 13.1466 672 114.76 714.689 485.713
1860 0 53.1312 11.274 599 119.708 715.361 485.836
1861 0 56.341 12.2469 690 117.777 715.301 485.629
1862 0 56.3065 11.8814 669 120.127 714.933 484.948
1863 0 56.132 11.1345 625 123.952 715.754 483.906
1864 0 59.0873 11.5761 684 122.838 715.711 484.095
1865 0 63.1874 13.183 833 116.76 716.709 478.456
1866 0 64.2092 12.7708 820 119.962 717.188 478.865
1867 0 67.1423 12.2724 824 120.749 717.411 478.286
1868 0 69.3698 12.3973 860 120.942 717.444 476.399
1869 0 71.2503 13.3754 953 118.638 717.396 475.383
1870 0 74.5368 11.8733 885 122.595 716.99 475.713
1871 0 76.3111 12.7635 974 122.016 716.833 472.916
1872 0 79.3928 12.709 1009 119.985 716.472 472.709
1873 0 82.5814 11.7339 969 122.458 717.178 470.546
1874 0 85.3478 13.2282 1129 119.54 716.9 469.072
1875 0 88.3696 13.3983 1184 120.111 716.46 467.356
1876 0 91.3832 12.0919 1105 123.502 716.265 465.979
1877 1 49.3909 10.6902 528 117.294 716.343 488.049
1878 0 50.1494 11.7648 590 113.078 716.947 487.737
1879 0 51.2191 11.5777 593 112.344 717.31 489.325
1880 0 54.194 12.935 701 110.902 716.24 485.983
1881 0 53.1386 11.724 623 117.124 716.591 485.74
1882 0 56.1019 12.816 719 113.537 717.072 484.424
1883 0 58.1964 12.4234 723 114.773 716.891 483.51
1884 0 60.1345 12.1062 728 115.525 716.606 483.955
1885 0 63.0889 12.522 790 115.046 716.857 481.724
1886 0 62.2133 12.7947 796 115.673 715.974 479.665
1887 0 66.2494 13.0718 866 114.415 715.575 479.602
1888 0 68.2682 13.5055 922 112.77 716.054 478.354
1889 0 70.2062 12.3493 867 116.424 715.855 478.018
1890 0 74.0855 12.4316 921 120.181 716.871 477.036
1891 0 76.2724 11.7343 895 123.169 715.773 474.553
1892 0 79.398 11.499 913 123.679 715.814 471.06
1893 0 82.1716 11.9506 982 121.253 716.212 472.141
1894 0 84.4058 12.6769 1070 122.083 716.124 466.364
1895 0 87.2995 12.0734 1054 122.136 715.663 468.489
1896 0 91.3605 11.887 1086 122.343 715.874 465.871
1897 0 91.3784 10.6918 977 127.073 715.623 461.716
1898 0 95.317 10.6697 1017 126.076 715.74 461.097
1899 1 50.2212 10.4338 524 113.279 716.332 486.863
1900 0 51.2794 11.0766 568 112.826 715.783 484.123
1901 0 54.2472 10.6181 576 112.196 715.634 483.797
1902 0 56.1405 11.1862 628 110.158 715.269 486.514
1903 0 57.1378 12.1111 692 107.9 715.613 484.071
1904 0 60.1096 11.2295 675 109.393 716.087 482.406
1905 0 62.1265 10.5108 653 112.626 715.781 482.51
1906 0 63.1252 11.4851 725 111.063 717.168 481.654
1907 0 64.087 10.8446 695 113.934 717.01 477.81
1908 0 68.2437 11.2978 771 112.817 717.235 479.167
1909 0 70.1741 10.816 759 111.781 717.603 480.299
1910 0 71.1852 12.3902 882 110.345 717.132 474.383
1911 0 73.3425 11.1122 815 111.812 717.079 475.638
1912 0 77.3425 11.7788 911 110.698 716.822 472.936
1913 0 80.4275 11.7124 942 111.556 716.88 471.495
1914 0 82.5392 9.80141 809 114.726 716.111 473.127
1915 0 84.882 11.3098 960 113.521 716.071 469.289
1916 0 89.5227 10.69 957 114.749 716.154 468.019
1917 1 48.4156 9.74892 472 110.604 715.799 487.542
1918 0 49.3404 10.7822 532 109.709 715.647 486.635
1919 0 54.397 12.611 686 105.353 715.475 484.029
1920 0 53.0779 11.2288 596 114.867 715.723 485.413
1921 0 55.0955 11.4528 631 114.794 717 486.778
1922 0 57.1723 11.0543 632 115.812 716.653 483.964
1923 0 59.2438 12.0688 715 114.213 716.446 482.302
1924 0 59.4053 12.8776 765 113.58 716.489 481.221
1925 0 62.4119 11.4882 717 116.007 716.904 481.763
1926 0 64.4267 11.4083 735 118.131 716.024 477.98
1927 0 66.3507 11.9667 794 117.136 715.883 476.086
1928 0 68.4938 13.2713 909 114.957 715.662 473.199
1929 0 72.6405 12.8303 932 114.663 716.611 474.075
1930 0 74.5047 12.563 936 115.5 716.747 472.452
1931 0 79.6112 12.7871 1018 115.275 716.429 472.777
1932 0 80.492 12.3739 996 120.064 716.277 470.053
1933 0 85.4556 14.1594 1210 114.342 716.485 470.168
1934 0 86.5172 12.7142 1100 120.405 716.197 469.375
1935 0 89.5676 13.5428 1213 118.528 716.435 467.579
1936 1 44.3539 10.7995 479 114.008 716.585 493.154
1937 0 45.3475 11.5332 523 113.859 716.488 490.916
1938 0 48.5287 12.4256 603 114.804 716.411 488.264
1939 0 47.3053 11.6055 549 116.078 715.964 491.76
1940 0 50.2209 13.3411 670 114.125 715.291 489.148
1941 0 51.3098 13.2918 682 115.864 715.702 489.377
1942 0 51.0283 12.0521 615 121.802 715.66 489.35
1943 0 53.1646 12.6588 673 121.207 716.321 486.172
1944 0 53.1262 13.4209 713 120.074 716.877 484.126
1945 0 54.2572 12.5698 682 121.755 717.189 484.981
1946 0 56.2213 12.9666 729 121.827 716.599 482.248
1947 0 57.4185 12.644 726 124.113 716.77 481.303
1948 0 60.4268 13.2061 798 122.177 716.536 481.119
1949 0 59.4405 12.9037 767 124.419 716.735 480.757
1950 0 61.4591 13.2934 817 124.644 716.625 481.088
1951 0 63.2077 13.0997 828 125.3 716.766 478.385
1952 0 66.5914 14.0559 936 123.729 717.141 477.028
1953 0 67.377 13.6842 922 124.168 717.028 478.625
1954 0 71.6252 13.9895 1002 123.898 716.683 475.571
1955 0 73.5369 14.0338 1032 124.742 716.637 474.642
1956 0 76.2613 15.3027 1167 120.594 716.632 474.077
1957 0 77.4662 13.735 1064 124.937 717.218 474.132
1958 0 79.3507 14.0516 1115 125.393 716.726 471.239
1959 0 81.5284 14.081 1148 126.422 716.518 469.67
1960 0 84.3143 13.9359 1175 126.391 716.332 468.406
1961 0 88.3607 15.0859 1333 122.227 716.326 467.008
1962 0 90.4784 15.0533 1362 122.25 716.702 466.159
1963 0 94.478 14.8288 1401 121.546 716.351 464.944
1964 0 96.4115 14.2099 1370 122.823 716.131 465.31
1965 0 98.7002 14.154 1397 123.147 716.287 463.526
1966 0 101.361 13.9897 1418 123.707 716.128 460.884
1967 0 105.82 13.7498 1455 123.136 716.294 460.206
1968 0 104.405 13.3614 1395 126.182 716.127 454.766
1969 0 113.534 13.8549 1573 123.017 716.184 454.674
1970 0 114.519 13.8579 1587 123.489 715.674 455.204
1971 0 121.506 14.3285 1741 121.389 716.101 452.217
1972 0 125.394 16.2847 2042 116.238 716.134 448.408
1973 0 128.553 15.0366 1933 119.758 716.058 449.196
1974 0 135.502 14.8042 2006 119.639 716.54 446.805
1975 0 136.613 14.4203 1970 121.922 716.082 443.288
1976 0 142.489 14.2888 2036 123.046 716.108 439.811
1977 0 150.831 14.3273 2161 123.261 716.106 437.196
1978 0 153.588 15.1379 2325 121.238 715.867 436.698
1979 0 160.713 14.7717 2374 125.945 715.364 433.215
1980 0 165.847 15.9907 2652 123.744 715.333 429.664
1981 0 170.741 15.3742 2625 126.202 715.479 423.742
1982 1 73.3074 11.5677 848 124.193 715.624 473.348
1983 0 77.4233 12.4123 961 121.592 716.061 472.604
1984 0 80.5307 13.3986 1079 116.866 716.829 472.149
1985 0 84.3437 14.3223 1208 115.689 716.233 468.557
1986 0 86.3514 13.7346 1186 117.847 716.25 468.005
1987 0 89.5433 13.9709 1251 116.71 715.769 466.977
1988 0 94.4702 13.4752 1273 117.764 716.255 465.193
1989 0 97.4287 14.1334 1377 117.353 715.94 460.884
1990 0 100.485 12.7183 1278 119.684 715.898 460.964
1991 0 103.53 13.7544 1424 117.367 716.466 459.744
1992 0 107.847 14.5112 1565 116.487 716.981 456.141
1993 0 111.665 13.7823 1539 119.173 716.85 453.44
1994 0 113.52 13.1871 1497 120.883 716.555 452.013
1995 0 120.581 13.7336 1656 118.426 716.664 450.264
1996 0 124.396 14.9522 1860 116.122 716.806 445.639
1997 0 130.526 14.5105 1894 117.147 716.649 444.12
1998 0 135.794 14.603 1983 117.72 716.073 440.88
1999 1 56.5405 11.9383 675 112.413 716.474 480.898
2000 0 58.2036 11.9065 693 113.498 717.163 482.776
2001 0 59.4681 12.0737 718 115.028 716.134 478.538
2002 0 64.5188 12.446 803 112.391 716.299 477.549
2003 0 65.5631 12.5681 824 114.385 716.089 474.717
2004 0 68.5411 12.3721 848 113.86 716.588 475.935
2005 0 68.3418 11.9985 820 116.601 716.488 474.832
2006 0 71.4509 11.9803 856 115.661 716.797 475.391
2007 0 74.6165 12.3833 924 115.027 715.841 475.242
2008 0 77.3598 13.2756 1027 113.874 715.959 472.266
2009 0 80.5379 12.2303 985 117.262 715.955 470.244
2010 0 83.4959 12.6114 1053 116.55 715.999 469.952
2011 0 85.4336 13.2501 1132 116.436 716.025 468.064
2012 0 87.4996 13.6572 1195 116.042 715.839 467.898
2013 0 91.479 12.9757 1187 118.025 716.1 464.671
2014 0 96.3753 13.4059 1292 116.315 716.356 462.957
2015 0 99.5647 13.1874 1313 117.582 715.906 462.347
2016 0 101.513 13.1411 1334 118.948 716.191 461.843
2017 0 105.554 13.6802 1444 119.821 716.2 457.696
2018 0 106.632 11.8539 1264 125.463 716.346 457.975
2019 0 111.535 13.619 1519 121.651 716.348 455.568
2020 0 113.693 14.1874 1613 121.331 715.616 454.659
2021 0 118.535 14.637 1735 119.697 715.791 453.55
2022 0 121.755 14.2418 1734 122.204 715.347 450.965
2023 0 124.771 14.5788 1819 123.116 715.417 446.947
2024 0 127.726 14.2806 1824 123.817 715.68 446.027
2025 0 133.524 14.2446 1902 123.136 715.391 443.968
2026 0 138.683 14.1474 1962 122.297 715.653 442.564
2027 1 74.4647 12.8249 955 115.226 715.976 475.229
2028 0 76.3881 13.0911 1000 115.135 715.93 473.294
2029 0 81.6413 14.086 1150 115.195 716.172 471.624
2030 0 82.5276 13.1835 1088 118.273 716.037 469.555
2031 0 85.7352 13.3434 1144 117.709 715.744 468.775
2032 0 88.6856 13.452 1193 117.341 716.094 468.464
2033 0 91.8276 13.9174 1278 116.361 715.891 466.495
2034 0 93.5272 12.8305 1200 120.01 715.478 462.246
2035 0 99.5652 14.2721 1421 114.6 715.674 463.464
2036 0 101.629 13.2541 1347 119.028 715.785 459.153
2037 0 106.468 13.1307 1398 120.235 715.326 456.347
2038 1 57.4148 12.6797 728 115.713 715.799 481.569
2039 0 56.371 12.4532 702 116.527 715.684 482.611
2040 0 61.3636 13.7704 845 115.101 716.097 479.178
2041 0 61.4686 13.6167 837 116.142 716.271 479.75
2042 0 63.4947 13.4027 851 118.132 715.937 478.022
2043 0 66.3855 13.9187 924 115.022 715.995 478.225
2044 0 68.4886 13.5059 925 116.786 715.709 475.006
2045 0 69.7192 14.0851 982 115.697 715.446 474.189
2046 0 72.6896 13.0142 946 117.721 715.597 475.119
2047 0 75.7146 13.6433 1033 117.47 715.631 473.084
2048 0 77.5447 14.0306 1088 118.333 715.719 470.5
2049 0 78.344 12.6366 990 123.117 715.228 469.279
2050 0 81.5317 13.5775 1107 122.79 715.028 466.836
2051 0 84.5777 13.5142 1143 123.331 715.491 465.579
2052 0 89.5381 14.9545 1339 119.586 715.255 464.414
2053 0 90.4165 13.1834 1192 125.72 714.724 464.429
2054 0 93.6341 13.6702 1280 124.956 716.049 462.666
2055 0 99.4005 14.4969 1441 122.096 715.907 460.697
2056 0 100.566 14.7963 1488 120.55 715.224 461.079
2057 1 53.2614 11.8848 633 120.589 715.899 482.385
2058 0 54.1318 12.7836 692 119.558 715.47 483.149
2059 0 55.2291 12.6383 698 120.881 715.456 482.289
2060 0 58.4736 13.2368 774 118.322 715.491 481.758
2061 0 60.3593 13.022 786 119.929 715.268 481.094
2062 0 59.2182 13.0365 772 123.381 715.62 479.244
2063 0 63.3071 13.1265 831 120.838 715.863 479.327
2064 0 65.3644 13.157 860 121.988 715.624 476.164
2065 0 67.2616 13.1427 884 122.63 715.638 474.169
2066 0 68.2247 13.6314 930 122.875 715.735 472.462
2067 0 69.2987 12.9873 900 125.016 716.161 472.41
2068 0 73.2172 13.6443 999 123.444 716.301 469.839
2069 0 74.2379 12.8506 954 127.008 715.227 467.462
2070 0 77.3023 13.1173 1014 126.179 715.291 466.511
2071 0 78.2035 13.8229 1081 125.698 715.911 465.067
2072 0 79.3136 13.4277 1065 129.375 715.883 462.056
2073 0 83.3974 13.2258 1103 128.13 716.383 465.402
2074 0 85.363 13.1322 1121 130.239 716.454 463.979
2075 0 89.1716 14.7356 1314 126.263 716.585 462.568
2076 0 92.1665 14.5063 1337 127.85 716.69 462.192
2077 0 93.2594 14.7331 1374 128.995 717.079 460.859
2078 0 96.347 14.728 1419 129.257 716.545 459.515
2079 0 100.328 14.1437 1419 131.649 715.999 456.431
2080 0 103.143 15.0374 1551 129.168 716.143 455.301
2081 0 105.219 14.8833 1566 132.273 715.81 450.72
2082 0 109.247 14.6457 1600 133.041 715.411 449.581
2083 0 113.339 14.5228 1646 133.984 714.539 450.422
2084 0 116.282 14.1639 1647 136.273 714.625 447.12
2085 0 121.193 14.2664 1729 136.26 715.109 446.745
2086 0 126.435 14.2682 1804 136.022 715.205 445.353
2087 0 129.218 14.8895 1924 134.63 714.976 445.637
2088 0 132.566 13.812 1831 139.73 714.352 438.77
2089 0 139.462 14.8643 2073 135.455 714.17 438.424
2090 0 142.313 13.5757 1932 140.061 714.013 434.561
2091 0 147.411 14.429 2127 137.039 713.755 430.234
2092 0 155.6 15.135 2355 132.874 714.169 428.036
2093 1 89.2248 10.8826 971 126.229 713.56 463.366
2094 0 86.3029 10.2314 883 130.795 713.166 460.216
2095 0 93.212 11.6401 1085 127.12 713.484 459.89
2096 0 98.395 12.023 1183 127.117 713.489 458.689
2097 0 100.408 11.8516 1190 126.587 713.861 457.049
2098 0 102.318 10.9854 1124 130.158 714.069 452.96
2099 0 107.497 11.2654 1211 126.629 713.919 454.411
2100 0 109.465 11.8029 1292 127.02 713.756 444.319
2101 0 113.479 11.5528 1311 127.387 713.296 445.046
2102 0 118.422 11.5265 1365 126.215 713.307 446.27
2103 1 67.432 9.10548 614 116.855 713.79 469.357
2104 0 68.1705 10.3124 703 111.499 713.472 465.868
2105 0 73.5713 11.2272 826 113.743 713.642 470.23
2106 0 73.1533 7.19038 526 106.376 714.783 471.808
2107 0 78.127 8.63978 675 104.404 714.616 470.693
2108 0 79.2211 9.85849 781 103.406 714.992 469.983
2109 0 81.1189 9.45526 767 105.755 715.258 465.9
2110 0 83.1336 9.70727 807 105.648 715.285 464.291
2111 0 85.1699 9.4517 805 106.017 715.492 461.312
2112 0 88.204 9.12657 805 105.421 715.388 464.143
2113 0 90.2107 9.68843 874 107.82 715.04 453.276
2114 0 95.2413 9.94317 947 107.045 715.192 452.936
2115 0 96.2545 9.49566 914 108.847 714.958 454.887
2116 0 98.2225 9.28504 912 108.833 715.298 455.003
2117 1 50.0296 7.55553 378 99.5503 716.394 483.526
2118 0 51.1404 4.55608 233 102.408 716.833 483.773
2119 0 49.1027 5.82453 286 101.105 716.259 484.052
2120 0 56.099 8.28892 465 98.1462 715.439 479.142
2121 0 56.1592 7.14042 401 99.6658 714.431 475.257
2122 0 64.1164 6.39462 410 100.215 716.107 475.783
2123 0 65.1622 7.15138 466 99.3176 715.333 478.998
2124 0 65.0318 8.14986 530 98.0377 715.3 475.326
2125 0 67.1905 6.99504 470 99.6149 716.009 474.364
2126 0 70.0544 8.53623 598 97.9247 715.779 473.634
2127 0 73.1323 9.69475 709 96.6121 715.587 473.2
2128 0 73.2025 9.08439 665 103.965 713.221 473.229
2129 0 74.3798 9.59939 714 105.599 712.873 472.623
2130 0 78.2517 10.9646 858 103.147 713.08 469.781
2131 0 81.3912 10.9471 891 103.303 713.45 468.838
2132 0 82.4157 11.2236 925 103.857 712.924 470.822
2133 0 86.2351 9.91476 855 106.771 712.786 468.745
2134 0 87.2822 10.4489 912 106.91 712.957 463.034
2135 0 91.3096 10.9627 1001 105.905 712.673 466.804
2136 0 95.3436 10.5408 1005 107.819 712.738 462.234
2137 0 93.2882 9.66897 902 110.747 713.491 459.206
2138 0 97.4343 11.7207 1142 106.874 713.546 456.275
2139 0 107.638 12.4213 1337 104.927 713.72 455.402
2140 0 107.727 11.5663 1246 108.375 714.057 450.871
2141 1 53.0678 9.70457 515 99.8932 713.093 472.534
2142 0 54.0622 9.3411 505 104.507 713.143 470.717
2143 0 63.18 10.6521 673 98.7578 713.633 470.294
2144 0 62.1674 9.92482 617 101.191 712.601 468.995
2145 0 67.0246 12.1896 817 100.53 711.741 474.329
2146 0 69.0981 11.9106 823 101.187 711.988 477.881
2147 0 71.2013 11.2638 802 103.464 712.37 471.248
2148 0 73.2599 12.0257 881 101.495 712.655 473.313
2149 0 75.1857 12.2497 921 102.018 712.002 472.368
2150 0 77.1575 12.0014 926 102.375 712.268 472.321
2151 0 78.1967 12.1616 951 103.577 712.262 470.25
2152 0 79.1703 12.6563 1002 102.905 712.579 470.485
2153 0 82.1794 13.0081 1069 101.745 712.717 469.982
2154 0 85.251 12.6333 1077 102.785 712.691 469.864
2155 0 84.1714 11.8805 1000 107.142 713.023 464.41
2156 0 88.063 11.3782 1002 107.127 712.631 464.837
2157 0 88.0767 10.6952 942 109.627 712.846 462.321
2158 0 92.082 12.3151 1134 105.961 713.031 462.048
2159 0 96.0693 13.1572 1264 104.021 712.999 461.607
2160 0 97.1158 11.7283 1139 102.707 713.541 463.042
2161 0 97.0894 10.7736 1046 104.518 713.867 463.192
2162 0 100.14 10.9846 1100 103.497 713.735 463.505
2163 0 106.208 10.7242 1139 103.364 712.874 460.286
2164 1 59.199 9.78057 579 100.687 712.775 485.024
2165 0 61.0736 10.6593 651 100.462 712.656 482.756
2166 0 62.1109 11.7049 727 98.7827 712.747 479.334
2167 0 63.1782 10.7474 679 103.644 712.62 478.551
2168 0 65.144 10.5766 689 104.006 712.466 477.769
2169 0 67.15 11.452 769 102.212 713.022 479.354
2170 0 71.1913 10.7597 766 103.616 712.663 477.103
2171 0 72.1096 10.595 764 104.836 713.013 474.301
2172 0 74.3181 11.4104 848 103.478 713.739 473.998
2173 0 77.3126 11.0719 856 105.084 713.742 471.855
2174 0 78.3034 11.3405 888 104.896 713.639 471.525
2175 0 81.3126 12.0522 980 102.926 713.308 473.41
2176 0 84.2277 11.2315 946 103.704 713.265 473.295
2177 0 86.4857 11.3082 978 104.899 714.182 469.707
2178 0 92.4854 12.1965 1128 103.414 713.91 465.419
2179 0 92.6727 11.2439 1042 106.433 714.468 460.329
2180 0 96.1889 10.5729 1017 99.3766 716.339 463.35
2181 0 97.375 8.29781 808 104.522 715.88 462.842
2182 0 104.329 10.7161 1118 99.9231 715.113 463.327
2183 0 107.287 11.2781 1210 98.9868 715.326 459.66
2184 1 59.1118 11.419 675 93.3274 715.929 484.216
2185 0 62.2043 11.9927 746 94.8727 715.564 482.241
2186 0 60.0658 11.6705 701 98.9786 715.481 480.726
2187 0 63.1353 10.8814 687 94.6361 716.08 481.052
2188 0 65.1247 11.8388 771 93.5655 715.528 477.999
2189 0 66.1059 11.9959 793 93.9899 715.75 480.112
2190 0 69.1017 11.6206 803 94.7709 715.653 480.354
2191 0 72.2876 11.5372 834 95.6115 715.382 476.641
2192 0 74.2006 12.4932 927 93.7573 715.187 476.222
2193 0 78.1905 12.8276 1003 93.1565 715.091 475.064
2194 0 79.1962 12.1723 964 95.9575 714.897 471.164
2195 0 80.177 11.3374 909 98.3289 715.063 472.752
2196 0 84.1996 12.7673 1075 95.0772 715.603 470.339
2197 0 87.3944 12.8269 1121 96.1356 715.258 467.942
2198 0 89.2609 12.6595 1130 96.9876 714.477 465.943
2199 0 93.2572 12.932 1206 97.0058 714.567 466.405
2200 0 95.2131 12.3407 1175 99.7464 715.742 463.708
2201 0 99.2123 13.4056 1330 98.7737 715.294 463.629
2202 1 53.1346 10.4075 553 102.132 716.658 486.734
2203 0 54.0315 10.2903 556 101.16 713.888 484.721
2204 0 54.2313 9.84672 534 105.022 715.23 480.979
2205 0 54.1422 10.0476 544 109.449 715.36 477.43
2206 0 57.0957 11.8573 677 107.041 714.074 474.298
2207 0 58.2355 11.1101 647 110.156 714.258 473.176
2208 0 60.387 11.4594 692 109.889 714.51 474.292
2209 0 59.2822 10.3741 615 113.963 714.444 473.842
2210 0 65.2295 12.2644 800 108.909 714.166 471.231
2211 0 68.2794 11.16 762 111.328 714.255 472.396
2212 0 70.4941 12.1287 855 109.471 714.426 471.932
2213 0 72.2826 11.8562 857 110.165 714.058 470.936
2214 0 72.2567 10.864 785 114.622 714.317 468.262
2215 0 75.2606 11.7591 885 114.017 713.855 463.638
2216 0 79.228 11.9781 949 112.686 713.848 463.396
2217 0 83.3642 12.6433 1054 110.969 714.103 463.993
2218 0 85.3849 12.5549 1072 112.167 713.985 461.103
2219 0 89.3427 11.2824 1008 114.027 713.685 461.165
2220 1 47.1059 10.1474 478 102.862 714.253 482.418
2221 0 48.2829 9.36149 452 105.425 714.973 482.369
2222 0 53.2729 11.6945 623 106.937 715.072 487.778
2223 0 51.138 10.7552 550 108.322 716.295 486.24
2224 0 54.0883 10.5383 570 108.781 716.304 484.146
2225 0 57.1296 12.4454 711 103.927 716.264 484.121
2226 0 61.0958 11.7684 719 104.331 715.805 484.985
2227 0 61.065 11.8726 725 104.108 715.939 484.44
2228 0 62.161 12.1137 753 104.486 715.55 481.583
2229 0 64.1063 12.0893 775 103.835 715.658 480.303
2230 0 66.146 11.5805 766 104.394 715.072 479.804
2231 0 69.124 12.5571 868 102.427 715.038 477.185
2232 0 73.2336 12.385 907 102.949 714.95 479.978
2233 0 73.1457 13.1108 959 102.67 715.169 477.597
2234 0 75.1638 12.2932 924 103.701 715.229 475.959
2235 0 77.082 12.2207 942 104.312 715.924 475.932
2236 0 79.083 13.3404 1055 102.956 715.652 473.743
2237 0 81.1906 12.132 985 106.501 715.369 471.964
2238 0 83.1314 12.3299 1025 106.259 715.076 470.284
2239 0 87.0762 12.5752 1095 104.96 715.311 471.263
2240 0 88.169 12.2719 1082 106.505 715.075 468.524
2241 0 90.0722 12.0348 1084 108.041 715.861 468.804
2242 0 95.1141 12.648 1203 105.779 715.302 467.354
2243 0 97.127 13.5287 1314 104.217 715.361 464.61
2244 0 100.115 12.6255 1264 105.955 715.703 463.699
2245 0 103.087 12.1063 1248 106.315 715.672 464.816
2246 0 106.131 12.6164 1339 106.821 715.601 462.367
2247 1 57.1354 10.4664 598 110.714 715.654 484.552
2248 0 57.2222 10.9922 629 98.9046 715.334 479.566
2249 0 58.2027 9.39819 547 102.112 714.691 478.181
2250 0 61.1442 10.8759 665 99.1474 714.937 477.029
2251 0 63.0487 10.3254 651 101.011 715.032 476.269
2252 0 65.2324 11.3134 738 99.4837 715.201 476.377
2253 0 67.0915 11.4471 768 99.6471 714.949 475.551
2254 0 68.0909 11.235 765 100.944 715.086 473.003
2255 0 70.1343 11.8202 829 100.849 714.399 470.608
2256 0 72.1082 10.8309 781 103.383 714.978 470.675
2257 0 76.1811 11.3677 866 102.335 714.692 472.87
2258 0 77.2763 11.97 925 101.853 714.186 467.811
2259 0 81.2078 11.8708 964 102.194 714.747 469.88
2260 0 83.1867 12.1293 1009 102.14 714.553 471.259
2261 0 86.3557 12.2517 1058 103.088 714.042 467.438
2262 0 91.3906 13.1523 1202 100.138 714.061 470.588
2263 0 93.0918 12.8475 1196 101.492 714.668 469.636
2264 0 98.2738 12.6076 1239 103.931 713.676 469.649
2265 0 97.3965 12.6391 1231 105.853 713.637 466.809
2266 0 100.452 12.0058 1206 108.309 713.391 465.001
2267 0 106.275 12.8628 1367 105.718 712.8 468.505
2268 1 58.1338 10.407 605 106.033 712.593 488.787
2269 0 60.1062 11.097 667 105.904 711.871 488.571
2270 0 62.1475 11.7301 729 100.278 711.11 491.58
2271 0 64.0936 10.8279 694 102.21 711.45 490.787
2272 0 66.157 11.6994 774 100.722 711.239 489.15
2273 0 68.2544 11.8967 812 101.289 711.842 487.493
2274 0 69.1699 12.0428 833 102.389 711.91 484.401
2275 0 71.0217 11.8837 844 103.518 711.187 479.967
2276 0 74.1951 11.9685 888 103.533 710.65 483.306
2277 0 78.2863 11.739 919 103.976 710.653 482.687
2278 0 79.0496 11.4738 907 106.142 710.316 478.604
2279 0 83.1972 12.8129 1066 103.913 709.481 479.327
2280 0 84.0816 12.1073 1018 107.552 709.673 475.194
2281 0 89.2139 13.137 1172 104.661 709.474 476.047
2282 0 89.2032 12.5108 1116 108.468 709.129 471.706
2283 0 93.1598 12.602 1174 109.569 709.339 471.641
2284 0 99.1059 14.6308 1450 112.897 709.788 477.291
2285 0 100.358 12.9935 1304 118.656 709.512 473.383
2286 0 101.253 13.8958 1407 114.106 709.475 466.533
2287 0 105.332 13.5001 1422 114.8 709.449 463.923
2288 0 107.264 13.1078 1406 116.745 709.164 464.181
2289 0 113.496 15.56 1766 109.293 708.095 462.596
2290 0 114.347 14.6659 1677 112.859 708.361 461.849
2291 1 63.2551 9.37473 593 117.978 709.675 487.954
2292 0 67.0582 12.1685 816 118.028 708.249 487.369
2293 0 70.1671 12.7838 897 114.338 707.64 492.599
2294 0 74.4093 12.9419 963 113.4 709.15 489.477
2295 0 74.1903 12.414 921 118.608 707.893 489.78
2296 0 77.0636 11.3802 877 120.535 707.691 487.78
2297 0 77.198 11.8526 915 120.505 708.122 488.954
2298 0 84.4547 13.0603 1103 116.127 708.734 483.984
2299 0 86.4064 13.3786 1156 115.669 708.55 483.381
2300 0 87.4552 13.2982 1163 116.879 708.559 484.188
2301 0 89.2688 11.7958 1053 121.057 708.625 482.218
2302 0 92.3107 14.2345 1314 116.836 708.31 477.324
2303 0 96.3256 14.098 1358 118.129 708.154 475.884
2304 0 96.4112 12.9653 1250 121.88 708.07 475.09
2305 0 103.353 13.2363 1368 119.76 708.249 472.734
2306 0 106.244 12.9513 1376 120.004 708.162 471.894
2307 0 110.415 12.4983 1380 118.58 707.689 468.53
2308 1 60.152 11.3712 684 112.506 708.115 488.414
2309 0 62.1354 10.8151 672 110.851 707.899 490.677
2310 0 62.0447 12.4588 773 105.451 707.101 489.894
2311 0 65.0677 11.9107 775 107.057 707.826 491.139
2312 0 68.0834 11.765 801 114.292 708.625 490.954
2313 0 70.1711 12.1133 850 114.791 709.126 489.634
2314 0 70.1321 11.7065 821 116.787 709.382 488.557
2315 0 75.1273 11.7933 886 115.483 709.063 486.845
2316 0 77.1321 11.9276 920 115.841 708.865 486.238
2317 0 79.1436 11.8266 936 116.537 709.271 485.61
2318 0 83.1847 12.2498 1019 115.614 709.153 483.518
2319 0 84.2716 12.3648 1042 114.763 709.065 483.215
2320 0 87.159 12.9878 1132 114.488 709.406 481.533
2321 0 89.1777 12.9965 1159 114.965 709.669 480.528
2322 0 91.1569 13.3067 1213 115.875 710.117 475.807
2323 0 94.2211 12.6723 1194 117.017 709.951 475.475
2324 0 98.2924 13.5819 1335 115.072 710.94 473.521
2325 0 99.2705 12.471 1238 119.142 710.048 473.002
2326 0 104.259 13.5049 1408 116.183 710.469 470.075
2327 0 105.196 13.1469 1383 117.512 709.857 470.117
2328 1 60.0627 10.7221 644 117.806 710.602 492.924
2329 0 61.0419 11.1235 679 116.632 710.49 493.548
2330 0 62.1207 10.222 635 114.655 707.995 491.863
2331 0 65.0899 11.7069 762 111.453 708.37 489.811
2332 0 65.0934 11.5065 749 112.057 709.82 483.088
2333 0 68.109 11.511 784 110.082 709.338 482.87
2334 0 70.0545 11.6481 816 109.942 709.045 482.013
2335 0 74.1103 12.9807 962 107.677 708.424 479.526
2336 0 75.0708 12.2551 920 110.773 708.434 476.664
2337 0 77.1941 12.3844 956 111.877 709.082 474.714
2338 0 77.1753 12.0634 931 114.596 708.806 472.546
2339 0 81.0916 11.9495 969 115.152 708.697 473.361
2340 0 85.128 12.6868 1080 114.621 708.985 471.459
2341 0 87.1559 11.8409 1032 119.217 709.246 467.084
2342 0 91.1803 12.3601 1127 118.728 709.338 467.021
2343 0 92.1202 12.5163 1153 120.058 709.165 464.802
2344 0 95.242 12.8935 1228 119.296 709.366 462.258
2345 0 102.171 13.2131 1350 117.767 709.387 462.711
2346 0 103.161 13.5808 1401 119.026 710.038 460.488
2347 0 107.137 13.3567 1431 120.105 709.577 459.785
2348 0 110.244 13.3432 1471 119.206 709.469 456.627
2349 1 62.1058 10.8041 671 117.918 711.204 482.689
2350 0 64.0441 11.6951 749 122.339 711.087 481.892
2351 0 65.2021 11.3953 743 115.817 711.822 480.359
2352 0 68.1747 11.2798 769 116.883 711.507 479.164
2353 0 71.1668 12.1546 865 115.286 711.349 477.504
2354 0 74.1438 12.8669 954 113.855 711.976 475.135
2355 0 74.1643 12.8229 951 116.485 711.274 472.619
2356 0 77.0719 12.7413 982 116.773 711.436 472.046
2357 0 80.1728 13.2214 1060 114.702 711.917 471.858
2358 0 83.1799 12.5271 1042 117.434 711.206 467.965
2359 0 86.3098 12.571 1085 117.665 712.182 468.014
2360 0 89.2522 13.4675 1202 116.488 712.262 465.388
2361 0 89.2298 13.2803 1185 117.896 711.694 464.49
2362 0 92.1731 12.5199 1154 121.412 712.231 466.705
2363 0 96.2791 12.8377 1236 122.422 712.442 468.925
2364 0 99.1338 12.2057 1210 121.421 712.287 464.38
2365 1 57.1508 10.831 619 112.288 712.313 485.22
2366 0 56.1006 8.76995 492 123.494 711.177 480.547
2367 0 59.1455 11.7 692 112.202 711.884 481.046
2368 0 61.1583 10.5301 644 113.186 711.977 482.373
2369 0 61.1498 9.35409 572 118.318 712.229 480.287
2370 0 63.3328 11.3369 718 114.953 712.143 479.607
2371 0 64.1424 10.8197 694 116.288 712.519 476.029
2372 0 68.1341 10.7729 734 114.61 712.787 477.166
2373 0 71.1978 10.7728 767 114.162 712.511 475.106
2374 0 74.186 10.7298 796 114.073 711.996 475.363
2375 0 74.1608 9.23668 685 118.418 712.169 472.375
2376 0 77.276 10.3654 801 117.121 712.599 470.476
2377 0 80.2264 10.6698 856 117.111 711.905 468.793
2378 0 81.2708 10.8157 879 116.749 712.291 468.247
2379 0 84.3965 11.5052 971 115.784 712.449 465.2
2380 0 87.2217 11.1899 976 117.137 712.524 463.885
2381 0 90.2661 11.3553 1025 118.003 712.475 460.739
2382 0 94.4133 11.2272 1060 116.858 712.303 463.773
2383 0 99.4585 12.6183 1255 113.622 712.342 462.852
2384 0 100.326 11.5623 1160 118.843 711.833 461.06
2385 0 102.36 12.5928 1289 117.737 712.532 458.749
2386 0 107.245 13.1009 1405 117.25 712.023 457.846
2387 0 110.393 12.8178 1415 118.107 712.869 457.031
2388 0 112.206 13.2703 1489 117.946 712.49 458.425
2389 0 113.211 11.8628 1343 123.338 712.227 453.651
2390 0 119.308 12.606 1504 119.691 712.605 452.308
2391 0 122.226 12.6078 1541 118.884 712.953 455.947
2392 0 127.307 12.2538 1560 119.094 712.735 451.954
2393 0 132.254 13.1792 1743 117.638 713.859 449.65
2394 1 69.2529 10.6277 736 119.264 713.438 475.185
2395 0 72.1646 11.7648 849 114.955 714.133 474.575
2396 0 75.1238 11.5409 867 113.961 714.362 474.551
2397 0 77.0402 11.9418 920 113.134 714.19 473.784
2398 0 80.0507 12.4296 995 112.047 714.332 471.808
2399 0 83.0755 11.7604 977 113.682 714.701 472.206
2400 0 86.0642 12.4326 1070 111.039 714.065 469.058
2401 0 89.0633 12.2609 1092 111.223 713.689 468.515
2402 0 93.0716 12.3776 1152 110.977 714.186 464.903
2403 0 95.0585 11.9611 1137 111.571 714.202 465.704
2404 0 99.1213 12.177 1207 111.24 714.299 464.447
2405 0 100.104 12.7767 1279 110.709 714.219 464.274
2406 0 106.102 11.9507 1268 112.86 713.87 460.987
2407 0 107.13 12.0881 1295 114.292 714.776 457.144
2408 0 113.057 13.4534 1521 109.309 714.487 460.188
2409 0 113.129 12.5608 1421 112.387 714.906 454.179
2410 0 119.111 12.2659 1461 112.121 715.235 454.932
2411 0 122.127 11.619 1419 113.842 715.21 451.804
2412 1 70.0151 11.5975 812 111.011 712.485 477.51
2413 0 71.1043 12.5871 895 108.182 714.505 476.746
2414 0 72.0954 12.1228 874 111.254 715.745 475.802
2415 0 74.2041 11.2123 832 106.841 714.94 473.227
2416 0 78.1816 12.8803 1007 103.312 714.217 475.679
2417 0 78.1518 11.7976 922 108.06 714.024 471.42
2418 0 83.1762 12.0587 1003 107.47 714.425 472.25
2419 0 84.2266 11.944 1006 106.811 714.266 470.34
2420 0 90.1914 12.418 1120 105.004 714.412 466.537
2421 0 93.1555 11.4003 1062 108.035 714.218 466.918
2422 0 96.2167 13.2825 1278 103.419 714.308 466.473
2423 0 98.2072 12.2802 1206 106.599 714.182 464.137
2424 0 100.211 11.2762 1130 109.526 714.551 459.955
2425 0 105.197 12.0536 1268 107.972 713.965 459.827
2426 0 108.201 12.6432 1368 108.224 713.769 457.903
2427 1 62.2185 10.6881 665 106.29 712.617 483.88
2428 0 62.1849 11.1924 696 107.011 712.727 481.26
2429 0 65.2298 11.7738 768 104.448 712.975 480.76
2430 0 67.3041 11.9606 805 105.409 713.14 478.991
2431 0 67.1282 12.1409 815 104.353 715.097 477.188
2432 0 67.1415 11.4385 768 106.217 715.188 478.574
2433 0 72.1216 11.9104 859 104.383 714.609 477.213
2434 0 73.1128 12.2961 899 103.429 713.944 477.181
2435 0 76.0918 13.6283 1037 100.525 713.953 474.575
2436 0 78.1817 12.3303 964 103.807 714.241 474.557
2437 0 81.1196 13.4616 1092 101.245 714.853 472.701
2438 0 81.0973 12.8488 1042 104.456 714.538 472.319
2439 0 83.1277 11.8613 986 106.541 714.775 470.534
2440 0 87.1795 12.5144 1091 105.856 714.667 467.464
2441 0 90.147 13.0454 1176 104.514 715.068 466.934
2442 0 93.0673 12.6145 1174 105.524 715.066 466.238
2443 0 95.1889 11.8081 1124 107.439 714.775 464.36
2444 0 98.1483 12.6136 1238 106.639 715.036 460.267
2445 0 100.132 11.9142 1193 109.698 714.766 462.237
2446 0 105.23 13.0381 1372 108.49 714.774 457.171
2447 0 106.403 10.9865 1169 111.852 714.347 457.944
2448 0 110.281 13.6651 1507 106.268 713.483 456.072
2449 0 113.235 11.9309 1351 110.281 714.098 453.302
2450 0 117.379 11.2712 1323 112.209 714.467 454.8
2451 1 68.192 11.1157 758 106.905 715.748 476.702
2452 0 68.3573 10.2111 698 107.095 714.653 473.491
2453 0 69.032 11.7192 809 107.43 715.765 472.923
2454 0 72.2163 12.1441 877 106.973 715.826 469.763
2455 0 74.166 12.5125 928 105.105 715.628 469.964
2456 0 76.1696 11.9208 908 106.252 716.25 473.152
2457 0 78.0805 11.2832 881 107.468 715.617 468.474
2458 0 79.1521 11.1178 880 107.769 715.085 468.875
2459 0 82.0925 10.6587 875 108.359 714.464 470.095
2460 0 82.2213 10.9461 900 108.35 714.698 467.894
2461 0 89.1953 12.2876 1096 104.964 714.693 466.047
2462 0 92.0546 12.1341 1117 106.09 714.471 465.067
2463 0 92.13 11.7334 1081 108.565 714.926 461.855
2464 0 96.1013 12.2059 1173 106.744 715.028 460.203
2465 0 99.1133 12.2183 1211 106.727 714.927 461.588
2466 0 101.433 12.0573 1223 107.206 714.401 456.836
2467 0 102.114 11.6341 1188 106.387 713.813 453.711
2468 0 105.252 12.9973 1368 104.531 714.167 450.891
2469 0 109.275 11.1737 1221 109.203 713.912 450.153
2470 0 111.239 12.4148 1381 107.606 714.358 447.037
2471 0 117.312 12.65 1484 107.33 714.043 446.872
2472 0 116.19 10.7841 1253 110.523 714.017 439.233
2473 1 65.2526 11.3252 739 106.088 714.737 468.455
2474 0 67.0922 12.2667 823 104.061 714.718 465.53
2475 0 72.2462 12.5266 905 101.225 713.758 470.031
2476 0 74.1139 11.5363 855 103.64 713.195 470.448
2477 0 82.2528 12.8993 1061 102.4 713.455 472.571
2478 0 83.1855 14.8223 1233 98.5296 713.152 472.082
2479 0 86.2306 13.0348 1124 103.448 712.919 467.492
2480 0 87.2192 12.2335 1067 105.709 712.828 466.231
2481 0 91.3684 12.8381 1173 103.841 712.96 465.538
2482 0 92.3385 12.0968 1117 103.731 713.147 460.409
2483 0 97.2789 12.8908 1254 100.713 713.059 461.842
2484 0 99.2746 12.0172 1193 103.616 712.737 461.549
2485 0 102.205 12.475 1275 102.093 713.62 461.196
2486 0 107.221 14.0831 1510 99.1861 713.654 457.649
2487 0 110.26 13.4953 1488 100.509 713.113 454.78
2488 0 110.36 10.8916 1202 105.75 713.542 452.525
2489 0 117.528 13.2989 1563 104.584 714.37 444.315
2490 0 119.462 12.9581 1548 107.059 713.496 445.749
2491 0 124.544 13.2805 1654 105.93 713.899 444.571
2492 0 130.611 12.8549 1679 105.408 714.537 443.674
2493 0 135.531 11.8792 1610 107.12 714.53 441.602
2494 1 75.5479 9.63627 728 106.427 714.416 467.745
2495 0 79.3565 12.6518 1004 99.8904 715.081 469.069
2496 0 81.1592 12.7034 1031 99.6382 712.818 469.843
2497 0 83.1441 12.0875 1005 101.673 713.044 470.006
2498 0 87.1399 11.9463 1041 102.894 712.659 467.552
2499 0 89.1462 12.6309 1126 101.104 713.693 464.394
2500 0 94.1683 14.0175 1320 99.3636 713.794 464.496
2501 0 96.1553 13.915 1338 99.6726 713.363 465.423
2502 0 98.1963 13.4628 1322 102.26 713.492 460.964
2503 0 103.121 13.2854 1370 101.783 712.861 460.291
2504 0 108.166 13.8028 1493 100.078 712.443 459.591
2505 0 108.097 12.3131 1331 103.26 713.348 455.545
2506 0 113.18 12.8026 1449 101.247 713.553 456.605
2507 1 59.0367 10.1293 598 100.602 712.579 480.156
2508 0 64.0723 11.7679 754 96.2719 713.326 479.855
2509 0 67.1508 12.807 860 93.2047 712.895 478.387
2510 0 67.0884 12.4015 832 96.6887 714.263 477.049
2511 0 66.1027 10.1206 669 104.105 714.392 477.981
2512 0 70.0718 11.2028 785 101.116 714.068 477.758
2513 0 74.1435 10.9382 811 100.4 712.978 473.787
2514 0 79.2483 14.3978 1141 91.5188 713.945 471.085
2515 0 77.1992 10.2721 793 98.6923 713.603 471.677
2516 0 80.2765 11.3981 915 97.5574 713.404 469.462
2517 0 81.2378 10.3893 844 100.001 713.56 466.305
2518 0 85.1431 11.3456 966 97.7961 713.78 468.148
2519 0 86.2232 10.5192 907 99.8622 713.837 464.335
2520 0 89.1308 10.7258 956 98.5743 713.345 464.853
2521 0 95.1232 10.8911 1036 98.1284 713.34 463.745
2522 0 95.1225 11.1856 1064 127.398 713.391 463.18
2523 0 101.255 12.3352 1249 96.2834 714.11 458.353
2524 0 104.144 11.2344 1170 98.2615 714.311 458.108
2525 0 106.246 10.5698 1123 100.536 714.416 455.999
2526 1 58.1429 9.82064 571 95.4466 713.708 481.72
2527 0 60.1716 9.25685 557 97.6068 714.054 479.12
2528 0 62.1431 12.1494 755 92.4053 716.597 478.217
2529 0 65.1667 10.8031 704 94.7699 716.722 474.278
2530 0 66.1455 11.5049 761 93.6899 716.827 475.848
2531 0 68.2069 11.861 809 92.2682 716.995 475.232
2532 0 68.1509 11.1517 760 93.7868 717.505 473.476
2533 0 72.2173 12.407 896 91.9129 717.138 472.877
2534 0 75.3014 10.9161 822 93.5268 716.998 472.384
2535 0 74.17 12.0534 894 93.4877 717.236 470.153
2536 0 76.1604 12.3949 944 92.7913 717.12 472.231
2537 0 78.1724 10.9629 857 96.5484 717.069 466.823
2538 0 82.2373 13.8258 1137 91.4741 717.029 466.699
2539 0 84.1355 12.884 1084 93.8662 716.948 467.462
2540 0 88.1904 12.405 1094 95.1261 716.609 464.803
2541 0 88.1871 11.2715 994 99.5161 716.679 461.713
2542 0 90.1438 10.3834 936 101.231 716.724 463.61
2543 0 92.1549 12.3054 1134 97.8624 716.714 463.63
2544 0 98.0901 12.774 1253 97.4541 716.212 459.173
2545 0 99.1922 12.4909 1239 99.8467 716.282 455.766
2546 0 102.206 12.8368 1312 100.133 716.501 455.748
2547 0 104.197 11.891 1239 102.81 716.661 458.783
2548 0 107.172 11.5329 1236 105.447 716.531 454.866
2549 0 111.218 12.3181 1370 106.926 715.724 457.207
2550 0 114.246 12.6482 1445 105.219 716.558 451.599
2551 0 116.171 12.8948 1498 105.778 716.121 450.696
2552 0 118.174 12.8455 1518 107.076 716.275 449.157
2553 0 121.303 13.1077 1590 107.796 715.796 445.426
2554 0 126.276 13.6922 1729 105.344 716.865 446.813
2555 1 72.1651 11.7231 846 101.667 716.624 473.178
2556 0 72.2685 12.0246 869 101.481 716.843 471.567
2557 0 77.3618 12.3187 953 99.6233 716.298 470.733
2558 0 80.1911 12.7196 1020 96.9931 717.037 469.26
2559 0 81.1541 13.1478 1067 96.0628 716.877 470.372
2560 0 84.1637 13.3074 1120 95.9661 716.19 467.255
2561 0 84.2984 11.6135 979 100.579 716.52 465.196
2562 0 89.295 12.8675 1149 97.772 716.867 465.056
2563 0 90.3661 11.8739 1073 100.631 716.219 463.54
2564 0 93.1481 11.6911 1089 100.469 716.382 465.194
2565 0 95.1867 13.4998 1285 98.8202 716.339 460.51
2566 0 98.1843 13.5867 1334 98.9603 716.235 458.491
2567 0 98.1619 11.318 1111 102.976 715.295 456.275
2568 0 102.285 13.0322 1333 98.2716 715.144 450.794
2569 0 103.448 12.76 1320 101.036 714.986 448.483
2570 0 104.265 12.6216 1316 103.84 715.212 445.659
2571 0 110.199 12.6408 1393 104.43 715.452 448.935
2572 0 115.258 13.101 1510 110.429 715.65 450.398
2573 0 115.126 11.9608 1377 113.591 715.191 441.136
2574 0 121.234 13.4369 1629 110.232 715.853 442.783
2575 1 66.1864 9.18618 608 112.488 715.571 467.059
2576 0 67.1511 11.0944 745 107.882 715.914 464.604
2577 0 70.1358 12.1051 849 102.965 716.144 467.543
2578 0 73.208 13.5504 992 103.284 715.646 463.454
2579 0 75.1903 12.1558 914 106.899 715.547 463.432
2580 0 73.1106 10.7645 787 112.075 715.56 460.769
2581 0 79.1836 12.1995 966 108.051 715.347 458.394
2582 0 84.1916 12.7804 1076 105.978 715.521 458.622
2583 0 86.1756 12.0684 1040 108.296 716.073 458.194
2584 0 89.1911 13.4543 1200 105.023 716.344 457.369
2585 0 91.1442 13.4951 1230 105.685 715.482 454.911
2586 0 95.2045 12.1528 1157 108.481 715.492 452.845
2587 0 96.2046 12.567 1209 108.242 715.255 451.354
2588 0 99.0555 13.0331 1291 101.981 714.909 453.522
2589 0 102.159 11.3353 1158 104.537 714.772 451.377
2590 0 107.192 12.6595 1357 101.72 715.534 445.587
2591 0 109.171 11.5599 1262 105.342 715.329 445.702
2592 0 114.177 13.12 1498 102.816 715.523 448.336
2593 0 117.284 13.949 1636 113.395 715.058 448.76
2594 0 124.104 14.6087 1813 108.965 715.93 449.121
2595 1 72.0939 12.9692 935 108.424 716.776 472.084
2596 0 69.0587 11.1644 771 102.106 715.23 468.562
2597 0 73.0845 11.2336 821 103.63 716.102 465.048
2598 0 75.2227 10.6085 798 101.579 715.937 462.317
2599 0 77.0537 9.64263 743 102.996 715.131 462.013
2600 0 81.1323 10.7355 871 100.879 715.227 461.859
2601 0 82.061 10.2241 839 103.255 715.149 459.648
2602 0 89.1096 11.3344 1010 100.457 715.233 458.496
2603 0 88.1425 10.9482 965 103.137 715.327 454.182
2604 0 92.134 11.5918 1068 101.298 714.884 456.496
2605 0 94.1692 12.0634 1136 102.223 715.155 450.234
2606 0 98.0643 12.2879 1205 101.375 715.266 452.131
2607 0 101.213 11.9945 1214 101.917 715.259 452.32
2608 0 105.112 13.4809 1417 99.7015 715.399 447.795
2609 0 108.147 11.6045 1255 103.198 715.895 447.716
2610 0 108.209 11.0157 1192 105.822 715.121 444.583
2611 0 112.159 11.4302 1282 105.177 715.533 443.034
2612 0 116.126 11.9094 1383 105.085 715.881 437.521
2613 0 121.162 12.0748 1463 105.06 715.731 441.484
2614 0 124.157 11.9123 1479 107.055 715.72 435.591
2615 0 127.141 12.553 1596 103.09 715.858 432.566
2616 0 133.323 12.421 1656 102.818 715.838 434.943
2617 0 139.254 13.1917 1837 103.426 715.265 434.468
2618 1 78.1744 10.451 817 98.4345 716.397 463.659
2619 0 77.1256 10.0745 777 100.049 716.121 461.347
2620 0 85.0555 10.887 926 96.7538 715.098 462.323
2621 0 85.1989 11.4086 972 96.0658 714.547 462.577
2622 0 89.2367 11.9906 1070 95.3505 714.886 457.06
2623 0 93.2074 10.5786 986 97.641 714.781 457.805
2624 0 95.3775 11.7114 1117 97.0877 714.594 455.627
2625 0 99.2023 12.0965 1200 96.3358 714.162 456.346
2626 0 100.284 11.5772 1161 98.2756 714.347 452.867
2627 0 104.286 11.2767 1176 99.0128 713.556 450.204
2628 0 108.378 11.4968 1246 99.8266 713.951 452.428
2629 0 111.249 11.1192 1237 101.351 713.785 448.64
2630 0 116.213 12.2276 1421 100.096 714.217 451.079
2631 0 121.092 13.0727 1583 102.753 714.835 451.298
2632 0 125.073 12.3208 1541 100.792 714.518 449.764
2633 0 130.182 13.2584 1726 98.6211 715.016 446.152
2634 0 135.176 12.2285 1653 102.592 714.63 445.982
2635 0 136.17 10.0536 1369 106.856 714.636 443.156
2636 0 145.171 12.5094 1816 102.605 714.102 441.336
2637 0 148.191 9.79139 1451 108.146 714.734 439.431
2638 1 88.1066 11.3158 997 100.272 715.294 470.722
2639 0 91.2525 12.3503 1127 102.672 713.545 464.744
2640 0 93.1135 11.631 1083 103.771 714.948 468.262
2641 0 98.1091 13.5665 1331 99.3802 714.699 465.939
2642 0 101.244 12.4847 1264 101.625 713.752 462.43
2643 0 104.331 13.6393 1423 98.2572 714.001 461.736
2644 0 106.481 13.6456 1453 99.6332 713.949 456.97
2645 0 110.43 13.0219 1438 101.209 713.758 455.951
2646 0 111.362 13.1822 1468 99.6138 712.879 455.715
2647 0 111.368 12.1849 1357 102.652 712.275 451.149
2648 0 117.415 12.656 1486 101.916 712.203 452.087
2649 0 123.597 13.18 1629 102.491 711.904 452.072
2650 0 125.396 13.278 1665 102.461 712.03 449.26
2651 0 126.329 12.8395 1622 103.848 712.327 440.167
2652 0 131.36 13.0481 1714 104.225 711.908 441.386
2653 0 132.25 13.6182 1801 104.882 712.492 435.125
2654 0 138.218 12.7118 1757 106.449 712.818 434.611
2655 0 144.358 13.0925 1890 105.909 712.09 433.688
2656 1 81.1238 8.7274 708 105.274 713.812 465.089
2657 0 82.1368 11.1156 913 103.077 713.388 460.99
2658 0 88.1864 12.054 1063 100.802 713.643 461.286
2659 0 89.2014 10.6613 951 103.425 713.74 460.436
2660 0 90.3154 11.5927 1047 102.705 713.88 459.336
2661 0 95.3807 10.652 1016 104.076 713.34 455.656
2662 0 98.3728 12.9406 1273 99.3802 712.885 456.12
2663 0 101.194 11.2852 1142 103.287 713.101 454.229
2664 0 103.212 10.9871 1134 94.9691 712.834 454.866
2665 0 107.197 10.9891 1178 95.545 712.383 454.979
2666 0 110.258 10.421 1149 97.2498 712.326 453.244
2667 0 113.238 12.8137 1451 93.111 712.378 453.046
2668 0 118.201 12.1488 1436 96.0675 711.87 447.75
2669 0 116.186 11.6537 1354 138.117 711.886 449.143
2670 0 125.35 12.3733 1551 95.8994 711.974 447.741
2671 0 128.267 12.3883 1589 96.5381 712.213 447.625
2672 0 129.312 11.2519 1455 99.3203 712.104 444.99
2673 0 135.32 11.2179 1518 100.097 711.672 441.17
2674 0 137.374 11.254 1546 100.418 712.517 438.08
2675 0 144.238 12.7775 1843 96.3353 712.089 437.415
2676 0 146.306 11.7972 1726 100.117 712.107 435.961
2677 0 152.325 11.889 1811 99.556 711.923 436.595
2678 0 157.363 11.3686 1789 103.321 711.286 433.794
2679 0 164.467 12.4584 2049 100.251 712.11 432.547
2680 1 89.0706 12.0017 1069 100.084 711.326 468.742
2681 0 92.1815 13.5385 1248 99.0473 711.145 470.038
2682 0 93.0803 13.0855 1218 101.569 711.436 467.197
2683 0 98.1876 12.2011 1198 107.335 710.996 468.431
2684 0 100.137 14.0109 1403 104.6 710.713 462.431
2685 0 104.272 13.0812 1364 107.034 710.7 462.201
2686 0 105.337 13.5755 1430 106.997 710.69 459.675
2687 0 106.256 13.3828 1422 108.399 710.602 457.625
2688 0 110.177 15.2027 1675 103.491 710.817 460.453
2689 0 114.162 14.4619 1651 103.669 711.311 455.907
2690 0 118.126 14.2983 1689 104.187 711.102 455.342
2691 0 122.315 14.8142 1812 103.981 711.905 453.387
2692 0 123.277 13.0438 1608 109.552 712.836 451.731
2693 0 128.311 12.6178 1619 110.122 712.869 451.103
2694 0 132.386 12.7582 1689 110.484 712.033 448.943
2695 0 134.429 12.8543 1728 112.737 712.058 444.747
2696 0 133.277 10.6395 1418 115.223 713.473 437.008
2697 0 143.128 12.2687 1756 112.27 713.477 435.94
2698 0 148.209 12.6308 1872 112.024 713.54 430.473
2699 0 152.189 10.9075 1660 117.569 713.328 426.273
2700 0 157.219 12.2886 1932 114.894 713.6 425.236
2701 0 161.299 11.8661 1914 116.406 713.455 420.77
2702 0 168.334 12.1485 2045 115.239 713.943 422.822
2703 0 174.305 12.0479 2100 116.272 713.903 417.563
2704 0 179.219 11.5166 2064 118.164 713.437 415.367
2705 0 185.431 12.7864 2371 115.956 713.176 410.413
2706 0 191.383 12.7859 2447 114.975 713.145 413.515
2707 0 201.45 13.4922 2718 113.454 712.908 405.982
2708 0 205.454 12.5575 2580 117.069 712.406 405
2709 1 41.0427 9.18555 377 96.9708 714.751 492.512
2710 0 43.0864 9.30688 401 97.182 712.763 490.599
2711 0 47.0316 11.1202 523 92.935 711.88 491.719
2712 0 47.0219 11.3989 536 93.8153 711.799 491.319
2713 0 49.0812 12.7136 624 91.0865 711.348 487.635
2714 0 47.1467 10.584 499 97.509 711.373 486.463
2715 0 51.0925 11.3519 580 96.6362 711.431 486.341
2716 0 54.0623 12.6336 683 94.3426 711.228 486.933
2717 0 53.0798 10.8328 575 100.656 712.551 487.381
2718 0 56.054 11.596 650 99.0092 712.935 487.522
2719 0 55.071 10.8406 597 102.846 714.928 482.236
2720 0 59.1675 10.7661 637 101.694 715.689 480.43
2721 0 61.0958 11.8339 723 100.313 715.04 481.611
2722 0 61.1026 11.7507 718 102.184 715.025 481.687
2723 0 62.0952 11.4502 711 102.996 714.678 480.457
2724 0 63.0779 10.9071 688 106.443 714.682 480.785
2725 0 67.0863 12.7448 855 101.491 714.759 478.763
2726 0 69.1273 12.1081 837 103.548 714.247 476.588
2727 0 70.1645 11.9006 835 104.338 714.435 477.195
2728 0 74.1146 11.9275 884 103.614 714.784 474.325
2729 0 71.0599 9.71012 690 111.178 713.917 473.442
2730 0 74.12 11.7107 868 106.78 714.369 474.168
2731 0 78.1826 12.2661 959 102.331 714.263 469.834
2732 0 82.1727 12.0721 992 104.466 713.984 470.434
2733 0 84.1171 11.5553 972 105.083 714.401 470.207
2734 0 86.2412 11.7809 1016 105.706 714.33 468.234
2735 0 89.1994 11.9844 1069 105.417 714.523 464.624
2736 0 90.1929 11.8967 1073 106.242 714.714 465.423
2737 1 49.1239 8.22409 404 108.842 715.537 483.834
2738 0 54.1301 9.49565 514 105.084 715.942 484.955
2739 0 59.1015 11.3872 673 103.285 714.79 486.034
2740 0 60.1978 11.7778 709 109.987 714.993 481.293
2741 0 63.3473 12.4236 787 109.169 714.557 481.178
2742 0 62.4258 11.3415 708 113.483 714.203 482.082
2743 0 66.3668 12.0241 798 112.789 714.152 479.224
2744 0 68.2562 12.2187 834 111.637 713.845 479.779
2745 0 69.3014 12.828 889 112.836 714.451 476.844
2746 0 70.2183 13.6574 959 111.616 714.856 476.831
2747 0 71.2454 12.871 917 114.786 714.406 475.987
2748 0 72.2181 12.1853 880 116.917 714.431 475.901
2749 0 76.2118 12.544 956 116.039 713.935 475.28
2750 0 78.179 13.4947 1055 114.437 714.201 473.003
2751 0 77.2093 12.4596 962 117.194 714.198 474.218
2752 0 80.1725 12.7475 1022 117.507 714.924 471.667
2753 0 81.2238 12.2747 997 119.915 714.653 469.461
2754 0 84.3427 12.4492 1050 118.753 714.126 469.908
2755 0 87.1128 12.6158 1099 119.358 714.376 469.117
2756 0 89.1512 12.8546 1146 120.148 714.055 465.351
2757 0 93.14 12.9912 1210 117.864 713.517 468.745
2758 0 95.1877 12.4701 1187 118.706 713.542 467.316
2759 0 94.1863 12.6982 1196 120.724 713.514 464.06
2760 0 99.126 13.0642 1295 119.665 712.789 461.524
2761 0 103.196 13.2467 1367 117.999 713.001 462.113
2762 0 103.196 13.4405 1387 118.259 716.18 463.221
2763 0 109.161 13.3747 1460 116.795 715.718 462.747
2764 1 64.0448 12.3664 792 111.948 715.744 481.725
2765 0 66.1571 11.7145 775 107.952 716 478.535
2766 0 68.2008 12.2286 834 107.278 715.68 477.337
2767 0 68.0743 12.1926 830 108.843 715.747 478.711
2768 0 70.102 12.1395 851 108.838 715.488 477.058
2769 0 71.1086 12.4176 883 108.544 715.771 477.767
2770 0 74.1195 11.6703 865 110.821 715.545 476.343
2771 0 78.1507 11.6058 907 110.799 715.504 474.291
2772 0 79.1099 11.7937 933 109.957 714.915 475.886
2773 0 82.1624 11.6842 960 109.13 715.483 473.832
2774 0 85.1111 11.1149 946 109.774 715.184 472.058
2775 0 88.1822 12.9278 1140 106.746 715.136 469.513
2776 0 91.1154 12.8409 1170 107.746 714.755 467.831
2777 0 95.1682 12.4937 1189 107.103 714.927 468.783
2778 0 96.1311 11.9836 1152 108.688 715.189 466.326
2779 0 100.161 12.4 1242 107.302 715.043 464.342
2780 0 104.206 13.3485 1391 104.833 714.917 462.309
2781 1 61.0961 11.8502 724 102.606 715.478 484.193
2782 0 63.0401 11.2944 712 104.34 715.15 482.093
2783 0 65.0674 12.1259 789 102.33 715.66 481.657
2784 0 67.0995 11.4308 767 102.756 715.741 481.493
2785 0 69.0546 12.4249 858 101.213 715.545 478.659
2786 0 71.1626 11.818 841 102.313 715.026 479.288
2787 0 73.137 12.4834 913 101.991 713.208 477.692
2788 0 76.0739 13.3291 1014 108.651 713.149 475.454
2789 0 77.0443 11.9282 919 111.665 712.683 473.347
2790 0 80.1024 12.7087 1018 110.241 712.942 471.06
2791 0 80.1332 11.1939 897 114.256 711.895 470.372
2792 0 87.0616 14.3232 1247 104.294 712.29 464.669
2793 0 85.0906 12.1165 1031 112.55 712.349 466.408
2794 0 90.0569 12.2256 1101 112.157 712.291 467.619
2795 0 93.0479 12.5204 1165 111.182 712.43 467.36
2796 0 95.0745 12.7269 1210 112.827 712.19 462.726
2797 0 97.0689 13.4132 1302 112.712 712.061 460.267
2798 0 101.064 12.8037 1294 114.576 712.257 460.527
2799 0 105.122 12.4427 1308 114.537 712.591 461.819
2800 0 109.078 13.1007 1429 113.967 711.941 457.629
2801 0 112.121 13.0484 1463 114.787 713.08 456.321
2802 0 114.236 12.9207 1476 115.349 712.833 454.984
2803 0 120.133 13.7181 1648 113.247 713.254 453.812
2804 1 65.0907 11.2459 732 112.464 713.342 481.358
2805 0 67.1935 11.2957 759 113.05 714.299 476.603
2806 0 72.2402 13.4274 970 107.971 714.395 474.939
2807 0 74.0614 12.0846 895 111.782 712.179 475.269
2808 0 75.0477 13.2449 994 109.488 711.704 473.248
2809 0 78.059 11.8628 926 112.856 712.286 473.621
2810 0 80.0962 13.4588 1078 109.596 712.245 470.666
2811 0 83.1018 12.9359 1075 111.003 712.42 471.247
2812 0 87.0526 12.6016 1097 110.704 711.914 472.049
2813 0 90.0384 13.6386 1228 108.912 712.284 468.146
2814 0 92.0749 13.7714 1268 109.21 712.166 465.785
2815 0 94.0575 12.6199 1187 111.569 711.467 464.47
2816 0 98.0965 14.2717 1400 108.192 712.146 462.69
2817 0 102.062 12.806 1307 110.004 712.264 465.01
2818 0 104.115 12.9952 1353 110.62 712.831 460.956
2819 0 109.084 13.9984 1527 108.028 712.294 460.874
2820 0 114.093 14.532 1658 106.639 712.525 457.256
2821 0 114.107 13.6889 1562 109.585 712.547 454.988
2822 0 118.173 14.428 1705 106.471 713.1 459.327
2823 0 122.068 13.3369 1628 108.956 712.753 456.168
2824 0 126.164 12.8088 1616 109.607 714.173 452.322
2825 1 73.1229 13.4294 982 103.065 713.573 480.706
2826 0 74.1238 13.4909 1000 104.872 712.594 476.788
2827 0 76.0428 13.2688 1009 103.844 713.088 474.692
2828 0 78.1169 12.8525 1004 105.21 713.092 470.601
2829 0 79.0787 12.9238 1022 105.742 713.366 469.819
2830 0 84.2811 13.2651 1118 105.869 713.566 473.205
2831 0 86.2518 12.9157 1114 107.439 712.893 470.135
2832 0 88.1828 13.438 1185 106.136 712.84 468.477
2833 0 92.2129 13.6423 1258 105.926 712.776 464.754
2834 0 97.2269 14.1525 1376 104.256 712.807 464.807
2835 0 97.2253 12.1573 1182 111.213 713.044 461.353
2836 0 100.295 13.2608 1330 108.217 713.068 461.789
2837 0 105.245 14.0149 1475 106.388 712.856 459.804
2838 0 108.205 13.9549 1510 107.182 713.385 458.248
2839 0 110.209 14.4725 1595 106.265 713.2 459.315
2840 0 114.175 14.3814 1642 107.412 713.124 456.724
2841 0 117.271 13.1917 1547 109.533 713.065 455.798
2842 0 121.199 13.8449 1678 108.18 713.386 452.069
2843 0 126.146 14.3801 1814 106.464 713.461 449.213
2844 0 129.262 14.0103 1811 108.589 713.874 448.398
2845 0 134.312 14.0047 1881 103.281 713.366 446.48
2846 1 73.0934 11.3006 826 105.099 714.159 478.253
2847 0 75.0689 13.0414 979 103.26 713.507 474.182
2848 0 78.2189 12.7335 996 98.9508 712.792 471.842
2849 0 82.14 12.9291 1062 99.0951 712.847 470.617
2850 0 84.263 12.2948 1036 101.797 713.107 470.449
2851 0 88.2061 13.8313 1220 100.73 714.221 468.167
2852 0 91.2823 12.5326 1144 103.407 713.586 468.45
2853 0 94.3089 13.1271 1238 102.425 713.456 469.027
2854 0 97.2162 12.4156 1207 104.998 713.099 468.145
2855 0 100.177 12.6676 1269 105.771 713.344 465.771
2856 0 102.168 12.9297 1321 107.467 713.439 461.794
2857 0 104.184 13.0443 1359 108.619 712.856 460.542
2858 0 108.334 12.7291 1379 109.317 712.993 462.983
2859 0 109.269 13.206 1443 111.278 712.347 459.727
2860 0 117.362 14.0506 1649 108.763 712.969 459.486
2861 0 118.408 12.5582 1487 113.873 712.421 457.243
2862 0 121.378 13.1984 1602 112.221 712.215 456.351
2863 0 126.261 13.3137 1681 112.886 713.261 452.88
2864 0 132.434 13.2217 1751 113.343 712.747 450.483
2865 0 135.373 13.3705 1810 114.383 713.396 446.531
2866 0 138.392 13.982 1935 114.865 712.463 442.951
2867 0 144.456 13.7136 1981 116.32 712.825 441.717
2868 0 148.42 14.4792 2149 116.088 713.312 439.295
2869 0 152.501 13.836 2110 118.559 712.435 440.677
2870 0 158.29 13.1847 2087 121.934 711.964 434.005
2871 1 82.3566 12.3123 1014 115.13 712.944 472.639
2872 0 86.2912 13.327 1150 114.383 712.721 471.424
2873 0 88.1888 13.7886 1216 116.273 713.154 470.334
2874 0 91.3206 13.6771 1249 117.857 712.854 469.498
2875 0 93.2858 13.8285 1290 118.374 713.469 469.675
2876 0 94.4062 13.0606 1233 124.906 712.835 467.034
2877 0 97.2652 12.4505 1211 126.31 713.763 468.017
2878 0 100.29 12.5935 1263 126.644 713.201 466.762
2879 0 104.478 13.6488 1426 124.567 712.912 463.781
2880 0 108.316 13.3406 1445 125.302 713.404 463.385
2881 0 111.492 14.1445 1577 123.885 712.996 461.645
2882 0 114.248 14.2409 1627 124.39 713.065 459.219
2883 0 117.292 13.087 1535 127.291 713.342 458.012
2884 0 121.28 13.6791 1659 127.035 712.931 454.597
2885 0 127.373 14.4301 1838 123.932 713.374 455.332
2886 0 132.189 14.449 1910 125.618 712.787 446.564
2887 0 134.287 14.5286 1951 125.592 712.738 446.004
2888 0 140.406 14.28 2005 126.616 713.075 441.015
2889 0 145.283 15.2117 2210 124.984 713.403 438.629
2890 0 150.456 14.5757 2193 126.574 713.212 439.28
2891 0 155.374 15.1699 2357 125.72 712.783 434.719
2892 0 159.368 13.1332 2093 131.075 712.862 434.179
2893 0 165.551 14.8776 2463 126.359 712.923 428.863
2894 0 168.518 13.4348 2264 131.42 712.601 427.481
2895 0 174.386 14.0263 2446 131.67 712.335 423.271
2896 0 182.623 14.2862 2609 129.653 712.704 423.888
2897 0 188.709 14.9066 2813 129.242 712.659 420.61
2898 0 195.663 14.8981 2915 133.024 712.868 415.326
2899 0 201.792 15.8876 3206 130.162 712.639 413.409
2900 1 149.53 12.8403 1920 138.437 712.61 437.226
2901 0 157.577 14.3612 2263 135.285 713.332 433.646
2902 0 160.412 14.5438 2333 136.792 713.055 432.539
2903 0 167.511 14.4229 2416 134.757 712.522 430.414
2904 0 173.859 15.2423 2650 133.253 712.894 423.446
2905 0 180.762 15.6504 2829 130.836 712.695 423.203
2906 0 185.598 14.7038 2729 133.869 713.259 423.273
2907 0 191.564 14.9349 2861 132.751 712.608 419.64
2908 0 197.532 14.4483 2854 135.468 712.386 414.565
2909 0 204.584 13.872 2838 137.279 712.794 410.3
2910 0 211.353 14.7384 3115 135.059 712.642 408.977
2911 0 219.484 14.0466 3083 137.486 712.674 402.109
2912 0 225.566 14.5722 3287 136.822 712.657 400.784
2913 0 234.578 14.5154 3405 136.512 712.409 397.003
2914 0 245.606 14.6454 3597 135.578 712.173 391.815
2915 0 252.528 15.0122 3791 133.688 712.147 388.855
2916 1 200.587 14.5323 2915 137.651 712.164 410.395
2917 0 208.726 15.7 3277 133.766 712.937 405.637
2918 0 214.724 15.8855 3411 134.342 712.68 402.008
2919 0 222.57 15.5861 3469 135.812 712.966 402.365
2920 0 227.617 14.8319 3376 139.116 712.277 398.324
2921 0 234.557 14.5509 3413 140.384 712.818 397.164
2922 0 243.567 14.768 3597 140.914 712.431 385.788
2923 0 250.674 14.5288 3642 143.231 712.769 382.952
2924 0 261.927 16.3061 4271 137.987 712.409 379.23
2925 0 270.907 15.8025 4281 139.743 712.801 370.554
2926 0 281.816 16.2411 4577 138.057 712.968 370.797
2927 0 289.651 15.2252 4410 140.461 712.571 363.205
2928 1 326.782 21.6413 7072 111.955 712.309 343.069
2929 1 232.254 14.2172 3302 135.876 712.147 399.266
2930 0 239.516 14.8383 3554 135.017 711.838 387.24
2931 0 248.501 14.7484 3665 135.933 712.291 377.2
2932 0 257.448 15.1137 3891 136.306 711.82 379.677
2933 0 266.712 14.5925 3892 138.447 711.998 373.179
2934 0 277.565 15.463 4292 136.518 712.243 368.767
2935 0 360.225 21.2811 7666 103.708 712.289 327.172
2936 0 296.551 19.5953 5811 122.791 712.478 353.616
2937 0 305.689 16.8341 5146 130.187 712.695 351.043
2938 0 314.804 16.3086 5134 131.26 712.77 344.241
2939 0 325.495 17.4104 5667 127.708 712.341 339.832
2940 0 338.804 17.4319 5906 127.474 712.264 333.834
2941 0 350.947 17.5212 6149 126.666 712.638 324.632
2942 0 360.88 16.5485 5972 130.151 712.187 319.77
2943 0 372.825 16.332 6089 130.181 712.305 309.216
2944 0 391.898 17.9792 7046 123.537 712.335 305.113
2945 1 49.1459 10.9063 536 102.84 711.994 485.53
2946 0 55.3199 17.1548 949 83.5068 712.081 457.544
2947 0 54.282 15.5668 845 99.7515 712.627 442.58
2948 0 56.34 17.1991 969 95.0846 712.871 450.764
2949 0 56.2849 16.0612 904 99.3971 712.951 450.924
2950 0 57.3821 17.2353 989 98.0091 713.333 452.858
2951 0 56.3037 16.9971 957 100.811 713.02 455.667
2952 0 57.3797 17.3058 993 100.63 712.439 455.913
2953 0 56.4492 15.5538 878 107.206 712.269 456.6
2954 0 57.3843 18.106 1039 101.827 712.493 458.801
2955 0 57.5047 15.4248 887 109.082 712.231 461.869
2956 0 58.3055 15.2473 889 110.274 712.118 461.808
2957 0 57.2799 14.9442 856 112.217 712.252 464.139
2958 0 60.4272 16.9626 1025 106.988 711.766 463.42
2959 0 61.374 17.0756 1048 107.613 711.876 464.893
2960 0 60.2151 16.2584 979 107.748 711.187 464.118
2961 0 60.4294 16.6144 1004 107.705 711.946 465.461
2962 0 62.2574 16.7691 1044 106.239 711.656 464.631
2963 0 60.4202 14.9453 903 113.488 711.89 464.657
2964 0 61.4077 16.6754 1024 108.996 711.546 464.999
2965 0 61.2781 17.0697 1046 108.437 711.444 466.178
2966 0 61.1865 15.4119 943 112.618 711.418 466.234
2967 0 62.3409 16.4739 1027 108.662 711.182 466.761
2968 0 62.2036 14.4525 899 111.861 711.141 474.986
2969 0 62.1623 15.2826 950 110.885 710.947 475.008
2970 0 63.0685 16.4424 1037 106.766 712.055 477.106
2971 0 63.2313 16.2894 1030 108.548 713.515 478.226
2972 0 63.2458 16.3015 1031 108.424 713.183 479.803
2973 0 62.264 15.0167 935 113.051 713.263 479.041
2974 0 63.277 15.7719 998 111.305 713.131 476.618
2975 0 64.1811 16.9053 1085 107.695 712.697 480.881
2976 0 64.1253 16.5457 1061 108.354 712.818 480.359
2977 0 64.1625 16.5361 1061 107.743 712.84 481.172
2978 0 67.322 16.8741 1136 104.98 713.09 478.684
2979 0 64.1822 16.8271 1080 106.956 713.531 478.788
2980 0 66.2352 17.0151 1127 104.919 712.644 480.017
2981 0 65.2543 16.3514 1067 107.701 712.852 479.8
2982 0 68.3861 17.6059 1204 102.534 712.817 479.708
