time division length width area intensity CMx CMy
1190 0 53.0843 10.9825 583 106.87 191.554 390.34
1191 0 54.1588 12.5187 678 105.358 191.768 389.031
1192 0 54.1277 12.7661 691 107.025 191.401 387.709
1193 0 56.1421 12.8424 721 106.359 191.487 389.935
1194 0 57.1184 10.7671 615 112.312 191.467 387.289
1195 0 62.1357 13.036 810 107.183 191.772 386.841
1196 0 62.2061 12.33 767 109.803 191.791 387.528
1197 0 63.196 12.1527 768 111.781 191.251 384.9
1198 0 67.0949 13.5033 906 108.434 190.791 384.392
1199 0 70.1362 13.873 973 108.165 191.033 382.813
1200 0 71.1329 13.1725 937 111.131 190.757 381.983
1201 0 74.2136 13.2321 982 110.202 191.009 380.545
1202 0 77.2303 13.2202 1021 110.358 190.388 379.181
1203 0 80.1753 12.3604 991 113.174 190.869 378.577
1204 0 83.2719 12.3211 1026 111.83 190.808 378.713
1205 0 85.2291 12.9299 1102 112.161 190.289 375.61
1206 0 89.2468 13.6027 1214 109.775 189.923 375.292
1207 0 93.2236 14.0737 1312 116.959 190.043 373.486
1208 0 95.3962 13.5645 1294 118.798 190.174 371.188
1209 0 96.2457 12.8006 1232 118.023 190.466 372.951
1210 1 52.1484 11.9083 621 117.944 189.865 390.372
1211 0 54.331 13.8411 752 112.589 191.301 391.507
1212 0 56.329 12.0719 680 116.438 191.213 391.754
1213 0 56.3752 12.133 684 117.484 191.187 389.218
1214 0 59.2973 12.6987 753 114.596 191.016 389.541
1215 0 60.3426 12.5782 759 116.138 190.779 388.447
1216 0 62.1533 12.2439 761 114.996 190.915 389.188
1217 0 64.3078 12.6423 813 115.023 190.268 386.614
1218 0 66.1939 12.4181 822 114.894 190.887 386.837
1219 0 69.2358 13.3312 923 112.265 190.88 385.167
1220 0 73.3262 14.3196 1050 111.25 190.936 382.88
1221 0 72.2256 12.461 900 116.346 190.957 383.353
1222 0 75.0996 13.7284 1031 113.998 190.514 381.721
1223 0 79.1565 13.8965 1100 113.345 190.737 381.402
1224 0 82.1734 12.8874 1059 115.14 190.997 379.832
1225 0 84.2466 13.045 1099 115.911 190.681 377.353
1226 0 87.2607 13.5456 1182 115.069 190.304 378.42
1227 1 48.1517 11.443 551 111.673 191.619 398.795
1228 0 47.174 13.9908 660 108.894 192.158 398.673
1229 0 48.1099 12.0765 581 115.284 192.435 397.487
1230 0 48.4163 12.2686 594 115.966 191.52 397.152
1231 0 48.1822 11.9961 578 111.794 191.521 398.142
1232 0 50.1911 12.811 643 110.222 191.672 396.121
1233 0 52.164 12.269 640 111.548 191.823 396.805
1234 0 54.136 13.5954 736 108.592 191.173 396.81
1235 0 55.1411 13.4926 744 110.435 190.96 393.957
1236 0 58.2003 13.1443 765 111.15 191.318 395.108
1237 0 57.2006 12.7621 730 113.89 190.774 394.867
1238 0 60.1075 13.3594 803 112.584 190.776 394.924
1239 0 61.101 14.0751 860 113.741 190.72 392.547
1240 0 65.2427 13.6261 889 113.56 191.051 392.848
1241 0 66.1735 13.4495 890 116.215 190.951 390.812
1242 0 68.1153 14.0644 958 115.975 190.81 389.33
1243 0 69.1886 12.1552 841 121.571 190.961 389.8
1244 0 72.1363 13.3497 963 120.078 190.902 388.842
1245 0 76.1332 14.2776 1087 116.424 191.098 388.875
1246 0 76.094 14.0616 1070 118.576 191.733 386.085
1247 0 79.2185 13.3428 1057 119.865 191.476 384.626
1248 0 84.1331 13.4786 1134 118.96 190.743 384.613
1249 0 86.1371 13.7571 1185 119.823 191.023 382.17
1250 0 89.1873 13.3427 1190 121.197 190.949 381.036
1251 0 92.2493 14.2115 1311 117.854 191.123 380.101
1252 1 49.0859 12.142 596 119.171 191.591 403.045
1253 0 50.1104 12.5922 631 121.54 191.521 398.853
1254 0 51.0743 13.1965 674 121.421 191.758 397.84
1255 0 52.04 13.4512 700 123.669 192.049 398.697
1256 0 51.0886 11.529 589 131.367 191.43 397.543
1257 0 55.0766 12.7459 702 125.913 191.315 398.342
1258 0 57.1871 13.7444 786 125.445 190.555 396.291
1259 0 57.0864 12.2096 697 129.344 190.593 397.287
1260 0 60.1082 13.9582 839 125.604 190.184 395.989
1261 0 62.1067 13.7022 851 126.685 190.108 395.014
1262 0 64.1183 13.3815 858 129.26 190.493 393.392
1263 0 63.0618 13.6374 860 130.498 189.57 392.895
1264 0 66.07 13.2133 873 132.734 189.754 392.569
1265 0 67.1048 12.6817 851 134.013 190.562 391.224
1266 0 70.1707 13.8947 975 131.776 190.277 387.892
1267 0 72.1155 14.7541 1064 130.092 189.602 387.337
1268 0 71.1683 13.0676 930 133.716 189.042 388.418
1269 0 75.1813 13.4342 1010 132.307 189.708 387.287
1270 0 77.2736 13.5751 1049 130.733 189.317 387.415
1271 0 80.1622 12.8614 1031 140.899 188.585 385.534
1272 0 82.1125 13.6398 1120 138.447 189.408 384.286
1273 0 84.1623 12.5947 1060 142.425 189.678 380.605
1274 0 88.1711 13.5532 1195 137.079 189.825 380.601
1275 1 47.0579 10.8165 509 137.051 188.9 400.731
1276 0 48.2233 12.7947 617 131.762 189.011 398.431
1277 0 51.0921 12.9178 660 126.835 189.285 391.703
1278 0 52.1278 13.6204 710 130.749 189.889 395.558
1279 0 54.1374 14.0199 759 129.36 189.603 396.086
1280 0 56.2109 13.4494 756 133.433 189.352 395.679
1281 0 58.1775 13.7682 801 131.811 190.065 394.062
1282 0 60.1554 13.6646 822 132.069 189.575 392.4
1283 0 61.1988 14.216 870 130.9 189.906 390.744
1284 0 64.1888 13.8342 888 130.877 190.104 391.898
1285 0 66.1169 14.1568 936 131.171 189.663 390.082
1286 0 66.2142 14.4833 959 131.428 189.711 390.222
1287 0 67.1568 13.8631 931 135.058 189.559 388.675
1288 0 72.2205 14.0542 1015 133.011 189.622 386.774
1289 0 72.2105 14.2915 1032 134.116 189.472 387.019
1290 0 76.111 14.1767 1079 128.849 189.993 385.165
1291 0 80.0651 14.5382 1164 128.376 189.701 385.674
1292 0 82.0874 14.2044 1166 130.596 190.063 383.682
1293 0 84.1135 13.9336 1172 130.497 189.929 383.665
1294 0 86.2164 13.6517 1177 132.548 190.509 380.103
1295 1 46.232 10.8366 501 132.086 189.719 400.912
1296 0 50.1348 11.6486 584 127.743 189.884 400.822
1297 0 50.095 12.4763 625 132.131 189.058 396.344
1298 0 52.0177 12.3804 644 135.694 190.97 394.686
1299 0 52.0909 12.7853 666 129.372 191.071 391.243
1300 0 55.1727 12.2706 677 127.944 189.71 392.182
1301 0 55.1381 12.3508 681 129.319 190.069 391.824
1302 0 58.121 13.0934 761 127.495 189.884 390.263
1303 0 60.0817 13.0988 787 126.701 189.994 389.785
1304 0 59.1397 13.7471 813 127.98 190.097 387.86
1305 0 62.0719 13.3071 826 127.799 189.62 386.042
1306 0 66.1495 13.0764 865 127.066 189.487 387.65
1307 0 67.118 13.6625 917 127.647 189.619 385.227
1308 0 67.086 12.5361 841 131.549 189.678 383.88
1309 0 71.0608 13.1296 933 130.203 189.676 382.581
1310 0 72.1434 12.8633 928 132.574 189.55 381.99
1311 0 76.0762 12.8818 980 133.266 190.231 380.776
1312 0 78.0608 13.2076 1031 132.146 190.763 378.121
1313 0 82.1561 14.7159 1209 126.25 190.124 379.292
1314 0 84.0682 13.7507 1156 130.709 190.01 375.674
1315 0 87.0953 14.444 1258 124.763 189.172 375.724
1316 0 90.1692 13.8185 1246 124.765 189.742 374.651
1317 0 91.2356 12.4294 1134 122.138 189.866 372.158
1318 0 96.1069 13.0584 1255 121.363 189.532 370.682
1319 1 53.1273 11.2183 596 128.54 188.971 390.247
1320 0 57.233 11.8114 676 121.788 189.737 390.22
1321 0 58.0741 11.8986 691 122.504 190.485 389.857
1322 0 59.0302 13.1628 777 121.557 190.728 386.824
1323 0 63.0454 13.4665 849 118.955 190.329 387.112
1324 0 64.078 12.8437 823 120.507 190.272 385.798
1325 0 66.0377 12.296 812 124.054 190.59 383.244
1326 0 69.1013 12.4455 860 125.027 190.888 384.205
1327 0 71.1041 12.4887 888 123.296 190.91 383.864
1328 0 74.0687 12.9069 956 121.95 191.276 382.777
1329 0 77.1349 13.2884 1025 120.4 190.963 380.491
1330 0 79.0858 13.3273 1054 121.936 190.477 380.839
1331 0 83.1113 13.139 1092 119.498 190.558 381.799
1332 0 83.0272 12.261 1018 123.8 191.012 376.134
1333 1 44.0529 11.804 520 122.229 192.348 399.317
1334 0 47.0703 12.5132 589 116.34 191.455 401.392
1335 0 45.0579 12.1177 546 116.936 190.954 403.227
1336 0 47.0732 14.042 661 113.172 190.433 401.735
1337 0 50.0503 12.6073 631 115.025 190.906 400.829
1338 0 51.1018 13.3068 680 114.712 190.919 398.581
1339 0 52.0726 12.3481 643 115.997 191.216 397.837
1340 0 54.0291 13.03 704 114.56 190.733 398.635
1341 0 54.0838 12.5731 680 116.657 191.115 396.835
1342 0 56.1297 12.3642 694 117.461 190.522 394.686
1343 0 60.0668 13.435 807 113.659 190.766 394.659
1344 0 60.122 12.5578 755 115.441 190.359 395.199
1345 0 65.1289 14.0951 918 111.484 190.694 392.156
1346 0 64.1149 13.8501 888 113.508 190.57 391.491
1347 0 68.1665 13.4523 917 113.007 190.377 391.057
1348 0 69.0937 13.7205 948 113.568 190.069 388.134
1349 0 72.1195 13.4222 968 113.93 190.563 390.279
1350 0 72.0918 12.8031 923 117.377 190.719 387.914
1351 0 76.0932 13.8383 1053 115.823 190.48 385.987
1352 0 79.094 12.3018 973 118.127 190.259 388.255
1353 0 84.1126 13.6246 1146 114.847 190.761 386.083
1354 0 87.0961 13.7664 1199 115.919 190.897 381.979
1355 0 87.1224 13.7622 1199 117.393 189.224 381.269
1356 0 91.1975 13.6955 1249 118.178 189.087 380.661
1357 0 97.2404 14.2533 1386 115.105 188.999 380.693
1358 1 52.2143 12.8126 669 118.966 189.303 399.066
1359 0 55.335 13.3369 738 111.874 189.818 397.68
1360 0 56.1248 13.666 767 114.003 188.819 397.223
1361 0 57.2266 13.1233 751 115.403 189.406 398.173
1362 0 56.0981 12.2464 687 117.603 188.482 397.999
1363 0 59.1843 12.9595 767 117.853 188.786 396.773
1364 0 62.1429 12.9701 806 115.61 188.516 398.439
1365 0 64.1904 11.9488 767 118.919 189.154 395.176
1366 0 66.157 13.3319 882 117.342 188.729 393.423
1367 0 66.1629 12.2274 809 121.701 189.297 393.499
1368 0 69.1573 12.6379 874 120.849 189.285 392.048
1369 0 74.3884 13.322 991 118.452 189.372 390.49
1370 0 76.2432 13.9029 1060 119.868 190.119 388.742
1371 0 79.1781 13.3118 1054 121.224 190.085 387.626
1372 0 79.3427 12.9817 1030 122.941 190.005 387.256
1373 0 82.329 12.3772 1019 125.054 190.198 384.727
1374 0 86.2654 13.7019 1182 120.998 190.41 384.063
1375 0 89.3915 13.7933 1233 122.905 190.052 381.539
1376 0 92.2489 13.5503 1250 121.11 190.359 382.656
1377 0 98.2946 14.3548 1411 123.322 190.021 377.185
1378 1 57.2425 13.2419 758 123.139 189.836 398.36
1379 0 58.1979 14.0211 816 117.027 189.712 396.62
1380 0 60.3778 13.8627 837 120.124 190.311 396.375
1381 0 60.2522 13.4933 813 120.946 189.967 395.189
1382 0 63.3942 12.7772 810 121.026 189.649 396.736
1383 0 62.2022 13.5204 841 122.397 189.226 395.042
1384 0 65.1698 14.1323 921 120.471 189.339 392.805
1385 0 68.2954 14.5544 994 119.329 188.929 392.712
1386 0 69.2456 13.676 947 120.339 189.487 392.937
1387 0 70.3396 13.3637 940 121.393 189.607 392.847
1388 0 74.2919 14.5103 1078 117.671 190.035 388.805
1389 0 77.4602 14.1492 1096 118.015 189.936 387.95
1390 0 80.4555 14.4179 1160 117.052 189.697 386.854
1391 0 79.5562 12.1298 965 123.031 190.156 386.909
1392 0 86.5243 13.7534 1190 117.86 189.703 385.536
1393 0 88.4527 14.6293 1294 119.733 189.617 381.488
1394 0 90.3185 14.4046 1301 122.413 188.988 380.274
1395 0 92.1821 14.211 1310 116.682 189.705 379.555
1396 0 95.4959 12.8801 1230 119.091 189.794 378.455
1397 0 98.2034 12.525 1230 120.257 189.786 377.258
1398 0 103.32 13.705 1416 118.097 189.703 372.949
1399 0 105.219 12.8019 1347 119.782 190.043 373.132
1400 0 111.165 13.9163 1547 116.405 190.054 370.915
1401 1 65.1374 13.6634 890 112.31 189.678 394.513
1402 0 65.131 13.7722 897 113.517 189.517 392.39
1403 0 68.2614 13.8145 943 119.09 189.445 389.95
1404 0 68.2301 14.3632 980 117.876 189.457 390.5
1405 0 69.3001 13.5786 941 120.268 189.146 388.542
1406 0 73.1864 14.4016 1054 118.074 188.585 387.031
1407 0 75.4123 14.6395 1104 117.784 188.274 387.447
1408 0 77.2592 14.7426 1139 117.993 188.621 386.578
1409 0 80.1277 14.0027 1122 119.944 188.576 385.041
1410 0 81.1891 13.8689 1126 121.049 188.509 383.75
1411 0 84.1818 13.946 1174 119.921 188.501 384.952
1412 0 87.2209 14.7786 1289 119.636 188.51 378.224
1413 0 91.2016 15.1313 1380 117.34 188.439 379.639
1414 0 94.2259 14.6032 1376 119.197 188.571 376.837
1415 0 97.1346 14.5365 1412 119.648 188.804 374.091
1416 0 99.337 13.6606 1357 121.833 188.526 374.624
1417 0 102.225 13.5583 1386 122.097 189.023 372.129
1418 1 48.0587 10.508 505 117.307 188.657 397.812
1419 0 50.0703 12.083 605 106.251 188.345 399.245
1420 0 51.04 11.7751 601 116.349 187.762 396.614
1421 0 56.1416 12.2725 689 114.356 187.943 397.103
1422 0 56.1166 12.0107 674 116.831 187.666 395.004
1423 0 59.1226 14.1063 834 111.162 188.107 393.972
1424 0 60.0551 13.0713 785 113.376 187.712 393.321
1425 0 61.1536 13.2944 813 114.41 188.263 390.743
1426 0 62.1845 12.1574 756 116.628 189.124 391.574
1427 0 66.1854 13.5075 894 112.727 189.577 391.317
1428 0 64.165 11.7665 755 119.997 189.421 389.436
1429 0 68.082 13.8656 944 113.593 189.001 390.088
1430 0 67.2625 12.7114 855 118.677 188.763 388.368
1431 0 69.1705 12.3029 851 120.317 188.948 385.444
1432 0 73.127 14.003 1024 115.617 188.936 384.724
1433 0 76.2899 14.1041 1076 115.518 188.774 383.592
1434 0 77.2411 14.0858 1088 117.631 188.665 381.512
1435 0 79.165 14.3371 1135 118.116 189.347 381.577
1436 0 81.2921 15.1429 1231 117.149 189.096 378.829
1437 0 83.3608 13.6155 1135 121.761 188.92 380.042
1438 0 85.228 14.5023 1236 120.903 188.552 377.538
1439 0 88.4175 14.3863 1272 121.627 189.921 377.067
1440 0 90.3244 13.0862 1182 123.91 189.697 375.723
1441 0 93.2948 14.3845 1342 121.463 189.63 375.034
1442 0 94.4219 13.8209 1305 123.506 189.395 372.992
1443 0 98.4458 14.2921 1407 123.525 189.579 372.828
1444 0 103.44 15.3809 1591 122.028 189.44 369.757
1445 0 107.384 15.1419 1626 123.555 189.664 368.349
1446 0 109.303 13.7141 1499 125.121 189.419 367.454
1447 1 57.1533 13.1051 749 115.438 189.602 392.766
1448 0 60.2117 14.4656 871 115.881 189.459 391.628
1449 0 60.1712 13.1292 790 116.828 189.486 391.713
1450 0 59.2103 12.5654 744 120.508 189.324 389.942
1451 0 63.0948 12.505 789 120.645 189.364 390.991
1452 0 65.142 13.0638 851 124.033 189.458 391.851
1453 0 66.1433 11.9891 793 127.696 189.44 389.344
1454 0 70.1951 13.0494 916 123.667 189.285 387.668
1455 0 75.1191 14.7366 1107 118.201 189.911 386.823
1456 0 75.1508 13.7058 1030 121.521 189.645 385.066
1457 0 77.1869 13.0722 1009 123.418 189.386 384.609
1458 0 78.1848 12.9821 1015 124.378 190.133 384.029
1459 0 80.2145 12.7159 1020 124.503 189.783 382.636
1460 0 83.2259 13.2651 1104 123.695 190.181 380.07
1461 0 86.168 13.8218 1191 121.404 190.435 379.505
1462 0 90.1814 13.0958 1181 122.611 190.401 377.057
1463 0 93.1725 15.0259 1400 115.251 190.426 378.994
1464 0 98.2807 14.1635 1392 117.244 189.549 376.169
1465 0 101.342 14.6336 1483 116.088 189.726 374.647
1466 0 104.255 12.8148 1336 119.098 188.933 372.714
1467 1 51.1366 11.8897 608 111.357 188.831 399.539
1468 0 52.1116 12.9146 673 109.318 188.52 397.158
1469 0 52.105 12.0334 627 110.866 188.352 397.9
1470 0 54.1764 13.5299 733 110.091 189.873 399.613
1471 0 52.1365 10.2615 535 118.897 189.589 398.213
1472 0 56.1452 12.2361 687 114.801 189.325 396.662
1473 0 57.1481 12.7213 727 112.451 189.023 398.305
1474 0 59.0849 12.2535 724 113.097 189.316 396.997
1475 0 59.1846 11.7767 697 115.341 189.251 393.1
1476 0 65.1431 14.2609 929 107.938 189.318 392.066
1477 0 65.2378 13.2132 862 110.448 188.9 393.57
1478 0 66.1931 12.6146 835 110.897 188.878 394.485
1479 0 67.1705 12.4906 839 112.706 189.685 391.443
1480 0 71.189 12.8672 916 111.194 189.533 390.719
1481 0 74.2998 13.4859 1002 108.18 189.999 389.874
1482 0 74.2144 12.9759 963 111.827 189.39 386.355
1483 0 79.3229 13.9808 1109 108 189.685 385.366
1484 0 80.2782 12.4069 996 110.463 189.533 384.448
1485 0 81.1979 11.6382 945 113.205 189.357 383.559
1486 1 47.1869 11.2743 532 113.06 188.556 400.861
1487 0 49.0838 12.6722 622 113.622 188.241 399.246
1488 0 49.2641 11.6515 574 116.425 188.803 400.038
1489 0 52.292 12.7744 668 113.904 188.891 397.768
1490 0 53.2117 12.1026 644 115.464 189.13 398.781
1491 0 55.2373 13.3243 736 112.302 189.409 397.106
1492 0 57.2221 11.866 679 115.007 189.302 397.968
1493 0 59.268 12.8062 759 114.788 189.149 396.891
1494 0 61.204 13.2508 811 115.994 189.401 393.597
1495 0 61.1299 12.4653 762 118.365 188.53 394.272
1496 0 65.0536 13.9577 908 114.445 187.401 391.736
1497 0 66.0703 13.9246 920 115.921 188.026 391.984
1498 0 67.1207 12.6637 850 119.904 188.086 391.041
1499 0 68.0699 11.3707 774 123.413 188.279 391.388
1500 0 74.1011 13.5491 1004 116.556 188.374 390.041
1501 0 75.1415 13.8139 1038 114.863 188.094 389.818
1502 0 78.079 12.8972 1007 117.815 187.934 388.386
1503 0 81.135 13.8535 1124 114.514 188.788 386.375
1504 0 84.1208 12.6841 1067 109.189 189.294 385.904
1505 0 85.1821 14.0288 1195 108.634 188.264 383.303
1506 1 45.0361 11.6351 524 114.303 188.571 404.017
1507 0 45.0301 11.1481 502 117.462 188.667 403.307
1508 0 46.0168 12.3433 568 115.66 187.887 403.423
1509 0 44.0752 12.524 552 117.639 187.915 402.065
1510 0 49.057 13.4537 660 113.3 187.335 402.527
1511 0 51.0509 12.8107 654 113.275 187.505 402.723
1512 0 50.0535 12.9661 649 114.3 187.481 402.046
1513 0 52.1557 12.0217 627 114.475 187.335 401.394
1514 0 54.0496 13.8761 750 108.449 187.171 400.601
1515 0 55.155 13.6887 755 109.979 187.744 399.266
1516 0 55.0876 14.5223 800 108.462 187.46 396.646
1517 0 59.09 13.6571 807 108.45 187.486 398.69
1518 0 60.0556 14.0703 845 109.076 187.245 396.68
1519 0 62.1213 14.8258 921 107.883 187.114 396.936
1520 0 64.0914 14.9474 958 109.01 187.381 395.315
1521 0 65.0596 14.2485 927 112.129 187.988 393.545
1522 0 67.1156 14.6613 984 112.106 187.361 394.532
1523 0 68.1178 13.7115 934 116.899 187.781 393.665
1524 0 71.0753 15.4625 1099 113.114 187.725 393.429
1525 0 71.0832 15.4045 1095 115.8 187.547 391.475
1526 0 72.0441 13.6444 983 122.189 187.886 392.337
1527 0 74.1594 13.916 1032 123.16 187.977 390.519
1528 0 77.2947 15.3051 1183 120.999 187.601 388.236
1529 0 80.055 13.9654 1118 125.682 188.01 388.92
1530 0 81.1384 14.7772 1199 125.564 187.677 387.752
1531 0 84.1944 15.1554 1276 126.225 187.534 386.702
1532 0 85.102 14.418 1227 130.029 187.354 386.76
1533 0 86.1612 13.7417 1184 136.542 188.205 385.755
1534 0 88.2413 13.9164 1228 138.193 188.866 385.075
1535 0 91.1932 14.8586 1355 137.549 188.457 382.833
1536 0 93.4723 14.3465 1341 139.78 188.498 381.067
1537 1 51.1149 12.8534 657 141.26 188.263 401.548
1538 0 52.1308 13.8498 722 142.449 188.561 400.375
1539 0 56.1069 15.0071 842 137.608 188.405 400.792
1540 0 54.0702 14.7401 797 138.483 189.361 402.519
1541 0 54.1307 13.375 724 144.204 189.171 402.233
1542 0 57.1078 14.7615 843 138.711 189.211 401.165
1543 0 59.0802 14.7427 871 138.527 189.682 400.786
1544 0 60.1139 13.8071 830 141.164 189.157 399.946
1545 0 61.107 13.6809 836 142.732 189.061 398.843
1546 0 66.0341 14.7045 971 137.222 188.435 397.995
1547 0 67.1334 14.7021 987 136.761 188.636 396.811
1548 0 69.0726 14.4775 1000 137.03 187.684 394.83
1549 0 69.07 14.0582 971 140.387 187.859 393.306
1550 0 73.0542 15.2626 1115 136.561 187.517 391.491
1551 0 75.1644 13.7299 1032 139.794 187.387 390.195
1552 0 77.0886 14.2433 1098 137.651 186.923 389.383
1553 0 80.1372 14.263 1143 136.962 187.302 389.367
1554 0 85.1466 14.4104 1227 134.861 187.152 385.827
1555 0 87.0761 13.7351 1196 134.043 187.166 384.497
1556 0 92.2189 14.7258 1358 130.117 186.406 383.235
1557 1 48.0346 12.491 600 132.702 186.842 403.025
1558 0 47.0305 12.545 590 131.341 186.236 402.468
1559 0 49.0851 12.9775 637 130.711 186.305 403.876
1560 0 49.0364 13.0515 640 131.864 186.283 402.55
1561 0 51.0548 12.5943 643 131.473 186.499 402.984
1562 0 54.0611 13.5957 735 126.102 186.8 402.117
1563 0 55.1579 12.2195 674 127.056 186.479 400.746
1564 0 58.0852 12.7055 738 124.902 186.86 399.839
1565 0 59.0577 13.1736 778 122.892 187.054 399.955
1566 0 63.0736 14.3008 902 119.96 186.982 398.143
1567 0 62.2064 13.9696 869 125.475 187.09 398.176
1568 0 64.1731 15.053 966 122.231 187.361 397.431
1569 0 68.1669 13.775 939 124.588 187.465 395.251
1570 0 70.2143 14.6979 1032 122.99 187.293 392.981
1571 0 73.0742 14.2595 1042 121.607 186.484 392.658
1572 0 74.0786 13.3372 988 125.012 185.858 391.929
1573 0 79.0791 13.7078 1084 123.315 186.267 390.919
1574 0 79.1199 13.9788 1106 123.59 186.229 389.176
1575 0 83.1338 14.6751 1220 121.64 186.82 387.973
1576 0 85.0683 15.1525 1289 121.287 187.39 386.307
1577 1 44.1315 12.0096 530 125.262 186.868 405.362
1578 0 48.2054 15.2265 734 114.906 186.452 405.955
1579 0 47.0941 13.2076 622 120.653 186.611 405.227
1580 0 50.05 14.5854 730 115.525 187.129 404.318
1581 0 53.0567 14.7766 784 114.217 186.508 402.918
1582 0 55.0805 14.1793 781 116.275 187.374 401.809
1583 0 54.0774 13.869 750 118.367 187.353 402.275
1584 0 59.0521 14.1908 838 120.036 187.031 399.971
1585 0 59.0837 14.4879 856 121.493 187.171 397.828
1586 0 62.1224 14.0046 870 121.251 186.866 397.461
1587 0 65.2272 15.4077 1005 117.559 187.157 396.823
1588 0 65.3202 14.6509 957 120.445 186.422 396.716
1589 0 70.1495 15.0108 1053 119.888 186.77 393.838
1590 0 71.1443 14.0841 1002 122.973 186.389 393.446
1591 0 73.0743 13.4521 983 126.563 186.215 391.526
1592 0 76.0482 13.8202 1051 125.82 185.907 391.115
1593 0 80.2737 14.5378 1167 123.997 186.136 389.847
1594 0 84.0863 15.3057 1287 121.682 186.594 388.941
1595 0 85.1375 15.4573 1316 123.063 186.917 385.137
1596 0 88.242 14.5056 1280 127.42 186.284 384.811
1597 1 49.1101 11.7695 578 130.273 186.427 405.934
1598 0 47.1466 13.1505 620 129.213 186.803 404.945
1599 0 48.1951 13.3831 645 129.296 187.029 405.321
1600 0 51.1435 13.5892 695 129.473 186.728 404.773
1601 0 53.1096 13.1991 701 131.535 186.728 404.157
1602 0 55.2883 14.8133 819 126.736 186.759 403.529
1603 0 56.1721 13.8859 780 131.092 186.644 402.619
1604 0 58.4563 13.4117 784 131.617 187.093 403.881
1605 0 61.1863 14.3333 877 130.104 186.918 401.905
1606 0 60.3059 13.2989 802 135.173 187.081 400.632
1607 0 65.2248 15.117 986 128.772 186.842 400.453
1608 0 68.3168 14.301 977 131.795 187.111 400.04
1609 0 69.3553 14.6925 1019 132.915 186.067 398.418
1610 0 70.1798 15.446 1084 130.293 186.706 398.928
1611 0 71.373 14.0249 1001 136.436 186.034 397.953
1612 0 75.2482 13.8608 1043 135.515 186.453 397.585
1613 0 78.2837 14.3963 1127 136.036 186.107 395.978
1614 0 81.3298 14.8408 1207 134.344 186.35 392.824
1615 0 83.1685 13.0218 1083 140.412 186.935 392.21
1616 0 86.2207 14.5789 1257 136.85 186.353 390.247
1617 0 90.2479 15.945 1439 133.462 186.776 386.15
1618 1 46.0931 12.388 571 134.229 186.329 407.335
1619 0 46.129 11.9881 553 135.398 186.579 404.958
1620 0 49.1455 13.1447 646 133.193 187.605 404.98
1621 0 50.0982 12.8348 643 136.941 186.154 402.827
1622 0 51.221 13.7834 706 134.966 186.834 401.949
1623 0 53.1473 13.2086 702 136.494 186.873 402.043
1624 0 56.1331 13.6818 768 134.65 187.284 401.51
1625 0 56.0941 14.1904 796 135.332 187.397 400.492
1626 0 60.1235 14.3039 860 134.113 186.797 399.291
1627 0 62.2557 14.1995 884 134.198 187.311 398.205
1628 0 65.1718 14.3927 938 134.503 186.538 397.972
1629 0 64.1174 13.6312 874 140.737 186.794 396.455
1630 0 68.2702 15.1604 1035 134.218 186.61 396.776
1631 0 69.1091 13.7174 948 141.559 186.262 395.964
1632 0 72.2824 14.1528 1023 140.837 186.037 393.606
1633 0 74.1255 15.3793 1140 138.897 185.607 392.518
1634 0 77.2075 15.2576 1178 139.222 186.268 392.003
1635 0 79.2144 14.972 1186 142.076 186.186 389.165
1636 0 78.2325 14.0734 1101 147.115 185.969 388.827
1637 0 82.1607 13.9239 1144 148.023 186.445 385.983
1638 0 85.3933 15.0363 1284 144.789 186.222 385.727
1639 0 88.1719 15.2656 1346 143.501 186.533 386.41
1640 0 91.1334 14.8793 1356 146.077 186.26 383.04
1641 0 94.1383 15.3498 1445 147.171 186.145 380.791
1642 0 96.133 15.2393 1465 148.396 186.027 380.21
1643 0 99.1642 14.4609 1434 151.343 186.22 376.397
1644 0 103.136 15.2711 1575 147.764 185.98 375.567
1645 0 106.16 15.2788 1622 149.199 185.587 372.055
1646 0 110.214 16.2411 1790 145.301 185.909 371.639
1647 0 114.191 15.9558 1822 145.485 185.434 370.486
1648 0 118.234 15.7062 1857 149.628 185.196 364.995
1649 0 124.096 15.4155 1913 147.996 185.588 362.059
1650 0 129.194 15.0936 1950 148.409 185.758 360.813
1651 0 133.23 16.2877 2170 141.998 185.946 356.217
1652 0 137.136 14.5403 1994 146.705 186.65 353.808
1653 1 76.1888 12.154 926 138.289 187.313 383.945
1654 0 78.0725 12.0145 938 137.232 187 384.736
1655 0 84.2233 12.8943 1086 138.471 185.785 386.239
1656 0 84.1437 12.5737 1058 133.651 186.594 387.565
1657 0 87.1478 13.4714 1174 130.829 186.239 385.996
1658 0 89.2663 13.6334 1217 129.92 186.089 386.349
1659 0 94.2557 12.3282 1162 132.726 185.644 384.24
1660 0 98.2102 13.634 1339 127.725 185.937 383.558
1661 0 100.402 13.5356 1359 126.985 185.457 380.68
1662 0 102.514 12.174 1248 129.369 185.903 378.127
1663 0 107.293 12.3587 1326 126.791 186.057 377.561
1664 0 113.389 12.9731 1471 124.271 186.289 373.544
1665 1 63.1888 12.0433 761 123.706 185.694 399.936
1666 0 63.2007 12.1201 766 124.551 186.02 395.555
1667 0 68.0713 12.5016 851 129.159 185.313 395.338
1668 0 71.1634 12.6469 900 128.437 185.309 395.61
1669 0 73.1834 13.5687 993 126.265 185.675 392.642
1670 0 75.1568 12.76 959 128.798 185.235 391.478
1671 0 77.1774 12.2316 944 129.833 184.552 391.325
1672 0 79.1294 13.0419 1032 128.234 184.236 387.964
1673 0 81.0778 13.1479 1066 128.578 184.727 387.208
1674 0 84.1734 13.3059 1120 126.59 186.678 389.073
1675 0 87.2055 13.4625 1174 127.379 186.556 384.1
1676 0 90.1964 13.5482 1222 126.478 186.902 383.993
1677 0 91.3563 13.5513 1238 126.345 186.769 383.577
1678 0 95.3519 12.585 1200 127.864 186.919 381.45
1679 1 49.3164 10.5847 522 125.243 187.042 405.684
1680 0 50.2939 10.9755 552 116.406 186.438 404.54
1681 0 51.3057 12.1624 624 113.554 186.256 404.853
1682 0 53.1625 12.2455 651 110.558 185.931 401.115
1683 0 54.1218 12.4719 675 110.501 186.578 400.35
1684 0 54.1579 11.4849 622 114.296 185.801 401.154
1685 0 57.1267 12.306 703 110.89 186.235 400.461
1686 0 58.1493 13.0354 758 107.951 185.93 402.051
1687 0 61.2961 13.5408 830 107.412 185.337 399.067
1688 0 63.2777 12.9113 817 107.576 185.521 398.873
1689 0 65.3188 12.9672 847 108.344 185.829 396.476
1690 0 64.2788 12.9747 834 109.4 185.56 396.084
1691 0 68.1513 13.9689 952 106.512 185.489 395.243
1692 0 71.223 11.9624 852 111.971 186.005 393.869
1693 0 73.1793 13.1048 959 109.325 185.795 392.947
1694 0 74.2303 12.4612 925 111.736 185.304 391.385
1695 0 76.1728 13.4169 1022 110.524 185.583 388.723
1696 0 78.1543 12.6928 992 113.051 185.999 388.737
1697 0 83.2799 13.7968 1149 109.21 186.125 387.121
1698 0 86.2829 13.7802 1189 108.823 185.566 388.988
1699 0 87.1634 13.2969 1159 110.132 186.54 387.717
1700 0 90.2559 11.7444 1060 112.975 185.752 387.914
1701 0 94.343 12.7937 1207 111.831 185.828 384.092
1702 0 97.4954 12.7083 1239 111.284 186.202 382.151
1703 0 99.2773 12.6011 1251 112.125 186.106 383.333
1704 1 52.0995 11.3245 590 110.168 185.492 403.864
1705 0 55.1536 12.3836 683 111.773 186.271 400.884
1706 0 56.1096 14.7568 828 100.246 186.512 399.981
1707 0 57.1412 11.9879 685 106.511 186.618 400.362
1708 0 59.2059 12.7521 755 105.902 186.094 399.577
1709 0 60.2001 12.6744 763 105.997 186.671 398.294
1710 0 62.1779 12.7859 795 105.789 185.919 399.106
1711 0 64.1151 13.4134 860 104.281 185.734 397.133
1712 0 66.3065 13.0455 865 105.52 185.712 395.487
1713 0 68.2253 14.071 960 103.056 186.116 395.4
1714 0 71.1774 13.7965 982 103.278 186.3 392.721
1715 0 73.2232 13.5203 990 103.87 185.891 392.157
1716 0 73.118 12.2678 897 108.002 185.748 391.007
1717 0 78.1354 12.9263 1010 105.942 185.85 392.026
1718 0 80.3068 14.2205 1142 102.946 185.669 391.214
1719 0 82.342 13.7111 1129 106.36 185.823 388.798
1720 0 86.2873 14.1041 1217 105.215 185.979 387.415
1721 1 47.0635 11.3251 533 108.535 185.18 403.953
1722 0 51.1101 12.385 633 109.976 185.621 403.528
1723 0 51.1292 13.0063 665 102.451 187.811 396.866
1724 0 52.1077 12.5317 653 105.306 186.165 397.121
1725 0 53.0835 12.7347 676 105.809 186.157 397.244
1726 0 55.1096 11.704 645 108.344 186.245 396.315
1727 0 56.0502 13.1846 739 108.116 186.387 394.414
1728 0 58.0474 13.1272 762 108.95 186.597 392.218
1729 0 61.226 12.0864 740 111.335 186.459 392.128
1730 0 62.1812 13.3642 831 109.805 186.676 391.504
1731 0 62.106 12.527 778 113.746 186.653 390.04
1732 0 65.0525 12.513 814 115.303 186.059 388.184
1733 0 67.0989 13.6813 918 113.292 186.347 388.57
1734 0 71.1906 12.7966 911 114.835 186.302 389.221
1735 0 71.2081 13.285 946 117.525 185.939 386.228
1736 0 73.0784 12.9724 948 120.427 185.915 384.633
1737 0 77.16 13.7636 1062 118.028 186.11 383.915
1738 0 79.23 13.9341 1104 118.406 186.548 382.934
1739 0 83.1863 15.4112 1282 121.645 185.69 387.958
1740 0 87.3807 14.5799 1274 123.705 185.706 387.432
1741 0 89.2196 14.4027 1285 126.247 186.359 384.305
1742 0 92.3603 14.8332 1370 125.83 185.771 382.959
1743 0 95.2401 15.4662 1473 118.014 186.295 386.635
1744 0 97.128 13.508 1312 124.282 186.539 381.521
1745 1 54.0868 13.1271 710 124.527 185.865 401.711
1746 0 55.065 14.3285 789 123.222 186.132 401.161
1747 0 57.0764 14.209 811 125.189 186.105 399.858
1748 0 59.193 14.6301 866 123.591 185.605 398.482
1749 0 60.1841 13.9073 837 125.869 185.423 398.401
1750 0 64.0657 14.5944 935 123.159 186.08 397.435
1751 0 64.2588 13.6479 877 127.782 185.309 395.696
1752 0 64.0938 13.9171 892 127.904 185.732 393.257
1753 0 69.1446 13.8695 959 126.834 185.501 394.661
1754 0 70.2405 14.8347 1042 125.267 185.584 390.865
1755 0 70.2456 13.5525 952 130.085 186.269 391.881
1756 0 75.1221 14.4032 1082 126.325 185.712 391.446
1757 0 76.3231 14.2159 1085 128.152 186.267 389.685
1758 0 79.2738 14.8851 1180 127.571 186.147 387.621
1759 0 83.1751 14.5596 1211 129.259 185.727 385.541
1760 0 85.3329 13.9688 1192 131.496 185.827 385.8
1761 0 87.3465 13.5781 1186 133.407 185.783 383.968
1762 0 92.218 14.9212 1376 128.195 185.831 383.593
1763 0 94.2913 13.4265 1266 132.033 186.033 382.537
1764 0 98.2672 14.5115 1426 130.499 186.433 376.974
1765 1 52.1765 10.982 573 133.366 186.115 401.86
1766 0 52.2255 11.5269 602 126.944 185.714 402.168
1767 0 55.137 14.3098 789 118.736 185.891 399.08
1768 0 57.0888 13.1374 750 121.928 185.877 399.711
1769 0 58.2045 12.542 730 132.274 185.749 397.604
1770 0 61.1829 13.6149 833 128.397 185.953 396.846
1771 0 65.1816 14.1451 922 125.866 185.704 396.077
1772 0 65.1594 13.2291 862 129.929 186.405 395.295
1773 0 69.1666 13.7639 952 126.954 185.996 395.005
1774 0 71.2235 14.1807 1010 127.067 185.735 392.69
1775 0 73.1556 13.3551 977 130.689 185.774 390.689
1776 0 76.1418 14.3679 1094 126.556 186.356 390.664
1777 0 79.2321 14.9687 1186 124.938 185.564 389.446
1778 0 80.0987 14.4447 1157 127.162 185.584 388.234
1779 0 81.2537 13.4271 1091 130.136 185.972 388.961
1780 0 87.1947 14.5422 1268 126.519 186.333 386.34
1781 0 88.199 12.6532 1116 132.371 185.945 384.016
1782 1 48.2168 10.4113 502 123.161 185.484 404.317
1783 0 50.1867 12.4934 627 115.429 186.415 404.169
1784 0 48.1516 10.28 495 124.089 185.59 403.612
1785 0 50.152 11.6446 584 120.836 185.866 403.113
1786 0 53.1396 12.4577 662 119.387 185.695 400.73
1787 0 54.1391 12.2647 664 119.042 185.935 402.405
1788 0 55.2135 12.7867 706 120.013 185.878 400.554
1789 0 57.2857 12.6908 727 118.365 185.798 399.84
1790 0 59.1319 13.0048 769 116.837 186.189 399.398
1791 0 61.147 12.887 788 118.199 186.207 397.544
1792 0 63.0977 13.3444 842 117.983 185.052 395.685
1793 0 64.1282 13.0832 839 118.759 185.284 396.083
1794 0 67.1093 12.502 839 120.107 185.133 394.222
1795 0 70.157 14.0114 983 114.917 185.008 396.213
1796 0 72.211 12.4496 899 120.131 185.542 392.019
1797 0 74.1081 12.9001 956 119.621 185.668 390.987
1798 0 76.1004 12.3127 937 121.44 186.112 388.3
1799 0 79.1822 12.5154 991 120.665 186.053 388.861
1800 0 80.3077 12.8257 1030 120.424 186.27 387.665
1801 1 46.3122 10.4076 482 122.191 185.73 404.782
1802 0 46.2881 10.3482 479 150.595 186.733 404.835
1803 0 48.1475 11.3817 548 123.646 185.214 404.179
1804 0 50.2297 11.965 601 118.19 185.594 403.394
1805 0 52.1491 12.6752 661 115.941 185.694 402
1806 0 54.1903 13.0097 705 114.953 185.484 400.479
1807 0 55.0824 11.746 647 117.677 185.7 400.006
1808 0 58.1944 13.4549 783 113.701 186.194 397.852
1809 0 58.1921 13.4039 780 123.36 186.254 396.672
1810 0 61.2013 13.333 816 121.936 186.025 396.923
1811 0 62.2406 12.5159 779 124.765 186.085 395.626
1812 0 65.2696 14.2026 927 119.66 185.825 396.388
1813 0 67.2109 12.1409 816 123.434 185.68 395.12
1814 0 68.2186 11.8883 811 124.207 185.769 393.488
1815 0 68.2629 12.862 878 123.311 186.121 390.122
1816 0 72.1903 12.7441 920 121.268 185.78 391.043
1817 0 76.1708 12.5507 956 120.781 185.997 390.483
1818 0 77.375 12.4588 964 122.433 186.661 385.291
1819 1 43.1907 10.5115 454 118.623 184.797 406.209
1820 0 43.067 11.0293 475 119.64 184.838 405.444
1821 0 43.132 12.7979 552 117.766 184.866 403.333
1822 0 46.0907 13.3867 617 107.538 185.394 405.815
1823 0 47.1396 12.3039 580 111.017 185.397 405.455
1824 0 48.1965 11.8473 571 112.266 185.392 405.405
1825 0 48.1965 11.7851 568 145.736 185.424 405.338
1826 0 48.1886 11.7663 567 145.326 185.43 405.369
1827 0 52.1046 11.7264 611 116.298 186.54 402.663
1828 0 52.2111 12.8517 671 114.508 186.401 401.884
1829 0 54.2211 12.0617 654 116.748 186.468 401.554
1830 0 56.1375 12.3091 691 115.945 186.185 401.836
1831 0 58.0937 11.1372 647 118.66 186.019 402.088
1832 0 58.2162 12.7456 742 117.373 185.485 399.132
1833 0 60.1495 11.8372 712 120.558 185.958 397.848
1834 0 60.1082 11.9119 716 121.337 185.707 396.756
1835 0 63.0876 13.7586 868 116.611 185.369 397.045
1836 0 64.2 12.6168 810 119.809 185.558 396.27
1837 0 65.109 11.5191 750 122.533 185.281 396.351
1838 0 68.23 13.3079 908 118.999 185.472 394.856
1839 0 70.2413 13.055 917 118.293 185.591 395.149
1840 0 73.114 12.4053 907 120.248 185.381 393.208
1841 0 77.2608 13.0597 1009 117.433 185.991 391.491
1842 0 77.2751 12.9925 1004 143.406 186.96 391.421
1843 0 81.1211 13.4737 1093 117.663 185.953 388.202
1844 0 84.2123 12.4922 1052 119.933 185.38 385.38
1845 0 87.1727 12.6416 1102 118.905 185.613 384.654
1846 0 90.1923 12.5953 1136 125.988 186.107 381.328
1847 1 47.1952 11.5266 544 115.147 185.191 405.403
1848 0 47.1381 10.3101 486 118.619 185.181 403.895
1849 0 49.238 13.0184 641 112.323 185.161 403.264
1850 0 52.2685 13.2585 693 113.887 185.561 403.117
1851 0 51.192 11.7792 603 115.362 185.191 401.774
1852 0 52.1612 12.4614 650 115.8 185.025 399.191
1853 0 53.3362 12.4681 665 114.811 185.262 400.648
1854 0 56.1431 12.4147 697 115.174 185.263 399.439
1855 0 58.1156 13.4387 781 112.164 185.56 398.862
1856 0 58.1358 12.0064 698 115.897 185.388 398.461
1857 0 61.2295 12.543 768 115.484 184.878 396.007
1858 0 64.2919 12.3499 794 114.491 184.798 396.378
1859 0 65.1896 12.456 812 114.57 184.828 393.394
1860 0 65.1563 12.3089 802 114.788 185.279 393.504
1861 0 67.1453 11.9443 802 114.925 185.372 391.833
1862 0 71.2224 13.3385 950 111.584 185.18 391.131
1863 0 73.2011 12.7047 930 112.416 185.616 391.184
1864 0 76.1501 13.736 1046 110.699 185.356 388.487
1865 0 79.1757 13.2111 1046 110.443 185.358 389.329
1866 0 80.1659 11.9627 959 113.324 185.574 388.016
1867 0 84.089 12.7722 1074 111.892 185.825 385.49
1868 0 86.228 12.3742 1067 113.064 186.174 384.745
1869 0 90.1601 12.0341 1085 112.564 186.078 384.594
1870 0 92.1562 11.5456 1064 114.133 185.72 381.809
1871 0 97.0553 13.6417 1324 109.782 185.768 378.451
1872 1 53.0951 11.8843 631 110.032 184.653 400.596
1873 0 52.0962 10.423 543 114.234 185.357 400.615
1874 0 55.0961 12.0698 665 109.433 185.432 397.753
1875 0 56.1858 11.9959 674 107.893 185.134 399.356
1876 0 59.1223 12.8378 759 105.515 185.108 399.713
1877 0 60.1786 12.6789 763 106.685 185.076 396.085
1878 0 62.0942 12.8997 801 105.277 184.963 396.732
1879 0 64.2014 13.3019 854 104.744 185.568 397.226
1880 0 66.2632 12.8276 850 106.088 184.702 395.789
1881 0 67.1605 12.4031 833 107.15 184.779 394.143
1882 0 70.098 12.3256 864 107.127 185.227 391.407
1883 0 72.1354 12.4488 898 107.04 185.101 391.508
1884 0 77.1211 12.4739 962 105.418 184.784 390.607
1885 0 80.1177 13.0433 1045 105.381 185.122 387.134
1886 0 81.2045 13.2628 1077 105.535 184.812 384.42
1887 1 45.0341 11.347 511 108.638 183.847 405.427
1888 0 46.0137 11.7574 541 111.318 183.799 404.763
1889 0 47.1941 12.0354 568 114.319 186.275 402.632
1890 0 50.204 12.9472 650 110.737 186.205 402.348
1891 0 50.168 12.7372 639 112.887 186.092 400.961
1892 0 50.2182 11.2708 566 116.753 186.346 401.007
1893 0 53.2406 12.4341 662 112.248 186.109 401.323
1894 0 55.2587 13.5363 748 111.701 186.314 397.683
1895 0 57.2334 12.4228 711 113.243 186.082 398.931
1896 0 58.1791 13.2006 768 112.203 186.382 398.246
1897 0 61.1966 12.9746 794 112.463 186.291 396.879
1898 0 61.2352 12.9991 796 114.151 186.545 396.111
1899 0 62.1594 13.7067 852 113.45 186.844 396.108
1900 0 65.1854 14.5892 951 111.448 186.612 394.855
1901 0 66.2251 14.7678 978 110.901 186.333 395.169
1902 0 64.3329 13.6478 878 116.285 186.685 393.812
1903 0 69.2909 13.9989 970 114.71 186.868 392.147
1904 0 72.3198 13.8828 1004 113.99 187.115 392.266
1905 0 75.1993 14.3086 1076 113.031 187.252 390.713
1906 0 75.3281 13.7133 1033 116.167 186.904 388.147
1907 0 79.3497 14.6818 1165 112.874 186.896 389.105
1908 0 81.2215 15.8209 1285 110.272 186.954 387.121
1909 0 83.3356 14.2196 1185 113.871 187.357 385.295
1910 0 88.2309 15.1081 1333 110.683 187.034 384.608
1911 1 48.0827 12.2705 590 115.82 187.788 403.441
1912 0 47.0744 10.8552 511 121.438 188.059 403.133
1913 0 49.3077 13.0406 643 117.387 186.216 402.266
1914 0 53.2532 13.2762 707 116.198 185.458 402.157
1915 0 52.2837 13.5415 708 117.134 185.247 402.15
1916 0 51.2875 12.3617 634 122.524 185.547 401.424
1917 0 56.2678 13.027 733 118.407 185.154 401.064
1918 0 56.2022 13.06 734 120.29 185.3 399.245
1919 0 57.2148 12.9162 739 121.97 184.896 398.771
1920 0 61.172 13.8299 846 118.803 185.106 396.872
1921 0 61.1731 13.6334 834 121.085 185.582 397.073
1922 0 63.1752 13.8345 874 120.603 185.328 395.12
1923 0 64.2013 13.6446 876 121.704 185.082 395.017
1924 0 67.2195 14.4898 974 116.559 185.363 394.315
1925 0 68.2864 14.3367 979 119.586 185.783 391.845
1926 0 70.1718 13.6807 960 119.371 184.998 391.219
1927 0 71.2216 13.3106 948 119.48 185.009 391.416
1928 0 73.1744 14.24 1042 117.604 185.047 387.256
1929 0 75.2415 14.1943 1068 116.237 185.317 390.237
1930 0 77.2016 13.7173 1059 118.041 185.572 388.704
1931 0 80.1032 14.4813 1160 116.972 185.35 386.994
1932 0 82.1538 14.1442 1162 120.067 185.333 385.91
1933 0 83.0789 12.6627 1052 124.412 185.329 384.956
1934 0 88.0768 14.09 1241 120.293 185.255 382.715
1935 0 91.0939 14.9077 1358 117.431 185.522 380.693
1936 1 53.0326 11.6909 620 126.621 184.776 401.344
1937 0 55.1386 12.2056 673 121.666 186.908 399.107
1938 0 55.1337 13.0773 721 120.06 187.298 396.821
1939 0 58.1864 13.663 795 123.454 186.294 396.728
1940 0 59.1755 12.8938 763 125.873 186.068 398.235
1941 0 61.122 14.1357 864 123.85 186.234 396.138
1942 0 64.1597 14.76 947 121.19 186.529 394.684
1943 0 63.1961 14.6053 923 125.684 185.918 392.514
1944 0 66.1149 14.5958 965 124.577 186.794 392.315
1945 0 67.1083 12.7555 856 123.02 187.437 393.629
1946 0 70.1942 14.5169 1019 119.887 186.962 392.668
1947 0 72.0683 14.0284 1011 123.131 187.528 391.081
1948 0 73.0925 13.1067 958 128.556 187.099 389.388
1949 0 78.0802 14.1649 1106 123.568 187.477 389.196
1950 0 80.0912 13.7468 1101 126.377 187.262 387.505
1951 0 85.1022 14.2652 1214 123.903 187.391 386.538
1952 0 87.0909 14.4676 1260 124.555 187.706 385.047
1953 0 89.1297 13.3625 1191 128.348 187.571 381.707
1954 0 93.17 14.2965 1332 127.513 187.197 379.333
1955 0 95.1622 13.3877 1274 130.005 187.059 378.174
1956 0 99.1079 14.0049 1388 124.998 187.145 378.213
1957 0 105.173 15.3176 1611 121.929 187.495 376.534
1958 1 54.1536 12.0029 650 122.372 185.52 401.992
1959 0 54.1934 13.5625 735 117.833 185.494 401.556
1960 0 54.2089 12.5994 683 120.734 185.388 400.287
1961 0 58.1639 12.6883 738 128.031 185.267 397.225
1962 0 59.191 13.9717 827 125.533 185.885 394.855
1963 0 61.3674 13.3784 821 126.309 185.448 396.492
1964 0 64.1483 14.6224 938 122.219 185.198 394.677
1965 0 66.2216 14.5572 964 121.14 185.395 395.239
1966 0 68.1392 14.5731 993 121.548 185.313 393.498
1967 0 71.1732 12.9543 922 125.131 185.409 392.492
1968 0 74.1564 14.9009 1105 119.584 185.583 391.223
1969 0 74.1688 14.3457 1064 123.25 185.658 388.682
1970 0 75.1932 13.4853 1014 124.615 185.084 386.653
1971 0 80.1291 15.2379 1221 115.446 185.509 386.712
1972 0 80.1936 14.677 1177 116.972 185.809 387.209
1973 0 82.1281 13.3694 1098 120.296 185.672 384.942
1974 0 86.1461 13.7209 1182 116.886 186.968 386.369
1975 0 89.3319 14.6196 1306 114.77 186.387 384.064
1976 0 91.3572 14.0657 1285 117.534 186.352 380.104
1977 0 96.555 14.3338 1384 115.972 186.483 379.075
1978 0 99.3448 14.3037 1421 116.536 186.098 376.607
1979 0 103.529 13.5324 1401 119.04 185.724 374.208
1980 1 57.1757 12.7677 730 117.87 186.038 395.299
1981 0 60.2935 12.8372 774 117.407 186.26 391.911
1982 0 59.1629 12.3895 733 117.322 184.117 396.548
1983 0 61.1222 13.1376 803 109.842 184.838 398.227
1984 0 64.1659 14.4002 924 106.027 185.658 395.976
1985 0 67.1214 13.3042 893 108.602 185.148 394.316
1986 0 68.0922 12.4684 849 110.562 185.134 393.612
1987 0 72.0836 14.2335 1026 105.164 184.525 394.208
1988 0 73.2402 13.9404 1021 106.369 185.456 392.905
1989 0 78.101 13.1624 1028 108.565 185.167 390.802
1990 0 79.1247 14.5087 1148 106.334 185.122 388.908
1991 0 82.1745 12.7655 1049 110.291 185.731 388.411
1992 0 82.1505 13.1953 1084 111.324 186.288 386.838
1993 0 86.1779 13.8435 1193 108.037 186.282 387.56
1994 0 87.135 13.0143 1134 112.141 185.987 384.941
1995 0 91.1497 13.3955 1221 110.661 186.269 383.943
1996 0 95.2069 14.1271 1345 110.071 186.41 379.852
1997 0 99.2116 15.6837 1556 105.319 186.184 381.156
1998 1 55.0455 13.1891 726 109.364 185.095 399.106
1999 0 55.0862 11.9631 659 113.513 185.217 400.426
2000 0 57.0481 13.9356 795 110.946 185.594 398.192
2001 0 58.1887 12.5798 732 116.956 185.288 397.398
2002 0 57.1416 12.5828 719 118.576 185.113 397.364
2003 0 61.2937 13.0845 802 115.006 185.012 398.693
2004 0 62.1935 13.3454 830 116.377 185.4 396.19
2005 0 65.1802 14.8511 968 112.68 185.709 394.052
2006 0 67.2213 14.549 978 113.375 186.02 392.138
2007 0 69.2791 14.521 1006 114.277 185.032 392.644
2008 0 71.1714 14.9639 1065 112.991 186.154 391.696
2009 0 73.3368 13.6357 1000 116.145 186.184 392.487
2010 0 75.3419 12.9808 978 118.548 186.117 391.447
2011 0 78.2131 13.6934 1071 117.391 186.346 387.631
2012 0 80.3244 13.6198 1094 112.823 185.563 389.175
2013 0 81.228 12.8158 1041 115.159 185.584 386.38
2014 0 86.2685 14.6056 1260 110.737 185.744 385.616
2015 1 45.1386 10.9884 496 108.968 186.359 405.409
2016 0 49.1778 12.831 631 105.773 186.382 401.09
2017 0 48.1714 13.2028 636 108.983 185.874 404.058
2018 0 48.0586 12.8801 619 111.131 186.097 403.911
2019 0 49.1599 12.6119 620 111.316 186.123 404.171
2020 0 51.3293 12.0789 620 113.277 185.66 402.155
2021 0 51.0958 12.6821 648 114.105 185.833 400.495
2022 0 54.0926 14.5491 787 109.863 185.17 399.665
2023 0 57.1519 12.2131 698 113.295 185.176 400.345
2024 0 58.1676 13.0313 758 112.154 185.377 399.588
2025 0 60.2127 12.7548 768 112.195 184.826 399.462
2026 0 60.0701 13.967 839 111.737 185.391 396.639
2027 0 61.0688 12.1339 741 115.997 185.522 397.301
2028 0 62.1219 12.2984 764 116.183 185.318 396.895
2029 0 66.0731 14.6807 970 111.056 185.473 393.143
2030 0 68.184 12.8036 873 115.66 185.369 392.986
2031 0 69.0892 13.678 945 114.667 184.938 394.278
2032 0 73.1512 13.643 998 115.019 185.413 391.386
2033 0 77.0919 13.4255 1035 113.954 185.338 392.013
2034 0 76.1647 12.4861 951 118.913 184.912 389.335
2035 0 81.1973 13.5472 1100 115.021 185.265 387.118
2036 0 84.1002 12.4851 1050 117.352 185.513 385.823
2037 1 45.0953 13.2165 596 116.639 185.582 403.384
2038 0 47.1025 12.1013 570 115.998 185.675 404
2039 0 48.1063 13.3454 642 112.798 185.949 403.431
2040 0 48.0979 12.5993 606 116.279 186.507 402.954
2041 0 48.1017 12.0994 582 118.737 186.696 402.38
2042 0 50.2184 11.2708 566 120.26 186.272 403.602
2043 0 52.1319 12.008 626 118.192 186.193 403.064
2044 0 55.1525 13.5805 749 113.579 185.796 402.372
2045 0 55.1389 13.1305 724 116.108 185.45 401.055
2046 0 58.2057 12.3527 719 117.196 185.558 399.858
2047 0 59.1321 13.1401 777 116.781 185.564 398.668
2048 0 62.2618 13.122 817 114.709 185.601 398.106
2049 0 64.1203 12.8664 825 113.368 184.579 395.886
2050 0 67.1264 13.2437 889 112.225 184.244 394.556
2051 0 70.1936 14.2463 1000 109.369 184.793 394.357
2052 0 71.2147 13.0731 931 113.635 184.418 392.523
2053 0 75.285 13.4157 1010 112.507 184.231 391.817
2054 0 75.2166 13.3082 1001 116.104 185.276 390.415
2055 0 79.1553 13.8967 1100 115.179 185.283 387.45
2056 0 80.2046 13.4157 1076 117.935 184.649 385.059
2057 0 85.2298 13.7863 1175 121.424 184.626 386.7
2058 0 89.1414 14.8304 1322 119.364 184.402 383.762
2059 0 92.2038 15.2488 1406 116.91 184.531 383.044
2060 0 94.2855 13.6394 1286 121.152 184.617 382.215
2061 1 54.2827 12.2138 663 117.474 184.449 402.37
2062 0 53.1734 11.2838 600 126.155 185.032 401.548
2063 0 56.137 12.9505 727 119.248 185.1 400.444
2064 0 58.2215 12.7616 743 125.997 185.4 399.369
2065 0 60.1315 13.3208 801 126.985 184.939 397.793
2066 0 62.1452 13.8386 860 125.823 184.945 397.615
2067 0 60.1941 13.2571 798 131.221 185.466 395.66
2068 0 63.1956 14.0674 889 127.983 185.646 394.64
2069 0 66.2729 13.7613 912 127.519 184.745 394.211
2070 0 68.3102 13.5119 923 127.111 184.832 392.815
2071 0 69.2786 12.9333 896 128.122 185.279 392.568
2072 0 73.2225 13.1654 964 126.825 185.283 391.532
2073 0 75.3357 13.6323 1027 124.233 185.757 391.292
2074 0 77.3263 14.0056 1083 122.545 185.761 390.837
2075 0 81.3758 13.8616 1128 122.577 185.809 388.205
2076 0 81.4195 12.7488 1038 125.672 186.016 388.137
2077 0 86.4972 13.8733 1200 121.01 186.123 387.282
2078 0 87.5175 13.6087 1191 124.177 185.626 383.515
2079 0 91.2795 13.486 1231 124.122 185.113 384.355
2080 0 93.2975 13.6017 1269 125.101 185.32 381.759
2081 0 93.2511 13.973 1303 126.322 185.051 381.973
2082 0 97.4954 13.6109 1327 126.86 184.708 380.057
2083 0 97.3832 12.7948 1246 130.447 183.957 378.757
2084 0 102.501 14.8194 1519 124.971 184.151 376.696
2085 0 106.348 13.8601 1474 128.336 184.677 373.463
2086 0 108.585 12.7273 1382 130.936 185.022 375.014
2087 0 111.364 13.3975 1492 129.985 185.105 371.849
2088 0 116.33 13.9602 1624 128.088 184.694 370.924
2089 0 119.388 13.9629 1667 129.281 184.542 364.765
2090 0 118.378 13.0092 1540 132.976 184.513 363.881
2091 0 125.31 14.2287 1783 129.621 184.173 360.859
2092 0 130.404 14.9459 1949 126.576 184.432 361.504
2093 0 138.474 14.7392 2041 125.639 184.524 359.596
2094 0 140.282 14.3496 2013 127.646 184.236 355.665
2095 0 144.247 14.9535 2157 126.423 184.477 353.412
2096 0 149.328 14.0965 2105 128.876 184.596 350.947
2097 0 155.323 15.7414 2445 124.312 184.99 344.936
2098 0 161.3 15.0403 2426 126.014 185.039 343.569
2099 0 166.408 14.9753 2492 126.828 184.875 338.931
2100 0 173.368 15.0373 2607 126.425 184.535 337.081
2101 0 176.388 14.4795 2554 128.56 184.152 335.563
2102 0 182.216 14.6529 2670 129.053 184.097 329.236
2103 0 188.272 15.5626 2930 125.383 184.961 329.026
2104 0 193.316 15.1306 2925 127.36 184.432 323.765
2105 0 199.302 16.9592 3380 121.989 184.507 317.911
2106 0 205.401 18.6659 3834 116.696 184.271 312.123
2107 0 212.402 16.6053 3527 122.918 183.912 309.705
2108 0 222.614 18.0222 4012 117.76 184.407 305.804
2109 0 230.516 17.5519 4046 119.892 184.582 303.218
2110 0 238.641 16.1456 3853 123.575 184.553 296.809
2111 1 183.369 14.5717 2672 129.125 184.665 322.624
2112 0 189.376 14.458 2738 127.864 184.773 325.301
2113 0 194.438 14.3593 2792 130.21 184.503 318.706
2114 0 203.4 14.9164 3034 129.803 184.426 313.522
2115 0 211.374 15.5695 3291 127.628 185.307 315.778
2116 0 218.61 14.1897 3102 131.509 185.62 304.953
2117 0 227.381 17.961 4084 121.183 185.356 298.525
2118 0 235.47 17.9089 4217 119.927 185.705 293.329
2119 0 244.362 17.1835 4199 120.302 185.283 296.687
2120 1 65.1587 10.1138 659 113.7 187.429 392.636
2121 0 67.0756 10.1825 683 116.783 186.893 391.813
2122 0 69.2934 12.2523 849 112.759 184.607 392.179
2123 0 71.3336 11.9859 855 113.704 183.989 388.267
2124 0 73.3737 11.3256 831 116.177 185.385 392.354
2125 0 74.3567 11.1893 832 116.103 186.115 393.998
2126 0 78.3881 12.9484 1015 111.836 185.671 389.406
2127 0 82.373 11.2051 923 115.128 185.445 382.647
2128 0 86.4169 12.0694 1043 112.554 185.307 384.784
2129 0 89.4621 11.9939 1073 111.237 185.566 383.145
2130 0 90.3531 10.0495 908 115.371 185.609 382.715
2131 0 94.5169 11.0456 1044 112.178 185.247 380.448
2132 1 52.2413 9.51354 497 100.845 184.262 392.813
2133 0 53.3437 11.0791 591 99.242 184.438 401.259
2134 0 57.4035 11.8982 683 102.956 184.609 400.452
2135 0 59.2697 12.0297 713 103.637 184.714 398.264
2136 0 60.3319 11.7848 711 104.716 184.637 397.74
2137 0 63.3724 12.324 781 103.351 185.247 397.682
2138 0 64.2132 12.1626 781 104.014 184.985 397.398
2139 0 67.3132 11.855 798 105.16 184.736 395.679
2140 0 69.479 13.3997 931 102.792 185.377 392.311
2141 0 71.2407 12.2262 871 104.951 185.261 392.946
2142 0 72.4592 13.7181 994 102.533 185.006 392.181
2143 0 73.4979 12.0684 887 106.125 185.211 389.99
2144 0 75.3019 12.8018 964 104.213 184.033 390.267
2145 0 75.202 11.7683 885 108.077 184.018 387.46
2146 0 79.2848 12.02 953 106.506 183.897 388.03
2147 0 80.4182 13.3801 1076 104.268 184.397 386.927
2148 0 83.4016 12.4578 1039 106.321 185.165 385.185
2149 0 83.2247 12.1839 1014 108.868 184.255 382.655
2150 0 87.3215 11.6008 1013 108.379 184.236 382.443
2151 0 89.4028 11.9683 1070 108.143 184.445 379.668
2152 0 94.4802 14.5004 1370 100.335 184.388 379.791
2153 0 96.3025 11.7027 1127 105.222 184.627 378.681
2154 0 98.3051 12.156 1195 104.054 184.53 379.821
2155 1 55.2172 11.5906 640 101.894 184.477 398.712
2156 0 53.1389 11.4041 606 93.0842 185.734 390.954
2157 0 54.0509 10.3606 560 92.4893 185.827 390.132
2158 0 54.0672 9.67315 523 94.7075 185.658 391.463
2159 0 58.0984 10.4822 609 92.7964 185.149 390.011
2160 0 59.1293 11.1451 659 92.9105 184.948 390.496
2161 0 61.1139 11.7813 720 95.8167 184.51 394.31
2162 0 63.1119 10.9013 688 97.9797 184.385 393.416
2163 0 64.1393 11.3815 730 98.2521 183.121 394.747
2164 0 63.0484 9.73855 614 102.682 184.033 392.721
2165 0 67.2018 10.5652 710 100.415 183.646 393.07
2166 0 70.1835 11.5412 810 98.763 183.444 391.819
2167 0 70.1019 10.2137 716 101.388 183.581 391.126
2168 1 150.412 10.6507 1602 108.801 183.934 352.715
2169 1 76.1024 11.8656 903 98.5205 183.816 389.932
2170 0 77.2103 11.2032 865 100.671 183.405 387.444
2171 0 79.1029 11.4787 908 100.276 183.966 387.086
2172 0 81.3962 11.5362 939 100.749 184.726 386.07
2173 0 84.383 11.8981 1004 100.943 184.706 383.566
2174 0 87.3114 11.6709 1019 100.898 184.465 382.583
2175 0 90.3249 11.8683 1072 100.413 184.073 382.887
2176 1 49.0618 10.66 523 98.1721 182.929 402.067
2177 0 50.0159 11.6163 581 97.7608 183.568 403.312
2178 0 52.1815 12.1499 634 99.1483 183.647 401.636
2179 0 53.1895 10.5848 563 102.771 183.654 399.069
2180 0 54.182 9.89259 536 100.306 184.228 398.623
2181 0 57.1564 12.4396 711 95.5302 184.357 396.772
2182 0 59.1908 12.5188 741 94.5749 183.671 397.224
2183 0 60.1443 12.204 734 94.1512 184.014 398.379
2184 0 60.0917 11.7321 705 95.5007 184.057 397.064
2185 0 64.1538 12.7039 815 93.6871 183.955 396.339
2186 0 65.1366 12.4201 809 95.7268 183.92 393.984
2187 0 67.1464 13.2397 889 93.9696 184.569 392.936
2188 0 69.1236 12.6296 873 95.2932 183.984 392.997
2189 0 70.1147 11.8805 833 98.7323 184.292 389.989
2190 0 72.1634 11.8343 854 105.665 183.835 390.027
2191 0 73.2536 12.9277 947 104.093 183.982 389.59
2192 0 75.1488 11.271 847 107.492 183.902 387.849
2193 0 80.168 12.5486 1006 104.756 183.888 384.983
2194 0 82.1824 12.2776 1009 105.363 183.625 385.305
2195 0 86.1353 12.0624 1039 104.871 183.913 385.649
2196 0 90.1939 10.8987 983 107.428 184.209 385.981
2197 0 91.2224 11.7844 1075 107.092 183.966 382.772
2198 0 94.1845 11.2227 1057 108.002 183.015 383.292
2199 1 49.0235 10.9539 537 105.888 182.953 400.607
2200 0 52.1328 11.6434 607 101.769 184.929 400.992
2201 0 51.1252 12.264 627 102.526 184.195 400.215
2202 0 53.1314 13.6642 726 99.9725 183.993 399.904
2203 0 56.1815 12.7266 715 101.901 183.751 398.48
2204 0 57.1913 13.5685 776 100.476 184.518 398.134
2205 0 60.1261 11.9748 720 103.776 183.908 397.049
2206 0 60.1699 13.6281 820 101.835 184.07 395.026
2207 0 61.1111 13.2218 808 102.832 184.061 394.094
2208 0 63.1072 13.0096 821 103.495 184.102 394.034
2209 0 65.3246 12.6752 828 104.859 183.972 394.211
2210 0 68.1507 13.7343 936 102.08 183.688 393.177
2211 0 69.1861 12.9072 893 105.326 184.038 390.588
2212 0 71.1706 13.4466 957 104.696 184.234 390.169
2213 0 73.1783 13.146 962 105.727 183.822 390.537
2214 0 76.2112 12.6228 962 106.572 183.791 389.121
2215 0 78.1658 12.4351 972 107.759 183.257 388.18
2216 0 82.1842 15.4896 1273 101.203 183.492 386.416
2217 0 86.1668 13.7988 1189 104.96 183.682 384.88
2218 0 86.1482 12.9892 1119 109.641 183.471 384.159
2219 1 47.0417 12.3295 580 113.079 182.886 400.222
2220 0 49.0445 11.5201 565 112.834 184.039 398.958
2221 0 51.0413 12.0491 615 108.398 184.054 403.61
2222 0 49.12 11.3192 556 113.944 183.64 403.041
2223 0 52.0808 13.5175 704 108.259 183.864 401.548
2224 0 54.1336 13.1711 713 110.589 183.914 400.015
2225 0 56.2143 12.648 711 112.108 184.021 398.902
2226 0 58.2266 13.1898 768 110.046 183.721 400.007
2227 0 58.0978 13.0814 760 111.876 183.938 398.607
2228 0 61.1119 13.3198 814 111.365 183.396 397.22
2229 0 60.1259 11.8086 710 116.189 183.835 397.513
2230 0 65.0849 13.5208 880 110.806 183.335 395.52
2231 0 65.1241 13.0981 853 112.496 183.369 395.311
2232 0 68.1145 13.3305 908 113.202 183.323 393.479
2233 0 72.1283 15.1258 1091 107.232 183.773 393.198
2234 0 72.1421 13.6675 986 111.187 183.869 390.861
2235 0 73.0902 12.7377 931 113.566 184.346 389.937
2236 0 76.0955 12.9968 989 112.161 184.488 388.883
2237 0 80.0689 13.6008 1089 110.468 184.353 387.222
2238 0 83.1262 14.2193 1182 108.802 184.119 384.849
2239 0 85.1117 13.7701 1172 109.153 184.219 383.704
2240 0 88.1354 13.0027 1146 109.308 183.743 385.339
2241 0 93.31 15.7432 1469 103.995 184.7 378.732
2242 0 96.1523 13.5618 1304 107.548 184.332 379.654
2243 1 53.162 12.5842 669 110.691 183.957 400.562
2244 0 55.1882 11.8322 653 113.51 184.34 398.939
2245 0 55.1797 13.2658 732 111.533 184.443 391.709
2246 0 57.2046 12.6214 722 113.388 184.427 391.575
2247 0 59.0734 14.1519 836 109.585 183.646 395.944
2248 0 58.1052 12.9076 750 113.98 184.236 394.885
2249 0 61.0639 12.708 776 113.867 183.668 393.591
2250 0 63.14 12.8286 810 112.935 183.921 392.402
2251 0 67.0757 13.2388 888 111.814 183.874 391.032
2252 0 69.0598 12.6412 873 112.811 183.954 390.922
2253 0 72.0765 14.2488 1027 107.917 183.611 390.861
2254 0 73.0992 13.4612 984 111.527 183.878 386.596
2255 0 75.0705 12.8279 963 112.038 183.619 386.873
2256 0 78.1387 12.5546 981 113.386 184.102 384.792
2257 0 81.0697 13.2479 1074 111.912 183.912 384.249
2258 0 87.0814 14.0558 1224 108.416 183.548 384.585
2259 0 89.0944 15.1412 1349 106.248 184.074 382.761
2260 0 93.0987 14.7585 1374 106.739 183.565 382.442
2261 0 95.0868 13.7874 1311 109.229 183.39 380.249
2262 0 99.1203 13.5391 1342 109.3 183.318 380.251
2263 0 103.272 12.7721 1319 110.538 183.652 379.628
2264 1 55.0382 11.065 609 113.094 182.263 402.567
2265 0 56.0311 11.6007 650 110.688 182.842 401.962
2266 0 57.0515 11.8314 675 110.329 183.356 401.855
2267 0 58.068 11.7104 680 113.735 181.794 400.015
2268 0 59.047 12.1937 720 112.168 181.362 402.122
2269 0 61.0481 11.7285 716 113.55 181.346 401.198
2270 0 64.0393 12.1488 778 112.459 180.594 401.737
2271 0 70.0827 13.2272 927 109.181 180.873 400.323
2272 0 68.0864 13.101 892 112.738 180.459 399.126
2273 0 73.0985 12.7362 931 112.699 180.843 397.872
2274 0 75.0961 12.6771 952 112.639 180.986 397.345
2275 0 77.0691 13.4684 1038 112.579 180.128 392.595
2276 0 80.0939 11.9859 960 115.677 179.835 394.356
2277 0 83.0951 12.5639 1044 115.142 179.876 393.32
2278 0 85.1154 13.652 1162 114.059 179.602 389.996
2279 0 89.0305 14.1974 1264 113.172 179.048 388.859
2280 0 89.0305 14.1075 1256 160.843 178.049 388.876
2281 0 96.1028 15.421 1482 110.533 179.836 384.417
2282 0 98.0884 14.018 1375 114.055 179.609 381.861
2283 0 103.192 14.9624 1544 110.31 179.962 381.927
2284 0 105.214 13.3347 1403 113.429 180.152 381.158
2285 1 57.0271 12.1521 693 114.206 178.824 408.645
2286 0 60.1697 12.4648 750 110.869 179.235 408.28
2287 0 59.0939 13.0301 770 113.947 179.078 407.486
2288 0 62.1802 13.7986 858 110.91 178.714 408.407
2289 0 62.042 13.0234 808 112.838 178.005 407.552
2290 0 67.0506 12.677 850 111.561 178.307 408.994
2291 0 67.1439 13.6572 917 111.894 178.993 406.16
2292 0 70.1207 14.0615 986 110.874 178.635 404.706
2293 0 74.1642 15.0477 1116 106.754 178.185 404.058
2294 0 75.1635 14.4751 1088 109.086 178.847 403.254
2295 0 75.1589 14.5824 1096 149.224 179.836 403.094
2296 0 81.0974 13.8722 1125 110.948 179.114 400.861
2297 0 83.1377 13.7964 1147 110.726 178.905 401.22
2298 0 86.1197 14.0386 1209 110.823 178.825 398.745
2299 0 89.0565 13.9687 1244 111.314 178.542 397.394
2300 0 91.2474 13.3812 1221 113.292 178.631 395.591
2301 0 93.1464 14.343 1336 111.978 178.692 392.684
2302 0 97.1068 14.345 1393 111.64 178.508 392.302
2303 0 101.155 14.364 1453 112.76 178.318 391.169
2304 0 103.136 14.7185 1518 111.38 178.012 387.7
2305 0 106.176 14.7491 1566 110.682 178.336 385.881
2306 1 59.0341 13.1111 774 104.536 178.952 407.214
2307 0 59.0827 13.1849 779 107.153 178.262 406.764
2308 0 61.1193 13.2855 812 107.424 178.655 404.697
2309 0 64.062 13.5806 870 106.318 178.161 402.977
2310 0 67.0958 14.0396 942 103.807 177.799 404.618
2311 0 68.0909 13.9079 947 105.469 177.766 401.135
2312 0 72.1687 12.9419 934 106.711 177.562 399.65
2313 0 72.0861 14.1914 1023 104.7 178.046 399.248
2314 0 76.1267 13.8585 1055 104.008 178.447 397.736
2315 0 76.1126 13.3618 1017 106.41 178.151 397.135
2316 0 78.0869 12.7294 994 107.646 178.08 395.337
2317 0 84.1403 14.5709 1226 102.169 178.243 394.24
2318 0 82.0718 13.5247 1110 103.71 177.734 397.795
2319 0 86.0997 14.1116 1215 101.572 177.9 396.63
2320 0 87.2492 12.8024 1117 105.053 178.166 393.346
2321 0 92.094 14.268 1314 100.904 178.123 393.75
2322 0 95.1556 13.9246 1325 101.289 178.7 391.021
2323 0 98.1731 13.9651 1371 101.816 178.813 387.212
2324 0 101.153 14.1271 1429 104.172 179.449 387.479
2325 0 108.106 15.6235 1689 104.409 179.284 384.934
2326 0 111.159 15.5633 1730 104.68 179.312 381.692
2327 1 60.1667 12.6149 759 104.773 178.424 405.881
2328 0 64.1337 12.7702 819 101.586 178.645 404.943
2329 0 66.1253 13.671 904 99.8993 178.66 403.543
2330 0 65.0627 13.6791 890 101.952 178.394 403.113
2331 0 68.1074 12.8327 874 103.301 178.497 402.793
2332 0 70.1512 13.7132 962 103.757 179.169 402.732
2333 0 71.2064 14.0016 997 102.868 178.663 401.014
2334 0 74.1382 12.5711 932 106.65 178.986 397.695
2335 0 77.1629 13.3354 1029 110.949 178.414 396.863
2336 0 78.2581 13.2638 1038 112.162 178.311 396.811
2337 0 83.3926 13.1187 1094 112.874 178.867 392.968
2338 0 84.1377 13.2759 1117 110.026 178.86 391.237
2339 0 87.2689 13.1433 1147 112.061 178.705 388.376
2340 0 90.2494 13.5403 1222 113.414 178.941 388.028
2341 0 91.1576 13.3834 1220 115.689 179.208 385.217
2342 0 94.2072 13.5977 1281 115.101 179.336 384.323
2343 0 97.1832 14.6219 1421 113.815 180.239 383.839
2344 0 100.273 14.66 1470 114.209 180.391 382.073
2345 0 103.214 14.4554 1492 115.746 180.344 378.095
2346 0 105.106 13.4531 1414 118.384 180.924 377.719
2347 0 106.134 13.728 1457 119.612 180.646 376.524
2348 0 112.371 15.6002 1753 113.409 180.905 376.261
2349 0 115.295 13.9642 1610 119.005 180.954 371.707
2350 1 64.1264 14.0192 899 113.181 180.012 393.772
2351 0 65.2642 13.7901 900 116.312 181.25 396.361
2352 0 67.0384 12.4108 832 115.185 181.754 391.513
2353 0 68.1054 12.0695 822 117.678 181.657 389.526
2354 0 70.1485 13.6995 961 119.524 181.44 392.194
2355 0 74.0855 13.6194 1009 119.544 180.603 392.248
2356 0 74.154 13.1213 973 120.78 179.696 391.823
2357 0 79.091 13.6931 1083 119.343 180.241 389.699
2358 0 82.1287 14.6599 1204 117.134 179.837 386.017
2359 0 86.0969 15.3199 1319 115.847 180.807 385.969
2360 0 86.1542 13.3946 1154 115.215 182.339 384.392
2361 0 89.2269 13.2471 1182 114.519 181.547 382.647
2362 0 93.0862 13.3425 1242 112.672 181.93 381.537
2363 0 96.0969 12.6643 1217 114.099 182.062 379.929
2364 0 99.0971 11.9277 1182 115.266 182.108 378.102
2365 1 53.1533 12.7179 676 110.527 181.504 400.83
2366 0 53.1185 11.8038 627 113.129 181.691 399.41
2367 0 55.2233 11.9696 661 117.073 182.192 398.722
2368 0 57.1782 12.7671 730 114.808 182.334 397.766
2369 0 58.2812 12.7314 742 114.695 182.323 398.321
2370 0 61.3462 12.6169 774 115.942 182.345 396.291
2371 0 64.2999 13.7947 887 112.455 182.461 395.206
2372 0 65.4369 14.0135 917 112.051 182.935 394.771
2373 0 67.2678 14.2564 959 112.048 182.972 393.244
2374 0 69.2532 13.3423 924 115.324 182.395 392.949
2375 0 72.4599 14.7392 1068 111.147 182.621 390.733
2376 0 75.3667 13.7992 1040 114.261 183.008 390.096
2377 0 78.3263 14.2736 1118 112.976 182.078 389.756
2378 0 79.2598 14.7111 1166 112.733 182.773 389.685
2379 0 82.2333 14.0211 1153 115.533 182.781 387.203
2380 0 84.333 14.6088 1232 114.083 182.926 386.074
2381 0 87.2277 14.3991 1256 116.281 182.443 382.818
2382 0 89.2129 13.9554 1245 116.569 182.382 384.218
2383 0 94.5658 14.8045 1400 114.302 182.792 381.529
2384 1 53.1636 12.6402 672 109.626 182.333 403.122
2385 0 52.3941 13.8565 726 103.366 183.576 401.89
2386 0 55.1533 14.1968 783 102.826 183.157 398.612
2387 0 55.2177 12.7858 706 106.751 184.49 400.235
2388 0 56.1018 12.7269 714 106.548 184.287 399.329
2389 0 56.1343 12.9154 725 111.108 182.828 399.531
2390 0 58.1616 12.4653 725 112.359 183.263 399.252
2391 0 61.1859 14.0228 858 108.261 183.556 399.593
2392 0 62.1637 13.2714 825 111.72 182.627 396.362
2393 0 63.0806 13.4748 850 112.598 183.293 395.726
2394 0 65.1326 12.6204 822 115.446 182.637 395.408
2395 0 68.3966 13.6849 936 113.019 182.983 394.585
2396 0 70.1493 14.5119 1018 112.594 183.006 392.003
2397 0 72.1668 13.164 950 116.809 182.645 391.855
2398 0 73.2744 13.7838 1010 117.895 182.85 389.622
2399 0 77.3732 14.3848 1113 117.397 183.032 389.712
2400 0 79.4248 13.7363 1091 120.657 182.361 388.607
2401 0 81.3366 15.233 1239 117.387 182.295 389.224
2402 0 85.3042 14.3135 1221 120.518 182.751 386.976
2403 0 91.3423 15.4036 1407 120.267 183.038 384.495
2404 0 92.3461 14.1749 1309 125.095 183.082 382.545
2405 0 95.1579 13.9452 1327 119.905 183.115 378.179
2406 0 99.1795 15.3459 1522 116.157 182.766 377.409
2407 0 98.2053 13.6042 1336 122.369 183.904 374.484
2408 0 104.18 14.4173 1502 119.608 184.111 375.503
2409 0 106.282 15.1578 1611 119.41 184.569 372.313
2410 0 111.319 15.6038 1737 117.554 185.035 371.275
2411 0 114.177 13.7068 1565 122.472 185.141 373.073
2412 0 117.18 14.1065 1653 123.463 184.65 367.284
2413 0 120.243 14.1547 1702 124.213 184.096 366.155
2414 0 123.239 13.6483 1682 125.735 185.272 365.945
2415 0 127.195 13.6562 1737 125.985 184.408 363.794
2416 0 128.322 14.0117 1798 128.522 183.571 357.3
2417 0 134.341 14.7238 1978 126.349 183.484 357.156
2418 0 137.286 14.1457 1942 128.427 183.903 355.43
2419 0 142.165 14.0541 1998 127.391 183.942 355.518
2420 0 149.186 14.5389 2169 127.876 184.084 352.766
2421 1 77.3508 13.6262 1054 126.581 184.112 388.31
2422 0 79.352 13.396 1063 126.152 184.043 387.001
2423 0 82.0937 12.5954 1034 124.55 183.177 387.531
2424 0 86.3398 14.9757 1293 128.246 184.372 385.315
2425 0 88.3874 13.8142 1221 131.17 184.096 385.923
2426 0 91.3066 14.2596 1302 130.256 183.921 383.684
2427 0 93.3104 14.2213 1327 130.766 183.974 381.292
2428 0 96.2756 14.7286 1418 130.202 183.846 377.949
2429 0 99.3966 14.8697 1478 127.656 183.946 379.309
2430 0 101.215 13.7232 1389 130.348 183.554 374.882
2431 0 105.333 12.7785 1346 124.496 183.392 371.835
2432 0 108.248 12.8131 1387 123.51 184.141 374.114
2433 0 113.191 13.2519 1500 121.542 182.877 371.761
2434 0 115.177 13.1189 1511 122.089 182.585 371.795
2435 1 63.2138 12.9086 816 117.562 183.641 397.63
2436 0 64.2107 13.8918 892 126.49 183.899 397.451
2437 0 66.2943 14.2245 943 127.071 183.94 392.91
2438 0 69.217 13.7105 949 127.515 183.685 393.668
2439 0 70.2728 14.956 1051 125.591 183.839 391.696
2440 0 71.3032 13.6319 972 129.621 183.905 392.453
2441 0 75.357 14.6237 1102 125.394 184.214 391.663
2442 0 78.2194 15.2903 1196 123.557 184.063 388.952
2443 0 79.3508 13.7113 1088 129.309 183.99 389.274
2444 0 81.3194 13.367 1087 130.778 184.512 386.995
2445 0 86.4023 13.6686 1181 128.289 183.89 386.456
2446 0 90.3292 13.019 1176 129.547 184.195 383.509
2447 0 91.2818 13.65 1246 131.091 183.937 382.707
2448 0 96.2374 13.6433 1313 129.454 183.024 381.461
2449 1 54.3396 13.25 720 122.636 184.256 401.972
2450 0 55.1639 11.8556 654 122.433 184.74 399.369
2451 0 58.1765 13.5278 787 116.395 184.91 398.154
2452 0 60.2621 13.7566 829 116.111 184.357 398.124
2453 0 60.189 12.6103 759 121.821 184.772 394.217
2454 0 63.18 12.3773 782 123.57 184.891 396.224
2455 0 64.3174 13.791 887 119.678 184.592 395.936
2456 0 68.1535 13.1615 897 119.208 185.276 395.756
2457 0 68.1876 12.9349 882 121.235 184.956 390.798
2458 0 72.0849 13.9835 1008 116.083 184.284 391.66
2459 0 72.2269 11.9623 864 115.683 183.307 390.69
2460 0 74.238 12.3791 919 113.569 183.646 392.406
2461 0 76.1212 12.6771 965 113.225 183.704 388.315
2462 0 81.1402 13.2733 1077 111.573 183.573 388.135
2463 0 84.1847 13.2209 1113 112.503 184.04 386.275
2464 0 84.228 12.3356 1039 113.632 184.094 385.853
2465 0 88.2411 12.2279 1079 112.381 183.878 385.816
2466 0 91.2406 13.3603 1219 110.313 183.671 381.828
2467 0 94.3578 13.1415 1240 111.496 183.458 379.951
2468 1 51.1844 12.6601 648 107.64 183.965 400.895
2469 0 53.1188 12.5944 669 107.271 183.658 400.042
2470 0 54.1543 13.0737 708 105.77 183.929 399.98
2471 0 56.4119 12.9937 733 115.709 183.745 398.622
2472 0 58.4345 13.16 769 112.147 183.697 398.659
2473 0 58.3841 12.5548 733 112.936 184.3 399.3
2474 0 61.3863 12.7064 780 110.931 183.719 395.95
2475 0 62.3443 13.3292 831 110.138 183.274 394.094
2476 0 64.1856 13.3208 855 109.171 183.835 394.345
2477 0 67.3752 11.9332 804 110.719 184.211 392.897
2478 0 69.3941 12.9118 896 108.054 183.741 392.504
2479 0 72.3999 12.7072 920 108.286 183.872 391.664
2480 0 75.3239 13.9 1047 106.62 183.675 389.282
2481 0 78.3451 14.2957 1120 105.729 183.746 388.829
2482 0 79.4836 12.1409 965 111.94 183.571 387.549
2483 0 82.4218 14.3045 1179 107.348 183.494 386.883
2484 0 84.7291 13.9858 1185 108.486 183.138 385.869
2485 0 88.3995 13.5634 1199 108.841 183.901 386.198
2486 0 90.5359 13.7073 1241 110.852 184.191 382.413
2487 0 94.4539 14.8538 1403 108.043 183.658 380.833
2488 0 97.4548 14.5503 1418 108.761 184.04 379.891
2489 0 102.466 15.1075 1548 108.273 183.913 378.469
2490 1 55.4237 13.5862 753 107.104 183.664 400.734
2491 0 55.5207 12.824 712 113.897 183.708 398.51
2492 0 58.2868 14.0512 819 109.838 184.431 397.821
2493 0 62.3218 14.1042 879 109.857 184.031 397.612
2494 0 61.2798 14.034 860 112.598 183.719 395.649
2495 0 63.4509 14.1212 896 111.685 183.782 396.842
2496 0 65.5995 13.6891 898 113.991 183.624 394.611
2497 0 69.5237 15.1747 1055 109.831 183.705 394.082
2498 0 71.4513 13.7576 983 114.8 183.582 392.949
2499 0 71.4727 13.9074 994 115.547 184.47 392.614
2500 0 77.4741 14.5081 1124 113.699 184.418 390.861
2501 0 76.4192 14.3681 1098 116.981 183.965 389.381
2502 0 80.5074 13.9739 1125 117.656 184.137 389.446
2503 0 82.3943 14.4549 1191 117.794 183.428 388.425
2504 0 84.4951 14.3322 1211 117.984 183.193 387.515
2505 0 88.5341 14.4125 1276 117.967 183.68 385.774
2506 0 89.3904 15.0128 1342 118.186 183.852 383.726
2507 0 92.3865 14.2445 1316 120.744 183.576 381.384
2508 0 95.4763 14.0454 1341 121.886 183.559 380.112
2509 0 98.4246 14.2546 1403 121.046 183.894 380.706
2510 0 102.352 15.5444 1591 118.994 183.842 376.659
2511 0 103.563 13.7018 1419 123.844 184.203 377.696
2512 0 108.415 15.7543 1708 119.022 183.805 374.556
2513 0 112.333 14.733 1655 120.79 184.036 374.334
2514 0 114.35 13.6074 1556 125.759 184.696 370.124
2515 0 119.325 14.2552 1701 123.614 184.698 369.841
2516 1 67.3705 11.7411 791 121.291 184.401 395.169
2517 0 70.2601 12.4537 875 121.014 184.402 391.957
2518 0 71.2799 13.4821 961 122.174 185.168 389.655
2519 0 73.2091 12.9219 946 123.274 184.879 390.506
2520 0 77.3052 13.3109 1029 122.946 184.334 388.892
2521 0 80.274 13.8775 1114 121.495 184.003 386.28
2522 0 82.1969 14.0516 1155 121.215 184.849 385.737
2523 0 84.4868 13.1145 1108 123.874 184.487 384.673
2524 0 87.2163 13.8162 1205 122.688 184.654 382.457
2525 0 90.4283 12.1865 1102 126.427 184.733 381.564
2526 0 93.3604 13.4961 1260 123.623 184.533 380.025
2527 0 96.279 13.3259 1283 122.973 185.138 379.52
2528 0 100.284 14.1797 1422 121.258 184.999 376.02
2529 0 103.331 14.1003 1457 122.175 185.006 373.85
2530 0 107.467 13.8368 1487 120.734 185.287 375.413
2531 0 109.402 14.6341 1601 119.174 185.628 373.53
2532 0 112.345 14.6869 1650 119.776 186.313 368.796
2533 0 114.338 13.5039 1544 122.713 185.955 367.372
2534 0 121.5 13.9013 1689 120.532 185.863 365.085
2535 0 126.345 14.2784 1804 119.7 186.331 361.747
2536 0 129.553 14.1101 1828 121.415 186.156 360.669
2537 0 135.382 14.1157 1911 121.548 186.218 358.105
2538 0 138.396 13.6782 1893 123.145 186.184 354.31
2539 0 145.387 14.795 2151 120.331 186.015 351.688
2540 1 79.259 13.172 1044 116.175 185.939 384.898
2541 0 83.2921 11.8499 987 116.63 186.059 381.827
2542 0 85.3635 13.9521 1191 112.231 185.821 381.559
2543 0 88.253 14.2092 1254 113.552 185.712 380.963
2544 0 91.388 13.7983 1261 114.692 185.484 380.285
2545 0 94.2883 13.692 1291 115.332 185.924 377.48
2546 0 96.372 14.2261 1371 114.919 186.306 376.556
2547 0 98.3928 13.1615 1295 118.724 186.445 375.095
2548 0 103.313 14.277 1475 116.231 186.484 373.62
2549 0 105.443 13.429 1416 118.887 185.925 372.775
2550 0 108.486 14.2231 1543 122.979 186.239 366.515
2551 0 116.525 15.7992 1841 116.661 185.818 367.339
2552 0 119.56 14.3108 1711 121.366 185.492 365.826
2553 0 121.41 14.1586 1719 122.799 185.625 360.731
2554 0 127.399 14.8745 1895 119.566 186.042 359.391
2555 0 129.286 13.2729 1716 117.432 186.635 349.958
2556 0 135.27 13.4841 1824 117.171 186.872 345.207
2557 0 138.379 13.1523 1820 117.917 186.42 343.692
2558 0 145.246 14.2241 2066 115.878 186.895 339.514
2559 0 149.198 13.3246 1988 118.712 185.461 338.563
2560 0 155.272 13.6921 2126 122.853 185.157 334.401
2561 0 159.48 13.08 2086 124.047 185.462 332.447
2562 1 89.2871 12.8798 1150 112.692 185.635 366.79
2563 0 93.2388 12.6342 1178 112.896 184.766 366.491
2564 0 93.1212 11.4904 1070 116.918 184.779 363.304
2565 0 99.2259 12.5874 1249 113.022 184.898 363.915
2566 0 101.243 14.4998 1468 108.99 184.98 362.984
2567 0 101.227 12.2201 1237 115.703 184.259 359.681
2568 0 108.248 13.192 1428 108.123 184.587 361.024
2569 0 110.072 13.0642 1438 111.657 184.039 358.546
2570 0 114.144 12.8697 1469 110.679 184.683 360.517
2571 0 115.211 14.6774 1691 109.287 185.195 352.235
2572 0 118.198 13.0713 1545 111.979 185.73 355.083
2573 0 124.182 12.5461 1558 112.715 185.383 350.744
2574 0 129.233 13.9051 1797 110.152 186.022 349.005
2575 1 72.1803 10.2937 743 106.155 186.328 378.012
2576 0 73.1273 10.0236 733 105.696 186.959 376.387
2577 0 77.2052 11.5536 892 98.4765 186.741 377.882
2578 0 79.2125 12.2077 967 104.459 184.997 385.771
2579 0 80.3481 12.1969 980 104.863 184.937 383.914
2580 0 82.3143 13.2905 1094 103.778 184.931 382.59
2581 0 86.184 12.717 1096 105.184 184.879 379.383
2582 0 91.2191 12.8592 1173 105.054 184.735 380.385
2583 0 91.2415 12.9985 1186 106.293 185.164 378.585
2584 0 95.2029 14.2117 1353 103.759 185.585 376.443
2585 0 97.1534 14.1529 1375 104.907 184.84 376.609
2586 0 99.1983 13.1555 1305 109.02 184.453 372.51
2587 0 103.143 13.7188 1415 107.674 184.163 373.881
2588 0 105.239 14.3959 1515 107.069 185.199 374.795
2589 0 110.138 14.4909 1596 106.296 184.341 372.947
2590 0 111.152 13.8009 1534 108.722 184.739 367.156
2591 0 115.254 14.4289 1663 106.301 184.933 368.346
2592 0 117.306 12.4035 1455 110.631 184.439 368.254
2593 0 123.262 13.8972 1713 107.619 184.516 367.931
2594 0 125.24 13.3504 1672 108.579 184.725 364.365
2595 1 72.1478 11.5319 832 110.167 184.329 391.001
2596 0 73.0743 12.8499 939 109.569 184.765 387.478
2597 0 75.158 12.8928 969 110.627 184.896 387.344
2598 0 77.2686 13.356 1032 107.673 184.919 388.549
2599 0 77.2105 12.7962 988 110.556 184.987 385.184
2600 0 80.2734 13.4042 1076 108.536 184.67 385.757
2601 0 83.1867 13.8243 1150 108.143 184.868 382.155
2602 0 87.2884 12.8654 1123 109.671 184.861 381.88
2603 0 88.2148 11.7214 1034 111.524 184.922 382.742
2604 0 91.1629 12.538 1143 110.983 185.107 379.356
2605 0 95.2674 14.4226 1374 106.084 185.331 378.557
2606 0 97.3106 12.6913 1235 109.613 185.433 377.842
2607 0 99.2161 12.9414 1284 110.383 185.238 374.051
2608 0 103.261 13.0833 1351 108.462 185.067 375.89
2609 0 107.292 13.2628 1423 108.075 185.682 373.197
2610 0 109.243 13.0718 1428 107.965 184.866 369.676
2611 0 116.244 14.0394 1632 104.257 185.042 370.529
2612 0 119.232 14.6185 1743 104.764 185.44 367.002
2613 0 121.126 12.5076 1515 110.142 185.506 366.055
2614 0 127.189 13.2951 1691 106.229 185.073 363.26
2615 1 71.0317 11.4315 812 106.836 184.807 389.839
2616 0 73.0653 12.6462 924 103.25 185.59 386.532
2617 0 73.1133 14.7442 1078 100.747 187.287 387.731
2618 0 77.2474 13.2691 1025 103.806 187.483 388.149
2619 0 79.1691 14.109 1117 103.608 187.075 384.636
2620 0 82.2292 13.4989 1110 104.081 186.574 383.956
2621 0 82.217 12.5157 1029 107.596 185.762 382.699
2622 0 86.2056 13.3982 1155 103.967 186.293 384.599
2623 0 89.2608 13.0516 1165 104.903 185.921 379.233
2624 0 90.277 13.237 1195 104.863 186.105 382.239
2625 0 91.1405 12.6947 1157 105.62 185.64 382.134
2626 0 95.2001 13.687 1303 103.626 185.545 379.017
2627 0 97.226 13.1035 1274 104.724 184.856 378.911
2628 0 101.168 13.0772 1323 103.32 185.276 377.442
2629 0 104.117 13.3504 1390 102.36 185.202 374.376
2630 0 109.139 13.9455 1522 99.4901 184.955 375.829
2631 0 109.192 12.6016 1376 103.783 184.958 373.693
2632 0 113.173 12.1672 1377 105.007 184.744 370.284
2633 0 120.186 13.5539 1629 99.8244 185.524 370.351
2634 1 69.151 12.6969 878 99.1298 185.53 394.033
2635 0 70.1659 12.5702 882 99.4728 185.523 393.934
2636 0 71.1185 12.0503 857 99.2847 185.169 390.407
2637 0 74.1561 11.8264 877 101.726 185.886 391.992
2638 0 74.1142 12.4942 926 102.483 185.543 387.154
2639 0 77.1474 12.4696 962 101.465 185.554 389.179
2640 0 81.1061 13.5871 1102 100.064 185.116 386.657
2641 0 81.1486 12.8899 1046 101.441 185.253 386.856
2642 0 84.103 13.2219 1112 100.906 184.353 384.072
2643 0 87.2949 16.3354 1426 94.8163 184.621 384.925
2644 0 87.1499 12.576 1096 104.407 184.449 381.265
2645 0 92.3045 13.5855 1254 102.039 184.064 379.743
2646 0 95.2938 13.3377 1271 102.528 183.482 379.149
2647 0 97.2135 14.1338 1374 101.203 183.074 378.54
2648 0 101.283 12.9439 1311 103.128 183.568 379.804
2649 0 102.192 14.8935 1522 99.91 183.184 375.943
2650 0 105.35 14.1623 1492 101.589 182.611 373.2
2651 0 108.172 13.8945 1503 101.563 182.542 374.731
2652 0 110.358 13.4563 1485 103.428 182.022 371.167
2653 0 115.377 15.1069 1743 99.4194 182.816 372.448
2654 0 118.386 14.647 1734 100.273 183.036 369.352
2655 0 123.301 15.4094 1900 98.6179 182.493 365.513
2656 0 128.378 13.9978 1797 100.411 182.873 362.83
2657 1 74.1809 12.7122 943 94.8505 183.885 388.922
2658 0 75.1389 9.71534 730 94.5164 183.786 380.426
2659 0 79.1915 12.8802 1020 89.0304 184.209 388.662
2660 0 84.1847 12.0806 1017 89.6441 184.567 387.016
2661 0 85.2893 12.4869 1065 88.1296 184.322 387.412
2662 0 89.1574 11.1264 992 90.2571 183.827 385.299
2663 0 91.2072 13.3871 1221 87.3161 183.882 380.579
2664 0 93.2037 11.5339 1075 90.48 183.952 381.767
2665 0 100.199 11.577 1160 89.369 183.877 381.22
2666 0 101.171 11.5943 1173 91.3615 183.776 377.928
2667 0 104.31 11.2645 1175 92.663 183.817 374.718
2668 0 107.171 11.8315 1268 92.5213 183.573 372.76
2669 0 107.171 11.7476 1259 135.825 182.579 372.882
2670 0 115.272 13.7414 1584 93.5833 182.947 368.398
2671 1 65.2274 12.5561 819 91.4554 184.037 395.868
2672 0 68.2137 13.2085 901 89.8846 184.274 391.301
2673 0 67.1615 11.3458 762 89.8202 184.066 394.096
2674 0 72.1621 11.3772 821 89.1949 184.789 391.778
2675 0 74.1171 12.6017 934 86.5161 184.547 393.69
2676 0 77.1983 13.3941 1034 85.9149 184.626 390.662
2677 0 78.2088 13.0548 1021 87.8531 183.979 390.69
2678 0 79.3029 12.7234 1009 90.3479 182.93 388.091
2679 0 83.2769 12.6806 1056 89.7235 183.829 389.308
2680 0 84.2957 12.3019 1037 91.4069 183.019 386.848
2681 0 88.2978 13.4998 1192 89.4622 183.257 385.135
2682 0 90.3522 12.739 1151 91.9878 183.397 383.687
2683 0 92.5145 13.1223 1214 91.7842 183.163 383.655
2684 0 95.4189 12.1045 1155 93.8874 182.911 383.625
2685 0 99.3119 13.5835 1349 92.4522 182.9 379.44
2686 0 101.369 14.176 1437 93.3848 182.543 376.48
2687 0 104.386 14.8296 1548 92.2293 182.53 377.791
2688 0 106.343 13.4847 1434 98.7978 182.416 373.789
2689 0 109.402 14.5976 1597 97.0301 182.474 372.398
2690 0 113.418 14.6626 1663 98.0944 182.451 372.047
2691 0 113.317 13.5284 1533 99.756 183.37 366.512
2692 0 119.211 12.6415 1507 96.1029 184.102 369.236
2693 0 120.23 12.3347 1483 97.6521 184.171 368.213
2694 0 123.262 14.7491 1818 95.3614 183.288 366.774
2695 0 127.235 14.6501 1864 96.0005 183.619 362.312
2696 0 131.402 13.12 1724 99.1044 184.204 361.6
2697 0 133.274 12.2004 1626 101.143 184.192 359.319
2698 1 78.1039 11.5871 905 98.4331 184.894 386.863
2699 0 83.0847 14.082 1170 94.359 184.613 386.027
2700 0 85.1945 12.9586 1104 97.6313 184.952 383.259
2701 0 87.1922 12.9484 1129 105.966 183.341 384.939
2702 0 93.3414 14.613 1364 100.815 183.685 385.39
2703 0 95.1933 13.4148 1277 105.109 183.75 382.628
2704 0 97.283 13.7845 1341 105.016 183.274 381.025
2705 0 99.21 14.3332 1422 105.132 183.018 380.238
2706 0 104.272 14.4718 1509 104.321 182.81 378.467
2707 0 106.293 13.9426 1482 106.65 182.503 378.057
2708 0 111.234 15.0493 1674 104.149 182.047 376.496
2709 0 112.271 14.3492 1611 106.104 182.453 373.887
2710 0 117.414 15.3389 1801 104.525 182.433 372.153
2711 0 118.398 15.1016 1788 103.856 182.435 368.4
2712 0 121.416 13.1861 1601 103.109 182.445 372.082
2713 0 127.364 14.4076 1835 102.841 182.569 365.661
2714 0 130.329 15.1309 1972 103.694 182.757 361.739
2715 0 135.411 14.9028 2018 107.977 182.507 359.533
2716 1 72.116 11.537 832 112.805 182.01 387.841
2717 0 76.1736 13.9287 1061 97.8313 183.746 383.067
2718 0 75.1174 11.5952 871 104.762 183.754 381.924
2719 0 79.1276 12.2081 966 103.579 184.091 380.442
2720 0 79.1257 11.7155 927 106.776 184.773 376.831
2721 0 83.2174 11.5481 961 105.4 184.243 379.409
2722 0 84.2579 10.9307 921 109.06 184.457 374.435
2723 0 89.1847 12.5582 1120 104.793 183.911 376.129
2724 0 92.2057 12.4613 1149 105.25 184.156 375.704
2725 0 95.1541 12.8108 1219 104.914 184.114 374.053
2726 0 98.228 12.8986 1267 105.642 183.796 371.898
2727 0 100.235 10.7847 1081 110.634 184.05 369.011
2728 0 101.345 11.6137 1177 110.546 184.378 364.926
2729 0 104.326 13.4195 1400 106.49 183.523 366.104
2730 0 103.308 11.6835 1207 111.025 184.159 364.261
2731 0 109.21 13.6434 1490 107.33 183.736 362.209
2732 0 109.291 11.6661 1275 112.964 184.264 357.452
2733 0 113.167 12.2297 1384 111.246 184.692 356.782
2734 0 119.162 12.1012 1442 111.553 184.539 356.759
2735 0 123.243 12.0819 1489 112.132 183.819 355.855
2736 0 128.198 13.448 1724 109.859 184.296 352.01
2737 0 131.138 13.3218 1747 112.098 184.134 348.898
2738 0 134.258 12.1035 1625 117.484 184.439 348.743
2739 1 77.1279 11.3837 878 111.349 185.327 377.686
2740 0 79.045 11.2721 891 105.319 185.116 378.863
2741 0 77.0398 10.0727 776 107.021 185.84 376.281
2742 0 84.0667 11.5741 973 103.576 185.377 374.657
2743 0 90.1397 13.2017 1190 106.145 183.597 381.439
2744 0 92.194 12.9401 1193 107.659 183.459 379.268
2745 0 93.1183 13.2949 1238 107.203 183.915 380.052
2746 0 95.1252 11.9947 1141 110.651 184.431 376.839
2747 0 99.3078 13.3726 1328 107.931 183.971 375.092
2748 0 102.16 13.2831 1357 108.678 184.206 374.699
2749 0 105.229 12.9812 1366 111.012 183.678 372.97
2750 0 108.117 13.7906 1491 108.937 183.877 370.844
2751 0 109.18 13.638 1489 110.167 184.047 367.061
2752 0 113.203 12.2965 1392 113.226 184.857 369.213
2753 0 117.119 12.6368 1480 111.278 184.43 368.794
2754 0 120.102 13.6551 1640 110.954 184.103 364.446
2755 0 125.113 15.0024 1877 107.393 184.219 363.336
2756 0 127.219 14.1096 1795 110.349 183.757 360.989
2757 0 134.214 14.5365 1951 108.909 184.53 357.958
2758 0 136.188 13.6208 1855 111.004 184.67 357.026
2759 0 144.199 14.8822 2146 107.481 184.511 355.712
2760 0 148.245 14.584 2162 107.607 183.52 354.08
2761 0 150.176 14.7427 2214 109.14 183.905 347.178
2762 0 158.282 15.365 2432 106.299 186.532 346.787
2763 0 162.293 14.2089 2306 109.548 185.864 343.938
2764 0 168.424 14.2438 2399 109.446 185.271 340.043
2765 0 173.268 14.5382 2519 109.538 185.694 337.538
2766 0 179.176 14.7286 2639 108.981 185.505 332.377
2767 0 184.314 13.9925 2579 110.337 185.58 331.711
2768 0 189.354 13.5883 2573 111.901 185.382 328.917
2769 0 196.347 13.9345 2736 110.615 185.594 327.644
2770 0 203.22 15.0576 3060 109.027 185.43 324.672
2771 0 210.293 13.8616 2915 112.406 185.825 319.015
2772 0 216.38 15.3989 3332 108.69 185.114 315.885
2773 0 221.32 17.364 3843 103.94 185.037 308.622
2774 0 227.386 18.0794 4111 102.679 184.959 305.488
2775 0 236.385 20.2297 4782 98.0084 185.187 307.173
2776 0 244.484 17.2935 4228 104.928 184.461 298.194
2777 1 182.302 13.9713 2547 111.614 185.097 329.761
2778 0 191.441 14.2446 2727 110.118 184.605 331.099
2779 0 196.143 13.3525 2619 111.947 185.058 325.404
2780 0 204.342 15.5915 3186 108.408 185.047 320.825
2781 0 211.436 13.5644 2868 111.711 184.889 322.732
2782 0 219.544 19.4631 4273 98.5469 184.802 305.366
2783 0 225.294 16.4186 3699 106.361 185.251 308.884
2784 0 233.265 17.0279 3972 104.112 185.155 304.408
2785 0 238.369 15.9836 3810 106.845 185.029 296.359
2786 0 250.48 17.2629 4324 103.503 184.259 292.371
2787 1 65.3232 9.09325 594 105.684 182.85 389.906
2788 0 72.2608 11.1679 807 101.175 182.497 384.482
2789 0 71.1888 10.8865 775 99.4271 183.363 382.235
2790 0 74.1357 11.7892 874 97.8913 183.315 382.574
2791 0 74.1215 11.5351 855 100.256 181.863 388.399
2792 0 81.1659 12.2219 992 97.9808 182.113 385.734
2793 0 82.3626 12.3843 1020 98.2559 183.211 385.062
2794 0 83.0773 11.9648 994 98.4135 183.162 384.044
2795 0 89.1845 12.6591 1129 95.3251 183.303 383.289
2796 1 74.0925 10.19 755 97.6146 182.126 377.509
2797 1 51.0746 11.1993 572 94.0664 181.329 401.885
2798 0 49.0437 9.56291 469 99.1322 181.853 400.638
2799 0 52.5294 10.8511 570 95.9386 184.853 399.675
2800 0 53.4884 12.9187 691 93.5774 184.177 396.585
2801 0 53.3523 10.4775 559 99.347 184.762 397.449
2802 0 56.4699 12.1127 684 96.1579 184.415 396.192
2803 0 58.3352 11.7768 687 97.4803 185.006 396.972
2804 0 59.3694 11.4874 682 98.0029 184.979 397.257
2805 0 60.3461 10.8209 653 99.8698 185.063 396.905
2806 0 61.2387 11.1367 682 101.326 185.097 395.01
2807 0 62.1929 11.5769 720 102.662 184.631 392.001
2808 0 65.2446 12.6447 825 100.543 184.108 391.651
2809 0 67.3191 13.0275 877 99.1836 184.735 392.7
2810 0 67.2962 12.5416 844 101.237 184.634 392.79
2811 0 70.2508 12.9536 910 100.592 184.796 392.091
2812 0 72.2855 14.083 1018 99.7191 184.057 388.34
2813 0 73.1985 12.6642 927 103.631 184.442 386.902
2814 0 74.1823 12.1053 898 105.248 184.259 386.396
2815 0 77.2721 12.2036 943 105.475 183.686 386.716
2816 0 80.1849 13.9802 1121 102.197 184.062 384.269
2817 0 84.2334 15.6351 1317 99.5907 183.894 383.853
2818 0 83.2873 13.8436 1153 103.951 184.463 384.754
2819 0 89.2492 13.9945 1249 103.604 184.178 383.474
2820 0 92.2993 14.3663 1326 103.659 184.316 380.496
2821 0 92.1974 12.2889 1133 108.998 184.864 378.19
2822 0 96.0903 13.6746 1314 106.387 185.652 378.329
2823 1 53.0998 10.678 567 106.476 185.78 400.108
2824 0 53.1497 11.9098 633 100.6 185.828 401.749
2825 0 55.1795 11.236 620 99.5274 185.906 400.481
2826 0 57.0927 13.9598 797 92.66 185.657 398.927
2827 0 56.0571 10.7034 600 99.28 186.043 400.028
2828 0 56.0445 9.86715 553 102.112 185.879 397.955
2829 0 61.0386 12.6477 772 97.2565 185.996 397.181
2830 0 61.1432 10.778 659 100.935 185.944 397.756
2831 0 63.2255 11.4036 721 102.065 184.58 393.777
2832 0 65.2292 10.9767 716 102.13 184.017 395.568
2833 0 68.2494 12.2345 835 99.5078 183.944 394.96
2834 0 69.0707 12.3352 852 99.4085 184.579 393.457
2835 0 71.1514 12.0166 855 101.075 184.877 392.704
2836 0 76.2128 12.5438 956 99.6444 184.926 389.049
2837 0 78.1786 11.9214 932 100.856 184.4 389.959
2838 0 78.1829 13.3405 1043 98.8639 184.575 389.28
2839 0 80.2088 12.4675 1000 101.884 183.963 387.385
2840 0 83.1332 11.4034 948 103.93 184.423 385.866
2841 0 87.0989 12.5375 1092 100.112 184.149 385.864
2842 0 90.1351 12.57 1133 100.125 184.321 382.479
2843 0 92.1913 11.3134 1043 102.278 184.644 385.109
2844 0 98.1985 12.5257 1230 100.249 185 381.675
2845 1 53.1783 12.3171 655 97.5863 184.875 402.452
2846 0 54.1573 12.7776 692 99.3526 184.409 399.486
2847 0 56.2199 12.4155 698 101.116 183.893 398.695
2848 0 58.194 14.4689 842 95.5143 183.7 399.141
2849 0 56.2196 12.4868 702 103.234 183.892 398.573
2850 0 59.15 13.2206 782 101.946 183.803 399.051
2851 0 59.1261 10.689 632 107.57 184.809 398.698
2852 0 63.109 13.3103 840 102.048 184.131 397.211
2853 0 64.1332 12.3025 789 105.767 184.12 395.834
2854 0 67.167 12.1488 816 106.265 184.108 395.466
2855 0 67.1108 12.2037 819 108.09 184.241 394.271
2856 0 70.2141 13.4446 944 106.651 184.492 391.805
2857 0 72.1578 12.9577 935 109.341 183.875 391.894
2858 0 73.099 13.0918 957 110.648 184.045 389.916
2859 0 77.2226 13.9985 1081 115.671 183.473 383.784
2860 0 82.2066 14.1838 1166 116.116 184.004 386.468
2861 0 84.2543 14.0171 1181 117.299 183.246 384.419
2862 0 86.3111 14.0654 1214 116.857 183.1 384.624
2863 0 90.2469 14.8149 1337 114.708 183.878 381.85
2864 0 90.2856 12.837 1159 112.758 183.904 383.507
2865 0 93.1408 12.873 1199 114.38 184.46 380.915
2866 0 100.218 13.6403 1367 111.542 183.658 379.52
2867 1 51.1573 11.6503 596 118.75 184.371 403.309
2868 0 53.0839 13.2809 705 110.719 185.081 403.092
2869 0 55.0943 13.123 723 111.62 184.757 400.712
2870 0 57.0483 13.4097 765 112.359 184.325 400.574
2871 0 56.1225 12.7756 717 116.58 184.3 399.558
2872 0 57.1024 12.2061 697 119.921 183.604 399.092
2873 0 62.0761 13.3546 829 115.045 184.033 398.47
2874 0 62.0609 11.7949 732 120.993 183.68 398.286
2875 0 63.1006 12.7257 803 119.884 184.341 396.334
2876 0 65.0977 12.2124 795 122.76 183.726 394.325
2877 0 69.0707 13.1025 905 120.365 184.48 393.518
2878 0 71.0952 13.1795 937 121.304 184.038 392.554
2879 0 73.088 13.6274 996 119.715 183.721 391.8
2880 0 76.0903 13.576 1033 120.035 184.117 389.742
2881 0 79.1373 13.8746 1098 120.688 183.665 388.954
2882 0 80.15 11.9401 957 127.094 183.502 385.886
2883 0 85.152 13.8341 1178 121.955 183.601 385.166
2884 0 89.1718 13.7824 1229 121.62 183.207 385.836
2885 1 47.0976 12.7607 601 124.86 184.206 404.782
2886 0 48.2808 12.303 594 128.662 183.367 402.729
2887 0 48.0528 13.6516 656 118.505 184.584 401.931
2888 0 50.0564 13.0453 653 119.381 184.98 402.476
2889 0 50.1097 11.9538 599 124.229 184.553 401.202
2890 0 52.0466 12.8539 669 121.854 184.384 400.324
2891 0 54.0372 12.3804 669 122.26 184.38 401.836
2892 0 54.0171 13.6623 738 120.797 184.404 399.569
2893 0 56.0273 13.2971 745 120.835 184.477 398.362
2894 0 58.0337 14.6811 852 117.566 184.15 398.886
2895 0 60.0448 13.823 830 119.093 184.023 397.78
2896 0 62.0588 14.4379 896 118.056 184.097 395.287
2897 0 64.0995 13.8067 885 118.72 183.496 394.714
2898 0 64.0864 12.9981 833 122.22 183.657 395.583
2899 0 66.0579 13.7001 905 120.552 183.345 393.608
2900 0 71.086 13.7861 980 119.611 183.361 391.42
2901 0 72.1232 14.1702 1022 120.851 184.464 390.478
2902 0 74.0477 13.6669 1012 122.586 184.284 389.875
2903 0 78.0699 15.1531 1183 115.229 183.97 387.066
2904 0 80.0868 16.1075 1290 112.553 184.406 387.597
2905 0 83.0704 15.2762 1269 114.268 184.079 385.886
2906 0 86.1419 13.8028 1189 123.843 184.593 382.612
2907 0 88.1522 13.2044 1164 125.78 183.931 382.023
2908 0 92.1104 15.0906 1390 120.882 183.617 379.75
2909 1 48.0385 11.0328 530 126.9 184.73 401.104
2910 0 50.0161 12.1361 607 126.02 184.361 398.972
2911 0 52.046 12.2776 639 124.379 184.473 400.155
2912 0 54.0383 13.2313 715 114.326 183.206 398.476
2913 0 55.042 12.2997 677 117.479 182.715 397.411
2914 0 55.1012 12.3591 681 118.634 183.066 397.204
2915 0 58.0591 12.9179 750 115.309 182.771 396.131
2916 0 59.1576 12.5935 745 116.431 182.27 396.752
2917 0 60.0732 13.1173 788 115.882 183.27 394.786
2918 0 63.0744 11.8749 749 117.861 183.208 393.929
2919 0 66.0867 13.4369 888 114.007 183.163 393.287
2920 0 67.0727 13.3586 896 115.432 182.95 391.443
2921 0 68.1141 12.1708 829 118.253 183.449 391.224
2922 0 72.0404 12.9094 930 116.871 183.161 389.241
2923 0 73.1018 12.2706 897 119.158 183.503 389.959
2924 0 75.0647 13.3751 1004 116.013 183.078 389.936
2925 0 80.0248 12.6836 1015 118.459 183.513 385.571
2926 0 82.0755 13.8775 1139 116.066 183.709 384.635
2927 0 83.1143 13.8484 1151 116.529 183.373 383.666
2928 0 86.1595 13.6375 1175 117.822 183.439 380.612
2929 0 89.1547 14.8955 1328 115.438 183.444 378.097
2930 0 92.1982 14.1217 1302 117.306 183.057 379.34
2931 0 93.1811 12.7708 1190 121.094 183.802 376.755
2932 0 93.1811 12.7172 1185 147.2 184.799 376.739
2933 0 100.133 11.6545 1167 122.317 183.344 377.834
2934 0 105.155 13.2281 1391 120.086 183.344 372.733
2935 0 106.221 13.3495 1418 155.075 184.334 372.271
2936 1 58.1082 13.1651 765 117.948 183.775 395.506
2937 0 56.1108 13.0991 735 121.603 182.912 393.725
2938 0 61.1169 13.7278 839 116.142 183.036 396.222
2939 0 62.1628 13.4164 834 119.008 183.526 394.313
2940 0 65.1257 13.6966 892 118.853 183.586 392.703
2941 0 66.1364 13.6536 903 119.054 184.058 392.92
2942 0 68.1561 14.7749 1007 117.086 183.64 391.622
2943 0 74.2024 13.827 1026 116.107 183.699 390.753
2944 0 74.2137 13.4746 1000 118.006 183.794 390.909
2945 0 76.2296 14.417 1099 116.552 183.06 387.767
2946 0 80.2185 14.7472 1183 114.002 184.027 386.77
2947 0 81.1637 13.7746 1118 116.821 184.215 386.942
2948 0 83.2037 14.3623 1195 116.196 184.072 385.863
2949 0 87.2314 13.5272 1180 117.429 184.223 384.12
2950 0 90.2418 14.5166 1310 117.029 184.458 381.908
2951 0 92.2086 14.0334 1294 119.294 184.02 381.001
2952 0 97.2215 14.6675 1426 119.003 183.335 377.864
2953 0 100.21 15.5772 1561 119.371 182.697 376.33
2954 0 102.256 14.2681 1459 123.023 182.936 377.061
2955 0 107.243 15.1897 1629 121.365 182.642 374.139
2956 1 58.1988 13.0243 758 123.348 182.995 398.323
2957 0 59.2288 14.1148 836 121.094 183.126 396.274
2958 0 60.1514 13.1501 791 124.173 182.646 396.954
2959 0 63.1738 13.6291 861 126.741 182.628 395.312
2960 0 66.1878 14.4588 957 123.811 182.361 393.699
2961 0 69.1428 14.7955 1023 122.816 182.972 391.959
2962 0 70.1414 14.3282 1005 124.607 182.607 391.42
2963 0 71.1951 15.8016 1125 122.038 182.916 389.28
2964 0 75.1708 14.5668 1095 124.258 182.543 389.258
2965 0 76.2942 15.0601 1149 125.732 182.774 387.884
2966 0 79.1342 14.1911 1123 126.931 182.82 386.433
2967 0 82.154 14.3267 1177 126.441 182.604 385.093
2968 0 84.1911 14.0633 1184 127.008 182.503 383.232
2969 0 88.1138 15.2757 1346 123.658 182.316 382.51
2970 0 91.1406 15.1305 1379 123.481 183.441 382.47
2971 0 92.3116 14.0394 1296 127.968 183.363 380.09
2972 0 97.3831 14.1195 1375 126.684 182.849 379.128
2973 0 101.197 13.5973 1376 126.553 183.073 380.605
2974 0 104.22 14.5749 1519 126.65 182.969 375.996
2975 1 54.2498 13.5853 737 126.657 182.754 398.159
2976 0 56.1249 14.2183 798 123.733 182.704 396.67
2977 0 58.1965 14.7947 861 122.575 182.595 398.035
2978 0 61.0773 13.6221 832 127.632 183.28 395.858
2979 0 63.06 12.8608 811 129.487 183.97 395.073
2980 0 63.1777 14.6887 928 126.772 182.96 394.18
2981 0 66.1398 13.6227 901 128.502 183.438 394.981
2982 0 69.0748 15.0706 1041 126.019 183.206 391.225
2983 0 72.2582 13.3134 962 130.828 182.984 391.283
2984 0 73.1493 14.2859 1045 129.412 182.858 389.269
2985 0 75.1485 15.0103 1128 128.319 182.846 387.686
2986 0 78.1741 14.7236 1151 128.151 183.348 386.737
2987 0 79.2187 13.6332 1080 132.443 182.556 385.769
2988 0 84.1507 14.89 1253 127.113 182.571 383.848
2989 0 87.3892 14.3496 1254 127.638 181.821 384.148
2990 0 88.2049 13.6614 1205 129.9 181.487 383.846
2991 0 93.1584 14.3412 1336 126.241 182.195 383.475
2992 0 96.2929 12.8878 1241 134.114 182.062 377.351
2993 0 101.298 14.3932 1458 129.643 182.064 376.582
2994 0 105.297 14.4069 1517 128.559 181.755 376.862
2995 1 56.2052 13.1305 738 123.713 181.371 401.084
2996 0 56.1304 12.756 716 127.775 180.874 398.82
2997 0 59.3027 13.4058 795 126.809 181.803 396.054
2998 0 60.1202 13.3898 805 129.01 181.87 394.092
2999 0 61.1502 12.5592 768 131.314 182.194 393.65
3000 0 63.2209 13.0337 824 128.479 181.813 395.053
3001 0 66.1942 13.3698 885 127.768 181.472 392.337
3002 0 66.09 13.0882 865 128.508 181.279 393.225
3003 0 69.1778 13.9351 964 127.984 181.276 389.663
3004 0 69.1701 13.9945 968 157.913 181.287 389.584
3005 0 72.1846 13.0914 945 132.261 181.389 386.167
3006 0 76.1599 14.4564 1101 126.766 181.443 386.617
3007 0 77.1187 13.3431 1029 130.456 181.328 386.492
3008 0 79.1466 13.3297 1055 130.2 181.078 384.7
3009 0 82.1598 14.2649 1172 127.164 180.91 383.036
3010 0 85.1999 14.6596 1249 123.402 181.311 384.926
3011 0 88.2574 15.6361 1380 121.858 181.349 382.271
3012 0 89.1188 14.5648 1298 126.489 181.662 379.937
3013 0 92.1154 14.3841 1325 126.53 181.736 378.121
3014 0 93.1161 13.3704 1245 129.847 181.345 377.116
3015 0 97.2384 13.4412 1307 122.026 182.669 374.024
3016 0 99.1925 13.7006 1359 123.934 182.773 369.811
3017 0 104.142 14.605 1521 122.477 182.777 368.655
3018 0 107.115 14.6665 1571 122.253 182.599 369.232
3019 1 60.2135 11.6585 702 119.714 182.224 392.821
3020 0 61.0801 11.9843 732 119.318 181.443 392.268
3021 0 60.0218 10.7961 648 124.043 181.008 390.918
3022 0 63.0865 11.7933 744 119.843 181.218 391.968
3023 0 66.1644 12.8619 851 118.609 181.041 389.566
3024 0 69.125 11.8481 819 121.181 181.193 388.308
3025 0 72.151 12.4738 900 118.229 180.959 389.189
3026 0 71.1258 12.3162 876 122.015 181.799 385.064
3027 0 73.2384 11.6879 856 123.738 181.838 385.13
3028 0 76.1469 11.7142 892 124.821 182.047 384.056
3029 0 77.0321 12.7739 984 122.52 182.3 384.167
3030 0 83.2301 12.3873 1031 122.009 182.085 383.173
3031 0 84.13 12.9205 1087 122.386 182.24 380.178
3032 0 85.3282 11.9538 1020 124.65 182.508 382.383
3033 0 88.2423 13.7689 1215 122.019 181.928 378.849
3034 0 92.153 12.7614 1176 123.429 181.921 379.454
3035 0 94.2266 13.4357 1266 120.486 182.919 378.546
3036 0 98.1576 12.7754 1254 123.468 182.422 378.272
3037 0 99.2226 13.374 1327 124.087 182.943 376.572
3038 0 102.222 13.1088 1340 122.9 182.452 378.933
3039 0 107.167 14.0995 1511 122.799 182.377 376.946
3040 0 108.159 13.1381 1421 126.079 182.894 374.903
3041 1 62.394 13.1102 818 116.735 182.507 400.081
3042 0 63.1782 13.9447 881 117.758 183.291 397.474
3043 0 65.2505 13.042 851 114.865 182.53 396.754
3044 0 63.2194 11.642 736 119.668 181.562 397.912
3045 0 68.1136 12.7728 870 116.044 182.253 394.426
3046 0 70.1591 12.2579 860 112.345 181.991 391.695
3047 0 73.12 12.9513 947 111.398 182.419 391.592
3048 0 77.1231 13.5368 1044 113.09 182.319 390.386
3049 0 75.121 13.1521 988 107.437 182.434 390.11
3050 0 74.1742 11.1899 830 114.727 182.196 390.764
3051 0 74.2788 13.3955 995 121.695 183.512 389.932
3052 0 76.1986 12.848 979 122.852 182.935 387.832
3053 0 79.2986 12.7367 1010 120.399 183.137 388.386
3054 0 82.271 13.0544 1074 116.73 183.074 389.518
3055 0 87.2263 13.0694 1140 115.127 182.895 386.315
3056 0 91.2659 14.2331 1299 109.999 183.494 383.53
3057 0 92.1612 12.9339 1192 111.435 183.9 382.781
3058 0 91.133 12.3885 1129 152.709 183.837 381.845
3059 0 98.3155 13.2939 1307 107.919 183.113 381.331
3060 1 52.111 10.7847 562 113.541 183.004 398.993
3061 0 56.1627 12.8377 721 105.429 182.767 398.761
3062 0 56.2027 13.4513 756 107.673 182.313 397.989
3063 0 59.1899 13.6679 809 111.467 182.68 396.434
3064 0 60.2977 12.9027 778 114.005 182.557 396.644
3065 0 62.0816 12.1614 755 116.396 182.119 395.547
3066 0 66.1331 14.1986 939 112.207 181.93 392.015
3067 0 65.3019 13.3381 871 116.234 181.908 391.505
3068 0 70.2743 13.9454 980 113.893 181.489 393.94
3069 0 70.1564 14.0971 989 117.658 181.908 388.887
3070 0 74.3596 14.6316 1088 115.729 181.811 389.628
3071 0 73.2585 14.1007 1033 119.215 182.026 390.562
3072 0 77.2813 12.9009 997 122.818 182.512 388.987
3073 0 78.335 15.3188 1200 118.392 182.655 387.268
3074 0 82.3384 14.5011 1194 121.583 182.58 385.181
3075 0 82.4508 12.2619 1011 128.409 182.027 387.133
3076 0 87.542 13.4335 1176 125.682 182.918 385.525
3077 0 88.278 13.3329 1177 126.452 182.709 384.372
3078 1 48.2899 10.934 528 129.303 183.32 401.254
3079 0 51.1406 12.4559 637 117.579 182.662 403.224
3080 0 53.1157 12.5763 668 120.513 184.388 400.35
3081 0 55.2766 14.1832 784 124.084 183.071 399.309
3082 0 56.1689 12.3022 691 130.185 182.535 399.275
3083 0 56.2211 13.1445 739 128.986 182.332 397.567
3084 0 57.2716 13.2526 759 130.058 182.473 396.864
3085 0 58.1599 13.5661 789 129.423 182.921 395.569
3086 0 60.1778 13.1942 794 130.141 182.81 394.499
3087 0 61.1946 12.7462 780 132.482 181.868 392.572
3088 0 65.1512 13.8447 902 128.152 182.043 392.346
3089 0 66.2079 13.6086 901 126.815 181.414 394.307
3090 0 67.1887 13.9607 938 126.099 182.747 389.383
3091 0 71.1358 13.1017 932 125.153 182.144 390.849
3092 0 74.1105 14.8697 1102 119.573 182.295 389.257
3093 0 75.1486 14.1054 1060 124.63 182.544 387.042
3094 0 79.102 13.6912 1083 118.966 182.199 387.956
3095 0 81.0755 14.098 1143 118.326 182.27 385.517
3096 0 82.1372 13.5505 1113 120.65 182.214 384.935
3097 0 85.1441 13.3891 1140 121.303 182.38 382.404
3098 0 86.0917 12.4402 1071 124.877 181.781 379.798
3099 0 93.0901 14.3732 1338 118.46 181.83 378.792
3100 0 94.1021 12.7415 1199 122.556 182.148 380.293
3101 0 100.204 14.1212 1415 126.806 182.069 375.221
3102 0 102.175 13.4476 1374 127.659 182.293 374.116
3103 1 54.0165 12.5517 678 121.202 181.919 398.534
3104 0 55.0827 13.3617 736 121.679 183.925 395.974
3105 0 57.091 13.6974 782 116.396 184.001 394.895
3106 0 58.1593 14.3743 836 118.958 183.773 394.877
3107 0 60.1814 13.6587 822 121.016 183.873 394.849
3108 0 61.1618 14.0774 861 119.738 183.577 394.254
3109 0 62.0763 14.305 888 120.011 183.319 392.232
3110 0 65.147 14.6745 956 118.51 183.224 392.134
3111 0 65.1184 14.1742 923 120.847 183.304 390.696
3112 0 67.1386 14.969 1005 118.67 183.382 389.536
3113 0 69.1522 13.0726 904 123.827 183.423 388.551
3114 0 72.153 14.7326 1063 119.427 183.299 386.785
3115 0 75.1005 13.0758 982 121.857 183.778 387.488
3116 0 78.1317 14.6931 1148 117.693 183.771 384.448
3117 0 78.0915 13.164 1028 116.304 184.451 384.369
3118 0 81.1608 13.7505 1116 114.624 184.253 383.35
3119 0 84.121 14.1106 1187 113.564 183.913 382.89
3120 0 87.068 13.1162 1142 114.792 184.114 383.412
3121 0 90.1105 13.3614 1204 114.618 184.417 382.163
3122 0 93.0723 14.247 1326 113.363 184.131 379.053
3123 1 50.0275 12.733 637 114.042 185.352 398.815
3124 0 53.0447 12.5177 664 112.953 185.741 399.071
3125 0 54.08 12.4075 671 111.656 185.621 398.985
3126 0 57.1689 14.8507 849 110.257 184.393 396.244
3127 0 56.1412 12.7001 713 116.532 184.135 396.628
3128 0 58.1603 13.2737 772 115.593 184.051 393.035
3129 0 60.1353 12.8211 771 114.709 184.118 396.665
3130 0 63.1165 13.7207 866 114.014 184.204 393.267
3131 0 64.1333 14.5166 931 112.404 183.408 392.377
3132 0 67.2062 13.4065 901 113.684 183.891 393.891
3133 0 67.1862 15.0775 1013 112.625 183.756 390.561
3134 0 70.1426 15.1121 1060 111.711 183.809 390.39
3135 0 73.1782 14.1436 1035 114.263 184.542 390.308
3136 0 75.2008 14.9998 1128 113.078 184.122 388.602
3137 0 77.188 14.1732 1094 114.433 184.218 389.597
3138 0 79.1147 13.5752 1074 117.289 183.781 386.463
3139 0 81.2415 14.6477 1190 115.582 184.091 384.401
3140 0 85.19 14.274 1216 115.935 183.737 386.042
3141 0 87.1029 14.6379 1275 116.419 184.019 381.513
3142 0 87.2084 13.3359 1163 120.399 184.001 382.508
3143 1 50.0678 11.9238 597 118.323 184.392 402.012
3144 0 48.0421 12.1768 585 120.75 185.219 401.448
3145 0 52.0764 12.6737 660 112.215 184.912 397.011
3146 0 51.0898 12.2334 625 116.734 184.675 397.274
3147 0 54.046 13.2295 715 112.99 184.526 396.747
3148 0 56.1464 13.7141 770 110.899 184.614 396.871
3149 0 56.1872 13.5796 763 112.817 183.51 396.055
3150 0 56.0674 12.1639 682 110.55 183.808 396.021
3151 0 59.1172 12.8727 761 108.938 183.946 395.993
3152 0 61.0857 13.6038 831 108.774 184.354 393.448
3153 0 62.1034 12.6563 786 112.128 184.144 391.889
3154 0 63.0863 12.5067 789 113.29 183.346 391.384
3155 0 68.0299 12.5827 856 111.019 183.667 393.249
3156 0 68.0829 12.0588 821 113.741 183.777 391.692
3157 0 71.1127 13.7669 979 110.739 183.718 389.921
3158 0 73.0841 12.5472 917 114.05 183.806 389.249
3159 0 75.0617 13.5888 1020 113.077 183.751 385.82
3160 0 77.1955 14.0941 1088 111.282 183.644 386.241
3161 0 79.0879 12.7327 1007 114.525 183.567 385.016
3162 0 83.103 13.5494 1126 117.964 182.764 387.567
3163 0 86.1144 14.4111 1241 116.118 183.144 385.84
3164 0 88.1017 14.4379 1272 116.85 183.446 383.69
3165 0 88.087 13.3958 1180 120.929 182.973 383.327
3166 0 93.0401 15.0258 1398 117.379 183.32 381.577
3167 0 95.1057 13.5533 1289 120.365 183.729 381.504
3168 0 96.1064 13.5579 1303 121.451 183.399 379.659
3169 0 101.16 14.7489 1492 117.977 182.888 379.103
3170 0 102.143 14.5286 1484 119.692 182.702 377.609
3171 0 109.161 15.2161 1661 116.251 183.062 375.765
3172 0 112.135 14.9196 1673 117.436 182.133 376.579
3173 0 114.072 15.1045 1723 118.177 182.281 371.813
3174 0 118.178 16.0437 1896 116.431 182.376 372.411
3175 0 122.238 16.3206 1995 115.716 182.019 369.837
3176 0 127.274 15.447 1966 117.556 182.231 369.219
3177 0 133.329 16.4255 2190 114.674 182.347 364.727
3178 0 136.138 16.1822 2203 116.558 182.906 361.009
3179 0 142.15 16.5952 2359 115.374 182.103 360.299
3180 0 146.232 16.3713 2394 118.437 182.498 353.209
3181 0 150.208 16.9964 2553 118.627 182.914 350.945
3182 0 157.231 16.975 2669 120.374 182.67 351.228
3183 0 162.249 15.3838 2496 121.048 182.679 346.856
3184 1 89.1378 14.3598 1280 116.73 183.005 384.455
3185 0 94.2064 14.9777 1411 120.561 183.475 379.314
3186 0 95.1941 15.1585 1443 121.04 182.956 381.775
3187 0 97.2548 14.7036 1430 115.04 182.734 376.794
3188 0 100.193 14.8514 1488 113.39 182.253 377.493
3189 0 103.084 14.1147 1455 116.055 182.573 377.282
3190 0 107.22 15.4355 1655 120.02 182.547 377.297
3191 0 110.109 14.3131 1576 122.582 182.898 375.701
3192 0 115.238 14.1099 1626 121.819 182.91 372.868
3193 0 118.223 13.8298 1635 122.383 183.42 369.977
3194 0 125.224 14.0069 1754 121.676 183.371 368.664
3195 1 69.2367 13.5188 936 112.063 182.574 394.704
3196 0 69.1165 14.2224 983 113.015 182.706 391.785
3197 0 72.0979 13.0517 941 114.981 182.746 392.744
3198 0 74.0778 13.9583 1034 113.885 182.686 390.51
3199 0 75.2435 12.3599 930 118.155 182.495 390.217
3200 0 80.256 14.0675 1129 114.183 182.886 387.416
3201 0 82.172 13.1067 1077 117.806 182.728 387.158
3202 0 86.1522 12.977 1118 116.843 182.797 384.982
3203 0 90.1109 13.1172 1182 116.451 182.803 381.593
3204 0 92.1494 12.8704 1186 117.056 182.7 381.574
3205 0 95.1612 14.4597 1376 114.761 182.806 380.701
3206 0 99.2471 14.7914 1468 114.837 182.725 378.747
3207 0 101.28 14.5143 1470 116.387 182.983 376.741
3208 1 54.1896 12.8069 694 117.363 183.213 400.618
3209 0 55.0767 13.6355 751 115.632 182.735 398.523
3210 0 55.1245 11.5557 637 122.761 183.642 400.419
3211 0 60.2223 13.2509 798 117.967 183.325 398.776
3212 0 61.0909 12.7679 780 117.447 183.092 400.027
3213 0 63.1327 13.5587 856 117.236 182.925 396.887
3214 0 65.173 14.239 928 114.845 182.363 396.448
3215 0 67.1063 13.5606 910 116.624 182.514 396.313
3216 0 71.1907 14.1592 1008 114.786 182.56 394.998
3217 0 70.1149 12.993 911 119.165 182.645 394.067
3218 0 74.1973 13.9493 1035 117.258 182.584 390.865
3219 0 76.2718 13.6617 1042 118.875 182.511 391.076
3220 0 77.1698 13.2306 1021 121.555 182.348 388.944
3221 0 82.1802 13.5556 1114 119.923 182.967 389.522
3222 0 83.2359 14.0204 1167 120.207 183.22 386.396
3223 0 87.1525 13.987 1219 120.556 183.043 384.736
3224 0 91.1153 14.2128 1295 117.348 181.903 384.86
3225 0 94.2329 14.9417 1408 116.133 181.978 382.14
3226 1 52.0555 13.3895 697 112.062 181.297 403.623
3227 0 53.1637 12.9223 687 112.921 182.007 400.812
3228 0 55.0749 13.5634 747 114.776 181.837 400.442
3229 0 57.1512 14.0155 801 110.75 181.764 399.712
3230 0 59.2422 13.2507 785 112.069 182.118 400.101
3231 0 60.1281 14.6687 882 110.909 182.135 398.43
3232 0 58.1035 12.6843 737 118.731 182.041 398.145
3233 0 62.2913 13.5171 842 115.148 182.012 396.129
3234 0 64.234 14.0891 905 115.028 181.914 395.021
3235 0 67.2819 14.4615 973 112.253 182.44 396.523
3236 0 68.2907 14.0283 958 113.116 182.303 395.121
3237 0 72.3557 14.5946 1056 111.066 182.35 393.438
3238 0 73.4332 14.1353 1038 112.894 182.256 391.933
3239 0 76.1754 13.5608 1033 112.768 182.594 392.705
3240 0 78.2269 12.6044 986 115.358 182.472 390.03
3241 0 83.3264 13.9572 1163 113.089 182.52 388.758
3242 0 86.2494 13.716 1183 114.983 181.989 386.465
3243 0 87.2016 12.9929 1133 119.772 181.646 383.931
3244 0 91.1488 13.3518 1217 120.911 181.991 381.844
3245 0 94.2129 13.6393 1285 120.571 182.262 381.581
3246 1 51.3171 12.0622 619 115.181 182.307 401.651
3247 0 52.2692 11.2877 590 116.292 182.664 401.998
3248 0 54.0887 11.9064 644 116.298 183.078 400.713
3249 0 57.1449 13.457 769 116.056 182.41 397.568
3250 0 57.2261 13.0884 749 115.722 181.907 398.071
3251 0 60.3419 13.3572 806 115.382 182.712 397.361
3252 0 62.1591 13.2402 823 116.468 182.798 395.651
3253 0 61.0653 12.4293 759 119.955 182.273 392.933
3254 0 65.2841 11.8559 774 119.31 182.982 393.46
3255 0 66.2611 12.5111 829 118.403 182.726 392.8
3256 0 68.2443 13.5396 924 117.36 182.182 390.382
3257 0 69.2029 11.1123 769 121.641 182.865 391.641
3258 0 73.2928 12.1704 892 119.351 182.065 389.795
3259 0 74.1995 12.2508 909 120.105 182.867 388.077
3260 0 79.2843 13.4579 1067 116.295 183.099 388.938
3261 0 82.362 12.2387 1008 118.47 182.293 389.36
3262 0 85.3233 12.6695 1081 118.463 182.833 387.179
3263 0 88.3055 13.0909 1156 116.779 182.812 387.343
3264 0 88.255 13.1551 1161 118.572 182.398 382.612
3265 0 92.3437 13.4389 1241 119.316 182.18 379.586
3266 0 96.252 13.1218 1263 119.636 182.219 378.614
3267 1 47.3766 12.3901 587 113.239 183.414 402.487
3268 0 49.1586 13.2225 650 109.735 182.465 402.332
3269 0 50.3077 12.3838 623 114.209 183.098 400.809
3270 0 52.1688 12.0378 628 116.68 183.272 398.847
3271 0 55.1277 13.3145 734 113.499 183.089 398.662
3272 0 56.2151 12.5233 704 114.984 183.562 398.426
3273 0 57.1939 12.4314 711 115.793 183.492 398.581
3274 0 60.2083 13.9017 837 112.467 182.964 397.477
3275 0 62.2289 12.5504 781 116.451 182.982 396.051
3276 0 63.1283 13.6231 860 115.928 183.085 393.678
3277 0 67.5236 13.151 888 117.044 183.162 393.972
3278 0 64.2711 11.7471 755 122.55 182.67 393.918
3279 0 69.5584 12.2343 851 121.19 182.73 392.209
3280 0 69.3653 13.0325 904 120.621 182.343 391.169
3281 0 72.4059 13.2724 961 120.564 182.82 388.621
3282 0 73.2991 13.67 1002 121.667 182.723 389.491
3283 0 77.2052 14.3773 1110 118.794 182.988 388.941
3284 0 79.3465 13.7246 1089 122.815 182.518 386.315
3285 0 80.2973 14.1599 1137 121.361 183.152 387.27
3286 0 85.3881 14.112 1205 120.739 182.894 386.754
3287 0 85.4311 14.1869 1212 122.064 182.814 385.804
3288 0 87.2289 14.2499 1243 123.578 182.385 383.242
3289 0 87.3902 12.5643 1098 127.477 182.944 382.768
3290 0 94.3571 15.0492 1420 121.291 183.461 377.314
3291 0 99.225 14.8249 1471 120.404 182.865 379.744
3292 0 100.287 14.3488 1439 124.31 183.262 375.821
3293 0 104.379 14.1887 1481 124.266 183.248 374.275
3294 0 109.465 14.4612 1583 122.839 182.786 373.922
3295 1 58.2584 11.7408 684 123.632 182.461 397.491
3296 0 61.2704 12.2735 752 127.177 183 394.174
3297 0 64.2268 13.8727 891 122.138 182.669 394.047
3298 0 66.1396 14.1216 934 120.166 182.623 392.904
3299 0 69.0956 14.4148 996 118.402 182.948 392.373
3300 0 70.2872 14.9672 1052 120.701 182.729 390.625
3301 0 74.121 13.9367 1033 126.243 183.43 389.505
3302 0 74.2711 12.966 963 131.269 183.434 386.756
3303 0 78.2597 14.2986 1119 127.382 183.241 385.756
3304 0 80.1517 14.0359 1125 129.218 183.401 384.676
3305 0 83.4093 13.8714 1157 129.608 183.957 384.256
3306 0 85.269 13.2287 1128 131.9 183.358 381.76
3307 0 91.3071 14.851 1356 126.94 183.206 381.153
3308 0 90.5239 12.969 1174 134.336 183.178 380.135
3309 0 94.4556 14.8641 1404 129.37 183.096 378.38
3310 0 97.3737 14.9527 1456 130.486 183.629 375.806
3311 0 101.649 14.7566 1500 130.657 183.547 373.935
3312 0 104.668 15.0094 1571 130.735 183.516 371.521
3313 0 107.614 15.0166 1616 131.304 183.581 368.864
3314 0 112.24 14.87 1669 128.611 183.986 363.865
3315 0 114.296 14.8737 1700 128.891 183.972 362.725
3316 0 116.376 13.1212 1527 134.834 183.67 360.055
3317 1 65.1365 11.1458 726 130.576 184.106 385.654
3318 0 67.0916 12.699 852 125.739 184.387 387.8
3319 0 69.1046 13.0671 903 125.26 184.111 387.03
3320 0 71.1091 12.9379 920 127.274 184.485 383.137
3321 0 73.0549 12.648 924 127.644 184.245 383.531
3322 0 75.087 12.7985 961 128.224 183.585 380.376
3323 0 76.0946 12.5764 957 131.072 184.378 378.288
3324 0 78.1379 11.6205 908 124.02 183.305 380.305
3325 0 82.0781 13.0729 1073 121.931 183.341 377.934
3326 0 84.1606 12.4286 1046 127.219 183.33 375.692
3327 0 89.1512 12.6975 1132 124.792 183.147 376.9
3328 0 90.2083 12.8591 1160 127.267 183.068 371.555
3329 0 93.1962 12.4898 1164 127.108 183.488 375.153
3330 0 96.2715 12.7868 1231 128.038 183.322 371.623
3331 0 99.1939 12.652 1255 128.037 183.461 369.986
3332 0 99.1793 12.3816 1228 130.221 183.414 369.599
3333 0 104.328 11.9623 1248 131.311 183.316 367.624
3334 0 109.245 13.3827 1462 127.621 183.666 364.796
3335 0 112.18 12.8633 1443 130.527 182.975 361.021
3336 1 67.1594 11.5099 773 126.035 183.313 387.961
3337 0 70.18 13.0949 919 129.69 183.118 388.461
3338 0 72.1946 13.7406 992 123.138 182.987 392.07
3339 0 71.0965 11.8149 840 130.74 182.42 391.317
3340 0 74.2178 11.8166 877 130.981 182.283 388.631
3341 0 76.1901 12.4819 951 128.741 181.988 387.21
3342 0 81.2892 13.2736 1079 125.936 181.905 387.135
3343 0 84.3263 13.2224 1115 125.674 182.382 385.082
3344 0 86.1928 13.3422 1150 125.45 182.478 382.963
3345 0 90.1964 12.9052 1164 126.181 182.302 382.379
3346 0 93.229 13.9871 1304 124.959 182.72 378.915
3347 0 97.3733 13.0939 1275 125.704 182.561 380.548
3348 0 98.3057 12.9087 1269 127.854 182.198 377.65
3349 0 103.17 12.7266 1313 128.203 181.807 374.761
3350 0 107.399 14.1901 1524 125.199 182.44 372.801
3351 1 57.1205 11.9222 681 123.36 183.307 397.545
3352 0 56.2017 11.9392 671 122.939 182.572 397.988
3353 0 58.1989 13.2133 769 125.479 182.728 393.737
3354 0 61.1359 12.3986 758 126.145 182.086 395.499
3355 0 65.0751 13.6304 887 121.052 182.312 396.016
3356 0 64.1038 12.2146 783 126.981 182.603 393.81
3357 0 65.0749 14.1068 918 122.208 182.544 391.381
3358 0 70.151 14.1409 992 119.025 182.183 393.402
3359 0 69.2361 13.1434 910 123.918 181.748 390.127
3360 0 72.267 14.5156 1049 119.755 181.714 389.53
3361 0 75.1334 13.9219 1046 121.093 182.378 390.141
3362 0 76.1063 14.2564 1085 122.11 181.957 386.68
3363 0 78.0917 13.9452 1089 122.785 181.883 386.434
3364 0 80.0961 13.7585 1102 124.32 182.152 385.271
3365 0 80.0933 13.0723 1047 127.656 182.178 383.42
3366 0 86.1095 14.1912 1222 122.084 181.979 385.256
3367 0 88.0697 15.2266 1341 121.203 181.953 381.428
3368 0 87.1088 13.707 1194 126.24 181.469 382.439
3369 0 93.1295 14.3886 1340 124.414 182.52 379.86
3370 0 94.0461 14.1845 1334 126.268 182.289 376.171
3371 0 97.1438 13.8249 1343 126.724 183.294 377.351
3372 0 100.175 13.3067 1333 128.049 183.438 376.736
3373 0 102.102 14.27 1457 128.139 183.68 372.915
3374 0 107.119 13.8445 1483 127.218 184.359 374.844
3375 0 110.179 16.21 1786 122.37 183.378 369.782
3376 0 111.218 14.4851 1611 127.045 183.778 370.445
3377 0 117.139 15.2212 1783 123.241 183.546 368.941
3378 0 121.189 17.0229 2063 118.061 183.622 366.397
3379 1 67.0738 12.285 824 124.814 183.309 389.158
3380 0 69.1377 12.8729 890 123.79 183.554 388.898
3381 0 72.1011 13.8694 1000 121.356 183.12 392.639
3382 0 74.1541 13.7147 1017 122.077 182.499 390.605
3383 0 77.1572 13.4919 1041 122.795 182.597 390.939
3384 0 77.1716 13.3469 1030 123.947 182.537 388.979
3385 0 80.1486 12.9884 1041 126.165 182.232 386.838
3386 0 83.1979 12.6566 1053 124.662 182.901 388.195
3387 0 87.1271 14.3583 1251 121.149 182.484 384.077
3388 0 88.1274 14.0365 1237 154.133 182.494 383.784
3389 0 94.2682 13.992 1319 121.685 182.605 381.085
3390 0 97.2503 14.7043 1430 120.348 182.492 379.835
3391 0 102.243 14.084 1440 119.665 182.444 378.094
3392 0 105.204 14.201 1494 120.103 182.324 377.53
3393 0 109.132 13.534 1477 121.638 182.406 376.942
3394 0 112.249 15.2429 1711 117.204 182.654 376.832
3395 0 112.249 13.6572 1533 125.419 182.573 374.59
3396 1 63.0558 12.6396 797 127.32 181.936 396.246
3397 0 67.1639 13.0278 875 119.169 182.811 396.28
3398 0 66.2026 11.9784 793 122.671 182.794 397.61
3399 0 67.1108 11.6673 783 124.757 183.069 396.714
3400 0 68.1292 11.6103 791 126.793 182.535 395.491
3401 0 73.0992 12.914 944 123.026 182.253 392.851
3402 0 77.1077 13.0597 1007 121.316 182.118 393.608
3403 0 80.2034 13.2413 1062 122.834 182.381 391.065
3404 0 83.1987 12.3319 1026 124.209 182.324 390.827
3405 0 83.1255 13.9909 1163 121.56 182.474 389.919
3406 0 87.1229 13.1997 1150 123.703 182.351 391.471
3407 0 90.1334 13.6021 1226 123.153 182.564 390.354
3408 0 91.1293 13.3217 1214 122.515 182.643 396.886
3409 0 95.1592 13.8295 1316 122.539 182.832 396.553
3410 0 98.1025 13.6184 1336 122.943 183.004 397.512
3411 0 101.246 13.3437 1351 123.354 182.761 396.766
3412 0 106.206 12.8147 1361 123.819 182.96 397.042
3413 0 111.173 13.3666 1486 121.783 183.023 395.794
3414 1 61.1685 13.471 824 120.658 182.09 413.839
3415 0 61.057 11.8742 725 125.574 182.305 412.41
3416 0 63.0399 13.1663 830 121.112 182.399 411.214
3417 0 65.0711 12.8014 833 119.174 182.828 415.104
3418 0 65.1197 12.2544 798 121.091 182.256 414.144
3419 0 67.1695 12.5503 843 120.732 182.96 412.146
3420 0 69.1421 11.9175 824 121.279 182.857 412.865
3421 0 72.0786 11.9453 861 121.261 182.583 412.662
3422 0 74.0974 11.9842 888 122.198 182.287 408.905
3423 0 77.0722 13.4938 1040 118.79 182.882 406.409
3424 0 79.2129 12.8893 1021 120.962 183.399 394.278
3425 0 81.1887 12.5756 1021 121.759 183.283 397.794
3426 0 83.0737 11.6764 970 124.48 182.525 403.663
3427 0 87.1322 13.1754 1148 120.63 182.912 403.956
3428 0 89.1714 13.3339 1189 118.297 182.955 382.96
3429 0 93.2034 12.6712 1181 119.107 182.13 382.756
3430 0 95.1746 13.0182 1239 118.247 182.663 378.157
3431 0 96.1406 12.6065 1212 120.134 182.887 379.405
3432 0 101.147 12.9415 1309 119.285 182.71 376.258
3433 0 104.222 12.3486 1287 121.29 182.053 376.103
3434 0 107.178 13.4729 1444 119.41 182.609 373.784
3435 0 107.145 11.8157 1266 124.22 182.681 372.862
3436 0 114.215 13.4571 1537 120.014 182.462 372.223
3437 0 119.321 14.4987 1730 126.196 182.029 366.146
3438 0 124.18 14.0039 1739 127.289 182.05 368.91
3439 0 127.215 14.731 1874 125.972 182.393 365.506
3440 0 132.263 16.2781 2153 122.465 183.233 360.68
3441 0 132.268 13.3744 1769 127.262 182.633 363.924
3442 0 137.319 14.2733 1960 128.083 182.323 357.724
3443 1 76.1406 12.9629 987 124.498 181.595 390.988
3444 0 78.1252 12.4416 972 126.544 181.05 391.828
3445 0 81.1306 14.6431 1188 122.851 181.726 389.013
3446 0 82.1387 13.5746 1115 120.493 182.312 387.024
3447 0 82.1576 12.1596 999 125.273 182.384 386.78
3448 0 86.1386 11.8414 1020 124.94 182.052 385.866
3449 0 92.1777 13.1811 1215 121.354 181.59 384.593
3450 0 94.1566 13.9555 1314 120.365 181.631 380.593
3451 0 96.151 13.3644 1285 122.962 182.026 380.336
3452 0 99.3321 13.7317 1364 123.189 182.196 379.235
3453 0 101.347 12.5706 1274 127.342 182.262 376.395
3454 0 106.197 12.684 1347 127.06 181.978 375.344
3455 0 109.309 13.9146 1521 129.204 183.051 373.469
3456 0 113.29 15.3764 1742 127.652 182.448 371.666
3457 0 118.148 15.8106 1868 122.034 182.762 364.104
3458 0 121.138 14.3473 1738 126.335 182.956 362.991
3459 1 67.1289 12.4388 835 124.22 183.45 386.175
3460 0 70.0695 12.2878 861 124.88 183.954 387.916
3461 0 70.094 11.5416 809 127.309 183.227 387.81
3462 0 73.1301 12.7034 929 126.248 183.223 386.065
3463 0 75.0722 11.9085 894 128.485 183.762 384.876
3464 0 79.1933 12.943 1025 125.537 182.779 382.744
3465 0 81.1199 12.8205 1040 126.27 182.32 382.077
3466 0 83.1661 13.5512 1127 125.465 182.322 379.817
3467 0 87.1776 12.9162 1126 123.165 181.756 380.349
3468 0 89.0735 12.5851 1121 125.708 181.401 378.269
3469 0 91.1813 13.2154 1205 126.296 181.816 376.62
3470 0 96.1446 13.6253 1310 122.76 182.044 376.708
3471 0 96.092 12.155 1168 125.211 181.702 377.214
3472 0 101.099 14.0654 1422 125.883 181.526 378.352
3473 0 103.129 14.128 1457 129.417 181.111 375.812
3474 0 105.092 13.2645 1394 130.827 181.252 375.147
3475 0 110.093 12.4077 1366 131.208 181.076 376.015
3476 1 61.0754 12.4764 762 128.041 181.238 399.327
3477 0 62.1198 13.3452 829 122.234 183.273 394.583
3478 0 62.0332 12.7351 790 132.832 183.622 392.309
3479 0 65.0526 14.0655 915 127.859 183.758 392.985
3480 0 67.0612 13.8828 931 128.11 183.992 393.139
3481 0 69.0905 14.2422 984 126.739 183.953 391.536
3482 0 69.0379 12.6163 871 133.008 183.869 389.979
3483 0 73.0496 13.703 1001 129.778 183.77 388.546
3484 0 75.0331 13.9538 1047 129.153 183.864 389.357
3485 0 76.0917 14.2985 1088 129.409 184.076 386.571
3486 0 77.1212 13.3426 1029 125.515 183.474 388.875
3487 0 80.1018 14.0322 1124 124.098 182.916 387.52
3488 0 83.0802 13.0717 1086 127.231 183.588 385.39
3489 0 87.1107 14.2692 1243 125.077 183.735 384.397
3490 0 87.0388 12.4312 1082 130.965 183.241 384.998
3491 0 91.1448 14.4715 1319 127.496 181.199 384.048
3492 0 93.0942 13.2876 1237 130.315 181.336 382.845
3493 0 96.0533 13.3155 1279 131.484 182.167 379.755
3494 0 101.098 14.4513 1461 127.614 182.453 377.514
3495 0 105.132 14.8956 1566 127.69 182.161 376.335
3496 0 109.138 14.697 1604 127.522 182.213 375.244
3497 1 60.0554 12.4385 747 132.756 181.738 397.317
3498 0 63.0258 13.3279 840 126.804 180.93 395.373
3499 0 66.0654 13.4261 887 120.766 180.993 396.56
3500 0 67.1186 12.977 871 123.156 181.488 395.473
3501 0 69.1237 13.0925 905 122.312 181.544 394.782
3502 0 72.1058 14.0765 1015 120.186 182.203 392.182
3503 0 74.1454 14.3097 1061 120.075 182.453 392.051
3504 0 75.1353 12.7903 961 124.547 182.623 392.776
3505 0 77.1596 13.2323 1021 124.502 182.381 390.523
3506 0 80.227 13.2125 1060 125.586 182.289 390.336
3507 0 81.1302 13.275 1077 126.795 182.597 387.482
3508 0 85.2029 13.861 1181 124.97 182.623 385.476
3509 0 89.2477 14.7455 1316 121.624 183.75 385.94
3510 0 91.2225 14.4701 1320 124.044 183.786 383.427
3511 0 96.1974 14.9068 1434 122.904 183.454 381.232
3512 0 97.3781 15.3936 1499 123.006 182.973 379.271
3513 0 100.311 15.0432 1509 125.83 182.812 376.962
3514 0 103.326 15.1269 1563 128.012 182.476 376.023
3515 0 108.274 14.0938 1526 130.176 182.144 373.221
3516 0 112.479 15.2118 1711 126.155 182.801 374.095
3517 0 114.4 15.2098 1740 130.179 182.754 370.878
3518 1 63.4164 12.6781 804 128.687 183.201 397.348
3519 0 64.3398 12.3407 794 132.945 182.873 395.495
3520 0 66.5246 13.2282 880 131.038 182.981 394.199
3521 0 67.3772 14.1294 952 123.579 182.842 392.842
3522 0 71.3771 13.898 992 123.532 182.545 390.501
3523 0 71.2814 13.5239 964 125.811 182.918 388.634
3524 0 76.4191 14.0672 1075 123.005 182.847 387.26
3525 0 77.3809 14.2671 1104 122.815 182.766 386.853
3526 0 79.1074 13.0961 1036 127.245 183.656 384.532
3527 0 81.1981 13.6456 1108 124.879 183.242 384.084
3528 0 85.1711 14.0423 1196 122.832 183.203 381.681
3529 0 87.2026 13.6349 1189 123.545 183.608 379.502
3530 0 89.3159 14.0288 1253 122.911 183.409 377.393
3531 0 92.0716 14.0217 1291 122.438 183.647 378.157
3532 0 95.184 14.6033 1390 121.771 183.268 373.076
3533 0 97.2155 14.2056 1381 122.988 183.012 373.345
3534 0 100.217 14.5185 1455 122.178 182.872 371.563
3535 0 105.226 14.274 1502 121.103 183.045 371.196
3536 0 107.212 13.3381 1430 123.543 183.531 370.255
3537 0 112.281 13.6978 1538 121.543 183.399 369.828
3538 0 117.241 14.0309 1645 120.01 183.593 367.126
3539 1 65.1485 12.9857 846 122.688 184.033 387.033
3540 0 68.3058 12.7368 870 124.117 182.939 384.021
3541 0 70.2329 13.5264 950 124.125 183.462 386.771
3542 0 72.1187 13.9076 1003 123.285 183.481 384.524
3543 0 75.0959 14.8477 1115 120.291 183.752 384.867
3544 0 78.2256 13.5889 1063 123.766 183.796 383.408
3545 0 80.1299 14.6138 1171 120.488 182.934 381.975
3546 0 80.208 13.5772 1089 125.722 184.016 381.237
3547 0 83.1856 12.8748 1071 128.695 183.536 380.541
3548 0 86.1939 13.2028 1138 127.025 183.308 381.269
3549 0 88.1596 13.7024 1208 128.316 183.27 378.009
3550 0 90.157 13.1216 1183 130.41 184.151 376.618
3551 0 96.2359 14.6307 1408 126.016 183.849 374.04
3552 0 97.186 14.6317 1422 127.918 183.456 371.78
3553 0 100.216 14.2094 1424 128.646 183.157 373.319
3554 0 104.195 14.9048 1553 127.683 183.558 367.822
3555 0 107.233 14.7902 1586 128.018 182.946 367.381
3556 0 111.216 14.0447 1562 130.01 183.753 367.313
3557 0 114.174 15.056 1719 128.624 183.183 364.344
3558 0 116.31 14.0229 1631 132.583 183.032 362.733
3559 0 120.276 15.3563 1847 129.061 183.636 359.884
3560 0 124.254 14.8567 1846 130.057 183.351 360.083
3561 0 129.263 15.9752 2065 127.319 183.093 356.721
3562 0 133.418 14.7506 1968 130.988 183.581 355.6
3563 0 138.267 14.9132 2062 131.674 183.839 351.546
3564 0 144.444 15.2377 2201 130.768 183.936 348.779
3565 0 150.63 15.9198 2398 129.501 183.922 346.408
3566 0 155.498 16.0131 2490 129.93 183.664 343.823
3567 0 159.296 15.1228 2409 132.349 183.36 339.954
3568 0 164.283 14.8768 2444 132.757 183.628 340.158
3569 0 170.608 14.8762 2538 132.329 183.662 336.853
3570 0 178.441 14.8677 2653 131.855 183.936 333.295
3571 1 98.3563 13.6544 1343 131.081 183.198 367.157
3572 0 102.397 14.1801 1452 133.868 183.498 371.382
3573 0 101.41 14.5646 1477 136.037 183.479 369.16
3574 0 106.361 14.6388 1557 133.469 183.424 367.657
3575 0 110.172 14.4229 1589 130.219 184.025 371.155
3576 0 112.237 13.3468 1498 133.373 183.475 369.28
3577 0 118.15 13.5844 1605 130.224 184.239 368.715
3578 0 122.415 14.0587 1721 128.972 183.178 367.972
3579 0 125.252 13.2533 1660 132.728 183.502 366.748
3580 0 128.226 14.6226 1875 129.93 183.57 360.171
3581 0 135.332 14.1356 1913 129.605 183.434 361.675
3582 0 138.559 14.2972 1981 130.85 183.433 357.286
3583 0 144.549 14.867 2149 128.92 183.987 356.08
3584 0 149.372 14.8556 2219 130.555 184.077 350.888
3585 0 154.465 15.4468 2386 128.538 183.528 350.78
3586 0 158.731 15.0758 2393 130.118 183.588 345.872
3587 0 162.402 13.8792 2254 134.523 183.48 343.034
3588 0 169.425 15.3224 2596 130.663 183.726 341.421
3589 0 175.346 15.1814 2662 131.582 183.68 338.949
3590 0 180.447 14.8188 2674 133.227 183.856 334.469
3591 0 185.373 14.6515 2716 134.658 184.018 333.258
3592 0 192.387 15.7235 3025 132.307 183.926 325.929
3593 0 198.427 16.0361 3182 131.558 183.71 324.542
3594 0 202.329 15.1288 3061 134.852 184.157 318.287
3595 0 209.492 18.2919 3832 123.434 183.66 313.915
3596 0 217.653 17.0823 3718 126.822 183.885 312.404
3597 0 224.442 16.2002 3636 128.372 183.82 305.49
3598 0 234.447 19.096 4477 119.111 183.706 306.361
3599 0 242.56 17.3235 4202 122.987 184.087 300.423
3600 1 57.2029 10.8561 621 108.794 184.868 397.193
3601 0 59.1536 12.3746 732 105.022 184.555 397.837
3602 0 61.2195 11.7773 721 108.879 183.366 395.709
3603 0 64.25 12.9183 830 105.933 183.417 395.006
3604 0 63.1171 11.2014 707 110.762 183.14 396.513
3605 0 65.1818 11.4449 746 110.973 183.087 395.601
3606 0 69.2674 12.4878 865 107.834 183.083 393.771
3607 0 71.1892 12.3333 878 108.837 183.63 377.491
3608 0 73.1868 11.7917 863 110.307 184.02 383.497
3609 0 74.2116 12.2757 911 108.42 184.016 392.589
3610 0 78.2314 13.1661 1030 116.538 183.061 378.914
3611 0 80.4027 11.8528 953 119.082 182.921 375.057
3612 0 81.1527 12.1376 985 119.975 183.673 384.009
3613 0 82.1335 12.7232 1045 112.217 183.217 384.684
3614 0 87.2134 13.186 1150 110.129 183.491 383.946
3615 0 88.1568 12.4664 1099 106.528 183.823 380.034
3616 0 88.1568 12.4551 1098 142.946 184.828 380.106
3617 0 94.3266 12.7324 1201 105.585 183.71 383.862
3618 0 98.1254 12.7592 1252 105.429 184.212 379.831
3619 0 98.2299 11.636 1143 108.535 184.027 378.908
3620 0 100.193 12.7554 1278 108.095 184.136 375.216
3621 0 103.22 12.8657 1328 109.119 184.187 371.941
3622 0 107.178 13.7995 1479 108.849 184.424 370.976
3623 0 111.144 13.9728 1553 109.092 184.068 370.259
3624 0 113.279 14.4687 1639 109.723 184.067 367.43
3625 0 117.135 13.5741 1590 111.571 183.797 367.406
3626 0 119.174 14.2816 1702 110.756 184.461 362.922
3627 0 121.189 13.7058 1661 113.182 184.918 364.375
3628 0 126.227 15.5117 1958 110.034 184.468 362.599
3629 0 128.208 14.5388 1864 112.573 185.276 359.747
3630 0 131.23 13.8688 1820 113.956 185.042 360.758
3631 0 134.159 13.7226 1841 116.181 184.94 359.015
3632 0 137.302 13.7143 1883 117.143 185.582 355.949
3633 0 144.213 14.8669 2144 113.991 185.671 352.63
3634 0 149.244 15.4311 2303 112.651 185.306 349.828
3635 0 154.226 15.7885 2435 111.707 184.655 345.844
3636 0 157.164 15.1307 2378 114.487 184.969 342.991
3637 0 163.387 14.5422 2376 114.621 185.348 338.766
3638 0 167.197 14.9883 2506 114.351 184.302 335.996
3639 0 173.336 14.7286 2553 115.537 183.601 334.206
3640 0 178.3 15.5076 2765 113.692 183.785 333.09
3641 0 185.339 15.6848 2907 112.616 183.854 332.485
3642 0 188.454 15.2079 2866 114.459 183.881 334.247
3643 1 207.422 24.8093 5146 88.323 184.159 301.03
3644 0 209.497 25.8524 5416 89.0198 184.179 310.825
3645 0 210.506 23.168 4877 96.0925 183.759 319.089
3646 0 211.365 18.8252 3979 106.52 183.253 316.375
3647 0 215.56 16.9558 3655 111.354 183.827 321.026
3648 0 224.541 18.4554 4144 107.336 183.36 318.687
3649 0 231.586 17.527 4059 109.965 183.286 314.407
3650 0 236.666 17.138 4056 109.76 183.213 309.21
3651 0 244.555 17.4726 4273 109.557 183.881 307.458
3652 0 251.603 17.4203 4383 109.302 183.68 302.841
3653 0 259.702 17.7704 4615 108.368 183.68 293.795
3654 0 268.543 19.9968 5370 102.684 184.064 293.377
3655 0 274.588 18.3402 5036 107.026 184.026 292.048
3656 0 279.438 16.3256 4562 113.49 183.8 287.852
3657 0 288.363 17.2144 4964 112.718 183.404 285.24
3658 0 295.373 17.1478 5065 113.455 183.787 285.781
3659 0 302.501 16.7669 5072 116.511 183.58 281.313
3660 0 310.938 19.7274 6134 110.633 183.742 271.708
3661 0 314.732 18.3966 5790 115.485 183.478 275.442
3662 0 317.581 15.9518 5066 126.551 183.395 267.653
3663 0 327.995 18.7838 6161 121.885 183.504 262.395
3664 0 335.001 18.0119 6034 126.374 183.276 255.872
3665 0 341.415 19.8937 6792 124.505 183.385 248.092
3666 0 346.2 17.9867 6227 128.656 183.954 252.754
3667 0 351.553 17.4085 6120 129.675 183.504 252.018
3668 0 356.277 18.713 6667 127.184 183.788 251.355
3670 0 351.283 17.8403 6267 134.778 183.943 245.25
3671 0 350.183 18.2105 6377 137.388 183.874 242.166
3672 0 352.146 21.4883 7567 128.773 183.718 243.256
3673 0 354.054 19.6326 6951 135.469 184.123 244.1
3674 0 323.372 20.2491 6548 137.111 184.709 225.811
3675 0 323.468 17.9059 5792 146.258 184.739 224.785
3676 0 326.78 17.3175 5659 148.462 184.595 226.178
3677 0 328.984 18.0434 5936 147.276 184.704 228.129
3678 0 333.339 18.8247 6275 145.782 184.359 229.358
3679 0 336.545 19.4149 6534 144.595 183.74 231.505
3680 0 339.823 21.42 7279 139.591 183.988 232.375
3681 0 339.518 19.1212 6492 147.328 183.881 232.463
3682 0 341.691 18.8299 6434 149.306 183.863 233.033
3683 0 342.756 20.5365 7039 144.976 183.409 233.53
3684 0 345.847 19.8006 6848 147.175 183.846 234.535
3685 0 344.873 18.4792 6373 152.946 183.296 232.69
3686 0 343.756 17.8848 6148 155.145 183.192 232.236
3687 0 347.996 20.6928 7201 146.015 183.483 233.937
3688 0 348.085 19.7969 6891 150.423 183.005 233.095
3689 0 348.377 20.917 7287 146.656 183.011 233.526
3690 0 348.178 21.1501 7364 146.762 183.195 233.309
3692 0 340.414 18.9329 6445 155.782 183.058 228.21
3693 0 331.927 19.9351 6617 154.009 183.022 222.555
3694 0 332.163 20.9054 6944 150.621 183.599 223.227
3695 0 331.35 18.5121 6134 158.168 183.921 222.728
3696 0 333.151 19.9699 6653 152.866 183.315 223.796
3697 0 335.62 20.3802 6840 152.404 183.781 224.679
3698 0 334.281 19.2114 6422 156.109 183.503 224.28
3699 0 335.064 19.5694 6557 155.55 183.459 225.326
3700 0 337.35 19.4931 6576 155.056 183.118 224.362
3701 0 339.057 19.8433 6728 153.022 183.138 225.56
3702 0 339.683 18.8264 6395 153.504 183.28 225.859
3703 0 338.063 18.4551 6239 155.001 183.564 225.143
