time division length width area intensity CMx CMy
1819 0 81.1506 11.0905 900 111.503 338.068 370.308
1820 0 87.0692 12.1972 1062 107.453 337.943 372.144
1821 0 86.1395 10.8777 937 111.022 338.349 367.693
1822 0 92.113 12.6692 1167 107.244 338.276 365.949
1823 0 95.1654 13.3557 1271 105.982 338.083 363.204
1824 0 97.2358 13.3593 1299 109.694 338.276 369.275
1825 0 97.2358 13.3284 1296 155.237 337.264 369.175
1826 0 97.229 13.3088 1294 154.866 336.264 369.1
1827 0 107.123 12.3129 1319 104.388 338.737 392.707
1828 1 56.1931 10.0724 566 100.189 338.367 429.576
1829 0 57.1676 9.20102 526 100.762 339.209 437.416
1830 0 59.2363 9.97698 591 99.6819 339.169 445.694
1831 0 60.1476 9.2273 555 99.9369 339.227 455.121
1832 0 65.2938 11.119 726 96.1694 338.31 453.067
1833 0 67.3436 10.6617 718 95.9095 338.918 453.538
1834 0 67.1812 10.241 688 100.44 337.522 385.148
1835 0 68.0918 11.1173 757 99.6235 337.375 382.313
1836 0 68.0739 10.3123 702 102.323 337.301 380.536
1837 0 73.1129 11.8857 869 99.8331 337.061 379.674
1838 0 76.1435 10.2963 784 105.21 336.776 381.543
1839 0 79.2168 11.5632 916 101.501 337.045 378.453
1840 0 82.0567 11.3336 930 105.497 336.256 379.596
1841 1 42.3439 9.56455 405 101.279 337.625 395.543
1842 0 42.3439 9.42285 399 135.474 337.566 395.484
1843 0 43.03 9.62119 414 103.174 336.123 397.915
1844 0 46.0307 10.4278 480 102.446 335.692 399.56
1845 0 45.0368 10.1917 459 104.109 335.845 393.852
1846 0 49.1113 9.50902 467 104.026 336.242 396.861
1847 0 49.0286 9.64743 473 104.59 336.478 392.478
1848 0 50.0475 9.35112 468 104.468 336.359 393.12
1849 0 50.044 11.2701 564 102.032 336.11 390.922
1850 0 54.0262 10.3098 557 102.487 336.519 390.952
1851 0 56.0171 11.0323 618 101.461 336.254 391.584
1852 0 55.0243 10.1955 561 105.62 335.811 388.098
1853 0 59.0207 10.4031 614 103.695 336.331 388.98
1854 0 57.0279 10.2055 582 105.77 336.151 387.436
1855 0 61.0582 11.1861 683 103.684 336.583 386.568
1856 0 63.0593 11.7191 739 102.705 336.586 384.947
1857 0 65.0645 10.8661 707 103.465 335.963 386.53
1858 0 68.2234 11.7262 800 103.339 335.775 383.806
1859 0 71.1042 11.1245 791 102.874 336.053 383.396
1860 0 70.081 10.7019 750 103.925 336.603 384.365
1861 0 76.1329 11.6507 887 101.618 336.992 386.671
1862 1 38.104 8.13563 310 97.7645 336.358 408.781
1863 0 44.0324 11.3099 498 91.255 337.602 396.882
1864 0 44.1124 10.5413 465 92.7591 337.596 395.987
1865 0 46.1464 10.12 467 94.7409 338.079 396.724
1866 0 46.1658 9.87744 456 96.1579 338.281 396.654
1867 0 50.0763 11.1829 560 93.1464 338.375 395.475
1868 0 52.0883 11.4421 596 92.7097 338.611 393.435
1869 0 53.1317 10.9351 581 102.034 339.002 395.069
1870 0 54.1028 10.1843 551 102.77 338.374 395
1871 0 54.12 10.5691 572 104.657 338.811 392.731
1872 0 56.097 10.9632 615 101.598 338.351 393.037
1873 0 56.1313 11.6156 652 100.971 338.975 394.123
1874 0 58.108 10.5665 614 101.813 338.627 391.235
1875 0 59.0443 10.4498 617 101.958 338.382 390.22
1876 0 63.0608 12.1946 769 98.1105 338.605 387.97
1877 0 65.1218 11.348 739 100.759 338.007 386.432
1878 0 65.0465 11.7301 763 100.875 337.988 386.702
1879 0 67.1005 10.7451 721 102.864 338.646 385.01
1880 0 66.0473 9.35692 618 106.694 338.118 380.989
1881 0 71.1715 12.1256 863 100.26 337.665 382.268
1882 0 72.1291 11.0219 795 102.025 338.092 386.511
1883 0 74.0918 9.78516 725 104.16 337.808 392.112
1884 0 79.1271 12.8022 1013 97.4521 337.277 400.316
1885 0 82.239 12.0138 988 99.0182 337.712 391.897
1886 0 83.2271 11.1622 929 101.367 338.057 377.35
1887 0 85.0765 11.378 968 101.471 337.898 376.199
1888 0 89.1252 11.3099 1008 101.526 338.145 373.451
1889 0 93.1722 12.0851 1126 101.089 337.909 370.317
1890 1 49.2604 9.90654 488 93.2828 337.691 394.969
1891 0 47.2051 11.3335 535 95.7009 338.043 393.809
1892 0 52.1356 11.7962 615 94.935 338.592 393.083
1893 0 53.0885 11.5468 613 95.9299 338.238 392.313
1894 0 53.1691 11.6609 620 97.3694 337.835 391.905
1895 0 53.1497 11.176 594 98.3502 337.418 394.638
1896 0 55.0903 11.3087 623 98.2648 338.474 390.547
1897 0 58.2486 9.27061 540 94.437 337.02 388.724
1898 0 58.0888 9.02067 524 95.7309 337.09 388.328
1899 0 60.2785 9.98698 602 94.294 337.282 387.998
1900 0 62.0826 9.71286 603 95.7479 337.201 384.038
1901 0 64.1875 11.7001 751 93.0772 336.719 385.648
1902 0 64.151 10.2882 660 96.2424 337.059 382.771
1903 0 69.1065 11.1712 772 93.6062 337.299 382.552
1904 0 71.1002 11.2095 797 93.6713 337.508 381.331
1905 0 74.1082 12.2658 909 92.1034 337.411 381.702
1906 0 76.0881 11.1187 846 93.7447 337.515 378.222
1907 0 78.1336 9.45816 739 96.4723 337.225 379.988
1908 0 81.151 10.3018 836 95.0993 337.679 378.992
1909 1 41.1282 11.0387 454 89.859 337.804 397.132
1910 0 42.0276 10.8976 458 100.227 338.662 392.127
1911 0 41.0433 9.69707 398 96.1834 337.877 395.543
1912 0 41.1038 9.95041 409 95.9071 337.787 396.306
1913 0 45.0756 10.0498 453 94.9338 338.152 395.951
1914 0 45.1465 10.0783 455 96.0593 337.409 394.844
1915 0 48.1305 11.0533 532 93.2688 337.209 396.438
1916 0 50.0217 10.7353 537 96.6704 337.438 393.957
1917 0 51.1814 11.4299 585 95.3179 337.244 393.41
1918 0 52.1076 10.0945 526 98.4772 337.236 391.591
1919 0 52.0254 11.5713 602 97.3023 337.221 390.07
1920 0 54.1078 11.8098 639 96 337.241 391.504
1921 0 57.1303 10.9224 624 97.5192 337.316 390.072
1922 0 59.1043 10.9129 645 98.3054 337.141 387.462
1923 0 59.1104 10.1674 601 101.309 337.092 386.075
1924 0 64.1616 12.2191 784 96.4821 337.346 386.448
1925 0 62.1624 10.5369 655 101.365 337.766 385.179
1926 0 66.0981 10.9232 722 99.8961 337.098 383.55
1927 0 69.1029 11.9966 829 97.2895 337.033 382.612
1928 0 71.1448 12.074 859 97.5041 336.85 382.208
1929 0 74.1016 12.1995 904 97.7765 337.696 380.804
1930 0 77.1655 12.3242 951 96.9937 337.874 381.554
1931 0 80.0944 11.7986 945 99.6455 337.597 377.531
1932 0 82.1021 12.1556 998 101.367 337.483 376.791
1933 0 84.1851 11.9023 1002 102.181 337.642 375.402
1934 0 88.1752 11.9535 1054 103.052 337.694 373.559
1935 0 93.2493 11.7749 1098 112.41 337.689 372.731
1936 0 95.1041 9.93648 945 113.379 337.911 380.352
1937 0 97.0917 10.2583 996 114.36 337.582 383.54
1938 1 48.0288 10.7019 514 101.858 338.29 389.549
1939 0 50.0773 9.84478 493 99.9554 337.152 391.544
1940 0 52.16 10.4678 546 106.266 337.264 391.095
1941 0 53.0931 11.6588 619 107.323 337.619 389.654
1942 0 54.1191 12.0106 650 106.32 337.489 390.149
1943 0 56.0693 10.594 594 104.133 337.022 388.527
1944 0 58.1147 10.4965 610 104.721 337.79 386.785
1945 0 60.0657 12.1201 728 100.003 337.859 384.795
1946 0 59.0692 9.68356 572 106.778 337.337 383.149
1947 0 63.0703 11.8281 746 102.882 337.958 382.918
1948 0 66.036 10.6154 701 105.709 337.522 382.796
1949 0 67.1371 11.5436 775 113.049 338.026 383.061
1950 0 69.1198 11.3426 784 113.344 337.79 385.513
1951 0 72.1061 12.1765 878 112.302 338.043 381.976
1952 0 73.2129 11.4734 840 116.9 338.313 379.281
1953 0 79.1782 12.554 994 113.477 338.773 377.949
1954 0 80.0793 11.4012 913 117.367 337.697 375.536
1955 0 83.1159 12.5367 1042 113.969 336.845 375.31
1956 0 83.1907 11.4676 954 118.678 336.944 373.321
1957 0 87.1626 11.794 1028 117.572 337.632 372.092
1958 0 92.2639 12.4209 1146 113.96 337.398 369.757
1959 1 50.1235 10.933 548 99.1606 338.02 394.057
1960 0 49.0741 10.2091 501 103.399 337.703 390.413
1961 0 53.0776 11.681 620 100.921 337.597 390.623
1962 0 53.0806 10.8703 577 101.96 337.804 389.92
1963 0 54.1255 11.7689 637 101.342 337.586 389.403
1964 0 56.1341 11.7932 662 101.202 337.384 388.065
1965 0 58.1266 11.0449 642 102.087 337.679 388.96
1966 0 59.1213 11.5525 683 101.679 337.476 387.9
1967 0 59.1212 12.1107 716 102.053 337.648 386.108
1968 0 61.0699 12.4939 763 102.376 337.866 383.471
1969 0 64.1522 12.2209 784 102.438 337.806 383.945
1970 0 67.0772 11.211 752 104.801 337.202 384.229
1971 0 68.1448 11.8718 809 103.805 337.575 382.319
1972 0 72.1087 12.606 909 101.297 337.286 381.494
1973 0 74.1017 12.0915 896 102.837 337.328 381.24
1974 0 74.1832 11.9434 886 104.381 337.648 378.298
1975 0 80.0692 12.3893 992 102.576 337.26 377.635
1976 0 81.0774 12.2846 996 105.067 337.221 376.882
1977 0 85.0787 12.4003 1055 105.345 337.365 372.932
1978 0 88.1011 12.5651 1107 105.737 337.301 371.808
1979 1 51.0716 10.6517 544 103.93 336.217 395.276
1980 0 54.1232 11.5662 626 100.104 336.725 392.372
1981 0 54.042 12.1202 655 112.876 335.658 392.046
1982 0 56.0455 11.116 623 114.711 335.384 390.756
1983 0 57.0214 10.7328 612 116.843 335.618 390.884
1984 0 58.0236 11.254 653 114.865 336.383 389.306
1985 0 60.076 11.4688 689 115.032 335.917 388.412
1986 0 62.0535 10.362 643 117.757 336.045 388.516
1987 0 64.0371 12.0087 769 112.99 335.506 389.133
1988 0 67.0906 11.7602 789 113.849 336.24 389.047
1989 0 70.066 12.4026 869 113.712 335.823 384.543
1990 0 71.0512 12.878 915 113.344 335.727 382.469
1991 0 73.0658 11.9208 871 115.135 336.323 382.063
1992 0 76.1109 12.6657 964 112.701 336.798 382.555
1993 0 78.073 13.577 1060 112.031 336.808 379.747
1994 0 80.0251 12.0587 965 115.501 336.579 379.287
1995 0 84.1232 11.9349 1004 115.251 336.785 379.048
1996 0 86.0413 11.6223 1000 117.373 337.099 376.452
1997 0 89.0318 11.6138 1034 118.303 336.853 373.509
1998 0 94.0751 12.7451 1199 114.269 336.425 377.044
1999 0 96.1324 12.2227 1175 113.74 336.694 385.101
2000 0 99.147 12.6781 1257 114.186 337.007 368.525
2001 1 53.0634 11.0246 585 101.725 336.723 393.874
2002 0 55.2058 11.7017 646 99.8901 337.113 393.008
2003 0 57.0905 10.7899 616 102.456 337.399 391.393
2004 0 58.0669 11.6418 676 102.084 337.556 388.081
2005 0 61.0412 11.1892 683 101.732 337.534 388.284
2006 0 62.0997 12.2867 763 100.071 337.805 388.263
2007 0 61.0562 11.4976 702 104.494 336.801 386.511
2008 0 64.0652 11.9254 764 102.097 336.83 387.541
2009 0 65.0424 11.8692 772 103.823 337.241 385.07
2010 0 68.0972 12.071 822 102.887 337.268 384.342
2011 0 72.0443 12.1592 876 101.876 337.317 384.882
2012 0 72.0638 12.5167 902 102.518 337.079 385.096
2013 0 75.1277 13.4571 1011 100.922 337.283 382.385
2014 0 77.1599 12.3899 956 104.823 337.717 378.162
2015 0 79.2278 12.1043 959 106.264 336.865 380.083
2016 0 82.333 12.996 1070 104.821 337.203 378.769
2017 0 86.1952 13.7015 1181 104.566 337.217 374.71
2018 0 88.2451 13.4058 1183 106.15 337.498 374.574
2019 0 92.2832 13.5128 1247 106.581 337.612 373.422
2020 0 93.1571 12.9029 1202 109.755 336.903 370.258
2021 0 96.1242 13.1288 1262 109.967 337.072 371.868
2022 1 49.0967 9.30817 457 115.195 336.827 392.827
2023 0 54.0994 11.294 611 114.226 337.115 392.992
2024 0 55.0854 12.7076 700 104.751 336.946 391.75
2025 0 56.0911 11.5348 647 107.284 336.645 389.175
2026 0 57.1264 12.3236 704 106.58 337.188 387.727
2027 0 58.0521 12.351 717 112.346 337.622 390.646
2028 0 60.1776 12.5628 756 113.115 337.656 394.139
2029 0 62.1948 12.284 764 113.902 337.733 401.241
2030 0 65.1593 13.7509 896 109.623 337.658 387.175
2031 0 66.097 11.8462 783 115.65 337.404 385.966
2032 0 68.2383 11.6797 797 117.772 337.985 383.05
2033 0 72.1353 11.8666 856 116.008 337.729 384.567
2034 0 72.1043 12.9535 934 115.97 337.246 383.458
2035 0 74.1949 11.8472 879 118.882 337.37 381.392
2036 0 77.1552 12.6758 978 118.396 337.753 381.253
2037 0 80.1975 12.4443 998 118.08 337.282 378.35
2038 0 82.1808 12.7889 1051 117.668 337.478 377.478
2039 0 85.0926 11.8342 1007 119.838 337.097 375.915
2040 0 89.1024 12.9738 1156 117.5 337.638 374.89
2041 0 92.2004 12.6789 1169 119.104 337.222 373.499
2042 0 92.3763 11.713 1082 122.824 337.44 371.649
2043 0 96.2074 12.4315 1196 120.194 337.406 369.82
2044 0 102.161 12.7642 1304 119.771 336.98 368.167
2045 1 55.0905 11.3087 623 109.872 336.929 392.62
2046 0 55.0702 11.4036 628 110.564 336.756 391.982
2047 0 60.0551 12.2887 738 112.438 337.294 390.817
2048 0 58.187 12.7004 739 110.765 337.413 390.759
2049 0 62.1632 11.2768 701 113.912 336.942 389.29
2050 0 62.1235 10.7689 669 116.65 336.883 387.411
2051 0 66.0906 11.5145 761 115.526 337.397 385.911
2052 0 69.0786 10.6256 734 117.414 337.057 385.124
2053 0 68.0469 11.5215 784 116.483 336.444 383.779
2054 0 72.0809 13.4432 969 112.947 337.809 382.375
2055 0 73.1439 10.6092 776 119.334 337.536 382.876
2056 0 77.0715 11.3271 873 117.981 336.9 381.288
2057 0 79.0777 12.317 974 115.966 337.338 379.72
2058 0 83.0914 12.5043 1039 115.369 337.191 377.991
2059 0 87.1508 13.4021 1168 112.876 337.166 375.086
2060 0 91.1025 12.6122 1149 114.399 337.145 373.443
2061 0 93.1432 12.6579 1179 114.576 336.676 372.18
2062 1 51.1199 10.27 525 109.493 336.408 395.343
2063 0 52.2299 11.0664 578 109.204 336.747 393.938
2064 0 54.1377 12.1542 658 108.027 336.898 396.12
2065 0 58.1478 13.2249 769 117.515 335.581 386.908
2066 0 58.2545 12.4625 726 124.865 336.348 387.226
2067 0 62.2772 13.9216 867 120.955 336.649 385.401
2068 0 63.217 13.9361 881 121.615 336.67 384.953
2069 0 65.1912 13.2687 865 122.872 335.732 385.447
2070 0 67.1173 13.9606 937 122.423 335.868 383.58
2071 0 71.1952 13.5824 967 122.103 336.364 381.839
2072 0 71.1395 13.0448 928 125.044 336.513 380.985
2073 0 74.0952 14.4409 1070 120.431 336.894 380.464
2074 0 75.2315 14.0633 1058 125.01 337.898 380.908
2075 0 77.1531 12.9742 1001 127.017 337.962 381.454
2076 0 80.2901 13.1772 1058 126.819 338.127 380.279
2077 0 83.2441 13.7067 1141 125.876 338.396 376.952
2078 0 85.2746 13.4155 1144 127.244 337.823 376.83
2079 0 88.3068 14.4496 1276 124.64 337.286 373.532
2080 0 92.5309 13.5198 1251 124.949 337.383 375.59
2081 0 95.2963 13.8096 1316 125.596 336.866 371.879
2082 0 98.6151 14.0648 1387 124.229 336.305 370.92
2083 0 102.351 13.9715 1430 120.587 335.355 371.113
2084 1 54.117 11.7338 635 123.409 335.825 392.028
2085 0 55.0963 12.941 713 119.9 335.539 389.612
2086 0 53.1398 12.1754 647 118.963 336.284 390.335
2087 0 58.1908 14.2806 831 112.647 337.105 389.586
2088 0 59.1841 14.1592 838 113.597 336.637 390.247
2089 0 59.3102 13.8762 823 116.665 336.559 387.503
2090 0 62.2677 12.7514 794 117.657 336.411 388.544
2091 0 63.1581 13.49 852 116.183 336.012 387.318
2092 0 66.2775 13.7302 910 114.934 336.438 385.685
2093 0 67.3246 12.4026 835 119.097 336.473 385.351
2094 0 66.3473 13.6856 908 118.078 336.096 382.229
2095 0 70.3181 13.1261 923 119.392 336.394 382.416
2096 0 73.4588 13.4497 988 118.354 336.487 380.336
2097 0 76.1807 13.1398 1001 118.606 336.705 380.992
2098 0 79.3268 13.6272 1081 118.401 336.818 377.918
2099 0 82.2674 13.5047 1111 117.683 336.478 379.191
2100 0 82.2448 12.8519 1057 121.656 336.242 375.302
2101 0 87.2088 13.6684 1192 119.15 335.793 376.812
2102 0 90.3161 14.7703 1334 117.655 335.792 373.516
2103 0 93.4475 14.4359 1349 119.841 336.692 372.514
2104 1 49.1455 10.4384 513 117.92 334.955 394.404
2105 0 51.1124 12.7758 653 114.135 335.051 394.42
2106 0 54.1562 12.3532 669 110.879 335.519 393.762
2107 0 54.3703 12.7459 693 112.433 335.355 391.999
2108 0 55.2962 12.424 687 113.61 335.879 391.045
2109 0 56.1164 12.8305 720 113.954 336.124 389.536
2110 0 59.1899 12.198 722 114.454 336.078 390.202
2111 0 61.1764 13.175 806 112.877 336.3 388.691
2112 0 62.2079 13.5996 846 111.939 336.331 388.073
2113 0 63.1246 12.1981 770 116.126 336.181 386.768
2114 0 67.1338 13.6593 917 111.468 335.736 385.764
2115 0 69.2301 13.2312 916 113.723 336.674 385.388
2116 0 70.1412 13.3303 935 113.965 336.723 383.369
2117 0 73.1471 13.3156 974 113.829 336.21 381.975
2118 0 76.1483 13.7626 1048 112.452 336.416 380.744
2119 0 78.2055 14.2573 1115 113.014 335.936 380.931
2120 0 81.1162 13.6841 1110 112.195 336.63 378.896
2121 0 83.134 13.3159 1107 114.016 336.213 376.301
2122 0 85.1574 12.7763 1088 116.364 336.491 375.153
2123 0 87.1685 13.124 1144 116.244 335.635 375.031
2124 0 90.1677 12.7984 1154 117.297 335.53 373.151
2125 0 94.2153 13.2675 1250 116.661 336.159 371.626
2126 0 98.147 13.8771 1362 120.929 335.038 371.09
2127 0 99.2001 13.4576 1335 123.435 334.606 368.54
2128 1 55.1073 10.9604 604 119.202 334.818 390.803
2129 0 57.2205 11.814 676 117.633 335.589 391.783
2130 0 58.1904 11.0843 645 120.457 335.177 388.735
2131 0 58.157 11.0047 640 120.438 334.916 389.534
2132 0 60.1804 13.0109 783 116.074 334.765 388.485
2133 0 64.1914 12.416 797 116.881 334.991 386.784
2134 0 64.2143 12.2091 784 118.247 334.931 383.913
2135 0 69.1269 14.0322 970 111.495 334.598 384.947
2136 0 69.1466 12.2638 848 117.271 334.713 384.054
2137 0 72.1426 13.0713 943 115.523 335.388 382.982
2138 0 76.1525 12.6851 966 115.547 335.156 382.311
2139 0 77.0972 13.3857 1032 115.846 335.059 379.784
2140 0 80.2676 12.8196 1029 116.431 335.725 380.668
2141 0 81.2765 11.4424 930 119.417 335.619 380.766
2142 0 86.1533 13.5224 1165 116.021 335.698 375.843
2143 0 88.2487 13.0314 1150 117.65 335.947 372.584
2144 0 93.191 14.1215 1316 114.71 335.788 371.878
2145 1 50.1372 12.2663 615 117.891 334.377 393.013
2146 0 51.0656 11.6321 594 119.747 334.224 391.611
2147 0 49.0853 11.2661 553 114.448 335.278 394.192
2148 0 49.1374 10.2976 506 118.032 337.18 390.31
2149 0 50.112 10.5763 530 119.751 336.498 388.781
2150 0 55.1048 12.8483 708 112.035 336.624 390.09
2151 0 57.1047 12.696 725 112.901 336.364 389.259
2152 0 58.1373 11.1804 650 116.652 336.66 388.223
2153 0 59.0846 12.7614 754 114.83 336.692 385.861
2154 0 63.1347 12.212 771 115.8 336.573 386.171
2155 0 63.0402 11.8179 745 118.372 336.785 384.646
2156 0 65.0929 11.9522 778 116.945 336.671 387.104
2157 0 67.0619 12.6301 847 116.606 335.505 381.45
2158 0 67.0846 11.5526 775 119.991 335.6 381.406
2159 0 70.1106 11.7243 822 116.94 335.79 382.399
2160 0 75.0438 11.7132 879 116.166 336.027 380.041
2161 0 76.1112 11.6409 886 116.188 336.479 378.172
2162 0 76.0978 11.1041 845 119.666 336.398 376.392
2163 0 80.2763 10.713 860 118.702 335.519 376.405
2164 0 84.1319 11.1135 935 117.325 336.986 375.691
2165 1 41.0286 10.3099 423 106.348 335.969 394.946
2166 0 44.1703 9.73505 430 105.24 336.572 393.337
2167 0 45.1432 11.0316 498 112.5 337.478 391.211
2168 0 47.0731 12.0876 569 110.207 337.471 391.562
2169 0 49.1845 12.4633 613 109.064 335.347 394.791
2170 0 50.2746 12.8295 645 108.507 335.375 395.797
2171 0 52.1783 14.2013 741 105.692 334.95 390.57
2172 0 54.1035 12.5315 678 108.889 334.835 391.705
2173 0 56.1815 12.8512 722 108.842 334.83 389.738
2174 0 56.13 13.3975 752 107.541 334.831 390.211
2175 0 58.0989 13.1672 765 110.239 334.72 386.924
2176 0 58.1453 13.0363 758 111.12 334.484 388.314
2177 0 63.0495 13.2277 834 111.199 334.976 385.61
2178 0 65.0709 12.6324 822 113.232 334.401 385.45
2179 0 66.0967 13.6921 905 112.152 334.744 383.722
2180 0 69.1077 13.1534 909 113.875 335.339 383.736
2181 0 70.1128 14.0345 984 113.301 335.352 381.161
2182 0 73.1214 12.91 944 115.515 334.676 382.475
2183 0 74.1279 12.9371 959 117.06 334.972 381.804
2184 0 78.0763 13.6149 1063 116.626 335.176 378.057
2185 0 81.0837 14.3309 1162 117.609 334.947 377.123
2186 0 84.057 14.3474 1206 118.023 334.895 377.81
2187 1 48.0286 11.5764 556 116.79 335.21 395.156
2188 0 48.2485 12.7258 614 118.524 336.078 391.311
2189 0 47.095 11.7847 555 114.919 335.371 393.798
2190 0 49.1512 12.0445 592 114.515 335.797 398.882
2191 0 48.1227 11.159 537 117.423 335.708 403.054
2192 0 51.0524 11.7526 600 115.685 335.573 404.56
2193 0 53.1247 12.1412 645 114.636 336.287 392.177
2194 0 56.1571 11.824 664 114.568 336.036 392.524
2195 0 56.2541 12.088 680 114.416 336.206 391.879
2196 0 56.0717 11.949 670 116.36 336.696 389.612
2197 0 60.2339 12.2854 740 114.545 336.504 388.743
2198 0 60.1077 11.9619 719 115.729 335.809 389.416
2199 0 63.102 12.979 819 113.601 336.027 386.674
2200 0 65.1868 11.7969 769 116.882 337.1 387.22
2201 0 66.1469 12.699 840 116.406 336.43 382.869
2202 0 69.1207 11.8054 816 117.928 336.576 384.593
2203 0 70.1757 11.8417 831 116.1 336.028 385.554
2204 0 73.1522 12.4398 910 115.82 337.052 382.34
2205 0 76.1183 11.9419 909 119.055 336.178 380.19
2206 0 79.1178 12.8163 1014 117.789 336.384 378.894
2207 0 79.077 12.6712 1002 123.057 336.173 376.451
2208 0 84.2064 13.9063 1171 118.576 336.021 375.801
2209 0 86.2011 12.9349 1115 122.881 335.691 373.228
2210 0 89.1693 12.5267 1117 123.49 335.452 373.41
2211 1 44.0728 11.2768 497 115.954 334.982 394.101
2212 0 45.0296 10.593 477 117.956 335.457 393.268
2213 0 48.0325 10.3472 497 117.763 335.209 396.36
2214 0 48.0348 10.3259 496 118.175 335.31 395.403
2215 0 52.0478 12.0274 626 105.393 335.433 390.351
2216 0 54.0734 12.8714 696 103.761 335.549 391.559
2217 0 53.106 12.1267 644 108.325 335.531 389.002
2218 0 55.0288 11.9029 655 108.864 335.545 389.922
2219 0 56.115 12.4744 700 109.293 335.433 387.911
2220 0 59.1133 11.5033 680 112.434 335.621 387.591
2221 0 61.0989 12.5698 768 110.451 335.956 387.255
2222 0 61.0293 11.9287 728 118.518 335.199 386.563
2223 0 63.0246 11.5828 730 119.641 335.637 384.595
2224 0 65.074 11.4639 746 119.708 335.578 383.449
2225 0 69.1001 11.5485 798 118.426 335.685 382.739
2226 0 72.08 12.3335 889 116.342 335.571 382.42
2227 0 73.1157 11.4066 834 117.27 335.318 381.151
2228 0 77.1086 12.4629 961 113.283 335.146 378.615
2229 0 78.1239 12.0194 939 120.327 336.173 381.129
2230 0 78.125 11.968 935 121.722 334.835 379.252
2231 0 81.119 12.907 1047 116.393 335.674 376.463
2232 0 84.1074 11.9847 1008 118.704 335.687 374.938
2233 0 86.0757 11.85 1020 118.747 335.979 373.134
2234 0 88.1087 12.1441 1070 116.342 336.064 374.395
2235 0 92.2298 12.4363 1147 115.582 336.335 372.715
2236 0 94.1395 12.0991 1139 117.186 336.225 372.994
2237 0 98.1341 12.8192 1258 116.334 336.361 367.128
2238 0 100.067 11.2125 1122 118.487 336.004 368.012
2239 0 104.093 12.7962 1332 114.622 336.013 365.608
2240 1 56.091 11.0356 619 107.223 335.323 388.982
2241 0 59.053 12.5311 740 104.397 336.151 388.804
2242 0 63.1776 13.5333 855 111.236 336.598 386.048
2243 0 64.1515 13.7487 882 117.59 336.247 383.452
2244 0 64.1377 12.7694 819 121.305 336.664 383.429
2245 0 67.1374 13.5692 911 119.183 336.548 382.533
2246 0 69.1404 12.9447 895 120.599 336.698 382.647
2247 0 70.0688 12.9302 906 123.653 334.553 381.603
2248 0 73.0639 11.9895 876 117.457 335.36 383.006
2249 0 75.0632 12.8825 967 114.026 335.163 379.942
2250 0 77.0857 11.7402 905 115.968 335.452 382.277
2251 0 78.1471 11.5807 905 119.039 335.396 379.357
2252 0 80.1301 11.8682 951 119.55 335.499 377.485
2253 0 85.1242 11.5243 981 119.883 335.008 377.19
2254 0 86.1516 12.42 1070 118.57 335.404 375.083
2255 0 89.222 12.7883 1141 117.661 334.868 372.718
2256 0 91.1214 11.6548 1062 121.102 335.274 372.876
2257 0 95.0893 11.8625 1128 120.657 334.921 373.714
2258 1 52.0356 9.66645 503 111.638 334.946 402.266
2259 0 54.106 11.0154 596 116.463 336.364 392.171
2260 0 55.0965 10.1095 557 119.115 336.162 396.165
2261 0 58.0656 11.4526 665 114.567 335.666 394.589
2262 0 60.1267 11.8583 713 113.676 335.635 397.055
2263 0 60.1739 10.7522 647 118.657 336.13 396.104
2264 0 64.0936 12.4505 798 116.373 335.375 393.327
2265 0 66.1374 12.6252 835 115.168 335.335 395.025
2266 0 66.1369 11.9449 790 117.216 335.104 395.732
2267 0 70.2207 12.2186 858 117.225 334.55 393.436
2268 0 70.0778 11.8582 831 119.123 333.842 392.643
2269 0 74.0904 11.9584 886 118.661 333.758 394.139
2270 0 75.105 11.8101 887 120.282 332.902 392.834
2271 0 76.2144 11.8875 906 121.842 333.113 390.969
2272 0 80.1675 12.2993 986 120.595 332.477 388.146
2273 0 84.2296 12.2641 1033 118.988 332.893 389.089
2274 0 84.2783 12.1384 1023 119.666 332.911 389.66
2275 0 89.3318 11.7539 1050 118.973 332.075 385.471
2276 0 92.2144 12.6228 1164 116.8 331.795 384.018
2277 0 94.1107 13.346 1256 117.044 332.365 381.165
2278 0 96.1429 12.3254 1185 120.392 331.877 380.954
2279 1 52.0797 10.5415 549 113.237 330.636 402.765
2280 0 53.037 11.4826 609 112.987 330.905 398.596
2281 0 55.1375 11.4804 633 107.755 331.373 400.464
2282 0 58.1272 11.0963 645 108.181 330.964 401.56
2283 0 58.0664 11.7624 683 108.306 331.269 401.594
2284 0 59.1472 11.9025 704 109.885 331.411 397.876
2285 0 61.0682 11.9702 731 110.161 331.409 397.456
2286 0 64.1055 12.3546 792 108.946 331.47 395.568
2287 0 64.1192 12.5391 804 109.1 331.281 395.776
2288 0 65.0713 11.3875 741 112.804 331.121 394.401
2289 0 70.2329 12.6721 890 108.838 330.19 395.311
2290 0 74.1288 10.846 804 111.197 330.443 395.384
2291 0 76.1123 12.4684 949 108.208 331.122 393.742
2292 0 77.1338 12.4589 961 108.428 330.621 393.764
2293 0 79.154 12.0146 951 109.948 330.116 392.295
2294 0 83.2071 12.4148 1033 109.449 330.67 389.255
2295 0 83.2071 12.4749 1038 144.561 331.672 389.304
2296 0 89.1859 11.9862 1069 111.023 330.951 389.339
2297 1 45.1089 10.9291 493 104.408 330.136 410.531
2298 0 46.1434 10.4457 482 108.834 329.633 410.624
2299 0 49.135 11.8653 583 107.069 329.66 409.448
2300 0 49.0541 11.1713 548 108.666 329.473 407.323
2301 0 52.1819 12.3414 644 105.854 329.762 404.638
2302 0 53.141 11.6859 621 108.308 329.369 405.42
2303 0 54.1285 11.2325 608 110.954 329.217 405.209
2304 0 54.1502 11.7266 635 111.786 329.208 403.885
2305 0 59.1164 13.7187 811 106.573 329.464 401.841
2306 0 60.1902 12.4107 747 110.552 329.344 402.6
2307 0 62.1465 12.9694 806 109.073 329.239 402.921
2308 0 64.2014 13.2863 853 109.088 329.265 400.94
2309 0 66.1017 13.2674 877 109.941 328.708 398.95
2310 0 69.1412 13.6966 947 109.208 328.414 397.164
2311 0 73.1145 13.1985 965 109.789 328.539 397.493
2312 0 75.1571 13.9441 1048 108.523 328.196 395.277
2313 0 78.124 13.2354 1034 110.399 328.825 394.975
2314 0 79.201 14.4443 1144 108.049 329.158 395.685
2315 0 82.1532 13.9982 1150 109.796 328.852 397.563
2316 0 85.2363 12.5299 1068 112.391 329.19 402.132
2317 0 88.1983 12.041 1062 112.033 329.233 408.496
2318 0 92.1911 13.2334 1220 110.942 329.225 386.431
2319 0 95.2005 12.752 1214 111.554 329.194 386.845
2320 0 98.275 13.6047 1337 111.378 329.387 384.286
2321 1 49.1639 11.2481 553 104.848 329.998 412.882
2322 0 49.1267 11.7655 578 102.178 330.554 414.341
2323 0 51.1103 11.1524 570 104.63 330.779 417.061
2324 0 54.0481 11.1567 603 106.202 331.771 405.451
2325 0 55.1126 10.3606 571 109.587 331.394 403.49
2326 0 57.0725 11.8621 677 106.598 331.335 402.372
2327 0 57.1417 12.2328 699 107.197 331.275 402.678
2328 0 60.054 12.0558 724 108.564 331.106 398.416
2329 0 61.0594 11.9064 727 108.949 331.171 399.49
2330 0 61.0524 11.7604 718 111.063 330.961 397.852
2331 0 65.061 12.2501 797 108.705 330.893 397.959
2332 0 64.1408 11.9425 766 112.316 331.108 395.021
2333 0 70.057 12.0188 842 108.95 330.742 395.405
2334 0 71.0807 12.7601 907 108.077 330.926 394.494
2335 0 73.1031 12.1062 885 109.936 330.696 398.534
2336 0 74.161 12.0818 896 110.509 330.662 404.427
2337 0 77.0494 11.7327 904 111.147 331.116 409.006
2338 0 80.0694 12.2893 984 108.364 330.742 411.217
2339 0 84.1364 12.2777 1033 107.932 330.663 409.139
2340 0 84.162 11.4422 963 111.973 330.723 412.963
2341 0 88.139 12.7185 1121 110.879 330.869 382.254
2342 0 91.0577 12.7392 1160 111.276 331.047 384.378
2343 0 92.1473 11.677 1076 112.784 330.893 394.391
2344 0 94.1397 10.8562 1022 115.068 331.297 397.197
2345 0 99.0933 11.4034 1130 114.912 331.317 396.573
2346 0 103.098 12.6578 1305 114.305 331.707 373.907
2347 0 108.158 13.4155 1451 114.045 331.234 368.12
2348 1 58.2576 11.5521 673 119.196 331.391 393.909
2349 0 58.1776 11.568 673 109.254 331.902 391.431
2350 0 60.0325 11.777 707 108.508 331.508 392.955
2351 0 63.1036 11.3623 717 108.594 332.505 391.6
2352 0 65.1689 11.8768 774 109.778 332.335 388.769
2353 0 67.1285 11.6195 780 111.785 332.104 387.132
2354 0 69.1132 11.9369 825 110.655 332.739 387.457
2355 0 72.1386 12.4898 901 111.297 332.041 385.402
2356 0 75.1035 12.596 946 111.077 332.148 384.253
2357 0 76.0665 12.4365 946 114.077 332.693 381.235
2358 0 79.0814 13.8844 1098 113.992 331.727 380.044
2359 0 83.196 14.4358 1201 119.407 332.828 381.002
2360 0 83.113 13.6441 1134 117.907 332.906 379.608
2361 0 86.0781 13.1857 1135 120.922 332.196 376.336
2362 0 90.1263 15.2231 1372 115.802 333.149 374.857
2363 0 92.1487 15.1386 1395 116.252 332.958 376.33
2364 0 95.1188 13.7407 1307 120.184 333.122 371.306
2365 1 52.0274 10.7636 560 116.652 333.561 394.9
2366 0 52.086 10.6746 556 111.888 333.878 392.95
2367 0 55.1195 11.8288 652 107.486 334.097 393.607
2368 0 57.1086 13.1329 750 103.281 334.217 391.788
2369 0 58.0531 11.7134 680 108.554 334.359 390.422
2370 0 59.077 11.7982 697 109.175 334.073 391.646
2371 0 62.0921 13.1901 819 104.587 334.348 390.816
2372 0 62.2169 11.2028 697 109.637 334.638 391.35
2373 0 64.0728 11.4245 732 109.23 334.572 390.362
2374 0 67.0983 12.3699 830 106.64 333.89 389.58
2375 0 66.0568 12.0502 796 109.824 334.041 385.74
2376 0 69.1523 11.641 805 111.325 334.239 385.135
2377 0 71.0589 12.3137 875 111.141 333.763 384.392
2378 0 73.1517 11.5923 848 112.501 334.167 384.875
2379 0 77.0476 13.5241 1042 108.283 334.714 385.206
2380 0 78.1145 12.7249 994 110.885 334.949 381.199
2381 0 80.1753 11.874 952 112.862 334.798 381.64
2382 0 83.1363 12.4855 1038 110.75 334.691 380.925
2383 0 85.0618 12.9788 1104 111.706 334.883 376.983
2384 0 87.1738 13.02 1135 112.274 334.452 376.289
2385 0 89.2047 12.2079 1089 115.032 334.924 375.799
2386 0 92.1928 13.8189 1274 113.463 334.445 373.027
2387 0 95.1972 14.4227 1373 113.675 335.552 370.369
2388 0 98.1636 13.8952 1364 115.076 334.798 371.461
2389 0 101.239 14.0854 1426 115.871 334.588 370.001
2390 0 105.252 13.4344 1414 114.455 334.636 368.127
2391 1 56.0812 10.5383 591 108.347 335.078 392.201
2392 0 59.0886 11.2035 662 105.325 334.181 390.949
2393 0 61.122 12.3196 753 103.785 334.722 389.807
2394 0 61.1779 11.9488 731 105.3 334.116 390.964
2395 0 62.2687 11.6431 725 106.406 334.495 388.75
2396 0 66.1394 11.9294 789 106.101 334.542 388.567
2397 0 70.1049 12.4385 872 105.034 334.28 387.21
2398 0 71.1772 12.209 869 106.253 334.514 386.299
2399 0 73.1178 11.543 844 108.062 334.889 383.78
2400 0 76.1735 12.6291 962 106.519 334.164 383.4
2401 0 76.0796 12.0663 918 107.504 334.286 382.367
2402 0 81.1567 12.2726 996 107.006 334.846 381.491
2403 0 83.1386 12.0883 1005 108.487 334.933 377.378
2404 0 88.1321 13.355 1177 103.631 334.46 376.589
2405 0 90.188 13.3055 1200 106.188 334.215 373.235
2406 0 93.2052 13.2396 1234 109.501 333.735 373.006
2407 1 49.1015 11.2624 553 107.347 334.602 396.729
2408 0 53.0869 12.7904 679 106.256 334.496 394.031
2409 0 52.0609 11.3905 593 104.546 335.612 393.771
2410 0 54.0555 12.4502 673 102.47 335.963 392.893
2411 0 56.0839 12.0355 675 103.273 336.203 391.947
2412 0 54.0351 11.9737 647 106.204 335.734 389.709
2413 0 59.052 13.8691 819 101.457 334.617 390.322
2414 0 61.0901 13.0299 796 111.335 335.443 389.976
2415 0 62.0734 12.1147 752 113.497 334.721 389.461
2416 0 63.0892 12.6646 799 114.528 333.83 386.582
2417 0 65.0699 13.4471 875 112.831 333.722 385.152
2418 0 68.1552 12.5155 853 113.86 334.392 385.259
2419 0 71.2502 13.2491 944 111.466 334.609 385.038
2420 0 73.1568 13.9153 1018 110.288 334.925 383.098
2421 0 75.1304 12.8177 963 113.437 334.669 382.599
2422 0 79.2598 12.9448 1026 112.275 335.026 379.518
2423 0 83.3213 14.138 1178 104.703 334.822 378.534
2424 0 86.3205 11.5731 999 113.406 335.139 377.264
2425 0 90.3367 12.4091 1121 111.004 334.759 375.873
2426 0 94.3623 13.3634 1261 107.873 334.546 375.794
2427 1 50.1031 13.4522 674 101.774 335.093 395.766
2428 0 50.1832 12.9924 652 112.495 335.429 396.155
2429 0 51.1919 14.2405 729 110.224 335.627 395.841
2430 0 52.0925 13.0729 681 114.336 335.242 393.872
2431 0 54.1335 13.0234 705 113.261 335.479 391.406
2432 0 56.1504 12.5021 702 113.682 335.618 392.967
2433 0 58.0489 13.0752 759 111.734 335.057 391.938
2434 0 60.0754 14.0823 846 108.248 334.515 390.54
2435 0 62.0506 14.5526 903 104.007 334.93 389.52
2436 0 66.1147 15.5034 1025 101.041 335.138 389.397
2437 0 66.1714 14.2207 941 105.033 335.456 388.899
2438 0 67.1673 14.784 993 105.831 335.081 386.777
2439 0 71.1323 15.183 1080 104.182 335.344 387.391
2440 0 70.1073 14.5634 1021 108.053 335.382 385.656
2441 0 76.1099 15.1623 1154 105.368 335.733 383.745
2442 0 78.1051 14.8006 1156 106.781 335.731 382.827
2443 0 83.1294 15.6744 1303 103.342 335.528 383.459
2444 0 84.2067 14.7732 1244 107.25 336.047 380.576
2445 0 86.0546 14.8278 1276 108.588 335.641 380.281
2446 0 92.1336 14.3813 1325 109.339 335.85 378.955
2447 1 48.0221 13.8686 666 114.372 335.916 395.706
2448 0 50.0465 14.3467 718 111.451 334.99 395.791
2449 0 52.1303 15.116 788 109.966 335.669 395.194
2450 0 53.0994 13.9926 743 113.377 336.044 392.9
2451 0 55.0428 16.0057 881 107.688 336.386 393.471
2452 0 56.1315 14.662 823 111.721 336.075 393.678
2453 0 58.1243 15.0711 876 110.854 336.293 391.076
2454 0 60.0554 15.8853 954 109.619 336.316 391.383
2455 0 61.0699 15.2776 933 111.636 336.185 389.358
2456 0 64.089 15.8218 1014 109.671 336.694 390.983
2457 0 63.046 14.8939 939 114.764 336.331 389.051
2458 0 67.0853 14.176 951 115.455 335.815 390.647
2459 0 68.0486 14.4309 982 116.66 334.544 388.394
2460 0 72.1619 15.2574 1101 114.569 334.858 386.726
2461 0 74.1501 14.8617 1102 115.425 334.928 385.505
2462 0 77.1639 14.5794 1125 116.464 334.78 384.969
2463 0 79.1797 14.6502 1160 117.216 335.367 383.838
2464 0 83.1957 14.6282 1217 116.624 335.542 382.058
2465 0 85.2847 15.1727 1294 116.27 335.45 379.664
2466 1 46.1845 13.9441 644 117.025 334.845 396.564
2467 0 47.1082 14.1164 665 114.714 335.206 396.164
2468 0 48.0681 13.9802 672 114.616 335.689 396.01
2469 0 51.0257 14.4045 735 113.501 335.512 395.974
2470 0 53.0645 15.3398 814 111.646 336.068 395.098
2471 0 55.1423 14.0727 776 115.42 335.871 393.776
2472 0 56.0723 14.1246 792 111.965 335.816 395.548
2473 0 57.0507 14.3031 816 113.734 336.412 393.05
2474 0 59.144 14.676 868 113.244 336.176 391.724
2475 0 61.0708 14.5241 887 114.423 335.637 391.194
2476 0 65.1132 14.3903 937 113.646 336.157 390.698
2477 0 66.1357 14.9541 989 113.567 336.484 388.363
2478 0 66.0946 13.2235 874 118.741 336.04 388.399
2479 0 68.0606 13.8406 942 116.785 336.186 387.976
2480 0 72.1064 13.2027 952 116.984 335.859 386.779
2481 0 74.0538 13.2336 980 117.591 335.977 384.319
2482 0 77.1182 12.9152 996 116.718 335.689 384.932
2483 0 81.047 14.0289 1137 114.201 335.643 381.196
2484 0 84.0872 13.4979 1135 114.033 335.223 382.75
2485 1 44.0342 11.0369 486 119.329 336.381 399.366
2486 0 45.0766 12.3124 555 119.117 336.596 398.438
2487 0 48.1728 13.6176 656 115.145 335.948 396.666
2488 0 50.0781 15.2961 766 107.735 336.312 394.987
2489 0 50.1261 14.3039 717 111.583 336.227 397.244
2490 0 50.0306 12.7722 639 117.203 335.795 395.905
2491 0 56.1974 14.1466 795 110.636 335.911 392.791
2492 0 56.1491 14.4437 811 112.238 336.462 391.915
2493 0 60.2667 13.6394 822 112.955 336.498 393.091
2494 0 59.1617 13.218 782 116.409 336.249 392.207
2495 0 60.2454 14.3248 863 115.911 336.344 389.452
2496 0 64.2506 13.9609 897 116.002 335.968 390.125
2497 0 67.1286 13.7944 926 116.677 336.259 388.712
2498 0 69.139 14.6082 1010 116.182 335.935 388.174
2499 0 70.1165 13.6202 955 120.684 336.702 385.23
2500 0 76.1725 14.3096 1090 117.934 336.763 384.206
2501 0 80.131 13.6526 1094 119.938 336.292 382.226
2502 0 82.1359 14.1351 1161 120.391 336.485 379.833
2503 0 84.2103 14.2857 1203 121.344 335.69 378.654
2504 0 88.1914 14.3098 1262 120.842 335.478 376.143
2505 0 91.1462 14.0982 1285 122.016 335.865 375.636
2506 0 93.2213 13.5484 1263 124.923 335.713 373.602
2507 0 98.1151 14.7276 1445 121.213 335.129 371.313
2508 0 102.113 13.9943 1429 123.395 335.126 371.21
2509 1 53.1183 13.6111 723 121.537 335.459 396.447
2510 0 56.0672 12.9131 724 124.109 335.365 391.054
2511 0 58.1196 13.0937 761 122.222 335.74 392.703
2512 0 57.1077 11.9949 685 129.229 335.606 389.622
2513 0 60.122 12.6909 763 127.607 335.591 394.826
2514 0 64.0652 12.9868 832 124.137 336.304 401.712
2515 0 65.1175 12.8537 837 128.429 336.385 387.09
2516 0 70.1049 13.6367 956 126.799 336.179 383.991
2517 0 72.076 13.569 978 127.326 336.258 382.138
2518 0 74.1427 13.3931 993 128.578 336.458 382.151
2519 0 74.1636 12.9309 959 132.674 336.397 380.484
2520 0 79.1993 13.99 1108 128.832 336.04 379.43
2521 0 82.2779 13.3693 1100 131.216 335.885 378.297
2522 0 84.2506 13.5785 1144 131.846 336.705 376.4
2523 0 88.2611 14.4004 1271 127.9 336.508 374.584
2524 0 91.2179 13.6048 1241 131.045 336.587 372.981
2525 0 93.3304 14.5397 1357 128.47 336.657 372.199
2526 0 97.2421 14.2736 1388 131.657 336.542 367.127
2527 0 102.438 13.6766 1401 131.828 337.061 366.392
2528 0 105.376 14.7472 1554 129.093 336.853 365.839
2529 0 109.327 12.9519 1416 135.52 336.792 362.258
2530 0 112.168 14.2198 1595 131.173 337.133 361.804
2531 1 62.1682 11.1954 696 133.556 337.256 386.378
2532 0 65.2608 12.6416 825 129.202 337.76 383.135
2533 0 67.1964 12.1286 815 132.923 337.442 380.794
2534 0 71.1298 13.2153 940 131.676 336.898 382.526
2535 0 72.2764 13.144 950 131.088 337.327 382.555
2536 0 73.239 12.5343 918 135.607 337.273 379.074
2537 0 76.2299 13.7085 1045 132.721 337.397 376.32
2538 0 81.179 13.7843 1119 126.577 336.784 376.635
2539 0 82.1784 13.2273 1087 127.266 336.686 376.751
2540 0 86.161 13.0337 1123 126.297 336.394 374.885
2541 0 87.2304 14.0433 1225 124.391 336.696 371.456
2542 0 90.3167 13.0762 1181 126.051 336.804 368.848
2543 0 93.2681 14.3029 1334 121.69 336.77 370.891
2544 0 96.2278 12.5639 1209 126.938 336.342 370.306
2545 0 100.314 12.6902 1273 126.321 336.716 366.71
2546 0 102.249 12.4794 1276 128.27 337.604 366.518
2547 0 107.249 13.6971 1469 124.154 337.746 365.21
2548 0 112.249 13.9065 1561 123.183 337.837 363.076
2549 1 60.0452 10.109 607 126.832 338.064 385.563
2550 0 63.0339 11.4066 719 121.103 338.476 387.26
2551 0 66.1456 11.3235 749 122.9 338.044 382.846
2552 0 65.1386 12.0973 788 122.605 336.443 380.881
2553 0 68.1335 12.8865 878 118.263 336.298 382.86
2554 0 71.2819 12.0507 859 120.191 336.858 381.953
2555 0 73.2391 12.7527 934 118.809 336.69 380.143
2556 0 75.112 12.0753 907 121.166 337.023 378.146
2557 0 77.1496 11.7823 909 122.077 336.514 376.956
2558 0 81.168 13.5521 1100 117.447 337.095 374.627
2559 0 81.3141 12.0151 977 122.675 336.968 376.456
2560 0 85.4216 12.8422 1097 121.183 336.605 370.668
2561 0 87.4559 12.9094 1129 121.037 336.989 369.395
2562 0 90.2613 13.4498 1214 118.535 337.251 370.625
2563 0 93.3724 12.7661 1192 121.661 336.636 367.905
2564 0 96.2836 13.4706 1297 118.621 336.537 376.017
2565 0 98.1813 11.876 1166 120.623 336.461 386.298
2566 0 101.417 13.0254 1321 121.278 336.761 361.181
2567 0 106.347 13.061 1389 119.277 336.239 359.441
2568 0 108.547 12.437 1350 119.081 336.465 359.858
2569 1 61.1575 11.1188 680 112.949 336.566 382.94
2570 0 62.2111 10.4804 652 113.331 338.023 382.845
2571 0 65.2516 12.015 784 108.29 337.76 381.67
2572 0 64.2305 10.5246 676 114.22 338.183 380.141
2573 0 68.2122 11.3909 777 111.982 338.158 376.885
2574 0 69.2344 10.7172 742 114.236 338.691 377.181
2575 0 72.5231 12.6994 921 109.33 338.194 376.873
2576 0 74.4271 10.2382 762 113.638 338.343 372.373
2577 0 78.2345 10.7242 839 112.267 338.926 373.895
2578 0 78.3709 11.4073 894 111.757 338.177 372.63
2579 0 81.0962 10.6047 860 108.034 338.479 372.447
2580 0 85.1827 11.4929 979 107.462 338.52 370.4
2581 0 90.2731 11.7422 1060 106.192 338.372 372.922
2582 0 90.165 11.0021 992 113.706 338.723 365.719
2583 0 94.1578 11.9055 1121 110.869 339.015 367.285
2584 1 44.0591 8.82905 389 107.879 339.072 389.231
2585 0 49.099 8.94112 439 105.125 337.877 391.818
2586 0 49.2399 10.4387 514 107.545 338.387 388.805
2587 0 50.1409 11.0887 556 105.558 337.903 393.671
2588 0 51.148 9.77555 500 110.19 337.928 401.158
2589 0 53.1443 10.0669 535 110.036 337.789 398.213
2590 0 55.1198 10.6132 585 110.374 338.561 386.959
2591 0 59.221 11.5837 686 105.211 338.226 387.413
2592 0 57.2259 11.5682 662 109.42 338.151 385.159
2593 0 61.1497 11.758 719 100.551 337.414 386.691
2594 0 60.1752 10.9181 657 103.781 337.209 385.116
2595 0 62.1819 11.7719 732 101.802 337.434 385.325
2596 0 65.1875 11.1371 726 103.096 337.566 384.38
2597 0 67.2427 11.7782 792 101.657 337.672 382.712
2598 0 69.2267 11.8163 818 102.289 337.205 380.864
2599 0 71.1756 11.6473 829 103.111 337.092 379.116
2600 0 74.2228 11.7619 873 104.231 337.482 380.946
2601 0 77.1944 12.0864 933 103.879 337.442 377.409
2602 0 76.4247 10.7949 825 108.815 337.405 377.496
2603 0 81.2582 11.125 904 107.676 337.54 374.874
2604 1 42.1131 9.75943 411 112.898 338.078 392.389
2605 0 45.1209 10.7267 484 113.271 338.252 393.161
2606 0 47.1346 11.1807 527 113.347 335.803 391.584
2607 0 46.0612 11.2893 520 114.188 335.667 396.119
2608 0 46.0461 9.99 460 104.987 336.73 407.537
2609 0 48.1126 10.8288 521 103.589 337.115 414.104
2610 0 53.1476 10.5743 562 101.731 337.231 391.066
2611 0 54.0695 11.9661 647 99.8501 337.759 390.216
2612 0 55.0336 11.8655 653 99.4977 338.07 389.81
2613 0 57.1736 10.162 581 103.269 338.021 389.64
2614 0 59.132 11.8379 700 99.3843 337.539 389.4
2615 0 59.1488 11.4964 680 102.174 337.866 387.003
2616 0 61.1743 11.9658 732 100.948 337.732 388.314
2617 0 63.2176 11.6898 739 107.016 337.434 386.616
2618 0 65.1558 11.9866 781 103.681 338.145 385.973
2619 0 67.1527 11.6898 785 104.079 338.011 386.032
2620 0 68.0993 12.6874 864 103.682 337.664 384.134
2621 0 72.1529 13.7486 992 102.606 336.712 383.775
2622 0 73.0812 12.0688 882 107.636 337.129 381.226
2623 0 77.0846 11.7793 908 107.879 337.452 382.432
2624 0 79.1195 13.1826 1043 104.939 337.208 383.078
2625 0 81.075 11.5202 934 108.055 336.747 380.879
2626 1 44.063 12.0509 531 106.885 336.868 396.776
2627 0 47.0417 13.2648 624 102.934 336.462 395.675
2628 0 46.0511 10.8141 498 99.99 335.809 398.606
2629 0 49.038 11.0934 544 100.963 335.869 394.653
2630 0 49.1266 11.4602 563 102.027 335.689 393.496
2631 0 52.0822 10.8098 563 101.252 335.673 394.131
2632 0 52.1237 11.7797 614 100.997 335.409 392.806
2633 0 55.0231 12.104 666 99.8213 336.251 391.321
2634 0 56.1191 11.6894 656 100.322 335.595 391.389
2635 0 60.0646 12.0038 721 98.8211 335.667 391.811
2636 0 57.0537 11.3051 645 102.795 335.338 389.412
2637 0 62.1294 12.4579 774 98.845 335.678 390.208
2638 0 63.1323 12.1332 766 101.333 335.48 387.512
2639 0 64.1413 11.537 740 102.428 335.568 388.736
2640 0 66.1889 12.2226 809 102.655 335.088 386.418
2641 0 69.1766 13.8775 960 98.9677 335.294 385.534
2642 0 72.2826 12.5618 908 101.797 334.721 385.047
2643 0 74.1019 12.2399 907 104.029 335.153 384.176
2644 0 78.2106 13.5404 1059 101.712 335.128 380.812
2645 0 79.103 11.3902 901 107.777 335.046 380.173
2646 0 82.1187 12.4819 1025 105.746 333.958 378.978
2647 1 46.1642 10.7442 496 101.472 334.109 394.633
2648 0 49.2498 13.4823 664 103.667 334.666 394.036
2649 0 50.0891 12.3181 617 109.301 335.235 392.136
2650 0 51.1036 11.9952 613 111.162 335.439 392.228
2651 0 55.0435 13.0806 720 108.311 335.464 391.035
2652 0 54.166 13.2371 717 109.745 334.745 390.37
2653 0 57.1347 13.4069 766 109.342 335.371 389.094
2654 0 58.0999 14.3546 834 107.285 335.577 390.21
2655 0 58.0804 13.5502 787 111.968 334.798 387.813
2656 0 58.0804 13.6363 792 156.574 333.797 387.75
2657 0 63.0818 13.2209 834 111.851 335.061 388.74
2658 0 65.2096 14.277 931 110.754 335.229 384.261
2659 0 68.1461 13.8673 945 110.945 335.171 384.781
2660 0 67.1117 15.1985 1020 110.169 335.562 384.844
2661 0 71.194 14.3551 1022 111.256 335.291 383.124
2662 0 72.1773 13.7716 994 113.935 334.773 381.052
2663 0 77.1363 14.6624 1131 109.637 334.966 381.383
2664 0 78.1367 14.2699 1115 112.458 335.261 379.389
2665 0 79.1321 12.9278 1023 112.058 334.848 378.32
2666 0 83.3674 12.9547 1080 106.714 334.147 375.994
2667 0 87.1818 13.4776 1175 107.091 334.195 376.401
2668 0 90.1134 13.5607 1222 107.861 333.701 372.664
2669 0 90.1134 13.6051 1226 150.317 332.687 372.763
2670 1 53.1549 13.1691 700 101.174 333.726 394.3
2671 0 53.3483 12.8964 688 101.453 334.042 394.839
2672 0 56.2261 11.8806 668 103.888 334.43 393.599
2673 0 58.0625 12.1249 704 107.736 333.55 393.928
2674 0 58.0941 11.9634 695 109.593 334.495 392.984
2675 0 62.0847 12.2897 763 107.522 333.879 390.98
2676 0 62.0873 13.5938 844 106.411 334.137 389.264
2677 0 62.2181 12.8098 797 109.679 333.955 388.977
2678 0 67.2637 13.0234 876 107.821 333.489 387.614
2679 0 68.2605 12.4962 853 109.898 334.188 385.747
2680 0 71.1737 12.9683 923 109.134 333.841 385.811
2681 0 74.2998 12.5438 932 110.233 334.006 386.206
2682 0 75.1639 13.251 996 110.649 334.208 384.203
2683 0 78.2602 14.1068 1104 109.168 334.002 382.842
2684 0 80.1578 13.1865 1057 111.142 333.639 382.859
2685 0 81.176 12.7131 1032 112.612 333.837 379.592
2686 0 85.2058 12.9686 1105 112.199 333.86 378.74
2687 0 89.073 13.1578 1172 112.42 333.933 375.974
2688 0 92.0932 14.7351 1357 109.423 334.057 374.778
2689 0 92.1368 12.5574 1157 115.43 334.169 373.757
2690 0 97.09 13.7913 1339 112.893 334.045 371.904
2691 0 100.246 14.6839 1472 109.638 334.76 372.095
2692 0 103.254 14.1109 1457 112.801 334.935 368.378
2693 0 105.206 12.4232 1307 117.493 335.08 365.477
2694 0 110.197 13.2944 1465 113.021 334.45 361.876
2695 0 111.138 13.1638 1463 118.372 333.195 365.69
2696 0 117.192 14.9925 1757 114.39 333.746 364.118
2697 0 120.175 13.522 1625 118.516 333.655 361.202
2698 0 123.212 14.6171 1801 114.923 333.83 359.963
2699 0 128.133 14.7113 1885 114.047 333.744 358.983
2700 0 132.293 14.0749 1862 116.711 334.689 355.04
2701 0 138.347 16.3286 2259 107.559 334.414 353.764
2702 0 140.265 14.9218 2093 110.729 335.054 351.965
2703 1 61.0485 11.6137 709 109.687 334.399 392.069
2704 0 63.0739 12.2396 772 101.994 335.738 391.475
2705 0 63.1518 11.3694 718 102.377 335.521 391.597
2706 0 65.1967 10.6907 697 104.182 335.541 390.479
2707 0 66.0898 11.4995 760 106.942 333.697 393.686
2708 0 69.0599 11.6131 802 107.029 333.158 388.93
2709 0 73.0825 12.6022 921 105.257 334.1 386.085
2710 0 75.0746 14.2259 1068 102.844 333.424 383.457
2711 0 77.1977 13.2258 1021 105.14 333.487 381.727
2712 0 79.0497 12.1822 963 108.229 333.37 383.925
2713 0 86.2134 12.2371 1055 104.843 335.737 381.064
2714 0 84.2916 11.7212 988 108.646 335.836 380.043
2715 0 87.2724 11.4011 995 109.319 335.651 378.754
2716 0 91.2825 12.8064 1169 106.772 335.408 376.297
2717 0 94.1775 13.2834 1251 106.619 336.039 375.013
2718 1 50.0654 11.5249 577 106.255 335 396.302
2719 0 50.0788 12.1009 606 104.186 334.898 395.955
2720 0 53.1454 12.3623 657 102.174 335.349 391.728
2721 0 54.0292 12.6968 686 108.59 334.006 393.504
2722 0 57.0622 13.3013 759 108.229 334.194 390.848
2723 0 58.081 12.9819 754 109.598 333.877 390.972
2724 0 60.0867 13.6303 819 109.238 334.145 388.801
2725 0 63.0361 14.4362 910 107.144 334.123 388.869
2726 0 64.1324 13.2226 848 110.662 333.783 389.262
2727 0 66.0853 13.4674 890 110.651 334.118 387.024
2728 0 66.0784 12.924 854 113.982 334.574 384.967
2729 0 76.1599 10.4517 796 115.028 334.263 389.627
2730 0 74.2519 12.4307 923 112.237 335.17 385.341
2731 0 75.1381 14.653 1101 108.807 334.807 381.55
2732 0 78.1975 14.6424 1145 108.162 335.123 380.01
2733 0 78.2515 13.61 1065 112.608 335.538 377.269
2734 0 80.2464 13.0972 1051 113.207 335.54 378.182
2735 0 81.2267 12.779 1038 114.824 335.175 376.807
2736 0 87.0591 15.277 1330 108.317 336.337 375.429
2737 0 88.0467 15.0261 1323 110.927 336.098 372.114
2738 0 89.1283 14.2267 1268 113.591 336.069 374.086
2739 0 95.1203 15.5277 1477 109.761 336.209 372.31
2740 0 97.0712 16.1428 1567 109.251 336.31 370.118
2741 0 100.108 15.8429 1586 108.501 336.842 369.398
2742 0 100.115 14.763 1478 113.194 336.542 367.958
2743 0 106.121 14.7285 1563 112 336.468 367.551
2744 0 109.18 14.4531 1578 113.008 336.216 365.664
2745 0 113.356 14.5913 1654 112.441 336.637 364.431
2746 1 61.0873 12.1957 745 111.256 336.497 388.048
2747 0 65.1294 12.7131 828 103.376 336.14 386.699
2748 0 67.0641 13.0323 874 104.656 337.038 385.697
2749 0 68.0667 12.1498 827 104.756 336.531 386.426
2750 0 72.0969 13.0657 942 102.831 336.653 383.456
2751 0 73.0667 12.7555 932 103.876 336.902 382.202
2752 0 77.0628 13.0802 1008 104.119 337.358 383.886
2753 0 79.0623 14.0016 1107 103.508 337.042 379.029
2754 0 81.168 12.8745 1045 107.064 336.573 379.968
2755 0 83.1683 13.7673 1145 105.824 336.817 378.395
2756 0 84.1624 11.858 998 111.133 336.488 375.139
2757 0 88.1498 13.9308 1228 106.178 337 375.52
2758 0 90.1464 12.5241 1129 108.012 337.058 375.358
2759 0 91.1254 12.9492 1180 108.331 336.855 372.096
2760 0 97.2585 12.5233 1218 108.225 336.038 372.629
2761 0 97.1251 14.8056 1438 104.854 336.241 369.4
2762 0 100.125 11.8152 1183 108.743 337.641 371.255
2763 0 105.185 13.1863 1387 105.649 336.997 367.972
2764 0 105.14 12.7354 1339 107.977 336.329 366.095
2765 0 111.146 14.8363 1649 102.607 337.013 364.799
2766 0 114.315 13.0954 1497 106.313 336.743 360.2
2767 0 116.372 12.9327 1505 106.843 336.946 362.92
2768 0 120.203 12.8283 1542 109.261 336.731 359.014
2769 0 126.234 13.5067 1705 108.141 336.853 356.525
2770 0 130.255 13.8037 1798 110.733 336.561 354.981
2771 0 134.217 13.7464 1845 111.456 336.889 352.307
2772 0 137.33 13.4858 1852 111.471 336.144 350.961
2773 0 143.275 15.39 2205 107.99 336.163 347.068
2774 0 147.274 14.069 2072 110.15 336.029 347.754
2775 0 151.241 12.7479 1928 113.754 336.006 342.893
2776 0 156.275 14.1418 2210 111.525 335.497 340.176
2777 0 164.373 14.5157 2386 110.04 335.749 338.226
2778 0 168.38 14.1763 2387 111.223 336.247 335.811
2779 0 171.219 13.1002 2243 113.761 335.825 334.442
2780 0 180.22 13.589 2449 112.327 335.774 331.031
2781 0 187.487 14.9771 2808 108.286 335.593 337.568
2782 0 192.228 12.8233 2465 112.655 335.715 343.597
2783 0 197.161 13.9582 2752 111.37 336.194 337.64
2784 0 204.3 13.7004 2799 110.491 335.922 342.666
2785 0 213.294 14.8949 3177 110.02 335.778 315.499
2786 0 223.292 18.2497 4075 102.246 335.72 307.071
2787 0 227.245 14.5922 3316 111.129 335.543 308.894
2788 0 237.289 19.529 4634 99.5656 335.519 302.89
2789 0 246.315 18.8905 4653 101.41 335.706 292.084
2790 1 193.275 14.1405 2733 112.292 335.668 327.607
2791 0 199.318 13.8322 2757 114.194 334.673 321.34
2792 0 208.309 15.4386 3216 110.714 334.988 316.379
2793 0 217.311 15.9127 3458 110.242 334.987 315.711
2794 0 223.324 15.3275 3423 113.247 335.152 310.432
2795 0 231.607 15.9149 3686 112.626 335.302 301.559
2796 0 239.199 15.1171 3616 114.623 335.033 303.428
2797 0 249.454 17.3138 4319 109.948 335.309 290.47
2798 0 258.471 17.6383 4559 109.718 335.375 288.303
2799 0 265.377 17.3225 4597 110.734 335.225 284.876
2800 0 274.61 16.5398 4542 115.17 334.466 273.417
2801 1 64.0448 12.7411 816 111.301 334.854 384.218
2802 0 67.1931 13.5282 909 107.34 334.862 385.992
2803 0 69.0634 13.4659 930 111.587 334.767 387.405
2804 0 70.0406 13.3351 934 112.028 334.589 392.924
2805 0 72.1091 14.2839 1030 110.894 334.791 392.422
2806 0 74.1879 12.2122 906 107.887 335.608 392.306
2807 0 78.1096 13.1866 1030 107.381 335.548 379.102
2808 0 82.2107 12.991 1068 107.494 335.018 377.4
2809 0 84.1734 14.5058 1221 114.056 335.175 376.852
2810 0 85.3344 13.3241 1137 116.743 335.347 377.095
2811 0 90.1213 13.9479 1257 112.154 335.591 378.71
2812 0 97.2096 14.587 1418 106.878 335.3 375.76
2813 0 99.1028 13.9048 1378 109.662 335.687 373.017
2814 0 101.211 12.0935 1224 118.745 335.681 374.279
2815 0 105.149 12.5441 1319 113.945 334.769 381.235
2816 1 56.0902 10.8575 609 105.972 334.655 405.079
2817 0 58.0807 12.3965 720 103.675 334.747 392.138
2818 0 58.1605 12.07 702 111.625 334.95 391.474
2819 0 61.0476 12.7933 781 104.645 334.883 390.698
2820 0 60.0843 12.2994 739 113.585 334.832 388.904
2821 0 64.0632 13.596 871 110.094 334.835 387.696
2822 0 64.1963 11.901 764 116.221 335.149 385.946
2823 0 67.1405 14.4026 967 109.196 334.963 387.535
2824 0 66.1163 12.6293 835 114.762 335.01 387.253
2825 0 70.0394 12.8071 897 113.813 335.377 383.613
2826 0 71.1077 12.7412 906 116.26 334.913 382.785
2827 0 75.0974 13.063 981 114.383 335.429 381.737
2828 0 78.126 13.299 1039 113.338 335.158 380.856
2829 0 79.1992 13.5734 1075 113.857 335.37 380.328
2830 0 81.1196 13.3137 1080 115.374 335.471 378.419
2831 0 82.1213 13.4679 1106 115.552 334.906 376.672
2832 0 87.1175 14.865 1295 111.931 334.796 374.002
2833 0 87.2282 14.1927 1238 114.62 334.759 373.305
2834 0 90.156 12.9886 1171 118.494 334.605 372.233
2835 0 92.0949 12.1939 1123 121.656 335.039 371.302
2836 0 95.1794 13.3747 1273 118.296 335.145 368.775
2837 0 98.2263 12.5628 1234 120.555 334.583 368.058
2838 0 103.238 13.3768 1381 118.698 334.654 365.177
2839 0 103.22 12.9432 1336 121.653 334.331 361.043
2840 0 106.073 12.4349 1319 122.227 333.998 367.798
2841 0 112.156 14.4977 1626 116.426 334.109 357.779
2842 1 66.1797 9.57998 634 111.64 334.39 382.689
2843 0 70.1251 10.8948 764 108.729 334.614 382.791
2844 0 73.1477 11.6477 852 106.426 335.938 383.014
2845 0 74.1047 10.7955 800 108.495 335.139 382.748
2846 0 76.1117 11.2729 858 103.286 334.647 380.045
2847 0 80.1106 11.3967 913 106.442 333.505 381.211
2848 0 78.1674 10.1961 797 110.972 333.555 380.778
2849 0 83.0873 11.7467 976 106.953 333.66 388.491
2850 0 85.0852 10.3308 879 108.673 333.753 396.353
2851 0 87.1637 9.74029 849 110.644 334.903 378.517
2852 0 88.1318 10.541 929 109.836 334.61 382.06
2853 0 92.3186 11.417 1054 107.044 334.52 388.153
2854 0 94.3629 9.61183 907 111.243 334.368 384.472
2855 0 100.163 10.7924 1081 108.946 334.339 366.048
2856 0 102.263 11.2064 1146 108.684 334.378 365.045
2857 0 105.166 11.7623 1237 109.15 333.791 364.084
2858 0 106.245 11.8877 1263 108.956 334.181 371.394
2859 0 109.273 11.2654 1231 110.337 334.083 379.155
2860 0 113.413 10.6337 1206 110.601 334.687 382.4
2861 0 118.281 11.7263 1387 108.884 334.008 381.513
2862 0 124.259 11.5887 1440 108.34 333.917 368.826
2863 0 127.275 12.084 1538 108.497 334.546 364.542
2864 0 133.409 12.6079 1682 111.379 333.916 348.402
2865 1 78.1775 11.1669 873 104.659 334.609 378.236
2866 0 81.238 11.534 937 103.81 333.886 378.178
2867 0 84.275 12.2694 1034 106.68 333.379 378.842
2868 0 87.1925 12.3061 1073 107.791 333.974 375.514
2869 0 88.3074 11.2335 992 109.209 333.461 374.912
2870 0 90.1696 10.9793 990 110.354 333.326 372.343
2871 0 93.2398 12.6126 1176 106.829 333.268 373.393
2872 0 98.1855 12.1403 1192 106.385 332.797 376.912
2873 0 99.2352 11.1654 1108 106.79 333.927 377.225
2874 0 102.202 11.399 1165 102.45 333.905 386.961
2875 0 105.148 9.59603 1009 104.568 334.783 391.827
2876 0 109.197 10.916 1192 102.702 334.338 402.96
2877 0 113.205 10.8917 1233 103.334 334.366 409.723
2878 0 115.277 11.5634 1333 101.395 334.145 417.902
2879 0 119.264 10.5564 1259 101.734 333.966 420.568
2880 0 124.184 11.2333 1395 100.202 334.541 416.474
2881 0 129.338 10.9403 1415 100.527 334.063 417.934
2882 1 71.2539 8.50479 606 92.2591 335.447 456.904
2883 0 71.265 8.86831 632 118.688 336.377 456.103
2884 0 72.0732 10.1702 733 90.5266 335.502 466.415
2885 0 74.1353 10.3459 767 90.5737 335.768 460.838
2886 0 82.3645 12.3233 1015 86.1596 335.954 462.679
2887 0 82.1631 10.9417 899 89.7475 336.073 463.682
2888 0 83.1096 9.00017 748 93.4906 336.393 461.484
2889 0 89.1716 11.4835 1024 90.0088 336.169 460.096
2890 0 91.1877 10.4839 956 93.5617 336.076 459.092
2891 0 96.2122 9.92598 955 94.3351 335.575 456.133
2892 0 100.173 9.88293 990 96.1303 334.846 435.148
2893 0 102.147 10.9548 1119 93.9544 335.166 438.322
2894 0 106.162 9.74928 1035 97.9295 334.754 434.592
2895 0 111.201 11.7715 1309 93.9962 334.68 435.309
2896 1 58.0769 9.29802 540 90.5426 335.913 459.452
2897 0 62.0851 9.84133 611 90.0769 335.907 459.912
2898 0 65.1084 12.0415 784 86.4273 335.827 459.957
2899 0 68.2126 14.8067 1010 81.2703 335.354 456.61
2900 0 70.2554 13.1235 922 85.2386 335.501 457.233
2901 0 69.1283 11.6884 808 89.8564 336.345 456.329
2902 0 73.1891 11.7367 859 90.1653 336.049 458.532
2903 0 76.2495 12.2099 931 89.0086 335.6 457.075
2904 0 74.2039 11.2932 838 93.2255 336.135 456.268
2905 0 78.2731 12.0092 940 92.2511 335.941 457.448
2906 0 79.2454 11.9881 950 93.6011 336.535 456.687
2907 0 81.3724 11.7116 953 95.0787 335.987 457.199
2908 0 85.2062 12.0883 1030 94.7136 335.822 457.023
2909 0 86.1668 10.735 925 99.0562 336.214 456.85
2910 0 86.1337 11.4938 990 98.9566 335.691 453.23
2911 0 95.3144 13.2089 1259 94.2812 335.62 457.167
2912 0 94.1718 11.8719 1118 100.031 335.765 454.551
2913 0 101.261 13.2134 1338 96.1584 335.663 457.394
2914 0 99.2802 10.8682 1079 103.594 335.631 457.938
2915 0 103.242 11.3616 1173 103.042 335.361 455.522
2916 0 105.226 10.8338 1140 105.267 334.934 452.116
2917 1 58.1462 11.2647 655 98.8397 336.388 480.079
2918 0 55.2137 9.78018 540 104.576 335.794 477.091
2919 0 63.0607 12.2105 770 99.3247 336.197 464.326
2920 0 72.1642 15.1045 1090 88.2798 335.583 461.119
2921 0 73.0552 14.8928 1088 90.1801 336.167 460.87
2922 0 74.1487 13.5404 1004 94.5339 335.782 460.576
2923 0 75.0772 14.8247 1113 92.4429 336.009 459.533
2924 0 78.1683 15.2492 1192 90.5839 335.627 458.827
2925 0 78.0581 13.9512 1089 95.3646 335.99 460.35
2926 0 80.1562 15.345 1230 93.022 336.316 461.744
2927 0 81.2265 14.1087 1146 96.5497 335.976 459.916
2928 0 81.0963 13.9957 1135 98.9066 335.786 461.448
2929 0 85.1198 13.8041 1175 98.6843 335.697 459.715
2930 0 85.0986 12.5266 1066 102.626 335.633 462.375
2931 0 87.1281 13.9335 1214 99.6104 336.099 460.974
2932 0 88.1266 14.0026 1234 135.01 336.13 460.31
2933 0 92.2166 13.6093 1255 101.724 335.402 461.907
2934 0 95.2258 13.0322 1241 103.275 335.529 460.662
2935 0 95.2224 13.0537 1243 136.525 335.514 460.751
2936 0 99.2247 13.1217 1302 102.891 335.233 460.05
2937 0 101.116 12.4511 1259 105.01 335.216 457.559
2938 0 104.203 12.111 1262 104.725 335.473 460.615
2939 1 57.0817 11.7901 673 103.12 335.704 479.165
2940 0 59.0505 12.2268 722 103.341 335.748 470.109
2941 0 70.1133 14.063 986 93.568 335.577 457.981
2942 0 70.1223 14.6173 1025 93.6341 335.21 458.681
2943 0 66.1089 14.0828 931 98.1117 335.378 460.228
2944 0 74.0858 14.9017 1104 93.548 335.445 459.991
2945 0 76.0857 15.1145 1150 93.2313 334.957 460.863
2946 0 77.2055 16.5662 1279 90.2439 335.902 459.494
2947 0 79.122 15.2549 1207 93.8169 336.037 463.233
2948 0 81.1207 15.7297 1276 93.1951 335.905 463.083
2949 0 84.1302 16.7122 1406 91.3286 336.021 464.968
2950 0 84.1598 14.4843 1219 97.2724 336.322 461.258
2951 0 88.1457 15.429 1360 95.9088 336.108 462.857
2952 0 87.2187 15.4325 1346 98.6315 335.396 463.446
2953 0 84.1987 13.195 1111 106.589 335.222 463.143
2954 0 91.2356 14.194 1295 103.926 335.29 460.668
2955 0 92.1043 13.9081 1281 104.864 335.044 459.162
2956 0 86.1027 13.7394 1183 111.584 334.227 368.607
2957 0 98.2613 12.8637 1264 108.118 335.134 458.703
2958 0 99.2673 12.9247 1283 109.053 334.765 457.483
2959 0 102.19 12.692 1297 109.529 334.87 455.533
2960 0 106.22 12.0504 1280 110.566 334.555 455.771
2961 0 111.182 14.4089 1602 105.403 335.033 449.554
2962 0 116.186 13.4182 1559 108.733 334.338 437.468
2963 0 120.305 13.258 1595 109.392 334.757 438.987
2964 0 124.315 13.3854 1664 109.395 334.349 437.698
2965 0 129.456 12.7225 1647 113.644 333.825 431.957
2966 1 73.183 10.2756 752 106.614 334.832 466.886
2967 0 73.2099 11.3919 834 105.526 334.482 466.137
2968 0 82.1139 15.8073 1298 91.0216 334.478 463.486
2969 0 88.1856 15.2066 1341 89.8941 334.136 460.05
2970 0 89.0921 16.4212 1463 88.7724 335.152 458.23
2971 0 91.1321 13.6505 1244 95.8641 335.371 458.543
2972 0 94.1199 15.0553 1417 93.2639 334.843 458.253
2973 0 92.1665 15.2767 1408 95.7216 335.06 457.493
2974 0 94.256 13.7922 1300 99.1654 334.862 453.422
2975 0 96.1411 14.5515 1399 99.8771 334.284 455.246
2976 0 96.2739 12.7241 1225 106 334.385 457.283
2977 0 99.1486 13.0713 1296 106.18 334.221 453.1
2978 0 103.134 14.2533 1470 103.734 334.596 453.869
2979 0 107.108 12.268 1314 117.43 334.352 390.719
2980 0 110.084 12.6176 1389 115.555 333.003 383.413
2981 0 111.236 12.478 1388 125.357 333.839 363.107
2982 0 117.23 13.6825 1604 119.338 333.513 363.562
2983 0 121.161 11.8355 1434 125.648 333.446 359.596
2984 0 127.068 13.7407 1746 120.716 333.379 357.528
2985 0 129.198 11.7262 1515 124.929 333.537 351.409
2986 1 74.0586 9.587 710 115.43 333.777 380.007
2987 0 76.0891 10.1591 773 116.472 332.831 378.865
2988 0 80.145 10.0693 807 116.936 334.133 380.418
2989 0 79.219 10.4142 825 117.998 334.36 379.377
2990 0 82.1012 10.2922 845 118.574 333.822 380.972
2991 0 84.1223 11.3763 957 117.902 334.56 373.837
2992 0 86.1639 11.2692 971 117.735 334.674 378.673
2993 0 89.1384 12.0038 1070 116.517 333.901 388
2994 0 90.1006 10.1331 913 121.606 333.624 394.023
2995 0 94.0837 10.3844 977 121.156 333.279 400.409
2996 0 96.1576 12.8435 1235 114.347 333.479 407.854
2997 0 99.0713 11.9712 1186 115.918 333.642 417.356
2998 0 99.1934 11.1096 1102 117.307 333.672 423.559
2999 0 101.114 11.5711 1170 116.79 334.337 428.721
3000 0 103.309 11.0349 1140 117.676 334.046 431.372
3001 0 111.169 10.8483 1206 118.719 333.425 415.009
3002 0 112.172 11.4111 1280 117.838 333.547 416.079
3003 0 115.168 10.3154 1188 120.723 333.126 411.91
3004 0 115.207 10.2945 1186 133.236 333.132 412.165
3005 0 123.166 12.0082 1479 116.041 333.266 416.986
3006 0 123.17 13.0146 1603 109.849 334.15 421.518
3007 1 74.1157 9.41771 698 103.752 334.665 456.33
3008 0 72.237 9.67648 699 105.116 334.073 455.466
3009 0 76.137 9.83753 749 105.844 333.609 449.676
3010 0 72.1234 10.385 749 106.729 334.036 451.065
3011 0 78.0918 12.242 956 102.283 334.215 456.986
3012 0 79.2026 10.1764 806 107.16 334.619 459.138
3013 0 86.1975 10.6848 921 105.176 334.799 455.963
3014 0 90.1599 10.0155 903 106.363 334.646 459.766
3015 0 91.143 10.2586 935 108.195 334.764 457.403
3016 0 94.1845 10.7236 1010 106.128 334.816 458.163
3017 0 97.1162 11.2443 1092 105.097 334.708 457.865
3018 0 101.052 12.6766 1281 102.834 334.356 453.713
3019 0 106.109 11.9405 1267 104.435 334.076 451.051
3020 0 111.273 11.1707 1243 106.255 333.57 441.405
3021 0 113.665 10.4781 1191 108.291 333.657 448.029
3022 0 117.49 10.9542 1287 107.27 333.669 444.761
3023 0 121.216 9.47069 1148 110.445 333.995 441.282
3024 1 78.1662 12.6781 991 90.3784 334.543 465.523
3025 0 78.14 15.3059 1196 86.4707 334.207 466.871
3026 0 78.3049 12.2342 958 94.1075 334.755 465.645
3027 0 75.2987 10.0135 754 102.228 334.735 467.993
3028 0 80.2716 11.9719 961 98.4381 334.804 469.16
3029 0 85.236 13.3864 1141 94.7239 334.919 464.961
3030 0 87.2963 12.2457 1069 98.5903 334.613 464.284
3031 0 89.2033 12.0287 1073 100.021 334.692 463.8
3032 0 92.443 12.2129 1129 99.3463 334.901 465.859
3033 0 94.3375 11.8829 1121 101.242 334.194 461.094
3034 0 98.3847 12.4003 1220 99.9418 334.334 464.852
3035 0 97.3414 11.8757 1156 102.841 334.649 456.939
3036 0 102.324 12.0206 1230 102.292 334.62 459.416
3037 0 105.19 10.7425 1130 105.088 335.186 460.07
3038 0 108.362 10.9264 1184 104.341 334.802 458.223
3039 0 111.262 10.4887 1167 106.35 334.434 452.144
3040 0 112.394 9.787 1100 108.135 334.788 451.206
3041 0 117.402 10.8346 1272 106.701 334.368 447.341
3042 0 120.237 9.65591 1161 109.237 334.965 447.008
3043 1 145.329 9.1792 1334 106.108 335.551 438.44
3044 0 145.297 9.12613 1326 107.007 334.459 435.151
3045 1 83.244 14.1632 1179 89.475 335.451 467.937
3046 0 82.1481 14.3521 1179 87.3545 334.787 466.742
3047 0 83.2582 13.8124 1150 91.4113 335.321 467.95
3048 0 76.2812 10.789 823 105.434 335.213 469.186
3049 0 81.3503 12.4769 1015 94.7458 335.338 469.984
3050 0 82.0943 12.8633 1056 95.3741 335.007 469.249
3051 0 83.2451 12.0968 1007 104.14 336.056 469.162
3052 0 88.1873 14.4919 1278 95.9382 335.567 466.58
3053 0 87.1424 14.7575 1286 96.6198 335.438 466.397
3054 0 88.2667 12.9947 1147 101.402 335.515 467.04
3055 0 87.2763 11.6641 1018 105.366 335.271 466.558
3056 0 93.2464 13.2338 1234 100.387 335.78 466.6
3057 0 93.1208 10.4703 975 105.865 336.274 465.477
3058 0 93.1208 10.3951 968 139.365 337.248 465.427
3059 0 102.228 11.0146 1126 102.691 335.445 462.077
3060 1 58.1017 9.60386 558 97.4642 336.086 483.265
3061 0 60.1216 10.6784 642 96.1713 335.855 479.636
3062 0 63.2687 10.9533 693 96.1587 334.407 452.525
3063 0 63.1759 10.6211 671 98.9329 334.313 453.657
3064 0 65.3422 11.7994 771 96.9442 334.135 452.586
3065 0 68.272 12.2158 834 96.3022 334.794 453.381
3066 0 70.3671 12.8611 905 95.5746 334.633 454.284
3067 0 72.1466 11.9618 863 98.7068 334.611 455.444
3068 0 74.3133 11.9898 891 100.01 334.196 454.751
3069 0 74.202 10.6466 790 104.5 334.391 454.628
3070 0 78.121 12.2886 960 101.304 334.37 456.655
3071 0 77.0891 11.2078 864 105.662 334.574 457.13
3072 0 81.1993 12.3154 1000 104.175 334.876 457.19
3073 0 81.3765 11.1089 904 109.135 335.088 456.706
3074 0 83.442 11.0376 921 109.334 335.041 458.453
3075 1 46.2043 10.6484 492 104.673 334.528 478.03
3076 0 48.282 12.3856 598 101.242 335.241 478.356
3077 0 47.2564 11.2366 531 106.348 335.004 477.556
3078 0 51.0632 12.4943 638 103.715 335.89 468.459
3079 0 60.486 15.4912 937 90.0203 335.946 461.994
3080 0 62.2267 13.4508 837 97.2832 336.082 463.71
3081 0 63.3004 12.7171 805 99.2509 335.758 461.312
3082 0 65.3229 16.8394 1100 87.8755 335.827 454.768
3083 0 63.1814 14.2447 900 99.4322 335.3 458.89
3084 0 64.3776 15.2227 980 98.7388 335.513 459.266
3085 0 66.3042 17.2689 1145 93.345 335.921 456.548
3086 0 64.2285 15.6161 1003 100.892 335.935 457.397
3087 0 65.3812 14.3925 941 105.62 334.8 459.881
3088 0 66.312 13.6627 906 108.65 334.829 458.705
3089 0 68.3473 15.3773 1051 104.4 334.407 457.971
3090 0 69.2386 15.3383 1062 105.099 335.371 457.352
3091 0 69.3905 13.4456 933 111.313 334.899 457.685
3092 0 72.3601 15.3399 1110 106.086 334.919 456.554
3093 0 72.1848 14.2689 1030 111.828 335.095 457.114
3094 0 73.279 14.1377 1036 113.772 334.863 458.848
3095 0 73.3112 13.0812 959 118.504 334.911 458.724
3096 0 78.2506 14.0063 1096 114.405 334.863 459.176
3097 0 78.2552 13.6988 1072 116.171 335.054 459.767
3098 0 80.3036 12.9758 1042 117.903 334.51 461.246
3099 0 83.1165 13.4991 1122 116.453 334.475 459.874
3100 0 87.2046 14.1162 1231 113.533 334.959 462.097
3101 0 86.087 11.7207 1009 120.862 334.999 461.933
3102 0 92.1996 13.7853 1271 114.172 335.234 463.872
3103 1 43.0324 10.2713 442 120.805 336.029 485.367
3104 0 47.0674 12.2378 576 115.408 335.628 484.757
3105 0 50.2356 11.6053 583 115.636 335.84 484.837
3106 0 50.2086 11.0539 555 118.416 336.052 482.364
3107 0 52.2729 12.6069 659 113.798 336.041 482.577
3108 0 56.0749 10.7891 605 117.261 335.673 481.511
3109 0 55.2171 12.2788 678 115.08 335.699 480.232
3110 1 151.545 7.77325 1178 127.036 335.193 430.67
3111 0 152.25 8.02628 1222 126.982 335.396 435.551
3112 0 153.518 9.21062 1414 124.871 335.38 433.683
3113 0 153.473 8.92662 1370 127.02 335.403 429.996
3114 0 148.286 9.75143 1446 125.871 335.385 436.292
3115 1 81.3025 16.3833 1332 97.482 335.765 466.128
3116 0 80.2425 15.3659 1233 102.161 335.637 464.677
3117 0 75.3506 15.3018 1153 108.701 335.834 468.219
3118 0 82.3843 14.7237 1213 108.521 335.688 466.174
3119 0 84.4542 15.7837 1333 105.834 335.296 463.572
3120 0 87.3201 16.0444 1401 105.385 335.471 464.476
3121 0 88.3679 16.2955 1440 106.332 335.767 464.033
3122 0 88.2972 14.8136 1308 111.997 335.653 463.447
3123 0 89.1815 11.9419 1065 119.162 336.425 464.272
3124 0 94.2656 14.0772 1327 113.554 336.867 462.459
3125 1 50.0813 11.8407 593 111.874 337.663 487.25
3126 0 52.0492 12.2 635 112.099 337.551 485.419
3127 0 52.0933 11.6138 605 121.99 335.39 428.041
3128 0 55.1724 12.7963 706 110.017 336.82 477.921
3129 0 56.1742 12.6393 710 119.042 335.476 393.151
3130 1 75.7693 17.1309 1298 85.547 336.842 468.3
3131 0 77.6717 15.205 1181 91.3031 336.145 472.133
3132 0 73.5304 14.6742 1079 95.2178 336.153 468.744
3133 0 76.6748 13.6812 1049 97.9905 336.095 469.305
3134 0 74.4437 15.3539 1143 96.133 336.235 466.615
3135 0 74.1572 15.1974 1127 99.3363 336.752 463.13
3136 0 77.3379 15.3224 1185 98.6844 336.462 461.43
3137 0 80.2975 17.0491 1369 94.5318 336.455 460.359
3138 0 80.4356 14.7696 1188 101.777 336.274 463.397
3139 0 84.4507 16.483 1392 97.2766 336.601 464.303
3140 0 83.3391 16.7628 1397 99.3522 336.108 463.904
3141 0 85.2596 14.1333 1205 106.863 336.596 463.929
3142 0 86.168 15.8411 1365 104.085 336.505 464.382
3143 0 88.2775 13.4915 1191 110.681 336.152 465.947
3144 0 88.3736 12.6508 1118 114.31 336.451 464.184
3145 0 92.2731 13.6985 1264 112.252 337.146 463.868
3146 0 93.4005 13.4368 1255 114.113 336.671 462.15
3147 0 99.4095 13.5198 1344 113.656 336.314 460.342
3148 0 102.324 14.2586 1459 112.146 336.44 458.944
3149 0 102.26 12.0673 1234 119.811 335.397 457.326
3150 0 108.278 12.5418 1358 118.145 335.795 458.218
3151 0 111.314 12.4153 1382 118.77 335.817 451.664
3152 0 118.446 13.1199 1554 116.604 336.178 449.411
3153 0 123.523 13.0583 1613 117.397 335.842 441.644
3154 1 69.2199 12.2508 848 113.178 335.831 468.757
3155 0 71.3081 13.1261 936 111.166 335.968 467.98
3156 0 78.3532 14.792 1159 104.24 336.116 464.12
3157 0 77.3772 13.9447 1079 109.019 336.155 465.148
3158 0 82.5316 16.0423 1324 102.085 336.166 463.272
3159 0 85.532 16.45 1407 101.495 336.173 463.629
3160 0 93.3247 16.4372 1534 97.8553 336.056 461.302
3161 0 97.4675 18.5908 1812 93.0905 335.989 460.352
3162 0 94.5609 15.1543 1433 104.503 335.546 464.204
3163 0 93.3634 13.26 1238 111.144 336.142 466.431
3164 0 95.5276 13.326 1273 111.358 336.399 465.38
3165 0 97.4587 13.7905 1344 111.266 335.966 462.818
3166 0 102.471 12.8232 1314 112.745 336.105 462.31
3167 0 106.341 13.0241 1385 111.755 336.49 460.909
3168 0 110.639 13.16 1456 111.104 336.127 458.705
3169 1 62.5236 10.4121 651 110.41 336.513 484.425
3170 0 62.3515 12.4135 774 108.999 336.291 482.052
3171 1 76.5358 13.9412 1067 97.7694 336.598 476.559
3172 0 76.9402 14.4268 1110 96.2919 335.663 472.198
3173 0 82.0462 17.8314 1463 88.0485 335.666 467.284
3174 0 81.7361 16.015 1309 94.8571 335.856 473.11
3175 0 83.7049 14.5989 1222 98.0295 335.367 470.423
3176 0 84.5639 17.0758 1444 92.9882 335.449 471.226
3177 0 84.8421 15.0161 1274 98.3305 335.261 467.889
3178 0 85.5337 13.6788 1170 102.447 335.497 467.592
3179 0 92.6341 17.024 1577 92.5669 334.778 463.352
3180 0 94.6711 15.1366 1433 98.0405 335.232 464.489
3181 0 94.4166 15.4634 1460 98.7123 335.485 461.742
3182 0 94.537 15.2744 1444 101.663 335.456 465.206
3183 0 96.4519 14.0588 1356 106.071 335.163 463.201
3184 0 98.2649 13.0769 1285 108.454 335.129 460.889
3185 0 103.389 14.0925 1457 105.181 336.054 462.933
3186 0 105.536 14.0995 1488 105.312 335.439 458.932
3187 0 109.338 13.7372 1502 105.874 335.63 456.278
3188 0 115.37 13.9291 1607 104.309 335.16 454.939
3189 0 117.318 13.033 1529 106.462 335.16 451.735
3190 0 121.425 12.0486 1463 108.716 335.251 451.306
3191 0 123.375 11.38 1404 110.424 335.151 449.118
3192 1 80.3238 15.8234 1271 90.5295 335.826 467.701
3193 0 81.336 14.3725 1169 96.2763 336.125 468.781
3194 0 83.4742 15.2382 1272 95.3467 336.149 469.539
3195 0 83.4345 14.3466 1197 99.0852 335.54 468.561
3196 0 87.4226 15.019 1313 98.1455 335.695 468.299
3197 0 86.4525 14.4704 1251 101.655 335.871 466.423
3198 0 88.2517 14.5493 1284 103.069 335.544 466.547
3199 0 88.3993 13.0205 1151 108.514 335.188 464.862
3200 0 93.2803 13.1646 1228 107.624 335.773 466.707
3201 0 93.4368 13.2175 1235 109.083 335.56 464.905
3202 0 99.2621 14.6078 1450 105.513 335.557 465.457
3203 0 100.308 13.8373 1388 109.401 335.305 462.371
3204 0 103.291 14.4156 1489 107.711 335.381 463.249
3205 0 112.242 18.1928 2042 97.0749 335.353 456.6
3206 0 111.311 15.6229 1739 106.012 335.302 457.199
3207 0 111.391 14.3549 1599 111.267 335.794 458.073
3208 0 115.278 15.3715 1772 109.387 335.613 455.078
3209 0 117.397 15.0174 1763 110.884 335.921 455.402
3210 0 121.227 14.411 1747 113.355 335.54 452.918
3211 0 124.337 14.2114 1767 114.581 335.286 451.613
3212 0 128.339 14.4851 1859 114.558 335.292 449.825
3213 0 132.533 14.3813 1906 125.177 334.527 406.174
3214 0 134.361 14.3271 1925 124.965 333.53 392.479
3215 0 134.48 13.4295 1806 128.397 333.625 392.087
3216 0 138.422 13.56 1877 129.503 333.55 390.561
3217 0 142.585 13.3184 1899 130.82 333.637 386.391
3218 0 148.398 14.1107 2094 127.982 333.646 389.55
3219 0 150.339 13.7157 2062 131.651 333.5 385.839
3220 0 157.403 13.9133 2190 129.701 333.654 389.006
3221 0 160.519 14.3161 2298 130.581 333.822 385.091
3222 0 166.459 14.5982 2430 128.962 334.082 385.902
3223 0 173.381 15.0074 2602 128.4 333.833 383.724
3224 0 176.346 14.4942 2556 131.116 333.525 381.071
3225 0 183.442 15.6671 2874 127.55 333.692 381.765
3226 0 185.32 14.5532 2697 130.41 333.713 378.423
3227 0 193.4 14.1158 2730 131.266 334.243 378.071
3228 0 200.567 14.6485 2938 129.531 334.129 375.648
3229 0 204.315 15.667 3201 128.091 333.74 376.103
3230 0 211.225 14.7994 3126 130.959 333.981 375.079
3231 0 220.449 15.9901 3525 127.431 333.58 371.569
3232 0 228.396 14.164 3235 133.016 333.339 370.908
3233 1 51.2079 9.80318 502 101.827 334.506 465.661
3234 0 55.1121 10.6329 586 99.9778 335.048 468.073
3235 0 56.0927 10.9462 614 99.4805 335.679 469.739
3236 0 60.1313 10.1445 610 100.521 335.582 472.905
3237 0 58.1165 8.77547 510 103.586 335.955 476.288
3238 0 61.0531 7.05943 431 108.847 334.923 472.789
3239 0 61.0989 9.39461 574 104.76 335.359 471.812
3240 0 63.0573 9.07112 572 106.476 335.29 469.264
3241 1 15.0062 2.39901 36 92.8889 335.444 500.694
3242 0 15.013 2.93079 44 91.8636 335.386 499
3243 0 19.0014 2.57876 49 92.6735 335.449 496.388
3244 0 20.0554 2.0942 42 97.9048 335.524 495.071
3245 0 26.018 6.34176 165 93.3212 336.83 496.091
3246 0 27.0046 5.44352 147 96.2789 336.932 495.156
3247 0 28.0499 6.98755 196 94.6837 337.515 495.352
3248 0 30.0354 5.72658 172 94.6977 337.953 493.541
3249 0 30.0123 5.06458 152 95.8421 337.507 495.849
3250 0 29.0251 4.20326 122 96.9426 336.984 497.074
3251 0 28.008 4.03457 113 98.6195 337.894 495.124
3252 0 27.0287 4.8097 130 96.7308 337.585 492.323
3253 0 28.0042 4.49933 126 97.5079 337.365 491.96
3254 0 27.0233 3.95955 107 96.4766 337.29 488.178
3255 0 27.013 5.25673 142 95.493 337.324 491
3256 1 14.0139 4.42418 62 97.4677 336.177 496.952
3257 0 17.0097 5.46747 93 94.828 336.538 495.57
3258 0 27.0094 5.44256 147 93.585 336.061 491.558
3259 0 17.0022 3.35251 57 98.4561 336.491 494.123
3260 0 29.0121 6.20431 180 94.6222 337.183 489.15
3261 0 20.0207 4.44539 89 97.427 335.652 496.73
3262 0 13.0021 3.23025 42 100.976 337.048 502.5
3263 0 19.0068 1.89406 36 102.917 337.389 498.972
3264 1 37.0363 8.61317 319 93.4044 333.969 439.555
3265 0 39.0297 8.73694 341 92.7625 333.815 439.809
3266 0 38.0107 8.1556 310 93.4871 333.881 442.794
3267 0 37.0416 9.79979 363 92.0165 335.116 440.003
3268 0 37.0273 8.37219 310 96.2129 334.51 440.755
3269 0 39.075 9.3666 366 93.5055 334.82 440.303
3270 0 40.1596 8.11762 326 95.3558 335.528 441.598
3271 0 39.117 8.71744 341 95.2111 335.317 439.865
3272 0 39.1881 9.26301 363 93.9945 335.612 440.121
3273 0 41.1535 9.25802 381 94.1391 336.184 441.388
3274 0 39.1074 8.41274 329 97.5106 334.951 440.258
3275 0 38.2107 7.69418 294 98.7687 334.915 438.728
3276 0 40.1505 7.42207 298 96.0336 335.436 442.03
3277 0 40.2185 7.65816 308 97.4838 335.714 439.487
3278 0 40.1595 8.61564 346 94.7168 335.263 438.746
3279 0 39.1184 6.51867 255 97.4863 335.514 439.792
3280 0 38.1944 8.27346 316 95.7215 335.288 439.513
3281 0 37.1892 6.85682 255 95.549 335.82 439.729
3282 0 38.0924 8.66314 330 93.6879 335.691 440.306
3283 0 37.2488 7.49018 279 94.7312 336.014 439.914
3284 0 34.0914 5.27993 180 97.4111 335.533 436.722
3285 0 36.0966 5.84542 211 95.237 336.355 441.526
3286 0 37.0236 8.15695 302 92.0596 335.083 437.215
3287 0 30.0123 7.89676 237 93.1266 335.068 433.536
3288 0 24.0094 5.53949 133 97.0226 334.624 434.391
3289 0 25.0115 6.55699 164 94.5549 335.049 431.841
3290 0 25.0047 5.95888 149 94.396 335.034 433.691
3291 0 22.0157 5.63235 124 97.2097 334.661 432.435
3292 0 26.0156 7.11112 185 93.3405 335.692 433.941
3293 0 10.0029 3.79891 38 100.842 335.684 429.132
3294 1 0 0 4 88.25 336.5 422
3295 0 13.0025 6.15268 80 93.425 335.425 429.25
3296 1 105.174 15.4506 1625 151.047 334.703 370.091
3297 0 106.117 15.2191 1615 154.108 334.577 369.489
3298 1 49.0807 12.2655 602 149.372 334.193 396.515
3299 0 50.0429 12.3694 619 150.031 334.935 397.598
3300 0 52.1133 11.9163 621 152.638 334.512 396.683
3301 0 54.0947 14.1604 766 151.15 335.21 396.221
3302 0 54.0704 12.5392 678 159.348 335.186 394.87
3303 0 56.0634 14.0377 787 155.216 334.928 391.146
3304 0 59.0251 14.9936 885 148.836 335.051 389.219
3305 0 62.0825 15.0284 933 148.967 335.569 389.84
3306 0 62.1204 15.3895 956 150.079 334.762 389.263
3307 0 63.0513 14.8292 935 152.543 334.639 390.339
3308 0 64.0243 13.8541 887 157.195 334.823 391.21
3309 0 65.08 13.5372 881 158.688 334.591 391.325
3310 0 67.0821 13.5804 911 158.58 335.036 387.407
3311 0 68.028 14.5381 989 155.945 335.085 385.844
3312 0 74.0987 13.8059 1023 154.904 334.995 385.765
3313 0 74.0756 14.2017 1052 154.945 335.266 385.709
3314 0 78.0943 13.4837 1053 156.686 335.592 385.22
3315 0 79.0767 14.5175 1148 147.662 335.213 392.875
3316 1 112.259 10.253 1151 147.955 335.081 406.873
3317 1 66.1271 10.8579 718 162.617 335.351 389.675
3318 0 67.1027 11.1769 750 165.165 335.401 388.492
3319 1 27.1038 9.74033 264 99.2121 335.451 437.523
3320 0 27.2922 9.92958 271 100.144 335.406 436.568
3321 0 19.0004 2.63152 50 85.14 334.88 475.56
3322 0 12.0102 5.49534 66 84.6515 334.682 476.258
3323 0 20.2118 8.11409 164 64.5549 331.963 469.732
3324 0 22.0732 5.75359 127 77.9921 334.827 475.496
3325 0 25.7959 4.6519 120 73.325 332.833 471.633
3326 0 20.0268 7.34016 147 74.7347 335.204 473.177
3327 0 18.0587 5.92511 107 75.2617 335.243 472.888
3328 0 22.6471 3.26753 74 79.7703 334.095 472.919
3329 0 18.0408 4.48982 81 79.6914 335.469 474.062
3330 0 17.0104 7.75994 132 77.9167 335.038 474.091
3331 0 11.0081 7.99413 88 91.4659 335.932 475.875
3332 0 11.0072 8.17649 90 91.8556 337.178 485.2
3333 0 10.0003 2.79992 28 98.3571 337.5 484.679
3334 0 10.0029 6.89798 69 93.2754 337.551 486.986
3335 0 5 2 10 105.4 335.8 479.3
3336 0 9.00191 4.33242 39 97.641 334.795 475.154
3337 0 8.00142 5.37404 43 96.907 336.256 480.884
3338 0 11.0091 5.99502 66 95.6667 338.227 490.182
3339 0 9.00276 6.55355 59 92.3559 336.983 494.203
3340 0 8.00007 2.62498 21 98.2857 336.619 494
3341 0 12.0032 5.3319 64 92.2812 336.141 495.75
3342 0 10.0003 4.49986 45 96.3111 336.711 495.111
3343 0 9.00118 6.5547 59 94.5593 336.678 493.864
3344 0 8.00041 5.24973 42 95.2143 336.5 494.286
3345 0 11.0006 2.81802 31 105.355 339.065 502.516
3346 0 8.0002 5.62486 45 116.889 337.667 508.2
3347 0 11.009 4.54172 50 123.12 337.34 509.62
3348 0 12.004 5.74807 69 123.101 337.275 508
