time division length width area intensity CMx CMy
1855 0 82.1391 11.2614 925 118.461 565.045 341.064
1856 1 174.137 9.17096 1597 124.818 564.507 307.284
1857 0 173.153 6.26037 1084 123.256 564.152 324.658
1858 1 134.899 13.2766 1791 96.8197 563.95 328.54
1859 0 128.351 15.0291 1929 95.0197 563.852 327.371
1860 0 125.897 18.0227 2269 89.0476 564.454 321.048
1861 0 116.181 15.364 1785 104.145 564.753 328.458
1862 0 130.551 17.0585 2227 100.086 563.957 321.239
1863 1 106.132 15.1038 1603 118.494 565.091 328.871
1864 0 107.309 11.2479 1207 86.2469 564.884 339.964
1865 0 117.364 11.8946 1396 81.0494 564.184 331.502
1866 0 125.975 11.9865 1510 78.0821 563.832 323.264
1867 0 123.689 8.86092 1096 96.281 565.395 344.018
1868 1 98.5835 12.1217 1195 95.2184 565.985 346.29
1869 0 99.9303 15.9811 1597 84.3538 565.649 336.982
1870 0 101.29 12.1631 1232 98.6445 565.56 344.075
1871 0 99.915 16.7242 1671 85.392 565.361 332.829
1872 0 107.482 12.9511 1392 96.0819 565.112 341.687
1873 0 105.446 17.5635 1852 85.264 565.605 334.357
1874 0 95.1397 14.3578 1366 101.103 565.474 341.389
1875 0 109.474 15.1726 1661 92.8122 564.88 332.636
1876 0 104.418 18.7804 1961 87.2244 564.6 329.14
1877 0 99.2622 20.0378 1989 88.4661 564.306 329.126
1878 0 108.742 17.6841 1923 92.7733 564.592 332.936
1879 0 104.375 17.3988 1816 97.0039 565.373 331.698
1880 0 103.155 17.6531 1821 98.2488 564.177 327.842
1881 0 103.123 18.3179 1889 98.9963 564.352 329.518
1882 0 105.185 20.4972 2156 95.2106 564.308 328.31
1883 0 105.216 15.6346 1645 109.178 564.075 332.091
1884 0 104.199 13.9828 1457 115.621 563.97 331.629
1885 0 108.152 14.1745 1533 115.247 564.292 331.267
1886 1 61.3287 11.153 684 121.64 564.019 353.596
1887 0 64.1574 13.124 842 111.371 563.973 353.352
1888 0 66.088 14.3294 947 107.279 564.353 352.665
1889 0 66.0747 12.4405 822 113.238 564.993 351.742
1890 0 68.3214 12.529 856 112.676 564.887 350.419
1891 0 73.2251 14.9402 1094 105.899 564.743 348.285
1892 0 71.228 14.0394 1000 141.066 564.704 346.649
1893 0 77.1223 12.9664 1000 110.581 564.743 346.13
1894 0 80.1671 14.2328 1141 108.038 564.745 344.655
1895 0 83.1173 12.0432 1001 113.019 563.872 344.833
1896 0 85.2846 14.2581 1216 108.201 563.865 341.562
1897 0 88.2035 13.775 1215 109.769 563.921 340.258
1898 0 92.2298 13.7266 1266 108.626 564.066 338.741
1899 0 96.1932 13.3689 1286 108.509 564.096 338.351
1900 1 52.1774 10.2726 536 111.069 564.692 360.83
1901 0 52.1058 11.0352 575 109.191 563.837 357.741
1902 0 54.218 12.8924 699 102.637 563.661 357.671
1903 0 56.1824 12.228 687 103.751 563.859 357.753
1904 0 56.152 12.8402 721 102.528 564.293 356.369
1905 0 57.2144 12.0075 687 104.93 564.246 356.108
1906 0 59.2382 11.8673 703 104.303 564.303 355.35
1907 0 60.2757 10.8833 656 107.244 564.084 353.584
1908 0 63.1551 12.3664 781 102.507 564.292 352.859
1909 0 62.1696 11.2113 697 105.967 564.755 350.927
1910 0 64.1481 11.3176 726 105.959 564.795 350.187
1911 0 66.1933 11.5873 767 105.185 564.97 350.222
1912 0 68.1394 11.4471 780 104.792 565.129 349.713
1913 0 72.2574 13.0644 944 101.38 565.407 348.877
1914 0 74.1698 13.2803 985 101.737 564.572 347.831
1915 0 78.1839 12.4067 970 102.509 564.716 347.959
1916 0 81.2716 13.498 1097 98.9107 564.887 348.964
1917 0 82.2743 13.9898 1151 100.339 564.422 345.46
1918 0 86.2442 12.998 1121 103.013 564.413 343.033
1919 0 87.2634 13.0639 1140 103.677 564.287 340.803
1920 0 92.2722 12.9942 1199 103.188 564.408 340.058
1921 1 102.287 20.0319 2049 85.6662 564.372 331.83
1922 0 106.371 15.9348 1695 94.7522 563.748 330.127
1923 1 55.3265 11.3508 628 104.718 563.785 361.416
1924 0 55.3747 11.377 630 108.584 564.11 360.07
1925 0 58.3331 12.12 707 100.03 565.05 358.359
1926 0 56.1954 10.3923 584 106.664 564.329 357.712
1927 0 60.3317 12.2655 740 101.992 564.268 354.089
1928 0 59.1791 11.9806 709 104.513 564.138 355.295
1929 0 63.2866 12.7515 807 102.058 564.918 354.7
1930 0 66.2768 12.2818 814 103 565.203 355.357
1931 0 66.1983 11.1332 737 109.301 564.89 352.742
1932 0 66.2658 11.7406 778 111.526 564.918 350.208
1933 0 68.1685 12.6891 865 109.457 565.009 352.231
1934 0 71.1798 13.0515 929 109.794 564.941 350.727
1935 0 74.2651 13.4518 999 108.074 565.025 348.804
1936 0 77.2484 12.8935 996 109.052 564.732 349.673
1937 0 78.1977 13.581 1062 109.429 564.667 346.56
1938 0 80.2161 13.152 1055 111.548 564.878 344.217
1939 0 80.2912 11.9814 962 116.608 564.292 345.852
1940 0 84.2602 14.111 1189 111.328 563.9 343.312
1941 0 88.1578 12.954 1142 114.696 564.189 343.119
1942 0 89.1524 12.9666 1156 116.618 564.388 342.569
1943 0 92.2012 14.2189 1311 115.712 563.789 339.226
1944 0 95.2315 14.092 1342 115.948 564.721 337.627
1945 0 98.2211 13.3067 1307 118.073 565.031 336.581
1946 0 102.255 14.4638 1479 115.128 564.559 334.478
1947 0 105.256 14.2224 1497 116.794 565.16 335.269
1948 0 109.279 14.8335 1621 123.473 564.827 332.624
1949 1 58.1325 9.9084 576 125.552 565.849 357.852
1950 0 60.203 12.1589 732 120.027 565.533 356.605
1951 0 60.1783 11.5158 693 118.722 565.854 356.758
1952 0 61.1717 12.1134 741 113.695 566.036 355.771
1953 0 63.1983 12.1522 768 113.72 565.855 355.408
1954 0 65.2411 13.0133 849 112.146 565.556 354.18
1955 0 67.1517 11.541 775 116.835 565.525 353.019
1956 0 69.1388 13.2342 915 112.247 565.438 351.729
1957 0 71.1189 13.5126 961 112.128 566.135 352.286
1958 0 71.1842 12.3202 877 116.911 565.523 349.686
1959 0 75.1762 12.9429 973 115.281 565.415 349.918
1960 0 76.1169 12.2443 932 117.429 565.225 348.094
1961 0 78.1599 12.8455 1004 116.644 564.986 346.73
1962 0 81.1693 14.0201 1138 112.279 565.39 345.841
1963 0 84.2467 13.3774 1127 113.106 565.032 346.807
1964 0 84.152 12.3586 1040 118.072 564.639 343.187
1965 0 88.1746 12.7021 1120 117.128 564.9 342.188
1966 0 90.1244 12.2941 1108 118.278 564.772 339.798
1967 0 94.2461 13.0615 1231 116.067 564.66 336.699
1968 1 51.1052 11.2904 577 115.007 565.629 358.898
1969 0 51.0935 10.8429 554 117.894 565.44 358.296
1970 0 53.1646 12.3955 659 115.276 564.86 356.718
1971 0 54.1342 11.9333 646 116.365 565.153 357.882
1972 0 57.2034 11.8 675 116.249 565.31 355.721
1973 0 58.1406 12.5386 729 115.102 565.044 356.612
1974 0 60.1425 12.936 778 114.077 565.607 354.111
1975 0 62.1039 13.1876 819 114.029 565.167 352.158
1976 0 63.1635 13.3305 842 114.359 565.095 351.387
1977 0 64.1393 13.5174 867 114.552 565.174 351.34
1978 0 66.1567 12.8029 847 116.667 564.849 349.466
1979 0 69.1414 13.4941 933 115.299 564.489 350.198
1980 0 70.1434 13.0019 912 118.13 564.362 349.061
1981 0 74.0964 14.9805 1110 112.566 564.424 343.232
1982 0 74.1063 13.7775 1021 117.338 564.118 341.905
1983 0 77.1257 13.8346 1067 116.224 564.417 341.819
1984 0 77.123 13.8739 1070 142.662 564.406 341.736
1985 0 83.2117 13.4957 1123 115.443 564.476 339.183
1986 0 84.1114 13.0303 1096 117.328 564.596 340.823
1987 0 86.1368 12.84 1106 120.466 563.942 338.036
1988 0 90.1768 13.7064 1236 118.677 564.4 335.854
1989 1 49.0375 13.0512 640 116.509 565.019 356.306
1990 0 49.1457 12.6563 622 117.256 565.031 357.735
1991 0 49.0137 12.874 631 117.166 565.494 357.13
1992 0 52.0466 12.9884 676 117.669 565.938 356.359
1993 0 54.1173 13.6555 739 115.628 565.969 354.422
1994 0 57.0807 13.6649 780 114.781 565.633 354.941
1995 0 56.0997 12.7273 714 119.873 565.629 353.536
1996 0 59.1238 12.6007 745 119.502 565.768 353.077
1997 0 60.2138 12.904 777 119.638 565.493 352.116
1998 0 62.1467 13.806 858 117.421 564.918 350.593
1999 0 64.0928 13.1684 844 119.665 564.956 349.654
2000 0 67.1525 13.5215 908 118.041 565.192 349.528
2001 0 70.2213 13.3293 936 117.308 564.58 348.944
2002 0 71.1505 13.8017 982 117.564 564.465 345.774
2003 0 73.1656 14.228 1041 116.805 564.327 345.7
2004 0 78.115 13.8002 1078 115.34 564.702 345.056
2005 0 79.0945 13.9453 1103 116.071 564.762 344.123
2006 0 83.1107 14.0776 1170 115.942 564.888 341.523
2007 0 85.1196 13.158 1120 119.566 563.866 340.501
2008 0 89.1454 13.6182 1214 118.976 564.011 336.7
2009 0 93.1435 13.8281 1288 118.058 564.141 335.095
2010 0 93.1153 13.5638 1263 121.031 564.08 330.396
2011 1 48.0948 11.4981 553 125.987 565.089 353.224
2012 0 49.0784 11.9401 586 126.2 564.602 350.684
2013 0 50.1519 12.9008 647 124.235 564.805 350.048
2014 0 52.0493 13.7754 717 117.464 564.541 349.304
2015 0 52.0341 13.0491 679 120.611 563.947 349.673
2016 0 54.0442 13.0819 707 119.406 564.417 349.936
2017 0 56.1052 12.3696 694 121.447 564.506 350.12
2018 0 55.0356 12.4828 687 122.86 564.876 348.464
2019 0 60.0439 13.6067 817 117.783 564.832 347.246
2020 0 59.0684 13.5098 798 119.501 564.076 347.847
2021 0 61.089 12.7846 781 123.087 564.229 345.342
2022 0 61.0706 13.0996 800 123.91 563.699 345.098
2023 0 65.1795 15.4496 1007 116.063 563.775 344.324
2024 0 67.0935 13.2949 892 122.953 564.117 344.927
2025 0 70.1079 14.278 1001 119.978 563.79 343.556
2026 0 72.0924 15.5079 1118 116.323 564.179 343.382
2027 0 73.1823 13.8831 1016 121.16 564.474 342.743
2028 0 75.1457 14.1459 1063 121.822 564.347 342.234
2029 0 79.1521 14.6048 1156 120.373 564.461 340.892
2030 0 82.1752 15.2357 1252 118.258 564.435 339.966
2031 0 84.2178 14.6169 1231 121.031 564.186 340.171
2032 0 87.1939 14.5423 1268 123.003 564.445 337.237
2033 0 90.2178 15.1855 1370 119.804 564.023 337.188
2034 0 92.2667 13.6344 1258 124.861 563.551 332.28
2035 1 49.1844 12.3007 605 127.104 563.486 352.365
2036 0 49.1893 12.4011 610 128.415 563.528 351.18
2037 0 51.1876 12.1318 621 116.849 563.031 348.414
2038 0 52.0843 12.8446 669 113.774 563.726 346.362
2039 0 54.1136 12.7325 689 113.261 563.56 347.93
2040 0 57.0956 13.1709 752 111.431 563.991 346.872
2041 0 57.0552 12.2513 699 115.421 564.169 345.614
2042 0 60.2254 13.0676 787 113.672 563.778 344.747
2043 0 59.1013 12.1148 716 117.644 563.774 343.212
2044 0 64.2658 12.4639 801 114.596 563.478 343.247
2045 0 67.1487 13.3137 894 112.434 563.139 342.881
2046 0 66.1337 11.7338 776 117.723 563.336 341.86
2047 0 70.0849 13.6977 960 112.681 563.477 339.445
2048 0 72.1637 12.7488 920 115.28 563.784 339.795
2049 0 74.1088 12.1983 904 118.074 563.223 336.716
2050 0 77.1717 13.5801 1048 114.364 562.943 335.998
2051 0 79.1383 13.2679 1050 116.834 563.227 334.63
2052 0 80.0794 12.8248 1027 120.111 562.702 339.078
2053 0 85.0962 14.1839 1207 117.268 562.183 332.927
2054 0 87.1648 12.9525 1129 121.244 563.537 332.137
2055 0 92.2703 13.7639 1270 117.637 563.418 331.226
2056 0 94.227 13.5842 1280 120.156 562.684 327.406
2057 1 49.1691 14.0739 692 111.994 563.091 353.121
2058 0 51.1167 13.3029 680 114.572 562.699 351.109
2059 0 50.1086 12.8122 642 117.033 562.819 349.117
2060 0 54.1688 14.3625 778 109.825 562.841 349.263
2061 0 54.1492 13.4074 726 113.45 562.668 348.762
2062 0 56.1778 12.763 717 116.215 562.967 348.124
2063 0 57.0844 13.3136 760 114.237 563.113 347.901
2064 0 58.0762 13.62 791 113.824 562.995 346.33
2065 0 61.1451 14.4901 886 110.919 563.035 345.828
2066 0 63.1654 13.71 866 113.697 562.876 344.961
2067 0 65.1097 13.8996 905 113.147 563.246 344.756
2068 0 66.1002 14.2208 940 113.795 563.284 342.166
2069 0 69.0584 15.0597 1040 112.07 562.411 341.843
2070 0 71.1527 14.1527 1007 115.075 562.625 343.032
2071 0 72.1346 13.6828 987 117.548 563.471 338.79
2072 0 75.0786 14.4116 1082 117.112 563.662 338.756
2073 0 77.1907 14.4447 1115 117.38 564.12 336.013
2074 0 78.1068 14.0705 1099 119.117 564.004 336.753
2075 0 83.1145 14.4018 1197 116.906 564.283 335.725
2076 0 85.1024 15.4872 1318 115.052 564.37 331.739
2077 0 88.0959 14.0529 1238 118.707 564.401 331.251
2078 0 91.1407 14.6806 1338 117.16 563.655 331.565
2079 0 92.1878 14.1342 1303 121.092 563.444 330.059
2080 0 96.3525 13.3364 1285 122.153 563.406 329.22
2081 1 50.0871 13.9956 701 116.35 563.324 351.857
2082 0 49.1707 13.3209 655 119.035 563.023 350.676
2083 0 51.1164 12.5009 639 116.687 562.2 350.512
2084 0 53.0762 12.6987 674 116.737 562.411 347.933
2085 0 55.1297 13.3685 737 115.374 563.009 346.988
2086 0 55.1021 13.0304 718 117.174 563.474 347.274
2087 0 58.1782 14.129 822 114.642 563.526 346.179
2088 0 62.1413 14.6762 912 112.198 562.946 345.867
2089 0 62.0756 13.838 859 116.258 562.935 343.731
2090 0 62.12 14.1339 878 117.374 562.765 344.298
2091 0 64.0895 13.684 877 120.575 562.529 343.666
2092 0 68.137 15.3221 1044 115.844 562.912 343.986
2093 0 70.1665 13.9525 979 122.095 563.023 341.699
2094 0 74.1896 14.5169 1077 120.244 562.535 341.713
2095 0 74.0681 13.9871 1036 126.108 562.884 339.695
2096 0 78.1702 14.494 1133 126.24 563.009 338.608
2097 0 80.1035 14.294 1145 129.08 563.216 336.421
2098 0 84.1601 14.3417 1207 128.025 563.379 334.181
2099 0 85.1699 13.9251 1186 131.831 563.211 333.003
2100 0 87.1896 13.8549 1208 134.958 562.889 331.94
2101 0 91.1424 14.8339 1352 133.996 562.64 329.709
2102 0 94.2679 15.1907 1432 132.967 562.779 330.179
2103 1 50.1387 11.3884 571 140.398 563.883 353.299
2104 0 53.0872 13.3742 710 134.275 563.29 355.158
2105 0 53.1106 13.2177 702 142.547 562.926 356.286
2106 0 56.1857 14.0427 789 137.384 563.014 361.193
2107 0 57.226 13.6826 783 140.034 562.848 365.157
2108 0 59.259 13.8038 818 138.303 563.249 369.731
2109 0 61.1102 13.9257 851 139.378 563.247 373.021
2110 0 62.1464 13.9831 869 140.048 563.217 374.259
2111 0 64.3085 13.4663 866 142.949 563.5 373.184
2112 0 68.2889 15.0683 1029 136.371 563.469 372.599
2113 0 69.2457 14.9468 1035 138.301 563.229 372.669
2114 0 71.2735 13.8621 988 142.202 563.039 372.365
2115 0 74.4613 14.0073 1043 142.033 563.715 375.982
2116 0 76.3383 14.0689 1074 142.073 563.979 375.149
2117 0 78.3087 14.5705 1141 140.922 563.57 373.041
2118 0 81.39 14.9773 1219 141.168 563.691 367.281
2119 0 81.5102 14.7098 1199 143.603 563.22 368.629
2120 0 84.3134 14.6003 1231 144.867 563.38 366.414
2121 0 88.2879 14.6339 1292 143.776 563.088 365.815
2122 0 88.3862 14.5385 1285 146.623 563.556 364.872
2123 0 94.4632 15.3287 1448 142.017 562.865 364.639
2124 0 96.4123 15.2574 1471 143.613 562.589 362.929
2125 0 100.412 14.8489 1491 143.957 563.381 362.941
2126 0 103.531 15.5703 1612 142.38 562.795 359.592
2127 0 106.706 14.6009 1558 145.267 562.316 359.302
2128 1 58.3008 12.2468 714 140.821 563.011 385.532
2129 0 58.0622 13.2789 771 136.62 563.425 380.904
2130 0 62.0968 14.3486 891 129.301 563.754 380.072
2131 0 64.1351 13.6587 876 129.888 563.584 381.168
2132 0 66.0983 13.8733 917 130.802 563.41 378.696
2133 0 66.0587 13.0944 865 133.205 563.442 379.099
2134 0 68.0273 13.5534 922 131.793 563.091 377.383
2135 0 72.1541 14.0394 1013 128.687 563.037 376.322
2136 0 74.1293 13.3281 988 130.462 563.053 376.779
2137 0 77.1603 13.4784 1040 129.908 563.717 374.885
2138 0 78.0519 13.6576 1066 129.246 563.474 372.522
2139 0 81.0903 13.7624 1116 128.781 563.26 372.46
2140 0 85.1447 13.1188 1117 130.225 563.904 371.343
2141 0 87.0877 13.3084 1159 129.479 563.796 368.988
2142 0 91.1961 13.0378 1189 129.139 563.407 369.342
2143 1 49.2702 12.1777 600 125.455 562.62 387.367
2144 0 50.1701 12.637 634 121.166 562.478 388.446
2145 0 52.1951 11.6869 610 126.907 562.21 385.29
2146 0 53.1873 11.9389 635 125.992 562.29 383.969
2147 0 53.1201 11.7093 622 126.778 562.563 384.095
2148 0 55.162 11.6928 645 126.256 562.823 384.023
2149 0 59.3241 12.7604 757 123.513 562.214 382.624
2150 0 59.2934 11.7551 697 127.253 562.453 382.171
2151 0 61.2618 12.7159 779 125.06 562.258 379.859
2152 0 63.2624 13.9103 880 121.384 562.652 379.873
2153 0 64.1565 13.2177 848 122.98 562.739 377.754
2154 0 66.1843 12.3141 815 123.633 562.605 379.677
2155 0 69.308 14.0676 975 118.526 562.861 377.109
2156 0 69.2406 12.8537 890 121.857 562.68 376.421
2157 0 73.2291 13.3827 980 119.661 563.079 372.636
2158 0 76.2196 11.7817 898 121.361 563.144 373.361
2159 0 78.3852 13.1275 1029 118.759 563.213 371.522
2160 0 82.3755 13.572 1118 116.119 563.5 370.234
2161 0 83.1878 14.894 1239 112.111 563.741 369.663
2162 0 88.3724 13.7486 1215 113.9 563.597 366.741
2163 0 89.2131 12.8344 1145 117.041 562.317 367.947
2164 0 94.2487 12.7217 1199 116.827 563.049 365.77
2165 0 95.3 12.7387 1214 117.67 562.938 364.751
2166 0 102.34 14.2271 1456 113.28 562.79 362.102
2167 0 107.238 13.2882 1425 112.168 562.796 358.799
2168 1 160.299 5.04682 809 121.865 563.007 354.592
2169 1 149.262 9.70109 1448 112.769 563.323 335.943
2170 1 85.6047 10.2681 879 90.2821 563.013 375.253
2171 0 82.5716 11.6263 960 90.4229 563.447 378.394
2172 0 64.0477 14.8951 954 93.0388 563.857 379.864
2173 0 71.107 13.7399 977 92.4882 563.933 374.083
2174 0 70.047 12.9056 904 97.6825 563.854 377.106
2175 0 69.0412 13.3978 925 100.667 563.628 375.988
2176 0 69.0618 12.0327 831 105.035 563.496 374.73
2177 0 72.2187 13.0299 941 102.951 563.978 374.101
2178 0 77.0665 14.0268 1081 98.6004 563.37 371.956
2179 0 79.1706 13.1488 1041 102.382 563.753 371.852
2180 0 81.0696 14.3087 1160 100.298 564.299 370.682
2181 0 79.0998 13.287 1051 106.079 564.276 369.613
2182 0 82.076 13.8896 1140 106.263 563.498 374.409
2183 0 83.0872 11.3014 939 112.345 564.119 380.656
2184 0 87.163 12.6086 1099 111.236 564.14 380.851
2185 0 91.1318 14.0017 1276 115.875 563.778 380.538
2186 0 92.0863 13.5417 1247 117.439 563.998 377.233
2187 0 95.2026 13.445 1280 117.032 564.356 377.016
2188 0 100.11 13.585 1360 116.301 563.64 375.81
2189 0 102.201 13.356 1365 116.782 563.862 374.927
2190 0 107.275 13.6285 1462 118.04 563.683 366.995
2191 1 57.0416 12.3594 705 112.223 564.39 381.262
2192 0 61.0528 11.8914 726 103.182 563.826 381.73
2193 0 61.0661 12.38 756 102.943 563.684 379.393
2194 0 62.0619 12.4714 774 103.202 563.585 380.752
2195 0 62.0794 10.9054 677 107.905 563.684 376.638
2196 0 66.095 11.8163 781 104.88 564.091 378.044
2197 0 69.1081 11.7497 812 106.406 563.463 359.398
2198 0 72.1126 11.7594 848 106.41 562.573 357.05
2199 0 74.1147 11.8465 878 106.691 562.509 358.623
2200 0 78.1199 11.9304 932 106.22 563.894 358.805
2201 0 80.1802 12.5966 1010 106.967 563.203 355.05
2202 0 84.0928 13.0332 1096 105.967 563.299 355.032
2203 0 87.0784 12.6093 1098 105.827 562.907 354.666
2204 0 88.0667 13.1832 1161 107.158 563.953 350.822
2205 0 92.0446 13.0698 1203 106.904 563.674 349.993
2206 1 50.0969 10.1803 510 106.757 563.653 353.161
2207 0 50.0648 10.2068 511 108.151 563.348 353.276
2208 0 51.0168 10.624 542 108.53 563.57 358.006
2209 0 54.0578 12.0612 652 105.632 562.794 365.684
2210 0 54.0215 12.0507 651 106.167 563.132 373.051
2211 0 56.0633 10.5773 593 109.467 563.42 379.538
2212 0 57.121 12.2547 700 105.207 563.987 386.501
2213 0 60.0836 11.95 718 106.779 563.024 368.481
2214 0 60.1936 12.9582 780 106.072 563.1 365.849
2215 0 62.0472 11.8136 733 108.982 562.682 364.192
2216 0 64.1572 11.9238 765 108.295 562.958 363.739
2217 0 65.108 13.5467 882 105.756 563.063 362.793
2218 0 66.1633 11.5925 767 110.705 563.128 363.147
2219 0 66.1968 10.3026 682 115.268 562.968 360.428
2220 0 72.2552 12.8019 925 108.229 563.142 359.776
2221 0 75.3885 12.4555 939 109.733 563.586 360.091
2222 0 76.128 12.0192 915 112.579 562.88 359.628
2223 0 80.2881 12.2185 981 110.76 563.23 359.595
2224 0 83.1411 12.3645 1028 110.963 563.314 359.345
2225 0 85.1983 12.8289 1093 111.156 563.1 361.398
2226 0 87.3052 12.8057 1118 112.121 562.953 356.314
2227 0 92.3348 12.2814 1134 112.073 562.988 357.241
2228 0 95.2659 13.3416 1271 112.721 563.203 354.899
2229 0 96.383 13.9962 1349 116.549 563.704 352.907
2230 1 62.1348 17.977 1117 86.068 564.072 365.913
2231 0 60.0731 15.1982 913 98.8927 564.044 373.156
2232 0 58.0827 13.0848 760 107.826 563.891 371.738
2233 0 59.0605 14.0873 832 105.897 564.221 370.421
2234 0 62.1142 13.3464 829 107.613 564.241 369.883
2235 0 63.0657 15.6028 984 102.916 564.553 370.549
2236 0 60.1368 13.3196 801 114.467 564.603 371.654
2237 0 63.1105 13.1674 831 114.572 564.448 371.184
2238 0 63.0287 12.5816 793 118.067 564.063 371.047
2239 0 66.1462 12.6991 840 118.04 564.051 369.2
2240 0 67.0507 12.5577 842 120.376 563.61 366.496
2241 0 71.0551 13.4684 957 117.601 564.497 366.773
2242 0 74.0524 12.9503 959 119.662 564.063 365.474
2243 0 76.0301 13.2316 1006 120.305 564.13 364.78
2244 0 79.1197 13.0941 1036 120.643 564.567 363.963
2245 0 80.1212 13.5669 1087 121.333 564.296 362.497
2246 0 82.3043 13.8389 1139 122.576 563.253 359.786
2247 0 86.3282 13.495 1165 123.842 562.97 359.34
2248 0 87.3254 13.318 1163 125.995 563.452 357.422
2249 0 90.5542 12.6664 1147 128.462 563.013 354.379
2250 0 91.2545 13.5336 1235 128.087 563.124 347.629
2251 0 98.218 13.4497 1321 127.09 563.048 347.813
2252 1 51.0756 11.2774 576 121.927 564.092 371.372
2253 0 53.0624 11.1001 589 117.949 563.655 369.565
2254 0 56.0566 11.1495 625 114.048 562.446 368.581
2255 0 56.1367 10.9732 616 115.32 562.049 366.343
2256 0 59.0936 11.2364 664 114.19 562.703 367.492
2257 0 60.1157 11.0786 666 115.958 562.539 367.814
2258 0 60.0504 11.3238 680 116.496 562.391 367.721
2259 0 63.1074 10.8703 686 116.299 563.229 369.542
2260 0 66.1632 10.7915 714 116.867 562.983 372.368
2261 0 68.1778 11.0886 756 117.812 562.602 372.066
2262 0 71.0855 12.1403 863 115.167 562.603 373.088
2263 0 72.1584 11.4886 829 120.349 563.08 359.451
2264 0 74.1496 11.8949 882 121.98 562.048 360.635
2265 0 75.1652 11.3883 856 125.147 562.187 359.884
2266 0 78.249 11.8212 925 125.027 561.891 357.453
2267 0 81.11 11.6508 945 124.242 561.418 360.188
2268 0 83.1805 12.5751 1046 125.431 561.081 358.228
2269 1 46.0718 10.3317 476 120.485 561.317 379.393
2270 0 45.021 11.639 524 130.004 561.202 373.574
2271 0 56.0454 16.1833 907 105.126 561.55 361.549
2272 0 56.0174 14.7633 827 112.422 561.313 363.453
2273 0 50.0323 11.8124 591 130.883 561.585 366.327
2274 0 51.048 11.166 570 132.365 561.672 367.047
2275 0 52.0264 11.6672 607 133.567 560.763 362.783
2276 0 52.0303 11.2434 585 136.15 560.337 362.747
2277 0 55.0772 12.3463 680 133.287 560.426 361.863
2278 0 59.0615 13.0203 769 129.596 559.966 360.871
2279 0 60.0515 12.6891 762 132.073 559.471 360.038
2280 0 61.0395 12.6967 775 134.03 559.547 358.31
2281 0 63.0491 12.5934 794 133.487 559.31 359.113
2282 0 65.0491 13.3591 869 131.069 558.799 357.946
2283 0 66.0918 13.1938 872 132.898 559.116 356.093
2284 0 68.0981 12.9372 881 132.621 559.093 353.465
2285 0 70.0543 12.9186 905 133.349 559.027 353.24
2286 0 71.1906 12.3893 882 136.327 559.099 342.155
2287 0 72.077 12.7364 918 134.939 558.946 341.475
2288 0 76.0608 13.1605 1001 126.095 558.349 340.313
2289 0 78.0957 13.842 1081 121.498 557.385 343.008
2290 0 80.1368 13.1899 1057 122.39 557.691 344.117
2291 0 83.1378 13.9046 1156 120.138 558.138 338.513
2292 0 85.1574 13.3283 1135 121.502 557.745 338.79
2293 0 89.2642 13.5441 1209 122.337 557.273 336.609
2294 0 91.0962 13.7218 1250 121.81 557.803 334.953
2295 0 91.0962 13.7767 1255 152.531 557.81 335.027
2296 0 98.0587 13.3491 1309 122.848 558.147 335.091
2297 0 101.149 13.4653 1362 126.644 557.869 331.698
2298 0 105.143 13.9239 1464 124.732 557.77 328.393
2299 1 58.1337 11.4736 667 113.768 557.852 354.097
2300 0 59.0505 12.0913 714 112.387 557.465 353.255
2301 0 61.0289 11.2406 686 112.363 557.862 350.898
2302 0 63.0776 12.1438 766 112.73 556.909 350.916
2303 0 64.0201 12.3086 788 110.429 557.204 351.813
2304 0 67.0621 12.809 859 108.962 556.935 352.577
2305 0 71.0545 12.8211 911 107.586 557.128 353.82
2306 0 72.0257 12.1346 874 108.84 557.021 356.812
2307 0 74.1311 11.7494 871 110.398 556.673 355.428
2308 0 74.046 10.3989 770 115.503 556.908 352.238
2309 0 79.043 12.0694 954 113.426 557.144 351.645
2310 0 83.1036 13.4049 1114 110.697 556.779 349.18
2311 0 86.1203 12.4245 1070 112.02 556.396 348.868
2312 0 89.0476 12.1733 1084 113.164 556.482 342.661
2313 1 48.079 10.5451 507 105.185 556.692 365.369
2314 0 44.0361 8.65199 381 110.748 556.467 364.228
2315 0 52.153 11.1403 581 106.967 556.688 364.377
2316 0 56.0908 13.4781 756 108.575 557.59 366.201
2317 0 55.0318 13.1197 722 110.677 557.665 367.497
2318 0 58.0674 13.2777 771 109.877 557.724 367.86
2319 0 60.0501 13.4388 807 110.674 557.866 365.819
2320 0 61.1281 12.4983 764 113.809 557.949 363.829
2321 0 63.0923 14.4867 914 108.829 557.991 361.815
2322 0 64.1496 13.0944 840 114.155 558.46 358.436
2323 0 68.0856 14.0999 960 110.403 558.373 359.841
2324 0 67.1041 13.6504 916 114.793 559.321 358.531
2325 0 71.0837 13.6318 969 113.784 558.815 357.612
2326 0 72.028 13.4947 972 114.283 558.692 357.992
2327 0 74.1045 13.4675 998 114.65 558.732 355.501
2328 0 75.1404 13.2552 996 115.407 558.481 354.086
2329 0 80.1147 13.93 1116 112.145 558.53 353.42
2330 0 80.1017 13.5702 1087 115.101 558.372 352.181
2331 0 85.1983 13.6975 1167 113.874 558.393 349.688
2332 1 44.0386 11.9441 526 116.958 559.416 369.397
2333 0 44.0398 12.2389 539 115.395 558.909 367.707
2334 0 52.0521 19.2115 1000 92.655 559.139 361.865
2335 0 50.0525 15.5636 779 106.166 558.92 363.14
2336 0 48.0604 12.7132 611 118.224 558.782 365.285
2337 0 52.0354 13.4524 700 114.804 559.213 363.984
2338 0 53.0393 13.9896 742 114.148 559.032 362.48
2339 0 52.0232 12.629 657 120.309 558.89 360.482
2340 0 55.0404 13.1721 725 117.486 559.102 362.801
2341 0 55.0336 11.6656 642 120.727 559.064 365.405
2342 0 59.0683 12.7988 756 117.517 559.168 362.96
2343 0 61.0419 12.9583 791 117.086 558.991 362.33
2344 0 62.0119 13.0781 811 115.485 559.306 362.309
2345 0 64.0199 13.6676 875 115.338 559.201 360.243
2346 0 66.0292 13.6455 901 115.402 559.769 358.998
2347 0 67.0866 14.5931 979 114.364 559.402 356.716
2348 0 69.0883 13.9532 964 114.413 559.48 356.357
2349 0 69.0417 12.8038 884 119.831 559.729 354.906
2350 0 73.0498 13.2102 965 117.293 559.402 354.687
2351 0 76.0715 14.8939 1133 112.881 560.306 352.605
2352 0 78.0514 14.4264 1126 116.016 559.923 350.49
2353 0 80.0915 14.2087 1138 117.14 559.773 348.715
2354 0 81.1732 12.7998 1039 121.302 560.389 346.906
2355 0 86.059 14.339 1234 117.555 559.751 346.14
2356 0 89.1384 14.1465 1261 117.749 559.896 344.42
2357 0 90.3163 13.2313 1195 120.239 560.551 343.754
2358 0 95.1157 14.0881 1340 118.946 559.884 330.492
2359 1 47.0082 11.0406 519 117.919 561.547 359.499
2360 0 50.1184 11.7721 590 116.047 561.514 366.834
2361 0 50.1676 11.9599 600 112.99 560.607 371.617
2362 0 50.0381 11.3114 566 116.295 561.47 366.747
2363 0 55.1393 12.55 692 111.643 561.457 360.867
2364 0 57.1001 12.4343 710 111.327 561.618 360.004
2365 0 58.0571 12.9355 751 110.98 561.858 359.808
2366 0 58.0836 13.5322 786 111.079 561.823 357.505
2367 0 62.1103 12.8642 799 110.2 561.846 357.444
2368 0 63.0689 12.4626 786 110.849 561.919 358.905
2369 0 65.0851 12.7986 833 110.815 562.04 356.187
2370 0 67.0908 13.9512 936 107.972 561.897 344.349
2371 0 70.1488 13.899 975 108.361 562.056 342.606
2372 0 73.0999 13.0643 955 109.999 562.417 340.895
2373 0 72.2662 12.7584 922 111.582 562.384 341.022
2374 0 75.0507 13.5508 1017 110.604 561.889 337.981
2375 0 78.1246 13.4401 1050 111.153 561.89 337.203
2376 0 81.1528 13.7395 1115 111.88 562.396 331.645
2377 0 82.0836 12.8528 1055 116.014 561.173 317.653
2378 0 85.1324 13.4379 1144 115.272 561.791 320.089
2379 0 88.1244 15.1377 1334 109.919 561.855 326.281
2380 0 90.1009 14.0509 1266 111.893 561.979 328.291
2381 0 93.1687 13.8566 1291 112.696 561.495 330.773
2382 0 94.1275 13.8536 1304 112.265 561.353 323.271
2383 0 99.2912 14.8956 1479 109.039 561.52 323.28
2384 0 101.266 14.062 1424 112.176 561.182 322.298
2385 0 103.132 14.3893 1484 111.903 561.787 320.824
2386 0 108.249 15.954 1727 107.543 561.328 322.336
2387 1 56.1091 10.9073 612 110.261 562.966 350.691
2388 0 58.0339 10.2354 594 108.808 562.38 348.773
2389 0 61.0672 12.2652 749 101.511 561.829 348.825
2390 0 61.0959 12.4886 763 98.5583 561.706 349.485
2391 0 63.0588 12.5914 794 99.5327 561.134 351.014
2392 0 65.0946 12.9965 846 97.3617 560.896 352.684
2393 0 68.1359 12.3577 842 98.7601 561.205 345.405
2394 0 69.1243 11.6457 805 101.716 560.755 344.719
2395 0 72.105 12.6482 912 100.492 561.095 343.26
2396 0 72.0733 12.404 894 102.416 561.05 341.906
2397 0 73.0641 11.88 868 104.901 560.821 341.048
2398 0 79.1078 13.134 1039 100.883 561.103 341.585
2399 0 80.1622 13.822 1108 100.227 561.246 342.897
2400 0 83.142 13.1462 1093 102.521 560.907 346.238
2401 0 86.1525 13.1395 1132 103.972 560.996 317.729
2402 0 88.2229 12.6951 1120 107.657 561.504 317.146
2403 0 90.2594 13.9487 1259 103.979 561.575 312.343
2404 0 94.1542 11.9591 1126 108.157 561.552 314.597
2405 0 96.2572 13.921 1340 105.268 561.458 311.064
2406 0 100.414 12.9265 1298 110.193 561.192 310.915
2407 0 103.379 13.0006 1344 109.99 562.044 321.254
2408 1 56.0157 12.1573 681 104.38 562.338 346.007
2409 0 58.0667 12.124 704 110.548 562.989 344.777
2410 0 59.0767 11.7813 696 111.223 563.451 346.003
2411 0 63.0499 12.6249 796 107.722 563.676 351.604
2412 0 64.036 13.6798 876 106.892 563.289 355.138
2413 0 67.0969 12.6831 851 108.073 562.645 361.838
2414 0 66.1096 12.691 839 109.023 563.832 367.108
2415 0 70.0594 14.2165 996 104.991 562.926 375.501
2416 0 71.0252 12.4041 881 109.064 562.318 380.984
2417 0 73.0308 12.7207 929 106.699 562.243 385.098
2418 0 76.0807 12.6971 966 105.402 562.588 388.961
2419 0 80.1074 13.5318 1084 103.146 562.68 391.243
2420 0 82.1125 12.4098 1019 105.246 562.814 391.084
2421 0 86.0472 13.7599 1184 103.753 562.586 389.165
2422 0 87.087 13.1822 1148 105.527 562.716 386.318
2423 0 89.1208 12.1184 1080 107.949 562.535 383.831
2424 0 93.1938 13.3807 1247 99.5405 562.791 382.926
2425 0 95.2153 12.3615 1177 101.943 562.257 379.416
2426 0 100.176 12.2385 1226 101.707 562.193 380.294
2427 0 103.141 13.1277 1354 99.5236 562.011 377.445
2428 0 105.242 13.1032 1379 102.091 561.781 376.101
2429 1 54.071 12.909 698 97.0043 561.468 404.324
2430 0 57.0905 13.2596 757 95.5588 561.354 403.834
2431 0 57.0323 12.2387 698 99.0287 561.504 393.775
2432 0 61.0936 12.2271 747 96.6439 561.896 399.376
2433 0 60.0538 12.1391 729 99.642 561.229 389.278
2434 0 64.0456 12.9751 831 98.1949 560.823 385.714
2435 0 65.0956 13.3957 872 97.7362 561.138 382.717
2436 0 67.0806 13.6701 917 98.3501 561.586 382.875
2437 0 69.0488 12.9039 891 100.325 561.832 381.566
2438 0 70.0993 12.7391 893 102.426 561.37 377.428
2439 0 75.1644 14.3419 1078 98.9147 561.326 377.905
2440 0 75.0631 13.2289 993 103.024 561.654 372.829
2441 0 79.0703 14.0634 1112 102.019 562.076 364.311
2442 0 82.0633 13.6602 1121 104.067 562.137 364.53
2443 0 85.0971 13.2907 1131 106.145 561.765 362.123
2444 0 88.0938 14.0532 1238 105.25 562.357 361.418
2445 0 91.2376 15.4651 1411 103.227 562.169 357.16
2446 0 93.2109 14.5798 1359 107.256 562.419 343.61
2447 1 49.0637 13.1462 645 113.282 562.023 363.214
2448 0 49.122 11.7463 577 121.686 561.354 363.584
2449 0 54.1252 14.1893 768 112.54 561.991 368.105
2450 0 53.0684 12.6629 672 112.205 562.121 375.491
2451 0 54.184 11.9223 646 113.407 562.41 381.766
2452 0 55.0921 12.7786 704 112.526 561.82 388.206
2453 0 58.0779 13.5852 789 110.842 561.888 387.553
2454 0 59.0838 13.6755 808 112.385 562.155 382.422
2455 0 63.1984 15.6333 988 106.066 562.017 381.153
2456 0 65.0672 14.3237 932 109.958 562.714 381.151
2457 0 66.1857 14.7464 976 110.511 562.643 376.774
2458 0 68.2477 13.9932 955 111.898 561.929 379.325
2459 0 71.3078 14.6828 1047 110.667 561.261 377.438
2460 0 73.2573 13.8007 1011 112.927 561.587 378.307
2461 0 77.1945 15.1436 1169 109.43 561.583 375.082
2462 0 79.2488 15.2936 1212 109.131 561.364 374.253
2463 0 82.1909 15.4153 1267 108.058 561.976 374.268
2464 0 85.2276 13.8218 1178 110.85 562.23 374.008
2465 0 87.1309 13.4166 1169 112.54 562.379 371.623
2466 0 89.1786 13.0749 1166 117.148 562.491 369.003
2467 0 93.1616 13.5142 1259 115.458 561.595 369.489
2468 0 95.14 12.1085 1152 117.87 562.459 368.688
2469 0 99.2506 13.3803 1328 115.276 562.102 365.499
2470 1 50.1542 13.4984 677 113.461 562.507 389.329
2471 0 49.0875 13.262 651 116.665 562.292 388.868
2472 0 54.0677 14.2599 771 109.013 562.283 388.654
2473 0 56.1147 13.0804 734 111.849 562.864 388.896
2474 0 55.2868 13.3486 738 112.68 562.756 387.482
2475 0 58.2093 14.4479 841 109.867 562.265 386.845
2476 0 62.0727 14.3703 892 107.955 562.835 388.496
2477 0 63.1877 15.0821 953 107.877 563.17 386.284
2478 0 66.1418 13.9246 921 110.163 562.765 385.952
2479 0 66.2041 13.2167 875 112.509 562.927 386.703
2480 0 68.1619 14.4656 986 110.007 562.809 384.111
2481 0 71.1387 14.0289 998 110.086 562.868 385.447
2482 0 75.1645 13.9161 1046 110.228 562.719 383.374
2483 0 76.2564 13.7038 1045 111.02 562.608 383.042
2484 0 79.1666 14.0211 1110 110.057 562.125 383.513
2485 0 81.0772 13.3576 1083 111.253 562.96 383.19
2486 0 84.1117 14.3381 1206 109.789 563.192 380.498
2487 0 83.1422 12.9176 1074 114.005 562.538 378.815
2488 0 89.1694 13.7715 1228 110.498 562.989 376.741
2489 1 45.1635 12.3551 558 118.088 562.955 398.93
2490 0 47.0907 14.1429 666 114.183 562.399 400.026
2491 0 48.0833 14.1421 680 114.528 562.707 398.487
2492 0 56.1058 19.2672 1081 95.395 563.033 395.648
2493 0 60.1943 15.2672 919 103.31 563.131 395.38
2494 0 60.0295 17.6913 1062 98.9623 562.843 395.443
2495 0 57.1579 15.9383 911 107.252 562.917 395.973
2496 0 71.17 17.1842 1223 95.7858 562.863 392.089
2497 0 70.4345 19.6779 1386 92.5123 562.865 390.983
2498 0 70.1224 19.0524 1336 96.9895 562.715 393.268
2499 0 70.2169 17.5172 1230 102.741 563.543 394.12
2500 0 72.1936 19.3092 1394 98.5696 563.554 390.541
2501 0 72.1012 18.3769 1325 103.777 563.118 393.18
2502 0 72.1202 16.4586 1187 111.566 563.275 393.522
2503 0 70.1609 14.3955 1010 121.608 562.612 395.463
2504 0 75.1119 15.0709 1132 117.822 562.435 396.166
2505 0 85.1331 14.0486 1196 110.525 562.502 314.469
2506 0 81.2096 15.5524 1263 117.219 562.785 392.864
2507 0 79.1196 14.4338 1142 123.676 562.607 395.567
2508 0 85.1609 14.9482 1273 121.277 562.57 395.823
2509 0 86.0764 14.3477 1235 124.369 562.887 395.739
2510 0 89.1629 14.524 1295 123.876 562.925 396.483
2511 0 92.1079 13.8967 1280 125.808 563.209 395.669
2512 0 95.1466 14.2412 1355 126.15 562.694 393.203
2513 0 100.249 14.8131 1485 123.545 562.785 392.822
2514 0 105.186 15.021 1580 124.643 563.281 392.472
2515 0 107.279 14.0941 1512 128.599 563.062 390.536
2516 0 113.139 16.5901 1877 121.662 562.855 388.045
2517 0 122.115 14.6829 1793 126.654 562.959 387.385
2518 1 71.1065 17.734 1261 106.467 563.489 415.163
2519 0 72.1459 16.9518 1223 110.474 563.333 415.905
2520 0 73.177 17.4235 1275 110.475 562.887 416.869
2521 0 72.2152 15.8277 1143 127.061 562.293 329.785
2522 1 167.373 6.88879 1153 131.053 563.167 403.759
2523 0 169.446 7.87274 1334 132.363 562.88 395.834
2524 0 171.534 8.31323 1426 130.053 562.959 397.736
2525 0 170.455 7.10452 1211 134.613 563.148 401.889
2526 1 114.982 22.4645 2583 84.9938 562.431 404.237
2527 0 106.517 17.2461 1837 103.347 563.629 417.002
2528 0 102.394 21.8666 2239 95.5565 563.049 413.831
2529 0 111.414 17.8344 1987 103.464 563.237 418.714
2530 0 110.394 18.923 2089 101.908 563.432 415.832
2531 0 109.437 17.3981 1904 108.676 563.64 418.357
2532 0 112.261 19.802 2223 101.961 563.995 416.413
2533 0 114.418 19.2365 2201 103.815 563.687 415.546
2534 1 55.1462 11.406 629 112.876 561.882 455.927
2535 0 56.2231 10.8319 609 115.107 562.322 457.2
2536 0 58.1119 11.3058 657 114.358 562.321 458.196
2537 0 59.2262 12.3932 734 110.369 562.298 460.696
2538 0 60.1194 10.8284 651 114.96 562.432 461.313
2539 0 62.1325 11.572 719 111.406 562.232 464.118
2540 0 64.1225 11.1817 717 112.674 561.877 465.241
2541 0 66.1371 12.9882 859 108.718 562.08 467.377
2542 0 67.1114 10.8327 727 113.415 562.245 468.446
2543 0 65.1479 10.929 712 115.92 562.263 467.419
2544 0 71.0899 11.0705 787 112.935 562.025 469.243
2545 0 74.1668 11.1371 826 112.168 562.478 468.311
2546 1 176.123 20.5481 3619 100.234 563.548 407.688
2547 0 177.709 19.2843 3427 105.697 563.871 410.062
2548 0 178.59 17.7558 3171 111.743 563.914 409.927
2549 0 179.544 19.0371 3418 110.455 563.499 406.633
2550 1 88.1935 9.38844 828 115.149 563.088 463.603
2551 0 91.2451 10.6526 972 113.621 562.972 459.562
2552 0 94.3399 9.97457 941 113.482 562.731 459.114
2553 0 95.4093 9.15005 873 115.755 563.033 455.167
2554 1 50.0819 9.38464 470 109.762 562.002 477.547
2555 0 53.053 8.82137 468 109.846 561.671 479.323
2556 0 56.1001 9.21566 517 108.203 561.979 477.368
2557 0 55.0719 8.8793 489 108.483 561.344 478.462
2558 0 57.1126 9.38496 536 108.599 562.015 473.571
2559 0 57.1469 6.75452 386 114.13 561.889 471.49
2560 0 61.1006 8.70696 532 110.167 561.331 472.036
2561 0 65.1344 9.0889 592 109.083 561.853 471.275
2562 0 66.0841 8.62537 570 110.121 562.044 471.986
2563 0 68.1143 7.75167 528 112.54 561.407 468.258
2564 0 70.248 8.25646 580 111.576 561.533 469.066
2565 1 143.269 7.86631 1127 119.631 562.821 432.776
2566 0 148.355 9.49752 1409 118.417 562.916 429.362
2567 0 155.309 8.57647 1332 119.563 562.218 426.153
2568 1 37.0176 6.6725 247 109.7 560.773 484.802
2569 0 42.023 8.8761 373 105.177 560.831 483.239
2570 0 43.0776 8.44988 364 106.591 561.19 483.819
2571 0 43.0489 8.45549 364 107.962 561.33 482.819
2572 0 45.0258 9.57229 431 105.457 561.571 481.397
2573 0 48.0779 9.13102 439 106.72 561.556 479.178
2574 0 47.0221 6.97544 328 112.893 562.091 477.402
2575 0 54.0571 8.99049 486 107.922 561.753 478.101
2576 0 50.0561 7.89115 395 110.8 562.066 477.2
2577 0 59.1113 9.08455 537 106.205 562.138 478.404
2578 0 59.0842 10.9843 649 102.673 561.726 479.424
2579 0 58.0587 10.386 603 106.348 561.698 476.69
2580 0 62.0661 9.97323 619 106.402 561.767 477.748
2581 0 62.0483 11.3299 703 105.882 561.647 475.772
2582 0 63.0808 10.4152 657 110.043 561.813 473.501
2583 0 70.1136 11.952 838 104.433 562.278 475.853
2584 0 68.1304 11.3899 776 108.563 562.512 472.857
2585 0 74.1065 9.49984 704 112.226 561.73 474.79
2586 0 71.1476 11.4551 815 111.053 561.766 469.893
2587 0 76.1681 12.6956 967 107.322 561.595 470.355
2588 0 79.2992 10.4162 826 113.205 562.123 471.202
2589 0 79.1167 11.7042 926 112.645 561.922 470.612
2590 0 81.172 13.1326 1066 111.293 562.284 467.583
2591 1 41.022 9.48272 389 115 561.308 487.249
2592 0 44.0268 11.1523 491 109.847 561.063 486.454
2593 0 45.0808 10.3592 467 113.621 561.319 484.049
2594 0 46.0089 10.4762 482 113.971 560.992 485.357
2595 0 49.0057 10.9171 535 113.049 561.456 485.084
2596 0 49.0219 11.6886 573 111.504 561.637 486.045
2597 0 51.0325 11.4437 584 113.103 561.765 484.36
2598 0 51.044 10.9513 559 117.36 561.513 482.943
2599 0 55.0187 12.5957 693 111.051 561.405 482.316
2600 0 56.019 12.7814 716 111.588 561.163 481.645
2601 0 58.0356 11.8376 687 113.857 561.316 482.531
2602 0 58.0697 12.2783 713 115.896 561.283 479.568
2603 0 60.0904 11.8322 711 115.601 561.301 482.138
2604 0 61.0795 12.4428 760 115.984 561.149 478.384
2605 0 61.0869 11.3445 693 119.719 561.462 479.165
2606 0 67.0467 12.096 811 115.328 561.642 478.677
2607 0 66.0097 12.4982 825 117.04 561.582 476.978
2608 0 67.094 11.8341 794 119.549 561.557 475.685
2609 0 71.0453 13.1043 931 115.752 562.186 475.112
2610 0 72.0314 13.1054 944 116.394 561.475 472.985
2611 0 73.0419 12.0616 881 118.8 561.914 474.262
2612 0 77.0871 12.8037 987 115.991 562.157 473.061
2613 0 80.1028 12.2468 981 118.1 562.17 471.464
2614 0 81.0662 12.3726 1003 117.507 561.689 470.746
2615 1 44.019 10.5863 466 116.101 561.856 489.12
2616 0 46.0444 12.2708 565 112.281 561.834 488.057
2617 0 45.0427 12.3216 555 110.708 561.622 488.8
2618 0 48.0215 11.7656 565 114.276 562.294 488.184
2619 0 49.0312 10.3607 508 118.965 562.018 486.778
2620 0 49.0262 11.4225 560 117.057 561.523 486.677
2621 0 53.0154 11.6381 617 115.609 560.801 486.17
2622 0 54.036 11.5479 624 117.28 561.079 486.032
2623 0 56.0228 12.1379 680 115.509 560.976 485.982
2624 0 57.0281 13.467 768 113.224 560.986 485.229
2625 0 57.0748 11.371 649 120.746 560.47 485.194
2626 0 59.0622 13.6128 804 114.751 560.595 483.286
2627 0 60.0474 13.073 785 117.304 559.89 482.913
2628 0 60.0612 12.454 748 119.532 560.424 484.626
2629 0 63.0417 12.5948 794 119.145 560.266 480.824
2630 0 65.0515 13.0819 851 118.484 560.243 481.376
2631 0 67.0369 12.6796 850 120.314 560.252 480.549
2632 0 70.0461 13.5054 946 117.757 560.01 480.067
2633 0 73.0933 13.2707 970 118.599 560.72 479.526
2634 0 74.1152 12.602 934 121.859 560.172 478.613
2635 0 76.0258 14.0216 1066 118.177 560.403 478.586
2636 0 78.0566 13.6183 1063 120.547 560.095 474.843
2637 0 80.053 12.9289 1035 121.754 560.538 475.544
2638 0 83.097 13.1774 1095 121.428 560.425 473.889
2639 1 43.0156 10.9728 472 119.968 560.078 494.839
2640 0 42.0351 10.5388 443 123.104 559.603 494.515
2641 0 45.0181 11.7064 527 121.45 559.731 492.62
2642 0 46.0187 11.5823 533 122.146 559.189 491.829
2643 0 49.04 12.0922 593 119.329 559.524 491.528
2644 0 51.0367 13.1866 673 115.322 559.481 492.001
2645 0 51.0367 13.5197 690 116.314 559.322 489.97
2646 0 52.0311 12.0505 627 121.23 558.705 489.404
2647 0 54.0498 12.433 672 120.668 558.149 487.338
2648 0 53.0317 11.2763 598 124.865 558.592 487.363
2649 0 56.0261 11.9766 671 122.006 558.368 486.545
2650 0 58.0479 13.1443 763 118.645 558.621 486.976
2651 0 59.047 12.8033 756 120.348 558.798 485.615
2652 0 61.0837 12.3274 753 121.275 558.375 484.121
2653 0 61.0188 11.9144 727 122.122 558.869 484.338
2654 0 63.0587 12.861 811 120.054 559.3 482.318
2655 0 64.0625 11.879 761 122.675 558.558 481.104
2656 0 64.0625 11.9259 764 136.654 557.563 481.051
2657 0 68.0629 12.2975 837 120.173 558.902 480.268
2658 0 71.0364 12.5288 890 119.961 559.309 477.666
2659 0 77.0218 13.4118 1033 114.906 559.299 478.037
2660 1 38.0472 10.5921 403 114.926 559.467 497.159
2661 0 41.0216 11.628 477 111.113 559.109 495.939
2662 0 42.0151 11.7577 494 111.506 558.609 494.397
2663 0 47.0585 14.6201 688 99.1948 558.911 491.259
2664 0 48.0538 15.3786 739 98.1042 559.101 491.184
2665 0 46.0291 13.2308 609 105.213 558.857 490.478
2666 0 47.0196 15.1001 710 99.5662 558.8 489.296
2667 0 52.0283 15.5108 807 112.28 559.545 387.543
2668 1 188.089 7.50708 1412 111.608 558.785 419.356
2669 0 188.1 7.45879 1403 139.184 558.775 419.42
2670 0 189.092 5.94947 1125 121.864 559.304 416.092
2671 0 186.146 6.47342 1205 119.315 559.466 422.492
2672 1 110.049 10.6952 1177 80.6228 557.875 463.591
2673 0 99.9012 14.6945 1468 76.0245 558.164 469.372
2674 0 97.8737 10.4625 1024 91.7783 559.222 479.182
2675 0 95.0751 9.2348 878 99.2472 559.051 480.681
2676 0 88.113 11.7009 1031 94.9961 559.085 479.751
2677 1 184.111 9.71154 1788 110.779 559.761 423.067
2678 0 185.079 5.61923 1040 113.569 558.741 456.113
2679 0 183.041 4.66561 854 117.4 559.522 459.711
2680 1 110.015 15.8706 1746 78.5235 559.231 466.965
2681 0 114.311 13.4808 1541 84.1772 559.237 465.225
2682 0 107.628 18.8242 2026 75.7389 559.679 460.685
2683 0 101.301 13.0798 1325 95.3887 559.326 472.591
2684 0 93.5146 21.9966 2057 78.2183 559.117 461.733
2685 0 90.1216 16.5332 1490 94.7154 558.964 470.544
2686 1 40.0258 10.3933 416 110.969 558.406 494.642
2687 0 41.0121 11.3381 465 109.245 558.462 493.127
2688 0 42.0343 10.9434 460 112.183 558.439 492.272
2689 0 44.0219 11.517 507 109.726 558.493 492.653
2690 0 46.0373 11.7079 539 110.302 558.375 490.501
2691 0 46.0258 11.7325 540 110.837 559.176 491.017
2692 0 47.0659 11.5158 542 113.945 559.205 487.788
2693 0 49.0341 11.8489 581 112.878 559.277 487.988
2694 0 52.0354 11.8573 617 112.172 558.601 487.465
2695 0 53.0353 13.689 726 108.983 558.869 487.687
2696 0 53.062 12.0425 639 114.502 559.476 488.072
2697 0 57.163 12.7705 730 112.37 559.505 486.61
2698 0 57.1002 12.3992 708 114.949 559.586 484.864
2699 0 59.1061 12.7229 752 115.652 559.378 482.9
2700 0 60.0661 12.9357 777 116.815 559.853 481.704
2701 0 63.0695 13.4296 847 115.913 559.813 481.764
2702 0 64.1418 12.753 818 119.479 560.326 480.323
2703 0 66.0348 12.5843 831 120.406 560.148 479.894
2704 0 68.0885 12.9831 884 120.199 559.813 480.11
2705 0 70.084 13.3697 937 120.078 559.501 478.764
2706 0 74.0819 12.7561 945 120.467 559.412 476.501
2707 0 75.1061 13.3811 1005 119.754 559.132 475.956
2708 0 77.132 12.8481 991 121.867 558.703 475.817
2709 0 79.0973 12.6679 1002 123.188 559.651 473.761
2710 0 83.1095 12.5256 1041 123.502 559.128 473.347
2711 0 85.0948 12.821 1091 122.627 559.107 470.678
2712 1 41.0366 10.5759 434 121.53 558.848 492.032
2713 0 45.0099 10.9087 491 118.285 559.202 492.442
2714 0 44.044 11.2615 496 119.026 559.298 490.246
2715 0 47.0257 11.4618 539 118.193 559.212 490.542
2716 0 47.0278 12.3119 579 117.33 559.022 489.872
2717 0 48.0377 11.262 541 120.804 559.658 490.124
2718 0 51.0073 11.9787 611 119.234 559.079 487.44
2719 0 51.033 10.7969 551 124.098 559.225 487.39
2720 0 52.0068 11.1908 582 123.852 560.038 485.576
2721 0 54.0366 11.7328 634 121.938 559.47 486.304
2722 0 55.0361 12.2828 676 120.824 559.638 485.885
2723 0 56.0149 11.9611 670 122.518 559.331 484.925
2724 0 59.027 11.9267 704 122.099 559.494 484.663
2725 0 60.0371 11.9759 719 122.975 559.63 483.352
2726 0 61.0192 12.0618 736 123.7 559.276 482.534
2727 0 64.0804 13.0305 835 120.394 559.592 480.483
2728 0 66.0405 12.5075 826 121.941 559.994 479.829
2729 0 67.0483 11.7229 786 126.214 559.303 477.305
2730 0 70.0375 11.6652 817 126.39 559.775 477.528
2731 0 76.0843 12.9462 985 121.458 559.518 474.623
2732 0 75.0666 11.8428 889 126.899 559.93 473.641
2733 0 79.0445 12.8156 1013 123.287 560.374 472.765
2734 1 42.0167 9.61522 404 125.302 560.084 491
2735 0 44.0442 11.3295 499 122.317 559.669 489.238
2736 0 46.0717 11.8294 545 121.708 560.257 488.257
2737 0 47.039 11.9263 561 121.8 560.08 488.027
2738 0 47.0203 11.9523 562 123.315 560.11 488.802
2739 0 49.0356 11.5426 566 125.774 560.488 487.041
2740 0 52.0219 12.2833 639 123.987 560.872 486.493
2741 0 51.0697 10.7892 551 130.007 561.494 487.176
2742 0 56.0455 11.9189 668 124.783 561.102 486.5
2743 0 55.0364 13.0096 716 124.813 560.948 484.966
2744 0 56.0277 12.476 699 126.505 560.735 485.582
2745 0 58.0899 12.3085 715 127.385 561.076 483.948
2746 0 60.0457 13.3398 801 124.667 561.607 483.562
2747 0 62.0585 13.6162 845 123.923 561.174 482.736
2748 0 64.0679 13.3608 856 125.522 561.34 480.849
2749 0 65.1018 12.78 832 128.532 560.905 480.656
2750 0 66.0878 14.2084 939 124.179 561.236 478.8
2751 0 70.0586 13.8884 973 124.186 561.209 478.43
2752 0 71.1155 14.3007 1017 123.375 561.837 477.651
2753 0 73.0835 13.122 959 127.046 561.477 475.908
2754 0 76.0774 13.4994 1027 126.038 561.153 475.059
2755 0 77.0918 12.7251 981 129.703 561.445 473.906
2756 0 80.0787 14.4358 1156 125.247 561.015 471.742
2757 0 83.0647 12.1472 1009 131.417 561.604 471.304
2758 1 45.0387 10.2356 461 129.928 561.115 491.182
2759 0 45.0185 10.5957 477 131.317 561.067 490.652
2760 0 47.0261 10.9301 514 131.105 560.208 489.163
2761 0 49.0183 12.1587 596 127.604 560.498 487.881
2762 0 49.0394 11.9496 586 129.212 562.082 486.826
2763 0 54.0644 12.6701 685 125.483 561.26 485.561
2764 0 55.0635 13.2756 731 124.201 560.832 485.022
2765 0 57.0304 13.5016 770 123.621 561.178 484.166
2766 0 58.0718 12.8806 748 125.455 561.067 484.197
2767 0 59.1536 11.9688 708 128.565 561.14 483.292
2768 0 61.1087 13.4187 820 124.437 560.993 482.505
2769 0 63.0542 12.5606 792 126 561.295 481.537
2770 0 65.0824 12.8913 839 125.373 561.199 480.272
2771 0 65.0547 13.0352 848 126.879 561.436 478.685
2772 0 68.062 13.473 917 123.598 560.795 478.185
2773 0 69.0772 12.4354 859 125.556 560.831 478.19
2774 0 72.0815 12.9853 936 123.778 560.804 475.89
2775 0 72.0918 12.2483 883 126.777 560.841 474.89
2776 0 75.1521 12.9205 971 125.066 560.454 473.092
2777 0 78.1429 12.362 966 124.5 560.658 474.991
2778 0 82.1303 12.0175 987 124.958 561.193 473.161
2779 0 86.0552 13.2357 1139 121.013 560.792 471.506
2780 1 42.0263 11.0407 464 119.44 560.341 492.703
2781 0 44.0353 12.0131 529 115.183 560.327 492.588
2782 0 45.0296 12.4807 562 114.155 560.377 490.822
2783 0 46.0172 11.1915 515 118.592 560.849 489.47
2784 0 46.033 12.1 557 117.302 560.713 489.618
2785 0 49.0942 12.3029 604 116.329 560.636 487.656
2786 0 50.0141 12.7564 638 115.255 560.447 486.702
2787 0 49.0311 10.4016 510 122.906 560.459 486.206
2788 0 52.0472 12.4118 646 117.269 560.234 485.611
2789 0 54.0292 12.0676 652 118.348 560.555 484.609
2790 0 54.0238 12.1798 658 118.786 560.748 483.959
2791 0 55.0467 11.136 613 121.796 559.804 482.639
2792 0 56.0564 10.6857 599 123.703 560.154 482.294
2793 0 58.0597 12.091 702 119.87 560.026 479.302
2794 0 62.0387 12.9597 804 116.18 560.101 481.2
2795 0 63.0588 11.9412 753 118.486 560.252 480.841
2796 0 68.0404 12.8159 872 115.531 559.907 479.226
2797 0 70.0952 12.8254 899 116.264 559.989 477.925
2798 0 71.0837 12.9706 922 116.53 560.142 477.034
2799 0 73.1208 12.5819 920 117.797 560.349 475.716
2800 0 75.1343 12.0318 904 118.775 559.717 474.067
2801 0 79.0928 13.2629 1049 115.414 560.369 472.349
2802 0 82.0687 13.9883 1148 112.446 560.34 471.598
2803 0 83.0945 12.4918 1038 116.414 560.759 471.261
2804 0 88.0976 13.644 1202 113.468 560.662 469.682
2805 1 48.0815 10.815 520 116.923 560.329 489.506
2806 0 52.1432 11.5451 602 113.056 560.354 487.497
2807 0 54.0314 12.6223 682 110.321 560.282 486.293
2808 0 56.0843 13.8363 776 108.188 559.634 483.33
2809 0 59.0422 13.3294 787 108.478 560.119 484.029
2810 0 64.0528 17.4075 1115 95.1507 560.236 481.601
2811 0 64.0835 14.4187 924 103.975 560.478 482.113
2812 0 64.0269 13.588 870 107.638 559.885 481.122
2813 0 68.102 13.7441 936 105.735 560.13 481.521
2814 0 69.1811 13.3707 925 108.152 560.016 477.427
2815 0 71.0529 13.3703 950 106.723 559.402 480.356
2816 0 73.0285 13.3099 972 107.904 559.965 476.48
2817 0 75.1197 13.6183 1023 107.527 559.926 475.972
2818 0 76.0599 12.6085 959 110.327 560.357 476.324
2819 0 80.0558 14.2776 1143 105.919 560.083 473.534
2820 0 84.0608 14.1921 1193 105.962 560.401 474.071
2821 0 85.0872 13.1865 1122 108.834 560.235 473.232
2822 0 88.0669 13.978 1231 108.199 560.632 468.941
2823 0 92.0645 13.3711 1231 109.6 560.556 469.612
2824 0 96.0772 13.9575 1341 107.62 560.908 468.867
2825 1 48.0178 10.4128 500 112.554 560.73 490.59
2826 0 50.0549 11.6472 583 109.907 560.297 490.096
2827 0 55.0525 12.7333 701 105.28 560.618 489.482
2828 0 58.0469 14.6778 852 99.7207 560.315 486.7
2829 0 69.1113 20.8504 1441 79.9931 560.578 479.079
2830 0 83.9889 15.1925 1276 83.9765 561.079 476.364
2831 0 78.9058 16.6148 1311 84.3905 559.828 477.324
2832 1 93.2439 14.2315 1327 84.6579 559.786 472.476
2833 0 83.0576 15.3026 1271 88.8592 559.841 478.293
2834 0 78.6254 17.8823 1406 86.4061 559.733 474.369
2835 0 88.5095 19.5459 1730 78.6104 559.909 467.131
2836 0 85.4461 18.9242 1617 83.149 560.265 469.881
2837 0 86.1136 15.6653 1349 92.8458 559.6 475.858
2838 0 79.0742 18.2107 1440 91.6771 559.701 475.378
2839 0 86.2305 20.0161 1726 85.0209 559.499 467.345
2840 0 87.0933 19.5882 1706 87.881 559.55 468.297
2841 0 90.2303 18.7964 1696 89.7689 559.337 470.969
2842 0 92.0964 18.4264 1697 91.0642 559.678 467.021
2843 1 106.125 18.7138 1986 86.4134 559.995 465.774
2844 0 105.141 21.1906 2228 83.3846 560.193 463.527
2845 0 105.187 17.179 1807 93.497 559.711 463.44
2846 0 109.269 19.8868 2173 87.5688 559.807 459.875
2847 0 109.136 17.556 1916 93.81 559.448 460.169
2848 1 52.0302 11.3204 589 108.854 558.844 490.973
2849 0 55.0147 13.3237 733 104.653 558.973 489.69
2850 0 56.0643 13.6986 768 105.092 558.758 488.48
2851 0 59.121 13.447 795 105.05 559.8 487.403
2852 0 59.0806 11.442 676 110.507 559.229 487.33
2853 0 60.1015 14.1594 851 105.476 559.327 485.237
2854 0 61.0287 13.2397 808 108.348 559.177 483.776
2855 0 65.0699 13.4317 874 105.889 559.287 485.34
2856 0 67.0458 13.2447 888 107.055 559.523 482.51
2857 0 68.1275 13.1958 899 108.21 558.924 482.132
2858 0 73.0901 14.5163 1061 104.402 559.22 480.569
2859 0 73.0711 14.5885 1066 102.472 559.028 481.523
2860 0 77.0841 14.9577 1153 104.075 559.677 477.617
2861 0 80.0736 13.55 1085 106.865 559.086 476.586
2862 0 81.0477 13.8067 1119 107.283 559.136 476.486
2863 0 85.0594 14.2489 1212 106.497 559.84 473.373
2864 0 86.0659 13.7453 1183 108.054 559.448 472.56
2865 0 89.0456 13.5661 1208 109.154 560.023 472.164
2866 0 93.138 13.8182 1287 107.485 559.249 472.01
2867 0 94.0838 13.4773 1268 109.733 559.532 468.215
2868 0 97.0674 13.2794 1289 109.235 560.016 468.583
2869 0 100.071 13.9302 1394 106.625 559.669 465.933
2870 1 53.0214 10.3732 550 112.407 559.122 488.34
2871 0 55.0721 10.7859 594 111.362 559.034 487.355
2872 0 56.0645 12.4856 700 108.499 558.536 485.783
2873 0 59.1011 13.147 777 106.876 558.958 483.631
2874 0 60.1073 12.9103 776 108.343 558.82 482.429
2875 0 62.0189 12.5284 777 109.761 559.269 480.812
2876 0 63.0601 11.7665 742 113.958 558.908 479.972
2877 0 67.1329 12.5423 842 111.36 559.704 481.106
2878 0 69.0904 12.708 878 112.622 559.232 477.636
2879 0 72.083 11.8891 857 114.366 558.77 476.674
2880 0 73.0409 12.0207 878 115.097 559.295 476.525
2881 0 75.0998 13.1691 989 113.344 558.841 475.767
2882 0 80.0318 13.5071 1081 112.436 558.995 474.503
2883 0 80.0318 13.5446 1084 140.054 559.002 474.407
2884 0 84.0625 14.1561 1190 112.489 558.982 473.389
2885 0 87.0368 14.4307 1256 111.568 559.408 472.76
2886 0 87.0949 12.8251 1117 118.417 559.598 469.687
2887 0 90.128 12.2049 1100 119.704 559.645 468.525
2888 0 95.1303 12.8876 1226 117.496 560.067 466.923
2889 1 50.0464 11.1696 559 116.712 559.737 489.157
2890 0 49.0678 10.6587 523 119.119 559.386 488.528
2891 0 51.0212 11.9166 608 118.174 559.105 485.166
2892 0 52.0348 11.5115 599 117.706 559.237 484.417
2893 0 52.0445 11.298 588 119.066 559.505 483.798
2894 0 55.0775 11.2932 622 118.529 559.153 483.977
2895 0 57.0661 11.7232 669 116.774 558.987 484.732
2896 0 61.0537 13.1032 800 112.676 559.384 483.026
2897 0 62.0566 12.1985 757 114.754 559.395 482.075
2898 0 63.1603 11.7954 745 115.591 559.505 480.877
2899 0 66.1297 12.7477 843 112.397 559.165 480.17
2900 0 67.0444 13.2748 890 111.085 559.401 478.722
2901 0 69.0378 12.2686 847 112.831 560.205 478.152
2902 0 72.0426 12.2844 885 112.412 559.983 476.446
2903 0 73.0879 12.0403 880 111.507 559.483 474.245
2904 0 75.0468 12.6188 947 109.921 560.007 474.556
2905 0 77.0784 12.2602 945 110.772 559.798 473.515
2906 0 82.108 13.4092 1101 108.004 560.464 470.489
2907 0 79.1313 11.9043 942 112.503 560 468.711
2908 0 87.1336 13.2096 1151 107.805 559.709 470.249
2909 0 86.1084 13.692 1179 109.12 560.166 465.616
2910 0 93.0698 14.3548 1336 105.018 559.856 467.609
2911 0 95.0448 14.067 1337 105.76 559.827 465.3
2912 0 98.0619 13.4813 1322 108.017 559.939 463.087
2913 0 100.114 13.0651 1308 108.952 559.856 462.283
2914 0 104.179 13.8415 1442 106.744 559.572 460.718
2915 0 107.066 13.2442 1418 108.939 559.636 457.621
2916 0 111.063 12.9836 1442 108.323 559.533 458.236
2917 1 61.0235 11.5038 702 106.1 559.875 483.84
2918 0 64.0298 12.3692 792 104.518 559.436 482.29
2919 0 66.1044 13.9476 922 102.106 559.677 479.761
2920 0 69.081 15.2719 1055 99.2436 559.142 476.224
2921 0 71.0612 14.3679 1021 102.505 559.725 474.044
2922 0 79.0307 17.7526 1403 91.6622 559.302 471.297
2923 0 80.1018 19.1881 1537 89.7124 559.854 466.871
2924 0 80.0535 15.3647 1230 101.232 559.445 468.976
2925 0 79.0276 13.5396 1070 108.616 559.847 468.75
2926 0 84.1359 16.0811 1353 102.366 560.135 465.931
2927 0 88.0577 15.6261 1376 103.385 559.875 462.629
2928 0 89.1522 15.9727 1424 103.94 559.707 461.56
2929 1 46.0654 10.2463 472 114.11 559.345 484.515
2930 0 50.0604 12.2652 614 108.653 559.252 484.691
2931 0 50.0669 11.7043 586 110.908 559.86 483.449
2932 0 51.0574 11.6144 593 130.877 559.889 483.378
2933 0 55.0875 12.7797 704 109.303 559.249 482.064
2934 0 57.0764 13.333 761 109.534 559.355 480.242
2935 0 57.0764 13.4907 770 128.714 560.345 480.232
2936 0 58.0372 11.8889 690 115.293 559.206 477.903
2937 0 61.0899 12.277 750 113.613 559.2 479.419
2938 0 63.0443 12.7847 806 113.414 559.347 477.954
2939 0 65.0708 12.0023 781 115.264 559.099 477.668
2940 0 67.0852 12.5065 839 114.579 559.235 476.928
2941 0 69.0446 14.1068 974 111.051 559.792 473.473
2942 0 73.0648 14.1929 1037 110.248 559.415 474.401
2943 0 75.0606 13.3492 1002 112.662 559.487 471.804
2944 0 77.0531 12.7704 984 114.827 559.657 462.96
2945 0 78.1126 12.9685 1013 113.977 559.089 461.887
2946 0 83.1243 13.3415 1109 110.885 560.041 462.688
2947 1 42.0289 10.6355 447 110.443 559.852 482.776
2948 0 42.007 10.7601 452 109.381 559.662 482.949
2949 0 46.0523 11.4435 527 105.083 559.677 483.594
2950 0 47.0251 12.1424 571 105.384 560.126 480.975
2951 0 49.0938 11.8752 583 104.961 559.875 481.883
2952 0 50.088 11.8791 595 104.869 559.244 481.432
2953 0 51.0449 11.1862 571 106.077 558.904 481.683
2954 0 52.0206 12.1875 634 103.123 559.016 481.487
2955 0 52.1065 11.8987 620 105.118 558.848 479.298
2956 0 56.039 12.2415 686 102.735 558.885 480.621
2957 0 56.0464 12.8465 720 102.05 558.976 480.382
2958 0 59.1369 12.6993 751 101.929 558.771 479.21
2959 0 60.0586 12.5211 752 102.673 558.771 480.311
2960 0 60.0405 13.0579 784 103.151 558.482 477.538
2961 0 63.0642 13.6845 863 101.262 559.168 476.393
2962 0 67.1232 12.6931 852 102.214 558.633 477.29
2963 0 67.0629 12.5554 842 104.165 559.057 475.133
2964 0 71.1616 14.5584 1036 99.7925 558.881 474.643
2965 0 71.1169 12.4724 887 104.639 558.594 474.673
2966 0 75.0842 14.1308 1061 101.396 558.625 471.671
2967 0 77.1076 12.3075 949 105.341 558.437 471.658
2968 0 79.0715 13.0641 1033 104.505 558.535 468.734
2969 0 82.1172 12.3726 1016 104.155 558.15 470.999
2970 0 86.1139 12.9596 1116 103.646 559.168 466.87
2971 1 44.0706 11.1412 491 104.273 559.134 486.552
2972 0 47.0683 12.3438 581 101.372 558.723 486.267
2973 0 48.1674 12.4773 601 101.203 558.953 484.572
2974 0 48.0488 10.2812 494 106.893 558.974 486.7
2975 0 50.0781 12.8599 644 101.761 558.332 484.876
2976 0 53.0486 14.4207 765 97.1085 558.29 482.986
2977 0 49.0385 11.0933 544 108.575 558.472 483.636
2978 0 57.1013 16.2343 927 93.165 558.709 482.374
2979 0 60.1005 16.1396 970 91.667 559.281 481.402
2980 0 74.1951 18.2761 1356 79.2301 558.314 473.579
2981 0 71.1441 18.3571 1306 84.0743 558.804 476.823
2982 0 71.1361 16.7004 1188 89.58 558.731 476.928
2983 0 71.1131 17.3948 1237 91.2175 558.55 477.894
2984 0 69.119 18.649 1289 91.5764 558.471 475.68
2985 0 69.2156 14.5343 1006 104.45 558.708 478.633
2986 0 69.1392 13.6536 944 108.102 559.211 477.428
2987 0 71.1674 12.9132 919 110.394 558.557 476.999
2988 0 73.0651 13.3032 972 110.769 558.66 476.1
2989 0 76.1045 13.7443 1046 109.999 558.837 474.835
2990 0 79.1064 13.3997 1060 112.084 558.414 471.55
2991 0 84.083 14.1408 1189 109.398 559.187 471.816
2992 0 87.0895 14.3186 1247 110.159 559.309 468.455
2993 0 87.2003 14.0825 1228 112.818 559.233 463.064
2994 1 46.0231 11.2987 520 113.431 558.637 485.242
2995 0 48.1099 11.5361 555 112.76 558.6 485.405
2996 0 50.0455 13.3279 667 108.807 558.756 484.799
2997 0 50.02 12.3351 617 113.491 558.793 484.031
2998 0 52.0725 12.7131 662 112.557 558.725 483.429
2999 0 55.0471 13.77 758 110.146 559.22 482.737
3000 0 55.0275 13.6114 749 111.921 558.858 481.534
3001 0 57.0817 12.596 719 114.035 558.555 482.389
3002 0 59.0267 13.9259 822 111.71 558.467 481.308
3003 0 60.0543 13.3213 800 113.829 558.369 479.621
3004 0 60.0543 13.3879 804 130.127 558.373 479.501
3005 0 64.0259 13.682 876 113.013 558.555 480.305
3006 0 66.0579 14.0483 928 113.164 558.827 478.501
3007 0 68.0435 14.5054 987 111.527 558.711 478.767
3008 0 68.0686 13.7802 938 114.998 558.285 476.314
3009 0 73.0676 14.685 1073 112.099 558.09 473.788
3010 0 76.07 15.5515 1183 109.464 558.369 472.203
3011 0 77.0184 14.4381 1112 114.02 558.397 470.27
3012 0 80.0635 14.8382 1188 112.769 558.691 468.983
3013 0 82.1425 13.2331 1087 116.347 559.234 468.265
3014 0 85.0528 15.3669 1307 112.415 558.984 466.324
3015 0 85.1392 13.8127 1176 116.788 559.508 465.618
3016 0 89.2235 14.5477 1298 114.151 559.684 466.271
3017 0 94.1845 15.0768 1420 112.232 559.844 465.111
3018 0 96.2548 14.6278 1408 113.631 559.668 464.523
3019 0 99.17 13.613 1350 116.194 559.341 461.444
3020 0 103.072 13.3402 1375 116.297 558.813 459.871
3021 1 56.0326 11.8146 662 114.677 558.344 482.34
3022 0 57.0309 13.7294 783 110.815 558.421 481.148
3023 0 58.0539 13.6942 795 111.842 558.275 480.038
3024 0 60.0722 13.4838 810 111.86 558.283 479.906
3025 0 63.0678 14.5082 915 108.913 558.107 478.22
3026 0 66.0136 13.9062 918 109.861 558.575 477.179
3027 0 69.0906 13.808 954 110.247 558.715 475.435
3028 0 71.068 14.4932 1030 108.89 558.902 476.012
3029 0 72.078 15.0115 1082 108.805 559.08 474.464
3030 0 75.2204 14.3046 1076 111.216 558.893 471.51
3031 0 78.0711 14.8326 1158 108.704 558.962 473.08
3032 0 81.0604 13.4714 1092 113.008 559.249 469.568
3033 0 83.0622 13.8812 1153 112.134 558.722 470.483
3034 0 86.0735 13.8835 1195 112.798 558.695 469.34
3035 0 90.1095 13.7499 1239 112.648 559.387 466.385
3036 0 92.07 14.1197 1300 112.168 559.232 464.563
3037 0 95.1066 13.4691 1281 113.895 559.73 465.567
3038 0 99.1358 13.5269 1341 114.069 559.444 464.134
3039 1 51.1368 10.6186 543 114.621 558.93 489.079
3040 0 53.0404 11.8777 630 115.478 559.365 486.767
3041 0 53.0491 12.1208 643 116.355 558.963 485.905
3042 0 57.0665 14.0713 803 111.019 559.405 483.94
3043 0 57.1784 13.1168 750 114.381 559.497 483.317
3044 0 61.1105 12.4528 761 115.34 558.674 483.812
3045 0 60.0684 12.6689 761 117.754 559.267 481.003
3046 0 64.0238 14.0104 897 108.391 559.205 481.039
3047 0 66.0799 13.4685 890 112.208 559.507 480.1
3048 0 67.084 14.0272 941 115.965 559.409 479.813
3049 0 68.0881 13.8056 940 109.804 559.536 479.41
3050 0 69.1155 12.9638 896 114.258 559.261 480.273
3051 0 69.0827 13.8385 956 121.964 560.315 477.259
3052 0 71.0668 13.1004 931 123.22 559.83 478.119
3053 0 72.0594 13.5444 976 122.029 559.935 477.201
3054 0 74.065 13.3801 991 121.78 560.037 475.544
3055 0 75.052 13.2175 992 121.272 559.758 474.992
3056 0 80.104 14.8682 1191 114.783 560.309 472.014
3057 0 83.1247 14.5685 1211 114.915 560.845 470.038
3058 0 83.1236 14.5205 1207 143.96 560.862 470.021
3059 0 88.1293 13.4348 1184 116.237 560.186 468.144
3060 0 90.1036 14.1282 1273 114.006 559.918 467.498
3061 1 47.0759 11.747 553 112.685 559.264 488.331
3062 0 46.0504 11.7263 540 114.843 559.185 485.126
3063 0 47.0326 11.694 550 115.905 559.049 485.66
3064 0 51.048 12.6548 646 111.481 558.789 487.017
3065 0 52.1006 12.2455 638 114.234 559.567 485.566
3066 0 53.0634 12.0799 641 115.768 559.231 484.644
3067 0 55.0852 13.107 722 114.028 559.235 484.859
3068 0 57.0238 13.5031 770 113.875 558.669 485.248
3069 0 58.091 13.4444 781 116.665 559.06 481.864
3070 0 60.0865 13.1311 789 117.1 558.977 483.359
3071 0 63.0604 13.0668 824 118.025 559.307 482.352
3072 0 64.0422 13.2413 848 119.882 559.468 479.971
3073 0 66.1542 13.4988 893 118.961 559.627 480.496
3074 0 68.1041 12.1432 827 123.386 559.51 478.154
3075 0 71.0607 13.0874 930 121.161 558.894 477.687
3076 0 72.0925 11.9291 860 125.947 559.588 475.26
3077 1 38.0156 10.18 387 122.556 559.132 493.106
3078 0 40.0133 11.4962 460 120.75 559.646 482.378
3079 0 41.0465 11.1337 457 122.059 559.853 483.545
3080 0 43.0361 12.2455 527 119.932 560.074 482.528
3081 0 44.0343 13.1261 578 118.907 559.633 481.317
3082 0 43.0254 12.4578 536 123.002 559.386 482.427
3083 0 45.0272 12.3481 556 124.104 559.286 481.149
3084 0 47.0518 13.347 628 122.697 559.478 481
3085 0 47.0131 12.8262 603 125.761 559.897 482.035
3086 0 47.0539 12.305 579 128.739 559.832 480.382
3087 0 50.0152 12.8761 644 125.775 558.632 478.988
3088 0 52.0534 12.6793 660 125.573 558.965 479.323
3089 0 52.0624 13.2341 689 125.981 558.485 478.557
3090 0 55.044 13.2076 727 123.642 559.552 479.608
3091 0 54.0344 12.5106 676 128.601 559.112 477.893
3092 0 58.0223 12.7537 740 126.369 559.084 476.903
3093 0 59.0527 13.1408 776 128.485 559.285 474.919
3094 0 62.0695 12.6793 787 129.069 559.126 475.67
3095 0 64.0506 14.3636 920 124.011 559.151 473.579
3096 0 67.046 13.9904 938 125.016 559.364 463.849
3097 0 68.0862 13.4682 917 126.871 559.394 463.71
3098 0 70.0847 12.9843 910 128.255 558.856 460.696
3099 0 73.0551 12.6617 925 128.351 558.739 460.681
3100 0 74.0449 13.1407 973 127.469 559.201 460.413
3101 0 79.0629 13.3564 1056 125.597 559.341 459.977
3102 1 39.0126 10.7145 418 126.746 559.206 480.12
3103 0 42.0261 11.3977 479 124.065 559.367 480.177
3104 0 42.0269 11.2547 473 124.503 559.161 481.391
3105 0 45.0265 12.7703 575 120.216 559.183 480.475
3106 0 45.021 12.1499 547 123.446 559.408 479.567
3107 0 46.0511 12.5513 578 123.104 559.618 478.633
3108 0 47.017 11.2938 531 126.684 559.337 479.171
3109 0 49.0334 11.176 548 126.093 559.318 479.055
3110 0 50.0043 12.7989 640 122.833 559.35 476.756
3111 0 51.0116 12.1541 620 125.319 559.521 476.04
3112 0 53.0402 13.0656 693 122.193 559.502 475.362
3113 0 54.036 12.103 654 124.858 559.67 474.844
3114 0 57.0471 12.1128 691 123.735 559.478 475.259
3115 0 57.0983 11.7166 669 125.152 559.818 474.661
3116 0 59.016 12.2001 720 123.979 559.714 473.863
3117 0 63.0276 12.7246 802 121.436 559.929 471.914
3118 0 65.0621 13.1105 853 119.941 559.885 473.03
3119 0 68.0326 14.493 986 116.592 559.48 469.554
3120 0 67.0479 12.9161 866 121.68 559.67 468.931
3121 0 72.0904 13.7328 990 118.704 560.012 466.724
3122 0 75.032 14.4205 1082 116.267 559.86 464.229
3123 0 77.0272 13.0993 1009 119.89 560.514 463.003
3124 0 79.0573 14.1796 1121 118.936 561.124 460.99
3125 0 82.1369 13.7453 1129 120.12 561.114 462.111
3126 0 85.165 13.374 1139 121.465 560.964 459.961
3127 0 88.0987 12.7584 1124 123.378 560.725 458.069
3128 1 47.023 11.3774 535 122.693 560.477 479.236
3129 0 48.0221 11.578 556 123.665 560.336 478.698
3130 0 51.0306 13.0706 667 120.156 560.514 476.675
3131 0 55.0218 14.7214 810 111.365 559.757 473.16
3132 0 53.0355 11.6337 617 124.833 560.112 475.713
3133 0 54.0899 13.9952 757 118.905 559.933 474.453
3134 0 57.0568 13.6881 781 119.041 560.179 474.796
3135 0 59.0281 13.4004 791 119.387 560.932 474.521
3136 0 60.0713 13.767 827 119.96 560.561 473.385
3137 0 60.0419 13.7237 824 122.101 560.545 471.931
3138 0 63.0179 12.9328 815 122.604 560.297 472.398
3139 0 68.0402 13.3451 908 119.21 560.767 472.265
3140 0 69.0438 13.9622 964 118.718 560.4 468.957
3141 0 72.0501 13.0326 939 121.097 560.872 469.332
3142 0 73.0494 12.7448 931 122.276 560.808 467.059
3143 0 76.044 14.5442 1106 116.652 560.545 467.004
3144 0 77.0792 13.6094 1049 119.593 560.859 466.388
3145 0 81.1299 13.4106 1088 119.108 561.481 464.65
3146 0 86.0567 14.2348 1225 116.004 561.183 463.309
3147 1 45.0311 12.6357 569 118.555 560.749 482.114
3148 0 45.0317 11.2809 508 121.161 560.77 483.071
3149 0 45.0559 11.0308 497 124.539 559.982 482.014
3150 0 50.0208 15.0537 753 112.38 560.378 479.337
3151 0 53.0303 14.2371 755 112.842 560.401 478.6
3152 0 52.0201 12.3991 645 121.093 560.868 478.774
3153 0 55.0295 13.7563 757 117.095 560.704 478.464
3154 0 56.024 13.2443 742 119.361 559.916 476.163
3155 0 56.0255 12.0659 676 123.728 560.078 477.393
3156 0 59.0508 12.2606 724 123.366 560.283 476.692
3157 0 60.0334 13.9589 838 120.242 560.303 474.592
3158 0 62.0699 13.8714 861 120.849 560.39 474.638
3159 0 65.0374 12.6543 823 124.16 560.34 473.491
3160 0 65.0617 13.6793 890 123.046 560.326 472.427
3161 0 69.035 14.5289 1003 121.206 560.256 469.133
3162 0 72.0621 13.8075 995 121.915 559.827 469.288
3163 0 75.0809 13.3323 1001 123.102 560.332 467.895
3164 0 78.0558 13.6697 1067 123.646 560.697 466.006
3165 0 82.0552 14.1368 1160 122.125 560.317 465.139
3166 1 43.0412 12.7552 549 125.634 560.515 482.905
3167 0 44.0572 12.1887 537 127.285 560.963 483.888
3168 0 46.0394 13.1192 604 123.907 560.699 482.846
3169 0 47.0732 13.1072 617 123.376 560.308 482.191
3170 0 56.1953 17.2079 967 103.511 560.17 478.111
3171 0 57.1043 17.4768 998 104.547 560.355 478.98
3172 0 58.2695 18.1055 1055 103.402 559.618 476.181
3173 0 58.1433 16.0638 934 111.444 559.658 473.816
3174 0 58.0444 16.6769 968 112.012 559.832 475.921
3175 0 58.1901 13.9886 814 119.764 559.552 479.224
3176 0 59.0684 13.5775 802 121.378 559.683 478.188
3177 0 62.1195 15.0194 933 117.645 559.753 476.02
3178 0 63.0612 14.2877 901 119.979 560.064 476.355
3179 0 64.0783 13.0309 835 123.174 559.205 473.79
3180 0 67.0544 14.1676 950 120.352 559.688 472.183
3181 0 69.1055 15.5704 1076 116.864 560.31 471.299
3182 0 72.1125 15.3372 1106 116.488 560.247 470.08
3183 0 74.1604 14.5091 1076 118.683 560.007 468.033
3184 0 76.2254 14.0373 1070 119.301 560.087 468.95
3185 0 78.1981 13.21 1033 121.909 561.105 467.775
3186 0 81.1777 14.3512 1165 118.447 560.822 465.266
3187 1 112.127 9.08791 1019 121.045 560.784 465.379
3188 1 43.0476 12.6836 546 116.134 559.974 485.485
3189 0 45.0888 12.3756 558 117.215 560.052 485.125
3190 0 44.0622 12.4143 547 119.196 560.007 482.982
3191 0 48.028 14.6165 702 112.051 559.981 481.852
3192 0 48.1484 14.0192 675 114.295 559.801 482.111
3193 0 51.0512 14.3581 733 113.302 560.285 481.097
3194 0 51.0526 13.3979 684 116.531 560.289 480.393
3195 0 54.0198 13.8653 749 114.916 559.814 480.191
3196 0 55.0396 13.4267 739 115.421 559.834 480.974
3197 0 57.1156 14.6545 837 113.501 559.99 476.189
3198 0 58.0165 13.3583 775 118.255 559.717 476.876
3199 0 59.0619 13.9176 822 116.53 559.515 477.658
3200 0 58.0418 15.6956 911 114.082 559.759 476.337
3201 0 61.0658 15.164 926 119.103 559.673 476.159
3202 0 62.038 13.9753 867 122.539 559.596 474.904
3203 0 65.0139 13.3971 871 123.465 559.564 474.323
3204 0 66.0546 16.0625 1061 117.07 559.566 472.322
3205 0 69.0456 14.8163 1023 119.127 559.748 474.257
3206 0 69.0242 14.676 1013 121.278 559.735 472.206
3207 0 73.0257 15.1864 1109 119.432 560.07 470.626
3208 0 75.0908 14.9685 1124 120.408 559.971 469.303
3209 0 79.0336 15.3985 1217 118.401 560.2 469.533
3210 0 80.0424 14.3549 1149 122.413 559.916 466.92
3211 0 85.109 16.2263 1381 115.833 559.765 467.867
3212 0 83.0892 14.6228 1215 122.323 559.638 464.894
3213 0 89.0917 14.9397 1331 120.856 559.675 463.943
3214 0 92.0935 15.1042 1391 120.057 559.147 462.833
3215 0 96.0379 15.8583 1523 117.297 559.456 462.412
3216 0 99.1389 15.0799 1495 119.821 559.268 460.391
3217 0 104.083 15.1706 1579 118.132 559.618 458.768
3218 0 106.111 14.5225 1541 120.689 559.432 457.491
3219 0 110.128 14.919 1643 120.095 559.428 454.943
3220 1 56.0857 12.8018 718 125.032 559.109 481.021
3221 0 60.0452 13.8895 834 122.113 559.314 479.914
3222 0 59.0286 13.9932 826 124.286 559.585 477.211
3223 0 65.0517 16.7405 1089 113.324 559.317 475.052
3224 0 70.0488 18.0588 1265 107.881 559.077 472.815
3225 0 73.0407 18.4555 1348 107.41 559.18 472.26
3226 0 79.065 20.5274 1623 97.8638 559.174 468.515
3227 0 76.1088 19.1042 1454 106.525 559.727 469.975
3228 0 75.0616 15.2941 1148 121.026 559.65 473.196
3229 0 75.102 13.8079 1037 127.499 559.232 473.107
3230 0 79.1283 14.6092 1156 124.886 559.587 473.05
3231 0 83.1216 15.4352 1283 122.398 559.319 472.645
3232 0 85.0714 14.3291 1219 127.034 559.046 471.092
3233 0 87.0466 15.934 1387 124.797 559.149 469.067
3234 0 90.1114 14.9371 1346 127.999 558.852 468.307
3235 0 91.0981 15.5656 1418 127.956 559.621 467.83
3236 0 96.083 16.5274 1588 125.292 559.443 465.93
3237 0 98.1291 15.4287 1514 128.655 559.715 465.018
3238 0 102.079 16.0855 1642 126.526 559.347 464.583
3239 0 104.156 15.6304 1628 129.133 559.793 463.106
3240 0 105.105 14.9564 1572 131.539 559.684 460.525
3241 0 113.184 16.3715 1853 126.009 559.824 458.654
3242 0 118.26 16.9965 2010 124.233 559.687 457.012
3243 1 58.0628 14.1571 822 128.414 558.968 484.618
3244 0 59.0475 13.3283 787 131.306 558.986 485.813
3245 0 64.0821 15.1368 970 126.714 559.473 483.122
3246 0 65.0697 14.3231 932 129.991 559.354 482.996
3247 0 67.0734 14.2829 958 131.325 559.934 480.338
3248 0 67.0573 14.1521 949 131.976 560.537 480.058
3249 0 69.0531 13.9603 964 133.891 560.166 477.661
3250 0 73.0467 14.4976 1059 132.853 559.411 477.926
3251 0 77.1706 15.5111 1197 129.728 560.307 476.154
3252 0 77.0588 14.3786 1108 133.942 560.323 474.49
3253 0 82.0923 14.5324 1193 131.843 559.884 472.938
3254 0 85.1116 15.0743 1283 130.945 560.461 472.337
3255 0 89.0409 14.9931 1335 130.628 560.281 462.726
3256 0 89.0863 15.0528 1341 131.802 559.45 461.419
3257 0 92.0617 14.7401 1357 132.404 560.08 460.923
3258 0 94.076 15.2005 1430 131.106 559.415 458.92
3259 0 98.1441 15.7625 1547 127.933 560.207 458.772
3260 0 104.214 15.2283 1587 128.271 560.529 458.001
3261 1 53.0701 11.2304 596 132.483 559.403 482.896
3262 0 57.057 12.1282 692 130.926 559.887 482.312
3263 0 58.085 12.43 722 130.393 559.952 480.37
3264 0 62.0379 13.8947 862 124.387 559.542 480.812
3265 0 64.0598 13.6123 872 126.627 559.438 478.406
3266 0 66.033 13.5538 895 126.666 559.379 478.381
3267 0 66.1098 13.5229 894 127.377 560.393 477.667
3268 0 71.0671 14.1838 1008 125.076 559.771 475.571
3269 0 73.0575 14.0985 1030 124.752 560.239 475.605
3270 0 77.1265 14.742 1137 122.924 560.173 473.334
3271 0 78.165 13.7274 1073 125.744 560.185 473.918
3272 0 79.1409 13.735 1087 127.167 560.466 470.758
3273 0 83.1222 13.5583 1127 128.161 560.6 469.277
3274 0 87.1073 14.6256 1274 124.871 560.092 468.083
3275 0 90.1022 14.3837 1296 126.12 559.914 466.159
3276 0 92.0791 14.4224 1328 125.096 559.869 467.492
3277 0 96.1503 15.5278 1493 122.596 560.663 464.669
3278 0 98.2155 14.4886 1423 126.63 560.224 463.031
3279 0 101.197 15.0697 1525 124.186 560.365 461.583
3280 0 104.245 13.4491 1402 127.256 560.053 459.578
3281 0 107.222 14.2414 1527 124.948 560.589 458.126
3282 0 112.153 15.5145 1740 120.933 560.522 455.355
3283 0 115.187 14.0293 1616 123.729 560.721 454.681
3284 0 122.262 15.4831 1893 117.659 560.454 452.217
3285 1 62.0668 12.1965 757 120.243 560.151 480.346
3286 0 65.2478 12.5828 821 119.13 560.072 478.514
3287 0 73.1533 17.2104 1259 102.584 559.944 473.797
3288 0 72.1683 15.1452 1093 109.779 559.426 473.43
3289 0 75.1428 16.1825 1216 107.125 559.836 472.095
3290 0 76.3362 15.4055 1176 109.81 560.283 471.264
3291 0 76.1632 13.4186 1022 117.679 559.853 470.607
3292 0 78.2017 11.7389 918 122.26 560.183 469.964
3293 0 81.1229 12.4379 1009 119.227 560.05 468.937
3294 0 84.1959 12.0315 1013 119.15 559.26 468.431
3295 0 87.18 13.7761 1201 114.784 559.102 465.441
3296 0 89.089 12.785 1139 116.716 559.686 465.715
3297 0 91.0814 11.8356 1078 119.533 559.63 460.848
3298 0 96.1629 12.4788 1200 117.707 559.479 459.476
3299 0 99.1426 11.6196 1152 119.322 559.898 458.864
3300 0 102.194 11.8402 1210 120.216 560.143 457.985
3301 0 106.319 12.6036 1340 120.675 561.205 453.322
3302 0 112.312 13.6228 1530 116.912 561.021 451.646
3303 0 117.303 13.6996 1607 115.968 560.737 446.871
3304 0 117.312 11.6782 1370 123.124 560.605 450.645
3305 1 61.0468 10.9097 666 121.787 560.488 476.315
3306 0 62.0858 11.8707 737 119.784 559.696 475.354
3307 0 64.0842 11.7814 755 119.028 559.588 475.727
3308 0 66.0424 12.2346 808 118.46 559.662 473.439
3309 0 69.0709 12.784 883 117.681 559.462 470.888
3310 0 71.1208 11.15 793 121.504 560.084 470.064
3311 0 75.303 11.6596 878 118.249 560.67 452.164
3312 0 76.2309 11.8194 901 119.552 560.724 446.092
3313 0 81.4647 11.4774 935 119.891 561.012 447.399
3314 0 85.3993 13.1266 1121 117.029 561.343 445.071
3315 0 87.2577 12.423 1084 119.319 561.168 446.693
3316 0 89.296 12.5426 1120 119.058 560.838 447.401
3317 0 92.1825 12.0305 1109 120.395 560.912 446.414
3318 1 48.0576 8.84355 425 116.233 560.405 470.162
3319 0 50.0584 10.3879 520 112.873 560.383 473.025
3320 0 56.0298 11.4403 641 111.253 560.075 472.432
3321 0 55.0562 11.4065 628 111.611 559.731 476.104
3322 0 56.0715 11.0395 619 114.459 559.351 474.047
3323 0 58.0335 11.7691 683 111.789 559.9 477.723
3324 0 58.0296 10.9082 633 115.076 559.392 478.976
3325 0 58.0847 11.1217 646 115.277 559.534 479.379
3326 0 63.0338 11.1686 704 113.673 559.895 479.216
3327 0 64.054 11.8806 761 112.276 559.763 477.662
3328 0 66.0491 10.9767 725 113.457 559.706 479.09
3329 0 68.0682 11.2828 768 112.797 560.094 477.917
3330 0 69.0451 12.137 838 111.653 559.992 477.347
3331 0 71.0509 11.1892 795 114.99 560.156 473.999
3332 0 74.0717 11.0164 816 114.49 560.097 475.184
3333 0 77.0803 12.0394 928 112.908 560.019 471.795
3334 0 79.0564 12.295 972 112.564 560.538 470.006
3335 0 79.1133 11.591 917 115.306 559.916 469.131
3336 0 82.0661 11.3689 933 113.395 560.074 470.558
3337 0 84.1498 10.8259 911 114.756 560.383 466.625
3338 0 85.1052 10.1639 865 115.291 560.616 467.57
3339 0 86.1773 8.84223 762 117.188 560.066 468.201
3340 0 91.2303 9.40477 858 116.456 559.727 467.161
3341 0 95.1689 9.9192 944 115.001 559.485 465.743
3342 0 97.2381 10.0166 974 117.014 559.495 463.117
3343 1 55.0689 10.9136 601 111.586 559.263 482.504
3344 0 55.0621 10.2793 566 114.071 559.461 482.712
3345 0 57.1196 11.6422 665 111.818 559.077 481.949
3346 0 60.0822 11.4177 686 112.663 559.434 480.536
3347 0 60.0723 11.2531 676 114.133 559.42 478.797
3348 0 63.0582 12.4964 788 111.495 559.294 477.511
3349 0 63.0908 11.6182 733 115.183 558.737 478.368
3350 0 65.0492 12.2062 794 114.651 559.097 475.843
3351 0 66.0735 11.5175 761 117.803 559.752 476.938
3352 0 71.1098 13.6971 974 112.554 559.39 474.339
3353 0 74.0833 13.4848 999 113.381 559.607 473.038
3354 0 76.0463 11.9401 908 118.28 559.563 472.537
3355 0 77.0473 12.0056 925 121.001 559.643 460.761
3356 0 79.0315 12.5773 994 120.949 560.067 459.533
3357 0 83.0525 12.1249 1007 121.812 559.907 458.704
3358 0 85.2008 10.9976 937 124.93 559.619 462.28
3359 0 90.1382 12.8359 1157 121.108 559.408 459.801
3360 1 45.0212 10.6172 478 119.176 558.904 483.456
3361 0 46.0215 11.2991 520 118.435 559.546 483.779
3362 0 47.0273 12.9287 608 116.115 559.258 484.474
3363 0 49.0434 11.4796 563 120.899 559.078 482.613
3364 0 53.0773 11.6434 618 118.396 559.379 483.463
3365 0 50.0586 10.7274 537 124.227 559.236 478.985
3366 0 54.0123 10.8124 584 122.063 558.959 481.538
3367 0 56.028 10.0664 564 124.433 558.947 480.844
3368 0 59.0562 11.3282 669 120.075 558.613 480.703
3369 0 60.093 12.0813 726 117.712 558.963 481.793
3370 0 63.0291 12.4546 785 117.539 558.808 476.343
3371 0 64.0295 12.0569 772 119.446 558.951 477.006
3372 0 66.0288 12.3128 813 119.519 559.18 476.052
3373 0 69.0219 12.5178 864 119.361 559.618 467.92
3374 0 71.0583 12.3842 880 120.458 560.217 466.616
3375 0 72.0431 11.7985 850 122.355 559.452 467.989
3376 0 76.124 13.7276 1045 116.144 560.011 465.047
3377 0 78.0341 12.6355 986 119.173 559.7 461.218
3378 0 79.0833 13.5806 1074 117.782 559.792 458.041
3379 0 83.0427 12.1985 1013 120.975 560.026 458.895
3380 0 85.0947 12.868 1095 119.048 559.908 460.505
3381 1 43.0141 10.5314 453 115.627 560.225 484.766
3382 0 44.0199 10.6315 468 117.382 559.72 484.568
3383 0 45.051 11.5203 519 115.328 559.559 486.2
3384 0 49.0656 12.7177 624 111.732 559.484 482.221
3385 0 49.0171 10.3841 509 118.446 559.073 482.892
3386 0 48.0539 10.9252 525 118.773 559.77 484.604
3387 0 50.0454 11.3097 566 117.777 559.249 484.528
3388 0 50.0454 11.2897 565 128.099 558.237 484.512
3389 0 53.0573 12.1755 646 116.497 559.279 482.455
3390 0 57.0353 11.5192 657 116.374 559.131 482.612
3391 0 59.0355 11.671 689 117.263 559.209 479.747
3392 0 59.0684 11.2412 664 119.307 559.114 481.114
3393 0 62.0216 12.3828 768 116.023 559.225 479.794
3394 0 65.1299 12.5595 818 116.292 559.505 479.455
3395 0 65.0612 13.0339 848 116.199 559.573 477.118
3396 0 69.0175 13.7067 946 113.719 559.947 476.573
3397 0 71.0742 11.8046 839 119.234 559.771 477.528
3398 0 73.06 12.8251 937 117.104 559.838 477.922
3399 0 75.122 12.0205 903 120.571 560.009 475.988
3400 0 78.3057 11.851 928 123.017 560.143 461.457
3401 0 81.1277 11.8948 965 122.546 559.81 461.267
3402 0 85.1444 12.4964 1064 121.525 559.633 460.398
3403 0 89.1781 13.4338 1198 118.937 560.069 459.167
3404 0 91.2229 11.1595 1018 125.375 560.467 457.855
3405 1 59.0683 17.0311 1006 90.4682 559.292 474.392
3406 0 60.4489 18.2634 1104 90.7464 559.088 475.7
3407 0 65.0554 12.2357 796 105.549 558.813 476
3408 0 67.0465 15.7801 1058 93.6125 559.475 469.711
3409 0 67.3448 14.1362 952 101.254 559.305 471.114
3410 0 68.2348 16.6191 1134 96.015 559.294 469.768
3411 0 67.0405 15.2744 1024 102.98 559.114 470.111
3412 0 64.0668 16.155 1035 105.627 559.346 471.291
3413 0 64.1252 15.0799 967 111.271 559.403 469.461
3414 0 64.0744 14.8109 949 114.674 559.254 471.566
3415 0 65.0961 13.7182 893 119.15 559.761 469.692
3416 0 63.0321 12.2319 771 128.457 559.532 465.174
3417 0 66.0461 12.1582 803 128.418 559.935 465.042
3418 0 70.0719 12.3873 868 127.106 559.588 464.762
3419 0 68.0569 11.6961 796 131.317 560.246 465.55
3420 0 73.1145 12.3915 906 129.047 560.246 463.025
3421 1 227.43 8.48172 1929 125.814 560.637 426.363
3422 0 229.637 9.38437 2155 128.033 560.547 412.326
3423 0 228.525 8.07789 1846 131.673 560.98 418.238
3424 0 228.486 9.06837 2072 132.324 560.76 413.542
3425 1 107.432 18.8957 2030 95.2645 560.672 444.244
3426 1 45.0458 10.123 456 127.307 558.864 480.616
3427 0 48.0602 12.0474 579 121.649 559.556 478.94
3428 0 50.0981 12.0364 603 121.209 559.507 478.264
3429 0 51.0359 11.874 606 124.193 558.617 477.028
3430 0 51.0464 11.6953 597 126.074 559.221 476.918
3431 0 53.0194 12.5237 664 122.992 559.636 477.869
3432 0 55.0432 13.3168 733 121.698 559.396 476.385
3433 0 57.1065 11.8901 679 125.633 558.648 476.032
3434 0 60.0645 13.3024 799 122.294 559.238 474.767
3435 0 60.0299 12.4938 750 124.897 559.168 476.236
3436 0 60.0238 13.378 803 125.212 559.269 473.389
3437 0 63.0786 13.2375 835 125.32 559.337 473.638
3438 0 64.0475 12.7562 817 127.951 559.2 471.714
3439 0 67.0713 13.6869 918 124.966 559.41 469.993
3440 0 69.0641 13.8132 954 125.814 559.681 465.164
3441 0 70.1219 12.9631 909 129.542 559.279 463.122
3442 0 72.1041 13.6608 985 127.347 558.857 463.054
3443 0 74.1294 13.1527 975 128.155 559.104 463.331
3444 0 76.2113 11.888 906 131.304 558.821 463.014
3445 0 80.1676 12.8481 1030 127.664 559.882 463.252
3446 0 82.1379 14.0252 1152 125.22 560.066 460.651
3447 1 42.0871 10.7159 451 125.563 559.652 482.366
3448 0 42.0315 10.4208 438 126.406 559.078 480.381
3449 0 46.0614 11.8103 544 121.658 558.575 477.572
3450 0 47.06 11.326 533 123.122 558.467 477.165
3451 0 48.0234 11.1612 536 123.034 558.875 478.33
3452 0 51.0602 12.0838 617 118.515 559.065 477.135
3453 0 51.0279 11.8759 606 121.177 559.213 476.579
3454 0 52.0426 11.7404 611 121.969 558.861 475.137
3455 0 53.0897 10.4728 556 123.646 559.477 476.155
3456 0 56.0462 12.0436 675 118.588 558.83 475.458
3457 0 57.0367 11.3786 649 120.579 558.911 475.498
3458 0 60.0802 11.5512 694 119.366 558.96 475.612
3459 0 60.0842 11.8334 711 119.7 559.2 474.734
3460 0 64.0495 12.7714 818 115.381 559.517 476.115
3461 0 64.0495 12.787 819 133.683 560.525 476.168
3462 0 65.1556 12.0481 785 120.001 559.172 471.246
3463 0 67.0638 11.3772 763 121.641 559.588 471.075
3464 0 72.1195 12.7982 923 117.335 558.857 470.895
3465 0 73.1651 11.0982 812 122.204 558.723 469.207
3466 0 76.3316 13.4545 1027 117.31 559.551 458.448
3467 0 77.3024 12.2247 945 121.236 559.439 457.549
3468 0 81.235 12.9131 1049 118.305 558.777 459.805
3469 0 84.321 12.2152 1030 121.189 559.145 456.855
3470 0 87.2671 13.5217 1180 118.141 559.449 451.778
3471 0 92.2311 12.8915 1189 120.119 559.422 444.66
3472 0 93.1819 13.3073 1240 118.501 559.817 443.493
3473 0 95.2421 12.904 1229 119.475 559.469 441.308
3474 1 50.0907 11.2995 566 119.894 558.65 463.034
3475 0 51.0357 11.2274 573 120.147 558.698 462.044
3476 0 53.0267 12.9935 689 114.88 558.975 462.962
3477 0 54.0165 11.8667 641 118.799 558.716 462.537
3478 0 55.0953 11.2351 619 120.882 558.601 462.488
3479 0 58.0562 12.0573 700 117.976 558.774 462.417
3480 0 59.1516 12.0876 715 118.792 559.173 461.483
3481 0 61.1234 11.7304 717 119.423 559.209 460.616
3482 0 64.1217 13.2093 847 114.089 559.022 460.532
3483 0 64.0324 11.9783 767 118.269 558.893 460.209
3484 0 68.0593 12.4156 845 115.985 558.963 458.471
3485 0 69.0899 12.6212 872 116.086 559.093 458.717
3486 0 71.1215 12.2607 872 116.899 558.89 456.325
3487 0 78.2195 17.3997 1361 99.5834 558.428 451.678
3488 0 75.2149 13.4814 1014 112.597 558.983 454.121
3489 0 78.1599 13.063 1021 113.139 559.065 454.075
3490 0 80.1227 13.7914 1105 111.253 558.641 452.756
3491 0 82.2056 12.6512 1040 114.814 558.566 452.298
3492 0 85.2749 12.747 1087 114.223 558.414 451.955
3493 1 45.0218 10.9502 493 114.116 558.298 470.225
3494 0 46.0266 10.4288 480 117.181 558.665 469.76
3495 0 49.1676 12.9557 637 112.526 559.088 457.243
3496 0 49.2313 12.7967 630 111.514 559.817 451.148
3497 0 51.0655 12.5329 640 111.742 559.003 455.623
3498 0 50.046 12.9081 646 113.42 558.687 453.966
3499 0 51.0513 12.3014 628 115.777 558.548 452.768
3500 0 55.061 12.2955 677 114.071 559.056 452.207
3501 0 56.0188 12.2102 684 115.18 558.937 445.749
3502 0 60.0915 13.8289 831 108.646 559.495 441.276
3503 0 59.1278 12.5829 744 113.565 559.776 443.603
3504 0 63.1945 13.6246 861 110.604 560.184 440.194
3505 0 62.0635 13.3734 830 113.22 559.835 439.359
3506 0 65.1155 11.1033 723 107.743 560.397 430.979
3507 0 67.0942 12.0577 809 106.74 560.648 428.466
3508 0 70.1062 12.0389 844 106.309 560.628 426.363
3509 0 72.1062 12.5232 903 105.629 561.135 427.023
3510 0 73.1292 11.6096 849 109.219 561.004 422.993
3511 0 77.1062 11.5555 891 108.834 560.735 424.517
3512 0 78.2509 13.3545 1045 107.455 560.522 424.029
3513 0 82.2088 12.4318 1022 111.757 560.846 418.629
3514 0 85.1784 12.2449 1043 110.215 560.389 420.165
3515 0 87.2008 11.7315 1023 113.145 560.278 418.332
3516 0 89.2859 11.2672 1006 114.413 561.225 418.394
3517 0 91.2717 12.7203 1161 114.813 561.347 416.565
3518 0 94.3214 12.7967 1207 115.35 561.369 415.205
3519 0 97.2003 12.6028 1225 116.262 560.898 416.3
3520 0 101.231 12.9703 1313 115.432 561.158 417.392
3521 1 54.1625 10.8747 589 112.52 559.767 447.175
3522 0 55.2905 11.3039 625 115.502 559.762 444.878
3523 0 56.1417 11.9341 670 115.6 559.634 429.543
3524 0 59.1336 12.3111 728 110.533 560.641 432.486
3525 0 59.1315 13.1571 778 114.701 559.379 431.324
3526 0 62.1032 11.9317 741 116.19 559.505 434.182
3527 0 64.0845 13.6851 877 113.104 559.345 430.873
3528 0 65.1935 12.9768 846 114.702 559.822 438.407
3529 0 68.067 12.6346 860 115.767 559.963 431.734
3530 0 68.2233 13.0014 887 116.114 559.979 435.051
3531 0 70.1655 12.6843 890 118.516 560.219 439.651
3532 0 73.1286 13.36 977 119.593 560.241 440.213
3533 0 76.1753 14.0597 1071 115.387 559.843 437.006
3534 0 77.1398 13.1968 1018 118.93 559.666 433.956
3535 0 81.0879 12.8503 1042 119.837 559.689 434.345
3536 0 83.1146 14.2454 1184 118.682 560.648 431.528
3537 0 83.1172 12.8493 1068 125.116 560.039 408.375
3538 0 90.1521 15.5293 1400 115.485 560.35 412.937
3539 0 92.1209 13.5908 1252 121.261 560.744 408.883
3540 0 96.0962 13.653 1312 120.47 560.387 411.904
3541 0 100.138 15.1391 1516 117.05 560.425 411.194
3542 0 102.147 13.598 1389 121.433 560.396 417.752
3543 1 54.0508 12.6178 682 120.056 560.311 441.523
3544 0 55.1694 11.945 659 122.778 562.637 432.998
3545 0 55.2113 13.0408 720 120.81 562.218 431.514
3546 0 57.2475 12.839 735 120.071 562.576 431.199
3547 0 60.336 13.2922 802 119.672 562.065 429.385
3548 0 60.2436 13.0802 788 121.857 561.69 427.258
3549 0 63.2639 13.2145 836 119.597 561.697 427.618
3550 0 63.2362 12.5245 792 122.891 562.403 425.432
3551 0 66.1372 13.2149 874 116.208 562.684 420.609
3552 0 68.229 13.7918 941 112.709 562.467 427.333
3553 0 71.1764 14.2744 1016 112.799 562.271 424.712
3554 0 73.2361 13.5043 989 115.616 562.55 423.635
3555 0 75.1638 13.7699 1035 116.293 561.861 423.013
3556 0 77.1334 12.6664 977 119.474 562.791 422.602
3557 0 81.1272 13.3864 1086 118.667 562.051 421.556
3558 0 81.1448 13.0261 1057 120.092 561.854 410.136
3559 0 84.1456 11.8366 996 123.783 562.341 410.667
3560 0 87.2074 13.508 1178 118.943 562.044 421.007
3561 0 89.2748 12.792 1142 122.531 560.62 428.846
3562 0 92.2171 12.0043 1107 127.342 561.195 431
3563 0 97.1978 12.5106 1216 126.592 561.424 427.826
3564 0 100.327 13.1471 1319 127.108 561.626 419.565
3565 1 55.1107 12.8469 708 127.843 561.011 442.349
3566 0 59.0169 13.1996 779 126.789 563.569 434.843
3567 0 59.0411 12.7708 754 130.821 563.434 430.984
3568 0 62.0234 13.3982 831 127.431 563.557 432.154
3569 0 64.0956 13.8855 890 127.671 563.676 430.044
3570 0 65.0712 13.0319 848 131.166 563.735 429.899
3571 0 67.0302 13.6953 918 129.642 563.053 428.002
3572 0 68.1021 13.7881 939 130.314 563.168 427.051
3573 0 70.1379 14.4287 1012 128.521 563.168 427.663
3574 0 72.1158 14.0191 1011 131.109 562.702 424.66
3575 0 75.0761 13.7727 1034 132.259 563.226 423.634
3576 0 76.0911 15.2449 1160 129.361 562.493 420.784
3577 0 78.1801 14.3131 1119 131.88 563.383 420.855
3578 0 82.1946 15.4146 1267 131.856 562.463 394.937
3579 0 84.1971 14.6798 1236 132.975 562.653 401.1
3580 0 86.1977 13.9795 1205 134.842 562.737 403.152
3581 0 89.3751 14.8587 1328 132.09 562.545 404.989
3582 0 93.3541 15.0395 1404 130.619 562.38 406.127
3583 0 94.2409 13.9748 1317 132.123 562.76 404.973
3584 0 97.2721 14.3618 1397 131.132 562.859 404.492
3585 0 99.221 13.3238 1322 126.96 561.621 401.802
3586 0 101.226 13.0203 1318 129.153 561.656 400.847
3587 0 105.343 13.869 1461 127.015 561.759 399.741
3588 0 108.293 13.6758 1481 126.866 562.086 398.505
3589 1 58.1364 10.3378 601 122.714 562.918 417.546
3590 0 59.0879 11.0682 654 123.564 562.905 417.133
3591 0 63.0189 12.282 774 117.826 563.302 422.952
3592 0 64.0318 10.9945 704 120.788 563.236 423.798
3593 0 66.0482 12.0821 798 118.981 562.713 421.074
3594 0 68.0681 11.988 816 120.487 563.158 419.752
3595 0 71.11 11.9111 847 120.353 562.281 417.885
3596 0 71.2596 11.83 843 123.852 563.062 406.982
3597 0 75.0966 11.7449 882 120.304 562.474 417.109
3598 0 78.1656 12.1409 949 119.556 562.169 416.486
3599 0 79.2705 12.1231 961 121.746 562.358 412.971
3600 0 81.1338 12.276 996 122.171 562.673 414.348
3601 0 85.101 13.1961 1123 118.477 561.942 401.12
3602 0 89.2117 12.7562 1138 118.831 562.05 402.557
3603 0 90.223 12.857 1160 120.01 561.897 400.434
3604 0 95.1077 13.0799 1244 120.441 561.777 402.832
3605 0 97.0762 12.7941 1242 122.489 563.27 403.736
3606 0 100.111 13.2353 1325 123.685 562.639 402.978
3607 1 51.1699 10.6703 546 122.687 563.956 427.822
3608 0 55.0645 13.1845 726 122.189 563.764 430.227
3609 0 55.0804 12.1822 671 118.179 561.741 436.231
3610 0 56.126 12.4363 698 117.291 561.471 441.701
3611 0 59.0684 12.8664 760 115.262 561.245 434.295
3612 0 62.1807 12.1742 757 115.47 561.836 439.127
3613 0 64.1744 13.1361 843 107.484 561.474 438.618
3614 0 64.1141 12.275 787 109.867 561.699 437.008
3615 0 67.0922 13.9659 937 105.062 561.74 436.986
3616 0 68.1993 11.9209 813 111.123 561.882 435.247
3617 0 71.259 13.6825 975 106.446 561.695 435.013
3618 0 73.1706 12.6007 922 108.81 562.11 434.599
3619 0 75.0895 13.4107 1007 106.968 562.211 432.01
3620 0 77.126 12.7194 981 108.945 562.297 430.961
3621 0 80.2436 13.3843 1074 107.341 562.451 430.472
3622 0 83.3239 12.9735 1081 108.705 562.537 433.115
3623 0 85.3231 13.0797 1116 108.795 562.712 431.591
3624 0 87.3126 13.0909 1143 108.992 562.675 430.672
3625 0 92.434 13.772 1273 109.945 562.764 430.301
3626 0 94.3895 12.6179 1191 111.696 563.109 427.658
3627 0 95.3008 12.7806 1218 110.461 562.493 425.392
3628 1 51.0704 11.2785 576 109.108 560.809 446.96
3629 0 52.0931 11.1531 581 111.783 561.308 445.704
3630 0 55.2153 10.5768 584 105.378 562.659 425.092
3631 0 56.0292 11.8688 665 99.4015 562.823 426.844
3632 0 57.0705 12.0027 685 99.727 563.085 425.934
3633 0 58.0753 12.5699 730 99.0055 563.244 424.027
3634 0 60.1256 11.3263 681 108.496 562.392 423.461
3635 0 63.1019 13.4227 847 104.442 561.339 422.753
3636 0 66.1 11.8608 784 106.292 561.665 423.861
3637 0 67.1363 13.2715 891 104.875 562.085 418.476
3638 0 69.0505 12.7877 883 105.484 561.578 420.932
3639 0 69.1036 11.9241 824 109.155 560.733 418.809
3640 0 74.1511 12.3532 916 107.539 561.004 417.695
3641 0 76.1968 12.8221 977 106.14 561.323 418.028
3642 0 78.084 11.9359 932 109.94 561.351 415.488
3643 0 82.1691 13.7156 1127 106.389 561.649 411.8
3644 0 85.1169 13.0644 1112 107.637 561.345 412.7
3645 0 88.117 12.3813 1091 109.412 561.203 412.995
3646 0 91.1988 13.8379 1262 107.374 560.623 409.426
3647 0 94.1085 13.9945 1317 107.315 561.549 406.727
3648 0 97.0819 13.4732 1308 108.421 561.39 406.008
3649 0 101.221 13.1692 1333 108.901 561.784 405.959
3650 1 51.1173 9.8988 506 105.522 561.381 433.03
3651 0 52.2132 12.4681 651 108.833 561.438 443.633
3652 0 55.0969 13.5761 748 106.112 560.973 437.497
3653 0 56.1185 14.1308 793 105.714 560.941 434.835
3654 0 60.1343 14.8833 895 102.746 560.981 432.828
3655 0 60.0791 13.3158 800 106.495 560.901 436.15
3656 0 64.0775 13.6397 874 105.482 561.109 441.169
3657 0 64.3028 14.1829 912 105.309 560.901 442.486
3658 0 66.1803 13.7503 910 105.791 561.248 443.82
3659 0 68.1484 13.2212 901 107.295 561.017 441.647
3660 0 69.0547 12.729 879 110.078 561.118 439.749
3661 0 74.1105 13.3584 990 107.619 560.814 439.905
3662 0 73.1012 14.35 1049 109.463 560.418 431.397
3663 0 75.1245 13.4177 1008 112.754 560.456 431.366
3664 0 78.0882 13.7921 1077 112.245 560.231 429.783
3665 0 79.1306 13.3829 1059 114.504 559.981 429.144
3666 0 83.0939 13.6954 1138 113.865 560.419 427.844
3667 0 86.2043 14.1408 1219 111.454 560.013 435.489
3668 0 87.1047 14.0061 1220 115.915 560.216 434.975
3669 0 91.2151 14.1643 1292 115.103 560.11 429.783
3670 0 97.1973 15.8029 1536 109.768 560.682 423.059
3671 0 98.2499 15.3079 1504 113.737 560.626 418.45
3672 0 101.161 13.9085 1407 116.4 561.043 420.825
3673 0 103.28 12.9067 1333 116.911 560.998 430.122
3674 0 106.364 14.7606 1570 113.043 560.855 432.441
3675 0 110.197 15.0549 1659 113.827 561.114 422.976
3676 0 112.241 13.0523 1465 119.39 560.977 425.962
3677 1 60.2088 13.0712 787 112.855 560.7 450.898
3678 0 64.0725 11.8147 757 113.823 559.52 437.136
3679 0 64.0188 12.1371 777 115.281 558.785 435.256
3680 0 67.0553 13.5411 908 110.888 558.985 438.88
3681 0 68.0439 12.4185 845 115.452 559.06 436.77
3682 0 73.0635 12.5097 914 113.996 558.888 431.296
3683 0 73.037 11.1587 815 117.225 558.661 432.831
3684 0 77.0778 13.7653 1061 111.724 559.274 433.059
3685 0 78.1006 11.5236 900 117.548 558.801 432.628
3686 0 78.1306 11.8647 927 119.3 558.992 431.351
3687 0 85.2209 11.7929 1005 119.475 559.859 431.991
3688 0 87.2431 12.3219 1075 117.739 559.17 436.341
3689 0 89.1835 12.2332 1091 118.738 559.245 434.462
3690 0 96.264 12.8709 1239 115.328 559.387 429.715
3691 1 46.0953 9.41527 434 116.138 559.032 453.991
3692 0 48.0868 10.1275 487 113.762 558.218 453.982
3693 0 51.1206 12.1673 622 105.895 558.37 449.487
3694 0 52.1847 13.0115 679 104.05 558.733 451.934
3695 0 53.0989 11.0172 585 111.103 559.06 449.819
3696 0 56.1114 11.2098 629 110.141 558.329 449.324
3697 0 56.0351 12.1174 679 109.457 558.959 447.682
3698 0 58.0715 12.2607 712 109.56 558.59 448.417
3699 0 58.064 12.0729 701 111.235 558.588 445.338
3700 0 62.102 13.2202 821 107.023 558.362 448.019
3701 0 62.0735 10.7775 669 114.209 558.312 448.185
3702 0 65.1422 11.897 775 110.939 558.618 441.425
3703 0 66.1176 12.3719 818 111.482 559.174 436.757
3704 0 66.1255 11.826 782 113.653 559.073 436.827
3705 0 70.1289 11.9209 836 111.693 559.288 443.648
3706 0 72.164 12.0559 870 111.545 559.08 444.31
3707 0 74.1914 12.1847 904 111.689 559.216 442.377
3708 0 79.1642 13.352 1057 108.571 560.149 441.867
3709 0 82.1696 12.3647 1016 111.661 560.075 440.469
3710 0 82.1731 12.0234 988 113.198 559.338 440.525
3711 0 87.0899 12.4469 1084 113.635 559.454 416.784
3712 0 91.0973 12.4592 1135 112.182 559.822 421.021
3713 0 94.127 11.9413 1124 112.544 559.941 429.752
3714 1 49.1267 11.8469 582 110.742 558.648 464.844
3715 0 49.0295 11.6461 571 112.327 558.377 469.793
3716 0 51.078 11.5705 591 113.264 558.87 457.135
3717 0 53.0474 11.2918 599 114.766 558.912 455.489
3718 0 54.0389 11.9544 646 113.387 558.946 455.502
3719 0 56.245 12.0722 679 113.417 559.003 453.155
3720 0 57.1401 12.5656 718 113.338 558.578 451.636
3721 0 61.2121 12.6936 777 111.57 558.62 452.041
3722 0 62.2316 11.6982 728 114.809 559.074 450.151
3723 0 64.207 13.254 851 111.086 558.979 450.548
3724 0 66.2537 13.5691 899 110.88 558.991 450.009
3725 0 70.2915 13.5721 954 109.56 558.68 449.944
3726 0 71.1807 13.3323 949 111.418 558.301 447.198
3727 0 72.2607 12.8424 928 113.504 558.572 447.033
3728 0 74.2446 13.4959 1002 113.093 559.069 445.123
3729 0 78.2298 13.1919 1032 114.916 559.109 443.838
3730 0 81.1545 15.2795 1240 110.298 558.579 444.021
3731 0 80.1546 12.4884 1001 120.358 558.837 442.663
3732 1 40.009 11.3225 453 120.848 558.177 464.954
3733 0 42.0266 11.9924 504 119.661 558.421 462.522
3734 0 51.0225 13.7978 704 106.124 557.81 459.713
3735 0 49.0435 13.8041 677 109.9 558.586 456.157
3736 0 49.0267 14.5635 714 111.64 558.604 457.42
3737 0 49.0158 12.9754 636 119.792 558.513 458.077
3738 0 50.0211 12.3948 620 120.508 558.65 459.226
3739 0 51.0372 12.8925 658 121.351 558.34 457.526
3740 0 52.03 12.3198 641 123.615 558.847 457.747
3741 0 55.085 13.9602 769 118.882 558.646 457.23
3742 0 54.0463 12.4338 672 125.56 558.351 458.476
3743 0 55.0792 12.7816 704 125.795 558.419 454.173
3744 0 58.0231 13.6153 790 121.485 558.476 457.299
3745 0 61.0385 13.1556 803 123.293 558.691 454.061
3746 0 63.0558 13.0361 822 123.219 558.837 455.005
3747 0 64.0249 12.9481 829 125.434 559.396 452.782
3748 0 65.0431 13.3296 867 124.634 558.63 452.578
3749 0 70.0359 13.9785 979 120.799 559.38 452.43
3750 0 72.0451 13.8247 996 120.02 559.269 451.36
3751 0 74.1123 13.8034 1023 120.063 559.077 450.646
3752 0 76.1059 13.4549 1024 120.022 559.961 448.854
3753 0 77.1334 13.4831 1040 119.312 560.072 449.198
3754 0 81.1301 14.7171 1194 114.637 560.05 447.062
3755 1 45.0367 11.5461 520 122.096 559.417 465.727
3756 0 47.0254 12.5889 592 119.285 560.042 465.916
3757 0 48.0186 11.9121 572 121.28 559.771 465.351
3758 0 49.0543 12.2721 602 119.791 560.344 466.056
3759 0 52.0289 12.0894 629 119.634 560.234 463.936
3760 0 54.0406 14.3966 778 114.167 560.775 462.317
3761 0 53.0688 11.0234 585 124.788 560.203 461.398
3762 0 55.1031 11.905 656 122.7 560.582 461.61
3763 0 56.0423 12.3478 692 120.484 560.574 462.556
3764 0 59.0319 12.7219 751 120.814 561.174 460.418
3765 0 59.1371 12.4626 737 122.752 560.976 459.875
3766 0 64.0532 12.8487 823 121.174 560.542 458.631
3767 0 65.0739 13.3848 871 119.522 560.417 458.89
3768 0 68.1364 12.9446 882 120.63 561.364 457.16
3769 0 69.156 12.1175 838 123.067 560.804 458.822
3770 0 71.1825 12.2081 869 123.87 561.048 457.938
3771 0 73.0785 12.2608 896 124.754 560.692 456.493
3772 0 77.0926 13.3087 1026 121.882 560.687 455.685
3773 0 77.2168 13.4815 1041 122.769 560.566 455.408
3774 0 81.1265 14.6684 1190 118.746 561.134 453.397
3775 0 82.2242 13.2686 1091 122.804 561.186 450.633
3776 0 84.2034 12.6598 1066 123.887 561.797 440.168
3777 1 44.0617 11.4158 503 126.501 560.992 459.99
3778 0 45.0499 11.6094 523 126.147 560.61 457.945
3779 0 49.0766 12.8371 630 123.719 560.832 440.165
3780 0 50.1325 12.1678 610 126.416 560.744 440.441
3781 0 50.0623 12.7042 636 128.374 560.84 436.406
3782 0 52.0585 12.7357 663 125.833 560.692 438.379
3783 0 51.0983 12.9554 662 126.544 561.205 440.267
3784 0 54.0551 13.1347 710 124.556 561.204 440.441
3785 0 55.055 11.6611 642 128.456 561.555 440.868
3786 0 56.052 13.0415 731 125.062 561.369 439.431
3787 0 57.1125 12.2215 698 125.722 560.966 440.542
3788 0 59.1134 13.3303 788 121.212 561.228 438.702
3789 0 61.0581 13.0531 797 121.137 561.34 439.251
3790 0 62.078 13.4508 835 119.474 561.419 439.335
3791 0 66.1237 13.4748 891 118.011 561.027 437.374
3792 0 66.0374 12.7655 843 120.684 561.599 435.248
3793 0 68.1164 14.1669 965 116.655 562.499 430.44
3794 0 72.0576 14.3496 1034 114.05 561.817 431.704
3795 0 74.1306 12.7613 946 117.993 561.73 428.623
3796 0 75.1027 13.2086 992 116.974 561.851 429.275
3797 0 77.1203 14.03 1082 115.65 562.144 426.266
3798 0 78.0791 12.9612 1012 118.856 561.944 427.939
3799 0 81.1112 13.2657 1076 117.871 561.863 421.104
3800 0 84.071 13.441 1130 120.196 561.659 416.604
3801 0 87.0671 11.9793 1043 116.809 562.97 409.6
3802 0 89.1809 11.4038 1017 119.364 563.243 410.496
3803 0 95.0986 12.324 1172 115.713 562.731 410.138
3804 0 98.1202 12.821 1258 116.551 562.139 418.374
3805 0 102.133 14.5595 1487 111.363 562.632 419.408
3806 1 52.2488 10.5074 549 121.701 561.925 442.82
3807 0 55.2976 12.2067 675 117.321 562.16 441.104
3808 0 55.1697 12.0356 664 119.437 562.271 444.277
3809 0 59.2883 12.65 750 116.32 562.183 445.109
3810 0 61.2656 13.368 819 115.062 562.017 443.838
3811 0 63.2213 13.2867 840 116.342 562.026 443.857
3812 0 67.2282 14.4136 969 112.327 561.867 442.889
3813 0 68.205 13.6207 929 115.537 561.926 441.611
3814 0 70.1766 12.7393 894 117.985 561.516 440.238
3815 0 72.1819 12.1499 877 121.633 562.294 431.691
3816 0 76.193 14.227 1084 114.986 561.55 432.797
3817 0 77.2534 14.5366 1123 115.995 561.132 431.103
3818 0 78.2379 14.4048 1127 117.123 561.271 431.988
3819 0 83.2076 14.0973 1173 116.87 561.295 432.672
3820 0 86.2527 14.2256 1227 117.552 561.377 422.716
3821 0 89.2299 13.9415 1244 119.355 561.185 403.044
3822 0 92.1725 13.1276 1210 120.536 561.52 403.779
3823 0 94.2103 13.7989 1300 120.408 561.568 397.826
3824 0 97.2257 14.8109 1440 117.944 561.384 399.07
3825 0 99.2102 13.164 1306 120.786 561.866 404.957
3826 0 101.181 13.1744 1333 114.099 563.79 402.131
3827 0 104.109 12.314 1282 117.16 562.969 398.817
3828 0 108.113 13.1991 1427 115.576 562.486 396.765
3829 0 113.144 14.3092 1619 112.144 562.888 397.628
3830 0 115.223 14.0597 1620 113.359 562.31 394.821
3831 0 120.208 13.1605 1582 114.762 562.083 396.101
3832 0 123.223 13.3498 1645 115.573 562.095 388.663
3833 0 127.235 13.0782 1664 116.106 562.038 382.908
3834 0 132.356 12.8895 1706 116.894 562.125 383.284
3835 0 138.337 14.2839 1976 113.063 562.618 381.43
3836 0 142.342 13.8469 1971 114.697 561.74 378.561
3837 0 148.398 13.5784 2015 114.751 562.263 377.549
3838 0 155.373 14.0178 2178 117.408 562.576 383.844
3839 1 87.2157 12.4863 1089 113.68 562.994 416.038
3840 0 91.0694 12.7156 1158 107.927 563.648 416.598
3841 0 93.0831 11.4844 1069 111.78 563.828 415.087
3842 0 96.1076 12.9646 1246 109.198 564.147 412.815
3843 0 100.163 12.0904 1211 110.631 563.881 413.455
3844 0 106.235 13.2818 1411 108.7 564.206 408.94
3845 0 106.278 11.564 1229 114.016 563.554 405.76
3846 0 112.24 14.0503 1577 107.379 564.246 406.119
3847 0 115.182 12.6756 1460 111.297 564.518 405.351
3848 0 122.1 13.8575 1692 107.094 564.361 405.262
3849 0 124.172 12.2733 1524 113.436 563.742 385.978
3850 1 67.0333 11.3973 764 106.202 562.575 420
3851 0 70.0624 11.033 773 100.909 563.592 404.893
3852 0 73.0315 10.7214 783 99.7842 563.519 418.165
3853 0 74.069 11.3273 839 99.0155 563.75 417.459
3854 0 76.1236 12.2301 931 98.2728 563.292 412.786
3855 0 81.087 11.3335 919 100.844 562.015 417.439
3856 0 85.1669 12.2935 1047 99.2732 561.245 419.53
3857 0 88.0981 11.7029 1031 100.423 561.663 415.297
3858 0 90.118 11.7957 1063 102.818 561.41 416.015
3859 0 94.167 12.2442 1153 99.1518 562.484 407.784
3860 0 98.0841 12.3567 1212 103.554 561.63 405.421
3861 0 100.102 11.6281 1164 108.956 562.893 392.002
3862 1 53.0651 11.3634 603 99.3831 563.005 421.431
3863 0 55.0944 11.1263 613 102.966 562.778 419.79
3864 0 57.1277 11.5706 661 99.9032 562.555 423.858
3865 0 57.1041 11.1726 638 101.503 561.627 430.734
3866 0 58.0993 9.39771 546 107.233 560.533 434.879
3867 0 58.2054 10.755 626 110.818 560.46 440.019
3868 0 61.1217 11.2726 689 109.257 560.47 440.579
3869 0 63.0618 10.9258 689 112.702 562.852 404.727
3870 0 67.0791 12.1648 816 108.603 562.702 405.533
3871 0 67.0969 10.9245 733 113.452 562.577 405.551
3872 0 71.1251 11.1494 793 111.551 562.368 407.903
3873 0 72.2282 11.1175 803 112.628 562.392 407.57
3874 0 76.0675 14.3294 1090 104.393 562.521 407.283
3875 0 74.1185 12.0078 890 112.981 562.092 407.873
3876 0 80.1178 12.6938 1017 110.199 562.808 407.091
3877 0 79.0619 11.7123 926 111.97 561.895 415.89
3878 0 83.0661 12.0266 999 111.281 561.925 413.17
3879 0 84.192 11.6044 977 114.659 562.294 413.004
3880 0 88.2161 12.8661 1135 117.239 562.652 390.898
3881 0 91.1452 12.8257 1169 115.279 560.856 398.025
3882 0 96.1077 12.6629 1217 112.221 560.888 401.652
3883 0 98.1482 13.123 1288 113.078 561.211 397.86
3884 0 102.151 13.6954 1399 112.167 560.67 396.222
3885 0 105.199 12.6523 1331 116.397 561.134 396.941
3886 1 52.0734 12.348 643 114.299 560.568 426.423
3887 0 53.2444 12.9028 687 116.08 561.697 425.996
3888 0 54.2617 12.7899 694 117.367 561.523 427.111
3889 0 56.1411 13.7511 772 115.056 560.604 425.11
3890 0 57.1013 14.2729 815 114.454 560.973 421.621
3891 0 60.0449 13.34 801 115.615 560.372 421.513
3892 0 61.0824 13.359 816 116.501 560.534 421.713
3893 0 61.1727 13.6826 837 115.792 560.299 421.337
3894 0 63.1157 12.786 807 118.854 560.713 420.424
3895 0 68.0785 13.6754 931 114.662 560.15 420.047
3896 0 68.0753 13.7642 937 154.924 559.159 419.909
3897 0 68.218 14.0725 960 116.044 560.781 417.82
3898 0 73.1223 14.8518 1086 112.371 560.143 415.33
3899 0 74.2012 13.3286 989 117.122 560.191 413.618
3900 0 78.2177 15.508 1213 109.102 560.277 409.129
3901 0 80.1506 14.3605 1151 112.808 560.949 411.766
3902 0 81.1331 14.618 1186 113.792 560.997 409.794
3903 0 84.1191 14.6697 1234 113.538 560.822 409.02
3904 0 87.1817 15.852 1382 112.037 561.195 408.221
3905 0 90.2161 13.8889 1253 118.497 561.745 406.437
3906 0 90.1097 14.9928 1351 115.608 561.069 404
3907 0 94.2322 14.2733 1345 115.916 561.022 405.421
3908 0 97.2918 14.1327 1375 116.572 561.384 413.769
3909 1 50.1037 13.5918 681 117.163 560.233 442.135
3910 0 50.0831 11.2813 565 115.563 562.619 433.658
3911 0 52.0765 11.6175 605 112.779 562.273 435
3912 0 53.0846 11.8867 631 107.868 561.843 432.368
3913 0 54.065 12.189 659 107.146 562.147 431.159
3914 0 56.0687 12.4312 697 106.815 561.802 429.788
3915 0 59.1089 13.3144 787 105.112 561.653 427.609
3916 0 60.1354 12.1226 729 109.344 560.497 427.631
3917 0 63.1249 12.9267 816 107.592 560.483 426.425
3918 0 63.1155 11.2017 707 112.897 560.252 425.352
3919 0 65.1548 11.8641 773 111.135 560.591 424.93
3920 0 69.0889 12.0859 835 109.945 560.143 424.853
3921 0 71.0976 11.6882 831 112.813 559.676 422.143
3922 0 72.0891 12.0823 871 113.158 559.801 419.013
3923 0 75.0381 12.5403 941 111.216 560.361 418.431
3924 0 75.0518 11.4054 856 114.37 560.988 419.494
3925 0 82.102 13.264 1089 108.528 560.127 419.07
3926 0 83.0994 14.0073 1164 107.73 560.058 416.56
3927 0 86.079 12.0587 1038 111.976 560.149 418.688
3928 0 87.1262 13.0041 1133 112.847 560.558 414.277
3929 0 90.0675 13.2123 1190 112.734 560.614 411.999
3930 1 43.1338 10.0849 435 114.062 561.071 434.915
3931 0 45.1253 11.2797 509 116.098 561.165 421.617
3932 0 47.1095 11.399 537 107.246 560.041 428.782
3933 0 48.1973 12.8845 621 104.94 560.475 429.444
3934 0 51.0579 12.574 642 105.106 560.869 431.114
3935 0 52.1611 10.966 572 107.977 560.572 433.603
3936 0 54.0524 11.2854 610 108.046 560.675 433.844
3937 0 54.1314 13.1532 712 109.544 559.351 439.152
3938 0 57.1319 13.3901 765 108.373 559.2 439.961
3939 0 58.0695 13.3289 774 108.549 559.783 438.318
3940 0 62.1093 13.1542 817 113.542 559.939 438.945
3941 0 62.0483 13.5378 840 115.288 558.705 422.39
3942 0 65.0483 15.2348 991 109.742 558.332 432.814
3943 0 67.0123 13.6841 917 113.568 558.702 430.365
3944 0 69.1248 13.8156 955 113.631 558.605 429.263
3945 0 72.049 14.962 1078 110.456 558.573 427.081
