time division length width area intensity CMx CMy
0 0 34.0652 12.5054 426 152.474 47.4484 486.155
1 0 29.0601 11.7343 341 153.469 47.0616 488.572
2 0 32.0418 11.2041 359 151.262 47.6351 488.136
3 0 31.0852 11.4202 355 152.237 47.707 488.285
4 0 32.024 12.1471 389 151.452 48.6838 487.08
5 0 33.0111 12.6624 418 150.273 48.8206 486.299
6 0 33.0252 11.0824 366 154.131 48.7623 487.932
7 0 36.0168 12.633 455 146.835 48.2418 487.07
8 0 35.0163 12.0801 423 150.267 47.6359 487.579
9 0 36.0037 12.4154 447 150.765 47.4295 486.872
10 0 37.0141 12.2656 454 151.846 47.2797 486.474
11 0 40.0107 12.1718 487 147.407 47.5175 488.031
12 0 40.0248 13.6165 545 145.075 47.2055 485.892
13 0 39.0525 12.7265 497 151.02 47.3763 486.384
14 0 41.0295 12.6738 520 152.006 47.4731 486.108
15 0 42.0323 13.9892 588 148.247 46.8912 485.109
16 0 45.0323 14.1676 638 144.489 47.0125 486.597
17 0 46.0254 13.8402 637 148.788 46.9937 485.284
18 0 47.0436 13.4131 631 149.758 46.2425 485.067
19 0 50.0235 13.6336 682 147.336 46.9311 485.342
20 0 50.0656 14.2213 712 147.881 46.6138 482.559
21 0 50.1613 13.3569 670 151.237 45.5313 484.057
22 0 52.0309 13.5689 706 148.97 45.2918 484.381
23 0 53.0414 14.121 749 147.684 44.8999 483.465
24 0 55.0355 13.991 770 147.583 44.987 483.123
25 0 56.0691 14.3038 802 146.706 45.303 482.43
26 0 58.0671 13.45 781 149.963 44.735 481.892
27 0 59.1808 13.4672 797 149.526 45.0991 481.577
28 0 64.1183 14.8476 952 143.369 44.7164 479.584
29 0 62.1234 13.5537 842 150.721 44.2185 479.53
30 0 65.1458 14.6594 955 146.965 44.0565 478.536
31 0 70.192 14.3464 1007 146.478 43.6902 476.77
32 0 71.1808 14.133 1006 149.435 43.829 475.547
33 0 75.1684 14.8201 1114 146.887 43.0476 474.594
34 1 37.1211 12.338 458 151.902 43.1594 492.424
35 0 36.0484 12.6497 456 150.524 43.6206 493.197
36 0 39.2497 13.1975 518 150.681 43.2529 489.635
37 0 40.0438 13.5102 541 148.778 43.3216 491.935
38 0 42.0651 14.0259 590 143.853 43.9254 491.185
39 0 42.0285 15.5609 654 141.144 43.8823 489.488
40 0 43.0338 13.6637 588 146.194 44.1344 491.214
41 0 43.0693 13.4667 580 149.638 44.3155 489.253
42 0 46.0305 14.9901 690 141.532 44.2087 488.564
43 0 48.0449 14.1118 678 143.425 43.9985 488.391
44 0 50.1018 14.4306 723 142.159 43.7967 488.184
45 0 50.0452 14.7667 739 141.388 43.4371 488.276
46 0 52.0606 14.291 744 143.015 42.9718 486.922
47 0 52.0158 13.7458 715 147.288 42.3846 485.99
48 0 56.0794 14.9431 838 142.183 42.5465 484.327
49 0 57.0907 15.2915 873 141.888 43.5109 484.659
50 0 59.0665 15.4741 914 143.17 42.6597 483.324
51 0 62.0733 15.2078 944 142.933 42.7076 482.953
52 0 63.019 15.5509 980 143.716 43.2245 483.042
53 0 66.0272 15.4179 1018 145.096 43.4597 481.908
54 0 67.0977 14.6205 981 150.319 43.1458 480.623
55 0 71.1556 14.9531 1064 148.678 42.7528 478.843
56 0 72.127 14.9736 1080 150.769 42.812 476.904
57 0 74.1189 16.0418 1189 146.299 43.7965 477.481
58 0 75.1471 15.4098 1158 151.197 43.1114 475.544
59 0 79.0423 15.0426 1189 150.638 43.3894 475.665
60 0 82.1101 15.1504 1244 150.229 42.9389 473.393
61 0 82.0553 14.8802 1221 152.73 43.4029 472.066
62 0 87.0523 15.2437 1327 149.9 43.7189 470.469
63 0 89.0725 14.0447 1251 155.054 44.243 467.242
64 0 93.1039 14.8759 1385 151.178 43.8058 467.148
65 0 95.082 13.8722 1319 156.807 43.3017 468.284
66 1 53.0371 14.0468 745 147.213 43.404 488.709
67 0 55.0336 14.3004 787 145.854 43.291 487.675
68 0 55.0845 13.0345 718 143.536 43.6657 486.467
69 0 56.0742 13.9636 783 140.983 42.871 487.184
70 0 58.0493 13.7814 800 141.238 43.085 484.604
71 0 61.0692 13.4765 823 140.852 42.7558 484.71
72 0 65.0674 15.1689 987 133.75 42.8156 485.157
73 0 66.0682 14.031 927 137.649 42.6721 481.854
74 0 68.0616 13.8257 941 138.179 42.6004 480.311
75 0 71.1555 14.6159 1040 135.349 42.5337 478.896
76 0 75.2278 15.154 1140 135.261 42.5211 479.113
77 0 75.1039 13.5279 1016 139.919 42.4823 478.72
78 0 78.0894 13.7022 1070 141.101 42.4598 475.448
79 0 81.0416 14.8072 1200 137.198 42.165 475.896
80 0 83.0971 14.2002 1180 140.57 42.3924 474.616
81 0 85.2715 14.1313 1205 143.244 42.6232 472.283
82 0 88.245 14.0631 1241 143.715 42.1217 471.189
83 0 91.2753 14.6042 1333 143.443 42.0878 469.965
84 0 92.0998 14.0934 1298 147.985 41.8644 466.446
85 0 97.2385 14.9015 1449 142.641 42.1346 467.271
86 0 100.19 14.5423 1457 143.984 41.2951 466.05
87 0 104.301 16.0114 1670 136.763 41.7467 466.268
88 0 108.197 15.2684 1652 139.171 41.0835 463.594
89 0 110.179 14.6579 1615 142.466 40.5994 459.185
90 0 116.417 15.4016 1793 138.672 40.5912 459.127
91 0 119.325 15.4032 1838 138.587 40.3585 457.699
92 0 123.257 15.0174 1851 140.986 41.0205 455.496
93 0 128.263 14.9303 1915 140.052 40.1311 451.251
94 0 132.2 14.9546 1977 139.908 40.3126 449.664
95 0 135.241 14.8994 2015 140.411 40.5176 447.768
96 0 141.24 15.3568 2169 138.012 40.704 446.311
97 0 145.372 14.1568 2058 141.41 40.7692 441.462
98 0 153.455 15.4117 2365 136.599 40.6926 439.849
99 0 157.338 15.1902 2390 138.218 40.9192 436.979
100 0 161.369 15.2756 2465 139.138 41.4442 432.543
101 0 166.488 14.6737 2443 139.016 40.8797 432.013
102 0 171.339 15.268 2616 138.598 40.9159 429.107
103 0 177.43 14.7945 2625 139.564 41.1272 427.506
104 0 184.219 15.3459 2827 138.253 40.2978 421.493
105 0 189.273 15.2954 2895 138.849 40.2684 419.092
106 0 196.239 14.5741 2860 140.812 40.25 417.344
107 0 201.178 16.2045 3260 136.598 40.1472 412.959
108 0 209.211 15.568 3257 139.03 39.9315 410.027
109 0 217.387 15.8657 3449 138.715 39.6393 406.206
110 0 223.423 15.8086 3532 141.642 39.7593 400.399
111 0 232.258 16.1028 3740 138.926 39.3674 398.887
112 0 240.397 15.021 3611 142.931 39.5899 394.953
113 0 251.309 15.8052 3972 140.168 39.4423 386.874
114 1 193.411 14.6837 2840 139.077 39.6884 418.283
115 0 201.377 13.7305 2765 141.029 39.7765 415.855
116 0 209.26 13.8775 2904 142.593 39.4852 408.196
117 1 77.1635 12.2208 943 127.363 41.0138 476.299
118 0 78.1331 12.2867 960 128.265 39.7104 474.973
119 0 82.1922 14.1133 1160 128.795 41.1103 471.724
120 0 86.1606 14.0668 1212 130.59 40.9266 472.014
121 0 88.079 13.7604 1212 131.08 40.5916 471.154
122 0 90.0864 14.6304 1318 129.118 41.1608 469.338
123 0 93.0949 13.6205 1268 131.347 40.8091 468.536
124 0 97.2819 13.6511 1328 130.619 40.7417 465.48
125 0 101.241 13.4432 1361 130.444 40.3909 463.001
126 0 103.274 12.8687 1329 132.117 39.9285 460.741
127 0 108.337 14.4179 1562 125.526 40.2542 458.738
128 1 58.0644 11.315 657 123.149 38.5084 486.502
129 0 61.0531 11.8913 726 119.132 39.4917 484.369
130 0 63.022 12.6146 795 114.816 40.205 484.595
131 0 66.121 11.6302 769 111.281 40.4564 480.061
132 0 67.0623 12.2125 819 115.443 40.8755 481.736
133 0 66.0767 10.2154 675 121.932 40.9111 483.227
134 0 69.1332 11.2826 780 118.905 41.4026 480.915
135 0 72.1601 11.0449 797 118.655 40.5358 480.309
136 0 75.0749 10.2697 771 119.869 41.0973 480.68
137 0 76.1526 12.3568 941 117.285 40.8448 476.024
138 0 80.2279 10.7319 861 115.245 41.1185 473.424
139 0 81.3 10.4059 846 121.533 40.3972 468.844
140 0 85.225 11.9096 1015 116.508 41.2374 469.019
141 0 88.1942 12.824 1131 123.933 40.7268 468.76
142 0 91.371 12.3672 1130 124.121 40.7354 469.219
143 0 95.2565 13.8363 1318 120.497 40.4537 467.047
144 0 95.2096 11.774 1121 125.445 40.9706 467.35
145 0 99.3451 13.136 1305 122.188 40.6881 465.333
146 0 101.342 13.0843 1326 123.806 40.2685 460.836
147 0 105.156 12.6098 1326 119.524 39.8401 460.078
148 0 107.208 13.1707 1412 119.058 40.5467 457.573
149 1 58.1102 10.9447 636 113.841 40.8223 485.042
150 0 59.2742 11.219 665 118.648 40.5053 478.379
151 0 60.1523 12.1359 730 115.977 39.9027 484.34
152 0 64.1419 13.2207 848 110.264 41.1073 483.583
153 0 66.1534 12.1082 801 112.568 41.0874 482.665
154 0 66.2016 11.9937 794 114.873 41.063 479.982
155 0 68.1414 11.9457 814 116.179 41.2764 480.029
156 0 72.1479 12.2665 885 116.05 40.9345 477.856
157 0 74.1115 11.928 884 117.981 42.164 476.215
158 0 76.157 12.6449 963 118.658 41.1765 475.119
159 0 80.2746 14.5999 1172 116.532 41.3498 473.858
160 0 82.2353 12.221 1005 123.483 42.0687 473.343
161 0 84.1586 13.0824 1101 121.89 41.4296 469.46
162 0 89.1804 13.725 1224 119.236 40.6977 469.43
163 0 92.3077 13.9858 1291 119.662 40.7878 467.27
164 0 94.1716 13.5073 1272 121.219 41.1698 465.758
165 0 98.2167 12.7575 1253 124.013 40.5922 462.796
166 0 102.267 13.1127 1341 124.23 40.2655 460.55
167 0 105.312 13.1704 1387 125.317 39.8472 459.793
168 0 108.375 14.3299 1553 122.566 39.7663 455.753
169 1 57.2598 11.8233 677 122.306 40.8907 483.143
170 0 57.1002 11.8038 674 116.979 42.365 485.979
171 0 60.0834 12.8488 772 115.742 41.7487 481.497
172 0 61.451 13.4091 824 126.637 40.5704 481.791
173 0 61.2447 11.2826 691 128.524 40.563 483.863
174 0 64.2508 12.6224 811 127.162 40.8348 480.594
175 0 68.2266 13.4112 915 122.996 41.4809 480.616
176 0 69.2826 12.6439 876 125.737 41.1941 479.541
177 0 72.3936 12.9984 941 126.157 40.9936 477.317
178 0 74.2527 13.0904 972 126.376 41.7233 476.684
179 0 78.2181 13.603 1064 125.513 41.031 474.239
180 0 80.2085 13.3652 1072 126.488 41.0448 473.481
181 0 83.2124 13.3394 1110 125.135 40.9613 471.98
182 0 84.197 13.1834 1110 126.793 40.9838 470.65
183 0 89.3253 12.9862 1160 126.509 40.0888 470.113
184 0 94.2922 14.3914 1357 121.276 40.1651 467.225
185 0 96.2417 14.1726 1364 122.812 40.2221 464.552
186 1 49.2245 11.3155 557 128.278 40.1616 487.603
187 0 50.6689 11.0521 560 126.989 40.975 485.191
188 0 53.0116 12.1294 643 124.56 39.5972 487.46
189 0 52.028 10.8595 565 124.66 39.6124 487.952
190 0 52.0264 11.4365 595 124.447 39.5647 485.855
191 0 53.0651 11.3445 602 123.62 39.8671 485.078
192 0 56.0121 11.3904 638 122.453 39.768 485.785
193 0 57.0662 12.4592 711 121.844 39.8537 483.293
194 0 60.1055 12.9439 778 119.972 39.5835 483.287
195 0 62.1874 12.1086 753 122.417 39.8924 479.793
196 0 63.1132 12.3746 781 120.565 40.0615 482.689
197 0 65.1244 12.1306 790 121.028 40.3848 480.897
198 0 67.1 12.8912 865 119.618 40.6566 478.221
199 0 69.1683 12.5057 865 120.065 40.2867 477.283
200 0 70.2137 11.465 805 123.406 40.4634 478.035
201 0 73.2089 13.0449 955 120.453 39.9623 474.708
202 0 76.1945 12.035 917 122.702 40.2061 474.222
203 0 81.1856 13.5246 1098 118.601 39.9836 473.134
204 0 81.1691 13.9339 1131 118.366 39.6534 472.387
205 0 86.3692 12.6781 1095 120.722 39.6438 471.238
206 0 88.2641 13.3576 1179 119.014 40.1187 468.356
207 0 89.1522 11.901 1061 122.38 40.3186 465.776
208 0 90.121 11.2737 1016 120.078 39.6998 461.313
209 0 95.2496 12.5355 1194 116.397 39.7337 460.184
210 1 48.1131 9.58159 461 115.013 40.3666 480.521
211 0 53.1337 11.4617 609 111.253 40.7225 483.03
212 0 57.0689 12.2834 701 116.76 40.7275 484.448
213 0 56.0535 11.935 669 111.299 42.2601 485.339
214 0 58.1207 12.7149 739 110.555 41.9797 483.35
215 0 59.1177 10.9104 645 116.46 42.6202 482.952
216 0 60.024 11.4787 689 115.055 42.3541 483.335
217 0 64.0311 11.9942 768 114.316 42.75 481.333
218 0 64.0183 12.2934 787 114.71 42.5769 480.114
219 0 65.0265 11.2877 734 117.868 42.2003 477.955
220 0 69.0878 12.4914 863 114.111 42.2943 478.097
221 0 70.0288 12.8519 900 113.761 42.0789 475.308
222 0 73.0616 11.7435 858 116.605 41.5851 474.871
223 0 78.1039 12.5602 981 113.144 41.317 475.75
224 0 80.0747 13.1502 1053 111.241 41.7664 474.618
225 0 82.1145 12.9453 1063 114.792 41.3565 473.3
226 0 84.0324 12.6023 1059 116.046 41.526 471.211
227 0 85.1458 12.0499 1026 116.697 41.1667 470.34
228 0 88.0857 11.9656 1054 118.035 40.9288 471.072
229 0 92.1212 13.1349 1210 115.88 41.4256 469.194
230 0 96.193 12.9531 1246 116.819 40.9189 466.354
231 0 98.1489 12.1448 1192 118.312 41.1183 466.242
232 0 99.1489 12.5468 1244 119.035 41.287 463.425
233 1 54.0177 10.4225 563 115.629 42.2593 486.286
234 0 55.0314 11.448 630 113.232 41.6175 484.046
235 0 59.0162 11.9798 707 109.765 41.7072 484.018
236 0 60.1496 13.1672 792 106.778 40.1503 482.367
237 0 60.0744 11.0363 663 114.653 40.8205 482.318
238 0 61.0652 11.9872 732 112.512 40.1598 483.549
239 0 65.0789 11.924 776 112.263 41.1108 482.267
240 0 67.0324 12.1881 817 111.929 39.4162 480.498
241 0 69.0658 11.9886 828 113.068 39.3889 478.849
242 0 69.0898 11.6226 803 114.544 40.1245 477.857
243 0 70.0504 11.1063 778 118.017 38.8342 476.761
244 0 76.0348 12.3891 942 113.581 40.2951 475.665
245 0 78.0621 12.5925 983 114.647 41.0905 474.452
246 0 80.0588 12.3035 985 116.962 41.0812 473.316
247 0 83.1336 12.5822 1046 117.401 41.0172 470.168
248 0 85.1289 12.6631 1078 117.037 41.4443 470.75
249 0 89.098 12.6827 1130 117.867 40.8195 471.056
250 0 91.0788 11.243 1024 122.025 40.6846 469.358
251 0 95.0653 12.2337 1163 119.762 40.877 467.807
252 0 98.1058 13.0573 1281 119.35 39.7986 465.34
253 0 102.091 13.4683 1375 118.652 39.8495 461.953
254 0 101.136 11.9146 1205 124.264 40.1975 460.41
255 1 56.0591 12.0766 677 118.285 41.8479 485.997
256 0 59.0238 12.6898 749 110.63 41.5714 484.479
257 0 59.0945 12.6408 747 111.554 41.8594 484.25
258 0 59.0463 11.4656 677 116.279 40.2245 484.988
259 0 62.0192 12.5445 778 112.943 39.7288 483.32
260 0 63.1433 10.6425 672 118.235 39.8438 481.253
261 0 66.0497 11.8244 781 115.163 40.0768 480.134
262 0 67.0694 12.5989 845 114.751 40.1527 479.336
263 0 71.0598 13.1579 935 111.446 40.2684 479.176
264 0 72.0517 12.38 892 115.089 40.0684 477.987
265 0 75.0652 12.589 945 114.113 40.2021 476.683
266 0 77.1503 12.534 967 114.862 40.9886 475.813
267 0 78.0405 13.1086 1023 114.34 41.262 473.26
268 0 82.1077 12.9342 1062 115.479 40.5395 473.824
269 0 84.0774 13.7492 1156 113.784 39.7803 472.884
270 0 88.1081 13.0408 1149 114.304 40.3011 472.542
271 0 91.2633 13.0611 1192 114.679 40.573 469.406
272 1 49.1381 12.2105 600 113.565 40.2317 489.242
273 0 50.2675 10.5635 531 116.627 40.4614 489.036
274 0 50.2328 11.606 583 115.686 40.8405 486.642
275 0 53.1206 12.2928 653 114.142 39.7902 485.747
276 0 56.1443 12.8241 720 112.64 39.5083 485.278
277 0 58.1442 11.9702 696 114.148 40.2026 484.572
278 0 61.1367 13.0854 800 111.186 39.7438 484.572
279 0 60.189 12.3444 743 115.149 40.5693 484.62
280 0 61.1202 11.8946 727 118.582 39.9133 481.208
281 0 65.1387 12.7113 828 115.383 40.1256 481.351
282 0 65.1126 13.6533 889 115.051 40.0596 480.836
283 0 67.1139 13.5739 911 115.047 40.4083 478.791
284 0 69.0795 13.3325 921 116.377 40.4115 476.848
285 0 71.0984 12.8835 916 119.573 40.2467 476.909
286 0 73.1265 12.3485 903 121.192 41.0808 476.653
287 0 76.1349 13.6994 1043 118.021 40.6165 475.194
288 0 79.2123 13.4828 1068 118.194 39.6283 473.975
289 0 82.0823 13.5961 1116 119.891 40.3145 471.795
290 0 83.2435 12.8058 1066 122.405 40.7852 469.829
291 0 85.2213 12.9662 1105 122.569 40.1991 469.521
292 0 91.196 13.5752 1238 120.352 40.7964 467.341
293 0 92.196 12.9398 1193 122.91 40.7242 464.244
294 1 47.0426 10.4586 492 120.362 39.3211 489.665
295 0 52.0761 12.3089 641 112.944 40.4212 489.12
296 0 51.0253 11.8569 605 113.033 40.3917 489.884
297 0 53.0548 12.4211 659 111.583 40.352 489.144
298 0 54.0685 13.4274 726 108.022 40.3113 487.271
299 0 54.1369 11.7665 637 112.356 39.6201 487.586
300 0 54.0711 11.7438 635 114.745 39.5307 486.022
301 0 56.0584 12.4335 697 112.628 39.2956 485.009
302 0 60.0801 14.0812 846 107.37 39.7695 484.904
303 0 60.0909 13.5462 814 110.124 39.9251 483.618
304 0 64.0699 13.2043 846 109.663 39.7163 483.81
305 0 65.1309 13.3884 872 112.19 39.9392 481.756
306 0 67.0694 13.0015 872 114.791 39.5126 480.236
307 0 69.0471 13.5994 939 113.494 40.3163 479.764
308 0 71.0866 13.2796 944 115.254 39.5551 479.229
309 0 76.0512 13.0438 992 120.572 39.9889 477.523
310 0 76.0325 13.0997 996 121.279 39.5673 474.314
311 0 78.0415 13.6081 1062 121.09 40.0584 475.289
312 0 82.0873 13.6318 1119 120.446 40.0992 471.854
313 0 83.0851 12.8784 1070 122.548 41.1028 473.907
314 1 45.0338 11.7689 530 116.477 41.517 492.434
315 0 42.0458 11.4161 480 120.379 40.6083 492.129
316 0 45.0959 12.4623 562 113.34 40.1157 489.881
317 0 46.0782 11.8928 548 113.316 40.6277 492.708
318 0 45.2549 11.6673 528 117.581 40.5019 491.254
319 0 47.0998 12.2506 577 115.563 40.5754 490.589
320 0 48.0301 11.0764 532 118.135 40.9229 488.961
321 0 51.0187 12.2896 627 115.07 40.6954 489.646
322 0 51.0725 12.2375 625 115.515 40.864 488.166
323 0 55.0459 12.3897 682 113.982 41.3475 488.617
324 0 54.0979 11.2204 607 119.165 40.168 485.717
325 0 57.0739 12.6678 723 114.871 40.787 486.337
326 0 59.0664 13.3409 788 113.772 41.3604 484.166
327 0 63.0396 14.3719 906 110.614 40.9647 482.837
328 0 65.0614 12.9262 841 113.989 41.2961 482.408
329 0 66.1309 12.5509 830 115.899 41.4663 481.287
330 0 69.0561 12.7722 882 116.895 41.3957 480.814
331 0 71.035 11.9659 850 120.607 40.4424 478.559
332 0 71.0631 12.1301 862 122.478 39.6357 477.762
333 0 76.0685 13.0935 996 118.839 39.5703 476.128
334 0 77.0575 12.8605 991 120.348 40.0807 475.103
335 0 79.0993 12.794 1012 120.763 40.3686 475.154
336 0 81.0385 12.8828 1044 123.104 40.1686 471.539
337 0 86.1169 13.7604 1185 119.153 40.0262 471.784
338 1 47.0374 12.118 570 119.914 40.3368 491.279
339 0 47.0134 11.0819 521 122.457 41.0115 491.002
340 0 48.1247 11.9273 574 117.685 40.8049 491.589
341 0 50.0709 12.1627 609 118.424 41.6634 489.773
342 0 52.0601 12.4087 646 115.841 41.3483 491.189
343 0 51.0473 11.4991 587 121.276 41.4191 489.624
344 0 53.111 11.3536 603 120.549 40.9569 490.025
345 0 56.0639 13.2527 743 116.042 41.3849 487.349
346 0 54.03 11.1605 603 122.836 41.7761 487.552
347 0 59.0909 12.8615 760 116.717 41.4447 486.403
348 0 62.2028 13.1023 815 115.955 41.1939 485.594
349 0 62.1009 12.1737 756 119.653 41.6124 484.796
350 0 65.0997 13.2566 863 117.878 41.3824 483.48
351 0 66.1164 13.0981 866 119.529 40.4157 482.512
352 0 70.0577 12.9322 906 118.264 40.2715 481.238
353 0 71.1681 12.2808 874 120.26 40.6751 480.007
354 0 74.0604 13.1244 972 117.58 40.5895 477.814
355 0 74.1446 12.624 936 120.125 40.453 477.069
356 0 79.1147 13.7143 1085 116.935 40.176 476.09
357 0 82.0427 12.6641 1039 118.397 40.769 475.394
358 0 86.1566 13.0808 1127 116.717 40.8394 473.287
359 0 88.1468 12.8649 1134 116.599 41.1561 473.519
360 0 93.0443 14.0148 1304 112.669 41.3152 470.817
361 0 95.1653 13.671 1301 121.254 41.6741 466.431
362 0 99.0427 13.58 1345 117.312 41.6996 466.634
363 0 102.154 14.0474 1435 115.848 41.4209 466.201
364 1 55.0338 11.9018 655 121.624 42.1466 486.409
365 0 57.1024 12.5038 714 112.371 42.0518 488.354
366 0 59.079 12.4748 737 114.261 42.2076 487.202
367 0 61.1481 13.2629 811 111.841 42.349 485.829
368 0 62.0738 13.3712 830 113.366 42.2108 483.705
369 0 62.0273 12.2366 759 117.285 41.6047 483.472
370 0 65.0571 12.0663 785 117.046 41.6446 480.641
371 0 69.0758 12.8554 888 113.49 41.8851 481.14
372 0 71.0717 11.9598 850 115.111 41.0612 480.131
373 0 74.1102 12.6433 937 114.313 41.6318 477.572
374 0 78.0618 13.7711 1075 110.598 41.4837 478.73
375 0 80.1901 12.2085 979 115.055 41.4362 477.246
376 0 83.1014 12.4908 1038 113.625 41.4355 477.4
377 0 86.1962 12.9704 1118 113.28 41.0277 474.612
378 0 88.1262 13.1629 1160 113.547 41.2207 470.562
379 0 90.2594 10.5585 953 118.838 40.3893 471.148
380 1 49.1432 12.2092 600 111.5 41.0167 491.91
381 0 50.2086 12.7468 640 109.57 40.0797 491.059
382 0 49.0672 11.2295 551 108.668 38.784 492.793
383 0 51.0298 12.6789 647 104.963 39.558 492.491
384 0 51.0932 12.0564 616 107.854 39.9708 490.315
385 0 53.1171 12.2936 653 107.773 40.3767 489.123
386 0 55.0889 11.4361 630 108.837 40.0429 489.773
387 0 57.099 11.9091 680 109.034 39.9529 486.94
388 0 57.0619 11.8293 675 109.043 39.8489 487.268
389 0 60.0683 11.5535 694 108.329 39.7133 486.497
390 0 59.0266 11.7066 691 109.245 39.0695 485.411
391 0 63.1637 11.6839 738 110.649 39.2927 482.453
392 0 64.1306 12.6305 810 105.407 39.5704 485.098
393 0 67.0488 11.6482 781 109.257 39.4238 481.796
394 0 69.0531 12.4832 862 107.391 39.2587 481.089
395 0 71.122 11.3748 809 109.179 39.7157 480.335
396 0 75.103 12.4629 936 107.013 39.7447 477.472
397 0 78.1097 12.0984 945 107.272 40.1016 477.868
398 0 81.2385 12.8634 1045 105.926 40.7904 475.906
399 1 41.1359 10.4532 430 108.253 39.6628 494.407
400 0 42.0496 11.8194 497 103.616 40.4748 493.688
401 0 42.0373 10.9665 461 105.074 40.9067 494.169
402 0 46.116 10.5386 486 105.37 42.3272 492.385
403 0 47.0766 11.8318 557 103.429 42.0862 493.562
404 0 49.0388 13.3364 654 101.537 42.3058 490.82
405 0 49.1335 12.7204 625 104.762 42.0352 491.549
406 0 51.0411 11.7552 600 106.228 41.6467 492.213
407 0 53.1205 13.1211 697 104.062 42.3228 487.898
408 0 55.0436 13.2259 728 104.082 42.467 489.679
409 0 58.0313 13.1136 761 103.553 42.0512 488.057
410 0 58.0384 13.2671 770 104.587 41.8779 487.7
411 0 60.0441 12.8239 770 105.66 41.1584 488.095
412 0 61.049 13.1042 800 106.386 41.3337 486.155
413 0 63.0826 13.1256 828 106.245 41.1002 485.734
414 0 63.0948 13.1231 828 108.499 40.8188 483.285
415 0 65.1379 13.2488 863 108.954 41.4751 484.136
416 0 67.0303 13.5461 908 109 41.0154 482.097
417 0 70.0688 14.0291 983 108.994 41.7416 481.039
418 0 70.0978 12.6538 887 114.445 41.5513 481.375
419 0 74.1603 13.8349 1026 117.755 41.3947 478.623
420 0 75.0716 13.9733 1049 119.693 39.6816 476.415
421 0 77.0657 13.3003 1025 122.098 38.9512 476.494
422 0 80.1252 14.1529 1134 120.953 39.2478 474.19
423 0 82.1012 15.0424 1235 119.973 40.0057 473.518
424 0 85.0925 14.8309 1262 119.677 39.1474 473.844
425 0 86.0937 13.7292 1182 124.81 39.3046 472.161
426 0 90.0666 14.9223 1344 121.347 39.8996 472.103
427 0 94.1059 13.9842 1316 124.054 39.1307 468.986
428 0 95.1378 12.834 1221 128.598 38.8976 469.469
429 0 99.1153 14.1451 1402 125.248 39.9337 466.937
430 0 104.13 13.9441 1452 123.733 40.6164 466.99
431 0 106.173 14.1184 1499 123.221 40.8546 464.34
432 1 53.1859 11.3188 602 124.937 41.4136 489.394
433 0 57.207 13.3375 763 120.113 40.4063 488.505
434 0 58.026 14.1316 820 117.568 39.4049 486.288
435 0 58.1075 12.322 716 125.844 39.6676 485.723
436 0 61.0536 13.1032 800 124.732 40.1363 483.528
437 0 64.0693 13.0796 838 124.311 40.2816 483.135
438 0 66.129 12.8234 848 125.272 39.9139 481.757
439 0 70.0388 13.5354 948 122.602 39.5749 481.424
440 0 71.0922 15.2056 1081 119.518 40.1101 477.919
441 0 75.095 13.7426 1032 123.879 40.2151 477.091
442 0 78.1835 13.9671 1092 123.056 40.565 477.829
443 0 80.1871 13.8676 1112 124.596 40.152 475.725
444 0 83.067 13.6877 1137 127.078 41.241 474.248
445 0 86.167 12.7079 1095 128.803 41.6721 473.819
446 1 44.0152 10.5645 465 126.888 40.4022 493.065
447 0 47.0863 11.086 522 126.17 40.1648 492.33
448 0 47.0136 12.5708 591 123.589 39.9932 491.998
449 0 49.0729 12.4101 609 123.829 40.2693 490.562
450 0 52.1766 12.266 640 123.327 40.1703 491.511
451 0 52.0374 12.6255 657 123.995 39.7215 490.132
452 0 53.0959 11.7523 624 127.293 39.9599 489.29
453 0 54.1026 11.5152 623 128.533 39.8892 488.31
454 0 57.029 12.5901 718 124.426 39.3008 486.28
455 0 58.0565 12.1778 707 127.078 40.5714 486.686
456 0 59.1193 12.6016 745 127.141 39.6738 483.459
457 0 62.0632 12.5034 776 125.159 39.9369 485.133
458 0 62.1325 12.586 782 127.783 40.8708 483.882
459 0 64.13 12.0848 775 128.745 40.5394 485.497
460 0 68.1076 12.6711 863 126.393 40.7532 481.11
461 0 71.2683 12.7687 910 125.662 40.4055 482.087
462 0 71.1781 12.6443 900 126.083 40.6744 479.971
463 0 74.1477 14.0126 1039 122.553 40.5448 478.985
464 0 76.1826 12.8244 977 124.057 40.4442 479.123
465 0 78.2747 11.8557 928 127.466 40.6412 475.677
466 1 41.0107 9.29026 381 128.814 42.5302 492.785
467 0 45.0776 10.8258 488 120.242 42.0799 493.732
468 0 47.0378 12.5431 590 113.169 41.2271 493.383
469 0 47.1292 12.8795 607 108.924 40.9736 492.323
470 0 48.0901 12.4142 597 110.593 40.7588 493.573
471 0 50.161 12.4001 622 111.884 39.873 489.701
472 0 52.0392 12.26 638 111.639 39.6567 490.412
473 0 52.149 11.8315 617 114.454 39.6953 489.063
474 0 54.1543 12.649 685 112.216 40.8701 488.663
475 0 53.0599 11.9299 633 115.155 41.1343 488.807
476 0 56.1583 13.5332 760 110.396 40.5592 486.072
477 0 57.1501 11.916 681 115.552 40.4479 485.53
478 0 61.11 12.6657 774 111.164 40.0401 486.388
479 0 61.04 13.7615 840 111.957 42.6262 484.936
480 0 63.0977 13.6772 863 112.185 41.9397 484.345
481 0 65.137 13.8938 905 113.523 41.5381 482.265
482 0 67.0247 13.9799 937 112.366 41.7823 481.383
483 0 69.1022 14.2977 988 112.209 41.4383 480.338
484 0 71.1138 14.0479 999 112.825 41.6807 480.092
485 0 73.057 12.7024 928 115.9 41.1315 480.078
486 0 75.177 12.9428 973 119.801 41.5581 476.386
487 0 79.1778 14.5243 1150 114.332 41.2948 475.475
488 0 83.1647 13.5274 1125 115.572 40.2524 473.972
489 0 85.1794 12.9844 1106 117.033 40.3816 473.851
490 0 88.2496 13.0652 1153 116.687 39.7754 471.306
491 1 44.0874 10.8648 479 113.63 40.6952 494.142
492 0 46.0187 11.7778 542 109.965 39.6937 492.218
493 0 49.0495 12.2529 601 108.562 39.0666 491.549
494 0 50.1467 13.3209 668 104.961 39.0165 491.754
495 0 50.0593 12.8847 645 107.057 40.1147 490.098
496 0 50.0612 11.1663 559 111.98 39.9195 490.814
497 0 54.1612 13.2752 719 105.376 39.6384 489.757
498 0 58.1636 13.1354 764 104.478 39.3416 489.126
499 0 58.1214 12.8352 746 106.735 39.1273 487.257
500 0 58.1474 12.3995 721 111.244 40.0929 488.606
501 0 59.1219 13.7513 813 112.055 40.0283 486.203
502 0 60.0638 12.7698 767 116.33 39.6402 487.235
503 0 65.1318 14.463 942 111.253 40.0658 484.507
504 0 68.1212 13.4907 919 112.338 40.0381 484.864
505 0 67.1186 13.2303 888 116.302 39.3941 481.377
506 0 69.1246 13.5697 938 116.437 39.791 482.213
507 0 74.2678 13.6398 1013 116.024 40.0207 480.156
508 0 75.2931 14.0783 1060 118.889 39.5717 479.012
509 0 77.3458 13.9374 1078 120.558 40.0158 477.16
510 0 80.2815 13.6021 1092 121.703 39.5348 475.326
511 0 84.2762 14.7729 1245 119.223 39.894 474.807
512 0 85.2061 14.1774 1208 122.133 40.1515 472.237
513 0 88.335 12.4752 1102 126.566 39.8448 472.76
514 1 46.3451 12.148 563 124.291 40.1847 491.442
515 0 47.3034 13.5508 641 122.735 40.17 489.797
516 0 49.2894 13.1671 649 125.983 39.6826 488.186
517 0 47.2857 11.7795 557 131.37 39.6463 490.79
518 0 51.2041 12.2646 628 128.185 40.2914 491.328
519 0 52.3291 12.9374 677 128.3 40.4697 489.801
520 0 54.0689 13.9267 753 125.263 40.5378 488.462
521 0 56.0891 13.0328 731 127.445 40.1655 487.955
522 0 58.1765 14.0091 815 123.33 41.1521 488.253
523 0 58.0931 13.3923 778 126.895 40.1774 485.833
524 0 61.1686 13.2584 811 125.634 40.2256 484.747
525 0 63.113 14.0066 884 124.164 40.1176 484.241
526 0 67.2215 14.3109 962 121.277 40.236 485.111
527 0 67.1315 13.4661 904 123.877 39.8086 483.726
528 0 69.1969 13.57 939 123.894 39.5261 481.636
529 0 70.1551 13.1993 926 126.374 40.1263 481.052
530 0 73.1757 13.2011 966 124.323 40.5062 480.953
531 0 75.2434 13.3566 1005 125.205 40.5323 478.235
532 0 80.0696 13.7755 1103 122.185 39.699 478.801
533 0 80.1118 12.8196 1027 125.744 40.3126 476.364
534 0 83.1236 12.5837 1046 125.17 40.5516 475.255
535 0 88.3025 13.2499 1170 122.89 40.4462 472.353
536 0 89.1706 12.9976 1159 122.591 40.3762 471.044
537 0 91.1482 12.4742 1137 124.46 40.4459 470.44
538 0 96.288 13.1273 1264 122.848 40.5253 468.169
539 0 98.2228 12.2578 1204 125.426 39.4203 466.986
540 1 52.2557 11.4629 599 119.521 39.2437 489.511
541 0 55.2601 12.3054 680 117.9 40.0985 488.246
542 0 56.1998 11.9573 672 119.717 39.5967 487.677
543 0 57.0675 12.0209 686 120.347 41.5612 486.876
544 0 60.0168 13.213 793 118.917 40.8726 487.092
545 0 61.0126 11.4894 701 122.108 40.8374 489.014
546 0 64.0787 12.5159 802 120.914 40.6409 485.197
547 0 65.1171 11.9631 779 123.425 41.2709 484.881
548 0 66.109 10.8004 714 125.775 40.8053 483.616
549 0 70.136 12.6183 885 123.116 40.6011 481.424
550 0 73.1058 11.969 875 123.337 41.1989 479.055
551 0 77.124 13.2903 1025 119.655 40.3717 479.222
552 0 79.1838 11.6564 923 121.495 41.7595 475.998
553 0 82.0436 11.6767 958 122.739 39.8549 477.062
554 0 87.0617 13.4847 1174 118.394 40.5307 473.887
555 1 46.0349 10.9482 504 122.413 41.3313 493.974
556 0 45.0714 11.4707 517 122.932 41.1625 493.602
557 0 49.0856 12.631 620 117.879 42.3065 491.173
558 0 49.0822 11.715 575 115.426 42.9009 490.951
559 0 51.0121 11.3698 580 117.39 41.3983 492.669
560 0 52.0377 13.1635 685 112.702 41.8978 491.699
561 0 53.061 11.4774 609 116.383 41.9031 492.31
562 0 56.0441 10.9913 616 115.237 43.0179 490.688
563 0 58.0855 12.3611 718 112.954 42.3579 489.804
564 0 58.0662 12.8646 747 113.948 42.6881 486.432
565 0 59.0791 11.2223 663 117.541 42.4796 487.523
566 0 64.016 12.1688 779 114.069 42.8768 486.892
567 0 66.1751 12.9203 855 114.041 42.0058 484.561
568 0 67.0678 12.7036 852 114.302 41.8216 484.344
569 0 69.1118 11.8504 819 118.186 41.4054 482.816
570 0 70.1239 12.6918 890 117.394 41.8831 482.191
571 0 73.0652 11.8387 865 121.276 41.7457 480.032
572 0 77.0986 14.1248 1089 115.052 41.4288 477.377
573 0 77.0913 12.0896 932 122.704 39.7124 477.058
574 0 81.1247 12.943 1050 120.606 39.7819 475.976
575 0 85.0587 11.5567 983 123.013 40.1943 476.255
576 0 87.1057 12.9039 1124 120.137 39.6468 475.742
577 0 89.0766 12.1581 1083 123.547 39.9206 472.338
578 1 50.0525 11.6877 585 124.797 39.9607 489.757
579 0 49.0336 12.4405 610 117.964 41.1492 490.37
580 0 51.1371 11.8505 606 117.391 41.4323 491.822
581 0 53.1882 13.1796 701 114.01 42.1098 490.127
582 0 55.15 13.8712 765 111.792 42.0013 490.25
583 0 57.0769 13.3854 764 110.526 41.8835 489.364
584 0 58.145 13.4663 783 111.112 42.0932 489.023
585 0 59.0618 12.2245 722 115.688 42.1191 487.805
586 0 61.1064 12.7974 782 114.198 41.812 487.668
587 0 62.1446 12.2939 764 116.991 42.2199 485.37
588 0 66.0404 12.4924 825 116.408 41.9358 483.984
589 0 65.1634 12.4303 810 119.489 42.1741 483.622
590 0 69.1324 12.6569 875 117.605 41.7703 482.669
591 0 71.1176 12.5145 890 118.475 41.4876 480.767
592 0 76.2081 13.345 1017 114.654 41.6676 479.966
593 0 78.1192 12.993 1015 117.524 41.931 478.894
594 0 80.2445 11.5023 923 121.1 41.2481 479.816
595 0 83.1949 13.1378 1093 117.424 41.1446 475.268
596 1 43.0589 12.1229 522 126.245 41.8429 494.795
597 0 47.0356 11.8421 557 123.205 42.8851 494.77
598 0 46.0269 12.1451 559 125.843 39.3596 494.488
599 0 47.0479 12.4979 588 120.774 40.7466 493.803
600 0 50.0621 13.3035 666 116.932 41.1772 492.465
601 0 49.0995 13.0348 640 120.591 41.5312 490.692
602 0 51.0633 13.3364 681 118.258 41.3539 490.141
603 0 53.0527 12.874 683 118.265 41.0586 491.731
604 0 54.0512 13.0987 708 119.14 40.2599 490.589
605 0 55.0839 13.1254 723 118.786 40.3126 488.441
606 0 58.0582 13.4348 780 116.999 39.7372 487.932
607 0 59.0834 13.6417 806 116.04 39.6861 487.627
608 0 60.0734 14.0495 844 115.768 39.7464 486.866
609 0 61.1336 13.1842 806 119.375 39.562 485.759
610 0 63.0374 14.1345 891 116.854 40.0202 485.519
611 0 66.2852 13.7587 912 117.519 39.7895 482.751
612 0 68.1757 14.0226 956 116.818 39.6004 484.109
613 0 68.1289 12.8433 875 121.663 39.3623 482.725
614 0 72.1727 13.8834 1002 118.765 40.016 481.229
615 0 74.1162 14.4233 1069 118.937 39.9486 478.703
616 0 78.1326 13.1827 1030 121.04 40.0592 479.887
617 0 81.2363 14.4886 1177 119.093 40.0841 478.622
618 0 82.0861 13.5102 1109 123.039 40.2209 479.366
619 0 86.2531 13.356 1152 124.326 39.9219 475.599
620 0 88.1792 13.1664 1161 126.812 40.3747 472.975
621 1 46.1313 12.0309 555 126.249 40.5964 492.658
622 0 47.0461 12.4984 588 120.741 40.6871 491.105
623 0 50.1136 12.4916 626 121.089 41.0463 493.294
624 0 53.4508 13.9006 743 117.989 41.5599 488.98
625 0 55.1947 13.2622 732 121.139 41.0984 492.467
626 0 55.2488 12.6338 698 124.096 40.4441 490.294
627 0 57.1859 13.6747 782 120.593 40.6023 490.597
628 0 56.2096 12.2933 691 127.508 40.4761 487.903
629 0 57.1962 12.5883 720 126.985 40.8542 488.517
630 0 59.2599 12.6899 752 126.242 40.0186 487.352
631 0 61.2035 12.7607 781 126.723 40.1575 485.151
632 0 66.2105 13.8951 920 121.154 40.5207 484.673
633 0 66.0407 12.9466 855 124.798 42.3661 484.138
634 0 67.0401 14.3496 962 122.533 41.9865 484.667
635 0 71.0397 13.598 966 123.934 42.1304 482.269
636 0 72.0744 12.5842 907 126.505 41.9526 481.363
637 0 76.0905 12.9188 983 126.085 42.3245 480.149
638 0 77.0845 12.9857 1001 126.089 42.5934 480.265
639 0 79.1487 12.9756 1027 127.211 42.3165 477.242
640 0 83.2172 13.0622 1087 125.45 42.2833 477.9
641 1 44.0675 10.9605 483 126.872 42.6335 495.834
642 0 46.0978 11.801 544 127.057 42.5956 492.586
643 0 48.0281 12.7425 612 110.214 42.6127 491.057
644 0 51.0223 12.4063 633 117.566 43.2164 490.167
645 0 50.0992 11.5371 578 121.042 42.8287 489.431
646 0 51.0671 12.5129 639 122.343 40.4648 493.681
647 0 54.1153 12.8245 694 122.297 40.2824 491.669
648 0 53.062 13.5313 718 122.294 40.1978 490.361
649 0 55.0953 13.2861 732 123.097 40.138 489.846
650 0 58.0807 13.223 768 122.327 40.1172 489.887
651 0 60.1149 13.1082 788 123.359 39.7779 488.246
652 0 62.1005 13.1078 814 123.077 39.9791 486.447
653 0 63.0611 13.0825 825 124.555 39.8145 487.33
654 0 66.1153 13.3706 884 124.227 40.1844 484.922
655 0 67.0355 13.3064 892 125.527 40.2287 485.559
656 0 67.0391 12.4853 837 130.237 40.2258 482.47
657 0 73.052 13.4562 983 125.982 39.9064 482.627
658 0 74.0472 14.1531 1048 126.771 39.4532 480.262
659 0 78.0882 13.7409 1073 126.611 39.1724 478.07
660 0 81.1105 13.5864 1102 126.843 39.5563 479.038
661 0 85.0828 14.0216 1193 125.471 38.8106 476.438
662 0 84.1692 12.5937 1060 132.099 38.9736 474.11
663 0 88.0983 12.3839 1091 132.031 39.462 472.505
664 0 93.1169 13.5528 1262 126.744 38.8914 470.459
665 0 96.1311 13.4192 1290 124.592 38.507 470.402
666 1 52.0962 11.6515 607 122.85 38.5305 488.863
667 0 53.0509 12.1393 644 120.925 39.028 487.804
668 0 54.1023 12.6982 687 122.475 39.4949 490.869
669 0 56.1978 12.7585 717 122.241 39.3264 491.18
670 0 56.0634 12.8069 718 124.364 38.3872 489.078
671 0 58.0611 13.5202 785 122.403 39.4497 488.49
672 0 62.0406 13.1204 814 123.892 39.113 487.286
673 0 63.0332 12.7076 801 126.801 39.0125 486.057
674 0 66.1247 12.7335 842 126.982 39.1413 486.135
675 0 67.0794 11.7175 786 130.282 38.902 485.198
676 0 71.1592 13.2379 942 126.789 39.6529 484.346
677 0 73.0792 13.3964 979 127.86 39.5587 482.163
678 0 76.0586 14.2522 1084 127.216 39.3801 479.336
679 0 76.0817 13.9061 1058 131.148 39.5633 479.21
680 0 79.2441 13.9064 1102 131.574 39.6497 477.807
681 0 80.092 13.01 1042 134.914 39.6305 479.154
682 0 84.3076 13.6405 1150 132.378 40.7652 475.849
683 0 86.2944 15.0531 1299 129.011 40.7498 473.139
684 0 89.3454 12.849 1148 131.941 40.2439 473.713
685 0 90.2983 13.5661 1225 134.68 39.6514 466.904
686 0 93.1269 13.3044 1239 131.827 39.8071 467.904
687 0 95.3255 13.2598 1264 132.203 39.8188 466.232
688 0 98.2776 13.1871 1296 129.989 39.9028 461.448
689 1 44.2074 8.61847 381 130.787 39.8688 483.963
690 0 55.2599 12.4141 686 120.563 40.1647 487.045
691 0 56.0636 14.0198 786 120.628 39.9237 491.537
692 0 56.0628 12.1471 681 125.68 40.0631 492.131
693 0 57.0336 11.502 656 128.428 41.7088 489.317
694 0 60.0324 13.0096 781 125.575 40.7682 485.898
695 0 64.0384 13.3201 853 123.713 40.558 486.383
696 0 65.1307 13.6188 887 122.673 41.0879 486.142
697 0 66.0238 12.8893 851 126.284 40.8073 484.803
698 0 70.0801 12.8425 900 125.387 41.1922 483.888
699 0 72.1459 12.6272 911 127.342 40.6432 480.849
700 0 74.135 13.1112 972 126.83 41.6019 479.064
701 0 77.189 13.4216 1036 127.443 40.9131 478.364
702 0 78.1201 11.8919 929 132.08 40.8471 476.622
703 0 82.2067 13.016 1070 127.848 41.1785 475.805
704 0 84.1454 12.5141 1053 129.924 40.4663 474.109
705 0 88.1905 13.3801 1180 127.503 40.1 472.815
706 0 91.2512 12.2738 1120 131.089 40.0973 474.6
707 0 93.2232 12.808 1194 130.713 40.8459 471.276
708 0 98.2062 13.3495 1311 129.229 40.3638 469.759
709 1 53.1217 12.0478 640 132.095 39.9031 489.47
710 0 54.133 12.968 702 120.969 39.3917 490.984
711 0 52.0514 11.2389 585 128.239 40.1333 490.901
712 0 55.0899 11.7263 646 125.467 38.7152 488.091
713 0 58.0663 12.503 726 124.966 39.5441 487.82
714 0 59.0834 11.7461 694 126.991 38.9942 488.02
715 0 63.0582 13.8444 873 122.622 39.3322 485.496
716 0 64.0667 12.5962 807 126.623 38.9876 485.425
717 0 66.1083 13.2207 874 125.743 39.5812 485.311
718 0 68.0912 13.9666 951 123.887 40.0652 483.509
719 0 71.093 13.0955 931 126.318 39.6939 482.574
720 0 73.1037 13.5834 993 125.874 39.9355 479.773
721 0 75.1338 14.2146 1068 125.931 39.4326 477.69
722 0 76.0728 13.1847 1003 129.334 39.6251 475.848
723 0 82.0931 14.6906 1206 123.357 39.6915 476.181
724 0 83.0575 14.1228 1173 125.899 39.4382 476.07
725 0 85.0444 13.2519 1127 128.909 39.1358 475.889
726 0 88.1262 14.7629 1301 124.408 39.3144 472.013
727 0 91.0906 12.8444 1170 128.38 39.1863 471.924
728 0 97.163 13.7295 1334 125.351 39.2714 470.702
729 0 100.244 14.2851 1432 122.929 39.9358 468.578
730 0 99.3915 13.0393 1296 126.989 39.9776 465.211
731 1 50.1494 11.4857 576 126.708 40.316 491.708
732 0 52.0589 12.3322 642 126.229 39.6121 492.02
733 0 56.0574 12.1839 683 125.914 38.716 489.202
734 0 57.0916 13.3645 763 121.786 39.1586 489.826
735 0 59.0573 12.9027 762 123.824 38.6194 488.689
736 0 59.1156 12.9069 763 123.671 39.2163 488.341
737 0 61.0758 13.6552 834 122.922 38.1079 485.48
738 0 63.0303 13.0572 823 124.345 38.4265 485.869
739 0 65.0418 14.4369 939 120.997 38.6273 485.523
740 0 65.0485 12.8366 835 125.504 39.1257 484.737
741 0 68.0327 13.4494 915 125.084 38.8273 483.141
742 0 71.132 13.9459 992 123.95 38.7964 479.975
743 0 73.1993 14.522 1063 122.013 38.8062 480.32
744 0 74.1335 13.4217 995 125.74 38.6955 480.728
745 0 79.1234 14.5216 1149 122.252 39.7102 479.988
746 0 78.2218 14.037 1098 125.938 39.7987 476.13
747 0 82.1237 13.7841 1132 125.905 40.0292 476.208
748 0 85.2664 14.3433 1223 123.176 39.9845 475.957
749 0 87.1265 14.0715 1226 124.639 39.4005 475.199
750 0 90.2951 13.4227 1212 126.538 39.7244 472.2
751 0 95.1366 14.2217 1353 123.604 40.0894 471.497
752 1 48.0243 10.2865 494 127.038 40.915 494.745
753 0 51.0484 12.733 650 120.503 40.6846 494.102
754 0 49.0161 11.69 573 121.934 40.3246 492.267
755 0 51.0672 12.3563 631 114.428 41.8653 490.471
756 0 53.133 12.8734 684 112.892 41.2558 489.61
757 0 52.0203 12.1683 633 117.423 40.8531 490.649
758 0 57.2614 13.1677 754 113.727 41.1698 487.451
759 0 58.0519 13.6774 794 114.365 40.7053 488.141
760 0 60.2233 12.4038 747 115.086 41.7617 486.047
761 0 63.189 13.515 854 112.781 41.3044 486.916
762 0 64.0843 14.2156 911 111.703 41.3304 484.207
763 0 66.1759 13.6303 902 114.114 41.2295 485.629
764 0 70.1642 14.7939 1038 110.293 41.0048 484.61
765 0 69.1783 13.8483 958 114.093 40.8664 482.668
766 0 74.1409 14.405 1068 111.154 40.6461 483.478
767 0 76.1611 13.931 1061 113.411 40.4882 480.125
768 0 76.1705 13.3779 1019 116.943 40.4652 479.334
769 0 80.0972 13.958 1118 114.571 39.9419 478.764
770 0 84.1834 13.5062 1137 116.449 40.2779 476.147
771 0 87.1312 13.5198 1178 116.887 39.7699 474.655
772 1 45.0933 11.3986 514 119.222 41.0856 494.527
773 0 47.0905 12.8901 607 115.1 40.626 494.481
774 0 48.1041 12.7432 613 115.282 40.1909 493.191
775 0 51.0929 13.3678 683 109.139 39.9985 493.925
776 0 52.0331 12.7419 663 110.514 39.6802 493.074
777 0 53.1177 12.3499 656 112.348 40.3018 490.608
778 0 53.0428 12.1034 642 114.224 40.5483 492.223
779 0 55.1846 13.2464 731 110.725 40.3885 493.197
780 0 57.049 12.6733 723 112.773 40.8202 489.23
781 0 59.0599 12.3434 729 112.617 40.738 488.337
782 0 61.1122 12.7798 781 111.132 41.6517 486.037
783 0 64.1493 11.9565 767 112.291 41.2321 486.323
784 0 66.069 12.8502 849 110.874 41.6525 485.11
785 0 68.105 12.7891 871 110.3 41.2595 484.643
786 0 70.1218 11.8936 834 113.879 41.4113 482.637
787 0 71.1229 11.9652 851 114.452 40.8813 482.055
788 0 75.1259 12.3659 929 113.664 41.3811 479.783
789 0 77.1214 12.2793 947 115.093 40.7487 478.413
790 0 82.1775 11.9497 982 116.171 40.9002 476.484
791 1 44.0367 11.4904 506 114.472 42.2589 495.628
792 0 46.0473 12.27 565 114.724 41.0637 495.264
793 0 47.0656 12.5144 589 113.866 41.3192 494.922
794 0 50.0544 12.7461 638 113.136 41.3197 494.738
795 0 50.0567 13.8243 692 113.055 41.3483 492.582
796 0 48.1092 11.0998 534 113.762 41.9813 492.861
797 0 52.0201 12.1684 633 110.613 41.2433 493.733
798 0 53.051 12.045 639 110.443 41.1268 492.031
799 0 54.0597 12.1717 658 111.12 41.734 491.483
800 0 55.0374 11.5921 638 112.165 41.8856 490.79
801 0 58.1299 12.5065 727 110.292 41.9725 488.754
802 0 59.115 11.7567 695 112.899 42.3309 488.872
803 0 61.1057 12.372 756 111.795 42.5595 488.833
804 0 65.0808 11.601 755 113.128 42.1589 486.538
805 0 67.1298 12.8855 865 110.629 42.4879 486.542
806 0 69.1366 12.1065 837 112.587 41.319 484.553
807 0 73.1043 13.7201 1003 107.361 41.3819 484.66
808 0 72.2088 12.3808 894 113.075 41.3591 481.785
809 0 78.1197 12.3912 968 111.91 41.0444 482.52
810 1 41.0338 11.2834 463 110.384 41.3305 499.343
811 0 42.0583 11.9596 503 107.61 42.0258 497.763
812 0 43.0418 12.5227 539 104.545 41.5065 498.853
813 0 44.0461 11.9874 528 107.201 41.4527 497.663
814 0 46.0487 14.8755 685 101.296 41.5796 495.498
815 0 47.0576 12.9416 609 105.865 40.6486 495.177
816 0 48.0269 13.3883 643 105.23 40.8149 494.393
817 0 49.081 12.5303 615 107.2 40.8407 493.13
818 0 48.0436 12.0516 579 110.378 40.9136 496.515
819 0 51.0661 13.2182 675 108.57 41.5022 493.895
820 0 53.2233 12.4006 660 109.545 41.2121 495.958
821 0 55.0367 12.3191 678 109.895 41.8363 492.553
822 0 55.1307 12.6245 696 109.253 41.829 492.343
823 0 56.2266 12.4496 700 110.354 41.4529 491.381
824 0 59.2043 12.3809 733 109.086 41.8035 491.76
825 0 59.0941 11.8624 701 111.776 41.5877 490.188
826 0 60.0977 12.3965 745 110.518 40.8389 490.188
827 0 65.0798 12.8919 839 107.882 40.6317 488.046
828 0 65.2048 12.6218 823 109.338 41.1397 487.417
829 0 67.1755 12.1622 817 111.191 40.8213 486.43
830 0 69.1261 12.5278 866 111.152 40.9192 486.263
831 0 73.155 11.9199 872 111.823 40.6342 485.657
832 0 76.1319 13.227 1007 109.725 40.3019 482.811
833 0 78.2369 13.1268 1027 110.303 40.147 481.858
834 0 81.1889 12.6988 1031 113.176 39.4219 476.73
835 0 83.1474 11.3413 943 115.99 39.8144 477.291
836 0 87.1931 13.5676 1183 109.481 39.8411 474.87
837 1 45.106 12.1048 546 114.824 40.2198 493.608
838 0 46.1016 12.2122 563 114.014 40.4032 496.055
839 0 46.1408 12.3101 568 117.312 39.8504 494.364
840 0 49.1434 13.3283 655 114.713 40.2733 485.563
841 0 52.1207 13.2769 692 114.89 40.4552 488.03
842 0 52.0967 13.6093 709 112.432 41.5346 491.777
843 0 54.0795 14.0904 762 111.416 41.0157 491.991
844 0 57.1264 13.5664 775 112.274 41.3458 490.902
845 0 58.1284 14.3303 833 109.502 40.8824 491.864
846 0 59.2279 13.963 827 111.433 40.6977 489.054
847 0 63.0887 13.9011 877 110.721 41.1437 488.078
848 0 65.0689 13.5241 880 112.342 40.2159 487.238
849 0 66.0757 13.9083 919 111.83 39.6801 486.118
850 0 68.0555 14.0474 956 111.919 40.1851 485.647
851 0 69.1468 13.9414 964 113.079 39.4969 483.588
852 0 72.0957 13.1076 945 114.619 40.1979 483.693
853 0 75.1355 13.855 1041 113.174 39.5985 481.942
854 0 77.2355 13.3747 1033 114.995 39.7415 479.523
855 0 82.1138 14.7113 1208 111.962 39.1134 476.15
856 1 40.0065 11.6981 468 117.421 40.1154 497.472
857 0 41.0739 11.8567 487 114.932 39.9979 497.676
858 0 42.0137 12.853 540 115.38 39.7833 496.207
859 0 45.0486 13.6963 617 110.626 39.7277 495.3
860 0 45.0866 13.3964 604 113.21 40.1954 493.265
861 0 48.2369 13.5788 655 111.18 40.4153 493.166
862 0 48.171 12.8708 620 114.231 40.9129 491.234
863 0 52.2059 14.2321 743 109.058 40.6339 490.898
864 0 52.1543 12.9615 676 112.121 40.3462 491.694
865 0 56.1611 13.0874 735 110.154 40.6054 490.946
866 0 56.1401 13.1457 738 112.566 40.271 489.146
867 0 58.1315 13.4007 779 111.321 40.3107 488.232
868 0 59.1536 13.2536 784 112.533 40.6773 487.702
869 0 63.1087 13.5797 857 110.683 40.7678 486.342
870 0 65.0613 14.202 924 109.195 40.4372 484.539
871 0 66.0795 14.2102 939 109.887 40.3482 484.235
872 0 72.1087 14.0621 1014 107.994 40.3215 484.565
873 0 71.0647 13.4666 957 112.088 40.2957 482.111
874 0 74.0871 13.3357 988 113.932 40.6761 479.645
875 0 78.1483 13.6919 1070 111.819 40.885 479.147
876 0 80.1997 13.3916 1074 113.153 40.04 476.918
877 0 84.1626 14.7215 1239 108.785 40.9088 475.178
878 1 46.088 11.3478 523 116.12 41.3174 495.145
879 0 49.1635 12.8144 630 112.017 40.5143 495.152
880 0 48.2694 12.3267 595 114.081 40.2689 490.963
881 0 50.2629 12.5142 629 113.262 40.4404 490.617
882 0 54.2829 12.5638 682 111.858 40.283 490.635
883 0 53.2444 12.283 654 113.153 40.4251 488.979
884 0 56.1601 14.2272 799 108.183 40.4018 487.239
885 0 56.1024 11.7285 658 114.164 40.7827 486.918
886 0 61.0469 13.4651 822 108.759 40.3844 486.987
887 0 63.0778 13.412 846 109.885 40.4563 484.688
888 0 64.0481 12.8653 824 112.802 40.6723 482.971
889 0 67.1397 13.9113 934 109.081 39.5578 483.552
890 0 69.1633 13.9525 965 109.102 39.3699 482.94
891 0 71.2554 13.7814 982 110.674 40.0652 481.525
892 0 74.1966 14.7311 1093 108.072 39.8701 480.592
893 0 76.2363 14.6387 1116 108.998 39.8468 478.68
894 0 80.1839 13.7808 1105 110.975 40.2968 475.618
895 0 81.1485 13.1857 1070 112.935 39.9093 475.912
896 0 85.2688 14.8472 1266 109.742 39.7567 474.196
897 0 87.4035 14.004 1224 113.105 39.8832 475.321
898 0 89.0922 13.8171 1231 114.437 39.6621 473.601
899 0 94.2728 15.5612 1467 109.895 39.7825 472.209
900 0 97.1199 14.5902 1417 113.222 39.5152 470.908
901 0 100.278 13.8415 1388 114.808 39.3516 466.883
902 1 50.0315 12.1524 608 108.492 40.6875 492.766
903 0 50.074 11.8824 595 108.657 40.2134 490.645
904 0 54.1083 13.0294 705 108.647 40.3631 491.83
905 0 55.1393 13.1304 724 107.931 40.1851 489.068
906 0 55.0667 13.5109 744 107.559 40.7339 489.167
907 0 58.0559 15.1061 877 103.203 40.5929 486.554
908 0 61.1457 13.5741 830 107.428 39.7663 483.865
909 0 63.1109 15.2905 965 102.382 40.287 484.804
910 0 65.0757 14.1681 922 106.313 40.5163 483.704
911 0 65.113 14.1907 924 107.292 39.671 481.216
912 0 67.145 13.4336 902 108.945 40.061 480.793
913 0 72.0959 14.2865 1030 105.553 39.8282 478.8
914 0 71.1257 13.5957 967 110.553 40.2472 480.081
915 0 74.1215 12.5065 927 111.587 40.5426 477.66
916 0 79.1394 13.3941 1060 108.649 40.4792 474.601
917 0 81.0832 13.2456 1074 110.061 39.8324 474.983
918 0 84.2031 14.4056 1213 108.878 40.216 472.878
919 0 86.2206 12.9899 1120 112.51 40.2295 470.193
920 0 89.1255 13.049 1163 112.532 39.7687 468.896
921 0 91.2118 12.6409 1153 113.529 40.451 468.91
922 1 48.0639 11.5263 554 114.26 40.9513 488.2
923 0 50.0904 12.2978 616 113.945 41.2857 490.136
924 0 49.0443 12.4785 612 115.505 41.134 488.812
925 0 51.0216 13.2101 674 116.421 39.6395 490.806
926 0 54.0741 13.9623 755 113.702 39.2821 489.909
927 0 57.1109 13.2374 756 114.925 38.6389 489.083
928 0 57.0585 12.198 696 119.204 38.9598 487.816
929 0 60.1084 13.8749 834 114.68 39.1595 488.084
930 0 62.1225 13.7148 852 115.556 38.9096 486.417
931 0 64.0695 13.9068 891 115.37 39.1616 484.461
932 0 66.071 13.4249 887 117.36 38.6855 482.95
933 0 66.1389 13.9706 924 116.563 38.6883 481.235
934 0 69.0835 14.1134 975 115.883 38.8297 478.347
935 0 70.0922 13.7818 966 117.895 38.7205 477.685
936 0 73.1065 13.3914 979 118.263 38.7804 473.535
937 0 79.0675 14.671 1160 113.641 38.8207 472.933
938 0 80.1072 13.4195 1075 117.186 39.2288 469.765
939 0 81.1762 13.095 1063 118.339 39.1929 469.06
940 1 43.2502 11.3757 492 111.226 40.0854 490.23
941 0 43.2158 11.0145 476 112.613 39.8214 489.956
942 0 44.3283 11.3472 503 115.555 39.7495 488.966
943 0 49.0253 13.2177 648 112.295 39.1065 493.702
944 0 47.0918 12.0828 569 115.678 39.2917 494.575
945 0 50.0336 14.1105 706 112.792 38.6006 490.722
946 0 53.0415 12.1037 642 114.257 39.1106 492.707
947 0 56.0382 13.3837 750 110.084 38.5773 491.403
948 0 56.0285 12.9934 728 112.481 38.7679 490.051
949 0 60.1024 13.5269 813 110.636 38.3456 487.293
950 0 60.0398 14.0573 844 110.909 38.1706 484.654
951 0 64.0974 13.8071 885 110.548 38.2463 485.417
952 0 64.0721 13.6253 873 111.179 38.4811 485.142
953 0 66.0719 13.1826 871 112.825 37.752 483.999
954 0 71.1357 13.9171 990 110.017 38.1182 482.617
955 0 73.0371 13.9107 1016 109.882 38.2864 482.627
956 0 76.0302 15.0861 1147 107.79 38.7969 479.014
957 0 76.0846 13.7347 1045 111.793 39.2268 479.177
958 0 82.311 13.0238 1072 115.495 39.0121 475.924
959 0 85.1794 12.1978 1039 114.955 39.6208 476.632
960 0 87.1224 13.7852 1201 110.289 40.8193 474.688
961 1 48.0379 12.2195 587 111.828 40.7172 494.187
962 0 50.0345 13.051 653 108.778 40.7473 493.057
963 0 49.0568 13.6373 669 108.217 40.8505 492.03
964 0 52.0768 12.7312 663 103.899 40.8929 492.424
965 0 54.0324 14.1026 762 100.433 41.0538 491.419
966 0 54.0615 14.5575 787 100.846 41.4956 490.395
967 0 55.083 12.5992 694 106.272 41.1614 488.81
968 0 59.1113 13.5507 801 103.604 40.7353 488.63
969 0 60.1055 13.9422 838 104.043 40.6659 485.946
970 0 62.0616 12.6165 783 108.004 40.4304 485.959
971 0 65.117 14.1438 921 104.941 40.2508 484.157
972 0 66.0986 14.2212 940 105.519 39.7723 483.462
973 0 69.1309 13.2936 919 108.956 39.7584 482.365
974 0 70.2731 13.9883 983 109.134 39.7355 481.469
975 0 71.1909 12.909 919 112.296 40.2416 480.834
976 0 74.1953 13.9631 1036 109.957 39.8301 479.147
977 0 76.2128 14.0396 1070 110.25 40.2019 477.26
978 0 77.1361 13.6382 1052 114.161 40.3146 478.981
979 0 81.1334 13.3484 1083 113.562 40.7959 478.544
980 0 84.1537 13.8556 1166 113.442 40.9305 475.472
981 0 86.2195 13.4424 1159 115.211 40.2865 475.231
982 0 90.1589 14.7961 1334 111.709 40.2781 470.825
983 0 91.2412 13.689 1249 117.363 39.8855 473.645
984 0 96.1915 14.1593 1362 114.93 39.6953 472.598
985 0 97.2995 14.1522 1377 115.328 40.2832 468.409
986 0 102.153 14.0475 1435 115.01 40.322 465.255
987 0 105.158 13.7983 1451 114.662 40.8415 461.267
988 0 106.178 13.0912 1390 120.447 40.7511 464.537
989 0 111.163 13.8625 1541 118.95 40.5081 458.124
990 0 116.211 13.9143 1617 121.711 40.2084 459.738
991 0 122.115 13.1024 1600 120.569 41.05 458.226
992 0 127.136 14.7638 1877 116.258 40.6105 454.191
993 0 131.254 13.2263 1736 120.955 40.4355 454.036
994 1 69.0883 11.7386 811 115.694 40.6806 480.619
995 0 74.1052 13.3189 987 111.801 40.2016 478.084
996 0 76.0974 12.7731 972 119.194 40.9938 478.391
997 0 78.0926 14.3676 1122 116.059 40.6658 477.584
998 0 81.113 14.486 1175 117.037 40.514 476.029
999 0 84.104 14.4702 1217 118.281 40.5464 474.295
1000 0 88.1149 14.8669 1310 117.563 40.1641 472.882
1001 0 88.1451 14.7484 1300 119.466 40.6462 472.423
1002 0 94.1208 15.512 1460 116.792 40.376 470.695
1003 0 93.279 14.1297 1318 124.213 40.5888 469.651
1004 0 96.1138 15.0343 1445 122.9 40.3612 466.251
1005 0 101.281 14.4747 1466 123.842 40.6971 466.68
1006 0 104.122 16.3365 1701 119.259 41.1476 465.419
1007 0 107.154 15.9677 1711 121.058 40.1198 461.872
1008 0 112.308 15.3595 1725 123.874 40.3861 460.871
1009 0 113.331 15.1944 1722 133.485 40.0302 454.769
1010 0 118.208 15.3374 1813 132.966 39.8362 452.929
1011 0 121.291 15.0877 1830 134.064 39.5262 449.895
1012 0 126.248 15.0022 1894 132.445 39.8585 449.58
1013 1 61.1066 12.0445 736 140.082 39.9266 479.231
1014 0 65.3386 14.4172 942 131.731 39.6062 478.69
1015 0 68.2836 14.4398 986 127.023 39.6369 478.631
1016 0 70.2488 14.833 1042 126.691 39.3647 476.067
1017 0 72.3438 14.7905 1070 128.826 39.9383 473.248
1018 0 75.1246 14.5891 1096 129.354 39.4626 473.443
1019 0 78.3377 14.1694 1110 129.743 39.718 472.781
1020 0 80.1966 14.1153 1132 131.648 39.9205 470.58
1021 0 81.16 15.5495 1262 127.701 39.565 470.138
1022 0 85.374 14.7 1255 130.217 39.8629 466.482
1023 0 88.2075 14.6813 1295 130.526 39.9606 467.082
1024 0 90.2383 13.7857 1244 133.417 39.7476 466.581
1025 0 93.2501 13.823 1289 133.509 39.9915 463.847
1026 0 97.3703 15.5797 1517 127.568 40.1437 462.491
1027 0 99.1803 14.4988 1438 131.482 39.9402 461.894
1028 0 102.314 14.8563 1520 131.178 39.8507 458.489
1029 0 106.108 13.9198 1477 132.544 39.9113 456.901
1030 0 109.117 13.5176 1475 133.278 39.661 455.102
1031 0 115.207 14.244 1641 130.06 39.5259 453.225
1032 1 58.0661 11.9002 691 134.692 38.8915 479.589
1033 0 60.226 13.0342 785 129.997 39.6522 478.38
1034 0 64.0789 13.6082 872 130.299 39.3383 479.75
1035 0 65.1177 14.8654 968 127.09 39.0217 482.361
1036 0 66.0281 13.9637 922 131.065 38.8308 479.632
1037 0 70.0424 14.4341 1011 128.635 39.3056 479.685
1038 0 71.0712 13.6624 971 130.062 39.4985 479.538
1039 0 74.0943 13.8742 1028 130.401 39.5282 477.276
1040 0 76.0888 14.4042 1096 130.079 39.8914 476.881
1041 0 78.0999 12.4584 973 134.942 39.0123 477.143
1042 0 80.0957 13.4714 1079 133.242 39.8044 474.804
1043 0 82.1371 13.2461 1088 134.342 39.4779 471.628
1044 0 85.1678 13.0096 1108 133.506 39.4269 471.597
1045 0 90.366 14.0208 1267 128.908 40.1792 468.897
1046 0 92.2689 14.0242 1294 129.356 40.2079 464.526
1047 0 95.6095 12.2791 1174 133.32 40.8228 462.067
1048 0 98.1877 13.0668 1283 129.282 39.5682 464.441
1049 1 50.2042 11.5528 580 125.233 39.2448 484.134
1050 0 54.3142 12.9064 701 120.869 38.9073 483.528
1051 0 54.1587 11.7802 638 123.768 40.4577 485.376
1052 0 59.3222 14.1431 839 122.029 40.4505 487.772
1053 0 60.4315 13.3705 808 125.526 40.8837 486.031
1054 0 62.2183 13.2758 826 125.856 40.3305 485.609
1055 0 64.4534 13.405 864 125.169 39.875 483.186
1056 0 65.2405 13.9944 913 123.277 39.3855 481.457
1057 0 68.4078 13.4195 918 124.662 39.0871 481.831
1058 0 71.2928 13.6199 971 122.175 39.3605 481.437
1059 0 71.3114 13.3078 949 125.692 39.5005 479.334
1060 0 74.3409 13.7475 1022 123.671 39.7466 478.049
1061 0 77.5139 13.6879 1061 124.032 39.1395 475.28
1062 0 78.6049 12.9763 1020 126.857 39.3794 472.003
1063 0 83.2596 13.608 1133 122.109 39.5199 471.785
1064 1 39.2614 10.4174 409 126.768 39.1491 491.154
1065 0 40.2058 10.0981 406 129.315 38.5936 490.121
1066 0 43.1697 12.6709 547 124.137 40.6143 489.051
1067 0 45.0674 12.4924 563 125.099 42.2753 490.275
1068 0 45.0553 11.9853 540 126.763 42.1611 491.804
1069 0 47.0861 12.1055 570 127.853 42.0246 490.226
1070 0 48.0476 12.4668 599 125.504 42.5225 489.992
1071 0 47.1135 11.6103 547 130.046 41.8245 488.713
1072 0 52.1506 13.02 679 123.305 41.3814 488.271
1073 0 51.0167 12.5057 638 126.182 41.3433 487.918
1074 0 53.0697 11.7016 621 128.752 40.4155 486.217
1075 0 56.3137 12.2883 692 124.741 41.065 485.38
1076 0 56.1218 13.3638 750 123.369 41.0133 484.516
1077 0 59.2152 12.3955 734 125.003 40.8678 481.792
1078 0 60.1043 12.495 751 125.888 40.3542 482.426
1079 0 61.2831 13.1358 805 124.634 40.2795 481.763
1080 0 64.1459 14.2488 914 120.502 40.9836 480.505
1081 0 65.2084 13.1578 858 123.326 40.9196 479.424
1082 0 70.3085 13.3554 939 121.343 40.5879 478.657
1083 0 73.2456 13.3387 977 121.922 40.4585 475.742
1084 1 33.0427 10.8647 359 124.794 40.3148 494.766
1085 0 35.0662 10.7511 377 123.602 39.7825 493.464
1086 0 37.1602 11.3832 423 118.496 40.13 489.111
1087 0 41.2317 12.9269 533 122.379 40.8124 496.073
1088 0 41.3182 12.1738 503 125.819 40.5686 496.322
1089 0 41.084 13.9227 572 121.288 40.7168 494.528
1090 0 42.0636 13.2894 559 123.757 40.2683 493.977
1091 0 43.1223 12.8936 556 121.996 40.7014 495.613
1092 0 45.3682 13.3574 606 121.922 39.7541 492.941
1093 0 45.0444 12.6986 572 123.226 39.7587 492.367
1094 0 47.073 13.5534 638 120.096 39.9592 491.266
1095 0 47.1772 11.9761 565 124.12 38.8761 490.763
1096 0 49.1179 13.2131 649 120.37 37.8844 489.786
1097 0 51.111 13.1087 670 118.628 38.409 489.772
1098 0 52.1374 13.4644 702 116.993 38.7564 489.553
1099 0 54.1258 13.8566 750 116.611 38.3747 488.236
1100 0 53.1226 13.8359 735 117.703 39.1048 487.041
1101 0 56.1116 14.2038 797 116.764 39.0364 486.859
1102 0 58.092 12.6696 736 120.454 39.072 486.24
1103 0 59.2256 12.4271 736 121.499 38.7948 486.323
1104 0 61.1214 13.4159 820 119.943 39.311 485.889
1105 0 60.0953 14.0443 844 120.277 39.5746 485.366
1106 0 63.4085 13.7837 874 122.535 41.2883 481.701
1107 0 66.5163 13.4253 893 123.702 41.0224 481.045
1108 0 65.2111 14.0313 915 124.588 42.0492 479.074
1109 0 68.2593 14.6207 998 123.533 41.6363 478.951
1110 0 70.523 13.9104 981 124.756 41.4077 478.853
1111 0 72.3558 13.8344 1001 125.847 41.3976 478.144
1112 0 75.3279 14.417 1086 126.054 41.0562 475.809
1113 0 78.3218 14.849 1163 124.089 41.4136 476.085
1114 0 79.2788 13.4715 1068 130.383 41.1124 473.237
1115 0 81.1905 14.4845 1176 127.745 41.6956 472.694
1116 0 82.2507 13.7993 1135 130.403 41.2449 471.246
1117 0 88.3131 14.0863 1244 127.85 40.8987 470.728
1118 0 88.3649 13.3424 1179 130.385 40.8787 468.498
1119 1 48.1227 9.84982 474 124.977 40.5443 487.122
1120 0 51.186 10.96 561 119.998 40.4938 486.553
1121 0 52.0283 10.206 531 117.028 40.8475 491.072
1122 0 52.0189 11.5919 603 115.363 39.9652 490.915
1123 0 56.0337 12.0463 675 115.036 40.4785 488.751
1124 0 56.0168 10.0506 563 120.048 40.0089 487.389
1125 0 60.0617 12.1542 730 115.271 40.4205 486.644
1126 0 62.087 12.0476 748 116.341 40.5468 485.063
1127 0 65.0606 12.2194 795 116.206 40.3987 484.042
1128 0 64.0347 10.2757 658 121.167 41.1809 483.65
1129 0 69.0677 10.2943 711 118.934 40.4951 484.928
1130 0 71.1444 11.062 787 120.043 40.6595 481.738
1131 0 73.1833 10.8631 795 122.006 40.795 479.464
1132 0 77.056 11.4332 881 120.413 39.6061 478.557
1133 0 78.0782 9.64418 753 125.586 39.9469 478.481
1134 1 41.0768 11.1742 459 112.185 39.841 496.233
1135 0 43.1123 11.8064 509 110.528 39.888 495.515
1136 0 42.1166 11.0645 466 113.858 39.9034 495.345
1137 0 42.0301 11.8725 499 114.675 41.0982 495.79
1138 0 41.0195 9.94649 408 120.939 40.9804 497.083
1139 0 45.0405 10.8347 488 118.184 40.873 494.811
1140 0 43.0161 9.43832 406 122.778 40.8621 496.414
1141 0 47.0426 10.2673 483 119.679 40.5424 495.037
1142 0 47.0582 9.64763 454 122.835 40.4868 493.835
1143 0 53.0556 11.2712 598 117.045 40.8127 492.667
1144 0 53.0193 10.7885 572 118.776 40.5559 493.297
1145 0 53.0438 11.1794 593 120.656 40.4132 489.541
1146 0 55.0451 10.1553 559 123.979 40.0197 489.302
1147 0 56.0233 10.2457 574 122.997 40.4686 491.033
1148 0 58.0531 10.6971 621 122.739 40.1224 488.288
1149 0 61.0462 11.6469 711 121.52 39.2208 484.595
1150 0 62.157 9.66906 601 125.443 38.782 486.669
1151 0 65.0804 10.7713 701 122.74 38.7318 484.642
1152 0 66.1612 10.7767 713 122.962 38.3731 485.262
1153 0 70.0729 11.5309 808 120.625 38.3416 482.188
1154 0 72.0658 10.1158 729 123.221 38.439 481.202
1155 0 76.1013 10.6306 809 120.92 38.2719 481.15
1156 0 80.165 11.0772 888 118.886 38.3266 479.089
1157 1 41.0592 10.4483 429 122.853 37.6853 494.531
1158 0 44.148 11.9371 527 116.844 37.6736 495.228
1159 0 44.1975 11.0866 490 123.543 36.802 493.659
1160 0 42.0845 12.4036 522 116.649 39.7701 495
1161 0 42.0668 9.5087 400 124.808 39.545 497.452
1162 0 42.0626 9.89003 416 127.483 39.9784 494.507
1163 0 45.2179 9.4874 429 126.45 39.6177 495.821
1164 0 46.0727 10.7873 497 124.225 40.002 494.964
1165 0 46.0634 9.87768 455 127.745 40.244 494.215
1166 0 46.0372 9.23166 425 130.701 39.8471 494.835
1167 0 50.089 10.4614 524 127.95 40.1641 491.132
1168 0 52.033 11.2429 585 123.762 40.4427 491.578
1169 0 53.0457 10.7454 570 126.277 40.3211 491.265
1170 0 52.0641 10.2182 532 130.026 40.844 490.211
1171 0 57.0198 11.1365 635 126.098 40.9276 489.504
1172 0 59.0542 12.1245 716 123.102 40.2304 488.101
1173 0 61.0961 11.0973 678 125.5 39.8333 487.684
1174 0 62.0916 10.8549 674 126.967 39.8947 486.307
1175 0 65.0977 12.7654 831 123.141 39.7822 484.106
1176 0 67.0814 11.6277 780 127.338 38.8231 484.578
1177 0 70.1034 12.4102 870 125.817 38.769 482.089
1178 0 72.1549 12.39 894 125.84 38.3915 481.969
1179 0 74.1513 12.5015 927 126.943 39.6775 478.395
1180 1 39.0416 11.0139 430 131.356 42.2233 497.588
1181 0 41.047 11.5234 473 131.683 40.5137 495.641
1182 0 42.0276 12.468 524 130.613 41.5 495.809
1183 0 45.083 11.9114 537 133.043 41.324 494.43
1184 0 44.0109 11.2699 496 136.333 41.2117 494.685
1185 0 47.0744 12.4909 588 133.219 41.3827 493.327
1186 0 47.0336 11.8001 555 136.942 41.0937 492.732
1187 0 47.0557 12.4108 584 136.808 41.8836 492.896
1188 0 49.0569 12.7811 627 135.633 41.7432 492.466
1189 0 50.0188 12.1754 609 136.447 41.6995 492.33
1190 0 50.0313 12.3123 616 137.318 41.4172 491.831
1191 0 53.0476 12.9883 689 134.1 41.5646 491.887
1192 0 55.0139 13.8147 760 132.495 41.3197 489.783
1193 0 56.0732 13.0544 732 134.852 41.1817 489.212
1194 0 59.1239 13.1081 775 133.934 41.3419 487.437
1195 0 59.0647 13.8661 819 131.753 41.3919 486.885
1196 0 61.059 13.0693 798 134.477 41.6479 486.564
1197 0 62.0318 13.0095 807 133.292 41.0793 486.833
1198 0 65.0981 14.0403 914 131.176 40.4945 482.952
1199 0 68.0848 13.586 925 129.27 41.2119 484.209
1200 0 69.0755 13.449 929 130.837 41.0366 482.757
1201 0 71.0455 12.8087 910 133.124 41.2308 481.625
1202 0 74.1473 12.9472 960 133.215 40.5031 479.62
1203 0 76.1317 13.8707 1056 131.537 40.8314 477.97
1204 0 78.069 12.7067 992 134.05 40.6452 478.473
1205 1 41.2767 12.4525 514 127.397 40.6518 496.054
1206 0 41.1475 12.0785 497 127.59 40.3763 496.581
1207 0 43.0555 12.5884 542 123.561 41.1125 495.482
1208 0 42.0447 11.7256 493 122.619 41.0933 496.375
1209 0 46.0218 12.6462 582 117.818 40.811 495.816
1210 0 46.0678 11.8087 544 121.629 41.2132 494.978
1211 0 48.0503 13.2986 639 117.095 41.6056 493.717
1212 0 50.1451 11.8057 592 121.965 41.5963 495.378
1213 0 50.0814 12.4997 626 121.976 41.4824 493.417
1214 0 51.1071 11.8966 608 124.191 41.1382 491.184
1215 0 52.0696 11.9839 624 123.824 41.2484 491.045
1216 0 53.1078 12.0321 639 122.407 40.9343 490.66
1217 0 56.057 13.3614 749 117.385 40.502 490.523
1218 0 56.0627 11.5763 649 123.687 40.8182 489.233
1219 0 56.0372 11.7244 657 124.059 40.5464 488.588
1220 0 62.1017 13.0431 810 118.184 40.9519 486.957
1221 0 61.1067 12.1754 744 121.672 40.8831 487.517
1222 0 63.249 12.7433 806 120.708 40.3375 485.787
1223 0 66.1777 11.4842 760 123.146 40.3066 486.047
1224 0 68.1692 12.9971 886 119.518 40.5835 483.079
1225 0 71.2096 12.5264 892 119.188 40.3509 483.021
1226 0 74.2102 13.4079 995 117.169 39.7829 480.078
1227 0 78.1942 14.221 1112 114.289 39.9218 478.448
1228 1 39.1052 10.817 423 124.215 41.1466 496.392
1229 0 42.0202 12.137 510 118.461 41.0745 495.851
1230 0 44.1141 12.9437 571 115.844 41.0595 495.056
1231 0 45.1787 13.4798 609 113.02 39.9573 494.558
1232 0 44.3019 12.5954 558 114.403 40.4355 494.894
1233 0 46.0168 12.7997 589 112.944 40.5942 494.063
1234 0 47.1033 12.9715 611 112.553 39.8445 495.637
1235 0 49.0369 13.0106 638 112.397 39.9138 492.064
1236 0 50.0646 12.6037 631 113.553 40.42 492.441
1237 0 52.1107 12.128 632 113.291 39.807 491.956
1238 0 52.2027 12.9878 678 112.683 39.8127 491.378
1239 0 55.1672 13.3594 737 112.236 39.7096 489.668
1240 0 56.0681 12.4848 700 114.223 40 489.404
1241 0 58.1469 13.7239 798 111.612 39.7218 488.107
1242 0 60.1709 14.409 867 110.49 39.5017 486.757
1243 0 61.2755 14.3777 881 110.712 39.7003 485.37
1244 0 64.2557 14.1933 912 110.064 39.6305 486.581
1245 0 69.2666 14.769 1023 107.204 39.8905 483.993
1246 0 69.1471 13.4207 928 110.939 40.6412 484.989
1247 0 71.1156 12.6414 899 113.519 40.3382 482.37
1248 0 74.1539 13.1753 977 112.833 39.6244 480.558
1249 0 76.2182 13.2777 1012 112.631 39.7451 478.482
1250 0 78.1565 12.91 1009 114.682 39.6293 476.186
1251 0 81.0586 13.3607 1083 111.625 39.9474 476.407
1252 0 83.1797 12.8397 1068 116.027 39.5618 473.22
1253 1 43.1112 11.6211 501 114.824 39.1597 492.457
1254 0 46.2274 11.5949 536 113.756 39.2799 492.812
1255 0 46.0719 12.22 563 114.085 39.5222 492.847
1256 0 49.0469 12.6206 619 112.3 38.8595 492.889
1257 0 50.1077 12.4532 624 115.34 38.6811 492.365
1258 0 52.0797 12.3273 642 113.283 38.2773 489.461
1259 0 53.0906 11.7347 623 115.077 38.2135 490.88
1260 0 55.1046 13.6649 753 110.365 38.1076 490.149
1261 0 57.1917 13.1138 750 112.195 37.9267 487.891
1262 0 57.1285 13.2158 755 113.06 38.6146 488.607
1263 0 60.1161 13.3575 803 112.492 37.7323 486.347
1264 0 62.194 13.2489 824 113.137 37.9891 488.308
1265 0 65.1874 13.6836 892 112.391 38.833 484.901
1266 0 66.1692 12.5587 831 115.609 38.6534 485.235
1267 0 68.2861 12.0669 824 117.99 38.0425 482.85
1268 0 72.2197 13.9574 1008 116.926 38.3492 480.941
1269 0 74.2257 14.3751 1067 117.75 39.06 479.768
1270 0 76.4637 13.6535 1044 119.464 38.6552 478.271
1271 0 79.3206 14.0569 1115 119.728 37.9193 475.234
1272 0 83.3631 13.6151 1135 121.6 38.6881 475.358
1273 0 85.2734 12.2664 1046 125.618 38.9799 474.887
1274 0 88.6038 13.3403 1182 123.699 39.2428 469.687
1275 1 48.3809 11.7402 568 121.433 39.9912 488.958
1276 0 52.3814 11.0344 578 118.792 39.3979 487.671
1277 0 54.3636 12.9682 705 120.705 39.5887 488.038
1278 0 55.2143 14.2717 788 119.143 38.5241 488.307
1279 0 57.2815 14.4898 830 119.114 38.4145 487.914
1280 0 58.1046 12.9766 754 123.765 38.0146 487.411
1281 0 61.2248 14.8143 907 118.076 38.6935 487.137
1282 0 62.3539 13.696 854 122.208 38.0304 486.063
1283 0 65.3022 13.338 871 123.179 38.5235 484.503
1284 0 66.3874 14.084 935 120.386 38.7647 485.343
1285 0 70.1962 13.7614 966 122.834 39.0062 481.977
1286 0 71.3014 13.8988 991 123.754 39.2856 481.411
1287 0 75.2626 13.6588 1028 124.004 39.1537 480.804
1288 0 77.3973 14.8584 1150 120.238 39.1861 480.963
1289 0 78.3896 13.5477 1062 126.231 39.1036 476.941
1290 0 83.485 14.7811 1234 122.204 39.9538 472.891
1291 0 86.5075 13.2936 1150 124.225 40.1843 472.641
1292 0 88.4727 13.4844 1193 123.649 40.3797 470.288
1293 1 44.0174 11.1092 489 116.683 41.2536 495.822
1294 0 46.2818 10.8898 504 117.994 40.996 494.373
1295 0 48.136 12.2569 590 115.595 39.0746 491.192
1296 0 50.251 13.4127 674 112.378 39.822 490.411
1297 0 51.0533 12.6926 648 116.273 40.8117 489.326
1298 0 54.076 13.1851 713 114.302 41.4446 490.318
1299 0 56.1022 13.7606 772 113.057 41.3718 489.501
1300 0 57.057 13.7231 783 113.893 40.2542 488.201
1301 0 59.1803 12.7914 757 116.186 40.7979 488.149
1302 0 60.0837 12.6157 758 117.876 40.5303 487.706
1303 0 61.0454 11.9911 732 119.348 40.6107 487.422
1304 0 64.0815 12.9366 829 116.543 40.772 485.542
1305 0 67.0904 12.9229 867 115.522 40.1915 484.211
1306 0 68.1781 13.5381 923 114.769 40.0325 484.086
1307 0 72.0695 13.7784 993 113.59 40.1641 482.789
1308 0 73.1047 14.8554 1086 112.42 40.0359 480.053
1309 0 75.0644 13.2153 992 116.571 40.0111 479.893
1310 0 79.0801 14.5675 1152 112.854 39.776 479.465
1311 0 82.1716 14.3845 1182 113.613 39.6447 477.273
1312 0 84.1934 14.0629 1184 114.595 40.2213 476.093
1313 0 87.1847 14.4177 1257 115.158 39.5068 474.653
1314 0 89.181 13.7249 1224 117.645 39.2582 472.794
1315 0 92.2435 13.9305 1285 118.978 39.1969 472.296
1316 0 94.1572 12.6915 1195 127.873 39.9858 470.719
1317 1 51.2054 13.3189 682 124.872 39.4985 490.364
1318 0 52.1503 12.79 667 118.336 39.8036 485.967
1319 0 54.2917 12.746 692 117.598 40.1604 485.828
1320 0 55.1113 11.5403 636 123.057 40.0566 485.52
1321 0 58.0975 13.7183 797 127.843 40.2748 487.164
1322 0 61.1031 14.1237 863 126.906 40.832 482.877
1323 0 62.2013 14.437 898 126.538 38.2795 487.117
1324 0 64.2887 13.8127 888 129.13 38.4527 485.598
1325 0 64.1588 13.1549 844 132.248 38.5533 484.675
1326 0 67.135 14.4783 972 129.124 39.0401 482.38
1327 0 71.3768 14.2063 1014 128.541 39.1203 481.832
1328 0 72.2008 14.5012 1047 128.373 39.1184 480.545
1329 0 73.3994 13.1064 962 132.433 39.3524 481.404
1330 0 77.5623 13.5891 1054 129.833 38.7021 478.618
1331 0 77.3997 13.7081 1061 127.044 39.1348 476.091
1332 0 81.2291 12.2739 997 125.09 40.2337 476.402
1333 0 86.3806 14.193 1226 118.457 40.4772 473.505
1334 1 46.1509 12.3291 569 115.429 40.9649 492.316
1335 0 48.0503 11.3007 543 120.212 40.3425 493.273
1336 0 50.0881 12.6976 636 115.69 40.4906 490.607
1337 0 52.0728 13.3083 693 113.905 40.8759 490.043
1338 0 53.1001 14.1996 754 111.947 40.866 488.34
1339 0 54.1073 11.8284 640 118.047 40.9312 488.683
1340 0 56.1066 12.8327 720 116.99 40.3333 487.086
1341 0 59.1438 13.6278 806 113.798 40.6588 484.757
1342 0 58.2153 12.7801 744 117.382 40.2473 485.937
1343 0 60.1676 12.9638 780 117.047 40.4577 483.423
1344 0 62.1624 12.8052 796 117.849 40.1621 482.807
1345 0 64.1367 13.0814 839 117.162 40.5959 481.871
1346 0 65.2014 13.374 872 116.594 40.4794 481.779
1347 0 69.0893 13.5477 936 124.169 40.2906 482.137
1348 0 70.0582 11.9044 834 127.43 40.1823 481.821
1349 0 73.1138 13.1713 963 122.977 40.594 480.106
1350 0 75.0405 12.913 969 123.77 40.6698 478.423
1351 0 79.0661 14.0515 1111 119.696 40.3132 477.852
1352 0 80.1189 12.9308 1036 120.776 40.0705 478.847
1353 0 83.2804 13.1484 1095 117.74 40.221 473.806
1354 0 86.2776 14.0593 1213 116.071 40.1031 472.222
1355 0 89.2684 13.4538 1201 117.589 40.0441 470.86
1356 0 93.2405 13.2131 1232 118.239 39.9237 468.623
1357 1 50.0225 11.8147 591 116.882 40.0964 490.822
1358 0 52.0621 12.4467 648 115.914 40.5571 489.08
1359 0 54.1172 13.3414 722 114.024 40.7396 487.945
1360 0 54.1235 12.6008 682 117.823 40.4091 488.792
1361 0 58.0641 13.0201 756 114.593 40.4828 488.16
1362 0 59.1007 13.4854 797 113.7 39.8432 487.199
1363 0 60.1056 12.6111 758 116.28 40.1728 486.763
1364 0 61.1032 13.3545 816 115.278 40.0502 486.485
1365 0 64.1166 12.7268 816 116.734 40.2586 483.189
1366 0 67.1314 12.3489 829 116.767 39.9421 483.025
1367 0 67.1481 12.6437 849 117.744 40.2356 481.23
1368 0 72.2251 13.5825 981 114.247 40.0194 479.585
1369 0 74.1307 12.6668 939 116.538 40.0394 479.584
1370 0 78.2639 14.8983 1166 111.315 40.0017 477.576
1371 0 81.2439 14.7334 1197 112.228 39.7561 476.038
1372 0 83.2508 14.2101 1183 114.615 39.7794 475.566
1373 0 85.2267 12.8481 1095 119.007 39.9461 473.559
1374 0 88.2715 13.6737 1207 117.297 40.2254 471.918
1375 0 91.182 13.314 1214 118.485 39.8855 471.235
1376 0 94.1973 14.321 1349 117.056 40.2009 467.06
1377 0 99.2505 14.3677 1426 117.985 40.1529 467.09
1378 0 100.19 13.2149 1324 124.076 39.7568 466.82
1379 0 104.168 13.0654 1361 126.954 39.6672 464.085
1380 0 108.195 13.6513 1477 127.123 39.6087 462.754
1381 0 113.399 13.2629 1504 126.735 39.2979 460.985
1382 1 58.2267 12.2452 713 125.076 38.7742 485.123
1383 0 60.2132 12.8709 775 121.941 38.1213 484.605
1384 0 63.1428 12.6697 800 120.632 37.5037 483.089
1385 0 65.081 13.3219 867 119.498 37.4717 481.847
1386 0 65.1068 12.1032 788 123.411 37.9721 483.094
1387 0 68.1264 12.1686 829 122.766 38.0651 482.612
1388 0 71.1546 12.9577 922 120.424 38.5944 482.461
1389 0 73.1291 13.3463 976 120.718 38.4191 478.871
1390 0 76.1778 12.5102 953 122.166 37.9496 477.093
1391 0 80.3501 13.8145 1110 118.12 38.527 475.381
1392 0 82.1683 12.8152 1053 120.536 38.1576 472.795
1393 0 87.1919 14.9096 1300 113.96 38.2615 472.899
1394 0 88.127 12.5501 1106 121.82 37.6175 470.765
1395 0 90.1967 13.149 1186 120.403 38.0438 469.936
1396 0 94.0804 13.0633 1229 121.419 38.1562 468.882
1397 0 98.0924 13.5994 1334 119.331 38.5555 466.616
1398 1 54.0663 12.1148 655 121 37.5756 488.86
1399 0 53.053 12.1199 643 121.737 37.8787 489.3
1400 0 56.0803 12.5713 705 119.254 39.7801 488.472
1401 0 58.0934 12.4627 724 118.964 40.3343 488.645
1402 0 60.0784 12.75 766 118.125 41.3473 487.952
1403 0 61.0605 13.5603 828 116.443 40.9324 485.519
1404 0 64.0972 12.8711 825 118.912 41.2388 485.102
1405 0 65.0855 13.198 859 118.837 40.6799 482.596
1406 0 67.0662 13.0617 876 119.825 40.0137 481.153
1407 0 68.1393 12.7239 867 122.405 39.3679 479.749
1408 0 72.1134 13.7422 991 118.529 39.5066 478.729
1409 0 73.1453 13.2476 969 121.392 39.2518 478.226
1410 0 75.1882 13.034 980 122.587 39.1245 475.9
1411 0 80.3105 13.647 1096 119.186 39.2071 475.168
1412 0 82.1816 14.1759 1165 118.78 38.9682 471.347
1413 0 86.2576 13.8191 1192 120.177 38.8633 472.366
1414 0 88.3451 13.4812 1191 121.946 39.0605 471.994
1415 0 90.2813 13.2807 1199 123.607 39.0601 469.887
1416 0 92.2577 13.4731 1243 121.217 38.2156 469.697
1417 1 50.0926 11.0994 556 129.764 38.4281 487.543
1418 0 55.157 11.9115 657 124.361 38.2572 487.02
1419 0 56.0999 11.8717 666 125.468 37.9429 485.252
1420 0 58.1724 12.1192 705 127.323 37.922 484.735
1421 0 57.1826 13.1858 754 126.887 38.4668 483.499
1422 0 61.1643 13.5864 831 126.817 37.7593 481.496
1423 0 62.1859 13.2024 821 128.045 38.1096 480.505
1424 0 65.1132 12.7931 833 126.777 37.1549 479.156
1425 0 67.1184 12.6791 851 126.852 37.6616 478.229
1426 0 68.1462 12.8694 877 126.437 38.4846 476.511
1427 0 71.1164 14.1739 1008 122.579 39.2272 475.749
1428 0 74.1245 13.2075 979 123.915 38.7681 476.446
1429 0 74.2852 13.1789 979 124.8 38.5301 474.053
1430 0 79.1284 13.3707 1058 123.088 38.2042 472.412
1431 0 79.1541 12.9747 1027 125.23 38.1685 471.014
1432 0 82.1617 12.9014 1060 125.097 38.2443 469.145
1433 0 86.1694 13.5199 1165 122.153 37.8961 467.791
1434 0 88.4323 13.7054 1212 121.477 37.9043 465.921
1435 0 90.4995 12.6851 1148 122.052 38.6977 466.881
1436 0 94.3929 13.179 1244 119.731 38.2492 463.535
1437 0 96.4036 12.9767 1251 119.779 38.3365 462.619
1438 0 100.451 13.7182 1378 116.222 37.7997 460.405
1439 1 55.5173 12.2845 682 110.343 39.6334 479.977
1440 0 57.5302 12.4109 714 110.13 39.3599 478.326
1441 0 57.2914 11.4502 656 106.759 39.9558 481.527
1442 0 61.1568 13.3755 818 101.296 40.4511 479.441
1443 0 63.3038 12.6691 802 101.574 40.7057 480.535
1444 0 62.1838 11.8841 739 104.797 40.2706 476.968
1445 0 64.1352 11.5849 743 105.833 40.4415 476.746
1446 0 68.3037 12.9422 884 101.951 40.3405 475.984
1447 0 69.058 12.323 851 104.471 40.651 474.334
1448 0 73.1538 12.2892 899 103.439 40.4194 474.883
1449 0 75.1118 13.0872 983 101.748 40.823 475.785
1450 0 77.1084 13.9155 1073 100.78 40.4632 473.17
1451 0 81.1432 13.963 1133 100.127 40.5675 469.97
1452 0 85.096 12.2097 1039 103.692 40.7016 472.152
1453 0 89.1634 12.9201 1152 103.365 40.5113 468.543
1454 0 89.2437 12.0345 1074 108.739 40.2356 465.351
1455 0 92.1002 11.8675 1093 109.149 40.7219 465.866
1456 0 96.1777 12.5601 1208 107.773 40.4644 464.612
1457 0 101.29 12.3902 1255 108.385 40.09 462.241
1458 0 102.23 11.9046 1217 110.554 40.4429 459.203
1459 0 106.322 12.2741 1305 109.703 40.1762 459.771
1460 1 55.1638 11.2393 620 104.424 41.1371 486.948
1461 0 55.1312 11.1733 616 107.159 41.3669 488.169
1462 0 57.0835 12.8408 733 106.653 40.7026 483.311
1463 0 58.1344 12.0755 702 106.419 41.1681 484.826
1464 0 61.083 13.1461 803 103.066 40.4072 483.742
1465 0 62.2642 12.5433 781 105.201 40.5839 482.627
1466 0 64.1631 12.9981 834 104.789 39.94 482.112
1467 0 67.169 12.9077 867 104.465 39.7751 480.323
1468 0 69.1972 12.2837 850 106.489 39.78 479.439
1469 0 72.1717 12.8721 929 105.841 39.6437 479.399
1470 0 73.0978 12.6406 924 106.3 40.3853 479.603
1471 0 76.1914 12.508 953 107.106 39.8332 476.048
1472 0 79.2824 12.651 1003 107.506 39.7109 474.732
1473 0 80.1614 12.2378 981 109.932 39.3262 472.197
1474 0 84.2189 12.1825 1026 109.394 39.6472 472.223
1475 0 88.2343 12.4668 1100 108.046 39.1573 470.497
1476 0 94.285 12.8971 1216 106.375 39.0748 471.245
1477 1 48.0544 11.4454 550 109.04 39.9891 491.053
1478 0 50.0932 10.6601 534 110.26 40.0094 491.667
1479 0 52.0768 11.9055 620 108.856 40.5823 489.284
1480 0 53.0459 12.2535 650 109.152 40.4692 487.795
1481 0 54.0877 11.5553 625 108.157 40.672 489.157
1482 0 56.1872 11.9066 669 106.567 39.7728 488.709
1483 0 58.1024 12.7017 738 105.905 40.1382 486.82
1484 0 58.1351 12.0753 702 107.937 39.7806 486.295
1485 0 58.252 11.5017 670 110.687 39.7075 485.47
1486 0 62.1585 13.5782 844 104.662 39.3436 485.509
1487 0 62.2292 11.9879 746 109.747 39.2775 483.456
1488 0 67.1741 12.8472 863 104.403 39.0591 482.22
1489 0 69.2561 12.9664 898 105.295 39.1169 480.726
1490 0 70.2814 12.9337 909 105.667 39.2233 480.268
1491 0 73.4204 12.4761 916 106.345 39.2424 478.86
1492 0 75.3223 12.3337 929 107.048 39.2691 478.409
1493 0 77.3824 13.065 1011 108.544 39.0237 474.485
1494 0 80.3207 12.7489 1024 109.784 39.0215 475.194
1495 0 83.3442 12.4664 1039 111.711 38.7334 473.808
1496 0 86.3785 12.4105 1072 112.88 38.2537 472.068
1497 0 87.6145 11.9273 1045 115.499 38.8287 469.901
1498 1 49.1863 10.9787 540 116.691 40.2815 489.031
1499 0 47.1734 11.0655 522 120.469 38.0728 483.83
1500 0 50.03 13.0522 653 115.542 36.4885 486.897
1501 0 49.348 10.5171 519 121.324 37.0135 491.852
1502 0 51.3007 11.7152 601 116.812 37.787 489.409
1503 0 50.4502 11.1397 562 116.386 38.379 489.811
1504 0 55.3299 11.0067 609 107.956 39.2759 486.222
1505 0 57.131 11.2023 640 105.584 39.6734 486.364
1506 0 57.1069 10.9794 627 111.089 40.1962 486.006
1507 0 58.208 11.9571 696 109.109 40.0445 486.833
1508 0 56.0916 10.4294 585 114.947 39.5778 484.853
1509 0 58.1113 11.151 648 114.693 39.2623 485.85
1510 0 59.1429 11.4299 676 114.636 39.0444 485.962
1511 0 62.089 11.3547 705 114.041 39.4128 484.492
1512 0 64.0474 12.1941 781 110.686 39.4917 482.773
1513 0 66.0562 12.0201 794 109.897 39.5239 481.225
1514 0 70.0842 11.529 808 109.437 39.0953 482.698
1515 0 70.0876 11.0005 771 112.152 39.3606 479.968
1516 0 73.0725 12.8229 937 107.481 39.2102 479.033
1517 0 75.0988 12.0508 905 109.478 38.9547 480.213
1518 0 76.1214 11.4554 872 110.372 39.0011 478.663
1519 0 78.0671 12.6686 989 110.401 38.5774 475.609
1520 1 39.093 10.3599 405 113.951 39.5062 493.212
1521 0 45.0359 10.9912 495 109.998 39.3798 495.972
1522 0 43.1092 11.7144 505 111.697 39.4376 493.418
1523 0 46.1157 11.7747 543 110.354 38.9319 495.116
1524 0 48.155 12.9997 626 109.275 39.516 492.021
1525 0 46.1053 11.8641 547 115.084 39.2157 493.863
1526 0 48.0941 12.829 617 112.802 39.3679 493.806
1527 0 49.103 12.6265 620 114.679 39.3371 493.989
1528 0 50.1031 13.2527 664 113.355 38.8931 491.718
1529 0 49.1056 12.0556 592 118.861 39.2044 492.438
1530 0 53.1235 12.9886 690 114.617 38.8043 491.333
1531 0 54.0793 13.1474 711 115.392 38.3488 492.295
1532 0 53.0752 12.1337 644 120.629 38.4767 490.849
1533 0 56.1009 13.6718 767 116.608 38.6662 488.618
1534 0 58.0876 13.1698 765 118.068 39.2131 488.911
1535 0 59.1511 12.8315 759 121.169 38.9117 487.191
1536 0 61.172 12.5711 769 121.637 38.9558 487.68
1537 0 61.1773 12.57 769 123.562 38.896 486.473
1538 0 64.1824 11.9659 768 124.06 39.2904 487.001
1539 0 65.2255 13.0317 850 122.358 38.9 484.509
1540 0 69.0766 14.5201 1003 118.053 38.8086 483.694
1541 0 69.1352 13.1626 910 122.585 38.6 481.633
1542 0 74.1896 12.832 952 121.474 38.7489 482.027
1543 0 76.0946 13.0627 994 120.288 39.2213 480.543
1544 0 77.154 13.6869 1056 120.777 38.7822 479.832
1545 0 81.175 12.3191 1000 125.633 38.635 478.206
1546 0 83.1911 13.499 1123 123.093 38.0837 477.573
1547 0 86.1511 12.7451 1098 124.811 38.3479 476.506
1548 0 89.1972 13.2179 1179 133.429 37.363 474.169
1549 0 91.2281 13.8225 1261 131.583 37.3688 473.453
1550 0 95.1674 12.9036 1228 133.285 37.1653 472.518
1551 1 54.0817 12.8324 694 128.901 37.8127 490.68
1552 0 56.0209 12.2633 687 130.435 37.6565 489.351
1553 0 56.1007 12.6736 711 125.752 36.0155 488.636
1554 0 57.1361 12.724 727 118.935 37.7552 486.558
1555 0 60.058 12.771 767 118.202 37.219 486.433
1556 0 62.1216 13.0389 810 117.589 37.0716 485.127
1557 0 64.1422 13.7975 885 115.108 37.3864 485.014
1558 0 65.2229 13.4462 877 116.96 36.8415 484.111
1559 0 67.1215 12.3954 832 118.762 37.2007 483.024
1560 0 69.15 12.2632 848 119.906 36.9328 479.399
1561 0 73.0516 13.0319 952 116.335 37.0935 481.741
1562 0 76.1755 13.3639 1018 113.181 37.5806 478.037
1563 0 79.2218 12.951 1026 113.042 37.2329 477.079
1564 0 82.2473 13.5688 1116 111.276 37.4803 475.065
1565 0 84.1435 13.9048 1170 109.954 37.541 474.332
1566 0 87.1909 14.0382 1224 108.681 37.527 473.342
1567 0 90.1978 13.5037 1218 110.149 36.8711 471.554
1568 0 93.1285 13.3901 1247 109.863 35.5028 472.372
1569 0 98.2022 13.3602 1312 108.763 35.654 470.72
1570 0 100.157 13.6586 1368 108.971 35.5636 469.116
1571 0 102.207 12.5333 1281 112.055 35.2272 465.003
1572 1 53.0662 10.9863 583 118.132 34.1887 488.662
1573 0 60.0331 13.4259 806 111.134 34.737 488.758
1574 0 59.0677 12.291 726 115.022 36.5675 488.231
1575 0 61.1062 13.9266 851 107.978 34.8649 484.953
1576 0 61.0663 13.8374 845 110.206 35.484 484.168
1577 0 63.0968 12.4095 783 111.18 35.3014 485.014
1578 0 68.0709 12.8983 878 107.818 34.9089 485.692
1579 0 68.1743 13.2161 901 109.178 35.1687 481.491
1580 0 68.0756 12.633 860 111.113 35.6291 480.205
1581 0 73.0794 12.6027 921 109.653 35.0684 479.543
1582 0 76.1028 13.4161 1021 108.258 35.8472 477.252
1583 0 79.1693 13.2122 1046 109.736 36.0994 475.391
1584 0 83.1241 13.2573 1102 109.21 35.8902 477.49
1585 0 84.1125 13.1847 1109 111.828 36.0784 475.138
1586 0 86.232 13.7652 1187 111.537 35.8559 473.396
1587 0 91.1866 14.2236 1297 110.295 36.3207 472.672
1588 0 92.532 13.9303 1289 112.252 35.5291 471.958
1589 0 97.2271 15.0267 1461 110.113 35.9624 468.428
1590 0 96.1576 13.0619 1256 116.847 35.5756 467.825
1591 0 101.195 13.7556 1392 113.68 35.5884 467.013
1592 1 53.1362 11.5176 612 118.783 35.5229 490.054
1593 0 56.095 12.3897 695 117.951 35.5468 488.029
1594 0 58.1175 12.0618 701 108.826 38.097 487.01
1595 0 58.2817 12.6969 740 110.497 37.8122 485.501
1596 0 62.0552 12.9884 806 107.398 37.4404 485.344
1597 0 62.1625 13.4004 833 107.206 37.4478 485.238
1598 0 65.092 13.3964 872 107.308 37.7764 481.505
1599 0 66.1343 13.3365 882 107.159 38.1054 483.405
1600 0 69.1392 12.3374 853 109.618 37.4103 482.061
1601 0 71.06 13.8756 986 106.462 37.4067 480.946
1602 0 74.048 13.6263 1009 106.375 37.5084 477.868
1603 0 75.205 13.0576 982 108.818 37.2301 477.024
1604 0 77.1119 13.7722 1062 108.399 37.5678 476.263
1605 0 82.138 14.9991 1232 105.058 37.4286 476.909
1606 0 83.2174 14.2518 1186 108.241 37.3929 474.653
1607 0 87.2546 15.4261 1346 106.595 37.1412 473.701
1608 0 88.2274 13.7712 1215 112.285 37.4889 473.278
1609 0 91.1598 13.8109 1259 113.679 36.4186 472.811
1610 0 93.1963 14.2709 1330 113.294 36.9368 471.376
1611 0 96.3335 14.647 1411 113.535 36.2041 467.793
1612 0 100.18 14.5338 1456 113.194 36.6916 467.975
1613 0 102.243 14.4851 1481 115.589 36.1573 465.161
1614 0 105.242 14.9845 1577 115.45 36.3373 463.592
1615 0 109.136 14.1658 1546 116.465 37.3182 462.131
1616 0 113.14 15.388 1741 113.698 36.633 458.994
1617 1 61.108 13.2225 808 118.005 36.2463 485.957
1618 0 64.1715 14.9443 959 112.816 35.2044 481.983
1619 0 66.2408 13.1943 874 118.953 37.1281 483.691
1620 0 69.2432 13.6909 948 117.867 38.1667 483.001
1621 0 69.2524 13.1115 908 120.381 36.7247 481.219
1622 0 73.2631 12.5984 923 119.938 37.3933 481.252
1623 0 74.1911 14.247 1057 118.217 37.1949 477.161
1624 0 78.1447 13.2703 1037 118.81 37.7175 477.819
1625 0 79.3873 13.6168 1081 118.4 37.803 477.87
1626 0 83.3223 14.5099 1209 116.237 37.0976 474.135
1627 0 84.117 13.6239 1146 118.55 37.4154 473.593
1628 0 89.2781 14.6284 1306 115.795 36.5988 471.803
1629 0 91.2983 14.1514 1292 117.664 36.7198 469.653
1630 0 95.1433 14.0735 1339 117.023 36.7386 470.24
1631 0 97.2337 14.5526 1415 117.204 35.9505 467.612
1632 0 100.471 14.631 1470 117.637 35.1156 462.084
1633 0 102.239 12.3632 1264 123.894 34.6859 462.095
1634 0 105.192 13.9744 1470 117.705 35.7762 461.757
1635 0 109.253 12.9791 1418 115.711 35.9922 462.008
1636 0 114.28 12.9857 1484 115.208 34.3464 459.28
1637 1 61.0628 11.7093 715 111.989 34.807 482.604
1638 0 63.1955 12.4059 784 111.167 34.6505 480.913
1639 0 63.1404 11.7833 744 113.401 34.7661 479.892
1640 0 67.0943 13.4885 905 111.862 34.6243 479.567
1641 0 69.0624 12.0326 831 117.526 34.5126 479.079
1642 0 72.1359 13.4468 970 114.335 34.6196 478.22
1643 0 73.1322 13.8516 1013 114.633 34.8203 476.32
1644 0 77.0977 14.4751 1116 111.677 34.586 477.117
1645 0 79.1448 13.3932 1060 115.708 34.2547 474.485
1646 0 83.1002 14.4163 1198 112.122 34.4791 474.139
1647 0 87.1228 14.4164 1256 111.984 34.0844 471.34
1648 0 87.1051 13.9831 1218 117.601 33.8621 470.122
1649 0 91.1174 13.8612 1263 115.843 33.9382 469.618
1650 0 93.0504 13.6808 1273 116.668 34.0456 470.896
1651 0 96.1319 12.7741 1228 120.115 34.3021 464.618
1652 0 99.1359 13.4865 1337 118.719 34.1705 463.497
1653 0 105.121 14.2978 1503 115.697 34.5935 464.84
1654 0 107.105 13.9116 1490 117.696 34.2664 462.81
1655 1 60.1155 11.7441 706 114.677 35.3215 487.217
1656 0 63.0945 12.8854 813 109.137 35.508 485.453
1657 0 64.0729 13.2505 849 119.484 35.0671 484.6
1658 0 67.0441 12.5589 842 120.486 34.4228 483.219
1659 0 68.082 11.9709 815 123.65 34.0282 482.274
1660 0 71.0455 12.6679 900 121.619 34.4889 481.671
1661 0 73.0565 13.1679 962 121.184 33.3815 477.717
1662 0 76.0757 12.4481 947 122.204 33.8173 476.946
1663 0 77.0479 13.2385 1020 121.075 33.901 475.744
1664 0 81.0742 12.7907 1037 122.037 34.1562 474.933
1665 0 85.097 12.4329 1058 123.337 34.2372 474.353
1666 0 85.0597 13.1555 1119 124.184 34.2002 471.41
1667 0 87.0303 13.4551 1171 124.362 34.1904 469.447
1668 0 93.1398 13.1415 1224 124.199 34.0809 468.73
1669 1 51.0183 11.1921 571 121.699 34.2119 489.734
1670 0 55.1726 11.9081 657 120.151 35.5906 489.833
1671 0 51.2598 10.0664 516 118.969 35.0795 480.186
1672 0 55.0453 10.3188 568 106.812 36.5493 485.134
1673 0 57.1278 11.378 650 105.582 36.5431 484.535
1674 0 58.0475 11.6284 675 107.551 37.0148 483.159
1675 0 61.1158 12.9263 790 114.247 36.6696 485.172
1676 0 63.0659 13.3353 841 113.817 37.0559 484.552
1677 0 62.0784 12.8547 798 116.816 37.015 483.558
1678 0 66.072 12.3653 817 117.165 37.082 482.617
1679 0 70.1222 12.7777 896 114.984 37.4877 482.914
1680 0 70.0418 12.621 884 117.229 37.1595 481.6
1681 0 74.0762 14.0126 1038 113.412 36.7331 479.913
1682 0 75.1549 13.5054 1015 116.089 36.6897 478.213
1683 0 78.1173 12.6732 990 118.904 37.3929 479.371
1684 0 82.1081 13.8598 1138 116.249 36.6072 478.339
1685 0 83.212 12.9308 1076 119.027 36.7426 476.884
1686 1 44.0551 12.0304 530 121.96 37.5906 496.121
1687 0 46.0749 11.9588 551 123.779 37.1869 493.993
1688 0 48.0289 13.2004 634 118.041 37.0899 493.3
1689 0 49.0283 12.8293 629 117.102 37.4054 493.595
1690 0 49.1037 13.3391 655 115.783 37.1786 491.693
1691 0 51.1222 12.9885 664 117.396 37.1943 492.539
1692 0 52.1345 13.4268 700 117.177 37.77 491.213
1693 0 55.0622 13.4757 742 117.24 37.3854 489.745
1694 0 54.1011 12.6984 687 122.325 36.9782 489.578
1695 0 58.0754 13.8785 806 116.4 37.0347 488.319
1696 0 59.1196 13.2612 784 120.45 37.5102 486.978
1697 0 60.1635 13.8456 833 117.758 37.479 488.511
1698 0 62.0712 13.2429 822 122.274 36.9404 485.296
1699 0 63.1 13.9144 878 121.371 37.9749 484.227
1700 0 66.0881 13.7846 911 121.569 36.9319 483.708
1701 0 69.0575 14.5676 1006 119.935 37.0805 483.294
1702 0 70.1298 14.516 1018 121.5 37.0255 481.718
1703 0 73.123 13.867 1014 122.922 35.9329 481.762
1704 0 76.0501 14.5036 1103 120.776 34.8595 480.476
1705 0 78.1099 13.5834 1061 121.275 35.1348 478.285
1706 0 80.0713 14.1874 1136 121.458 35.0308 474.07
1707 0 82.212 13.9517 1147 122.833 35.2058 475.109
1708 0 86.2843 14.0582 1213 123.173 34.512 473.201
1709 0 89.1516 13.6733 1219 123.985 35.1518 471.835
1710 0 90.1284 14.557 1312 123.407 34.6761 470.666
1711 1 53.2838 12.668 675 133.32 35.957 489.058
1712 0 54.2837 12.711 690 134.165 35.8957 486.504
1713 0 56.0548 13.915 780 129.796 34.4885 488.45
1714 0 56.014 13.086 733 134.138 34.633 488.625
1715 0 57.0301 12.9756 740 135.661 34.2284 487.289
1716 0 61.1637 14.1097 863 131.408 34.2086 487.919
1717 0 62.0355 14.266 885 131.316 34.2621 485.671
1718 0 63.1358 14.2708 901 132.385 34.2231 486.111
1719 0 65.0684 13.2937 865 136.394 34.2717 483.978
1720 0 67.0439 14.0952 945 134.745 34.5005 482.852
1721 0 69.0331 13.2835 917 137.985 34.422 482.716
1722 0 71.0382 13.6406 969 137.881 34.5325 482.541
1723 0 73.0588 13.9887 1022 137.561 35.3072 481.48
1724 0 75.101 13.4086 1007 139.328 35.0973 478.957
1725 0 78.0172 13.9585 1089 138.682 34.8274 478.539
1726 0 78.0452 14.8119 1156 136.918 34.9256 478.305
1727 0 83.143 13.5069 1123 141.832 35.5877 475.91
1728 0 83.1658 13.7917 1147 141.884 35.9538 475.163
1729 0 88.1377 14.2391 1255 139.438 35.8582 474.647
1730 0 89.1468 12.7767 1139 144.651 36.2186 472.381
1731 0 93.1998 14.4206 1344 140.006 36.0952 469.217
1732 0 96.2441 14.8996 1434 138.421 35.7148 468.355
1733 0 100.17 14.5453 1457 139.036 35.7962 468.246
1734 1 54.108 11.8836 643 140.028 35.3048 489.728
1735 0 55.0628 12.4948 688 138.426 34.5669 488.192
1736 0 59.0721 13.7798 814 131.022 34.5946 487.973
1737 0 60.0609 12.7204 764 136.653 34.8298 486.339
1738 0 62.0844 13.4494 835 133.362 35.3832 485.981
1739 0 64.0591 13.6749 876 132.161 35.2306 484.298
1740 0 67.3646 13.9094 937 130.006 36.3191 482.648
1741 0 69.264 13.6723 947 129.093 36.962 483.069
1742 0 69.2354 12.7536 883 133.214 36.3307 482.003
1743 0 72.1945 13.6575 986 131.068 36.5609 481.742
1744 0 74.3051 13.0139 967 130.922 36.5967 480.048
1745 0 79.2628 13.6256 1080 127.013 36.9398 478.236
1746 0 81.2063 13.5457 1100 125.89 37.1927 476.881
1747 0 86.3183 14.2496 1230 122.957 36.935 473.753
1748 0 87.2173 13.8161 1205 124.595 36.4871 472.672
1749 0 89.2089 13.2386 1181 125.419 36.2007 472.202
1750 0 93.2828 13.4859 1258 123.583 36.8235 469.906
1751 0 96.2226 13.7806 1326 122.461 36.0309 467.916
1752 0 100.363 14.4974 1455 118.968 36.4385 466.805
1753 0 101.255 12.3846 1254 125.931 36.1324 463.987
1754 1 54.043 11.2133 606 120.962 36.495 487.269
1755 0 56.0619 11.6122 651 120.258 37.4731 486.43
1756 0 60.0818 13.3984 805 115.016 34.8845 485.619
1757 0 60.0317 13.1431 789 113.956 34.8872 484.864
1758 0 63.2559 13.1213 830 116.042 34.4036 480.948
1759 0 63.0786 11.6997 738 120.434 34.1165 477.182
1760 0 68.0764 12.9413 881 116.078 34.143 479.111
1761 0 68.0572 12.4601 848 117.131 34.5507 480.63
1762 0 69.0741 12.682 876 116.997 35.4532 480.063
1763 0 74.0973 12.659 938 115.86 34.3284 476.023
1764 0 75.1788 13.3149 1001 114.418 36.4895 476.238
1765 0 79.0859 13.1503 1040 113.473 37.1692 478.124
1766 0 81.1013 14.2784 1158 112.586 36.6865 472.957
1767 0 84.1585 13.4865 1135 113.766 36.941 474.074
1768 0 85.1847 12.8544 1095 114.899 36.7753 473.516
1769 0 87.15 12.9891 1132 115.267 36.4002 470.571
1770 1 46.0246 10.1467 467 114.704 36.94 491.675
1771 0 46.1468 11.2467 519 109.222 34.4798 487.568
1772 0 48.0802 11.772 566 102.2 34.7491 488.795
1773 0 50.046 11.1497 558 103.767 33.9677 489.47
1774 0 53.0228 12.3909 657 99.9209 33.8371 489.638
1775 0 54.0277 12.6046 681 100.648 33.8032 488.258
1776 0 55.0812 12.9627 714 100.751 34.5112 487.259
1777 0 56.1032 11.9245 669 104.155 33.6966 484.891
1778 0 56.06 12.2726 688 103.302 35.7674 487.706
1779 0 60.0501 13.2556 796 100.628 37.3505 484.616
1780 0 60.0737 11.386 684 104.159 37.6827 485.418
1781 0 62.0705 11.2614 699 104.853 37.2089 484.043
1782 0 64.1703 12.6071 809 102.467 37.5476 483.066
1783 0 65.1478 12.0802 787 104.272 37.7141 480.981
1784 0 68.1722 12.2044 832 104.421 37.0865 478.811
1785 0 71.15 13.3661 951 102.728 37.1556 477.154
1786 0 74.1154 13.0067 964 104.244 37.0685 476.262
1787 0 78.0974 13.2783 1037 103.037 37.0376 475.311
1788 0 78.2275 13.8315 1082 103.433 36.8105 473.693
1789 0 80.1892 12.7947 1026 106.063 36.7573 470.603
1790 0 83.0717 13.1212 1090 110.07 37.178 473.561
1791 0 84.1427 13.7029 1153 110.56 37.0867 471.732
1792 0 90.2159 12.9245 1166 111.982 35.9194 470.822
1793 0 92.2377 12.9557 1195 111.746 36.3213 468.049
1794 1 51.074 13.0203 665 106.795 36.7398 489.259
1795 0 51.063 11.6719 596 108.394 36.8037 490.042
1796 0 54.0189 12.2735 663 109.882 36.7572 487.955
1797 0 54.0374 12.2508 662 112.295 36.8943 487.663
1798 0 54.0409 12.1574 657 105.784 36.0228 488.954
1799 0 56.0825 12.1428 681 106.191 37.3245 488.893
1800 0 58.0434 12.9903 754 104.622 37.4934 486.261
1801 0 57.0531 12.1641 694 108.889 37.2061 487.001
1802 0 60.0233 12.4452 747 108.296 37.0964 484.637
1803 0 63.0712 12.4621 786 108.003 36.9924 485.202
1804 0 64.0948 13.0744 838 107.802 37.1098 483.708
1805 0 67.0486 12.2001 818 109.522 37.1088 483.579
1806 0 68.1255 12.8146 873 108.714 36.9496 484.23
1807 0 70.0652 13.8014 967 108.316 36.8697 479.785
1808 0 71.1759 13.2629 944 110.9 36.9862 478.986
1809 0 75.2121 13.4154 1009 110.11 36.5045 479.363
1810 0 78.0901 13.8174 1079 110.017 37.1974 476.707
1811 0 81.1693 13.6628 1109 110.225 37.312 476.818
1812 0 84.2567 14.3846 1212 108.583 36.9365 473.743
1813 0 87.1126 14.1426 1232 109.672 36.8133 473.688
1814 0 90.1208 14.8356 1337 107.371 36.7061 472.592
1815 0 92.0872 13.9976 1289 110.047 36.6486 472.39
1816 0 91.0777 12.1105 1103 116.295 36.3563 472.89
1817 0 96.1211 13.8887 1335 112.369 36.4899 468.761
1818 0 98.0577 14.0428 1377 112.99 36.9586 464.441
1819 0 101.111 13.6385 1379 113.385 36.3858 467.24
1820 0 105.107 13.5196 1421 113.697 36.5074 464.204
1821 0 111.179 14.2113 1580 110.916 36.5063 463.394
1822 0 113.156 12.6816 1435 114.635 36.754 463.594
1823 0 118.138 14.1529 1672 111.185 36.2703 458.53
1824 1 65.0915 13.12 854 114.961 37.0808 484.095
1825 0 67.1651 13.37 898 114.473 37.0635 483.29
1826 0 71.0714 14.1407 1005 108.773 37.5413 482.588
1827 0 71.0928 13.7848 980 108.189 37.7724 481.156
1828 0 73.1066 12.94 946 109.888 37.4482 480.631
1829 0 75.2218 13.1345 988 116.523 37.9747 478.288
1830 0 78.0663 14.2827 1115 114.27 37.7148 476.552
1831 0 81.0543 13.6328 1105 116.567 37.5928 477.212
1832 0 83.0793 13.3728 1111 118.608 36.9136 474.539
1833 0 86.1101 14.4002 1240 116.257 37.3435 472.309
1834 0 89.1603 14.5244 1295 116.33 37.0185 472.764
1835 0 92.1654 14.832 1367 116.933 36.902 468.991
1836 0 94.0466 14.0462 1321 120.192 36.8312 468.924
1837 0 95.1128 13.9729 1329 121.506 36.608 469.132
1838 0 99.1315 13.1643 1305 124.19 36.6161 466.773
1839 0 102.165 13.674 1397 123.509 36.7058 463.971
1840 0 107.173 14.8545 1592 120.396 36.2644 461.949
1841 0 111.221 14.6285 1627 120.948 36.2022 461.908
1842 0 115.248 13.5534 1562 123.78 36.1748 461.024
1843 1 63.0827 12.7769 806 120.794 36.8933 486.378
1844 0 64.0684 13.3763 857 121.268 36.4014 483.698
1845 0 64.2321 12.1123 778 122.672 36.3792 481.126
1846 0 67.0865 13.177 884 112.633 34.4661 483.428
1847 0 69.0858 13.2154 913 114.066 34.6648 480.779
1848 0 72.0803 13.8041 995 112.332 34.6673 481.675
1849 0 73.0513 12.7582 932 117.056 34.191 478.078
1850 0 79.0942 14.35 1135 111.938 34.5833 479.297
1851 0 78.0985 13.8543 1082 116.92 34.2486 475.776
1852 0 81.1523 12.9756 1053 119.584 33.8993 474.559
1853 0 84.056 12.7058 1068 120.457 34.3699 471.941
1854 0 88.0849 13.714 1208 117.586 34.2219 473.355
1855 0 91.1654 14.9179 1360 116.057 34.539 471.39
1856 0 93.2386 14.5755 1359 118.763 34.3414 468.578
1857 0 95.1011 13.207 1256 122.979 33.5024 468.217
1858 0 101.131 14.8421 1501 117.908 33.6156 465.246
1859 0 102.115 14.3563 1466 121.671 33.4789 464.759
1860 1 53.0493 11.2725 598 126.771 33.5033 489.055
1861 0 59.1636 13.0486 772 121.85 36.4145 484.562
1862 0 60.0604 13.5197 812 122.329 33.2032 484.649
1863 0 60.1132 12.7925 769 126.555 34.7126 484.714
1864 0 59.0638 11.3775 672 123.159 33.5446 484.615
1865 0 63.0936 11.6177 733 120.963 33.6971 484.824
1866 0 64.0901 12.1704 780 120.079 34.0026 484.244
1867 0 67.094 12.4452 835 119.572 34.3389 481.944
1868 0 70.0607 13.1886 924 117.894 34.7067 481.16
1869 0 73.0496 11.8139 863 119.8 34.5701 482.312
1870 0 75.0603 12.8297 963 119.762 34.4818 478.698
1871 0 75.0628 11.9233 895 123.839 34.3598 478.498
1872 0 77.0809 11.8966 917 123.964 34.0862 475.301
1873 0 82.0618 12.5637 1031 121.006 34.7992 474.501
1874 0 85.1581 13.3516 1137 118.427 34.6368 471.501
1875 0 89.1484 14.0552 1253 116.037 34.2514 471.067
1876 0 93.2041 14.0015 1305 116.426 34.1632 469.819
1877 1 51.3199 10.834 556 126.556 34.2698 487.18
1878 0 50.3269 11.326 570 118.237 35.3439 481.205
1879 0 52.1443 10.0299 523 122.042 35.8164 481.839
1880 0 53.155 10.7798 573 120.716 35.1379 481.691
1881 0 53.1052 10.9217 580 120.297 35.9017 483.703
1882 0 57.0609 12.0923 690 117.257 36.2913 481.607
1883 0 56.0641 10.2561 575 124.259 36.2191 481.266
1884 0 58.1575 12.0535 701 118.482 35.8459 482.083
1885 0 61.1066 12.6337 772 117.825 35.9728 480.123
1886 0 62.0788 11.3565 705 121.495 35.6823 479.723
1887 0 65.0994 12.719 828 118.104 35.8889 478.743
1888 0 66.0592 11.2626 744 123.332 36.0551 477.352
1889 0 68.0493 11.5651 787 123.341 36.2478 474.916
1890 0 70.0365 12.1223 849 121.942 36.3781 473.673
1891 0 76.1673 11.7636 896 120.033 36.1674 473.609
1892 0 76.3538 11.3943 870 122.887 36.223 472.644
1893 0 81.1819 11.7514 954 120.797 35.7767 469.731
1894 0 84.2586 12.5685 1059 119.211 35.6912 468.461
1895 1 46.0242 10.1034 465 109.402 35.9032 491.174
1896 0 45.0645 11.5612 521 112.155 36.1996 487.894
1897 0 48.0192 11.2455 540 121.922 36.9148 487.793
1898 0 52.0632 11.3708 592 122.992 37.2483 487.912
1899 0 54.1285 12.1378 657 121.764 37.3333 486.09
1900 0 55.0485 12.1529 669 122.218 36.4484 488.593
1901 0 55.0442 12.5354 690 121.354 36.8899 485.155
1902 0 55.0518 11.8616 653 117.245 36.6462 489.095
1903 0 57.0571 11.5148 657 118.397 36.9909 487.623
1904 0 59.0748 12.3741 731 115 37.1505 487.447
1905 0 58.0616 12.6245 733 115.772 36.9536 486.859
1906 0 62.0594 12.1335 753 115.268 36.8101 485.641
1907 0 63.0462 14.0056 883 110.451 36.6467 484.028
1908 0 66.0349 11.9482 789 114.473 36.8365 483.223
1909 0 65.1071 11.9188 776 114.445 37.2436 482.626
1910 0 68.0503 11.3445 772 116.016 37.0842 479.381
1911 0 73.0865 12.0679 882 111 36.9354 480.231
1912 0 73.0732 11.8922 869 110.751 36.8228 480.346
1913 0 76.1306 13.2404 1008 108.111 37.0645 478.029
1914 0 79.1204 12.3104 974 108.924 36.2526 476.88
1915 0 82.2115 13.3193 1095 105.026 36.3178 477.3
1916 0 82.1976 11.1074 913 110.238 36.4797 475.793
1917 0 88.2248 13.2842 1172 104.273 36.2073 472.391
1918 0 91.1473 12.3317 1124 105.431 36.1931 473.069
1919 0 90.1184 12.0064 1082 107.571 36.0176 467.888
1920 0 96.1114 13.6612 1313 102.36 36.0526 466.411
1921 0 97.1886 12.9336 1257 104.106 36.3095 465.286
1922 0 101.209 13.5166 1368 102.072 35.9591 464.672
1923 0 105.266 12.9102 1359 103.082 35.8764 464.868
1924 0 109.26 14.5798 1593 100.3 36.1136 460.724
1925 0 110.218 13.0469 1438 105.992 36.5007 460.887
1926 0 115.121 13.0906 1507 105.376 35.8441 457.309
1927 0 120.273 13.0703 1572 104.892 35.7812 456.12
1928 1 65.1655 10.7726 702 112 36.2664 483.48
1929 0 68.1144 11.7156 798 107.727 37.2657 482.107
1930 0 70.0797 11.9578 838 109.298 37.5251 478.041
1931 0 73.1324 12.9354 946 109.788 36.8943 479.238
1932 0 76.1155 13.4926 1027 111.903 36.815 477.101
1933 0 79.1136 12.3493 977 115.703 36.9785 474.667
1934 0 81.2343 14.0335 1140 112.835 36.7728 474.589
1935 0 85.13 13.7672 1172 113.552 37.0683 472.993
1936 0 88.1075 13.597 1198 113.775 36.7037 474.494
1937 0 89.0716 13.4386 1197 115.458 36.7302 471.806
1938 0 93.1229 13.3372 1242 116.709 36.6691 467.845
1939 0 95.1556 13.4411 1279 117.637 36.0884 468.159
1940 0 100.188 14.4528 1448 114.569 35.5532 467.097
1941 0 102.103 13.6137 1390 117.542 35.7777 465.488
1942 0 103.181 13.2486 1367 119.944 35.962 464.105
1943 0 109.267 13.9749 1527 118.728 35.2606 461.247
1944 0 111.231 14.1956 1579 119.025 35.4978 456.193
1945 0 116.331 14.6049 1699 117.457 35.7145 453.835
1946 0 121.303 14.1629 1718 117.361 35.3615 457.096
1947 0 123.26 13.4918 1663 120.806 35.8647 455.616
1948 1 66.1086 11.5719 765 119.327 36.1412 483.923
1949 0 68.195 11.9657 816 117.574 37.4044 484.026
1950 0 73.257 13.9918 1025 113.234 35.5473 477.389
1951 0 73.0806 13.1909 964 115.822 37.4098 480.509
1952 0 76.128 14.804 1127 111.429 37.6548 479.704
1953 0 79.0803 12.5821 995 117.419 37.4925 479.817
1954 0 81.0315 13.8094 1119 114.677 37.1841 475.568
1955 0 82.11 13.7377 1128 115.656 37.1126 474.855
1956 0 87.2321 15.7282 1372 109.713 36.9155 473.409
1957 0 88.1486 13.9991 1234 115.888 37.5308 471.044
1958 0 89.1054 13.4672 1200 117.553 37.0417 471.285
1959 0 92.0517 13.6554 1257 115.061 36.533 471.053
1960 0 95.1881 14.0669 1339 113.665 36.5101 469.586
1961 0 99.2805 13.6482 1355 114.956 36.3882 466.606
1962 0 99.136 12.7703 1266 117.882 36.9526 463.496
1963 0 106.138 14.2362 1511 112.466 36.5407 464.314
1964 0 112.242 14.6825 1648 109.833 36.0255 463.129
1965 0 113.182 15.1791 1718 109.689 36.1118 459.052
1966 0 117.333 14.1137 1656 111.854 36.2277 458.431
1967 0 120.121 15.1431 1819 110.687 36.0572 455.259
1968 1 65.2673 13.1 855 117.538 34.9345 477.687
1969 0 68.2775 13.9431 952 116.717 35.1891 475.691
1970 0 69.1649 13.1714 911 120.486 36.2964 479.408
1971 0 74.2016 14.4337 1071 114.965 36.4556 477.92
1972 0 77.2357 15.2132 1175 112.55 36.5226 477.006
1973 0 79.2608 14.3955 1141 114.261 36.3313 476.843
1974 0 79.3059 13.7821 1093 117.604 36.9597 474.505
1975 0 84.251 15.0147 1265 113.888 36.464 472.399
1976 0 87.5566 14.9389 1308 113.687 36.4174 472.763
1977 0 88.4027 14.4792 1280 116.267 36.5891 468.985
1978 0 92.2195 14.7149 1357 115.342 36.2653 468.602
1979 0 93.4063 14.7635 1379 116.734 35.8231 465.102
1980 0 97.5102 14.4703 1411 117.363 35.6038 464.176
1981 0 101.674 15.3924 1565 115.451 34.8856 463.445
1982 0 103.531 14.8554 1538 118.088 34.6456 459.375
1983 0 107.622 15.0991 1625 116.316 34.848 461.023
1984 0 111.907 15.2537 1707 114.806 35.4294 456.946
1985 0 115.626 14.1404 1635 110.87 34.4263 454.24
1986 0 117.375 15.2844 1794 109.86 34.9292 453.944
1987 0 123.526 14.4504 1785 111.139 33.9244 448.902
1988 1 67.3429 11.5825 780 108.679 35.3179 477.51
1989 0 70.503 12.6803 894 106.668 34.8624 478.003
1990 0 72.3899 11.4381 828 110.016 33.9263 476.79
1991 0 75.2525 13.1026 986 108.926 34.4087 474.657
1992 0 77.455 12.6396 979 109.542 35.1083 475.562
1993 0 81.4239 12.5639 1023 109.823 35.1681 473.891
1994 0 82.5218 12.9541 1069 110.836 34.8522 470.809
1995 0 83.4341 13.256 1106 111.486 35.0796 469.131
1996 0 87.6578 13.1192 1150 111.27 35.2696 467.207
1997 0 90.5503 13.2192 1197 111.798 34.9616 466.818
1998 0 93.4135 12.0968 1130 114.6 34.5168 466.374
1999 0 97.7558 12.8995 1261 112.957 34.6614 464.308
2000 0 99.5278 12.0067 1195 115.259 34.8619 464.561
2001 0 102.595 13.2658 1361 113.712 34.3659 461.874
2002 0 106.483 12.6781 1350 115.37 34.1985 459.887
2003 0 110.621 12.5112 1384 116.251 34.1279 459.605
2004 0 112.371 12.1473 1365 117.549 34.5516 458.495
2005 1 65.3836 11.899 778 111.81 34.7211 482.495
2006 0 67.1204 12.7234 854 113.439 35.5035 481.666
2007 0 68.0853 11.28 768 119.292 35.7214 481.745
2008 0 69.2136 11.3128 783 117.359 36.4266 477.464
2009 0 73.1916 12.3101 901 114.307 36.616 477.001
2010 0 76.2589 12.7723 974 113.74 36.4671 475.023
2011 0 77.3323 12.1036 936 115.911 36.3643 473.118
2012 0 79.3984 11.839 940 116.772 35.7926 472.555
2013 0 82.5328 11.8619 979 118.123 35.7926 468.411
2014 0 85.4836 11.9087 1018 117.354 36.0982 470.061
2015 0 88.4173 12.294 1087 117.368 35.5787 469.467
2016 0 90.4177 12.3427 1116 118.455 35.8253 466.975
2017 0 95.4139 12.6711 1209 117.464 35.8238 466.132
2018 0 96.4554 11.933 1151 120.493 36.0964 464.553
2019 0 99.4518 12.6594 1259 119.676 36.1779 461.63
2020 0 102.363 13.2372 1355 118.955 35.5181 458.468
2021 0 107.388 13.7539 1477 117.376 35.65 458.888
2022 0 111.528 13.4137 1496 118.306 35.1578 456.969
2023 0 112.499 13.6001 1530 119.393 35.2235 453.807
2024 1 63.1974 11.9625 756 115.694 36.7487 484.661
2025 0 62.1586 11.5833 720 120.439 36.1639 482.826
2026 0 66.297 12.7457 845 118.659 36.187 481.092
2027 0 69.1833 14.0785 974 116.632 36.2762 479.86
2028 0 70.0781 13.3993 939 123.946 35.7199 479.035
2029 0 72.3608 13.6953 991 122.995 34.9717 477.174
2030 0 75.3592 13.429 1012 124.167 34.8123 475.864
2031 0 78.3243 14.0825 1103 122.771 34.5095 475.709
2032 0 81.2939 13.6296 1108 123.87 34.8394 474.625
2033 0 83.3299 14.3886 1199 122.133 34.794 472.992
2034 0 84.4225 13.0534 1102 127.944 34.4147 471.378
2035 0 89.3057 14.0976 1259 124.514 34.5131 471.749
2036 0 91.2891 14.4267 1317 125.308 34.7692 468.755
2037 0 93.364 13.2921 1241 128.554 34.2248 468.782
2038 0 95.3513 14.326 1366 126.367 34.4561 467.753
2039 0 97.3482 14.1348 1376 126.544 34.2885 467.28
2040 0 102.291 14.0481 1437 126.367 34.7606 465.47
2041 0 104.248 13.7557 1434 128.255 34.735 464.992
2042 0 108.3 15.0601 1631 126.068 34.3495 462.081
2043 0 109.259 13.7562 1503 129.902 34.4118 461.819
2044 0 112.279 13.4042 1505 123.27 34.1827 460.248
2045 1 63.125 12.1188 765 121.876 33.1856 485.697
2046 0 64.2573 12.9479 832 124.209 35.4748 481.84
2047 0 66.3476 13.2333 878 123.546 35.3793 480.923
2048 0 70.1845 13.607 955 121.305 36.0283 482.44
2049 0 72.2278 13.7482 993 120.376 35.5962 483.154
2050 0 73.1865 13.691 1002 122.78 35.2186 479.29
2051 0 75.0942 13.7561 1033 125.033 35.9661 477.897
2052 0 78.1706 13.7648 1076 124.429 35.5781 478.288
2053 0 79.1418 14.3919 1139 123.594 34.8911 475.594
2054 0 84.1725 14.9693 1260 121.71 36.4032 474.218
2055 0 85.1307 13.7788 1173 125.73 36.2046 474.209
2056 0 88.1586 14.2017 1252 125.037 35.6046 472.278
2057 0 91.2245 15.2042 1387 121.813 35.964 471.895
2058 0 93.0971 14.1465 1317 127.403 35.5839 469.765
2059 0 92.1787 12.9748 1196 133.562 35.3253 469.82
2060 0 98.1826 14.0147 1376 127.757 35.1228 469.638
2061 0 99.1387 13.2642 1315 133.183 34.6662 467.516
2062 0 103.296 14.3277 1480 131.174 34.852 466.886
2063 0 103.125 13.0231 1343 136.015 35.0268 464.171
2064 0 110.329 14.3752 1586 128.434 34.9275 463.393
2065 0 112.32 13.7376 1543 131.312 34.7609 461.817
2066 0 115.182 13.7348 1582 131.069 35.1264 459.937
2067 1 64.1933 12.2443 786 135.771 35.8626 483.552
2068 0 63.2127 12.6557 800 137.605 35.7537 481.281
2069 0 67.2122 13.8665 932 124.994 33.8283 481.794
2070 0 68.1403 12.533 854 130.165 33.5585 481.255
2071 0 71.1 14.782 1051 122.514 34.1884 479.412
2072 0 72.1452 13.0709 943 128.829 34.1209 477.824
2073 0 76.1298 13.674 1041 125.763 33.8886 476.182
2074 0 77.1766 13.3201 1028 128.18 34.0078 474.821
2075 0 78.118 12.5323 979 130.805 34.1522 472.598
2076 0 83.1526 13.9623 1161 125.374 34.3488 469.239
2077 0 86.1548 13.0811 1127 126.854 34.63 469.596
2078 0 88.2078 13.6156 1201 125.057 34.1249 468.012
2079 0 92.247 14.407 1329 121.432 33.6953 466.037
2080 0 95.1858 14.1093 1343 120.368 33.9039 465.055
2081 0 97.1493 14.4829 1407 119.198 34.0398 465.797
2082 0 99.2445 14.0864 1398 119.665 33.686 464.511
2083 0 101.332 12.6318 1280 123.67 33.0125 464.049
2084 0 103.276 12.2584 1266 124.637 33.3728 460.119
2085 1 60.2056 11.6434 701 126.481 34.3252 479.719
2086 0 62.1515 11.6972 727 124.662 33.5571 483.656
2087 0 63.1046 13.1686 831 121.637 33.5066 481.59
2088 0 65.1431 11.7127 763 117.476 33.4771 481.903
2089 0 66.1163 11.752 777 116.122 33.305 481.932
2090 0 69.1315 12.7149 879 112.058 33.562 478.942
2091 0 73.1867 12.5296 917 111.817 33.0087 476.651
2092 0 74.1789 12.6181 936 112.692 33.3558 473.105
2093 0 76.1796 12.5493 956 113.453 33.4874 472.822
2094 0 78.2303 11.4534 896 115.417 33.0993 473.713
2095 0 81.2285 12.5325 1018 113.337 33.447 472.75
2096 0 82.296 11.4465 942 116.32 33.5934 470.41
2097 0 86.1494 12.3506 1064 114.319 33.9258 469.02
2098 0 89.1617 12.6063 1124 114.312 34.0125 467.092
2099 0 91.2228 11.6857 1066 117.593 33.727 466.68
2100 0 96.1484 12.7407 1225 115.335 33.7127 465.353
2101 1 51.0905 11.509 588 108.022 35.4405 489.544
2102 0 51.2939 11.2489 577 110.896 35.3588 487.258
2103 0 54.2182 12.4497 675 108.153 36.123 485.016
2104 0 57.1534 12.0903 691 106.25 35.6122 486.625
2105 0 56.1422 11.5243 647 109.643 35.6646 486.481
2106 0 59.1628 11.9839 709 108.126 35.646 484.111
2107 0 59.1221 11.5693 684 119.323 35.5336 486.094
2108 0 60.0916 13.2132 794 116.18 35.835 484.567
2109 0 63.1726 12.5846 795 117.17 35.8881 484.542
2110 0 66.2215 12.3978 821 117.711 35.7625 482.485
2111 0 65.1575 12.1398 791 120.7 35.914 481.182
2112 0 69.2411 14.3123 991 114.125 35.7639 479.633
2113 0 71.3051 12.6078 899 119.13 35.5562 479.369
2114 0 74.249 12.2965 913 119.652 35.3461 479.646
2115 0 74.209 12.6669 940 122.237 35.8915 478.769
2116 0 80.2646 12.9571 1040 119.969 35.8788 475.803
2117 0 81.3373 13.401 1090 119.852 35.5239 473.828
2118 0 83.3007 12.4489 1037 122.912 35.866 471.525
2119 0 85.3682 12.3934 1058 123.926 35.259 470.921
2120 0 88.4575 13.2945 1176 121.84 35.3937 468.139
2121 0 92.4108 13.2668 1226 121.617 34.8883 467.171
2122 0 95.5746 13.3718 1278 122.481 35.18 464.156
2123 0 98.4805 14.2363 1402 120.214 34.5036 464.647
2124 0 99.4038 12.5046 1243 126.356 34.292 459.924
2125 0 106.743 14.4365 1541 124.454 34.5276 457.067
2126 0 109.206 13.3327 1456 116.481 34.2541 459.703
2127 0 112.246 12.9626 1455 120.989 33.7622 456.438
2128 1 62.2636 13.4268 836 109.783 34.6041 478.257
2129 0 66.4186 12.4212 825 112.617 34.4315 477.83
2130 0 67.2416 12.5815 846 111.694 33.7872 481.249
2131 0 70.1792 12.4823 876 110.331 33.8767 481.277
2132 0 73.1897 12.6657 927 110.636 33.7443 479.085
2133 0 74.1196 11.387 844 112.498 32.8341 476.351
2134 0 77.1068 13.5397 1044 107.242 33.0766 477.591
2135 0 82.079 12.622 1036 116.851 32.222 475.848
2136 0 83.0232 10.8042 897 121.164 32.0702 475.452
2137 0 85.2905 12.5688 1072 121.428 33.6409 471.66
2138 0 90.1994 12.7606 1151 117.026 33.49 472.662
2139 0 91.2972 12.3005 1123 117.912 33.2431 473.358
2140 0 95.1143 13.1105 1247 115.596 33.9407 470.785
2141 0 96.1146 11.0285 1060 117.775 34.6925 469.832
2142 0 99.1015 12.7849 1267 113.688 34.3654 465.21
2143 0 102.167 12.548 1282 115.202 34.3877 462.237
2144 0 106.186 11.6305 1235 116.398 33.9789 463.696
2145 0 109.406 11.992 1312 114.587 33.7828 464.134
2146 0 111.335 11.1645 1243 119.439 33.6444 458.578
2147 0 115.312 12.0109 1385 118.001 34.0794 453.661
2148 0 119.349 12.2917 1467 116.534 34.4281 452.402
2149 0 123.33 12.3571 1524 116.318 33.8845 452.701
2150 0 127.549 11.5956 1479 118.143 34.0264 446.359
2151 0 132.344 11.727 1552 117.225 33.7223 443.872
2152 0 138.313 12.0162 1662 115.664 34.1432 443.513
2153 1 77.1914 11.4132 881 110.073 34.5789 471.261
2154 0 82.3393 13.0679 1076 104.691 34.5809 470.691
2155 0 81.2167 10.946 889 109.855 35.0585 471.373
2156 0 84.2309 12.0502 1015 108.098 34.8867 471.452
2157 0 86.3019 12.5606 1084 108.523 34.845 466.818
2158 0 89.2044 12.4209 1108 109.44 34.9982 466.922
2159 0 92.2112 11.8641 1094 111.282 34.8775 465.46
2160 0 95.2236 11.0057 1048 115.122 35.0792 465.484
2161 0 99.1378 12.1851 1208 112.312 35.0455 464.667
2162 0 104.169 12.4317 1295 111.158 33.8232 461.931
2163 0 106.49 12.9496 1379 111.398 33.05 456.83
2164 0 109.47 13.1908 1444 110.078 33.75 457.008
2165 0 113.399 12.434 1410 112.052 33.4482 454.613
2166 0 117.368 12.235 1436 111.981 32.8203 454.935
2167 0 120.318 12.7496 1534 110.914 32.7621 450.651
2168 0 125.272 12.3731 1550 112.288 32.5123 447.711
2169 1 68.3465 10.5492 721 107.687 33.2316 478.101
2170 0 71.2203 10.98 782 107.455 32.9054 475.384
2171 0 75.1887 12.0231 904 102.86 33.7611 479.732
2172 0 75.177 11.719 881 103.86 33.9762 479.899
2173 0 77.1653 11.7281 905 105.746 33.653 475.558
2174 0 81.1675 11.0635 898 105.421 33.7973 476.921
2175 0 83.3404 12.011 1001 104.364 33.6603 475.918
2176 0 86.2651 12.1718 1050 104.991 33.6448 472.743
2177 0 88.0817 11.3077 996 109.064 35.7149 472.1
2178 0 95.4549 13.42 1281 101.431 34.5605 472.436
2179 0 95.2583 11.768 1121 107.401 34.7333 467.826
2180 0 100.241 12.9089 1294 104.474 34.9961 467.988
2181 0 103.321 12.3112 1272 106.586 33.941 462.061
2182 0 105.511 12.2073 1288 107.151 33.1708 459.089
2183 0 110.366 11.6975 1291 107.585 33.519 457.273
2184 0 113.345 10.7283 1216 109.573 33.6488 455.5
2185 0 118.396 13.0072 1540 105.351 33.4143 450.525
2186 0 122.403 12.3853 1516 107.208 33.3344 450.665
2187 1 67.1367 11.484 771 105.703 34.2335 480.154
2188 0 69.0238 11.8944 821 104.803 35.5286 480.333
2189 0 69.2174 10.8932 754 100.975 34.5756 474.097
2190 0 72.2483 11.848 856 98.9638 34.5257 478.023
2191 0 75.1518 12.0689 907 98.5546 34.6373 477.998
2192 0 78.268 12.8022 1002 97.5 34.3463 476.562
2193 0 80.2707 12.109 972 100.031 34.2706 474.51
2194 0 84.3166 12.0854 1019 100.313 34.2237 474.065
2195 0 87.2887 12.3842 1081 99.0934 34.4662 471.968
2196 0 88.248 13.0201 1149 99.1445 34.7032 470.07
2197 0 92.2423 13.6597 1260 99.0167 34.4 470.102
2198 0 96.194 13.5975 1308 99.9106 33.8654 468.576
2199 0 98.3727 12.8186 1261 102.092 33.9072 467.069
2200 0 100.441 12.8932 1295 103.041 35.2363 465.815
2201 0 104.336 13.5524 1414 101.696 34.6089 465.168
2202 0 106.692 13.3094 1420 103.441 34.5225 461.523
2203 0 109.284 12.6918 1387 106.145 33.8616 456.846
2204 0 113.463 12.7883 1451 107.232 34.8249 455.403
2205 0 116.486 12.2075 1422 110.395 33.9114 454.299
2206 1 66.3587 11.1214 738 105.951 34.8537 485.871
2207 0 67.3177 11.2303 756 109.429 34.6111 483.271
2208 0 68.1951 11.8337 807 108.633 34.5911 480.499
2209 0 72.3419 12.6068 912 104.648 33.5406 476.12
2210 0 76.3793 13.8257 1056 102.498 33.4744 472.866
2211 0 76.5017 13.0455 998 116.862 34.1483 476.041
2212 0 81.4252 12.6005 1026 113.716 34.3519 467.507
2213 0 80.5339 11.1258 896 117.872 33.9609 470.766
2214 0 84.4414 12.5768 1062 114.754 34.0085 470.233
2215 0 87.4416 12.0538 1054 117.38 33.4156 465.674
2216 0 91.4827 11.7946 1079 117.808 33.4662 464.842
2217 0 91.5799 11.9458 1094 118.066 33.4973 465.038
2218 0 95.6489 12.3891 1185 117.714 33.6363 463.647
2219 0 99.5169 12.6813 1262 117.33 33.4596 461.454
2220 0 102.31 12.6869 1298 117.781 33.6733 458.908
2221 0 106.564 12.8374 1368 117.232 34.0395 459.253
2222 0 109.46 12.6621 1386 118.916 33.5606 455.844
2223 0 114.592 13.3953 1535 115.794 33.8345 454.463
2224 0 115.29 12.7852 1474 118.478 33.8202 449.955
2225 0 121.592 13.4219 1632 116.702 33.6477 449.596
2226 0 124.328 13.6333 1695 116.64 33.2985 448.355
2227 0 127.323 12.4958 1591 120.713 33.2602 446.706
2228 1 67.327 10.7535 724 113.482 33.5041 475.95
2229 0 69.2937 11.7615 815 111.729 34.2331 479.794
2230 0 73.2476 11.9185 873 110.911 32.9989 475.507
2231 0 73.1402 11.1293 814 116.6 34.0074 477.536
2232 0 77.2268 11.8871 918 116.027 33.6993 476.021
2233 0 80.1971 12.4942 1002 114.592 33.0599 471.073
2234 0 83.2674 12.2497 1020 114.918 33.1147 472.367
2235 0 86.2006 12.1809 1050 115.657 33.3524 468.71
2236 0 88.3387 12.9275 1142 115.327 33.6594 466.432
2237 0 91.3635 12.7184 1162 115.906 33.5499 465.496
2238 0 95.4453 12.7298 1215 117.689 33.27 462.008
2239 0 98.2242 13.2147 1298 115.805 33.1995 462.514
2240 0 101.751 13.5134 1375 115.568 33.0269 460.166
2241 0 103.401 11.9245 1233 119.976 33.8037 458.264
2242 0 109.402 12.742 1394 117.039 33.4527 455.449
2243 0 112.349 12.4878 1403 117.835 33.5011 455.056
2244 0 115.458 12.8358 1482 118.007 33.9312 450.547
2245 1 64.1754 11.266 723 110.826 34.5007 478.342
2246 0 67.1333 12.4528 836 107.154 34.5275 478.324
2247 0 65.2954 10.7052 699 111.66 34.9728 483.199
2248 0 68.2512 10.183 695 112.22 35.3468 481.806
2249 0 70.2252 11.2353 789 110.626 34.5856 479.177
2250 0 73.2121 11.5418 845 109.413 34.6828 478.664
2251 0 73.2296 10.5149 770 112.394 34.6429 477.997
2252 0 78.2457 11.2339 879 109.072 34.8532 479.484
2253 0 81.2054 11.0337 896 109.137 34.6105 479.473
2254 0 83.1567 12.3382 1026 108.505 34.6238 472.809
2255 0 88.2976 12.7297 1124 106.549 34.1281 471.179
2256 0 90.2826 11.896 1074 109.382 34.4758 471.983
2257 0 92.2468 11.556 1066 110.955 34.0966 472.603
2258 0 95.197 12.5529 1195 110.227 33.5515 468.443
2259 0 98.2914 12.8597 1264 110.54 34.1946 468.456
2260 0 101.208 13.3883 1355 111.015 33.8937 467.836
2261 0 105.177 12.8926 1356 113.067 33.4963 467.302
2262 0 108.265 13.2453 1434 109.973 33.6423 469.199
2263 0 110.177 12.1985 1344 112.44 34.3073 468.438
2264 0 112.331 11.386 1279 115.987 33.3081 468.581
2265 0 115.148 11.4982 1324 121.554 33.8784 465.594
2266 1 61.2223 10.9764 672 110.841 33.9539 496.246
2267 0 64.1042 12.0585 773 110.812 33.3169 494.636
2268 0 68.2164 12.5923 859 110.151 32.8894 493.838
2269 0 68.1603 12.5733 857 109.735 33.1622 491.953
2270 0 72.1559 12.3898 894 109.493 32.1689 493.437
2271 0 74.1494 12.6636 939 109.564 32.3046 491.987
2272 0 75.1263 12.9249 971 110.171 31.9083 491.38
2273 0 77.1781 12.4906 964 112.165 32.2977 489.851
2274 0 82.3222 12.2932 1012 112.853 32.4634 488.659
2275 0 84.4019 13.1277 1108 111.124 31.3628 484.13
2276 0 86.2952 12.8397 1108 112.621 30.8448 486.351
2277 0 88.3531 12.8688 1137 114.35 30.774 483.785
2278 0 89.3381 13.5776 1213 115.869 30.4361 481.507
2279 0 89.354 12.1203 1083 124.114 30.0185 481.868
2280 0 95.2075 12.9612 1234 124.053 30.1532 478.527
2281 0 99.1551 12.6973 1259 124.956 30.0191 475.697
2282 0 102.347 13.2491 1356 124.33 28.882 472.449
2283 0 105.431 12.2734 1294 127.353 29.0386 472.743
2284 0 109.403 13.071 1430 125.062 28.958 469.063
2285 0 113.43 13.5591 1538 124.506 28.8791 465.899
2286 0 113.428 13.1008 1486 126.976 29.1178 461.127
2287 0 119.369 12.7504 1522 126.749 29.4304 461.527
2288 0 125.395 14.1314 1772 121.657 28.8928 464.083
2289 1 66.3969 10.9041 724 118.59 28.9724 493.934
2290 0 70.4157 12.0996 852 116.119 29.2547 490.827
2291 0 73.2355 11.265 825 111.004 29.4315 494.41
2292 0 77.1212 12.1886 940 108.48 29.6521 492.176
2293 0 79.1161 11.2872 893 111.283 29.0448 489.807
2294 0 81.2178 11.9555 971 110.3 29.5191 487.838
2295 0 84.1672 10.3247 869 113.322 29.2244 487.547
2296 0 86.198 11.346 978 111.529 29.7791 486.61
2297 0 89.3996 11.6667 1043 109.994 29.418 485.071
2298 0 93.1579 11.3463 1057 109.758 28.983 483.02
2299 0 95.2262 11.0369 1051 111.561 28.9734 478.952
2300 0 100.431 11.8688 1192 109.491 28.8834 479.543
2301 0 101.111 10.6517 1077 112.489 28.9545 475.172
2302 0 104.415 11.3777 1188 109.458 28.197 473.896
2303 0 109.481 10.906 1194 109.115 27.9891 473.484
2304 0 111.359 10.6772 1189 110.356 27.8057 468.368
2305 0 115.454 11.4851 1326 108.101 27.7459 467.34
2306 0 119.443 12.7425 1522 107.807 27.6216 465.533
2307 1 71.1811 10.382 739 104.866 27.2273 492.318
2308 0 74.2935 10.3374 768 109.809 27.3255 487.383
2309 0 76.189 11.1827 852 104.487 27.1467 488.006
2310 0 75.3556 9.913 747 107.929 27.0549 488.787
2311 0 78.2314 10.3795 812 107.272 27.0764 487.392
2312 0 83.3196 11.4739 956 105.374 26.6579 484.957
2313 0 86.4193 11.7103 1012 105.711 27.081 483.345
2314 0 87.2397 11.5314 1006 110.252 27.2694 483.047
2315 0 90.2183 11.5719 1044 110.011 26.9291 481.674
2316 0 93.4052 11.6696 1090 110.275 26.7477 480.069
2317 0 96.6427 11.8271 1143 110.839 26.8058 474.826
2318 0 99.7956 11.1328 1111 110.644 26.8137 473.86
2319 0 103.676 11.9796 1242 109.373 26.8245 467.695
2320 0 107.732 11.8256 1274 109.666 27.5188 470.922
2321 0 112.486 12.9172 1453 108.464 27.7935 467.855
2322 1 61.0563 10.2037 623 101.433 29.6051 496.748
2323 0 63.1084 10.5533 666 99.973 28.6742 491.303
2324 0 64.4065 10.2164 658 100.223 29.1824 492.865
2325 0 66.3103 11.2351 745 99.6644 28.7034 492.083
2326 0 66.2036 11.1323 737 105.48 28.8765 492.412
2327 0 70.4608 11.5241 812 100.405 28.8781 487.722
2328 0 71.3226 12.3804 883 99.4349 28.6002 487.258
2329 0 75.5225 12.0494 910 98.533 28.6429 488.367
2330 0 75.3769 11.7277 884 101.093 28.4729 486.55
2331 0 77.2027 10.5307 813 106.547 28.6519 485.526
2332 0 78.2996 10.4981 822 105.921 27.9708 483.477
2333 0 81.3683 11.7491 956 103.076 27.75 480.316
2334 0 84.488 12.0135 1015 102.82 28.066 479.805
2335 0 87.5536 12.518 1096 102.917 27.8193 476.064
2336 0 88.4511 12.0405 1065 104.945 27.769 475.978
2337 0 93.4647 11.8012 1103 104.691 28.282 475.937
2338 0 94.6767 11.7452 1112 105.99 28.0638 473.089
2339 0 96.6265 11.7463 1135 107.689 27.9066 470.526
2340 0 100.615 11.6782 1175 106.957 28.1949 470.351
2341 0 103.451 12.5083 1294 107.509 28.4513 466.991
2342 0 107.415 12.8846 1384 107.061 28.5744 465.965
2343 0 108.544 13.0177 1413 108.586 28.5725 464.803
2344 0 111.686 12.4277 1388 110.374 28.8602 462.156
2345 0 115.578 12.9869 1501 109.763 28.9021 458.471
2346 0 118.694 12.2416 1453 112.042 29.3372 459.217
2347 0 121.484 12.2238 1485 112.995 29.0364 457.741
2348 0 126.575 11.8112 1495 113.559 29.1157 451.933
2349 1 71.3128 11.3304 808 104.777 29.5755 480.881
2350 0 72.3965 10.9121 790 103.82 29.019 482.335
2351 0 76.318 11.6748 891 103.341 30.0022 480.962
2352 0 76.3334 10.9781 838 107.677 29.8699 477.723
2353 0 80.1923 12.0336 965 106.352 29.8466 474.109
2354 0 84.3351 11.7982 995 104.996 30.4593 475.806
2355 0 85.2678 11.9271 1017 106.579 29.943 473.491
2356 0 88.2394 13.2367 1168 104.806 30.1978 470.681
2357 0 92.4647 11.7667 1088 105.772 29.7298 468.379
2358 0 94.3087 11.8759 1120 106.706 29.3027 465.751
2359 0 93.5602 10.9341 1023 110.039 30.3021 463.438
2360 0 100.561 12.6292 1270 106.382 30.6953 462.345
2361 0 101.387 11.244 1140 109.331 30.0588 462.582
2362 0 105.419 11.7721 1241 109.38 30.6245 460.678
2363 0 106.289 12.4283 1321 109.515 30.5731 456.501
2364 0 109.418 11.9084 1303 110.437 30.6347 455.636
2365 0 115.388 12.0117 1386 109.835 30.7799 453.141
2366 0 118.472 10.9224 1294 113.012 30.7859 450.101
2367 0 125.264 12.3658 1549 108.938 30.8231 450.123
2368 0 128.442 11.5694 1486 111.118 31.2981 446.835
2369 1 71.6195 11.7845 844 111.181 32.4159 476.249
2370 0 74.4947 13.5983 1013 112.639 32.7098 475.784
2371 0 76.346 12.2076 932 117.194 32.8047 476.277
2372 0 79.4582 11.8679 943 117.082 33.2916 476.294
2373 0 81.5134 12.4765 1017 117.991 32.822 471.986
2374 0 85.5146 13.1556 1125 115.225 32.0453 473.102
2375 0 89.5419 13.5691 1215 114.605 32.0107 469.227
2376 0 90.632 12.81 1161 117.661 32.4367 467.908
2377 0 94.747 13.1719 1248 116.687 31.3534 465.929
2378 0 94.819 13.6576 1295 116.293 31.9552 465.308
2379 0 98.2139 13.827 1358 106.166 32.581 466.154
2380 0 100.416 11.4026 1145 112.71 32.5223 463.189
2381 0 103.263 12.1147 1251 112.595 33.0711 461.932
2382 0 106.348 10.5691 1124 115.284 33.0658 459.823
2383 0 111.342 11.2356 1251 113.409 33.0935 460.156
2384 0 114.482 12.5697 1439 112.246 32.5685 455.098
2385 0 115.331 10.9424 1262 116.788 33.2488 453.31
2386 0 120.476 12.6166 1520 112.914 32.8691 452.943
2387 0 126.273 12.275 1550 113.839 33.6142 451.948
2388 1 72.2343 12.2518 885 102.638 33.4226 478.319
2389 0 73.219 10.7349 786 106.275 33.173 477.349
2390 0 75.4108 12.0672 910 105.114 33.2582 476.449
2391 0 79.1246 12.79 1012 103.246 34.1729 475.136
2392 0 81.1106 13.611 1104 101.927 33.3714 475.985
2393 0 82.1019 12.4601 1023 105.849 33.6774 472.382
2394 0 87.1932 13.602 1186 103.513 32.7985 472.376
2395 0 88.3369 12.4523 1100 106.919 33.1345 471.481
2396 0 91.2543 13.5665 1238 105.543 33.1801 468.511
2397 0 92.1359 12.9157 1190 110.039 33.4529 466.256
2398 0 96.1288 12.7641 1227 110.826 33.6895 465.939
2399 0 99.1112 12.713 1260 111.31 33.8429 463.717
2400 0 102.163 12.3821 1265 112.281 33.2427 464.219
2401 0 104.174 12.1239 1263 114.053 32.9565 463.928
2402 0 107.24 11.9265 1279 118.307 33.3956 458.861
2403 0 109.318 11.1784 1222 118.878 33.3715 458.345
2404 0 111.279 12.1137 1348 119.648 33.4429 456.134
2405 0 117.225 12.4632 1461 118.056 33.2895 457.322
2406 0 120.382 12.2028 1469 118.916 32.6746 455.786
2407 0 126.308 13.4354 1697 115.715 33.5781 453.62
2408 0 127.381 14.1151 1798 115.799 33.1307 448.577
2409 0 132.306 13.1665 1742 118.97 33.4902 448.843
2410 0 137.513 13.1842 1813 119.423 33.1633 448.466
2411 1 79.2012 12.8533 1018 113.769 33.1297 477.142
2412 0 82.2 12.6156 1037 118.812 33.0694 474.926
2413 0 82.1765 12.2419 1006 125.114 32.8638 473.058
2414 0 85.1952 13.7566 1172 120.172 32.5461 473.072
2415 0 89.2272 13.191 1177 122.245 31.8003 470.404
2416 0 91.1221 14.4422 1316 120.809 31.174 468.723
2417 0 94.1491 13.7017 1290 125.527 31.2829 465.603
2418 0 97.1632 14.2338 1383 124.17 31.9176 466.398
2419 0 98.1792 13.3429 1310 128.434 31.8725 464.84
2420 0 101.235 14.6095 1479 124.66 32.2299 465.485
2421 0 103.178 14.0049 1445 129.49 32.0637 462.504
2422 0 109.221 14.0175 1531 127.509 32.2103 461.029
2423 0 111.186 13.6438 1517 128.524 32.0686 460.295
2424 0 116.142 13.2424 1538 129.161 32.5104 457.776
2425 0 114.221 12.2833 1403 129.482 31.9209 460.798
2426 0 119.218 12.7498 1520 127.217 32.2658 458.526
2427 0 125.295 15.2759 1914 119.954 32.0387 455.472
2428 1 73.1895 12.5018 915 120.987 31.6568 478.119
2429 0 73.271 10.5226 771 123.837 32.8392 471.297
2430 0 76.3699 13.0942 1000 116.279 32.581 475.199
2431 0 77.3662 11.5554 894 121.217 32.6834 473.516
2432 0 80.3722 13.1015 1053 118.582 32.6961 472.403
2433 0 84.296 12.6696 1068 119.027 32.1498 472.161
2434 0 87.3723 12.029 1051 121.113 31.5252 471.518
2435 0 90.3983 13.5401 1224 117.776 31.6912 468.457
2436 0 91.4133 13.4007 1225 118.532 31.9633 468.315
2437 0 96.2712 13.4516 1295 117.793 32.1127 466.951
2438 0 98.3832 14.2606 1403 117.269 31.7812 465.331
2439 0 98.4138 12.5287 1233 122.27 32.4234 465.389
2440 0 100.282 11.9563 1199 123.567 32.7865 462.083
2441 0 104.356 13.3773 1396 116.309 33.452 465.881
2442 0 106.474 13.2709 1413 118.919 33.242 461.953
2443 0 111.529 13.1983 1472 122.27 32.9389 458.033
2444 0 114.428 12.5668 1438 124.588 33.5257 458.026
2445 0 117.428 13.8894 1631 124.216 33.0196 450.024
2446 1 66.5059 10.8863 724 121.39 33.7583 482.109
2447 0 68.2223 11.9902 818 120.456 33.6907 477.577
2448 0 71.4366 12.9345 924 117.325 32.7132 478.203
2449 0 72.1236 12.9084 931 116.624 33.8099 480.443
2450 0 77.2297 13.2333 1022 115.049 34.229 480.421
2451 0 78.1997 12.532 980 118.624 34.3918 477.212
2452 0 82.1998 12.2385 1006 119.746 34.0129 477.273
2453 0 83.2656 13.1507 1095 119.211 34.1553 474.935
2454 0 87.2721 12.9595 1131 120.138 34.2599 474.438
2455 0 90.4237 12.541 1134 121.295 34.2178 472.34
2456 0 93.4664 13.5236 1264 120.527 34.6218 469.826
2457 0 97.3586 12.911 1257 122.842 34.1042 465.211
2458 0 98.389 13.4974 1328 123.088 33.3592 464.757
2459 1 51.2778 10.3944 533 126.295 33.1295 488.659
2460 0 52.2964 11.3583 594 125.278 33.3401 487.178
2461 0 55.4685 12.4034 688 121.403 33.0756 486.003
2462 0 56.4065 12.6936 716 120.045 32.7835 483.823
2463 0 58.2956 13.0542 761 119.524 33.0105 482.679
2464 0 61.6833 13.2451 817 118.214 33.2742 482.592
2465 0 64.3544 13.5966 875 122.72 33.4149 487.518
2466 0 65.524 12.896 845 129.867 33.1846 481.001
2467 0 66.3263 12.7702 847 125.341 32.8418 483.038
2468 0 70.3907 13.212 930 123.453 33.1355 482.32
2469 0 71.5311 14.1197 1010 120.955 32.7693 480.497
2470 0 71.3952 13.8105 986 123.045 33.2515 478.731
2471 0 74.3914 12.6762 943 125.238 33.0276 477.002
2472 0 75.3998 12.7189 959 123.862 32.8957 475.266
2473 0 80.5645 13.5295 1090 120.061 33.4009 475.348
2474 0 81.3928 13.1093 1067 122.522 33.4124 473.097
2475 0 84.6851 13.9576 1182 120.559 32.7944 471.747
2476 0 87.6764 13.6411 1196 121.209 33.3094 469.69
2477 0 91.5198 14.0844 1289 119.115 33.5244 469.355
2478 0 91.4139 14.0788 1287 121.42 33.1671 467.667
2479 0 94.6329 14.6778 1389 120.428 33.216 466.442
2480 0 95.487 13.981 1335 123.682 33.1303 464.679
2481 0 100.455 13.6379 1370 124.597 33.1358 464.77
2482 0 104.573 13.3208 1393 125.346 32.9031 463.687
2483 0 107.638 12.895 1388 127.777 32.7414 460.448
2484 1 61.4643 12.3324 758 128.93 32.4604 484.342
2485 0 63.2871 13.2729 840 128.187 33.0607 482.383
2486 0 65.8299 13.5805 894 127.304 33.2405 478.434
2487 0 68.2101 13.9129 949 124.429 32.7007 479.367
2488 0 71.2138 14.9269 1063 121.135 33.0414 477.729
2489 0 70.3263 14.0346 987 126.742 33.0314 475.991
2490 0 74.3828 13.7397 1022 126.831 32.2994 474.829
2491 0 78.2683 14.5525 1139 123.947 32.5022 474.053
2492 0 80.3533 14.5234 1167 125.024 33.12 474.561
2493 0 82.3194 13.3869 1102 128.716 33.1624 474.122
2494 0 83.518 13.4223 1121 130.082 32.876 472.495
2495 0 87.5521 13.9346 1220 128.87 32.9836 469.82
2496 0 89.5592 14.5602 1304 128.217 32.7661 468.181
2497 0 92.5344 13.4004 1240 131.624 32.9153 467.894
2498 0 94.4902 15.0068 1418 128.855 32.6354 464.15
2499 0 98.4336 14.365 1414 130.419 33.4851 463.224
2500 0 102.711 14.5748 1497 130.574 33.4529 461.422
2501 0 105.634 14.1337 1493 132.015 33.0188 462.529
2502 0 110.627 15.376 1701 132.374 33.3586 458.541
2503 1 52.423 13.2957 697 141.707 32.7073 483.587
2504 0 57.5331 14.5655 838 135.937 32.4248 482.578
2505 0 58.3317 14.7433 860 135.545 32.8035 482.529
2506 0 59.59 15.1032 900 135.417 32.8622 482.589
2507 0 61.5402 15.4208 949 136.636 32.5964 479.241
2508 0 63.6217 15.6079 993 136.924 32.5458 479.498
2509 0 67.4796 15.3676 1037 136.122 32.9267 479.259
2510 0 69.5653 15.3381 1067 137.442 32.9231 478.582
2511 0 69.3539 15.2118 1055 140.425 33.236 478.093
2512 0 72.3687 15.2552 1104 140.757 32.8143 476.432
2513 0 74.4097 15.3878 1145 141.595 33.1197 475.196
2514 0 77.5439 15.8749 1231 140.898 33.6548 474.778
2515 0 79.4272 15.4607 1228 143.364 33.5407 473.305
2516 0 81.5246 16.5594 1350 141.966 33.3222 470.79
2517 0 83.41 15.7655 1315 144.823 33.4905 469.524
2518 0 84.4502 16.1042 1360 145.561 33.7074 469.76
2519 0 89.593 16.2401 1455 144.044 33.4873 468.532
2520 0 89.4975 15.5982 1396 149.299 33.2342 466.851
2521 0 92.4478 16.2145 1499 146.649 33.066 465.869
2522 0 97.4281 16.8329 1640 144.184 33.8146 464.474
2523 0 100.654 15.131 1523 149.783 33.8608 463.652
2524 0 103.701 15.5158 1609 149.236 33.9664 462.272
2525 0 106.661 15.8071 1686 149.232 34.0979 460.684
2526 0 110.602 16.2384 1796 148.07 34.0267 457.477
2527 0 115.657 15.2866 1768 147.084 34.4598 457.475
2528 1 59.3614 14.7739 877 148.331 34.2189 482.152
2529 0 59.4063 14.4261 857 151.246 34.252 481.376
2530 0 62.3884 13.993 873 153.143 34.5109 478.872
2531 0 67.3734 15.377 1036 147.773 34.5058 477.255
2532 0 69.6387 14.5465 1013 149.465 34.9447 475.694
2533 0 74.4063 15.2541 1135 146.035 34.6767 473.667
2534 0 72.4668 14.1582 1026 151.678 34.5526 473.301
2535 0 75.3482 14.8909 1122 150.545 35.057 470.072
2536 0 79.5747 14.7032 1170 149.082 34.8821 470.889
2537 0 81.4279 14.9457 1217 148.668 34.9219 468.763
2538 0 82.5345 14.6484 1209 150.318 34.8974 467.536
2539 0 85.3907 15.1539 1294 148.293 34.7504 466.497
2540 0 87.5733 15.3243 1342 148.361 34.4232 464.448
2541 0 92.4728 16.2426 1502 143.684 34.5113 462.521
2542 0 95.5239 15.4307 1474 146.309 34.5482 459.833
2543 0 99.3113 15.7988 1569 143.659 34.3531 459.721
2544 0 102.928 15.1368 1558 145.583 34.138 457.016
2545 0 104.354 14.7574 1540 146.984 34.5273 455.339
2546 0 110.502 15.2215 1682 142.891 34.7122 454.524
2547 0 113.255 15.0811 1708 144.342 34.9204 451.283
2548 0 118.36 15.3937 1822 141.273 34.8979 452.066
2549 0 124.311 15.429 1918 140.417 34.4103 449.91
2550 0 127.326 15.3778 1958 140.986 34.9106 445.198
2551 0 131.299 15.9712 2097 138.965 34.5746 443.561
2552 0 135.534 15.3762 2084 140.386 34.2059 442.159
2553 0 141.377 16.3887 2317 135.95 34.2218 437.711
2554 0 146.282 15.2787 2235 137.274 34.7324 436.615
2555 0 149.481 15.0587 2251 137.18 34.6495 435.106
2556 1 82.1962 13.3948 1101 133.039 34.7784 469.67
2557 0 84.3058 12.3123 1038 137.115 34.2553 467.524
2558 0 87.2106 14.1497 1234 132.802 34.6451 463.662
2559 0 91.2461 14.4664 1320 131.53 34.4894 462.819
2560 0 93.2161 13.8388 1290 133.121 34.0411 461.265
2561 0 96.1267 13.8567 1332 133.073 34.4444 459.469
2562 0 101.093 14.8972 1506 128.959 34.7888 457.288
2563 0 105.17 14.7285 1549 128.39 34.0975 456.466
2564 0 108.152 14.1375 1529 130.608 34.223 452.931
2565 0 114.141 14.412 1645 127.884 34.2596 451.408
2566 0 117.097 14.1848 1661 129.312 34.4094 446.762
2567 0 122.119 14.2893 1745 127.425 34.0762 447.203
2568 1 72.1353 9.05244 653 121.43 34.7443 473.729
2569 0 73.0678 10.4834 766 120.787 34.6358 470.953
2570 0 78.1168 11.5212 900 116.002 35.01 470.738
2571 0 80.1199 11.5452 925 117.303 34.2508 466.699
2572 0 83.0535 12.0765 1003 117.076 34.672 467.318
2573 0 84.1672 11.7148 986 119.235 34.7079 462.971
2574 0 86.106 11.4394 985 122.957 35.0406 464.086
2575 0 91.1237 12.0057 1094 120.605 34.7916 462.863
2576 0 95.1264 12.373 1177 116.772 35.3084 461.291
2577 0 97.2566 10.8476 1055 121.105 35.2493 458.695
2578 0 99.1089 11.442 1134 119.43 35.0115 459.189
2579 0 104.218 11.5143 1200 119.982 35.3325 456.835
2580 0 108.161 11.6955 1265 119.79 35.3043 453.049
2581 0 114.14 12.362 1411 116.21 34.8051 455.341
2582 0 114.207 11.987 1369 120.256 34.9854 449.685
2583 0 119.161 11.388 1357 120.071 35.7148 449.849
2584 0 125.239 13.3505 1672 115.524 35.872 444.682
2585 0 128.142 11.0814 1420 121.813 35.0662 441.923
2586 0 131.184 10.9465 1436 123.092 34.9492 437.565
2587 0 139.229 11.9731 1667 119.614 34.8188 437.358
2588 1 83.2107 9.74635 811 108.064 35.4303 469.719
2589 0 84.1187 9.27262 780 111.535 34.9385 465.632
2590 0 88.1363 9.29243 819 113.121 35.2613 462.354
2591 0 91.2535 10.2243 933 112.64 35.239 464.98
2592 0 92.3331 10.3646 957 114.495 34.9864 462.285
2593 0 97.2885 9.98062 971 116.187 35.3831 461.438
2594 0 103.282 10.7666 1112 123.187 35.2158 457.483
2595 0 104.327 11.0901 1157 123.521 35.5713 455.818
2596 0 106.486 11.2972 1203 123.884 35.9834 456.831
2597 0 110.598 11.0219 1219 125.536 35.9836 453.003
2598 0 111.372 11.5918 1291 126.089 35.6685 450.472
2599 0 115.63 11.7617 1360 125.521 35.4419 451.342
2600 0 121.547 11.9954 1458 124.473 35.308 449.834
2601 0 123.477 11.411 1409 125.983 35.3861 447.702
2602 0 125.404 11.9693 1501 125.108 35.3178 444.328
2603 0 131.46 11.8744 1561 125.322 35.198 441.581
2604 0 135.406 11.6686 1580 125.655 34.9741 439.176
2605 0 140.31 11.8452 1662 124.616 35.0836 435.804
2606 1 79.1543 9.62677 762 106.898 36.0328 474.797
2607 0 76.1449 8.4707 645 112.095 35.6233 466.341
2608 0 82.2067 11.094 912 105.817 35.0954 467.441
2609 0 82.0892 9.95259 817 110.616 35.9033 468.601
2610 0 85.0844 9.76678 831 110.673 34.3369 467.615
2611 0 90.0988 9.77815 881 113.091 34.5823 466.617
2612 0 91.2326 9.73336 888 116.539 34.5923 463.526
2613 0 95.1979 11.2397 1070 113.4 34.5093 463.42
2614 0 94.2234 9.97629 940 116.911 34.4394 457.747
2615 0 100.296 11.5259 1156 113.963 35.7889 456.257
2616 0 101.45 11.1483 1131 114.369 35.7206 458.047
2617 0 101.306 10.9273 1107 119.445 35.365 452.638
2618 0 106.33 10.9658 1166 114.337 36.1432 456.012
2619 0 112.351 11.4285 1284 114.749 35.7235 450.876
2620 0 112.456 10.6175 1194 117.339 35.3099 450.415
2621 0 115.4 10.9706 1266 118.622 34.3594 448.748
2622 0 121.536 12.4573 1514 113.975 34.8428 449.948
2623 0 124.356 11.459 1425 117.246 34.6119 449.43
2624 0 128.469 11.5047 1478 118.495 34.4323 444.819
2625 0 132.473 12.9234 1712 115.471 33.9136 443.342
2626 0 134.507 11.7095 1575 118.796 33.8927 439.756
2627 0 142.326 12.7313 1812 115.254 33.3918 441.933
2628 0 142.465 12.8804 1835 117.38 33.7401 437.965
2629 0 149.568 13.7797 2061 115.274 33.5206 435.532
2630 0 152.567 13.0172 1986 118.043 33.5428 430.983
2631 1 87.3571 9.879 863 107.009 33.7289 469.463
2632 0 91.3823 10.5491 964 106.325 33.499 468.49
2633 0 93.2852 11.2772 1052 106.708 34.4097 466.258
2634 0 96.0812 11.8025 1134 109.666 35.0732 467.917
2635 0 98.0974 11.5599 1134 110.394 34.9444 468.153
2636 0 100.196 12.5254 1255 109.116 34 464.534
2637 0 103.18 11.6496 1202 111.484 34.3777 463.316
2638 0 106.425 12.0272 1280 110.337 34.3375 459.79
2639 0 109.326 11.5069 1258 112.473 34.1264 458.316
2640 0 113.424 12.2549 1390 110.519 33.7806 458.378
2641 0 113.252 12.2028 1382 111.977 33.856 455.503
2642 0 117.476 11.4407 1344 112.948 33.247 456.812
2643 0 118.37 10.8304 1282 115.743 33.5195 453.196
2644 0 123.378 11.4931 1418 114.991 33.5141 452.196
2645 0 127.361 11.4321 1456 115.92 33.3207 449.315
2646 0 132.288 13.3421 1765 111.45 32.6895 448.555
2647 0 136.3 12.876 1755 112.678 32.1783 446.149
2648 1 79.2862 10.9729 870 105.46 33.0621 478.713
2649 0 82.1379 11.505 945 103.354 32.8085 478.929
2650 0 84.1955 12.9104 1087 101.814 32.873 476.18
2651 0 87.2078 12.2466 1068 103.414 33.0075 475.648
2652 0 89.1878 12.2887 1096 105.149 32.4854 472.509
2653 0 92.2247 12.7948 1180 104.519 33.072 472.631
2654 0 95.2963 12.9176 1231 105.076 33.2234 472.076
2655 0 95.2307 11.2989 1076 110.559 32.5697 469.212
2656 0 101.337 12.6904 1286 107.885 32.7862 468.367
2657 0 103.33 12.281 1269 110.51 32.881 466.284
2658 0 105.252 12.1232 1276 111.505 33.2414 464.076
2659 0 110.258 11.8177 1303 111.516 33.1827 464.229
2660 0 112.225 12.4036 1392 112.93 33.5251 459.851
2661 0 117.367 12.3033 1444 112.532 33.0679 459.661
2662 0 120.435 12.7704 1538 112.655 32.5267 458.604
2663 1 71.1881 11.9542 851 104.623 33.8061 484.323
2664 0 71.3739 11.811 843 106.227 33.8327 482.223
2665 0 73.2839 12.09 886 104.306 33.6185 481.842
2666 0 76.2132 13.2785 1012 103.766 33.5425 482.491
2667 0 79.222 13.2918 1053 103.337 33.7047 478.603
2668 0 81.2378 12.8635 1045 104.672 33.2708 475.405
2669 0 85.3445 13.8615 1183 101.009 33.6796 475.682
2670 0 85.3876 12.4257 1061 105.192 33.4373 475.398
2671 0 87.322 12.5971 1100 105.065 33.6091 472.607
2672 0 91.3203 12.7792 1167 104.3 33.3787 468.065
2673 0 94.3222 12.3407 1164 106.048 32.921 468.839
2674 0 98.26 13.9833 1374 102.592 33.6689 469.386
2675 0 100.257 14.2035 1424 103.719 33.2928 465.788
2676 0 103.248 13.3466 1378 105.258 33.4557 465.821
2677 0 108.326 14.0502 1522 102.918 33.3193 464.719
2678 1 57.0979 11.2088 640 107.864 33.3172 486.278
2679 0 59.3366 11.8814 705 104.261 32.9021 483.685
2680 0 60.2601 11.7989 711 106.488 33.339 488.377
2681 0 65.1643 12.4148 809 104.216 33.5229 487.496
2682 0 64.3017 12.4725 802 106.188 33.7594 485.074
2683 0 65.1448 12.8636 838 106.474 33.3687 483.191
2684 0 65.1351 12.1593 792 109.215 33.0732 485.645
2685 0 70.2389 13.3829 940 105.113 32.5362 482.816
2686 0 71.2825 13.1729 939 106.689 32.4941 481.038
2687 0 73.2963 12.7292 933 107.857 32.3816 481.842
2688 0 75.361 12.5529 946 109.312 32.3372 480.534
2689 0 79.4705 14.886 1183 103.988 32.3601 478.109
2690 0 81.4023 13.8817 1130 106.472 32.2292 478.172
2691 0 83.3484 14.6254 1219 105.815 32.7416 475.895
2692 0 84.2372 13.4501 1133 111.305 33.0485 475.194
2693 0 86.2815 13.5487 1169 112.613 33.2318 474.476
2694 0 89.2054 14.0238 1251 112.246 32.5915 472.208
2695 0 93.2337 14.0614 1311 116.791 32.5347 469.728
2696 0 95.2535 14.5192 1383 116.279 32.9262 470.39
2697 0 98.5063 13.9077 1370 118.164 33.0401 467.534
2698 0 100.435 13.2424 1330 121.422 32.9474 467.163
2699 0 104.476 13.4672 1407 121.795 32.7619 465.99
2700 0 108.304 14.5608 1577 120.183 33.0888 464.495
2701 0 109.368 13.3769 1463 125.525 33.1032 462.829
2702 0 113.289 14.3704 1628 123.973 33.3661 460.5
2703 0 118.315 14.7572 1746 122.219 33.3494 461.738
2704 0 116.189 14.3645 1669 120.155 33.6297 459.67
2705 0 120.127 13.8187 1660 122.393 33.2849 459.939
2706 0 124.21 13.4369 1669 122.961 33.2295 457.946
2707 0 130.155 14.1293 1839 121.486 32.87 455.305
2708 0 133.344 13.4164 1789 124.032 32.4013 455.079
2709 0 139.274 14.712 2049 120.235 33.2118 451.834
2710 0 143.218 14.7886 2118 120.737 32.6506 448.06
2711 1 80.0955 12.2978 985 128.68 32.8213 477.923
2712 0 82.1381 12.5033 1027 127.081 32.5297 477.246
2713 0 85.123 13.0517 1111 126.677 31.8677 476.444
2714 0 89.1707 13.4125 1196 127.818 32.505 472.732
2715 0 92.2921 14.5516 1343 125.94 32.7699 469.616
2716 0 94.2618 13.9187 1312 129.002 32.4078 471.082
2717 0 99.0904 14.9157 1478 123.624 33.0704 468.252
2718 0 101.133 15.4845 1566 117.653 32.1124 467.96
2719 0 105.07 15.4469 1623 117.164 31.7486 463.548
2720 0 107.243 13.9589 1497 122.171 33.1409 461.912
2721 0 112.095 14.6662 1644 119.412 32.5505 462.332
2722 0 115.181 16.5478 1906 113.901 32.5037 461.389
2723 0 116.152 15.0148 1744 119.825 32.3102 457.264
2724 0 120.153 14.057 1689 120.874 31.865 458.279
2725 0 124.146 13.8225 1716 121.72 31.8409 456.363
2726 0 129.34 15.3549 1986 117.999 31.6264 452.408
2727 0 132.202 13.9862 1849 124.078 32.133 449.6
2728 0 136.172 14.4303 1965 123.817 32.37 448.622
2729 0 141.154 13.8643 1957 126.294 31.8697 446.276
2730 0 146.279 14.1237 2066 125.913 32.4337 444.396
2731 0 152.195 13.9361 2121 126.792 32.0688 440.279
2732 1 81.0687 13.3097 1079 127.218 32.0677 470.063
2733 0 83.1859 12.8147 1066 129.116 32.5441 468.395
2734 0 87.1252 13.7159 1195 126.536 32.6033 465.807
2735 0 89.1376 14.8759 1326 124.309 32.0852 462.325
2736 0 93.1375 15.6006 1453 121.796 32.5822 461.971
2737 0 95.0553 15.1491 1440 123.833 32.3007 461.252
2738 0 99.1382 14.8782 1475 123.804 32.419 461.648
2739 0 100.077 15.4182 1543 124.054 32.6643 459.206
2740 0 105.168 14.0347 1476 127.315 33.0386 457.291
2741 0 105.112 14.5274 1527 126.582 33.7479 457.189
2742 0 109.167 15.1878 1658 124.564 33.5935 455.744
2743 0 112.148 15.2744 1713 123.846 33.3654 456.437
2744 0 117.122 15.5308 1819 122.606 33.3441 451.098
2745 0 119.087 15.8288 1885 121.369 33.8918 451.798
2746 0 122.154 15.767 1926 121.797 34.568 448.388
2747 0 126.125 16.1507 2037 120.452 34.3004 449.576
2748 0 131.236 15.9026 2087 121.28 34.6694 445.602
2749 1 75.118 13.2991 999 125.049 34.2583 472.758
2750 0 77.1885 13.7715 1063 119.687 34.0931 471.607
2751 0 79.1623 14.7671 1169 116.831 34.1437 470.636
2752 0 82.2206 15.276 1256 114.194 34.8177 468.94
2753 0 84.0851 14.9254 1255 116.729 34.6916 466.212
2754 0 86.1525 14.5788 1256 117.21 34.3272 463.979
2755 0 89.1862 15.6078 1392 113.458 34.4583 465.491
2756 0 92.1626 14.941 1377 116.394 33.9405 460.712
2757 0 95.1155 14.5087 1380 117.27 34.642 460.395
2758 0 99.1882 15.3849 1526 113.839 34.675 460.071
2759 0 101.267 15.0494 1524 115.251 34.4777 458.091
2760 0 102.202 14.7844 1511 118.17 33.6115 454.9
2761 0 107.163 14.8932 1596 116.847 33.8139 453.266
2762 0 111.155 15.0421 1672 116.292 35.2937 451.853
2763 0 115.102 15.5427 1789 115.676 34.5875 450.767
2764 0 117.114 14.8146 1735 118.581 33.9896 448.19
2765 0 121.138 14.372 1741 120.25 34.4113 445.103
2766 1 63.099 12.3298 778 126.373 34.2751 476.315
2767 0 67.0406 14.081 944 121.567 34.4725 473.01
2768 0 69.0806 13.202 912 123.927 34.1831 473.218
2769 0 73.0395 14.9645 1093 118.99 34.4575 471.816
2770 0 73.1736 14.5544 1065 123.052 34.2009 469.355
2771 0 78.3697 15.5928 1222 118.732 34.6637 468.592
2772 0 80.1586 15.8311 1269 118.755 33.9433 467.489
2773 0 82.2477 14.8089 1218 121.73 33.9975 467.709
2774 0 84.1339 15.0474 1266 121.69 33.9439 464.723
2775 0 85.0568 14.6255 1244 123.783 34.1141 463.699
2776 0 88.1445 14.1472 1247 125.45 33.6816 462.617
2777 0 91.1442 14.7678 1346 122.923 33.9391 463.079
2778 0 94.3195 14.3661 1355 124.268 34.4347 460.516
2779 0 97.2878 14.9659 1456 122.656 33.9835 459.113
2780 0 100.458 15.29 1536 121.085 33.8457 457.527
2781 0 103.226 15.4322 1593 120.143 33.7426 454.743
2782 0 106.3 14.4308 1534 123.294 33.7295 454.385
2783 0 109.318 14.7735 1615 121.978 34.1307 452.882
2784 0 113.333 14.9294 1692 121.322 33.8647 450.847
2785 0 118.532 15.8691 1881 118.125 33.8012 448.008
2786 0 120.538 14.875 1793 121.644 33.6754 446.813
2787 0 125.506 15.6487 1964 119.138 33.557 443.52
2788 0 129.552 15.6617 2029 119.341 33.48 442.612
2789 0 133.618 14.5489 1944 121.666 33.8544 441.085
2790 0 136.393 14.5168 1980 122.196 33.997 439.29
2791 0 140.736 13.941 1962 123.158 33.0387 438.688
2792 0 146.745 15.0874 2214 121.359 33.3369 432.234
2793 0 149.806 14.4187 2160 125.075 33.2259 433.257
2794 0 156.836 15.2516 2392 122.304 33.2408 430.537
2795 0 161.631 14.3475 2319 124.513 33.2734 428.591
2796 0 164.859 15.31 2524 123.371 32.7563 423.465
2797 0 171.687 15.5573 2671 122.784 32.7589 420.154
2798 0 173.816 14.9124 2592 125.049 32.7828 418.757
2799 0 181.975 14.7603 2686 125.605 32.8656 415.753
2800 0 186.747 15.1274 2825 125.729 32.2283 411.002
2801 1 199.773 20.6685 4129 107.441 32.8898 402.225
2802 0 202.426 18.634 3772 114.011 32.5087 394.795
2803 1 241.945 21.943 5309 95.4374 33.3515 370.703
2804 0 242.934 24.0765 5849 93.8861 33.358 374.644
2805 0 239.569 19.6394 4705 106.302 32.8999 377.273
2806 0 239.578 22.74 5448 101.55 33.2783 373.247
2807 0 240.599 20.7066 4982 108.865 32.8846 374.339
2808 1 171.511 14.0225 2405 130.795 32.6233 420.157
2809 0 179.659 14.4774 2601 129.997 32.9681 416.403
2810 0 186.529 15.4935 2890 126.699 33.0228 415.292
2811 0 193.585 15.9827 3094 126.333 33.1173 411.074
2812 0 197.991 14.2027 2812 132.253 32.5644 407.291
2813 0 206.563 14.8284 3063 130.01 32.8821 404.726
2814 0 216.835 15.5602 3374 127.806 32.6221 398.53
2815 0 224.952 14.7009 3307 129.092 31.9338 398.875
2816 0 232.66 15.6881 3650 127.043 32.4693 393.09
2817 0 239.69 15.2405 3653 129.076 32.3332 390.798
2818 0 248.609 14.5731 3623 130.672 32.7541 384.62
2819 1 306.229 22.7183 6957 98.5609 32.6963 348.596
2820 0 306.931 22.3829 6870 101.316 33.1923 349.221
2821 1 213.571 13.0448 2786 134.551 32.7118 401.299
2822 0 217.458 13.7682 2994 133.062 33.5721 398.843
2823 0 226.609 14.4037 3264 130.616 33.4556 389.96
2824 0 238.562 14.7886 3528 128.656 33.591 388.67
2825 0 247.471 15.0563 3726 127.374 33.7912 387.414
2826 0 375.475 24.8379 9326 94.6325 33.4485 306.106
2827 0 374.907 27.8469 10440 90.5164 33.107 302.32
2828 0 373.835 22.6062 8451 101.548 33.2519 304.305
2829 1 312.513 9.34041 2919 132.818 33.3601 389.813
2830 0 312.629 22.1541 6926 104.222 33.2509 342.453
2831 0 321.611 19.8563 6386 112.497 32.1907 347.208
2832 0 325.844 17.6403 5748 122.033 32.1841 341.876
2833 0 343.662 22.6705 7791 107.116 32.3403 324.103
2834 1 275.477 15.2717 4207 130.396 32.2679 374.688
2835 0 284.565 14.8718 4232 129.747 32.4915 366.97
2836 0 296.72 15.6477 4643 126.918 32.5023 365.514
2837 1 67.3751 9.52874 642 115.88 33.0607 472.472
2838 0 68.3057 8.24235 563 118.728 33.3197 473.181
2839 0 73.281 12.0632 884 109.128 33.5113 477.59
2840 0 71.3009 10.4908 748 115.381 33.4064 477.932
2841 0 74.1162 12.1701 902 113.001 33.0322 476.106
2842 0 73.3325 10.9229 801 116.65 33.2759 476.313
2843 0 75.1919 12.6343 950 115.337 33.4084 475.183
2844 0 76.2801 11.5364 880 118.506 33.8375 475.995
2845 0 76.1621 10.9635 835 121.238 33.3138 475.905
2846 0 76.2648 11.9059 908 120.258 33.4604 475.572
2847 0 76.4209 11.5675 884 122.398 32.9921 474.09
2848 0 80.3528 13.3412 1072 117.409 32.7425 475.361
2849 0 83.227 15.1033 1257 111.323 32.6253 471.416
2850 0 83.3315 15.8644 1322 108.548 32.5469 470.263
2851 0 83.2832 16.642 1386 107.125 33.6111 470.113
2852 0 90.1448 17.0171 1534 103.186 32.9987 466.547
2853 0 90.2519 17.4179 1572 103.238 32.9765 466.494
2854 0 88.2954 15.6747 1384 111.327 32.6886 469.35
2855 0 83.2852 14.4443 1203 119.715 32.9909 470.889
2856 0 82.301 12.8552 1058 126.196 33.1711 472.44
2857 0 82.1781 13.1909 1084 128.319 32.5563 470.169
2858 0 81.2431 12.0872 982 132.978 32.8208 469.692
2859 0 82.2384 14.1053 1160 131.778 32.6129 472.598
2860 0 82.1956 13.0664 1074 132.16 33.1946 471.369
2861 0 82.2282 12.6234 1038 133.432 32.6166 472.543
2862 0 85.4196 13.4161 1146 129.647 32.5462 472.934
2863 0 86.2588 14.0855 1215 127.054 33.1827 473.064
2864 0 84.2413 13.1764 1110 131.687 32.7685 472.693
2865 0 84.2905 12.0535 1016 136.255 33.4331 469.374
2866 0 86.2874 14.7994 1277 127.545 32.5309 470.63
2867 0 84.1328 12.7418 1072 134.491 32.8526 470.861
2868 0 85.3531 12.8291 1095 134.035 33.3936 472.045
2869 0 88.2638 15.0231 1326 127.459 32.8356 470.771
2870 0 85.5153 13.0737 1118 135.333 32.5268 469.518
2871 0 87.3678 12.3501 1079 137.27 32.5542 469.822
2872 0 87.291 13.5753 1185 133.249 31.9435 470.043
2873 0 85.2444 11.4025 972 139.995 32.3642 469.364
2874 0 87.2747 12.1341 1059 138.072 32.0264 469.168
2875 0 87.4584 12.566 1099 136.138 32.6752 469.808
2876 0 89.2882 13.1596 1175 136.586 32.1668 469.071
2877 0 87.3662 13.2088 1154 138.088 33.0355 468.386
2878 0 88.4017 12.7034 1123 139.961 32.4657 467.84
2879 0 89.3127 12.014 1073 139.68 32.2078 469.764
2880 0 90.3943 12.2795 1110 139.216 32.6982 467.93
2881 0 89.2801 13.5865 1213 136.719 32.2679 467.702
2882 0 89.3042 13.6948 1223 136.564 32.3377 467.101
2883 0 88.2429 11.7857 1040 140.624 32.6769 468.124
2884 0 89.206 12.6785 1131 138.767 32.2272 466.821
2885 0 89.2426 13.3681 1193 137.217 32.5348 466.676
2886 0 91.2928 13.1226 1198 136.687 32.7179 466.807
2887 0 90.3425 12.4526 1125 138.126 32.8889 467.684
2888 0 90.2299 13.6983 1236 135.538 33.2379 466.32
2889 0 90.3162 13.2756 1199 131.812 33.0217 465.239
2890 1 78.188 12.163 951 113.863 32.9947 458.844
2891 0 80.2361 12.7748 1025 109.899 32.9512 462.36
2892 0 79.2553 12.0118 952 110.556 32.9937 460.36
2893 0 78.12 11.6488 910 114.57 33.2582 452.556
2894 0 80.1067 13.9065 1114 106.904 32.9282 453.19
2895 0 78.1796 13.0085 1017 109.767 32.7709 451.579
2896 0 80.1219 12.9178 1035 108.246 33.2203 453.639
2897 0 79.1675 12.6567 1002 107.947 33.0828 451.135
2898 0 79.1278 11.9048 942 108.929 33.3737 452.887
2899 0 77.2077 12.3692 955 107.618 32.9236 451.076
2900 0 79.1073 13.3995 1060 103.937 33.1113 454.216
2901 0 78.0999 12.612 985 105.368 33.8447 452.407
2902 0 78.1501 13.4357 1050 103.707 33.6686 453.382
2903 0 80.1824 13.5566 1087 99.1582 33.0929 453.185
2904 0 78.1202 12.6216 986 101.358 33.5446 452.162
2905 0 79.1308 12.5994 997 100.885 33.3531 451.77
2906 0 80.3414 14.8367 1192 95.3054 34.0134 451.346
2907 0 79.1908 13.2591 1050 99.8267 33.4533 451.002
2908 0 75.2282 12.0434 906 103.852 33.1921 451.442
2909 0 77.0923 12.4137 957 102.469 33.6499 451.715
2910 0 78.1347 13.8223 1080 98.3898 33.3093 451.931
2911 0 78.2012 12.6724 991 102.058 33.2815 451.732
2912 0 76.0793 13.4728 1025 101.042 33.361 452.832
2913 0 78.1611 14.0991 1102 97.588 33.3503 452.162
2914 0 77.1951 12.4749 963 101.514 33.188 453.641
2915 0 76.1436 11.9774 912 102.836 32.9726 449.894
2916 0 78.1428 12.6819 991 100.627 32.778 449.354
2917 0 78.0972 13.624 1064 100.086 33.7227 451.976
2918 0 75.1654 13.0911 984 102.136 33.2317 451.212
2919 0 78.1162 14.3248 1119 97.8543 33.597 453.256
2920 0 78.1586 12.8585 1005 101.15 32.8786 453.158
2921 0 78.0823 13.9596 1090 98.444 33.5991 452.75
2922 0 75.22 14.0122 1054 98.6423 33.0323 448.048
2923 0 76.1067 13.5074 1028 99.8979 33.4611 451.248
2924 0 75.0857 12.1594 913 102.786 33.2081 451.83
2925 0 77.1212 13.2389 1021 99.666 33.5749 450.975
2926 0 76.0968 12.0504 917 102.144 33.7808 449.316
2927 0 74.2245 12.0715 896 101.162 33.4252 446.685
2928 1 31.0377 4.34954 135 99.2593 34.3704 471.793
2929 0 34.0246 5.02577 171 97.1228 34.2222 473.058
2930 0 27.0422 3.99376 108 98.9815 34.2037 474.954
2931 0 37.012 7.37599 273 92.4652 34.7326 473.868
