time division length width area intensity CMx CMy
0 0 52.0264 12.5129 651 133.395 575.948 477.969
1 0 52.0641 12.062 628 136.712 576.299 476.815
2 1 26.0128 11.5712 301 136.97 576.645 488.615
3 0 25.0046 10.1981 255 140.976 575.553 488.929
4 0 27.0056 11.9975 324 134.679 576.506 489.191
5 0 28.0584 11.975 336 134.369 576.446 488.08
6 0 29.014 11.8219 343 133.787 576.286 488.848
7 0 30.0068 12.8971 387 129.287 575.755 488.574
8 0 30.0487 13.6778 411 126.321 575.29 487.521
9 0 32.0705 12.722 408 131.892 575.365 488.113
10 0 32.0582 12.5085 401 130.783 575.596 487.973
11 0 33.0386 14.5285 480 124.102 575.731 487.988
12 0 35.2009 13.2667 467 126.39 575.454 487.666
13 0 36.0477 14.0647 507 124.108 575.635 488.053
14 0 34.1853 13.1343 449 130.895 575.713 488.098
15 0 35.0483 13.2674 465 130.529 575.288 488.103
16 0 37.1431 13.4615 500 128.006 575.438 488.422
17 0 38.0752 13.1844 502 128.43 575.472 488.717
18 0 39.1622 14.1974 556 125.511 574.504 487.304
19 0 40.2048 14.0531 565 125.382 575.181 487.163
20 0 41.0462 14.3741 590 125.383 574.808 486.49
21 0 43.0235 13.2253 569 128.084 574.543 487.548
22 0 43.033 13.571 584 128.784 574.366 486.705
23 0 43.0647 13.8861 598 129.353 574.291 486.508
24 0 46.0437 13.813 636 126.162 574.355 486.278
25 0 47.0445 13.838 651 125.034 574.719 485.343
26 0 49.0652 15.9991 785 119.955 574.037 484.652
27 0 50.0857 14.2356 713 124.893 574.265 484.143
28 0 50.0751 14.1787 710 126.323 574.144 484.523
29 0 53.0878 14.4478 767 123.973 573.525 482.554
30 0 56.0442 14.328 803 123.767 573.493 482.782
31 0 56.0543 14.6822 823 123.995 573.001 482.853
32 0 59.1484 15.6048 923 121.924 573.199 481.4
33 0 60.1634 16.1228 970 121.861 572.49 480.282
34 0 61.0697 15.0156 917 127.027 572.678 479.429
35 0 64.0513 15.3627 984 125.703 572.771 478.043
36 0 65.1332 14.5241 946 130.475 572.94 477.979
37 0 69.0822 15.6191 1079 127.222 572.628 475.939
38 0 70.1271 15.4434 1083 129.747 572.548 474.33
39 0 73.2162 15.5976 1142 130.704 572.377 473.423
40 0 76.2301 15.4795 1180 130.327 572.64 472.68
41 0 79.1596 15.2729 1209 131.546 572.727 469.617
42 0 81.1419 15.3065 1242 133.239 572.632 468.35
43 0 83.1823 14.342 1193 134.95 572.526 470.018
44 0 86.1565 15.0192 1294 132.08 572.041 468.359
45 0 90.1856 16.4328 1482 127.164 571.978 465.229
46 1 45.1281 12.4756 563 137.954 571.796 489.252
47 0 49.0738 14.0808 691 134.826 571.502 486.391
48 0 50.1264 13.9048 697 136.182 571.743 484.32
49 0 51.0476 13.3013 679 136.191 572.75 486.773
50 0 52.0572 13.3699 696 136.667 572.411 486.243
51 0 55.0673 13.8013 760 134.718 572.483 484.979
52 0 57.0579 13.9507 796 133.572 572.763 483.876
53 0 56.1022 13.6537 766 137.164 572.824 481.757
54 0 62.0802 14.0463 872 134.052 572.733 480.896
55 0 63.0527 14.8447 936 132.047 572.466 479.687
56 0 64.109 14.2258 912 134.129 572.65 478.705
57 0 69.1233 13.6278 942 136.538 573.217 476.765
58 0 71.0822 15.2921 1087 132.11 572.354 475.04
59 0 75.0673 15.2263 1143 131.603 572.55 474.591
60 0 77.1065 14.7069 1134 132.425 572.263 473.534
61 0 80.2536 15.2267 1222 130.221 572.556 473.193
62 0 82.1579 14.9955 1232 130.047 573.021 473.357
63 0 84.1541 14.117 1188 133.024 573.213 471.244
64 0 87.2083 14.6431 1277 131.312 572.726 469.342
65 0 91.2412 13.5465 1236 131.81 572.506 470.032
66 0 96.3006 14.9636 1441 127.004 572.121 464.472
67 0 98.2234 14.6605 1440 128.167 572.307 465.408
68 1 50.1789 12.1964 612 126.588 572.623 487.242
69 0 53.0728 13.1894 700 123.73 572.287 486.18
70 0 55.0661 13.8016 760 122.457 572.384 485.184
71 0 58.0971 14.4758 841 120.388 572.136 484.553
72 0 59.0789 13.7951 815 122.942 572.292 485.217
73 0 61.1789 13.6322 834 124.354 571.718 482.347
74 0 63.0937 14.1377 892 122.53 571.74 482.426
75 0 66.1294 13.8819 918 123.275 571.673 481.017
76 0 67.2132 12.8992 867 127.148 571.885 480.419
77 0 70.138 13.6303 956 124.592 571.987 480.205
78 0 72.1256 13.5874 980 126.394 571.99 476.504
79 0 75.1302 13.3768 1005 126.863 571.656 477.138
80 0 76.0909 13.8781 1056 127.753 571.916 475.281
81 0 79.1762 14.8782 1178 124.776 572.228 475.104
82 0 81.184 15.4094 1251 124.02 571.815 472.903
83 0 81.1606 13.8121 1121 129.745 571.809 470.948
84 0 87.2454 15.0953 1317 126.099 571.064 470.993
85 0 89.306 14.12 1261 129.048 571.308 468.77
86 0 90.2072 14.4002 1299 130.169 570.572 468.06
87 0 94.2415 14.8555 1400 127.541 571.097 467.186
88 0 97.1794 14.5607 1415 127.768 570.404 465.792
89 0 100.205 14.2109 1424 129.713 570.147 463.476
90 0 105.278 15.2073 1601 125.505 570.039 462.783
91 1 52.0792 11.5977 604 126.172 569.813 488.212
92 0 55.1056 12.5214 690 123.229 570.271 486.757
93 0 58.0858 14.5819 847 117.681 570.196 484.246
94 0 62.0561 13.23 821 124.144 570.764 485.435
95 0 62.0319 13.7671 854 124.594 571.032 484.259
96 0 62.0252 12.8819 799 127.835 571.215 484.579
97 0 66.0335 13.5234 893 125.713 571.494 480.325
98 0 68.0763 14.1459 963 125.202 571.578 474.81
99 0 68.0242 13.0542 888 128.592 571.338 479.574
100 0 72.1796 14.5332 1049 125.144 572.121 478.407
101 0 74.0572 13.9082 1030 125.519 571.488 478.681
102 0 78.0763 14.2937 1116 125.35 571.653 476.246
103 0 80.0939 14.6203 1171 124.892 571.735 474.608
104 0 83.0765 15.2149 1264 122.61 571.153 473.178
105 0 84.0936 14.0914 1185 125.928 571.024 471.446
106 0 84.0585 12.1463 1021 131.487 570.965 471.395
107 0 89.1639 13.0995 1168 128.025 570.761 468.219
108 0 92.1582 13.8349 1275 125.245 570.515 467.834
109 0 96.0301 13.704 1316 124.162 569.919 466.622
110 1 51.0241 10.8184 552 122.027 568.605 489.083
111 0 51.0957 10.3531 529 116.966 568.771 487.588
112 0 54.1086 12.9739 702 117.632 569.436 488.665
113 0 56.1783 12.7095 714 118.646 569.02 485.927
114 0 59.2126 12.2947 728 117.745 569.566 486.67
115 0 60.0982 13.245 796 116.838 569.381 484.938
116 0 62.0798 12.9994 807 118.081 569.851 484.71
117 0 66.0596 13.0942 865 117.451 570.088 482.808
118 0 67.0874 12.7595 856 119.036 569.978 481.473
119 0 68.134 13.2093 900 119.332 570.469 478.974
120 0 70.0474 13.6479 956 118.88 569.848 478.346
121 0 72.0741 13.722 989 118.002 569.417 478.892
122 0 74.0862 13.6463 1011 118.584 569.549 476.421
123 0 77.1731 11.701 903 121.071 568.287 465.433
124 0 81.0363 13.204 1070 118.979 569.791 473.28
125 0 85.1607 13.8092 1176 117.619 569.253 472.979
126 0 86.0842 13.1034 1128 121.22 568.986 469.181
127 1 43.0216 10.3669 446 116.298 568.96 493.247
128 0 45.0585 10.098 455 114.89 568.842 491.765
129 0 46.0559 11.3341 522 109.596 569.111 491.72
130 0 46.0175 10.6264 489 111.102 569.998 490.215
131 0 49.019 10.6897 524 109.406 570.116 489.773
132 0 50.0229 11.1749 559 109 570.404 489.054
133 0 50.0229 11.7946 590 108.893 570.431 488.407
134 0 53.0171 11.5434 612 108.636 571.074 487.578
135 0 54.0364 11.8994 643 109.064 570.267 486.551
136 0 56.042 11.9018 667 108.64 570.766 486.925
137 0 58.0521 13.2812 771 105.922 570.664 483.049
138 0 60.081 11.5178 692 108.074 571.053 485.858
139 0 63.0395 12.6746 799 105.801 571.016 482.627
140 0 65.1183 12.746 830 105.046 571.406 481.912
141 0 66.1118 12.857 850 104.705 570.874 480.971
142 0 68.1188 13.2269 901 103.67 570.553 480.478
143 0 71.1916 11.9818 853 106.859 570.219 479.335
144 0 73.1006 12.3665 904 107.285 570.564 476.06
145 0 74.114 13.3173 987 106.902 570.248 474.901
146 0 79.1238 11.9812 948 112.027 569.674 472.212
147 0 82.1861 13.3721 1099 111.829 568.793 470.276
148 1 41.0306 12.2591 503 107.054 569.03 492.537
149 0 41.0109 9.31459 382 114.717 569.382 491.607
150 0 44.0373 11.7627 518 109.27 568.919 489.892
151 0 45.056 13.1614 593 100.992 570.587 489.295
152 0 45.0698 10.3395 466 108.858 571.159 490.867
153 0 47.0267 12.8225 603 104.202 570.949 489.294
154 0 50.0505 11.7681 589 106.27 571.053 489.217
155 0 49.0939 12.5066 614 107.174 571.251 487.818
156 0 50.0831 12.5192 627 108.142 570.97 487.257
157 0 54.1426 12.5594 680 106.856 572.178 486.635
158 0 55.0744 13.5271 745 107.53 571.358 485.172
159 0 57.0495 12.3577 705 110.631 571.609 484.584
160 0 57.1136 13.2893 759 110.273 572.058 483.449
161 0 61.0588 13.2987 812 108.863 571.564 483.309
162 0 61.1852 12.6992 777 111.972 570.837 480.861
163 0 63.2049 12.5781 795 112.073 570.997 481.314
164 0 66.3427 13.1589 873 112.331 571.316 478.62
165 0 68.2375 12.8082 874 113.627 570.968 479.426
166 0 70.3022 13.2713 933 113.446 570.955 476.866
167 0 72.2835 12.5893 910 116.26 570.562 476.32
168 0 74.2011 12.3448 916 116.067 570.752 476.468
169 1 43.0126 10.4156 448 116.643 571.857 491.667
170 0 42.0252 10.6127 446 117.953 572.209 490.513
171 0 43.0371 11.5017 495 110.331 572.046 491.646
172 0 44.0239 12.2434 539 108.779 570.334 489.855
173 0 46.0225 12.5591 578 108.545 570.334 489.483
174 0 45.016 11.0627 498 114.321 570.586 490.122
175 0 48.0148 13.0168 625 108.613 571.582 489.47
176 0 51.0728 12.8052 654 109.714 569.953 484.329
177 0 51.0607 11.7115 598 113.523 572.366 475.508
178 0 52.0344 12.8569 669 111.371 572.106 485.22
179 0 53.0324 11.8795 630 113.849 571.39 486.035
180 0 55.0736 13.1824 726 110.636 570.828 483.884
181 0 58.0804 12.8098 744 109.156 569.589 484.621
182 0 60.019 12.1295 728 110.984 569.533 482.824
183 0 60.0122 12.8974 774 109.916 568.853 483.562
184 0 61.0943 12.3252 753 113.466 568.705 481.003
185 0 63.1858 13.1042 828 110.407 569.261 480.932
186 0 65.0607 11.6199 756 115.324 568.692 480.366
187 0 66.0567 12.2471 809 115.723 568.707 476.559
188 0 69.1343 12.6999 878 112.875 569.314 478.999
189 0 69.065 13.1905 911 110.879 570.17 478.157
190 0 71.159 12.5634 894 111.782 571.198 476.021
191 0 75.2248 12.0173 904 111.836 571.238 475.312
192 0 76.1375 10.9145 831 115.868 571.342 474.7
193 0 81.1407 12.9035 1047 111.271 571.212 473.891
194 0 83.1446 12.0874 1005 112.404 570.912 473.673
195 1 42.0188 10.4001 437 113.867 571.19 490.67
196 0 44.0769 10.8901 480 111.779 569.894 489.494
197 0 46.1455 12.0488 556 108.131 569.061 487.169
198 0 47.311 12.0691 571 114.215 570.285 490.114
199 0 49.1362 11.2748 554 117.027 569.675 488.957
200 0 50.074 11.8025 591 115.88 569.569 488.887
201 0 52.1439 11.4875 599 116.875 568.975 488.905
202 0 52.1521 11.7733 614 116.663 569.505 488.533
203 0 54.1987 11.9745 649 115.687 569.675 487.074
204 0 53.2322 11.5344 614 118.265 569.775 484.594
205 0 56.2263 12.3074 692 114.997 569.834 484.084
206 0 56.3044 10.9228 615 118.623 570.255 483.533
207 0 60.2008 12.1925 734 114.631 570.499 481.974
208 0 62.222 13.3393 830 110.292 570.21 480.819
209 0 63.2818 11.4883 727 114.158 570.341 479.979
210 0 64.1921 11.1696 717 116.223 570.82 479.067
211 0 67.2361 12.9395 870 111.721 570.844 478.277
212 0 70.1788 13.9358 978 109.719 570.923 476.167
213 0 71.2059 12.2743 874 114.118 570.678 477.096
214 0 73.221 12.8925 944 113.151 570.589 475.479
215 0 78.1958 12.4303 972 113.159 571.015 476.106
216 0 79.1735 12.6684 1003 114.62 571.182 473.001
217 0 81.3051 11.3154 920 117.125 571.352 473.866
218 0 84.1377 12.7886 1076 115.43 570.926 470.575
219 0 86.1955 10.8242 933 120.354 570.654 470.398
220 1 44.0473 11.5558 509 113.116 571.935 490.654
221 0 42.015 9.82983 413 105.843 571.327 487.978
222 0 44.06 12.8461 566 105.207 569.219 491.553
223 0 44.1239 12.6236 557 107.492 569.083 491.612
224 0 45.0228 13.0378 587 106.545 569.806 489.647
225 0 46.0801 11.3932 525 110.674 570.644 489.737
226 0 50.067 13.0625 654 105.876 571.248 487.292
227 0 51.1634 11.9421 611 109.239 570.164 486.01
228 0 53.0479 13.403 711 105.558 569.761 485.823
229 0 55.0809 13.5619 747 105.818 570.293 484.758
230 0 55.0832 13.3071 733 107.866 569.561 484.45
231 0 60.1164 12.3427 742 108.991 570.243 483.341
232 0 60.1394 13.3523 803 108.37 570.228 482.711
233 0 61.1862 11.653 713 113.512 570.669 480.29
234 0 66.1089 13.2509 876 109.305 570.597 480.876
235 0 67.1102 14.6475 983 107.554 570.409 478.606
236 0 69.192 13.2096 914 112.319 570.934 478.768
237 0 71.088 13.8701 986 112.539 570.589 476.925
238 0 74.1244 14.0305 1040 113.939 570.138 475.887
239 0 75.1831 13.5802 1021 115.919 570.892 474.634
240 0 78.2274 13.7548 1076 116.71 570.06 471.257
241 0 81.1911 13.8808 1127 117.048 569.854 468.764
242 0 83.1681 14.1641 1178 114.896 570.004 469.197
243 0 87.2453 13.8231 1206 116.158 569.86 468.888
244 0 90.3327 13.406 1211 117.177 569.434 466.26
245 1 45.0879 10.4241 470 115.643 570.864 486.426
246 0 47.056 11.5819 545 115.58 570.989 486.989
247 0 48.1144 13.0107 626 113.085 570.746 484.61
248 0 50.0662 13.2025 661 111.386 571.74 485.405
249 0 54.0706 13.057 706 110.232 571.555 484.306
250 0 52.0299 12.0892 629 116.762 571.99 482.358
251 0 54.0215 11.588 626 117.319 571.542 482.347
252 0 58.1087 12.4422 723 114.882 571.362 479.956
253 0 60.1671 13.0802 787 115.037 570.226 480.366
254 0 60.1731 12.597 758 117.67 570.528 480.784
255 0 63.1415 13.5252 854 113.093 570.855 478.998
256 0 67.1025 13.1441 882 114.029 570.074 475.615
257 0 67.2391 13.623 916 115.085 569.947 474.29
258 0 71.1305 13.3557 950 114.6 570.149 472.905
259 0 73.1308 14.098 1031 112.103 569.987 472.448
260 0 75.1467 12.6419 950 115.969 570.308 470.713
261 0 76.1125 13.4406 1023 114.51 570.241 469.458
262 0 82.1448 14.3284 1177 114.523 570.297 470.202
263 0 86.3096 13.8571 1196 113.737 570.919 468.973
264 0 88.1705 12.2944 1084 114.185 570.484 467.304
265 1 45.0216 10.5283 474 111.897 570.846 487.268
266 0 46.0804 10.026 462 106.723 570.489 484.567
267 0 50.0836 12.1197 607 102.624 570.746 485.152
268 0 50.069 11.3643 569 116.671 570.826 486.661
269 0 53.0579 12.9481 687 113.279 570.782 485.122
270 0 54.0255 12.4201 671 114.413 570.696 484.55
271 0 56.0874 12.5162 702 114.667 571.201 483.066
272 0 59.0435 12.838 758 112.96 570.492 483.963
273 0 60.0877 14.0128 842 111.384 570.419 482.442
274 0 61.0195 12.7992 781 116.453 570.793 482.023
275 0 63.0679 13.8739 875 114.997 570.262 479.425
276 0 64.19 13.8028 886 117.209 570.114 479.861
277 0 67.0427 13.0812 877 118.794 570.799 479.834
278 0 70.2341 13.9533 980 116.252 570.462 479.187
279 0 70.1418 13.8434 971 118.436 570.889 479.142
280 0 73.1118 14.5804 1066 117.39 570.673 471.681
281 0 77.2403 13.8917 1073 118.952 570.72 473.929
282 0 77.1132 14.3814 1109 120.434 570.46 473.143
283 0 80.1432 13.7504 1102 122.378 570.844 472.554
284 0 83.1609 14.6463 1218 120.625 570.925 472.5
285 0 86.1166 14.4223 1242 121.816 570.694 471.205
286 0 89.1335 14.5288 1295 121.657 571.307 469.373
287 0 91.1986 13.3226 1215 124.438 571.014 467.531
288 1 49.0454 11.8054 579 121.693 571.097 488.945
289 0 51.1526 11.5537 591 119.42 570.332 484.486
290 0 51.0626 12.5924 643 113.412 572.114 482.226
291 0 52.037 12.1644 633 110.757 571.442 482.215
292 0 56.0729 11.6991 656 111.409 571.895 483.957
293 0 56.0623 11.3445 636 114.709 571.533 483.563
294 0 59.0966 12.708 751 122.454 571.546 484.955
295 0 62.1205 12.4436 773 122.327 571.477 484.138
296 0 61.1561 13.163 805 124.014 571.366 481.776
297 0 66.1302 12.4603 824 124.464 571.258 482.649
298 0 66.1033 13.3428 882 124.119 571.57 482.062
299 0 68.1346 12.5634 856 126.516 570.838 481.228
300 0 71.1501 14.1672 1008 124.024 570.601 478.381
301 0 73.1469 13.9035 1017 124.541 570.22 476.667
302 0 76.2135 13.4622 1026 126.029 570.657 475.523
303 0 77.1378 13.3398 1029 128.651 570.727 474.527
304 0 80.1847 13.1446 1054 128.017 570.605 474.182
305 0 83.2461 14.1388 1177 127.369 570.829 471.223
306 0 85.2572 13.3127 1135 129.945 570.464 468.23
307 0 89.1984 14.0025 1249 127.188 571.007 467.793
308 0 92.215 13.7179 1265 127.051 570.169 466.6
309 0 94.1549 13.0423 1228 126.618 570.848 464.498
310 0 95.2246 10.9005 1038 129.42 570.337 459.858
311 0 100.127 12.4842 1250 127.806 570.378 463.844
312 1 52.1682 11.5588 603 124.443 570.904 486.189
313 0 56.0357 13.6163 763 119.147 571.45 485.452
314 0 57.1219 13.3399 762 119.177 571.341 484.696
315 0 60.1361 12.771 768 122.276 570.29 482.777
316 0 61.1455 13.4106 820 121.37 571.234 482.554
317 0 63.2469 12.8544 813 121.069 570.582 483.325
318 0 66.303 13.6042 902 121.328 570.735 480.453
319 0 68.1989 13.358 911 123.201 570.538 479.71
320 0 70.1928 13.8476 972 120.616 570.957 478.548
321 0 72.1984 13.2551 957 124.571 570.959 477.112
322 0 76.2388 14.7694 1126 121.276 570.815 475.057
323 0 77.3127 13.5683 1049 124.322 571.264 474.647
324 0 80.3363 12.9456 1040 128.527 570.604 472.347
325 0 81.2348 13.3687 1086 128.777 570.659 471.901
326 0 86.1328 13.723 1182 125.457 570.97 470.916
327 0 90.3374 14.5676 1316 123.09 570.329 466.508
328 0 93.2425 12.8053 1194 124.583 570.549 467.668
329 0 97.1949 13.5501 1317 120.581 570.82 466.894
330 1 52.097 11.0371 575 115.722 571.184 489.557
331 0 53.1557 10.1776 541 119.664 570.835 488.274
332 0 55.0708 11.8393 652 116.107 570.663 486.853
333 0 58.1375 11.4556 666 111.616 570.042 482.673
334 0 59.0973 12.1325 717 121.628 568.305 479.254
335 0 61.04 11.6809 713 117.202 568.724 484.032
336 0 63.0528 13.1318 828 113.106 569.116 481.574
337 0 64.0618 12.4411 797 114.686 569.069 482.005
338 0 68.1088 12.8324 874 111.974 568.776 481.638
339 0 67.0516 12.1399 814 116.982 569.119 479.006
340 0 69.1008 12.7929 884 117.195 569.012 477.79
341 0 73.0684 12.6731 926 115.388 568.914 478.73
342 0 76.2068 13.2272 1008 114.015 569.568 476.279
343 0 79.1037 12.5405 992 119.127 568.67 474.589
344 0 82.1476 12.2341 1005 121.479 568.444 471.871
345 0 83.2296 14.1416 1177 116.68 568.801 473.831
346 0 86.0881 12.8357 1105 120.332 569.02 469.525
347 0 86.1153 12.2859 1058 122.129 569.707 466.697
348 0 92.112 12.7671 1176 120.061 569.747 465.805
349 0 96.2421 12.3647 1190 118.939 570.013 468.197
350 0 98.1485 12.2264 1200 119.131 570.442 466.014
351 1 52.1339 11.3554 592 114.921 569.37 487.468
352 0 54.035 10.2156 552 111.134 569.899 485.409
353 0 56.0497 11.0259 618 115.576 570.303 487.727
354 0 57.0585 11.7073 668 111.976 569.841 487.371
355 0 58.0556 13.2287 768 111.826 569.801 485.565
356 0 60.1921 11.1975 674 115.819 568.55 484.325
357 0 60.1025 11.9962 721 115.15 568.716 482.452
358 0 64.1337 11.6319 746 115.032 568.609 480.645
359 0 64.1766 11.4995 738 115.656 568.911 481.703
360 0 68.1597 12.2947 838 114.444 568.644 479.502
361 0 68.1991 12.3609 843 115.044 568.809 476.824
362 0 73.0933 12.2994 899 113.222 569.041 476.937
363 0 75.1333 12.0453 905 114.596 569.331 475.597
364 0 77.1548 11.9241 920 115.422 569.401 475.297
365 0 80.1162 12.5568 1006 114.181 570.396 473.225
366 0 81.175 11.4198 927 117.641 569.926 471.697
367 0 85.1904 12.9357 1102 110.764 570.001 471.224
368 0 87.1475 12.6796 1105 113.384 569.933 469.865
369 0 90.1219 11.551 1041 114.569 569.265 467.011
370 1 48.0856 10.3565 498 109.092 570.645 489.91
371 0 50.0463 11.5293 577 105.333 571.863 490.437
372 0 51.1248 11.5208 589 106.701 570.823 486.992
373 0 53.0236 11.3157 600 105.39 571.73 486.47
374 0 55.1243 11.6646 643 105.02 571.439 485.728
375 0 57.0523 11.2528 642 105.864 571.241 485.084
376 0 61.0622 13.4617 822 100.005 571.369 485.152
377 0 60.0397 11.5757 695 105.547 571.283 484.101
378 0 64.0292 12.9472 829 102.239 571.205 481.847
379 0 64.094 11.4207 732 106.904 570.754 480.321
380 0 67.0641 12.8236 860 103.723 571.133 481.38
381 0 69.0656 12.3795 855 104.426 570.884 480.828
382 0 71.1245 12.921 919 104.752 570.001 478.151
383 0 73.2035 13.2644 971 104.451 570.837 477.735
384 0 76.1265 12.6894 966 105.843 571.236 476.399
385 0 79.1039 13.1473 1040 105.297 571.473 474.361
386 0 83.0867 13.0466 1084 106.308 571.409 474.013
387 0 84.0449 13.1477 1105 108.081 571.287 469.719
388 0 89.0844 12.1009 1078 109.085 571.196 469.679
389 0 92.0775 13.3149 1226 105.8 570.75 468.04
390 0 97.1024 13.6763 1328 105.041 569.561 465.929
391 1 47.0518 10.159 478 105.787 570.626 491.734
392 0 48.0489 8.36647 402 109.637 570.582 490.863
393 0 53.3671 11.6739 623 102.657 570.49 488.596
394 0 53.037 11.6145 616 104.62 570.885 486.494
395 0 54.0851 11.3155 612 105.824 571.547 486.755
396 0 58.0693 14.1727 823 98.3147 570.99 484.838
397 0 60.151 12.9674 780 100.678 571.662 486.932
398 0 61.0533 11.6292 710 105.049 572.252 485.325
399 0 62.0515 12.957 804 102.961 571.085 483.306
400 0 66.0837 13.3013 879 100.82 571.123 483.105
401 0 69.0949 13.6913 946 99.241 571.119 482.837
402 0 70.122 13.7617 965 100.633 572.124 480.955
403 0 73.0891 13.3672 977 102.225 571.836 479.55
404 0 74.1138 13.8571 1027 102.104 571.362 478.172
405 0 78.1861 13.1353 1027 103.651 571.365 476.801
406 0 80.1865 12.7952 1026 104.354 570.369 473.377
407 0 81.2008 12.5368 1018 106.435 569.971 472.297
408 0 85.318 11.967 1021 106.872 570.781 473.606
409 0 89.1704 13.0425 1163 103.377 571.429 472.77
410 0 91.0915 12.3722 1127 105.839 571.393 469.548
411 0 94.1825 12.1997 1149 105.802 570.485 469.818
412 0 97.2802 11.3075 1100 108.476 570.711 469.745
413 1 49.1193 11.7062 575 106.195 570.8 490.137
414 0 53.0736 12.9443 687 102.559 570.575 488.59
415 0 51.0384 11.4032 582 103.792 571.216 489.268
416 0 54.0845 12.6654 685 101.505 571.206 488.455
417 0 56.0601 12.3439 692 102.608 571.595 487.763
418 0 57.1339 13.1095 749 101.461 571.656 487.905
419 0 57.0454 12.8845 735 103.829 571.801 485.147
420 0 61.0736 12.4931 763 103.433 571.692 485.708
421 0 61.0548 12.6116 770 105.279 571.035 485.269
422 0 65.0613 13.6179 886 104.005 571.316 482.711
423 0 65.0952 14.4558 941 105.287 571.921 481.166
424 0 68.1682 13.8041 941 107.183 570.946 481.027
425 0 69.0933 13.5469 936 109.466 571.114 481.587
426 0 71.0488 13.5681 964 111.087 571.57 479.058
427 0 75.083 14.5306 1091 109.539 570.645 476.872
428 0 77.2112 14.8035 1143 109.785 570.234 476.971
429 0 79.0719 14.0885 1114 112.982 571.068 475.671
430 0 83.119 13.5589 1127 116.711 571.27 474.352
431 0 85.1279 14.1669 1206 120.654 571.009 472.406
432 0 88.1634 14.5866 1286 120.017 571.131 470.417
433 0 91.1288 14.1558 1290 116.498 570.655 469.51
434 0 95.1547 14.6813 1397 119.74 570.713 467.085
435 0 97.2221 14.2869 1389 121.019 570.555 465.091
436 0 102.214 15.0273 1536 118.225 570.965 464.271
437 1 52.0597 12.1783 634 114.295 572.188 489.74
438 0 52.04 11.8563 617 116.109 571.861 487.948
439 0 56.2448 13.3701 752 110.52 571.25 486.222
440 0 56.187 12.2982 691 114.339 571.391 487.224
441 0 59.1644 12.4061 734 112.53 571.54 487.436
442 0 62.181 12.4154 772 111.869 571.858 485.095
443 0 62.1911 12.1561 756 113.103 571.343 480.454
444 0 64.2101 11.6804 750 113.583 571.716 482.959
445 0 67.19 13.3204 895 107.598 571.536 483.123
446 0 67.1917 12.9778 872 109.575 571.178 480.219
447 0 71.2338 13.5469 965 107.38 571.55 479.81
448 0 71.1859 12.0389 857 110.154 571.762 480.59
449 0 75.22 13.0816 984 106.452 571.172 477.373
450 0 77.184 12.8006 988 109.072 571.065 475.905
451 0 82.2293 13.0854 1076 105.898 570.895 474.513
452 0 84.2681 12.4365 1048 107.281 570.821 473.053
453 0 87.2677 12.7195 1110 106.176 570.856 471.477
454 0 91.2458 13.2609 1210 104.531 570.829 469.446
455 1 50.0491 11.7085 586 103.065 572.075 491.408
456 0 51.1236 11.0908 567 108.256 571.924 489.272
457 0 51.0707 11.2981 577 106.608 571.853 489.711
458 0 50.0633 10.247 513 107.372 571.606 488.842
459 0 54.1062 11.5698 626 104.038 571.212 489.334
460 0 56.2106 11.4036 641 104.846 571.588 487.044
461 0 58.2014 11.3915 663 105.071 571.078 486.938
462 0 58.1625 12.5854 732 104.832 571.227 484.231
463 0 60.1778 13.0447 785 103.459 570.824 483.382
464 0 64.2044 12.6471 812 103.865 569.972 483.717
465 0 64.2285 11.5836 744 107.733 570.219 482.685
466 0 67.306 13.0895 881 104.178 571.158 479.673
467 0 70.1155 12.3511 866 105.689 570.752 480.268
468 0 73.1 12.3119 900 105.554 569.92 478.883
469 0 77.385 12.7802 989 102.992 570.733 478.185
470 0 80.2436 12.001 963 107.685 570.499 476.85
471 0 81.2486 12.431 1010 108.444 570.679 476.101
472 0 84.3909 13.1531 1110 108.497 569.661 472.35
473 0 87.4793 13.0774 1144 110.128 569.644 470.553
474 0 89.6158 13.5914 1218 110.048 569.938 465.775
475 0 92.4671 12.9127 1194 111.376 570.137 465.137
476 1 52.2975 10.7271 561 106.859 570.337 489.096
477 0 48.0424 10.4283 501 105.836 571.768 488.99
478 0 52.0983 12.0349 627 100.888 570.735 489.263
479 0 53.0357 12.633 670 100.373 572.2 488.148
480 0 52.0552 11.5454 601 104.198 571.682 486.895
481 0 58.0755 13.3275 774 98.509 571.229 487.079
482 0 59.0558 11.5145 680 102.029 571.499 486.954
483 0 59.0538 12.4124 733 102.427 571.329 484.842
484 0 61.0932 11.5234 704 103.959 571.628 485.651
485 0 63.0444 13.5301 853 99.3763 570.563 485.961
486 0 63.1194 12.9437 817 102.957 571.181 482.399
487 0 65.1171 12.4391 810 104.111 571.84 482.932
488 0 68.0934 11.2493 766 106.061 570.663 480.448
489 0 71.0798 12.4649 886 104.69 570.743 478.942
490 0 73.0752 13.0414 953 103.682 570.512 479.468
491 0 74.1364 13.057 968 104.579 570.747 477.714
492 0 77.2162 12.5103 966 105.327 568.969 455.293
493 0 79.1045 13.5011 1068 104.091 569.831 475.389
494 0 84.0704 13.4054 1127 103.539 569.607 473.638
495 0 85.1295 13.7203 1168 106.747 570.684 471.821
496 0 88.088 13.5092 1190 106.851 570.476 471.217
497 0 92.2438 13.963 1288 107.851 570.054 469.226
498 0 94.225 13.1494 1239 111.245 569.831 465.134
499 1 49.1174 10.139 498 107.938 570.066 490.486
500 0 51.1302 10.8938 557 107.605 571.178 489.469
501 0 53.3201 12.153 648 107.395 569.125 483.248
502 0 56.0651 12.5033 701 110.25 570.444 487.729
503 0 58.0806 13.223 768 109.665 570.396 485.186
504 0 58.1121 12.2178 710 112.549 569.599 484.708
505 0 60.1174 13.1576 791 110.702 568.367 482.786
506 0 65.0505 14.0353 913 108.089 569.875 483.784
507 0 64.1307 12.7396 817 115.272 568.561 481.662
508 0 67.0636 13.6438 915 113.984 568.093 480.358
509 0 67.0717 12.5537 842 117.67 568.335 480.517
510 0 72.0629 12.8776 928 116.142 568.196 479.462
511 0 74.0635 13.6099 1008 113.882 568.243 477.616
512 0 76.0592 13.976 1063 113.942 568.137 476.438
513 0 77.0921 12.2581 945 119.919 567.91 476.304
514 0 80.097 12.8344 1028 120.081 568.056 472.657
515 0 83.1938 13.7991 1148 118.116 568.255 471.756
516 0 87.1738 13.9262 1214 120.531 570.228 470.437
517 0 89.2089 12.5212 1117 125.165 570.176 469.534
518 1 49.0985 11.4464 562 120.164 571.594 491.194
519 0 46.0492 10.4019 479 125.749 571.889 487.956
520 0 48.0285 10.8894 523 113.931 571.017 476.046
521 0 50.0317 11.2529 563 108.952 570.86 484.458
522 0 52.0585 12.2746 639 106.002 571.005 484.207
523 0 53.0622 11.2698 598 112.441 570.567 482.849
524 0 54.0552 9.80479 530 115.104 570.632 481.33
525 0 55.1144 10.7413 592 114.897 570.233 479.905
526 0 59.0451 10.8561 641 112.59 570.275 484.59
527 0 60.0553 10.8067 649 113.929 570.08 482.857
528 0 60.0555 10.7234 644 115.866 569.677 479.483
529 0 64.0836 11.9843 768 111.986 570.095 479.758
530 0 64.0688 10.5668 677 116.301 570.292 479.078
531 0 69.2485 11.5382 799 113.284 570.328 478.368
532 0 71.163 12.0147 855 112.123 569.553 476.228
533 0 73.1197 11.953 874 113.241 570.23 473.459
534 0 73.1667 11.6173 850 114.814 569.98 474.066
535 0 78.148 12.1308 948 114.321 570.134 471.55
536 0 79.1427 11.3845 901 115.718 570.249 471.939
537 0 82.0775 12.4638 1023 118.148 570.821 471.412
538 0 86.245 13.8443 1194 111.02 570.948 471.59
539 0 88.1176 12.6989 1119 118.066 569.836 468.567
540 0 90.2078 12.837 1158 118.854 570.271 467.823
541 0 91.2112 11.8187 1078 120.227 570.692 464.841
542 0 96.2712 11.6338 1120 120.212 570.059 465.689
543 0 99.5434 12.6879 1263 119.362 570.48 463.388
544 0 101.342 12.5417 1271 122.393 569.883 459.81
545 0 105.43 12.2546 1292 121.528 569.823 458.729
546 0 109.329 12.3755 1353 121.126 569.676 458.261
547 0 112.416 13.2098 1485 119.233 569.39 457.582
548 1 59.1669 10.5295 623 111.535 570.726 485.844
549 0 61.3455 10.5631 648 112.812 570.937 484.478
550 0 61.1818 10.6895 654 113.849 570.064 482.174
551 0 65.2184 13.2171 862 108.99 568.994 480.698
552 0 69.134 11.9767 828 109.866 569.291 480.89
553 0 69.1487 11.9597 827 111.264 568.7 480.721
554 0 72.1757 12.331 890 111.836 569.239 477.176
555 0 75.1732 11.999 902 112.398 569.507 479.307
556 0 77.1842 12.671 978 114.044 569.405 475.231
557 0 79.1878 11.9589 947 116.39 570.19 475.17
558 0 82.1412 12.5516 1031 116.196 570.69 471.677
559 0 84.3401 11.9398 1007 118.231 570.415 469.914
560 0 88.2835 12.4146 1096 116.083 570.927 471.267
561 0 88.3162 12.6704 1119 118.299 570.862 464.883
562 0 93.3587 12.2967 1148 119.072 571.104 463.835
563 1 48.2462 10.4672 505 112.8 571.992 490.703
564 0 49.1734 10.4528 514 114.407 571.265 489.784
565 0 52.2026 11.4745 599 114.205 569.504 488.307
566 0 53.051 12.0827 641 111.544 572.849 484.833
567 0 56.1322 12.2746 689 110.376 571.017 488.463
568 0 57.0966 13.1006 748 109.142 570.634 487.549
569 0 57.107 13.3083 760 111.37 570.396 485.468
570 0 59.0659 12.0205 710 113.266 570.872 487.228
571 0 63.1248 13.0535 824 112.05 570.711 485.268
572 0 65.1916 12.747 831 112.699 570.379 483.592
573 0 64.0826 12.9676 831 114.682 568.915 481.629
574 0 67.1101 13.6641 917 113.523 569.003 481.244
575 0 70.0495 13.2478 928 114.256 569.544 480.797
576 0 70.0822 12.257 859 117.62 568.97 479.393
577 0 74.1976 13.3562 991 114.362 569.593 477.488
578 0 76.0835 12.4206 945 117.248 569.729 475.088
579 0 77.1918 12.0738 932 120.111 569.868 474.457
580 0 81.1397 12.4107 1007 119.162 569.429 475.473
581 0 84.1434 13.0254 1096 117.553 570.092 473.059
582 0 87.2495 12.6878 1107 118.784 569.795 471.235
583 1 45.0487 12.0536 543 114.781 569.145 492.643
584 0 45.0842 12.0663 544 113.384 569.066 489.665
585 0 47.2021 12.3511 583 112.847 571.25 488.676
586 0 49.068 12.0038 589 113.029 568.46 489.34
587 0 50.0617 11.9852 600 112.49 569.187 489.903
588 0 50.0885 11.9389 598 113.742 569.809 490.097
589 0 50.1066 11.6751 585 114.757 569.969 489.231
590 0 52.1148 10.9566 571 113.503 569.799 489.916
591 0 53.0732 12.1153 643 112.512 569.294 488.022
592 0 55.0502 11.9164 656 113.335 568.982 486.183
593 0 56.0681 11.7357 658 112.764 569.248 486.681
594 0 59.1129 12.3154 728 112.474 568.49 483.504
595 0 60.0811 12.2002 733 113.236 568.626 482.693
596 0 61.0841 11.476 701 115.237 568.608 481.703
597 0 63.0983 12.7262 803 112.086 569.187 482.146
598 0 66.1667 13.1486 870 111.44 569.021 480.725
599 0 66.1715 12.7245 842 114.025 568.489 478.221
600 0 69.0829 12.8976 891 112.276 569.045 477.653
601 0 73.261 12.7489 934 113.202 569.631 475.675
602 0 75.151 11.5102 865 116.183 569.895 473.351
603 0 78.1832 12.5091 978 112.183 569.291 469.01
604 0 81.1846 11.985 973 113.44 569.682 469.998
605 0 83.1643 11.6516 969 114.095 569.667 469.2
606 0 87.1432 11.2 976 112.36 569.555 468.675
607 0 91.1589 12.6153 1150 105.145 569.094 467.394
608 1 52.1246 10.2063 532 106.752 569.011 487.543
609 0 53.1957 11.7491 625 103.861 569.541 485.157
610 0 54.0456 11.5088 622 103.585 568.593 486.484
611 0 56.0539 11.596 650 101.845 571.203 483.157
612 0 58.058 12.6253 733 98.2156 570.583 485.005
613 0 59.116 11.469 678 100.755 569.956 484.385
614 0 61.0711 11.0691 676 101.91 570.655 481.765
615 0 64.0774 11.9387 765 101.11 571.885 479.341
616 0 66.0894 12.1805 805 100.857 571.297 479.307
617 0 68.0665 12.4731 849 102.535 571.429 478.079
618 0 70.1355 10.5795 742 107.368 571.593 474.19
619 0 72.0403 11.2437 810 105.932 571.115 472.98
620 0 73.0819 11.6171 849 106.012 571.58 470.788
621 0 79.174 12.2768 972 104.19 572.138 473.069
622 0 80.1289 13.4658 1079 103.109 571.854 470.153
623 0 84.0757 11.7275 986 106.226 571.568 467.938
624 0 88.1358 12.1404 1070 104.532 571.563 467.589
625 0 91.1637 12.6147 1150 104.896 571.343 466.178
626 0 94.0537 12.4397 1170 105.794 571 463.158
627 1 43.02 8.80986 379 100.507 571.008 484.449
628 0 44.0318 11.0148 485 97.8433 571.054 482.967
629 0 43.0212 8.50743 366 104.025 571.921 483.311
630 0 49.0104 8.97768 440 101.761 570.909 481.764
631 0 50.0307 10.0738 504 98.9127 570.946 482.343
632 0 54.0545 10.7669 582 97.2337 570.943 481.22
633 0 53.1083 11.1659 593 92.6577 569.909 479.637
634 0 57.1241 11.5363 659 91.6328 570.706 480.123
635 0 59.1121 11.3344 670 91.9731 570.721 478.764
636 0 58.1012 9.25971 538 95.8104 570.182 476.383
637 0 64.1925 11.9017 764 91.144 570.716 477.703
638 0 66.163 10.2323 677 94.6115 571.007 475.332
639 0 69.236 11.0925 768 98.4948 570.359 477.647
640 0 73.1016 12.6947 928 103.217 569.551 478.522
641 0 74.0806 11.9465 885 105.741 569.527 475.208
642 0 78.1095 12.6105 985 103.548 569.365 477.888
643 0 81.0433 13.2398 1073 102.826 569.801 475.491
644 0 82.1487 12.7208 1045 105.703 569.278 470.167
645 0 87.1415 13.392 1167 104.016 569.015 470.992
646 1 46.2482 11.0491 511 104.477 570.452 493.149
647 0 45.2938 9.82475 445 106.396 571.137 491.162
648 0 43.3879 10.0258 435 99.5678 570.563 486.963
649 0 45.0709 8.58647 387 99.8553 569.7 488.486
650 0 46.0349 8.53701 393 98.9415 569.776 487.715
651 0 48.0481 9.24073 444 98.6126 570.786 484.788
652 0 51.1968 10.3717 531 95.9228 570.403 486.041
653 0 52.0856 10.8475 565 96.4319 570.412 486.687
654 0 54.0694 10.653 576 98.283 570.92 484.835
655 0 55.1361 11.4988 634 96.9054 570.314 485.468
656 0 57.1353 11.0089 629 99.7027 570.372 486.61
657 0 57.1611 12.0886 691 100.715 569.97 484.993
658 0 59.173 11.9142 705 104.196 568.989 486.471
659 0 62.1421 12.5358 779 102.977 568.973 483.741
660 0 64.1424 12.7373 817 103.013 569.237 484.328
661 0 65.1836 11.598 756 107.118 568.817 482.933
662 0 67.1512 12.0921 812 105.234 568.645 485.075
663 0 70.2001 12.3931 870 104.902 569.186 482.289
664 0 72.2493 13.232 956 102.332 568.764 482.091
665 0 76.3409 13.4528 1027 100.691 568.462 480.039
666 0 77.5204 13.2868 1030 101.42 568.877 479.332
667 0 79.3176 13.8683 1100 102.375 569.125 475.97
668 0 83.3982 12.806 1068 104.071 569.11 475.163
669 0 85.2908 13.4129 1144 102.795 569.113 472.415
670 0 85.3324 12.422 1060 105.304 568.718 474.621
671 0 89.5342 12.9894 1163 104.467 569.316 471
672 0 83.5425 10.342 864 107.324 569.743 471.836
673 1 97.6229 14.1258 1379 100.857 569.694 466.795
674 0 99.2925 13.0624 1297 103.907 569.44 467.857
675 1 53.1013 12.994 690 102.059 568.316 489.951
676 0 54.113 13.1761 713 102.762 568.488 487.858
677 0 56.1492 13.6957 769 99.6489 568.875 488.285
678 0 57.2027 12.5344 717 102.464 568.423 486.534
679 0 59.1091 13.2805 785 101.548 568.736 486.696
680 0 61.1683 12.9806 794 101.699 568.741 486.374
681 0 65.2389 13.7801 899 99.069 568.702 485.253
682 0 67.1134 14.334 962 98.4439 569.272 483.097
683 0 67.1397 12.9581 870 101.951 568.925 481.995
684 0 67.1461 12.6888 852 104.156 568.627 481.325
685 0 70.1625 13.0269 914 103.825 568.298 478.324
686 0 73.1918 14.5781 1067 100.321 568.357 478.835
687 0 77.1778 13.9418 1076 103.849 568.859 468.56
688 0 77.2293 13.065 1009 105.349 568.753 476.383
689 0 82.462 13.6305 1124 103.575 569.344 472.807
690 0 85.3049 13.5983 1160 105.764 568.928 470.662
691 0 84.4179 12.8527 1085 109.346 569.053 467.099
692 0 89.6652 13.0374 1169 109.922 569.332 467.869
693 0 92.3563 12.3327 1139 109.478 569.4 465.606
694 1 49.1133 10.8932 535 107.566 569.222 488.518
695 0 51.1426 11.4777 587 108.915 569.663 486.489
696 0 52.1537 12.0797 630 108.365 570.043 487.276
697 0 53.1402 11.6108 617 110.35 569.916 486.948
698 0 57.0369 14.3942 821 103.825 571.107 486.515
699 0 57.0601 12.6358 721 108.424 570.852 486.63
700 0 57.0887 12.9448 739 109.283 571.645 486.25
701 0 61.0649 14.6893 897 104.388 571.025 485.417
702 0 59.0974 12.3356 729 110.76 570.761 481.926
703 0 63.1247 13.1803 832 103.542 570.421 467.538
704 0 65.1198 13.0222 848 102.596 569.057 469.335
705 0 66.0798 11.8039 780 104.46 569.315 468.801
706 0 70.0932 12.4977 876 104.001 569.772 468.941
707 0 72.1084 13.5629 978 101.252 570.423 469.38
708 0 73.1864 12.5023 915 104.056 569.565 460.769
709 0 74.1906 12.6431 938 109.678 569.466 463.775
710 0 78.0977 13.035 1018 109.025 569.347 463.052
711 0 81.1856 13.7463 1116 102.108 569.267 468.228
712 0 83.2683 12.5618 1046 106.796 569.202 466.102
713 0 87.2373 13.9046 1213 103.707 568.814 465.76
714 0 90.3601 14.2873 1291 102.714 569.521 464.938
715 0 91.3835 12.836 1173 108.382 569.475 465.321
716 1 48.3923 10.4769 507 113.499 569.984 490.933
717 0 48.3604 11.4143 552 115.125 569.976 487.944
718 0 52.2347 12.0609 630 109.283 570.006 489.437
719 0 54.1964 12.8791 698 110.447 569.35 488.004
720 0 55.2081 12.4801 689 110.498 570.102 488.488
721 0 56.1388 12.6116 708 110.459 569.702 486.514
722 0 59.1668 14.1803 839 105.403 570.402 486.323
723 0 59.1234 11.569 684 110.076 570.306 485.766
724 0 62.1348 13.6799 850 104.206 570.176 484.801
725 0 65.1932 12.8234 836 104.629 570.185 485.213
726 0 65.0971 12.4429 810 106.491 570.016 483.077
727 0 68.1532 13.2936 906 103.833 569.913 483.976
728 0 72.1209 14.1429 1020 102.086 569.642 481.452
729 0 73.2111 12.9625 949 105.429 570.399 481.111
730 0 75.1479 12.828 964 104.592 570.257 481.955
731 0 79.1597 12.7843 1012 104.69 570.104 480.528
732 0 79.1518 12.4571 986 107.134 570.176 478.577
733 0 84.1222 13.5755 1142 104.778 569.925 474.793
734 0 87.0879 14.25 1241 102.302 569.565 476.999
735 0 89.1294 14.2265 1268 105.269 569.201 473.133
736 1 45.0195 11.8393 533 109.989 570.55 494.642
737 0 48.0362 12.2824 590 109.851 569.864 493.203
738 0 49.0444 11.826 580 111.879 570.191 492.79
739 0 50.0116 12.2971 615 111.972 570.372 492.247
740 0 51.067 12.9046 659 111.885 570.926 489.786
741 0 54.0253 12.5497 678 112.283 570.522 489.636
742 0 55.0171 12.8324 706 112.443 570.795 489.796
743 0 57.0488 13.4271 766 110.138 570.556 488.941
744 0 59.0657 13.2734 784 110.311 570.435 488.495
745 0 60.0441 13.207 793 111.18 570.361 488.562
746 0 63.1366 12.7343 804 112.315 570.399 486.051
747 0 63.0293 12.6766 799 113.588 570.479 484.89
748 0 67.0574 14.167 950 107.56 570.252 485.317
749 0 68.0627 13.2819 904 111.07 569.733 482.045
750 0 70.0567 13.1465 921 111.805 569.904 480.712
751 0 73.0923 13.4214 981 110.096 570.218 480.729
752 0 73.0616 13.3723 977 112.168 570.057 478.342
753 0 76.1221 13.5834 1034 111.453 569.858 478.103
754 0 80.1086 13.8187 1107 111.311 569.958 475.156
755 0 82.0536 12.6625 1039 114.377 570.802 475.286
756 1 43.0678 11.0988 478 112.285 569.669 493.674
757 0 44.1462 11.5072 508 111.589 569.024 493.545
758 0 46.0573 12.9838 598 106.358 569.518 493.988
759 0 48.0742 12.8343 617 106.82 569.285 492.989
760 0 48.1032 12.4316 598 109.209 569.888 491.709
761 0 50.0587 13.0447 653 107.712 569.942 491.565
762 0 52.1183 12.1454 633 109.924 569.482 491.191
763 0 52.06 12.2551 638 110.249 569.639 489.912
764 0 54.1109 13.8604 750 106.499 569.268 487.771
765 0 57.1325 13.6175 778 106.292 569.215 488.154
766 0 57.1088 11.5044 657 112.683 568.925 487.237
767 0 61.1163 13.1716 805 107.107 569.143 488.563
768 0 62.066 13.534 840 107.907 569.14 484.907
769 0 65.1283 13.0051 847 108.303 568.954 484.357
770 0 65.03 12.9479 842 109.848 569.151 483.739
771 0 67.1399 13.1368 882 110.121 569.282 483.446
772 0 67.1051 12.5177 840 113.586 569.173 480.5
773 0 69.0655 12.0031 829 115.836 569.024 479.58
774 0 73.0732 13.2744 970 112.505 569.024 481.105
775 0 76.1205 13.0714 995 113.203 569.12 478.562
776 0 78.1152 13.3393 1042 112.826 568.964 477.241
777 0 81.1866 12.1325 985 115.847 569.953 477.216
778 0 83.2337 11.5939 965 117.769 570.052 478.175
779 1 45.035 10.5029 473 118.146 570.127 493.85
780 0 47.0579 12.2827 578 115.924 570.796 490.761
781 0 47.0275 10.9936 517 112.996 569.623 493.375
782 0 50.0261 11.1542 558 111.995 569.602 493.717
783 0 50.045 11.5696 579 114.157 568.737 490.831
784 0 52.0302 11.5125 599 114.574 569.119 490.995
785 0 51.049 11.0874 566 117.694 568.898 490.505
786 0 54.0282 11.2904 610 116.298 569.3 490.402
787 0 55.0629 11.3143 623 117.995 568.801 488.372
788 0 57.0559 10.7088 611 119.128 569.48 487.527
789 0 60.0741 11.7189 704 116.642 568.99 486.108
790 0 60.0377 11.2263 674 118.134 569.301 485.561
791 0 63.0773 11.7158 739 115.733 569.912 484.116
792 0 68.0723 12.1195 825 111.822 569.647 485.022
793 0 66.171 10.7147 709 115.711 569.884 484.443
794 0 70.2053 11.851 832 113.938 569.609 480.931
795 0 74.1351 11.0474 819 115.786 569.453 479.791
796 0 75.0933 11.013 827 114.358 569.838 480.693
797 0 80.0843 12.0248 963 112.32 569.29 477.264
798 0 81.0517 11.3014 916 114.847 569.095 476.097
799 0 83.0922 11.1081 923 116.039 569.826 473.553
800 0 88.0209 12.0653 1062 112.347 569.533 474.61
801 0 91.1479 11.421 1041 113.796 569.63 472.896
802 1 47.0137 10.0396 472 112.347 570.21 494.862
803 0 49.0766 11.6349 571 112.208 571.098 492.872
804 0 47.0436 9.14046 430 110.405 569.993 492.97
805 0 49.0592 11.3944 559 106.766 570.018 492.041
806 0 49.0779 10.6158 521 108.939 568.983 492.269
807 0 51.1126 10.8192 553 108.409 569.269 491.154
808 0 52.1206 10.1687 530 110.455 569.274 489.657
809 0 56.0913 10.7325 602 107.362 569.045 490.571
810 0 56.0775 10.7708 604 107.444 568.662 487.672
811 0 60.077 11.1857 672 106.036 569.455 487.204
812 0 61.0865 10.8698 664 105.378 569.062 487.093
813 0 63.0358 10.2006 643 105.714 569.096 486.515
814 0 66.0969 10.6208 702 104.742 569.332 484.776
815 0 66.1241 10.2232 676 106.04 568.46 482.947
816 0 70.1216 10.8098 758 103.964 568.88 481.566
817 0 73.0632 9.95029 727 105.103 569.292 481.465
818 0 72.0769 8.35219 602 106.694 569.493 481.962
819 0 77.0625 9.16139 706 105.802 570.16 479.772
820 0 79.0762 8.9028 704 106.009 569.638 479.509
821 1 42.0429 10.0374 422 101.791 571.505 494.092
822 0 44.0501 11.3734 501 104.758 571.663 492.096
823 0 41.0235 7.99542 328 103.21 569.784 496.634
824 0 43.0138 9.50858 409 100.966 570.254 494.582
825 0 43.0276 8.15755 351 102.368 570.251 495.96
826 0 45.0178 9.19635 414 101.848 569.498 493.041
827 0 45.0211 7.75192 349 103.201 569.057 494.284
828 0 50.0603 9.88807 495 98.6222 569.457 491.612
829 0 52.0776 10.9068 568 97.419 568.886 491.273
830 0 54.1091 9.83199 532 99.5357 569.226 490.158
831 0 53.0815 9.8151 521 100.413 568.762 488.205
832 0 57.0783 9.3906 536 100.174 568.377 488.483
833 0 58.1714 9.79863 570 100.089 568.425 484.507
834 0 56.1332 8.56891 481 104.058 568.168 484.364
835 0 60.043 10.0095 601 100.22 568.561 488.358
836 0 61.2818 10.2151 626 100.214 568.695 486.072
837 0 62.1652 10.8582 675 100.009 568.97 483.203
838 0 65.183 8.86734 578 101.926 568.538 485.593
839 0 68.0991 12.056 821 98.6724 568.354 482.107
840 0 69.3603 10.6978 742 102.516 568.93 482.26
841 0 72.3793 12.1305 878 100.223 569.256 481.13
842 0 73.4479 11.0827 814 102.905 569.134 478.864
843 0 76.2196 10.3254 787 104.665 568.461 474.811
844 0 79.2355 10.5761 838 104.374 568.876 476.743
845 0 82.2835 10.7555 885 103.724 568.263 478.092
846 1 46.083 9.83008 453 104.3 568.296 492.812
847 0 50.1473 10.4891 526 103.215 568.772 493.205
848 0 50.1455 12.8626 645 98.831 568.234 492.953
849 0 50.1501 11.4855 576 103.363 567.486 491.995
850 0 51.1369 10.8141 553 105.056 568.009 490.812
851 0 53.1831 12.4664 663 102.796 567.268 490.385
852 0 56.1428 13.2519 744 101.696 567.941 487.523
853 0 55.2011 11.5034 635 106.022 567.449 488.249
854 0 57.1136 12.0812 690 105.168 567.649 488.741
855 0 61.1696 12.4408 761 104.185 567.243 485.84
856 0 62.0844 11.887 738 106.407 567.317 485.892
857 0 62.1026 11.9963 745 108.185 567.396 482.812
858 0 67.1641 12.2536 823 106.253 567.235 483.046
859 0 67.1829 12.265 824 108.36 567.172 480.562
860 0 69.1509 11.9449 826 110.048 567.236 479.212
861 0 71.2012 12.3593 880 109.423 567.559 480.228
862 0 76.0956 13.483 1026 107 568.213 478.894
863 0 78.1612 13.5489 1059 106.625 568.136 478.151
864 0 79.1753 12.2766 972 109.627 568.117 477.242
865 0 83.1577 11.1234 925 111.654 568.039 477.589
866 0 86.198 11.9956 1034 112.63 567.855 472.796
867 0 90.1969 11.874 1071 111.437 568.111 473.009
868 0 93.2728 13.23 1234 109.729 568.316 471.015
869 0 97.1273 13.1271 1275 110.62 568.417 469.753
870 1 48.0576 11.6735 561 109.039 569.512 493.118
871 0 50.0488 12.4678 624 106.739 569.769 493.562
872 0 51.0433 12.6951 648 104.42 569.605 491.052
873 0 53.0685 12.2106 648 106.599 569.488 491.245
874 0 55.0573 12.8957 710 106.254 569.832 490.49
875 0 55.0913 12.2705 676 109.675 570.315 489.868
876 0 57.0375 12.7635 728 110.339 569.499 487.019
877 0 60.127 13.2054 794 109.423 570.251 486.403
878 0 61.1255 13.0224 796 114.308 570 485.613
879 0 64.0961 13.4486 862 115.343 569.125 485.4
880 0 63.2011 13.196 834 118.829 569.656 484.315
881 0 68.1095 13.8894 946 116.168 569.86 481.946
882 0 70.0847 13.2982 932 118.78 569.637 483.52
883 0 72.0945 14.3146 1032 116.119 569.937 482.706
884 0 72.1068 12.8143 924 121.378 569.932 481.838
885 0 76.1303 13.3587 1017 120.489 569.581 479.157
886 0 78.2491 14.3644 1124 118.508 568.933 477.322
887 0 79.163 12.569 995 124.267 568.965 476.153
888 0 84.3216 14.0415 1184 119.17 569.27 476.972
889 0 83.2244 13.4696 1121 123.707 568.195 473.201
890 0 88.3079 13.5322 1195 123.297 568.079 471.753
891 0 90.3239 13.5291 1222 123.46 568.61 471.465
892 0 92.425 13.3189 1231 123.726 568.328 470.647
893 0 97.2901 13.506 1314 121.682 568.489 467.867
894 0 98.3159 12.9481 1273 122.701 569.084 465.737
895 0 101.306 12.1513 1231 123.779 568.669 463.995
896 0 105.331 13.1016 1380 121.761 568.548 460.599
897 0 108.459 12.7052 1378 122.151 569.282 460.257
898 0 112.469 12.35 1389 123.497 569.097 459.96
899 0 114.294 13.2641 1516 121.677 569.088 459.075
900 0 117.426 12.4844 1466 124.381 568.834 458.323
901 0 122.322 13.1375 1607 122.848 568.647 454.402
902 0 125.339 13.6908 1716 122.909 569.177 452.394
903 0 128.383 14.0906 1809 122.431 568.946 447.481
904 0 134.333 13.6601 1835 122.904 569.131 448.603
905 0 136.473 14.3398 1957 121.645 569.002 446.552
906 0 140.361 13.85 1944 123.689 568.812 441.759
907 0 146.274 13.755 2012 123.519 568.765 441.177
908 0 151.462 13.6602 2069 125.17 568.333 438.599
909 0 158.475 14.5385 2304 122.959 568.766 436.149
910 0 162.38 14.2382 2312 124.898 568.836 434.041
911 0 169.592 14.8062 2511 123.053 567.969 431.729
912 0 175.521 15.1492 2659 121.6 568.389 425.627
913 0 179.398 14.7828 2652 122.424 568.166 425.67
914 0 183.419 13.6354 2501 126.377 568.473 426.511
915 0 189.562 13.6683 2591 126.296 568.912 423.485
916 0 195.364 13.4621 2630 126.989 568.985 419.999
917 0 203.365 13.5028 2746 126.761 568.257 415.877
918 1 128.347 11.2196 1440 123.392 568.888 456.502
919 0 131.171 12.358 1621 121.92 568.84 450.645
920 0 137.432 12.6681 1741 124.177 568.271 448.179
921 0 144.369 13.2439 1912 120.791 568.932 447.279
922 0 147.516 12.8054 1889 122.92 569.226 444.163
923 0 152.33 11.8493 1805 125.623 569.243 443.595
924 0 157.35 12.7041 1999 124.614 569.108 438.17
925 0 165.337 13.4816 2229 122.704 568.929 437.989
926 0 169.449 12.4345 2107 127.729 568.591 435.321
927 0 175.486 13.1749 2312 126.93 567.979 430.264
928 0 180.593 13.1566 2376 128.138 568.223 430.715
929 0 184.386 13.1735 2429 129.209 568.471 426.157
930 0 190.384 13.0788 2490 131.272 568.216 421.663
931 0 197.428 13.6303 2691 129.892 568.596 420.465
932 0 202.38 12.9855 2628 132.943 568.303 414.662
933 0 209.518 13.9415 2921 130.921 568.395 411.715
934 0 217.433 13.4386 2922 131.49 568.401 409.353
935 0 224.556 13.4443 3019 132.249 568.198 405.803
936 1 68.1684 11.633 793 122.799 568.164 480.106
937 0 70.2305 11.7613 826 123.138 568.033 478.372
938 0 72.2146 11.7566 849 123.583 568.241 478.948
939 0 73.3055 12.1546 891 119.889 568.095 479.506
940 0 75.4445 12.0486 909 119.693 568.409 477.903
941 0 78.1617 12.8196 1002 118.311 568.217 476.231
942 0 80.3055 11.6181 933 119.329 568.156 477.877
943 0 84.2135 12.1952 1027 117.126 568.279 474.109
944 0 85.3285 11.8366 1010 118.713 568.213 470.279
945 0 90.3447 12.8176 1158 114.231 568.043 472.953
946 0 92.4253 11.7609 1087 116.054 568.511 471.226
947 0 95.3066 11.5207 1098 116.061 568.349 466.075
948 0 100.317 12.7794 1282 112.255 567.995 465.314
949 0 103.347 11.8533 1225 114.907 568.073 464.886
950 1 59.2295 10.0626 596 119.339 567.401 486.042
951 0 61.1763 11.1971 685 119.019 567.523 483.209
952 0 62.2343 11.2317 699 109.751 568.371 483.79
953 0 65.14 11.4062 743 108.983 567.693 485.078
954 0 66.1187 11.5247 762 108.472 568.03 483.421
955 0 66.1948 11.3 748 109.326 568.218 482.749
956 0 69.2824 12.1965 845 107.721 568.866 479.098
957 0 70.2319 11.4193 802 109.607 569.171 480.055
958 0 74.3663 11.2416 836 110.183 568.441 478.708
959 0 76.2135 11.8352 902 109.042 568.904 476.63
960 0 77.2949 11.993 927 110.234 569.051 474.613
961 0 76.2913 10.8138 825 116.12 568.741 473.259
962 0 82.1303 11.2139 921 111.41 569.04 470.683
963 0 85.0863 11.0594 941 110.883 569.446 472.73
964 0 87.3728 10.6097 927 113.594 569.833 469.518
965 0 91.3544 10.5195 961 113.088 569.866 468.334
966 1 51.2628 9.55859 490 108.641 570.112 485.327
967 0 56.1611 11.5382 648 103.898 570.236 487.315
968 0 56.2391 10.8821 612 109.773 569.482 485.727
969 0 56.2231 10.0493 565 107.407 569.904 484.692
970 0 62.1845 10.4849 652 112.658 569.446 483.643
971 0 63.3467 11.6186 736 110.867 569.17 482.038
972 0 64.2173 11.4767 737 110.543 568.843 484.076
973 0 65.2927 10.8435 708 113.425 568.532 477.767
974 0 69.3075 11.6149 805 111.226 568.83 479.104
975 0 70.1558 11.674 819 111.486 569.22 476.485
976 0 73.211 12.1157 887 109.511 568.856 475.745
977 0 75.1598 12.0011 902 108.752 569.408 476.382
978 0 76.2362 11.8317 902 109.687 569.569 475.557
979 0 81.1548 12.2359 993 107.493 569.896 474.051
980 0 81.3014 11.771 957 109.66 569.994 472.625
981 0 83.1488 11.4734 954 109.971 569.338 470.476
982 0 86.225 12.4442 1073 108.271 569.364 467.188
983 0 90.2023 13.6693 1233 106.586 569.04 468.019
984 0 92.191 11.6931 1078 111.45 568.981 467.598
985 0 97.3099 14.6028 1421 104.792 569.424 465.611
986 0 98.1899 13.1887 1295 109.923 569.331 462.368
987 0 102.192 15.4611 1580 103.997 569.575 459.619
988 0 105.208 13.4496 1415 107.518 569.607 460.974
989 0 109.18 13.0793 1428 107.359 569.21 459.162
990 0 109.137 12.1773 1329 109.952 569.209 456.884
991 0 114.21 13.8692 1584 107.699 569.319 449.22
992 0 115.212 13.2712 1529 109.759 569.542 446.895
993 1 65.0792 11.6013 755 103.254 569.58 478.872
994 0 68.2919 11.9194 814 103.001 569.1 476.88
995 0 68.4236 11.2827 772 105.49 569.008 476.114
996 0 68.301 11.42 780 106.61 569.271 475.263
997 0 71.2578 12.0829 861 106.358 569.452 472.415
998 0 74.2344 11.5984 861 107.107 569.187 473.942
999 0 77.2038 12.6807 979 106.308 569.585 471.791
1000 0 81.2266 12.976 1054 106.368 569.361 471.583
1001 0 84.3365 12.4146 1047 106.885 569.493 471.022
1002 0 84.333 13.9447 1176 105.238 568.83 468.384
1003 0 88.3435 12.6325 1116 109.177 568.888 465.886
1004 0 89.2269 14.0092 1250 107.786 568.833 464.006
1005 0 92.6687 13.2731 1230 109.654 569.198 462.526
1006 0 96.6362 13.9803 1351 108.034 569.527 462.866
1007 0 101.563 14.198 1442 107.518 568.591 460.691
1008 0 101.476 12.6926 1288 112.731 569.174 458.79
1009 0 108.363 14.6175 1584 107.489 568.94 457.777
1010 0 110.34 13.9478 1539 110.541 568.896 454.238
1011 0 113.356 12.9328 1466 113.449 568.606 454.293
1012 1 65.188 12.2722 800 108.596 569.778 480.782
1013 0 65.1925 11.9646 780 110.655 569.799 481.094
1014 0 70.1013 12.4534 873 109.589 569.139 478.778
1015 0 71.1826 10.8173 770 112.81 569.058 478.304
1016 0 73.237 12.3571 905 110.731 568.776 476.597
1017 0 75.1291 12.8046 962 111.223 569.344 474.588
1018 0 78.2018 11.9435 934 112.787 568.942 473.669
1019 0 81.2791 12.8077 1041 111.765 568.668 469.604
1020 0 84.2064 12.3625 1041 112.952 568.892 469.58
1021 0 88.3833 13.0228 1151 111.524 568.414 466.87
1022 0 90.4159 12.6195 1141 112.082 568.619 465.553
1023 0 93.1568 11.9369 1112 114.94 568.894 463.264
1024 0 97.3898 12.6194 1229 113.02 568.595 462.517
1025 0 101.268 14.121 1430 109.185 568.651 462.083
1026 1 53.1517 10.122 538 108.138 568.175 485.349
1027 0 55.1769 10.8379 598 107.294 567.742 485.13
1028 0 55.0817 11.2923 622 108.523 568.267 482.238
1029 0 56.1573 11.45 643 107.554 569.658 482.89
1030 0 59.1533 10.9884 650 107.349 570.078 483.12
1031 0 64.0776 12.1727 780 109.481 567.442 475.756
1032 0 62.0331 11.0909 688 113.196 567.391 479.775
1033 0 66.0171 11.5879 765 110.808 568.422 477.735
1034 0 68.0556 11.9902 816 108.864 567.961 477.929
1035 0 71.0633 13.0869 930 107.018 568.09 474.489
1036 0 73.3058 11.9499 876 108.566 568.635 473.966
1037 0 77.214 12.1092 935 106.872 568.701 467.424
1038 0 78.2694 11.601 908 108.503 568.559 468.539
1039 0 81.405 12.5668 1023 106.985 568.578 468.392
1040 0 82.353 13.2843 1094 105.492 568.77 468.579
1041 0 83.3542 11.4211 952 111.15 568.187 465.474
1042 0 88.3809 12.1633 1075 109.353 568.799 464.078
1043 0 93.4917 12.8568 1202 107.78 568.318 461.891
1044 0 96.3752 12.5862 1213 108.581 568.274 460.647
1045 1 53.1081 11.5237 612 101.832 567.922 482.673
1046 0 54.0644 11.3938 616 99.4172 568.544 481.869
1047 0 51.107 9.0203 461 102.124 569.343 478.152
1048 0 58.0626 11.5909 673 103.52 567.211 483.303
1049 0 57.0387 11.2029 639 106.128 567.432 473.266
1050 0 58.1171 10.4616 608 107.536 567.643 480.51
1051 0 62.0885 12.0473 748 103.035 568.461 482.219
1052 0 64.1633 12.2968 789 102.138 568.663 480.029
1053 0 65.0964 11.6596 759 103.559 568.449 480.938
1054 0 64.1781 12.0913 776 104.714 567.923 473.973
1055 0 66.1089 12.3735 818 104.197 567.543 474.252
1056 0 70.0584 12.3897 868 102.826 567.145 475.503
1057 0 74.1266 12.5461 930 103.074 566.937 474.842
1058 0 74.0276 13.0357 965 103.152 567.216 472.645
1059 0 78.1211 12.6086 985 104.911 567.157 467.25
1060 0 78.0649 12.3615 965 105.875 567.203 473.002
1061 0 79.0973 11.8082 934 108.202 566.687 469.645
1062 0 85.1411 12.6026 1073 106.248 567.05 467.446
1063 0 87.1437 12.1982 1063 108.504 567.367 468.771
1064 0 88.0815 12.5452 1105 108.885 567.743 467.11
1065 0 92.161 13.0207 1200 108.531 567.129 464.512
1066 0 96.1904 12.6104 1213 107.786 567.168 461.859
1067 0 96.2906 11.0707 1066 107.058 570.238 456.159
1068 0 99.2844 11.5728 1149 106.408 570.031 455.722
1069 1 52.176 10.5987 553 97.8897 570.812 479.119
1070 0 53.2285 10.6146 565 96.1239 570.175 476.892
1071 0 55.1939 10.3816 573 96.808 569.26 477.328
1072 0 55.2273 8.89052 491 102.242 568.843 474.086
1073 0 59.1693 10.2249 605 98.7157 568.927 476.536
1074 0 61.1943 9.90288 606 100.931 567.959 475.642
1075 0 65.23 10.8539 708 99.7712 568.825 474.629
1076 0 64.2535 9.33802 600 107.318 568.52 471.053
1077 0 69.2887 11.3727 788 103.621 568.676 470.374
1078 0 69.2142 12.0784 836 104.553 568.118 471.024
1079 0 72.2173 12.6009 910 104.571 568.277 468.576
1080 0 72.2732 10.4465 755 110.886 569.204 469.003
1081 0 76.2093 11.1273 848 110.494 569.013 467.456
1082 0 76.1719 11.1721 851 111.757 568.801 468.132
1083 0 79.3096 12.7979 1015 110.388 568.639 464.037
1084 0 80.1515 12.5637 1007 111.914 568.734 462.679
1085 0 85.2114 13.0968 1116 109.596 568.708 463.522
1086 0 85.1226 11.4541 975 115.512 568.663 461.889
1087 0 90.2215 12.9681 1170 110.738 569.359 462.591
1088 0 94.176 11.6165 1094 114.87 569.148 459.271
1089 0 98.1664 12.3056 1208 113.202 569.506 457.927
1090 0 102.247 12.2058 1248 114.024 569.371 457.154
1091 0 104.172 12.5945 1312 112.681 569.921 454.13
1092 1 54.1531 9.36234 507 106.051 569.909 477.036
1093 0 56.0907 11.6775 655 100.904 570.064 478.131
1094 0 58.0962 9.88017 574 105.979 570.683 478.035
1095 0 59.0529 9.55077 564 106.473 570.027 475.814
1096 0 63.0857 11.1277 702 107.071 569.556 469.434
1097 0 65.0693 12.1563 791 103.614 570.192 469.979
1098 0 67.1137 10.8473 728 106.305 570.747 472.738
1099 0 67.0739 10.3766 696 108.932 570.099 469.069
1100 0 72.133 10.8827 785 104.823 570.734 471.261
1101 0 74.0359 11.8186 875 102.037 570.032 470.225
1102 0 77.1924 11.0503 853 105.916 568.476 464.117
1103 0 80.0627 10.4793 839 105.844 568.031 469.124
1104 0 82.1061 10.4255 856 106.891 568.63 468.835
1105 0 85.1153 12.7592 1086 102.903 568.785 466.307
1106 0 86.274 10.7796 930 107.835 568.613 465.3
1107 0 94.179 12.8585 1211 101.733 568.574 465.455
1108 0 95.1618 11.0759 1054 106.278 570.363 464.299
1109 0 98.1591 12.6835 1245 105.602 570.014 464.999
1110 1 55.0845 11.0376 608 111.926 567.668 484.572
1111 0 57.0347 13.0622 745 105.741 569.948 486.271
1112 0 57.1009 11.4534 654 118.161 567.859 484.034
1113 0 59.0911 12.5738 743 114.799 568.171 483.666
1114 0 63.0771 12.7622 805 113.707 567.954 484.477
1115 0 63.0914 13.1555 830 113.201 568.611 484.025
1116 0 66.1179 11.419 755 117.277 568.25 482.344
1117 0 67.1042 12.488 838 115.837 567.798 481.975
1118 0 68.0705 12.3401 840 117.327 567.663 480.124
1119 0 69.0426 13.1223 906 117.036 567.667 479.366
1120 0 72.099 13.2457 955 115.58 567.915 477.721
1121 0 73.1308 13.1408 961 117.478 568.38 477.508
1122 0 75.0671 12.9085 969 118.548 567.608 476.656
1123 0 77.1299 12.5503 968 119.532 568.143 475.861
1124 0 80.0542 13.1911 1056 116.997 567.594 474.513
1125 0 82.0663 13.5622 1113 117.593 568.094 472.011
1126 0 85.0947 12.6917 1080 119.323 568.143 471.187
1127 0 87.1244 12.1895 1062 120.421 568.365 469.502
1128 0 91.267 12.0197 1097 117.701 568.837 469.478
1129 0 93.1507 13.3225 1241 113.321 568.551 464.327
1130 0 96.1301 12.816 1232 114.269 568.943 463.457
1131 1 54.0428 10.3992 562 111.614 568.327 486.722
1132 0 53.1806 10.0601 535 111.518 567.925 479.637
1133 0 56.2423 11.3082 636 109.653 567.899 481.066
1134 0 61.2398 12.4429 762 104.836 568.427 483.983
1135 0 61.0366 11.7962 720 109.31 569.901 485.294
1136 0 60.105 11.5797 696 110.866 569.894 484.657
1137 0 65.0756 12.3395 803 107.841 569.864 483.741
1138 0 65.1203 12.976 845 106.789 569.704 484.689
1139 0 67.0511 12.826 860 107.772 569.578 481.838
1140 0 68.0959 12.9817 884 106.614 569.044 482.343
1141 0 69.1186 13.5419 936 105.587 568.761 479.599
1142 0 72.1882 13.7141 990 104.612 568.513 480.124
1143 0 73.0503 12.6625 925 108.418 568.837 478.182
1144 0 75.1415 11.6314 874 110.942 568.288 477.975
1145 0 78.0449 12.9028 1007 108.703 568.157 476.683
1146 0 82.1415 13.1967 1084 107.421 567.826 473.386
1147 0 83.2433 12.8659 1071 109.754 568.091 473.1
1148 0 86.1168 12.4947 1076 111.823 567.827 471.311
1149 0 90.2555 13.4839 1217 109.337 567.411 469.419
1150 0 92.1792 12.1068 1116 112.022 567.253 465.697
1151 0 94.2145 13.1084 1235 110.383 567.072 465.261
1152 0 97.1774 13.5628 1318 111.146 566.713 462.969
1153 0 100.158 14.2475 1427 110.347 566.853 461.571
1154 0 104.156 13.7294 1430 111.501 566.573 454.791
1155 1 59.0493 11.2279 663 113.896 565.842 479.528
1156 0 59.0467 11.601 685 110.524 566.298 483.201
1157 0 57.0516 11.7963 673 107.484 568 480.042
1158 0 57.0819 11.0017 628 103.709 567.529 479.457
1159 0 60.2344 11.2892 680 103.487 566.971 479.834
1160 0 60.1419 10.8577 653 106.917 567.686 475.792
1161 0 64.1975 11.5581 742 105.243 567.795 475.446
1162 0 64.1342 12.0217 771 106.944 568.345 473.328
1163 0 68.0894 11.3233 771 106.883 568.109 474.888
1164 0 69.1582 10.2374 708 110.048 568.54 474.274
1165 0 70.0716 9.94696 697 111.709 568.603 472.703
1166 0 72.1052 10.554 761 112.393 568.213 470.917
1167 0 76.2296 11.8851 906 110.429 568.422 468.288
1168 0 74.1104 10.5788 784 115.209 568.699 465.351
1169 0 80.126 10.8205 867 113.687 568.755 466.991
1170 0 82.179 11.8157 971 114.406 569.16 462.647
1171 0 87.1865 11.9743 1044 112.45 569.57 464.48
1172 0 89.1536 10.7231 956 116.65 568.783 462.901
1173 0 90.1794 10.4126 939 118.508 568.88 461.224
1174 0 96.3123 11.743 1131 116.378 568.884 456.406
1175 0 98.2861 11.8023 1160 117.038 569.091 452.111
1176 1 53.0739 9.98608 530 111.274 569.166 480.091
1177 0 55.1063 9.83553 542 113.926 569.677 477.092
1178 0 58.2255 12.0394 701 120.847 567.056 483.572
1179 0 58.2083 11.1668 650 114.708 567.565 484.003
1180 0 59.1372 11.0252 652 123.463 567.948 482.396
1181 0 64.1999 12.8505 825 116.904 567.713 480.856
1182 0 64.1764 12.5903 808 117.389 567.707 480.892
1183 0 66.1741 12.4067 821 118.475 567.562 479.641
1184 0 68.292 11.5973 792 120.196 567.451 477.956
1185 0 71.2557 11.4377 815 120.566 567.582 477.347
1186 0 73.1315 12.0741 883 119.453 567.504 473.796
1187 0 78.2542 13.2134 1034 115.921 568.357 475.782
1188 0 80.1613 12.662 1015 118.479 568.302 473.61
1189 0 81.3101 13.0242 1059 118.598 568.366 471.903
1190 0 86.3145 13.1496 1135 117.705 568.335 469.222
1191 0 89.3463 14.2703 1275 115.502 568.572 468.007
1192 0 90.3098 12.4903 1128 121.863 568.279 464.671
1193 0 92.312 12.0136 1109 122.659 568.124 467.476
1194 0 97.4043 13.3259 1298 118.512 568.377 463.864
1195 1 47.2655 11.3402 536 119.097 568.991 487.364
1196 0 49.4635 10.8161 535 122.604 569.346 484.628
1197 0 54.4409 10.9477 596 119.559 568.723 482.062
1198 0 54.3677 12.3235 670 116.815 568.304 480.796
1199 0 55.2861 11.3591 628 115.589 568.777 485.946
1200 0 58.0856 13.3252 774 113.736 567.655 483.886
1201 0 59.166 13.5551 802 112.555 567.857 483.842
1202 0 60.1934 11.9448 719 116.394 567.248 484.076
1203 0 62.2159 13.1317 817 113.849 567.829 480.869
1204 0 65.1294 13.4041 873 111.598 567.7 480.912
1205 0 65.1491 12.7093 828 114.372 567.621 479.301
1206 0 70.2218 13.4716 946 111.513 567.237 478.07
1207 0 70.1187 13.249 929 113.898 568.008 477.18
1208 0 75.2037 13.6297 1025 112.477 568.336 476.124
1209 0 75.2634 13.6853 1030 113.985 568.032 474.718
1210 0 79.1472 12.243 969 115.219 568.424 472.854
1211 0 80.2333 12.4013 995 115.17 568.745 473.044
1212 0 83.1502 13.5899 1130 111.942 568.781 474.211
1213 0 88.1464 14.1129 1244 110.124 568.861 471.021
1214 0 89.1502 13.2249 1179 113.585 568.622 469.967
1215 0 91.1528 13.7791 1256 113.57 568.303 467.857
1216 0 97.1884 13.7774 1339 112.501 568.771 465.229
1217 0 99.1122 12.7431 1263 116.864 569.017 463.095
1218 0 101.165 13.6016 1376 112.944 568.976 464.029
1219 1 51.1562 9.46121 484 116.095 568.112 483.248
1220 0 52.1568 10.9286 570 108.04 568.361 481.949
1221 0 56.1049 12.5479 704 113.947 568.774 484.605
1222 0 58.1244 12.7829 743 113.215 567.378 482.203
1223 0 60.0654 12.5197 752 113.735 567.432 482.742
1224 0 64.1768 13.3537 857 111.06 567.938 480.253
1225 0 64.0348 13.4927 864 111.698 567.699 479.9
1226 0 66.0977 12.9959 859 112.552 566.907 479.448
1227 0 68.058 12.6804 863 113.673 567.394 475.927
1228 0 72.0251 12.329 888 114.38 567.85 475.646
1229 0 73.0893 12.8473 939 111.249 567.818 474.33
1230 0 75.1007 12.9426 972 110.723 568.081 474.239
1231 0 76.2231 12.5553 957 110.018 567.442 471.915
1232 0 79.1133 12.5263 991 107.982 569.916 473.978
1233 0 80.3024 11.631 934 110.387 569.922 476.141
1234 0 84.0911 12.6054 1060 109.525 569.342 474.702
1235 0 86.1011 12.7873 1101 109.91 569.028 471.92
1236 0 88.135 12.8212 1130 110.435 569.446 470.484
1237 0 92.1765 13.3982 1235 109.058 568.785 468.103
1238 0 93.259 13.4679 1256 110.443 568.619 467.645
1239 0 98.1651 13.1921 1295 110.909 568.581 465.605
1240 0 98.1987 12.8922 1266 111.22 569.007 464.378
1241 0 103.239 13.8708 1432 107.569 569.029 459.815
1242 0 107.091 12.5127 1340 109.768 568.406 456.99
1243 1 57.0903 11.2103 640 111.894 567.233 479.539
1244 0 57.3537 12.7106 729 114.575 568.387 481.51
1245 0 60.0499 13.3722 803 108.522 568.237 482.674
1246 0 63.1339 12.0221 759 109.672 569.357 483.677
1247 0 63.2841 12.7362 806 109.393 570.117 478.211
1248 0 66.3395 12.7074 843 109.235 569.06 478.319
1249 0 69.348 12.4157 861 111.014 569.422 476.336
1250 0 69.2207 13.4064 928 111.879 569.22 474.506
1251 0 73.2986 12.5378 919 112.983 569.369 473.503
1252 0 76.2762 14.395 1098 110.453 568.45 472.892
1253 0 79.2495 13.0348 1033 115.44 569.07 469.682
1254 0 80.2991 13.5992 1092 114.553 569.338 468.322
1255 0 85.1442 14.3756 1224 111.873 568.9 470.08
1256 0 88.2986 13.409 1184 115.09 568.904 466.405
1257 0 90.4452 14.3733 1300 112.793 568.902 463.091
1258 0 93.4093 13.8316 1292 116.637 568.382 462.976
1259 1 48.2824 10.5628 510 113.08 569.416 485.237
1260 0 46.1932 9.785 452 107.564 568.664 484.221
1261 0 45.0642 9.94137 448 103.996 567.866 483.228
1262 0 49.093 9.96068 489 104.634 568.54 482.16
1263 0 51.1134 10.7408 549 102.945 567.727 482.998
1264 0 55.0964 13.3402 735 110.397 567.599 486.803
1265 0 57.1088 10.4362 596 114.19 568.802 486.664
1266 0 60.0957 11.5982 697 110.75 569.706 484.594
1267 0 59.2088 11.1639 661 113.796 569.192 483.378
1268 0 63.0852 12.6179 796 109.705 569.687 482.764
1269 0 62.0734 12.2758 762 113.109 570.28 479.732
1270 0 66.1707 12.2108 808 111.558 569.861 481.745
1271 0 67.0769 12.7317 854 112.515 568.758 477.731
1272 0 69.0829 12.1303 838 115.258 569.675 479.558
1273 0 72.1492 11.7534 848 115.67 569.909 477.459
1274 0 75.1702 13.6889 1029 110.798 569.842 476.948
1275 0 75.12 11.861 891 116.844 569.789 475.655
1276 0 79.208 12.5871 997 114.522 569.219 475.24
1277 0 82.1458 12.4048 1019 115.581 569.567 471.872
1278 0 85.2408 12.5761 1072 115.648 569.507 471.074
1279 0 89.1654 12.6506 1128 115.672 569.211 468.496
1280 1 49.2559 10.618 523 117.285 569.203 488.516
1281 0 50.1442 9.83165 493 119.14 569.515 488.716
1282 0 51.3665 11.0383 567 109.623 567.25 481.162
1283 0 52.1781 12.4573 650 108.462 569.838 486.549
1284 0 55.0851 12.163 670 107.479 570.03 487.112
1285 0 54.046 11.3977 616 111.573 570.153 486.364
1286 0 57.0891 13.1198 749 106.96 570.284 485.94
1287 0 56.0336 11.9036 667 113.049 570.247 482.58
1288 0 59.0601 13.2069 780 108.431 569.983 482.442
1289 0 60.1199 11.9761 720 112.008 569.878 481.519
1290 0 63.0696 11.4001 719 111.989 570.63 482.79
1291 0 65.0782 12.4312 809 110.299 570.71 476.996
1292 0 68.1132 14.5787 993 105.433 570.836 479.52
1293 0 70.0641 13.3592 936 108.826 570.56 477.353
1294 0 71.1058 12.6431 899 110.917 571.086 475.725
1295 0 73.2596 13.0904 959 109.599 570.531 474.394
1296 0 75.1492 13.4399 1010 109.517 571.062 471.677
1297 0 77.171 13.658 1054 109.766 570.082 468.673
1298 0 79.1407 12.1429 961 114.457 570.592 468.264
1299 0 81.1182 12.5249 1016 112.817 570.575 470.31
1300 0 80.231 11.1179 892 117.916 569.494 466.883
1301 0 86.1621 12.7782 1101 113.937 569.954 465.992
1302 0 88.2337 13.1696 1162 113.092 569.591 465.197
1303 0 91.208 13.2445 1208 114.171 569.157 463.311
1304 0 96.1637 14.2049 1366 111.837 569.57 461.526
1305 0 97.2555 13.9221 1354 113.398 569.121 459.489
1306 0 99.3524 13.276 1319 114.761 568.914 458.629
1307 0 104.14 13.5971 1416 112.759 569.316 458.126
1308 0 108.347 13.9274 1509 110.042 569.033 455.528
1309 1 55.0811 8.89598 490 109.998 568.4 479.773
1310 0 57.0426 11.7281 669 107.182 568.314 476.445
1311 0 57.1016 10.3325 590 106.258 567.385 475.851
1312 0 63.2146 11.5163 728 103.095 569.383 470.293
1313 0 65.2111 11.7005 763 102.439 569.067 476.463
1314 0 66.1671 11.0327 730 105.519 568.934 477.621
1315 0 71.1786 12.0682 859 102.889 568.725 478.137
1316 0 72.1667 11.7644 849 104.231 569.119 475.439
1317 0 76.1419 12.3454 940 102.437 568.918 476.171
1318 0 74.2305 11.4508 850 107.134 568.58 472.567
1319 0 79.1924 12.3118 975 104.728 568.692 470.511
1320 0 82.2513 12.3159 1013 104.631 568.543 470.3
1321 0 82.1995 12.0682 992 109.649 568.501 467.501
1322 0 86.2165 13.8257 1192 108.173 568.83 470.339
1323 0 88.1552 12.2511 1080 112.743 568.454 468.187
1324 0 92.1836 14.2542 1314 108.535 568.377 465.803
1325 0 93.1836 12.3949 1155 113.583 568.494 465.982
1326 0 98.2096 13.1963 1296 112.541 568.765 464.958
1327 0 101.202 14.0708 1424 110.705 568.834 463.046
1328 0 102.234 12.2268 1250 113.06 568.74 459.709
1329 0 107.304 14.0162 1504 109.058 568.623 457.022
1330 0 108.368 13.2881 1440 114.194 568.131 457.435
1331 0 115.314 13.2942 1533 111.882 567.973 457.101
1332 1 65.1474 12.2184 796 110.082 568.623 481.456
1333 0 68.1567 12.2658 836 109.944 569.063 478.618
1334 0 69.1875 13.355 924 107.341 568.063 478.487
1335 0 71.3125 12.5644 896 110.292 567.961 477.854
1336 0 73.1824 13.7875 1009 109.005 567.846 477.64
1337 0 76.1461 13.7499 1047 108.272 567.779 477.117
1338 0 78.2258 12.4511 974 113.061 568.079 473.01
1339 0 82.2322 13.7294 1129 110.035 568.075 471.381
1340 0 82.1568 13.0117 1069 113.968 567.523 471.926
1341 0 85.2865 12.3466 1053 116.052 567.949 469.147
1342 0 89.2289 12.6304 1127 115.423 567.127 466.711
1343 0 91.2629 12.8639 1174 115.764 567.564 467.007
1344 0 95.3082 13.4406 1281 115.378 567.459 465.945
1345 0 97.1523 14.4515 1404 116.862 568.771 464.626
1346 0 102.317 12.4906 1278 121 568.738 463.115
1347 0 105.331 13.2535 1396 119.898 567.908 460.112
1348 0 107.441 12.7977 1375 122.148 567.637 454.092
1349 1 59.2643 12.0477 714 113.227 567.742 480.945
1350 0 60.2065 10.8128 651 116.241 567.694 483.407
1351 0 62.0946 12.2716 762 115.146 567.907 483.375
1352 0 64.0552 12.0521 772 121.326 566.845 479.733
1353 0 68.0958 11.5572 787 122.577 567.137 476.635
1354 0 71.0995 12.3911 881 120.394 567.17 477.885
1355 0 74.0969 13.5093 1001 116.154 566.916 475.859
1356 0 77.0634 12.5351 966 118.497 566.841 475.734
1357 0 79.0835 12.784 1011 117.129 566.406 476.136
1358 0 81.1024 13.0206 1056 117.424 566.67 471.018
1359 0 81.1491 13.2226 1073 116.448 567.048 473.109
1360 0 85.0326 12.5246 1065 117.726 566.512 472.507
1361 0 86.1214 11.6696 1005 120.128 566.538 468.019
1362 0 88.1612 12.0801 1065 118.588 566.081 468.037
1363 0 94.193 13.1751 1241 114.022 566.617 468.101
1364 0 96.0944 13.5284 1300 113.209 566.415 465.857
1365 0 95.0605 13.1285 1248 115.018 566.812 463.037
1366 0 100.059 12.4326 1244 115.093 566.47 462.293
1367 0 103.031 13.3746 1378 112.565 566.875 460.488
1368 0 108.078 14.1657 1531 110.364 566.89 460.202
1369 0 110.114 13.1046 1443 112.161 567.038 452.543
1370 0 113.172 12.3264 1395 113.429 567.216 454.822
1371 0 117.113 12.8081 1500 112.532 566.888 453.751
1372 0 122.117 12.8156 1565 111.596 566.96 451.94
1373 0 123.129 12.1823 1500 114.417 567.281 449.583
1374 0 128.212 14.1251 1811 110.738 567.756 445.005
1375 0 130.346 12.1983 1590 115.708 568.173 439.521
1376 1 70.1705 9.9187 696 103.999 567.866 476.228
1377 0 74.1997 12.3046 913 98.8039 567.853 475.617
1378 0 75.1323 11.7792 885 100.484 567.285 475.473
1379 0 77.1105 11.9698 923 100.008 567.363 475.434
1380 0 80.1222 11.8943 953 101.273 568.012 472.357
1381 0 81.2134 12.1285 985 101.248 567.974 472.138
1382 0 84.2793 12.6128 1063 101.019 567.829 470.25
1383 0 88.2047 12.3009 1085 100.936 567.305 468.116
1384 0 89.1271 12.3644 1102 101.007 567.334 467.178
1385 0 92.1921 12.1268 1118 101.716 567.185 464.826
1386 0 95.1516 12.5484 1194 100.063 567.755 462.337
1387 0 99.186 12.9151 1281 99.1233 567.715 462.127
1388 0 99.2427 11.4971 1141 101.963 568.003 461.019
1389 0 103.129 12.014 1239 101.245 567.782 459.652
1390 0 107.135 12.4049 1329 98.6772 567.651 455.166
1391 0 110.315 13.2167 1458 98.6523 568.322 453.422
1392 0 113.336 12.8027 1451 100.478 568.239 452.797
1393 0 115.334 12.2947 1418 103.319 568.161 447.786
1394 0 121.322 12.2319 1484 104.845 567.562 447.967
1395 0 125.311 11.0844 1389 109.088 567.962 445.389
1396 0 131.299 12.0869 1587 107.384 568.284 445.543
1397 0 135.366 12.2852 1663 107.892 568.397 441.22
1398 1 74.2649 10.9338 812 104.196 568.159 471.789
1399 0 78.2016 12.9409 1012 99.2036 567.589 471.528
1400 0 79.0889 12.644 1000 100.623 567.616 473.745
1401 0 82.1167 13.4199 1102 100.488 567.486 468.94
1402 0 84.0443 11.9937 1008 103.958 567.597 470.776
1403 0 87.1334 12.7276 1109 102.977 567.413 468.592
1404 0 90.0725 12.5788 1133 104.156 567.997 466.457
1405 0 91.119 11.8526 1080 107.294 569.367 467.954
1406 0 95.164 13.6396 1298 104.404 568.559 465.481
1407 0 97.1537 12.3927 1204 106.931 568.15 466.37
1408 0 101.266 13.1139 1328 105.188 568.416 464.852
1409 0 104.073 12.5009 1301 105.712 568.158 457.803
1410 0 106.225 13.2266 1405 106.423 567.167 455.036
1411 0 110.256 12.7431 1405 106.893 567.401 460.629
1412 0 113.186 12.4928 1414 109.575 568.088 455.719
1413 0 118.324 13.0742 1547 107.963 568.319 454.965
1414 0 122.207 13.2398 1618 108.564 568.512 449.705
1415 1 68.0497 12.2264 832 104.112 569.179 478.858
1416 0 68.0834 10.9425 745 106.719 569.095 478.193
1417 0 71.0666 12.439 884 103.559 569.471 477.718
1418 0 74.1357 12.0994 897 105.037 569.08 475.411
1419 0 77.1164 11.943 921 106.712 568.759 473.24
1420 0 77.1368 12.2769 947 106.391 568.749 473.405
1421 0 80.0687 12.6391 1012 106.254 568.681 472.291
1422 0 79.1264 11.8292 936 109.895 568.185 469.78
1423 0 84.143 11.9083 1002 108.642 568.48 469.783
1424 0 89.1236 12.982 1157 104.51 567.996 467.799
1425 0 91.0942 13.2939 1211 104.154 569.168 469.453
1426 0 93.1727 12.9222 1204 106.719 568.218 463.359
1427 0 97.1574 12.6702 1231 107.597 568.646 463.388
1428 0 100.188 12.8658 1289 107.628 568.262 462.86
1429 0 102.248 12.7924 1308 110.031 568.088 457.202
1430 0 106.31 13.1314 1396 110.014 567.426 459.299
1431 1 57.0418 11.2198 640 109.503 569.436 483.388
1432 0 61.0293 12.4694 761 106.088 569.84 480.164
1433 0 63.0833 11.2391 709 107.412 569.186 480.103
1434 0 66.1402 12.4886 826 104.295 568.546 478.211
1435 0 68.0979 13.8771 945 101.587 569.103 478.192
1436 0 69.177 12.8511 889 103.465 568.507 477.003
1437 0 71.1043 12.6856 902 105.432 568.277 475.174
1438 0 73.1645 13.9685 1022 103.164 567.362 474.171
1439 0 75.1377 13.1359 987 105.82 568.333 473.264
1440 0 78.251 13.1628 1030 104.598 568.285 473.964
1441 0 81.2203 13.9866 1136 102.724 568.25 472.555
1442 0 83.1645 13.828 1150 103.833 567.569 467.769
1443 0 86.1939 13.0752 1127 105.863 567.772 468.76
1444 0 88.3044 12.4343 1098 108.136 567.547 466.504
1445 0 91.2046 12.3897 1130 109.099 567.718 467.119
1446 0 94.267 13.4724 1270 107.813 567.84 463.764
1447 0 96.3721 11.9744 1154 112.347 568.156 463.605
1448 0 101.283 13.2796 1345 108.225 568.191 460.007
1449 1 54.2734 11.7737 639 109.563 568.183 482.52
1450 0 57.1118 12.6244 721 112.452 567.759 473.208
1451 0 58.3 12.0926 705 113.711 567.489 478.024
1452 0 60.1193 13.8225 831 109.096 567.363 483.554
1453 0 60.1248 11.8753 714 115.413 567.225 481.563
1454 0 62.2095 12.0721 751 115.393 567.083 480.321
1455 0 65.2951 11.9151 778 115.338 567.719 480.486
1456 0 67.2317 12.628 849 114.001 567.563 479.028
1457 0 70.351 13.6316 959 111.099 567.197 478.464
1458 0 70.1835 12.6383 887 115.212 567.709 476.884
1459 0 74.1549 13.6471 1012 112.894 567.39 475.067
1460 0 77.2048 13.4966 1042 113.418 567.843 474.953
1461 0 80.2681 13.2805 1066 114.165 568.053 474.972
1462 0 82.2888 14.5463 1197 111.073 568.16 473.703
1463 0 84.2795 13.4315 1132 114.865 568.252 470.231
1464 0 86.2863 13.49 1164 115.241 567.661 471.914
1465 0 89.3009 14.0648 1256 114.6 568.248 467.975
1466 0 89.4247 12.9494 1158 118.705 567.585 467.339
1467 0 93.2524 12.6753 1182 119.126 567.36 466.219
1468 0 97.3557 13.5996 1324 116.114 567.707 465.49
1469 0 100.071 11.1121 1112 115.85 567.718 465.812
1470 0 102.179 11.8029 1206 115.773 569.71 461.772
1471 1 56.1163 11.0485 620 110.31 569.7 482.123
1472 0 58.0859 11.3969 662 110.293 569.461 479.68
1473 0 59.083 13.5911 803 105.205 568.33 479.669
1474 0 60.0361 13.0921 786 105.921 569.302 480.874
1475 0 60.0356 11.3433 681 109.997 569.245 480.154
1476 0 64.1302 11.5234 739 109.714 569.177 477.202
1477 0 67.055 13.1086 879 106.341 568.729 476.255
1478 0 70.0376 12.6075 883 107.398 568.692 475.998
1479 0 71.0259 12.1505 863 109.031 569.322 474.057
1480 0 74.0937 12.9701 961 111.927 569.092 477.07
1481 0 75.0986 13.409 1007 116.429 569.616 475.973
1482 0 79.0686 14.1143 1116 116.007 568.793 475.094
1483 0 82.0903 14.5571 1195 113.919 569.106 476.669
1484 0 83.1069 13.6571 1135 116.958 568.8 474.967
1485 0 88.1799 14.4137 1271 113.843 568.536 472.707
1486 0 90.204 14.3563 1295 114.038 568.093 470.476
1487 0 93.181 13.726 1279 116.246 568.034 469.763
1488 0 97.3472 13.0872 1274 115.524 567.4 467.633
1489 1 54.1221 12.6381 684 116.541 566.83 486.838
1490 0 56.1259 13.2915 746 115.273 568.618 484.89
1491 0 56.0922 13.4065 752 116.153 569.06 485.797
1492 0 58.0496 13.833 803 114.782 569.083 485.974
1493 0 59.0767 12.3399 729 121.993 568.845 485.949
1494 0 60.1133 13.5411 814 120.069 568.939 484.029
1495 0 63.0631 12.4796 787 121.685 568.677 484.668
1496 0 67.0862 14.459 970 117.223 568.165 483.04
1497 0 68.2979 14.2611 974 125.476 568.038 478.917
1498 0 72.1806 14.5884 1053 125.218 568.279 478.338
1499 0 72.0978 13.8423 998 127.21 568.223 479.157
1500 0 75.1252 13.9501 1048 126.471 568.564 477.602
1501 0 78.167 14.5969 1141 126.11 568.246 477.361
1502 0 80.243 14.8673 1193 125.884 568.098 476.78
1503 0 80.2122 14.2497 1143 128.534 568.902 474.993
1504 0 83.1238 14.2198 1182 122.29 568.84 472.945
1505 0 86.2136 14.9512 1289 122.331 568.04 472.408
1506 0 86.1533 15.0081 1293 127.895 568.572 473.208
1507 0 85.1342 13.1557 1120 136.209 568.738 471.538
1508 0 89.1004 15.5443 1385 128.708 567.913 466.818
1509 0 88.0527 13.5146 1190 133.594 567.349 471.009
1510 0 91.2028 13.9908 1276 132.737 566.473 463.94
1511 0 95.1914 15.0224 1430 128.67 566.552 467.48
1512 0 97.2418 14.3868 1399 132.163 566.661 466.953
1513 0 102.272 15.4588 1581 127.049 566.509 466.008
1514 0 103.305 15.4494 1596 128.395 566.366 462.746
1515 1 60.0845 13.0816 786 128.528 566.726 484.046
1516 0 60.0969 14.1105 848 123.535 566.646 482.355
1517 0 63.1694 13.0918 827 124.672 566.658 483.733
1518 0 65.1018 13.548 882 123.656 566.685 484.023
1519 0 64.094 13.4334 861 127.143 566.841 483.124
1520 0 68.1211 14.2981 974 125.662 566.723 482.295
1521 0 71.1035 14.6688 1043 124.649 567.358 481.845
1522 0 73.0828 13.1358 960 130.433 566.575 454.647
1523 0 75.1185 14.4838 1088 123.119 567.051 460.897
1524 0 76.1323 14.0545 1070 126.563 566.963 463.951
1525 0 78.1837 14.1845 1109 126.36 566.894 469.014
1526 0 80.2428 13.9078 1116 129.421 567.484 472.107
1527 0 83.0797 13.6616 1135 131.354 567.344 471.319
1528 0 85.1891 14.4737 1233 132.086 567.026 467.131
1529 0 87.1544 13.4474 1172 135.787 567.372 468.069
1530 0 91.238 13.9196 1270 136.287 566.88 465.912
1531 1 46.0711 11.3303 522 144.467 566.921 487.111
1532 0 49.0781 12.531 615 138.725 566.613 486.018
1533 0 50.0606 13.5236 677 132.756 566.458 482.428
1534 0 51.0827 13.0181 665 131.071 567.808 484.227
1535 0 52.0576 13.0432 679 132.482 567.748 484.75
1536 0 54.0644 12.966 701 134.227 568.001 485.154
1537 0 57.1321 14.0902 805 130.191 567.93 484.86
1538 0 59.1139 12.552 742 136.458 567.999 486.445
1539 0 60.1014 12.795 769 136.059 567.719 485.951
1540 0 62.1585 13.3369 829 134.23 567.589 486.984
1541 0 64.1508 14.0606 902 132.486 567.337 485.292
1542 0 68.1144 14.4022 981 130.988 567.366 483.652
1543 0 69.1229 13.9317 963 134.115 567.876 482.522
1544 0 72.2468 15.101 1091 134.302 567.324 481.087
1545 0 74.2091 14.4861 1075 138.453 567.449 480.778
1546 0 75.2842 14.6644 1104 139.37 566.781 479.963
1547 0 78.2739 14.8453 1162 139.065 567.071 477.995
1548 0 80.3283 15.1005 1213 139.744 566.053 476.992
1549 0 82.3127 13.7281 1130 149.835 566.319 468.967
1550 0 86.2233 15.3323 1322 143.572 566.147 471.883
1551 0 88.3372 15.2597 1348 143.116 565.886 469.924
1552 0 91.3135 13.8534 1265 146.148 565.587 469.889
1553 0 92.3503 14.0552 1298 148.499 565.771 467.84
1554 0 96.2846 13.8028 1329 140.781 565.316 467.277
1555 0 100.339 15.0989 1515 137.038 564.993 464.234
1556 1 56.1429 11.3282 636 137.78 565.072 489.973
1557 0 57.1743 12.733 728 136.466 565.457 488.413
1558 0 58.2826 13.9493 813 134.157 565.06 487.01
1559 0 61.1872 14.3004 875 132.397 565.538 486.815
1560 0 62.2313 14.0926 877 134.303 565.192 484.38
1561 0 66.1183 14.3531 949 132.867 565.516 484.419
1562 0 67.0742 14.0441 942 133.721 565.829 483.359
1563 0 68.2278 13.0592 891 136.707 565.536 483.596
1564 0 71.104 14.3311 1019 134.018 565.687 481.792
1565 0 73.2292 13.9835 1024 136.731 565.788 480.541
1566 0 77.2749 14.7525 1140 137.334 565.642 479.177
1567 0 79.4763 14.9856 1191 137.919 565.028 474.978
1568 0 82.3422 15.6299 1287 134.338 565.287 473.646
1569 0 85.4001 15.1522 1294 134.403 565.374 472.246
1570 0 87.3073 14.512 1267 135.657 565.348 471.092
1571 0 90.2809 14.6543 1323 134.992 564.932 469.051
1572 0 93.3808 14.5961 1363 133.482 564.49 467.922
1573 0 97.3031 14.2441 1386 132.654 564.804 468.009
1574 0 101.203 15.9778 1617 127.605 564.619 463.695
1575 0 105.182 14.7078 1547 130.281 565.059 462.321
1576 1 53.0767 12.3218 654 129.261 565.748 488.242
1577 0 56.1773 12.7632 717 126.213 565.699 484.972
1578 0 58.1295 13.6764 795 125.308 565.597 484.919
1579 0 60.1236 12.8568 773 133.269 565.796 487.677
1580 0 66.1389 14.0311 928 127.873 566.157 484.266
1581 0 65.0692 12.5097 814 134.337 565.595 480.869
1582 0 68.1729 12.5416 855 132.682 566.387 480.412
1583 0 69.0795 13.3325 921 130.49 566.482 478.303
1584 0 72.15 13.6937 988 129.681 566.37 476.401
1585 0 76.2168 14.4981 1105 126.621 566.419 474.967
1586 0 77.1465 14.3752 1109 127.794 566.071 474.096
1587 0 79.2435 13.0484 1034 131.159 566.402 474.227
1588 0 81.1735 13.8715 1126 129.979 565.329 473.6
1589 0 86.169 14.5064 1250 128.373 565.43 471.014
1590 0 87.1213 14.3134 1247 128.549 565.083 471.006
1591 0 91.1266 14.5731 1328 129.118 564.981 468.728
1592 0 93.1804 15.2071 1417 129.037 564.63 466.347
1593 0 94.1137 13.9725 1315 132.96 564.78 466.082
1594 0 98.2532 14.4626 1421 133.191 565.146 464.564
1595 0 101.249 14.1631 1434 134.808 565.392 463.554
1596 0 106.14 15.0933 1602 134.273 564.83 461.128
1597 0 109.278 15.2089 1662 132.975 564.9 460.945
1598 0 112.286 14.2049 1595 135.214 565.656 460.075
1599 0 117.299 14.8254 1739 132.691 565.846 455.129
1600 1 61.1676 13.4712 824 133.796 565.034 484.587
1601 0 65.2288 15.5146 1012 131.394 564.904 480.7
1602 0 68.2492 15.8537 1082 131.946 565.14 479.778
1603 0 69.0906 13.6343 942 138.244 564.994 480.062
1604 0 72.1095 15.0188 1083 134.294 565.384 479.538
1605 0 74.0853 15.2392 1129 135.293 565.149 476.989
1606 0 79.1762 16.4949 1306 128.782 565.275 477.822
1607 0 80.1114 15.2038 1218 133.59 565.177 475.394
1608 0 80.1394 15.2734 1224 135.445 565.567 473.01
1609 0 87.1595 16.0396 1398 131.23 564.609 472.579
1610 0 89.221 16.801 1499 128.562 565.257 471.56
1611 0 91.1762 15.4207 1406 133.676 564.708 468.711
1612 0 94.2247 14.9642 1410 134.106 565.091 469.76
1613 0 98.3169 15.9789 1571 131.44 564.591 468.232
1614 0 101.359 15.7361 1595 132.088 564.718 464.146
1615 0 106.386 15.6881 1669 131.389 565.282 462.86
1616 1 53.1567 13.5637 721 136.735 564.495 488.886
1617 0 56.0649 15.1253 848 131.65 564.754 487.009
1618 0 58.083 15.3918 894 131.427 564.543 485.417
1619 0 59.1966 15.5921 923 131.829 564.678 485.885
1620 0 63.1266 15.9679 1008 129.399 565.736 484.147
1621 0 63.4602 14.4185 915 135.667 564.366 482.957
1622 0 67.1819 15.5399 1044 131.938 564.989 480.706
1623 0 70.134 14.786 1037 133.426 565.156 480.892
1624 0 73.1836 17.6816 1294 124.531 565.473 479.529
1625 0 73.1801 15.1407 1108 133.08 565.719 479.014
1626 0 77.1564 16.1749 1248 129.685 565.115 476.201
1627 0 81.2263 16.1401 1311 128.166 565.761 476.477
1628 0 82.1762 15.917 1308 130.552 565.042 474.356
1629 0 84.2923 15.0073 1265 132.813 565.346 473.529
1630 0 87.3211 16.5023 1441 128.173 565.196 471.059
1631 0 90.3056 15.2593 1378 131.948 564.926 469.333
1632 0 92.2912 15.061 1390 131.316 564.34 469.336
1633 1 46.0563 15.5028 714 129.469 563.846 490.289
1634 0 48.0688 14.6457 704 131.195 564.565 491.188
1635 0 49.1813 14.4364 710 132.024 564.334 491.838
1636 0 51.0882 15.9137 813 130.06 564.395 489.006
1637 0 52.1246 15.0601 785 131.256 564.615 489.599
1638 0 53.1125 14.8553 789 133.394 564.588 488.188
1639 0 57.1212 16.2287 927 127.554 564.942 487.369
1640 0 56.1552 15.9024 893 130.551 564.793 487.648
1641 0 59.1544 16.7359 990 128.508 564.746 485.295
1642 0 61.1224 15.4608 945 132.121 564.802 485.301
1643 0 62.1778 16.0829 1000 130.682 565.057 483.867
1644 0 65.1499 16.5618 1079 128.582 564.916 482.46
1645 0 68.0956 16.2859 1109 128.946 564.592 481.215
1646 0 68.1307 15.6317 1065 131.19 564.953 481.121
1647 0 72.1463 16.3418 1179 129.02 564.543 477.891
1648 0 73.0341 16.8415 1230 129.89 564.191 478.703
1649 0 77.0808 17.4492 1345 126.346 564.399 477.126
1650 0 77.0976 16.8488 1299 130.406 564.6 475.113
1651 0 80.108 17.0145 1363 129.644 564.764 474.843
1652 0 83.0837 16.5977 1379 130.212 564.59 474.481
1653 0 84.0555 15.5017 1303 134.635 564.596 473.191
1654 0 87.1165 16.564 1443 132.481 564.448 469.955
1655 0 89.1916 16.2796 1452 134.381 564.325 468.915
1656 0 94.2163 16.4515 1550 133.048 564.787 468.494
1657 0 96.2174 16.4315 1581 122.736 564.653 466.356
1658 0 99.1302 17.8856 1773 128.061 564.373 465.657
1659 0 99.0681 17.2205 1706 132.955 564.033 466.121
1660 0 100.083 16.976 1699 135.075 564.294 466.816
1661 0 101.249 17.7384 1796 134.897 563.968 464.067
1662 0 101.219 17.2497 1746 137.727 564.394 464.135
1663 0 101.313 17.1548 1738 139.39 564.472 465.728
1664 0 101.166 17.7037 1791 138.686 564.755 466.008
1665 0 100.321 16.7064 1676 145.112 564.737 465.262
1666 0 102.129 17.5954 1797 142.728 564.654 464.573
1667 0 102.204 17.3378 1772 144.543 564.674 464.493
1668 0 101.064 17.4939 1768 145.482 564.596 464.538
1669 0 101.136 16.463 1665 148.039 564.978 465.87
1670 0 100.111 17.3207 1734 146.527 564.633 465.215
1671 0 101.166 16.982 1718 148.423 563.906 463.476
1672 0 100.065 17.5785 1759 145.886 563.495 465.218
1673 0 102.121 17.3618 1773 146.445 563.87 464.554
1674 0 102.136 16.6836 1704 148.649 564.371 465.007
1675 0 100.11 16.7216 1674 149.188 564.083 464.779
1676 0 100.092 17.5239 1754 146.157 564.124 465.948
1677 0 99.1649 16.2658 1613 150.671 564.13 464.607
1678 0 101.236 16.5653 1677 147.741 564.185 465.005
1679 0 100.302 18.0455 1810 143.578 564.745 463.843
1680 0 100.181 17.1789 1721 146.594 564.454 464.779
1681 0 101.143 16.9067 1710 146.266 564.23 465.671
1682 0 100.268 17.3634 1741 144.53 564.234 464.551
1683 0 99.1575 17.4167 1727 142.226 564.983 466.895
1684 0 99.3185 15.8077 1570 147.651 564.389 466.29
1685 0 99.0777 17.0472 1689 141.951 564.722 464.33
1686 0 98.1274 16.4072 1610 144.413 564.659 465.466
1687 0 99.3143 17.0368 1692 139.839 564.005 465.054
1688 0 99.113 17.5254 1737 137.584 564.219 465.464
1689 0 98.2688 16.8212 1653 138.27 564.505 466.532
1690 0 99.1552 17.4776 1733 135.297 564.238 465.106
1691 0 96.2808 17.2412 1660 138.057 564.138 466.473
1692 0 96.2057 17.1611 1651 138.408 564.703 466.388
1693 0 98.3701 17.8611 1757 134.141 564.459 465.534
1694 0 97.1105 16.404 1593 138.783 564.002 466.073
1695 0 98.1353 16.7014 1639 134.965 564.2 467.122
1696 0 97.1461 16.4803 1601 135.926 564.762 464.851
1697 0 97.1009 17.2089 1671 132.904 564.771 465.858
1698 0 98.1253 17.1719 1685 131.848 564.167 466.641
