time division length width area intensity CMx CMy
0 1 30.0192 10.893 327 148.058 501.56 488.015
1 0 31.0255 10.8943 338 148.657 501.908 487.604
2 0 32.042 10.3614 332 149.958 502.53 487.265
3 0 32.0087 10.9345 350 146.957 502.16 487.366
4 0 31.0492 11.3369 352 148.812 503.142 486.719
5 0 33.054 12.2224 404 146.334 503.084 486.47
6 0 33.0411 11.9548 395 147.514 502.929 485.362
7 0 36.0173 12.6883 457 139.862 502.414 486.444
8 0 34.0487 11.9535 407 142.698 501.776 484.111
9 0 36.0516 11.5113 415 140.022 501.573 485.169
10 0 37.0641 13.2203 490 137.906 501.576 484.506
11 0 36.0229 12.2422 441 145.422 501.54 485.823
12 0 37.042 11.7704 436 139.376 501.468 484.22
13 0 38.0883 12.2872 468 138.338 501.536 483.47
14 0 42.0534 13.3877 563 135.851 501.469 483.915
15 0 42.0635 14.1928 597 138.226 501.045 483.663
16 0 42.1262 13.6732 576 142.795 501.094 484.438
17 0 44.0189 13.4033 590 142.797 500.953 484.607
18 0 42.007 13.0216 547 147.282 500.291 483.11
19 0 46.0334 12.9254 595 145.334 500.842 483.361
20 0 49.0965 15.0927 741 137.162 498.803 482.323
21 0 50.185 14.3071 718 141.139 498.536 481.703
22 0 51.1312 13.9641 714 141.927 498.308 483.192
23 0 51.0898 13.5056 690 145.174 498.097 483.149
24 0 53.0129 14.7323 781 140.805 499.083 482.298
25 0 54.036 14.2868 772 141.225 499.187 482.14
26 0 55.119 14.4959 799 140.94 498.504 481.648
27 0 57.1163 14.1991 811 141.945 498.312 479.9
28 0 59.0271 14.9762 884 138.86 498.025 478.764
29 0 60.039 14.0575 844 141.767 498.62 478.575
30 0 62.0283 13.784 855 143.218 498.557 478.501
31 0 66.0511 15.1852 1003 136.958 497.5 477.433
32 0 69.1211 14.612 1010 138.915 497.448 475.963
33 0 70.0432 14.3197 1003 139.308 496.69 475.012
34 0 71.0586 14.8188 1053 137.183 496.898 475.188
35 0 77.0855 15.165 1169 134.086 497.142 473.334
36 0 80.1256 14.9266 1196 132.859 497.33 472.227
37 0 81.0724 15.591 1264 132.391 497.024 469.677
38 0 84.1553 14.9485 1258 134.014 496.933 469.036
39 0 86.1551 14.8453 1279 134.99 496.833 468.458
40 0 90.1741 14.5718 1314 135.189 497.19 467.098
41 0 93.1215 14.8301 1381 132.945 497.237 466.212
42 1 46.0169 12.2998 566 139.913 497.532 488.35
43 0 49.1246 13.9645 686 132.007 497.319 486.633
44 0 50.1631 13.6555 685 131.307 497.066 485.626
45 0 53.1504 13.5276 719 136.707 496.91 485.974
46 0 54.2242 14.0343 761 135.201 496.597 485.41
47 0 56.1106 13.4912 757 136.213 495.93 484.539
48 0 58.0691 13.6562 793 135.934 496.421 483.19
49 0 61.1258 13.7094 838 133.97 496.661 482.304
50 0 63.1995 13.1647 832 135.796 496.555 481.188
51 0 66.1956 12.7501 844 136.244 496.598 480.117
52 0 67.1457 13.4484 903 135.019 496.811 476.616
53 0 71.1183 13.2596 943 132.596 496.92 477.59
54 0 74.297 13.6883 1017 129.943 496.853 477.197
55 0 75.1042 13.8874 1043 128.99 496.482 475.667
56 0 79.0917 14.616 1156 125.247 496.548 474.08
57 0 82.1427 13.5983 1117 126.917 497.285 472.515
58 0 84.0798 13.618 1145 128.35 496.505 470.634
59 1 44.0692 11.8677 523 125.549 496.792 491.981
60 0 45.0569 11.3634 512 127.547 496.498 490.922
61 0 46.0319 12.2089 562 123.665 496.792 492.641
62 0 48.0649 13.1697 633 123.319 497.487 489.667
63 0 49.014 12.9759 636 125.901 498.162 489.171
64 0 49.0412 12.2346 600 129.785 497.72 489.45
65 0 51.1524 11.9056 609 130.312 497.642 488.233
66 0 52.048 11.451 596 129.77 497.466 489.651
67 0 55.0679 12.3666 681 125.849 497.564 487.11
68 0 57.0587 12.0753 689 123.685 496.98 485.537
69 0 58.0678 11.9688 695 125.614 496.485 485.935
70 0 59.0678 11.6815 690 125.825 496.636 484.519
71 0 62.0816 11.8715 737 125.171 496.274 481.318
72 0 64.1272 12.444 798 123.85 496.412 482.632
73 0 70.274 13.0632 918 120.73 496.519 480.023
74 0 72.0709 13.6255 982 118.665 496.39 480.298
75 0 72.0469 11.9783 863 124.524 496.428 479.079
76 0 75.1485 12.5352 942 124.463 496.277 476.429
77 0 79.1056 13.7411 1087 119.956 496.35 474.459
78 0 81.1587 13.221 1073 122.659 496.367 473.024
79 0 84.1884 13.7192 1155 121.211 496.171 474.239
80 0 87.0999 13.5362 1179 123.176 496.345 469.9
81 0 89.0897 12.9757 1156 124.296 496.701 471.066
82 0 95.1194 14.4555 1375 123.251 495.68 468.565
83 0 97.0791 14.3388 1392 122.182 495.848 467.496
84 0 99.0972 13.4514 1333 125.718 495.376 464.82
85 0 102.135 13.8641 1416 124.025 495.648 463.152
86 0 104.166 12.2209 1273 128.838 494.779 462.788
87 0 110.201 13.9563 1538 122.782 495.226 461.635
88 0 112.367 13.2779 1492 125.991 494.458 458.704
89 0 114.176 12.8398 1466 126.731 494.108 459.019
90 0 119.27 12.4256 1482 127.67 493.99 455.105
91 0 125.218 13.3527 1672 124.34 493.756 454.391
92 0 128.321 12.6791 1627 127.52 494.434 450.256
93 0 133.321 12.9762 1730 124.609 493.716 450.521
94 0 139.237 12.9923 1809 124.588 493.768 448.454
95 0 143.382 13.4954 1935 123.216 494.02 446.191
96 0 149.194 13.3785 1996 122.839 494.203 444.74
97 0 152.543 13.3667 2039 127.082 494.92 437.247
98 0 160.431 13.7567 2207 125.859 494.908 433.64
99 0 166.441 14.035 2336 125.251 495.013 431.564
100 0 171.272 12.9268 2214 128.874 495.118 427.968
101 1 90.4007 11.7588 1063 121.973 494.492 471.793
102 0 95.1616 12.6837 1207 119.414 494.65 470.848
103 0 99.1446 13.6972 1358 117.99 495.032 465.315
104 0 102.409 13.2898 1361 127.425 493.905 464.148
105 0 105.106 13.1582 1383 125.912 493.849 462.38
106 0 106.107 13.2036 1401 126.457 493.89 460.616
107 0 110.052 13.1938 1452 124.671 493.272 459.352
108 0 114.09 12.2535 1398 125.114 493.585 459.166
109 0 120.168 14.1968 1706 120.083 493.767 454.682
110 0 123.263 12.9804 1600 124.561 494.014 453.236
111 0 129.157 13.3945 1730 123.308 493.425 450.923
112 0 133.295 13.3688 1782 124.552 493.207 449.489
113 1 73.2185 12.0598 883 120.465 493.086 474.694
114 0 74.11 11.0781 821 110.582 494.371 474.547
115 0 77.1288 11.7596 907 120.49 494.792 474.895
116 0 78.1078 10.6647 833 122.77 494.844 476.323
117 0 82.1487 11.6618 958 122.38 494.729 472.436
118 0 85.2481 12.1176 1033 121.569 494.661 469.906
119 0 92.2376 12.8147 1182 118.869 495.494 469.786
120 0 95.2353 13.9444 1328 118.129 494.418 466.653
121 0 95.2506 12.5144 1192 123.669 493.857 464.436
122 0 101.385 13.9468 1414 120.121 493.432 460.011
123 0 104.316 13.6795 1427 122.448 492.878 459.865
124 0 108.126 12.0322 1301 118.867 493.789 459.427
125 0 113.26 13.2615 1502 115.074 493.455 456.998
126 1 60.0867 11.8995 715 113.806 493.387 482.891
127 0 62.0244 10.9151 677 115.718 492.412 483.809
128 0 61.0108 10.4899 640 116.822 494.069 483.616
129 0 64.0872 10.6262 681 117.361 495.031 482.029
130 0 68.0625 12.4297 846 112.6 494.703 481.028
131 0 69.0475 11.5283 796 115.704 495.082 479.219
132 0 71.1054 12.6573 900 113.886 495.153 477.536
133 0 76.102 13.3505 1016 110.522 495.341 478.889
134 0 76.168 11.8948 906 116.426 495.597 475.483
135 0 78.1749 11.6022 907 117.583 494.729 474.248
136 0 82.1488 12.2704 1008 116.445 495.261 474.703
137 0 84.0767 12.0366 1012 113.79 494.267 472.265
138 0 88.2023 13.5938 1199 108.877 494.648 470.359
139 0 90.0949 11.7432 1058 114.343 494.457 469.238
140 0 92.2402 12.0989 1116 113.652 494.838 467.514
141 0 98.1587 11.9806 1176 112.882 493.842 465.712
142 0 101.083 11.3175 1144 114.243 493.836 464.251
143 1 53.0672 9.62929 511 113.808 493.515 487.861
144 0 54.0663 12.1702 658 107.74 493.751 486.752
145 0 55.1412 11.2076 618 110.998 493.481 484.932
146 0 56.0817 11.5011 645 109.164 495.532 483.814
147 0 56.1239 11.3855 639 111.388 493.543 486.343
148 0 59.0942 11.8793 702 111.546 494.563 485.311
149 0 59.1292 11.2127 663 113.196 494.593 484.256
150 0 62.1239 11.5736 719 111.417 495.046 483.373
151 0 62.1243 10.6882 664 112.812 493.119 481.583
152 0 64.0343 11.6656 747 110.268 493.217 482.73
153 0 68.075 11.7958 803 110.448 493.29 478.731
154 0 69.094 11.2311 776 111.116 493.473 478.892
155 0 72.0505 12.1859 878 109.084 494.01 476.933
156 0 74.0884 11.8912 881 109.418 493.622 476.114
157 0 74.181 11.4315 848 110.031 495.029 475.963
158 0 78.2414 11.8735 929 108.622 494.39 473.62
159 0 81.1124 12.3039 998 107.853 494.823 472.06
160 0 83.1055 11.4794 954 109.797 495.464 470.811
161 0 89.1149 12.2987 1096 106.903 495.442 467.681
162 0 92.129 13.264 1222 104.527 494.499 468.112
163 0 95.1022 12.965 1233 105.796 494.724 465.253
164 0 98.1281 12.7894 1255 106.248 495.096 464.32
165 1 49.0846 10.981 539 106.288 495.189 488.414
166 0 53.1211 12.3491 656 103.747 495.924 486.758
167 0 56.0594 12.0051 673 103.792 495.048 486.817
168 0 57.0841 12.3327 704 102.717 495.911 485.041
169 0 54.0948 10.4446 565 111.634 495.735 485.947
170 0 58.0258 11.133 646 109.317 496.432 484.567
171 0 58.1266 10.9072 634 110.14 497.336 482.644
172 0 61.0441 11.3361 692 108.139 496.204 483.389
173 0 65.1101 12.2255 796 105.161 496.623 482.412
174 0 66.1769 11.1066 735 109.82 496.435 481.201
175 0 67.088 12.4314 834 107.317 496.98 480.849
176 0 68.0844 11.1039 756 110.614 496.806 478.511
177 0 71.1079 11.9115 847 109.109 496.477 476.655
178 0 72.2842 11.0674 800 109.84 497.067 478.385
179 0 75.2332 11.2849 849 110.899 496.306 474.213
180 0 77.1767 12.5815 971 109.046 496.487 474.876
181 0 80.2443 12.6613 1016 108.584 496.137 472.198
182 0 84.3193 12.9626 1093 107.867 496.353 470.25
183 0 84.1521 11.1465 938 112.616 495.422 470.73
184 0 89.2087 13.5189 1206 108.574 495.308 466.146
185 0 90.1266 11.8056 1064 111.799 495.411 468.6
186 0 96.2174 13.1577 1266 108.882 495.384 463.942
187 1 49.0823 10.6148 521 112.626 495.378 488.096
188 0 50.0667 12.3236 617 106.75 495.854 487.329
189 0 52.1523 13.5564 707 102.195 496.249 486.099
190 0 51.0609 11.0456 564 107.594 495.076 489.298
191 0 50.1754 10.6825 536 110.819 495.815 485.276
192 0 53.0808 11.944 634 107.913 495.181 486.437
193 0 52.1327 12.4874 651 108.209 495.889 485
194 0 54.0991 11.5714 626 109.113 495.845 486.637
195 0 56.0699 12.4131 696 107.641 496.201 483.264
196 0 58.0745 10.2282 594 113.359 496.273 484.968
197 0 59.0975 12.0648 713 109.787 496.132 484.116
198 0 61.1196 12.2547 749 109.406 496.267 483.415
199 0 63.2037 11.4708 725 111.109 495.919 483.218
200 0 67.1127 13.753 923 106.625 495.672 481.179
201 0 66.094 10.9692 725 112.399 494.914 480.039
202 0 69.1891 12.0828 836 111.906 495.165 481.167
203 0 71.1596 12.0012 854 110.268 495.329 479.912
204 0 70.0948 11.7983 827 114.145 494.907 477.1
205 0 73.0914 12.5049 914 112.149 494.918 476.839
206 0 76.152 11.6346 886 115.103 495.251 474.147
207 0 80.0988 12.9965 1041 110.858 495.404 475.036
208 0 81.1865 11.6768 948 113.429 495.023 474.697
209 0 83.2045 12.8599 1070 111.917 494.83 469.99
210 0 85.1635 12.0592 1027 114.41 495.572 472.151
211 0 87.1148 11.7546 1024 115.46 495.378 470.371
212 0 91.0679 12.9683 1181 111.747 495.54 467.152
213 0 91.1189 11.8197 1077 115.205 495.183 465.972
214 0 98.155 13.4074 1316 108.922 494.935 465.664
215 0 99.1527 13.4237 1331 110.383 495.311 464.412
216 0 101.12 14.0328 1419 110.774 495.564 461.439
217 0 103.153 13.4073 1383 112.451 495.571 461.858
218 0 106.133 13.7563 1460 112.657 495.206 457.351
219 0 109.312 13.0727 1429 114.078 495.034 457.395
220 0 114.12 14.2744 1629 111.853 494.924 454.567
221 0 119.313 14.9104 1779 110.962 494.785 452.602
222 0 122.114 13.8805 1695 113.676 494.162 452.025
223 0 123.233 13.0728 1611 117.616 493.662 447.397
224 0 130.279 13.2716 1729 116.403 494.103 445.532
225 1 69.3474 11.1612 774 111.669 493.939 476.817
226 0 72.3691 11.9803 867 110.536 494.507 474.223
227 0 72.1986 11.4684 828 111.849 494.531 474.585
228 0 78.1298 12.0825 944 109.9 494.029 476.778
229 0 79.2188 11.9037 943 112.408 494.464 473.735
230 0 80.2436 12.0383 966 112.498 493.888 473.654
231 0 84.1403 13.4181 1129 111.122 494.493 468.415
232 0 87.1036 12.3875 1079 112.689 494.789 471.756
233 0 90.119 13.7485 1239 110.284 494.743 469.862
234 0 92.1919 12.9838 1197 112.751 494.622 467.052
235 0 93.23 11.8631 1106 116.429 494.174 465.716
236 0 95.3964 11.3841 1086 118.416 494.369 461.197
237 0 98.3061 12.5425 1233 115.138 493.788 461.157
238 0 103.332 13.626 1408 113.356 493.237 456.686
239 0 105.29 12.0904 1273 116.637 494.26 456.687
240 0 108.326 13.0163 1410 115.716 493.706 455.679
241 0 110.302 12.0397 1328 119.541 493.58 451.809
242 0 116.415 12.6272 1470 117.701 493.41 449.377
243 1 63.2117 12.909 816 109.096 493.533 478.04
244 0 65.0821 11.9234 776 109.785 494.718 480.399
245 0 68.169 12.4397 848 108.693 495.328 476.158
246 0 69.1298 11.4712 793 110.678 495.305 476.478
247 0 73.1243 13.0053 951 107.95 495.021 474.313
248 0 73.0944 11.8203 864 111.297 495.559 474.851
249 0 76.1096 11.6411 886 111.848 495.256 472.798
250 0 80.1349 13.3275 1068 109.077 495.607 470.259
251 0 79.1258 10.8435 858 120.282 495.189 470.54
252 0 84.1206 11.9471 1005 116.84 495.072 468.413
253 0 83.1034 10.6614 886 120.01 495.072 464.778
254 0 87.1034 12.2498 1067 116.515 495.215 462.536
255 0 91.1219 11.8523 1080 116.357 495.108 464.692
256 0 92.1245 11.5496 1064 118.437 494.542 462.789
257 0 96.1167 11.8918 1143 118.045 494.654 460.414
258 0 100.21 13.5116 1354 114.233 494.801 460.018
259 0 103.043 12.2279 1260 116.731 494.408 458.189
260 0 107.185 11.7834 1263 117.727 494.675 455.346
261 0 109.148 11.1592 1218 118.395 494.868 455.218
262 0 114.121 13.0826 1493 115.113 495.004 451.433
263 0 117.097 13.2199 1548 113.848 495.332 452.844
264 0 119.252 12.092 1442 117.582 494.928 451.175
265 0 122.142 11.4048 1393 119.22 494.799 447.131
266 0 126.088 11.7775 1485 118.448 494.635 442.563
267 0 133.093 12.4274 1654 116.024 495.062 444.693
268 0 138.171 11.6812 1614 118.673 494.733 441.423
269 0 143.171 12.9355 1852 117.682 494.771 437.575
270 0 148.204 12.7392 1888 115.128 494.375 438.233
271 1 80.1236 9.28565 744 116.485 494.19 465.995
272 0 85.1341 11.6052 988 113.179 493.974 467.239
273 0 89.1276 12.4877 1113 111.206 493.997 466.242
274 0 90.1472 11.4812 1035 114.357 494.525 465.047
275 0 96.1443 11.6076 1116 111.824 493.592 466.511
276 0 97.1853 11.4626 1114 114.148 493.397 463.147
277 0 102.204 11.9173 1218 112.132 494.076 460.355
278 0 106.252 12.3574 1313 111.48 493.931 457.587
279 1 55.144 10.6267 586 109.314 494.481 483.925
280 0 59.3414 9.87507 586 111.98 494.99 479.34
281 0 61.0923 12.5384 766 109.416 493.798 478.45
282 0 61.0627 11.6274 710 106.98 494.1 479.756
283 0 63.1074 10.4267 658 109.284 494.38 479.736
284 0 65.123 11.7163 763 106.903 494.545 480.349
285 0 67.0725 11.495 771 108.106 494.492 478.422
286 0 69.2021 11.647 806 107.083 495.186 478.022
287 0 74.1205 12.4122 920 106.084 494.461 474.371
288 0 76.147 12.5941 959 104.767 494.466 475.574
289 0 79.1087 11.9582 946 109.249 494.667 474.138
290 0 80.0766 12.7378 1020 109.152 495.049 471.105
291 0 84.1316 13.4432 1131 108.111 494.513 470.685
292 0 87.1538 12.7361 1110 109.475 494.86 470.716
293 0 86.1419 12.3285 1062 113.166 494.572 465.019
294 0 91.2241 12.8365 1171 110.395 494.061 467.997
295 0 94.1053 11.1046 1045 114.504 494.265 464.101
296 0 97.1488 12.2492 1190 112.75 493.705 459.473
297 0 102.179 13.2708 1356 110.06 493.541 459.791
298 1 52.0892 9.92527 517 108.977 493.944 481.663
299 0 52.2375 9.72482 508 106.498 493.809 480.465
300 0 56.1511 9.6169 540 108.724 492.993 476.643
301 0 59.0763 11.1889 661 103.085 493.782 482.383
302 0 58.067 11.1423 647 103.479 493.403 481.594
303 0 61.1006 10.0654 615 105.507 495.45 482.733
304 0 64.0515 12.4275 796 100.029 495.294 480.761
305 0 64.0299 10.1984 653 105.694 495.306 478.162
306 0 67.1101 10.6243 713 103.634 495.99 476.743
307 0 69.1716 10.6402 736 104.039 496.573 476.436
308 0 71.0493 9.41599 669 106.818 495.451 474.921
309 0 75.1512 11.5234 866 101.512 495.53 474.754
310 0 79.1344 11.4742 908 101.689 495.378 472.946
311 0 81.0724 11.2245 910 103.801 494.925 469.968
312 0 86.041 12.8776 1108 99.7085 495.796 471.586
313 0 87.1183 12.5691 1095 102.534 496.515 465.424
314 0 91.121 11.7097 1067 103.425 495.221 468.773
315 1 50.1113 8.86029 444 104.182 495.16 486.55
316 0 50.092 9.98163 500 100.83 495.57 482.628
317 0 55.1089 11.6859 644 98.7065 495.432 484.616
318 0 53.1478 10.913 580 97.8293 495.164 486.821
319 0 54.1213 10.6612 577 99.312 495.09 485.842
320 0 55.1507 11.1331 614 99.3436 496.414 482.463
321 0 57.1683 10.6877 611 99.0556 496.155 484.612
322 0 61.1088 10.6368 650 97.8615 495.971 483.942
323 0 62.234 12.0513 750 95.3733 496.365 482.988
324 0 61.0855 11.0501 675 100.564 495.973 481.317
325 0 65.1227 9.42836 614 102.277 495.927 480.963
326 0 64.0589 9.382 601 103.303 496.542 481.291
327 0 69.2003 10.4624 724 100.565 496.037 478.823
328 0 72.143 10.3683 748 98.9332 496.203 475.316
329 0 73.0846 8.5791 627 101.027 496.719 480.306
330 0 77.1885 10.9343 844 98.84 496.555 475.935
331 0 79.0944 11.5937 917 98.5082 496.233 472.838
332 0 81.1549 11.0899 900 100.283 495.438 471.76
333 0 84.3168 12.0261 1014 99.642 493.747 471.124
334 0 86.2357 10.912 941 102.914 494.371 468.43
335 0 89.1449 9.50138 847 104.645 494.248 472.569
336 1 48.0535 10.3426 497 102.04 495.565 489.69
337 0 49.0752 11.1665 548 100.987 495.757 489.394
338 0 50.0099 12.7775 639 97.8357 494.304 488.111
339 0 50.0124 11.0373 552 104.359 494.33 488.929
340 0 51.0804 11.3351 579 105.024 494.434 488.501
341 0 53.0822 9.8338 522 106.573 495.776 489.772
342 0 54.0574 12.1537 657 102.227 496.114 487.393
343 0 55.0614 10.4066 573 108.506 494.871 486.551
344 0 56.0471 11.6509 653 105.92 495.489 485.116
345 0 56.0415 10.1175 567 109.12 495.011 487.016
346 0 60.0588 12.7209 764 103.085 494.889 485.093
347 0 61.0735 10.4137 636 107.211 496.03 485.901
348 0 63.0645 13.2087 833 103.119 495.27 483.04
349 0 63.084 12.8559 811 105.552 496.203 480.824
350 0 66.0778 12.5156 827 105.782 495.992 479.786
351 0 69.0652 11.757 812 106.666 495.448 480.342
352 0 72.1272 11.7431 847 106.524 495.13 480.535
353 0 74.0949 12.0656 894 106.187 495.406 478.864
354 0 76.0782 12.198 928 106.298 495.284 476.653
355 0 79.0727 12.204 965 104.528 495.13 479.045
356 0 83.1056 11.9847 996 106.06 494.856 474.681
357 0 85.0882 11.5762 985 107.65 495.206 473.887
358 0 87.2105 10.9849 958 109.401 495.091 472.404
359 0 92.2668 12.9299 1193 105.043 495.531 469.547
360 1 49.0303 12.4617 611 106.115 495.645 490.128
361 0 49.0304 12.4821 612 102.884 495.822 489.838
362 0 48.0622 11.9845 576 106.045 496.108 489.561
363 0 52.0286 12.6661 659 102.945 496.127 489.933
364 0 53.073 12.3038 653 105.576 496.031 486.107
365 0 55.0307 12.2659 675 106.185 496.484 485.948
366 0 57.1255 13.199 754 104.642 496.277 485.782
367 0 59.0855 13.8274 817 102.949 496.151 485.574
368 0 62.0941 14.4297 896 101.827 496.243 484.438
369 0 64.0693 12.8923 826 106.461 495.671 483.563
370 0 64.1321 12.677 813 108.041 495.769 481.577
371 0 67.0241 11.936 800 108.86 495.985 483.025
372 0 69.0481 12.6578 874 107.486 495.281 481.62
373 0 72.1307 13.3785 965 105.653 495.82 478.603
374 0 75.1574 13.0659 982 107.02 495.453 478.66
375 0 77.1122 12.9422 998 107.896 495.221 475.844
376 1 39.0143 10.0989 394 115.376 495.995 495.152
377 0 41.0338 11.6733 479 111.585 495.66 495.271
378 0 41.0592 13.1518 540 109.22 495.78 493.894
379 0 44.0256 12.788 563 108.449 495.304 492.217
380 0 43.0745 12.6525 545 109.666 495.297 493.53
381 0 44.0244 12.7429 561 111.305 494.376 492.26
382 0 47.0626 12.7065 598 110.02 493.505 492.03
383 0 48.1211 12.6556 609 110.35 495.03 489.09
384 0 49.1349 13.1271 645 109.27 495.192 489.795
385 0 49.0419 12.5199 614 111.966 494.964 489.678
386 0 51.0385 11.9126 608 113.408 495.738 487.717
387 0 54.0911 12.9411 700 108.639 495.587 488.56
388 0 56.1081 13.7413 771 105.764 495.569 488.41
389 0 55.1385 13.1306 724 109.098 495.405 486.301
390 0 57.125 13.4617 769 107.557 494.761 485.602
391 0 59.0522 12.6329 746 108.65 495.117 485.678
392 0 61.0675 12.1341 741 109.269 495.339 485.062
393 0 63.0793 13.1422 829 106.456 495.23 481.632
394 0 66.1128 14.9593 989 101.943 495.083 481.465
395 0 68.1215 12.5951 858 106.578 495.303 482.217
396 0 70.0805 14.2122 996 102.829 495.202 478.536
397 0 71.1183 14.0751 1001 103.733 494.528 477.705
398 0 74.0877 13.9969 1037 103.286 495.699 476.708
399 0 78.0934 13.7015 1070 102.369 494.873 476.25
400 0 79.1731 14.3104 1133 101.469 494.757 474.229
401 0 81.0736 14.382 1166 103.488 494.294 474.716
402 0 84.1807 13.376 1126 104.012 495.398 475.202
403 0 87.1577 12.5405 1093 105.922 495.683 470.577
404 0 91.0908 11.6806 1064 107.693 495.572 468.9
405 1 48.0489 11.6964 562 105.379 494.696 490.286
406 0 48.0892 11.4371 550 104.671 495.565 489.482
407 0 51.0511 13.7313 701 101.374 495.726 489.17
408 0 53.0957 13.5604 720 101.612 495.994 488.054
409 0 51.0366 12.3049 628 105.272 495.795 487.334
410 0 55.0656 12.3126 678 104.258 495.853 487.09
411 0 57.0642 12.6875 724 103.378 495.099 486.014
412 0 60.2015 12.1093 729 104.148 495.28 484.204
413 0 64.0759 13.3123 853 100.957 494.994 484.161
414 0 64.049 12.3968 794 104.086 494.856 482.544
415 0 66.0619 13.1997 872 103.242 495.377 479.834
416 0 69.1241 13.483 932 103.117 494.974 478.839
417 0 71.0548 14.0174 996 102.463 495.504 478.075
418 0 72.1087 12.5782 907 106.057 495.409 478.447
419 0 78.0664 14.7823 1154 100.39 495.641 477.33
420 0 77.0697 11.7556 906 108.038 495.573 478.096
421 0 82.1332 12.845 1055 106.072 494.711 472.528
422 0 85.1454 13.706 1167 104.491 494.875 471.823
423 0 87.0839 13.4353 1170 105.715 495.704 471.07
424 1 43.0228 11.5055 495 107.089 494.814 491.598
425 0 48.0579 12.5057 601 103.043 495.236 491.165
426 0 48.0211 12.3487 593 103.005 495.43 491.024
427 0 49.0328 13.7663 675 100.341 494.551 490.416
428 0 51.035 12.7168 649 102.991 494.123 487.656
429 0 53.0632 13.3049 706 101.935 494.97 488.657
430 0 55.054 12.6058 694 102.389 494.182 485.604
431 0 54.035 11.7702 636 105.719 494.722 488.384
432 0 57.1014 13.0995 748 102.342 494.83 484.936
433 0 60.1389 12.8369 772 102.047 494.131 484.346
434 0 60.0569 12.9877 780 102.956 494.736 483.835
435 0 62.0684 13.8074 857 100.55 494.334 482.579
436 0 64.1552 13.2959 853 102.525 494.789 483.226
437 0 68.0976 13.8037 940 100.154 494.865 481.735
438 0 69.1 12.4313 859 103.695 494.59 481.508
439 0 72.1189 12.7151 917 103.056 494.487 479.048
440 0 74.2276 13.1757 978 101.119 494.862 477.622
441 0 78.1001 13.3803 1045 101.188 494.993 474.138
442 0 79.099 12.8952 1020 100.988 494.922 474.879
443 1 40.0525 10.8857 436 103.862 494.319 494.236
444 0 43.0688 12.0737 520 104.823 494.612 493.517
445 0 43.0339 11.7117 504 98.6687 495.161 493.788
446 0 44.091 12.2247 539 99.4842 495.536 491.265
447 0 45.1316 13.2058 596 98.0638 495.842 490.888
448 0 47.1662 12.5514 592 98.9645 495.939 489.796
449 0 49.1153 12.9899 638 96.9859 495.555 488.561
450 0 50.0745 12.2617 614 98.8404 495.16 488.746
451 0 51.1364 12.7111 650 98.3969 495.229 488.097
452 0 51.176 10.9231 559 101.399 495.034 489.063
453 0 57.0832 12.2803 701 97.6391 495.091 485.776
454 0 58.1522 12.3813 720 97.3611 495.028 485.685
455 0 59.1116 12.6202 746 97.2507 495.286 483.665
456 0 61.0671 13.2805 811 96.217 495.365 484.324
457 0 65.1324 11.4689 747 98.6975 495.145 481.641
458 0 64.1511 11.1767 717 100.37 494.884 479.423
459 0 69.0725 11.3504 784 100.448 494.699 481.205
460 0 72.0828 12.4995 901 98.2741 495.08 479.583
461 0 74.1084 11.807 875 100.666 494.361 477.856
462 0 76.119 11.4557 872 101.549 494.468 474.915
463 1 39.0175 11.4052 445 97.9483 494.971 494.164
464 0 39.0418 10.143 396 100.235 494.038 493.967
465 0 40.1432 11.185 449 99.922 493.762 493.454
466 0 40.1485 10.6853 429 102.944 495.38 491.867
467 0 40.0911 10.9501 439 99.1002 495.235 492.82
468 0 43.1406 11.8218 510 97.4255 494.18 491.641
469 0 45.0444 11.2112 505 97.8 494.844 492.065
470 0 46.1316 11.5539 533 97.651 494.788 491.985
471 0 46.0962 11.3242 522 99.636 495.052 490.885
472 0 52.0354 12.2417 637 95.4254 494.565 488.35
473 0 51.1083 12.6007 644 96.9317 494.419 487.641
474 0 53.0887 11.6974 621 98.0612 494.886 488.873
475 0 57.1011 11.8386 676 97.3254 495.142 487.756
476 0 56.0435 11.5446 647 99.7017 495.519 486.094
477 0 59.109 13.1114 775 96.4465 495.228 484.774
478 0 60.1326 11.5578 695 99.4863 494.987 482.875
479 0 63.1364 12.5126 790 97.9114 495.775 482.278
480 0 65.0786 13.4606 876 97.8653 495.076 481.516
481 0 66.1158 13.431 888 98.134 494.935 481.243
482 0 67.2222 10.2645 690 104.564 495.13 481.033
483 0 68.1296 10.3773 707 106.249 494.656 478.389
484 0 74.1043 12.28 910 101.592 495.186 479.644
485 0 77.2219 13.7137 1059 100.2 494.195 475.575
486 0 79.1638 12.8721 1019 103.029 494.85 473.413
487 0 83.1219 12.6681 1053 104.316 494.836 473.986
488 0 84.2324 11.587 976 107.931 493.923 470.938
489 0 89.1602 13.3804 1193 104.199 494.097 471.244
490 0 92.1864 12.9954 1198 106.271 493.26 469.045
491 1 46.0917 10.4574 482 107.139 494.917 492.068
492 0 47.0757 11.7895 555 107.636 494.685 490.267
493 0 48.2224 11.5092 555 106.933 493.169 487.382
494 0 51.1697 12.7028 650 101.975 494.566 491.886
495 0 54.2005 13.0072 705 101.177 494.687 487.658
496 0 55.1569 11.4764 633 103.442 494.821 490.381
497 0 55.0641 11.0598 609 104.238 495.136 486.854
498 0 57.1222 11.099 634 105.273 493.331 486.678
499 0 59.1215 12.6519 748 101.52 493.155 485.332
500 0 62.0935 13.3025 826 102.811 494.45 483.939
501 0 63.0483 11.3405 715 109.078 493.869 481.136
502 0 64.0556 10.7251 687 111.453 493.892 484.154
503 0 66.0497 11.779 778 109.851 494.077 480.312
504 0 70.1811 12.2398 859 107.892 494.072 478.994
505 0 71.0643 10.6523 757 111.162 493.497 479.162
506 0 75.1103 12.049 905 107.515 494.055 479.303
507 0 79.1324 12.4475 985 105.462 494.154 477.118
508 0 81.0965 12.6023 1022 105.617 493.731 476.451
509 0 83.0947 13.1898 1096 105.068 494.156 473.053
510 0 88.1078 13.3586 1177 103.989 493.726 473.398
511 0 90.1161 13.1497 1185 104.359 494.068 471.938
512 0 94.1946 13.281 1251 104.33 493.821 469.755
513 1 49.0725 10.5966 520 107.498 493.373 492.29
514 0 52.1312 13.0056 678 103.851 493.909 489.102
515 0 52.33 12.6314 661 105.977 494.926 485.697
516 0 53.1629 12.6592 673 103.299 493.495 488.12
517 0 56.1654 11.8756 667 103.802 493.43 488.004
518 0 57.1382 12.9511 740 101.286 494.077 487.169
519 0 59.1028 13.1466 777 101.505 494.211 485.309
520 0 60.098 11.631 699 104.897 494.124 485.96
521 0 63.2353 12.667 801 103.417 493.969 483.064
522 0 64.0725 12.7824 819 103.864 494.894 483.071
523 0 67.1695 11.404 766 107.706 493.868 481.386
524 0 70.1801 13.6363 957 102.566 493.964 479.386
525 0 72.128 13.1572 949 105.252 493.774 478.902
526 0 75.1083 12.9679 974 106.913 493.839 479.125
527 0 77.0723 13.403 1033 107.453 493.655 476.901
528 0 80.2519 12.3112 988 112.869 493.284 475.594
529 0 84.2874 13.2404 1116 111.023 493.799 476.193
530 0 86.1738 12.2891 1059 113.702 494.348 473.803
531 0 88.1368 13.9215 1227 111.275 494.557 470.23
532 0 92.1863 12.5181 1154 115.162 494.036 468.304
533 0 95.1212 13.1937 1255 113.422 494.292 470.67
534 0 99.1401 12.9917 1288 114.148 494.268 468.929
535 1 51.1832 14.4774 741 108.621 494.88 489.684
536 0 52.3021 12.5808 658 114.702 495.038 488.242
537 0 53.0409 13.5933 721 112.738 495.244 488.713
538 0 53.0669 12.6067 669 116.311 495.368 488.951
539 0 57.0839 14.1721 809 111.78 494.269 487.592
540 0 56.0565 12.5231 702 118.627 494.748 487.181
541 0 62.074 13.3067 826 114.056 495.454 486.946
542 0 63.1141 12.9923 820 115.171 494.783 486.29
543 0 64.1758 13.0891 840 115.638 495.225 484.86
544 0 66.0763 13.5903 898 116.333 494.728 482.141
545 0 68.0711 12.6926 864 118.113 494.861 483.598
546 0 70.0604 13.5169 947 117.365 494.502 480.874
547 0 74.0988 14.1163 1046 115.175 494.332 480.824
548 0 77.0778 13.7783 1062 116.234 494.997 478.107
549 0 78.1124 13.9286 1088 117.231 495.171 478.171
550 0 81.1393 14.0006 1136 123.519 494.592 478.048
551 0 83.1035 13.5133 1123 119.946 494.748 475.786
552 0 86.0881 14.8336 1277 116.89 494.782 474.347
553 0 90.0689 14.6332 1318 116.807 494.477 472.819
554 0 92.1894 13.2445 1221 122.686 494.668 469.994
555 0 93.2531 12.3964 1156 123.985 495.027 469.692
556 0 98.156 13.7842 1353 121.467 494.856 468.834
557 0 101.179 13.5701 1373 122.063 495.251 466.12
558 1 51.0706 12.3359 630 121.865 495.929 490.419
559 0 52.0724 11.8681 618 124.435 495.4 489.471
560 0 55.077 12.6913 699 122.67 495.821 488.26
561 0 56.0278 12.583 705 123.116 496.024 489.233
562 0 59.0986 13.3506 789 120.343 496.082 487.508
563 0 61.0478 13.5959 830 118.829 496.382 486.728
564 0 63.111 14.625 923 116.71 495.959 485.385
565 0 64.0852 13.6069 872 119.886 495.771 485.444
566 0 67.0709 15.3271 1028 115.563 496.386 481.724
567 0 70.2416 14.7918 1039 117.308 495.588 482.038
568 0 72.1683 13.9535 1007 119.895 495.123 480.526
569 0 73.0846 13.7785 1007 117.477 494.935 478.932
570 0 76.061 13.9362 1060 116.172 495.386 478.943
571 0 78.0865 12.2684 958 121.55 495.05 479.608
572 0 82.1103 12.398 1018 121.836 494.387 476.662
573 0 83.1078 12.7425 1059 120.523 494.638 474.141
574 0 89.1294 13.2728 1183 119.41 494.437 474.461
575 1 50.1608 13.078 656 118.485 494.774 492.63
576 0 51.0545 12.0851 617 123.499 494.316 492.143
577 0 52.1119 13.6437 711 118.004 494.633 490.35
578 0 54.0533 12.8022 692 121.163 494.701 487.701
579 0 55.0503 11.7529 647 124.076 493.855 490.589
580 0 57.1245 12.7091 726 121.971 493.335 489.096
581 0 57.0994 12.5045 714 122.514 494.34 488.171
582 0 62.0339 13.2025 819 118.825 494.623 487.86
583 0 63.055 14.3367 904 117.444 494.073 485.791
584 0 64.0662 12.6432 810 121.422 494.27 485.331
585 0 67.0938 12.3707 830 122.075 494.304 484.146
586 0 68.1952 12.2589 836 122.779 494.054 484.126
587 0 71.0553 12.8069 910 121.226 494.456 481.143
588 0 74.1011 13.0093 964 119.139 494.329 481.159
589 0 76.1168 12.8881 981 120.062 494.886 479.566
590 0 78.1344 13.2976 1039 119.757 494.506 476.61
591 0 80.1164 12.5318 1004 122.24 494.245 476.416
592 0 84.0709 13.3221 1120 119.653 494.424 475.747
593 0 87.0583 14.4271 1256 116.807 494.644 476.9
594 0 89.1829 13.6013 1213 120.248 494.217 472.778
595 0 94.1121 14.334 1349 119.122 493.925 470.68
596 0 97.0577 12.9923 1261 124.713 493.975 465.887
597 0 101.127 12.4398 1258 126.411 494.999 465.824
598 0 105.203 13.4787 1418 124.318 495.238 461.829
599 1 52.0419 12.5091 651 114.739 495.349 489.853
600 0 54.0432 11.9534 646 116.898 495.269 489.988
601 0 55.1165 11.9202 657 117.129 495.79 487.805
602 0 57.1158 13.3588 763 113.976 495.878 488.055
603 0 59.0875 12.2869 726 116.402 495.798 487.456
604 0 62.1013 13.2203 821 113.518 495.972 488.34
605 0 63.0758 13.7137 865 112.802 495.83 485.136
606 0 65.109 12.8861 839 113.521 495.458 486.708
607 0 66.1231 12.7036 840 114.835 495.105 482.838
608 0 70.0899 13.2116 926 109.068 495.112 481.974
609 0 70.0546 12.5331 878 113.312 494.809 479.885
610 0 75.0812 14.6774 1102 108.205 495.098 478.477
611 0 76.0488 12.9785 987 112.979 494.77 476.154
612 0 78.118 12.9292 1010 113.468 494.73 477.365
613 0 81.0695 12.6558 1026 114.042 494.441 477.685
614 0 84.2084 12.3741 1042 118.97 495.133 476.801
615 0 88.1683 13.2134 1165 117.827 494.818 472.035
616 0 90.2864 12.6154 1139 119.428 495.122 468.852
617 0 92.3738 13.0665 1207 119.683 494.858 465.793
618 0 94.3405 11.5433 1089 123.746 495.089 467.463
619 0 100.193 12.2464 1227 121.275 494.597 464.53
620 1 51.1176 11.7181 599 113.162 495.452 492.032
621 0 53.1007 12.2221 649 112.513 495.753 491.565
622 0 53.0421 11.1798 593 116.725 496.049 490.764
623 0 56.117 12.3848 695 112.45 495.232 490.381
624 0 58.1221 11.4414 665 114.681 495.12 487.074
625 0 60.0774 12.3674 743 112.939 495.087 488.791
626 0 62.0844 12.6602 786 113.142 494.44 486.093
627 0 63.0772 11.478 724 115.39 494.399 487.128
628 0 67.0972 13.7562 923 110.44 494.221 482.3
629 0 69.1109 12.2412 846 114.644 494.55 481.779
630 0 73.1454 12.2222 894 114.133 493.718 482.15
631 0 74.1067 13.0353 966 113.855 493.808 478.743
632 0 79.1877 13.7142 1086 112.087 493.733 477.288
633 0 81.1344 12.7073 1031 115.666 494.79 475.297
634 0 84.324 11.4795 968 119.795 494.345 474.874
635 0 89.2373 12.0689 1077 117.327 494.672 473.307
636 1 42.1866 11.6862 493 115.527 494.951 495.29
637 0 46.1333 13.1792 608 111.748 495.847 494.007
638 0 47.3137 13.104 620 118.432 495.926 494.155
639 0 49.1874 12.1576 598 121.926 495.391 493.035
640 0 50.1591 12.9189 648 120.09 495.39 491.838
641 0 51.0715 13.158 672 113.543 495.81 492.737
642 0 53.1614 13.1298 698 113.738 495.344 489.938
643 0 54.1818 12.5688 681 115.242 495.683 490.815
644 0 58.1101 12.6484 735 117.762 495.68 489.32
645 0 59.141 12.7492 754 117.317 495.381 489.098
646 0 60.1671 11.734 706 119.795 494.633 486.346
647 0 62.1674 12.788 795 117.95 495.131 486.43
648 0 64.221 12.348 793 118.718 494.84 484.02
649 0 68.1152 12.5523 855 118.056 494.816 482.723
650 0 69.14 12.2216 845 119.698 494.641 480.207
651 0 73.1128 13.2808 971 116.632 494.33 477.823
652 0 76.3425 12.0117 917 118.991 494.286 478.461
653 1 40.0391 10.8893 436 115.58 494.544 499.399
654 0 41.0838 12.4137 510 115.082 495.184 495.449
655 0 43.0996 12.0419 519 114.813 495.258 497.667
656 0 45.087 11.9768 540 115.348 495.635 496.309
657 0 46.0184 12.734 586 113.959 494.916 493.556
658 0 47.106 12.3339 581 118.232 495.002 494.036
659 0 49.1383 12.3529 607 124.868 494.11 492.787
660 0 49.1392 11.9863 589 122.306 494.316 491.285
661 0 51.2702 12.1903 625 124.872 493.912 491.651
662 0 51.1273 11.3247 579 127.551 493.713 491.038
663 0 54.174 12.5891 682 120.041 494.202 491.779
664 0 56.1514 13.2499 744 119.562 493.544 489.042
665 0 59.0954 12.6914 750 119.567 492.815 488.828
666 0 61.2505 14.008 858 116.416 493.373 486.766
667 0 61.1184 13.2202 808 119.955 493.375 483.678
668 0 65.0967 13.1036 853 119.304 493.537 482.449
669 0 68.2266 14.0708 960 116.768 493.136 481.874
670 0 68.2679 13.2712 906 121.199 493.009 478.855
671 0 69.1867 11.9243 825 125.01 493.51 477.975
672 0 74.1135 12.7642 946 121.163 493.595 478.552
673 0 77.1502 13.3635 1031 120.425 493.5 474.634
674 1 40.2019 11.492 462 120.606 493.807 493.623
675 0 39.2252 11.7017 459 120.641 493.765 493.643
676 0 40.0749 10.8547 435 122.887 494.529 492.591
677 0 43.0404 11.7099 504 119.581 494.319 491.181
678 0 42.0867 11.5001 484 122.291 493.913 492.917
679 0 45.1801 11.9743 541 117.597 495.183 493.553
680 0 48.0679 12.5239 602 115.355 495.148 493.226
681 0 49.1369 12.5974 619 115.181 495.082 493.738
682 0 51.1119 13.3824 684 113.253 495.776 491.287
683 0 54.1109 13.0288 705 113.434 495.416 490.569
684 0 54.127 12.6739 686 118.522 494.977 488.704
685 0 54.149 11.8008 639 121.23 494.435 487.02
686 0 59.0227 12.707 750 116.477 494.416 488.847
687 0 60.0678 12.2362 735 119.678 494.506 485.823
688 0 62.1856 12.2697 763 118.979 494.202 484.817
689 0 63.3549 12.4852 791 117.982 494.32 485.37
690 0 66.3266 13.2225 877 117.271 494.018 483.052
691 0 68.4132 13.2577 907 117.049 494.291 481.9
692 0 68.3034 12.0785 825 119.635 494.406 482.478
693 0 71.4272 13.3423 953 118.576 494.569 478.547
694 0 75.4011 13.5144 1019 117.205 493.723 478.116
695 0 79.589 12.3384 982 119.689 493.609 476.566
696 0 81.3561 13.57 1104 116.3 494.058 475.966
697 0 85.2903 14.0227 1196 115.452 493.863 473.139
698 1 45.4305 12.6787 576 110.634 494.646 492.293
699 0 44.1872 11.4739 507 115.521 494.406 490.032
700 0 46.2949 11.7075 542 114.293 495.399 491.22
701 0 48.0744 12.1478 584 116.017 494.762 491.195
702 0 50.1596 13.1181 658 113.979 494.743 490.17
703 0 53.0578 12.4204 659 115.229 494.825 489.202
704 0 53.0692 13.9064 738 113.726 494.271 487.007
705 0 55.0991 12.5229 690 115.714 493.904 487.646
706 0 58.1568 12.9306 752 115.455 494.34 485.6
707 0 59.2101 11.8392 701 117.94 495.033 484.29
708 0 62.1695 12.852 799 116.521 494.743 482.701
709 0 65.2053 13.2811 866 115.592 494.42 482.453
710 0 67.1987 13.6907 920 115.265 494.307 481.457
711 0 66.1359 12.0963 800 120.449 494.695 479.868
712 0 69.1145 11.4448 791 122.463 494.502 478.254
713 0 74.068 11.8675 879 121.334 494.346 477.032
714 0 75.1433 12.5227 941 120.616 494.761 475.238
715 1 37.1098 10.6441 395 115.967 495.276 496.603
716 0 38.0638 10.2985 392 116.781 494.796 496.265
717 0 41.015 11.2398 461 120.516 495.239 495.304
718 0 42.0443 12.0111 505 115.594 495.481 494.521
719 0 43.0784 11.9549 515 111.472 493.841 495.023
720 0 44.0411 12.3067 542 109.352 494.707 495.057
721 0 47.2039 12.1176 572 110.003 494.327 493.009
722 0 47.1685 12.4871 589 110.244 494.543 491.216
723 0 50.1341 12.2472 614 109.21 494.567 492.27
724 0 51.0598 12.7106 649 110.213 494.311 490.169
725 0 52.0703 11.9838 624 112.037 494.115 489.244
726 0 56.0712 12.5376 703 109.162 493.986 490.053
727 0 56.0406 10.9742 615 114.911 493.92 487.902
728 0 60.1183 14.1887 853 108.726 493.366 485.86
729 0 60.2392 12.1848 734 114.207 493.828 485.069
730 0 65.1147 12.9003 840 111.135 493.84 485.57
731 0 65.3059 11.6988 764 115.796 494.262 481.677
732 0 68.3199 13.0123 889 113.6 494.39 478.024
733 0 68.276 11.6293 794 118.142 494.19 477.797
734 0 74.2785 12.8705 956 113.635 494.001 476.504
735 0 75.4911 12.4386 939 116.836 493.7 473.539
736 0 77.5428 11.8386 918 117.702 494.389 473.233
737 1 41.4015 11.0141 456 112.761 494.092 493.476
738 0 46.048 11.9006 548 110.188 493.626 493.232
739 0 45.1522 13.0448 589 107.324 493.341 493.737
740 0 47.1019 11.0187 519 108.424 494.015 493.042
741 0 49.103 11.6897 574 109.93 493.636 492.476
742 0 50.0742 13.6397 683 106.124 493.934 492.562
743 0 51.074 12.198 623 109.135 493.947 492.515
744 0 54.0584 12.5605 679 107.255 493.711 490.954
745 0 54.106 12.6418 684 109 493.808 488.895
746 0 56.1421 13.5193 759 107.698 493.881 487.736
747 0 59.1253 12.2959 727 114.619 493.763 489.175
748 0 60.0587 11.3722 683 111.902 493.761 488.082
749 0 65.0259 13.164 856 108.417 494.264 486.41
750 0 65.1497 12.8934 840 110.212 493.831 483.973
751 0 67.2062 10.5347 708 114.39 494.395 482.521
752 0 70.4025 10.7809 759 113.625 494.42 479.157
753 1 34.2338 12.1225 415 107.053 494.602 496.388
754 0 36.3481 12.2702 446 107.408 494.507 495.771
755 0 37.2411 9.69359 361 110.74 495.512 497.119
756 0 38.1624 11.5559 441 109.821 494.601 493.971
757 0 40.06 11.333 454 110.595 493.718 496.681
758 0 42.0538 11.1762 470 109.326 494.634 496.474
759 0 45.1332 12.164 549 114.976 493.933 494.235
760 0 45.1444 11.2528 508 116.035 494.622 493.939
761 0 48.0891 11.8322 569 114.49 494.689 492.954
762 0 47.2205 11.7322 554 116.296 494.493 492.883
763 0 51.1863 10.7841 552 115.649 494.661 492.931
764 0 50.2081 12.5279 629 114.466 494.218 490.037
765 0 53.138 12.9662 689 111.588 494.06 489.495
766 0 54.1659 13.3294 722 103.614 493.913 490.303
767 0 55.1127 13.3363 735 107.897 493.826 489.32
768 0 56.1911 12.066 678 111.705 493.845 486.953
769 0 57.1267 10.9231 624 113.079 493.58 488.631
770 0 61.1368 13.1018 801 104.201 493.518 484.863
771 0 63.2743 12.2799 777 108.431 493.327 485.6
772 0 65.2476 11.0962 724 109.968 493.384 484.692
773 0 67.2519 12.3417 830 107.587 493.28 482.835
774 0 69.1439 11.8593 820 108.4 493.115 483.049
775 0 72.2745 12.0513 871 107.683 492.743 478.217
776 0 73.5374 12.7282 936 106.521 492.457 475.571
777 0 76.4449 13.67 1045 103.43 492.977 476.958
778 0 80.3821 13.6722 1099 104.63 493.099 474.904
779 0 84.4067 12.7004 1072 106.056 492.946 474.61
780 0 84.4683 12.4307 1050 107.807 493.497 474.115
781 0 87.2719 12.4095 1083 108.784 492.964 471.958
782 1 48.2039 11.7418 566 108.523 493.337 491.463
783 0 47.1475 12.1958 575 108.341 492.823 491.59
784 0 50.1944 14.0853 707 103.764 493.385 488.84
785 0 51.1046 13.2865 679 105.462 493.682 486.664
786 0 55.0373 14.1359 778 102 494.411 487.535
787 0 57.0994 11.9791 684 105.896 494.05 486.893
788 0 58.1004 12.9259 751 106.36 494.43 485.812
789 0 60.02 13.862 832 105.78 493.916 486.329
790 0 62.0753 13.9186 864 106.729 494.073 484.8
791 0 65.0543 13.5425 881 107.109 494.593 484.529
792 0 68.1077 15.7251 1071 101.503 494.261 483.588
793 0 71.2067 14.2964 1018 103.9 494.419 482.386
794 0 71.1647 12.5062 890 109.787 494.271 480.972
795 0 74.2242 14.4831 1075 106.431 494.383 478.771
796 0 78.1833 14.159 1107 105.574 494.64 477.291
797 0 81.0764 13.9375 1130 106.502 494.159 476.234
798 0 83.2989 13.5776 1131 107.397 494.114 475.96
799 0 87.1812 13.9136 1213 106.366 494.873 474.658
800 0 88.2973 13.3979 1183 108.054 494.845 470.329
801 0 93.3907 14.3804 1343 105.497 495.094 470.289
802 0 94.3736 13.4783 1272 108.542 495.298 468.275
803 0 98.1919 12.9033 1267 109.23 495.639 465.928
804 0 103.262 13.7708 1422 107.106 495.049 465.141
805 0 107.276 14.1225 1515 107.444 495.358 462.509
806 0 111.2 14.4424 1606 106.981 494.361 460.137
807 0 112.161 13.2131 1482 110.317 494.617 457.452
808 0 117.309 13.4602 1579 108.229 494.718 459.018
809 1 58.1104 11.2717 655 111.147 494.353 478.06
810 0 59.1379 13.477 797 109.385 493.764 475.548
811 0 64.0922 12.9033 827 107.866 493.608 481.599
812 0 65.0622 12.9107 840 107.833 493.224 480.935
813 0 68.1272 13.9885 953 105.938 493.187 478.46
814 0 71.0561 12.4409 884 109.361 493.274 479.394
815 0 73.0588 13.1949 964 108.358 492.477 477.637
816 0 74.0629 13.2455 981 108.912 492.61 476.515
817 0 78.0648 13.1045 1023 110.025 492.849 472.623
818 0 83.0805 13.6855 1137 107.179 492.597 473.694
819 0 86.0558 13.6423 1174 108.813 493.391 471.19
820 0 88.1016 14.96 1318 106.756 493.055 470.242
821 0 89.1236 13.9806 1246 110.279 493.628 465.557
822 0 91.1092 14.2466 1298 109.996 493.676 463.292
823 0 96.2837 12.702 1223 113.369 493.59 461.679
824 0 98.2852 14.0001 1376 110.932 494.001 461.656
825 0 102.249 13.0759 1337 113.381 493.901 460.709
826 0 106.242 13.3562 1419 113.571 493.289 457.357
827 0 110.203 12.8037 1411 113.343 493.189 457.666
828 0 114.285 12.3376 1410 114.57 493.811 454.377
829 1 61.1962 12.2066 747 109.509 493.436 480.272
830 0 63.3051 11.4051 722 113.608 494.018 477.853
831 0 65.0722 11.8791 773 112.894 492.722 482.502
832 0 68.1127 13.0519 889 110.034 492.451 480.438
833 0 71.0679 12.8047 910 107.907 492.643 479.627
834 0 73.1485 13.5751 993 109.362 492.421 475.508
835 0 74.0429 12.9114 956 112.09 492.678 474.978
836 0 77.3281 11.768 910 110.731 493.47 471.022
837 0 80.2164 13.3888 1074 107.821 493.874 469.362
838 0 82.3843 12.5752 1036 110.634 493.434 468.263
839 0 84.3886 11.9684 1010 113.306 493.279 467.178
840 0 88.2708 12.9828 1146 109.575 493.984 464.927
841 0 90.1789 11.5659 1043 113.781 494.049 459.915
842 0 96.2269 12.138 1168 111.389 494.117 460.961
843 0 97.3115 12.2904 1196 111.414 493.62 458.351
844 0 101.174 11.4654 1160 114.225 493.713 457.091
845 0 106.21 13.445 1428 108.139 493.145 458.562
846 1 52.1865 9.58102 500 104.184 493.88 481.248
847 0 60.0393 13.2413 795 108.152 493.25 484.597
848 0 57.1113 10.9085 623 110.106 493.953 488.056
849 0 59.0566 11.0233 651 110.406 493.266 486.422
850 0 62.0707 12.3408 766 107.368 494.242 485.055
851 0 62.0462 10.6372 660 112.192 493.536 483.545
852 0 67.1852 11.9371 802 108.384 495.095 478.839
853 0 68.171 11.0458 753 110.246 494.73 480.355
854 0 70.1275 11.8784 833 109.399 494.709 480.15
855 0 72.1984 12.7704 922 108.597 494.185 475.465
856 0 72.1672 10.6558 769 113.857 494.397 476.547
857 0 77.1557 12.7534 984 108.123 494.149 476.283
858 0 80.2109 12.9907 1042 108.407 493.353 475.821
859 0 81.1897 12.4646 1012 110.692 493.286 474.584
860 0 83.0745 10.8938 905 114.04 493.449 475.385
861 0 85.2101 11.2663 960 114.38 493.611 473.428
862 0 90.1763 12.1983 1100 112.884 494.059 472.385
863 0 94.322 13.0298 1229 110.091 493.745 471.67
864 0 97.3154 12.9065 1256 111.951 493.127 470.235
865 0 99.1357 11.9836 1188 114.684 492.171 467.627
866 0 103.085 12.1841 1256 114.492 492.583 465.817
867 1 53.0452 10.7455 570 114.519 492.323 489.919
868 0 56.2201 11.6506 655 109.516 493.711 489.348
869 0 54.0887 10.8525 587 99.9881 494.382 484.857
870 0 58.1345 12.2819 714 113.074 492.578 487.007
871 0 60.0995 12.2796 738 113.653 493.443 487.144
872 0 62.0737 12.2113 758 114.417 493.36 483.967
873 0 65.2062 13.0202 849 111.369 492.562 483.885
874 0 66.2565 12.2252 810 113.898 492.763 484.9
875 0 67.1761 13.0701 878 112.78 493.356 483.118
876 0 70.1307 13.1184 920 113.215 492.623 481.871
877 0 72.2451 12.2638 886 116.109 494 481.051
878 0 76.1826 13.8352 1054 112.148 493.702 480.756
879 0 77.0767 12.7665 984 116.625 492.82 476.558
880 0 79.1808 13.4376 1064 115.785 493.296 476.221
881 0 81.1949 11.8357 961 118.313 493.406 477.15
882 0 84.295 14.0934 1188 112.553 493.436 473.421
883 0 88.2797 13.4346 1186 114.379 494.446 472.949
884 0 90.3545 12.8162 1158 116.098 493.959 471.718
885 0 92.1855 12.1277 1118 116.993 493.903 469.525
886 1 45.0804 10.3371 466 115.97 494.285 491.914
887 0 47.0441 11.4998 541 116.002 494.47 491.884
888 0 49.0242 12.6876 622 104.921 494.828 492.736
889 0 50.0127 11.4571 573 107.825 494.279 491.956
890 0 52.0409 12.1443 632 106.033 494.06 491.345
891 0 52.0254 12.3017 640 106.273 494.653 490.094
892 0 54.099 12.1444 657 106.371 494.402 488.822
893 0 56.0826 12.018 674 106.917 494.332 487.185
894 0 60.0847 13.6141 818 102.006 494.927 487.221
895 0 61.0665 13.7882 842 102.697 494.343 484.771
896 0 62.0248 12.3499 766 107.695 494.275 484.056
897 0 66.1035 13.025 861 105.152 494.967 484.669
898 0 68.125 13.9156 948 103.977 494.641 481.889
899 0 73.1509 15.2425 1115 100.758 494.604 480.873
900 0 73.157 14.4484 1057 103.741 494.272 479.816
901 0 76.2659 14.2003 1083 104.91 494.101 478.749
902 0 77.1165 13.4602 1038 107.533 494.657 480.775
903 0 78.1676 11.4498 895 114.287 494.622 480.806
904 0 82.215 11.1658 918 115.024 494.944 478.626
905 0 86.1704 13.1716 1135 111.76 494.516 473.659
906 1 46.0537 11.986 552 114.565 494.889 493.342
907 0 47.185 11.0204 520 105.631 493.937 488.308
908 0 51.0643 12.4157 634 100.822 493.912 488.555
909 0 49.1792 11.6919 575 111.77 494.678 492.925
910 0 50.1064 10.5975 531 115.384 494.992 493.716
911 0 51.069 12.0425 615 114.241 493.883 489.244
912 0 55.1457 12.3672 682 111.638 494.296 489.72
913 0 57.1487 13.1762 753 109.49 494.035 488.782
914 0 59.1179 13.0756 773 108.629 494.376 489.539
915 0 62.1102 12.2524 761 107.07 494.696 486.448
916 0 64.1652 12.4834 801 106.813 494.846 483.906
917 0 65.0831 10.8016 703 110.317 494.209 485.945
918 0 66.1045 10.8465 717 110.852 494.704 484.494
919 0 70.0856 12.499 876 106.833 494.558 482.34
920 0 72.125 12.0624 870 106.778 494.252 484.326
921 0 75.1065 12.0096 902 107.518 494.935 480.152
922 0 79.1403 12.0419 953 106.25 495.003 478.362
923 0 83.1802 12.8035 1065 105.704 495.191 476.294
924 0 84.2674 12.1043 1020 107.906 494.908 476.877
925 0 87.1798 12.3882 1080 109.349 494.688 472.681
926 0 91.2714 10.9782 1002 111.56 494.427 474.433
927 1 50.0533 13.126 657 103.37 494.129 493.928
928 0 52.2868 12.6418 661 105.451 492.306 490.074
929 0 53.1618 12.7911 680 104.01 493.028 490.169
930 0 53.1177 12.2558 651 106.151 493.015 488.181
931 0 55.1397 12.6044 695 105.424 493.089 488.058
932 0 56.0985 11.7472 659 108.548 492.785 487.715
933 0 58.2 12.5258 729 106.053 492.833 488.682
934 0 60.1653 10.87 654 109.622 493.064 487.477
935 0 64.3203 13.2307 851 103.798 493.157 484.588
936 0 66.2235 12.3823 820 105.674 493.039 484.674
937 0 66.2026 12.3711 819 107.095 492.984 483.718
938 0 70.0815 13.0562 915 104.893 493.306 482.343
939 0 73.1261 13.4289 982 104.185 493.099 481.413
940 0 75.1599 12.5998 947 107.286 493.506 480.301
941 0 77.1747 12.7633 985 107.985 493.201 478.828
942 0 78.131 12.415 970 110.208 493.223 476.245
943 0 83.1247 14.6286 1216 103.684 493.256 476.42
944 0 84.1626 12.5709 1058 109.195 493.058 474.107
945 0 88.2701 12.6204 1114 108.979 492.375 472.382
946 0 90.4849 12.7314 1152 108.868 492.686 469.306
947 0 93.2448 12.8801 1201 108.912 492.468 469.292
948 0 98.2386 12.0218 1181 109.553 493.258 465.301
949 1 48.1035 10.3942 500 106.2 493.904 488.276
950 0 50.0304 10.7335 537 106.745 492.317 487.164
951 0 51.2066 11.9516 612 103.598 492.891 484.551
952 0 52.1553 10.5838 552 105.966 493.21 484.614
953 0 53.1749 13.0325 693 101.12 492.961 482.091
954 0 53.2406 10.631 566 107.332 493.468 481.852
955 0 56.1658 12.2138 686 102.687 493.574 482.243
956 0 58.1541 11.7447 683 104.375 493.851 481.335
957 0 60.1593 12.1511 731 104.033 493.979 480.462
958 0 59.0882 11.3898 673 111.199 493.147 481.819
959 0 62.0734 10.8903 676 111.42 493.463 481.479
960 0 63.0673 11.1468 703 113.273 493.548 478.515
961 0 65.053 12.5897 819 114.02 493.242 476.696
962 0 68.1056 11.1151 757 114.268 493.351 475.339
963 0 71.1295 11.6829 831 111.142 493.705 476.152
964 0 73.1005 12.6812 927 109.002 493.864 474.401
965 0 74.0463 11.4928 851 112.919 494.378 472.727
966 0 78.053 12.4146 969 108.89 493.963 472.095
967 0 81.2185 12.6203 1025 108.829 494.067 471.302
968 0 82.1594 11.1491 916 112.405 493.549 470.354
969 0 86.1026 11.3469 977 114.595 493.846 467.204
970 0 89.2001 12.1076 1080 113.182 493.484 466.811
971 0 92.1736 12.7368 1174 111.618 493.307 465.292
972 0 94.3149 13.0732 1233 111.007 493.031 464.238
973 1 49.0421 10.8478 532 105.977 492.88 488.291
974 0 50.0198 11.8353 592 116.59 493.965 487.931
975 0 52.016 12.2654 638 115.298 493.491 488.732
976 0 52.0376 11.2995 588 117.529 493.391 490.52
977 0 56.0597 13.0753 733 112.95 494.913 487.408
978 0 58.0358 13.664 793 111.897 494.019 488.24
979 0 59.1543 13.3887 792 113.021 495.385 487.693
980 0 59.1097 12.2484 724 118.428 495.344 485.51
981 0 62.1055 12.6237 784 117.443 494.86 484.626
982 0 63.0371 12.1833 768 117.835 494.941 482.079
983 0 66.147 12.8048 847 117.052 494.517 481.386
984 0 69.0679 12.6542 874 117.951 494.245 480.232
985 0 72.0912 13.1223 946 115.17 494.743 481.469
986 0 74.1112 13.2908 985 115.95 494.609 480.259
987 0 77.1472 12.9882 1002 115.092 494.989 476.763
988 0 80.2133 13.0278 1045 114.607 495.056 477.26
989 0 81.1047 13.2545 1075 116.115 494.605 473.657
990 0 86.2278 13.9514 1203 113.761 494.645 473.073
991 1 45.0706 12.8909 581 116.179 495.651 491.9
992 0 45.018 12.7949 576 116.368 493.556 493.979
993 0 45.0595 12.9828 585 115.039 493.506 492.966
994 0 48.0787 12.5003 601 113.975 493.496 492.211
995 0 48.0429 12.0725 580 116.474 493.284 491.047
996 0 49.1259 12.3967 609 114.75 493.504 491.617
997 0 51.0754 13.2158 675 113.486 493.567 489.548
998 0 54.0496 13.6356 737 111.978 493.172 488.402
999 0 53.0282 13.672 725 113.261 493.57 487.421
1000 0 55.09 13.4326 740 113.001 493.201 486.886
1001 0 58.0999 14.1136 820 109.789 493.729 486.149
1002 0 58.1864 14.0583 818 110.811 493.479 485.747
1003 0 63.1634 14.4862 915 108.254 493.505 484.422
1004 0 63.0845 14.013 884 110.747 493.6 483.345
1005 0 64.1142 13.4915 865 112.489 494.005 483.647
1006 0 66.1479 14.5734 964 110.76 494.435 480.919
1007 0 67.2011 13.72 922 113.08 493.412 481.087
1008 0 71.1255 13.441 956 114.369 493.745 478.803
1009 0 73.0858 13.4089 980 115.198 494.334 477.594
1010 0 76.0919 14.3511 1092 113.597 494.031 475.681
1011 0 78.101 12.868 1005 118.691 493.645 474.747
1012 0 79.0366 12.9687 1025 123.982 494.059 474.29
1013 0 82.1094 12.7391 1046 124.066 493.87 473.055
1014 0 84.135 11.6836 983 127.561 493.093 471.234
1015 0 88.1962 13.4133 1183 119.238 493.841 467.407
1016 0 92.2957 11.8315 1092 123.101 493.723 468.32
1017 0 96.3581 12.3394 1189 122.914 494.244 464.17
1018 0 99.3979 13.1391 1306 121.377 493.77 462.15
1019 1 53.2266 11.9301 635 117.502 494.709 487.444
1020 0 57.2351 12.8243 734 115.317 494.951 485.426
1021 0 59.1787 13.8394 819 113.275 494.454 482.557
1022 0 59.1565 12.6275 747 116.946 494.644 482.236
1023 0 60.0391 13.7743 827 114.97 493.515 483.807
1024 0 64.0766 13.2654 850 115.524 493.273 482.147
1025 0 67.0741 12.5086 839 116.145 493.465 480.743
1026 0 71.1573 13.0275 927 114.545 493.716 480.298
1027 0 71.1237 13.0899 931 115.555 493.513 478.738
1028 0 72.0665 12.766 920 116.711 493.629 477.859
1029 0 74.1617 13.3762 992 116.074 493.554 475.352
1030 0 78.0659 13.8217 1079 114.035 493.361 475.453
1031 0 81.1748 12.7749 1037 117.205 493.176 472.293
1032 0 86.0909 13.1605 1133 115.624 492.837 472.725
1033 0 87.1209 11.9604 1042 117.978 493.585 473.004
1034 0 88.0979 11.6688 1028 120.129 493.23 468.767
1035 0 93.086 12.8161 1193 119.142 493.225 465.96
1036 1 50.0185 12.2555 613 117.016 492.468 487.039
1037 0 51.0195 12.6226 644 115.169 493.134 488.281
1038 0 52.0492 11.6813 608 114.564 493.711 488.738
1039 0 53.0275 12.8613 682 113.34 493.173 487.853
1040 0 57.0451 12.9722 740 111.096 493.714 485.58
1041 0 60.0445 13.2735 797 110.615 493.023 483.066
1042 0 60.0419 13.0575 784 111.801 493.682 483.892
1043 0 61.0736 11.6417 711 115.674 493.075 482.25
1044 0 65.0233 12.7493 829 112.866 493.385 479.8
1045 0 67.1324 12.8552 863 113.219 493.791 479.789
1046 0 70.0655 12.5026 876 114.634 493.955 477.611
1047 0 71.1846 12.5168 891 114.787 494.435 477.126
1048 0 74.0872 12.4043 919 115.011 493.127 476.575
1049 0 76.0533 13.0566 993 114.156 493.372 476.267
1050 0 80.1614 13.3356 1069 113.085 493.162 475.246
1051 0 84.054 12.5633 1056 114.174 493.694 472.759
1052 0 86.1659 13.2303 1140 111.686 493.868 471.516
1053 0 90.079 12.6778 1142 113.251 494.361 471.809
1054 0 92.0599 12.6548 1165 110.013 494.193 467.065
1055 0 91.1567 11.3431 1034 115.238 493.677 463.182
1056 1 48.0249 11.2442 540 114.331 494.259 488.281
1057 0 49.0583 10.9869 539 114.911 493.404 489.299
1058 0 52.0431 10.818 563 114.622 493.677 487.778
1059 0 55.1738 12.7053 701 109.605 494.951 485.322
1060 0 55.1661 12.2539 676 112.308 494.652 482.447
1061 0 57.0744 12.4049 708 111.489 494.072 485.239
1062 0 59.0479 12.6508 747 111.068 494.096 480.115
1063 0 62.0345 11.3485 704 114.375 494.31 480.955
1064 0 63.0522 13.3223 840 110.545 494.451 480.792
1065 0 64.2037 13.2858 853 111.476 494.251 478.536
1066 0 67.1502 12.0923 812 114.884 494.128 477.558
1067 0 70.146 13.1013 919 112.435 495.435 476.443
1068 0 72.0761 11.8902 857 115.527 494.981 475.566
1069 0 72.0826 11.5007 829 117.869 495.045 475.546
1070 0 77.0756 13.9344 1074 112.304 495.135 474.275
1071 0 78.0608 12.0547 941 118.979 494.253 475.7
1072 0 82.0998 13.3253 1094 115.485 493.682 474.703
1073 0 85.1518 12.695 1081 117.821 493.651 471.445
1074 0 88.0595 14.3312 1262 114.871 492.173 471.276
1075 0 92.1642 13.6279 1256 116.817 493.167 469.728
1076 1 48.0707 10.1933 490 118.51 492.447 492.037
1077 0 49.071 12.4514 611 110.592 492.869 488.889
1078 0 50.0451 12.6086 631 113.615 492.441 489.296
1079 0 52.0959 12.0931 630 114.538 492.762 489.017
1080 0 53.0447 12.5177 664 114.901 493.184 489.072
1081 0 56.082 12.5352 703 114.629 493.269 487.933
1082 0 57.0856 12.017 686 116.542 492.866 486.427
1083 0 60.0969 13.5614 815 112.859 492.871 485.454
1084 0 60.0923 13.5458 814 113.811 493.267 483.262
1085 0 64.1059 13.2437 849 113.399 493.068 483.554
1086 0 64.1238 12.5227 803 116.624 492.979 483.76
1087 0 66.1013 13.797 912 114.49 493.516 481.262
1088 0 67.0913 12.7885 858 119.057 493.431 480.608
1089 0 70.0758 13.7423 963 116.228 493.723 480.579
1090 0 69.0992 12.0117 830 122.736 493.393 479.816
1091 0 72.0974 11.8312 853 121.964 494.179 477.342
1092 0 78.1501 12.6295 987 119.092 493.435 476.647
1093 0 81.0676 11.6569 945 116.549 494.596 474.195
1094 0 82.1361 13.6481 1121 121.167 494.613 472.629
1095 0 85.1242 12.9575 1103 122.667 494.195 471.004
1096 0 88.0773 12.8183 1129 122.705 493.556 472.827
1097 0 90.1273 13.2036 1190 124.243 494.242 470.797
1098 1 49.1535 10.3146 507 124.641 495.28 489.497
1099 0 46.1554 10.7896 498 116.546 493.843 481.683
1100 0 50.1582 10.2276 513 115.493 494.423 481.641
1101 0 52.0903 11.4417 596 104.611 493.935 485.465
1102 0 51.085 11.3341 579 117.791 493.121 490.244
1103 0 55.0751 13.4362 740 110.951 492.881 487.118
1104 0 56.0418 11.8661 665 113.131 493.111 488.212
1105 0 58.024 12.2363 710 112.269 493.158 488.154
1106 0 62.0805 13.0476 810 109.098 493.022 483.868
1107 0 63.0635 12.5588 792 111.063 492.841 484.203
1108 0 66.0903 12.9368 855 109.022 494.078 481.973
1109 0 65.1021 12.1194 789 113.428 493.558 481.223
1110 0 69.0834 12.1737 841 112.879 493.304 479.998
1111 0 70.1186 12.4218 871 115.567 493.268 479.879
1112 0 73.1086 12.7071 929 115.898 493.057 479.919
1113 0 75.1081 13.4207 1008 113.249 493.447 478.32
1114 0 79.1208 12.4872 988 114.213 493.024 475.278
1115 0 82.1451 13.1231 1078 111.838 493.816 475.146
1116 0 85.2025 12.7578 1087 112.347 493.392 474.288
1117 1 45.0547 10.2764 463 115.436 495.026 491.92
1118 0 48.0693 11.3586 546 111.581 495.086 492.388
1119 0 47.1232 11.9262 562 110.521 492.523 490.988
1120 0 50.0747 12.2417 613 110.01 492.915 491.163
1121 0 49.0428 10.3787 509 117.189 493.585 491.961
1122 0 50.0217 11.615 581 114.783 493.17 490.406
1123 0 54.1298 11.6572 631 113.32 493.111 490.727
1124 0 52.1619 10.2374 534 117.914 492.582 489.228
1125 0 55.163 11.602 640 114.655 493.484 488.598
1126 0 59.0979 12.1832 720 112.444 493.182 488.438
1127 0 61.1307 11.6145 710 113.569 493.107 488.145
1128 0 62.2246 11.7156 729 114.823 493.844 485.317
1129 0 64.1031 11.5439 740 115.995 493.17 484.557
1130 0 67.1134 12.5906 845 113.404 493.646 485.322
1131 0 68.1744 11.5146 785 118.343 493.847 484.582
1132 0 71.1836 12.545 893 116.401 493.1 482.859
1133 0 74.2038 12.3713 918 116.511 493.387 482.338
1134 0 79.1514 12.8109 1014 115.509 493.518 479.865
1135 0 80.1522 12.4139 995 118.908 493.149 478.899
1136 0 82.1142 12.5679 1032 120.591 493.474 476.922
1137 0 86.135 12.0973 1042 122.272 493.289 473.838
1138 1 44.0386 11.7624 518 124.16 492.425 494.002
1139 0 47.0446 12.6051 593 120.261 494.433 494.128
1140 0 46.1119 13.3154 614 118.231 493.77 493.956
1141 0 48.0712 12.3567 594 119.613 494.024 493.389
1142 0 48.0567 14.0043 673 117.343 493.21 493.81
1143 0 49.0462 11.4994 564 125.991 492.812 491.973
1144 0 49.0705 12.4311 610 122.516 492.423 492.246
1145 0 51.1934 12.736 652 122.574 493.229 490.88
1146 0 54.0873 12.5907 681 119.1 491.9 489.633
1147 0 57.0329 12.449 710 118.9 492.338 488.901
1148 0 56.0493 12.5425 703 120.657 492.188 487.677
1149 0 59.0765 12.1368 717 120.713 491.495 487.709
1150 0 60.0537 12.722 764 118.385 491.398 485.758
1151 0 60.0809 12.4665 749 119.829 491.35 485.036
1152 0 63.098 12.8055 808 118.014 491.285 484.608
1153 0 64.1293 12.3189 790 118.427 491.449 483.89
1154 0 66.068 11.4427 756 119.892 491.549 481.012
1155 0 68.0675 13.1781 897 115.969 491.505 480.508
1156 0 71.0971 11.9133 847 116.56 491.443 480.824
1157 0 72.0714 11.8771 856 116.85 491.435 480.284
1158 0 76.0818 11.5008 875 118.062 491.657 476.528
1159 0 77.0808 12.6361 974 115.312 491.018 476.291
1160 0 80.0951 11.9108 954 117.229 491.675 475.739
1161 0 80.0665 11.0658 886 120.324 491.56 474.188
1162 0 86.0682 12.432 1070 117.332 491.906 472.623
1163 0 87.1364 12.7845 1114 117.22 491.676 468.055
1164 0 91.1914 12.1064 1104 117.533 492.001 471.163
1165 0 92.1221 11.9624 1102 119.296 492.006 467.995
1166 0 98.0817 12.9382 1269 116.768 491.836 465.803
1167 0 100.108 13.4754 1349 116.139 491.875 465.589
1168 0 103.137 12.1779 1256 118.606 492.331 462.671
1169 0 106.127 12.4945 1326 117.287 492.158 462.173
1170 0 111.127 11.8873 1321 118.923 492.693 460.453
1171 0 116.154 13.3099 1546 117.097 494.055 458.52
1172 1 62.0269 11.2854 700 120.936 494.026 484.129
1173 0 65.0884 13.8888 904 113.482 494.632 482.555
1174 0 67.0587 12.8395 861 115.365 492.951 482.819
1175 0 69.0926 13.3878 925 113.955 492.558 479.72
1176 0 70.1695 12.313 864 116.345 491.574 479.627
1177 0 74.1018 12.4693 924 116.089 492.127 477.68
1178 0 78.123 12.8643 1005 114.9 491.455 475.273
1179 0 80.104 13.2952 1065 114.082 492.121 475.722
1180 0 83.1053 12.3698 1028 116.578 492.37 475.059
1181 0 86.0974 13.2176 1138 115.046 492.112 471.424
1182 0 89.2086 13.149 1173 114.476 492.61 471.44
1183 0 90.0664 12.2132 1100 119.052 492.628 469.838
1184 1 48.0314 11.9505 574 117.382 491.287 488.908
1185 0 51.1074 11.7009 598 116.803 491.676 488.946
1186 0 53.1003 13.3709 710 108.404 491.687 488.872
1187 0 53.0946 12.1858 647 111.323 492.355 488.946
1188 0 55.0815 12.3998 683 109.641 492.363 489.3
1189 0 55.0897 11.6537 642 110.833 492.547 487.46
1190 0 58.131 12.8503 747 105.129 492.067 485.874
1191 0 58.0645 12.8822 748 107.933 492.35 486.131
1192 0 61.0856 12.9163 789 108.18 492.132 483.67
1193 0 62.132 11.5399 717 111.459 491.919 485.462
1194 0 64.1163 12.0562 773 110.451 492.1 481.016
1195 0 68.0271 12.054 820 109.733 492.382 481.573
1196 0 69.092 12.4472 860 108.763 492.495 480.001
1197 0 71.0962 12.3635 879 109.306 492.117 478.537
1198 0 74.1628 13.1872 978 107.493 491.599 476.356
1199 0 76.0276 11.9167 906 109.862 492.525 476.524
1200 0 79.1361 12.8386 1016 108.276 492.281 475.611
1201 0 82.0592 13.2222 1085 108.269 492.413 473.262
1202 0 83.1663 11.3147 941 113.883 491.502 473.87
1203 0 84.2706 11.9733 1009 118.691 493.004 471.258
1204 1 42.0705 9.79308 412 112.26 492.121 490.146
1205 0 43.0241 11.389 490 110.259 493.555 493.241
1206 0 45.181 11.3543 513 110.778 494.544 490.655
1207 0 46.1158 10.3435 477 113.644 495.18 488.47
1208 0 47.1372 11.6256 548 110.956 495.345 488.752
1209 0 48.1518 9.53234 459 115.937 495.394 489.739
1210 0 51.1035 11.8778 607 110.61 495.6 487.331
1211 0 53.0806 10.2109 542 113.924 495.969 488.454
1212 0 54.1166 11.5491 625 111.694 495.81 486.018
1213 0 56.1477 11.915 669 110.387 495.859 486.079
1214 0 59.1725 11.627 688 110.278 495.484 485.089
1215 0 60.1946 11.3631 684 112.64 495.24 483.572
1216 0 62.1509 11.0698 688 112.172 495.382 483.613
1217 0 63.1291 11.1834 706 112.161 494.929 484.494
1218 0 65.0822 11.5546 752 111.246 495.287 482.254
1219 0 67.1103 11.7419 788 111.004 495.108 481.034
1220 0 72.1261 12.0067 866 109.91 495.236 480.07
1221 0 74.1358 11.8701 880 110.907 495.284 480.575
1222 0 75.2583 11.4539 862 113.188 494.756 478.637
1223 0 77.1168 11.502 887 113.687 494.773 476.853
1224 0 82.1185 12.7255 1045 109.651 495.087 474.948
1225 0 83.1007 10.6136 882 113.266 495.051 477.384
1226 1 45.0528 11.8084 532 116.688 494.682 491.774
1227 0 46.0354 11.9039 548 109.33 494.827 488.672
1228 0 46.0654 12.5474 578 108.652 495.102 492.775
1229 0 45.0608 10.3416 466 114.556 495.876 492.665
1230 0 50.1439 10.769 540 111.594 495.741 491.009
1231 0 49.1201 11.0952 545 111.576 495.092 491.05
1232 0 52.0649 11.6585 607 110.409 494.982 488.427
1233 0 53.0734 10.5703 561 113.002 495.405 488.428
1234 0 55.0491 10.6814 588 111.06 494.614 490.347
1235 0 58.067 10.2468 595 111.598 494.592 489.255
1236 0 60.0303 11.5775 695 109.142 494.965 487.066
1237 0 60.0524 11.823 710 109.29 494.389 485.859
1238 0 62.0351 11.2356 697 110.562 494.376 485.841
1239 0 62.0936 10.919 678 111.724 494.375 485.74
1240 0 65.0671 11.3421 738 110.508 494.629 483.012
1241 0 68.0913 11.7342 799 110.265 494.547 479.529
1242 0 70.1215 11.9935 841 109.64 494.256 479.648
1243 0 70.0727 11.7735 825 110.615 494.642 480.448
1244 0 74.0849 11.2439 833 111.18 494.433 479.097
1245 0 77.1224 11.9291 920 110.057 494.686 477.161
1246 0 80.1069 12.6955 1017 108.56 495.323 474.942
1247 0 84.1801 12.7346 1072 108.187 494.998 471.458
1248 0 88.1143 14.606 1287 103.276 494.337 470.787
1249 0 91.1043 12.1948 1111 109.245 494.689 469.873
1250 0 92.21 12.8945 1189 109.855 494.53 467.271
1251 0 94.11 12.4641 1173 109.844 494.867 469.992
1252 0 93.0744 10.1961 949 117.688 494.495 468.842
1253 0 100.087 11.53 1154 113.727 494.769 466.797
1254 0 102.056 11.8562 1210 114.866 494.95 465.499
1255 0 105.105 11.5598 1215 116.259 494.523 462.435
1256 0 108.238 12.8698 1393 115.254 493.67 461.014
1257 0 114.252 12.2362 1398 114.122 493.546 459.526
1258 0 114.279 10.4569 1195 120.435 492.942 458.779
1259 0 121.314 11.7712 1428 117.632 492.917 453.918
1260 0 125.372 11.7092 1468 117.244 492.237 452.385
1261 0 129.387 11.4077 1476 118.652 491.894 445.495
1262 0 135.302 12.8897 1744 114.677 492.346 443.257
1263 0 140.391 12.28 1724 117.651 491.502 439.34
1264 0 146.319 12.3155 1802 117.402 491.832 439.269
1265 0 150.187 12.318 1850 117.879 492.558 433.499
1266 0 158.33 12.6761 2007 117.092 492.374 432.771
1267 0 164.315 13.6567 2244 114.593 491.818 429.702
1268 0 168.339 12.4095 2089 117.384 492.392 431.952
1269 0 173.382 12.8214 2223 117.814 493.009 430.027
1270 0 177.368 12.5164 2220 119.356 492.626 423.39
1271 0 182.405 11.3648 2073 121.961 491.822 423.633
1272 0 190.424 12.8556 2448 119.179 492.604 416.901
1273 0 195.509 11.7898 2305 124.295 492.865 413.973
1274 0 204.365 13.4808 2755 123.112 492.785 405.777
1275 1 55.1112 10.9597 604 117.167 493.132 478.048
1276 0 59.1457 12.4608 737 113.214 491.864 476.36
1277 0 61.0886 12.0153 734 110.091 492.181 480.173
1278 0 64.3598 13.8751 893 117.991 492.937 482.498
1279 0 65.2002 13.1135 855 120.661 493.408 483.076
1280 0 69.1524 13.2172 914 119.487 493.088 482.643
1281 0 72.2056 14.0294 1013 117.646 493.591 480.141
1282 0 74.1973 13.6528 1013 119.82 493.021 478.909
1283 0 75.3006 12.895 971 121.307 493.508 479.396
1284 0 80.1836 14.2797 1145 117.69 493.465 476.472
1285 0 82.2248 13.3536 1098 121.405 493.667 475.732
1286 1 43.013 10.8804 468 126.66 494.513 494.47
1287 0 46.0563 12.2893 566 117.274 493.382 492.302
1288 0 47.0586 11.9213 561 118.85 491.897 492.292
1289 0 48.0434 12.7801 614 117.257 491.845 491.088
1290 0 51.0198 12.4265 634 116.642 492.421 492.186
1291 0 49.0172 12.4854 612 120.096 492.529 491.971
1292 0 52.0392 12.6635 659 118.781 492.781 490.942
1293 0 56.0775 13.089 734 116.634 492.546 487.921
1294 0 58.0412 13.1975 766 116.534 493.167 487.422
1295 0 56.0149 12.6395 708 121.517 492.678 487.364
1296 0 59.0705 13.1199 775 119.07 492.871 485.355
1297 0 64.0247 13.6354 873 116.726 492.078 482.896
1298 0 66.089 13.5121 893 117.81 492.601 483.073
1299 0 68.068 13.7656 937 117.51 492.615 482.666
1300 0 69.1233 14.7996 1023 116.702 491.882 481.412
1301 0 73.0525 14.0447 1026 118.627 492.135 481.344
1302 0 74.0714 12.9335 958 122.715 491.888 481.5
1303 0 78.0888 14.4579 1129 117.857 492.043 477.6
1304 0 78.1191 13.6458 1066 122.628 493.938 478.462
1305 1 43.0533 12.9839 559 125.533 493.871 494.726
1306 0 45.0318 13.546 610 123.266 493.738 495.718
1307 0 45.1169 13.7864 622 118.121 493.664 493.457
1308 0 46.2034 13.8302 639 119.294 493.693 492.775
1309 0 47.0985 12.7817 602 124.095 493.528 491.762
1310 0 48.1592 12.6248 608 124.398 493.395 491.936
1311 0 51.1119 13.9889 715 119.66 493.483 491.057
1312 0 52.1116 14.5265 757 118.557 494.005 490.638
1313 0 53.0951 14.2574 757 120.474 493.374 489.601
1314 0 53.1264 14.0043 744 122.242 493.179 489.106
1315 0 57.0321 14.2376 812 121.143 493.212 488.692
1316 0 58.0398 14.4901 841 120.102 493.675 489.595
1317 0 60.1441 14.0662 846 120.941 493.556 486.905
1318 0 60.0358 13.975 839 122.796 493.493 486.379
1319 0 64.0709 13.5787 870 122.807 493.775 484.913
1320 0 65.0926 13.765 896 123.106 493.694 482.073
1321 0 66.0798 13.1962 872 125.81 493.382 482.242
1322 0 68.1492 12.4433 848 127.699 493.682 481.534
1323 0 71.1911 13.3865 953 125.073 493.359 480.362
1324 0 72.0699 13.584 979 125.489 493.282 478.591
1325 0 76.1382 13.4098 1021 124.832 493.465 477.518
1326 0 78.1201 13.4152 1048 126.468 493.719 476.06
1327 0 81.0858 13.8249 1121 123.632 493.651 476.294
1328 0 85.0613 14.1898 1207 121.147 493.813 475.235
1329 0 88.1377 13.9441 1229 122.411 493.811 473.694
1330 1 48.096 13.3067 640 124.441 493.155 491.387
1331 0 50.0547 13.1057 656 124.279 493.808 489.296
1332 0 50.0222 13.0742 654 127.356 492.508 491.255
1333 0 50.0503 12.7672 639 128.125 495.203 490.753
1334 0 53.0817 13.3944 711 124.273 494.532 489.615
1335 0 55.0341 13.8641 763 122.363 494.316 487.789
1336 0 57.0467 13.5678 774 123.224 493.924 487.479
1337 0 59.0856 13.929 823 121.676 494.323 486.632
1338 0 60.0844 13.7307 825 119.316 494.285 484.515
1339 0 61.0488 13.6776 835 119.467 494.35 485.501
1340 0 63.0673 12.4946 788 122.883 493.93 484.14
1341 0 66.0948 13.9497 922 118.414 494.243 482.436
1342 0 68.1091 13.405 913 120.739 493.577 480.299
1343 0 73.1059 14.1986 1038 116.754 493.962 481.205
1344 0 71.0717 13.1135 932 122.326 493.773 480.523
1345 0 76.1297 14.0812 1072 119.249 494.135 477.311
1346 0 78.1769 13.5206 1057 120.4 493.982 476.343
1347 0 81.1512 13.1976 1071 122.898 493.54 474.234
1348 0 83.1206 12.8729 1070 124.933 493.644 476.091
1349 0 87.092 13.2274 1152 124.951 494.003 474.174
1350 1 47.0223 11.2925 531 128.921 494.627 492.382
1351 0 50.0167 13.8554 693 123.861 494.182 491.094
1352 0 52.1493 13.6723 713 123.989 492.035 488.944
1353 0 53.0447 13.5735 720 126.525 494.461 488.508
1354 0 55.0153 13.2327 728 127.827 494.235 487.626
1355 0 56.0564 13.1832 739 127.835 493.993 488.283
1356 0 58.0305 12.8725 747 129.371 493.908 487.835
1357 0 59.1005 12.8764 761 131.256 494.001 484.096
1358 0 62.13 13.52 840 128.227 494.176 483.196
1359 0 66.2033 14.2742 945 125.09 494.595 482.951
1360 0 68.091 14.9359 1017 123.023 493.795 484.203
1361 0 67.1284 13.3773 898 130.223 492.566 481.992
1362 0 72.1247 13.7956 995 127.932 492.047 481.212
1363 0 75.0912 14.0629 1056 126.864 492.45 480.195
1364 0 75.1768 13.4483 1011 130.871 492.427 477.634
1365 0 78.1209 14.452 1129 124.813 492.733 479.699
1366 0 79.1427 13.9874 1107 126.833 492.425 476.338
1367 0 83.2548 14.3896 1198 125.827 493.011 476.548
1368 0 87.1118 14.6823 1279 125.284 493.012 475.181
1369 0 86.2777 14.7083 1269 128.271 493.068 472.134
1370 0 92.3003 15.4171 1423 123.918 493.202 473.653
1371 0 93.2824 14.7295 1374 126.656 492.83 471.619
1372 0 95.3995 14.3502 1369 128.178 492.854 470.089
1373 0 99.2713 14.7878 1468 126.683 493.119 465.877
1374 0 101.427 14.927 1514 126.364 493.479 464.974
1375 0 106.118 15.0775 1600 121.939 492.82 464.207
1376 1 51.0272 11.9348 609 120.445 494.182 490.167
1377 0 51.0789 12.0598 616 119.391 494.081 491.406
1378 0 55.1316 14.1842 782 116.763 492.318 487.725
1379 0 57.0467 14.1112 805 114.527 492.342 488.969
1380 0 59.0445 13.7185 810 116.326 492.895 487.902
1381 0 61.0682 14.0662 859 114.085 492.834 487.568
1382 0 63.0793 14.236 898 114.145 492.615 485.829
1383 0 65.189 13.6219 888 117.16 492.063 483.869
1384 0 68.0654 14.1041 960 114.828 491.962 485.449
1385 0 66.0932 14.0559 929 118.419 491.827 482.626
1386 0 70.0884 14.0822 987 116.817 492.27 482.011
1387 0 70.0828 13.8265 969 117.895 492.342 480.674
1388 0 72.0979 14.1197 1018 116.954 492.596 480.357
1389 0 75.0878 15.3687 1154 113.568 493.319 478.83
1390 0 76.1084 14.4793 1102 116.144 493.056 478.721
1391 0 79.1522 14.5542 1152 115.5 493.577 477.808
1392 0 81.0791 13.8137 1120 116.19 493.254 478.415
1393 0 82.0984 13.6787 1123 117.376 493.154 474.821
1394 0 83.1437 12.749 1060 123.183 492.278 474.134
1395 0 84.1268 13.6104 1145 118.045 492.954 474.357
1396 0 87.1948 13.6591 1191 117.434 493.403 471.345
1397 0 90.1367 14.0675 1268 115.924 493.628 471.791
1398 0 93.1045 14.2958 1331 114.171 492.845 470.828
1399 0 93.1393 13.9361 1298 115.752 493.217 469.191
1400 0 95.1571 13.5565 1290 115.236 493.44 469.931
1401 0 97.1834 13.1195 1275 115.161 493.259 468.759
1402 0 100.122 12.5147 1253 116.135 493.026 465.16
1403 0 103.21 13.7875 1423 112.434 493.02 463.201
1404 0 105.139 13.6296 1433 112.697 493.247 461.571
1405 0 107.166 12.9612 1389 112.198 492.96 461.593
1406 0 110.141 14.7448 1624 107.976 492.345 460.421
1407 0 113.093 12.9539 1465 111.406 492.068 458.905
1408 0 114.147 14.8405 1694 107.407 492.318 456.446
1409 0 118.102 13.9202 1644 108.569 492.324 455.482
1410 0 117.208 13.2926 1558 110.35 492.135 450.889
1411 0 123.3 13.0333 1607 109.628 492.178 450.444
1412 0 127.19 12.957 1648 108.741 492.158 450.254
1413 0 129.107 12.3618 1596 110.194 492.14 446.848
1414 0 130.199 10.9832 1430 112.392 492.12 441.179
1415 0 136.233 11.4656 1562 110.722 492.561 444.839
1416 0 140.131 12.6382 1771 109.27 492.298 440.756
1417 0 145.146 11.8846 1725 110.342 493.089 439.813
1418 0 150.232 12.6138 1895 110.064 492.869 435.084
1419 0 153.253 11.6996 1793 112.621 492.552 431.512
1420 0 159.255 12.6401 2013 111.02 492.547 431.601
1421 0 163.207 13.0938 2137 111.233 492.652 423.957
1422 1 80.092 12.8977 1033 107.91 492.558 465.91
1423 0 80.3038 11.3693 913 113.068 492.964 464.698
1424 0 84.2345 12.9401 1090 109.653 492.723 462.559
1425 0 90.2953 14.0871 1272 108.064 492.999 458.54
1426 0 91.3164 14.7181 1344 107.504 493.74 458.766
1427 0 95.3933 13.3028 1269 111.299 494.026 457.318
1428 0 99.3072 13.6647 1357 110.876 493.704 456.374
1429 0 99.1955 14.1337 1402 112.193 493.344 454.26
1430 0 104.334 14.7698 1541 110.244 492.899 451.982
1431 0 108.36 14.1103 1529 111.536 492.934 450.696
1432 0 114.214 13.8775 1585 112.747 492.878 444.194
1433 0 119.254 13.6264 1625 114.378 492.567 442.996
1434 0 122.253 15.3043 1871 111.79 492.508 441.51
1435 0 124.337 14.3963 1790 115.767 493.119 441.744
1436 0 128.379 13.834 1776 117.837 492.654 439.869
1437 0 133.318 14.8442 1979 116.559 492.464 437.277
1438 0 142.285 16.4458 2340 113.729 491.907 434.765
1439 0 146.508 16.4974 2417 114.828 493.235 432.848
1440 0 149.471 13.9827 2090 120.752 492.938 432.149
1441 0 155.368 16.2067 2518 114.907 492.956 429.42
1442 0 162.331 16.6512 2703 115.784 492.706 425.513
1443 0 168.296 15.6688 2637 118.632 492.861 423.496
1444 1 95.4645 13.8376 1321 120.727 492.955 459.598
1445 0 97.2039 11.9337 1160 118.411 493.191 460.053
1446 0 102.206 14.9796 1531 112.134 491.969 460.619
1447 0 105.218 13.7809 1450 116.045 492.266 456.165
1448 0 109.193 14.9827 1636 112.591 492.056 457.098
1449 0 112.294 13.6873 1537 118.293 492.521 454.137
1450 0 117.281 13.6936 1606 117.141 492.509 454.874
1451 0 118.312 12.9066 1527 121.486 492.688 449.476
1452 0 124.205 13.5985 1689 118.743 492.732 451.044
1453 0 128.315 13.5526 1739 119.167 492.751 447.403
1454 1 67.2536 11.0477 743 114.065 492.841 480.611
1455 0 69.3133 12.2343 848 113.514 493.485 476.691
1456 0 70.0488 12.4485 872 112.39 491.741 478.345
1457 0 71.1387 11.8782 845 107.801 493.092 478.437
1458 0 74.0839 12.3374 914 107.108 492.407 477.629
1459 0 76.1392 11.2426 856 109.925 493.036 475.536
1460 0 77.2368 10.3319 798 111.959 493.388 477.233
1461 0 82.1023 11.644 956 110.632 492.929 474.477
1462 0 83.1837 12.1899 1014 108.512 493.34 474.365
1463 0 86.2862 10.6158 916 112.049 493.501 473.591
1464 0 89.1781 10.3837 926 113.781 492.361 471.151
1465 0 93.2696 12.1797 1136 112.124 492.312 466.629
1466 0 95.3107 11.751 1120 114.405 492.072 466.793
1467 0 99.1538 12.526 1242 114.147 491.866 463.908
1468 0 102.258 12.5271 1281 116.052 491.879 459.863
1469 0 105.235 11.403 1200 119.04 491.448 460.321
1470 0 109.321 12.3673 1352 116.617 492.15 459.26
1471 1 61.1774 10.445 639 113.064 491.487 485.577
1472 0 61.1533 11.136 681 116.115 491.414 483.815
1473 0 64.1585 11.269 723 114.916 491.367 482.018
1474 0 67.1269 11.4559 769 112.13 491.19 482.143
1475 0 67.1658 12.9977 873 112.964 491.204 479.301
1476 0 70.1097 12.3378 865 114.302 491.149 480.606
1477 0 69.135 10.2119 706 121.602 490.756 481.177
1478 0 72.1307 13.5033 974 113.964 490.905 476.914
1479 0 73.0622 11.4971 840 119.633 491.567 481.311
1480 0 75.0961 12.1444 912 120.867 491.724 478.009
1481 0 77.1114 12.0086 926 121.598 491.744 476.621
1482 0 82.123 12.737 1046 118.976 490.94 474.068
1483 0 82.0581 11.6868 959 122.752 491.177 476.78
1484 0 84.107 12.496 1051 122.884 491.497 474.032
1485 0 86.1253 11.669 1005 125.451 491.165 473.855
1486 0 90.0791 12.3447 1112 123.6 490.849 471.828
1487 0 93.2275 11.8205 1102 125.852 490.915 470.142
1488 0 99.3231 12.9476 1286 122.43 490.949 468.226
1489 1 50.258 11.6797 587 126.525 490.634 489.905
1490 0 53.1103 11.9186 633 119.878 491.175 488.267
1491 0 54.1063 11.6068 628 118.467 492.092 488.279
1492 0 52.0526 11.5652 602 125.045 490.892 489.176
1493 0 54.033 11.1413 602 129.729 490.812 487.651
1494 0 58.0601 12.4526 723 125.234 491.133 486.437
1495 0 59.1132 11.9939 709 127.247 490.942 487.453
1496 0 59.0646 11.1065 656 131.477 491.623 486.448
1497 0 61.1463 11.2844 690 131.884 492.333 487.104
1498 0 61.1055 12.5521 767 132.591 492.329 484.647
1499 0 64.1085 11.231 720 134.9 491.464 484.339
1500 0 66.0784 12.2279 808 132.655 492.311 483.408
1501 0 68.0453 12.1831 829 133.134 491.721 483.511
1502 0 70.0992 12.1399 851 133.866 491.274 481.79
1503 0 72.1022 11.8859 857 132.708 492.177 482.343
1504 0 74.2265 13.1894 979 121.857 492.695 478.241
1505 0 76.1434 12.2795 935 125.684 491.887 477.834
1506 0 79.14 12.2568 970 128.952 492.487 477.931
1507 0 77.0692 12.0801 931 132.103 492.576 477.447
1508 0 80.1963 13.6665 1096 127.673 491.845 476.202
1509 0 81.1398 12.9037 1047 134.051 491.277 475.208
1510 1 43.4986 11.2877 491 137.729 492.36 493.193
1511 0 41.2353 10.9372 451 131.858 491.84 489.171
1512 0 44.1289 11.2851 498 133.851 492.181 494.225
1513 0 44.108 11.2678 497 133.382 491.561 492.976
1514 0 45.0562 11.4302 515 132.565 491.658 493.068
1515 0 47.0957 13.1435 619 128.153 491.866 492.115
1516 0 50.2255 14.1163 709 120.413 490.886 491.159
1517 0 52.2252 14.0162 732 120.6 490.967 489.947
1518 0 52.2104 13.618 711 123.752 490.809 489.578
1519 0 53.1292 13.5519 720 125.542 490.642 488.194
1520 0 53.2139 13.3424 710 128.179 490.987 487.237
1521 0 57.1329 13.3548 763 127.906 491.484 487.49
1522 0 57.159 13.2787 759 130.356 490.783 486.613
1523 0 62.0892 13.7544 854 126.57 490.888 486.157
1524 0 63.1336 14.699 928 125.907 491.348 485.296
1525 0 65.1282 13.8803 904 129.707 491.169 483.893
1526 0 66.1779 14.0681 931 130.087 491.423 485.597
1527 0 68.191 13.2862 906 133.751 491.275 483.567
1528 0 69.088 14.4019 995 130.996 490.996 480.519
1529 1 36.0661 11.2848 407 126.644 490.84 498.152
1530 0 35.0768 9.83555 345 125.849 490.806 493.858
1531 0 37.1663 11.3544 422 116.661 491.756 497.919
1532 0 37.3281 11.0641 413 117.952 491.697 496.254
1533 0 40.0616 11.2826 452 117.265 492.04 496.336
1534 0 40.0953 12.9442 519 114.979 492.358 495.143
1535 0 40.2563 11.9236 480 118.888 492.1 494.306
1536 0 41.2049 12.45 513 128.83 492.788 498.049
1537 0 43.1727 14.3146 618 122.811 492.602 496.231
1538 0 45.2529 13.1262 594 125.31 493.024 497.293
1539 0 45.2319 13.0218 589 126.462 492.686 496.915
1540 0 48.1798 12.8477 619 126.821 492.511 496.21
1541 0 48.0798 14.7671 710 121.827 492.337 494.649
1542 0 48.1269 13.5891 654 126.606 492.365 494.043
1543 0 50.1197 14.0464 704 123.594 492.706 493.031
1544 0 52.3045 13.7273 718 124.032 492.17 493.481
1545 0 53.2027 13.8339 736 124.077 492.086 492.557
1546 0 56.0676 14.108 791 123.066 491.509 492.485
1547 0 56.1367 13.2534 744 126.017 491.851 491.944
1548 0 57.1051 13.3438 762 125.969 491.035 490.626
1549 0 60.1158 13.9398 838 123.678 490.953 488.888
1550 0 59.1199 12.4493 736 129.01 490.686 489.03
1551 0 63.0399 13.9435 879 123.308 490.505 486.859
1552 0 65.0741 14.4758 942 122.174 490.014 485.489
1553 0 67.0638 14.3296 961 122.746 490.432 485.301
1554 0 68.0442 13.7264 934 124.471 490.218 483.647
1555 0 71.1849 14.371 1023 122.367 489.849 482.022
1556 0 73.1716 15.1151 1106 119.599 489.759 481.22
1557 0 74.0887 13.8888 1029 123.619 490.123 481.418
1558 0 77.0973 13.8526 1068 122.806 489.837 480.375
1559 0 81.0952 14.1809 1150 123.094 490.286 477.811
1560 1 39.116 11.99 469 125.576 490.394 496.544
1561 0 42.0216 12.1366 510 124.382 490.41 496.533
1562 0 43.0575 13.3542 575 123.113 490.593 494.464
1563 0 45.0543 14.0719 634 116.94 490.142 493.893
1564 0 46.033 12.9255 595 119.585 489.978 493.941
1565 0 48.1378 14.2508 686 115.239 490.19 491.615
1566 0 49.0735 12.9194 634 118.399 490.156 491.194
1567 0 51.097 13.2102 675 116.778 489.656 490.69
1568 0 52.0194 12.3223 641 118.37 489.852 490.41
1569 0 55.0546 13.75 757 113.515 489.864 489.935
1570 0 55.0842 14.0149 772 113.64 489.772 488
1571 0 57.0504 14.1454 807 112.86 489.492 487.768
1572 0 60.216 14.0328 845 112.889 488.927 486.434
1573 0 61.1796 14.1224 864 112.169 489.326 484.773
1574 0 63.1081 15.0218 948 110.055 489.157 482.688
1575 0 65.1452 14.3218 933 111.085 489.559 483.285
1576 0 67.1276 14.7331 989 110.191 490.085 483.383
1577 0 70.1306 13.8313 970 111.903 490.047 482.187
1578 0 73.4828 14.2891 1050 110.685 489.239 478.948
1579 0 75.2337 13.9166 1047 113.157 489.445 476.316
1580 0 78.3064 14.0346 1099 112.792 489.802 476.166
1581 0 79.1403 14.0384 1111 114.369 489.36 472.476
1582 0 82.2645 14.7087 1210 113.543 489.728 474.881
1583 0 85.2849 14.4457 1232 114.918 490.069 472.351
1584 0 87.2094 13.8861 1211 118.041 490.029 469.794
1585 0 90.2588 14.6246 1320 116.989 489.905 465.444
1586 1 50.2911 13.2031 664 114.533 489.896 488.429
1587 0 49.251 12.1825 600 119.113 490.5 486.513
1588 0 55.0578 13.8582 763 110.737 489.518 489.699
1589 0 56.0659 13.6447 765 111.651 489.966 488.702
1590 0 56.1787 13.4571 756 113.164 489.615 487.665
1591 0 60.0804 14.1643 851 110.907 489.548 485.611
1592 0 61.0537 12.9394 790 115.016 489.246 485.077
1593 0 63.0694 14.0639 887 113.073 489.566 485.131
1594 0 68.1366 14.3389 977 111.127 489.983 482.877
1595 0 68.1425 14.2496 971 113.219 490.342 482.498
1596 0 69.0819 12.8977 891 118.409 489.716 481.473
1597 0 73.0781 13.8756 1014 115.97 489.669 480.408
1598 0 75.1617 14.8613 1117 114.789 490.353 477.551
1599 0 77.0753 13.9215 1073 117.354 490.637 476.418
1600 0 80.0893 14.4838 1160 116.956 490.29 474.224
1601 0 82.2372 14.0812 1158 119.357 490.823 473.284
1602 0 86.1961 13.8405 1193 120.458 491.158 470.928
1603 0 89.2787 13.8443 1236 121.257 491.005 468.257
1604 0 93.2291 15.3386 1430 117.384 491.481 465.312
1605 1 46.1206 10.2991 475 118.947 491.964 491.185
1606 0 49.2549 12.0191 592 115.37 492.014 489.253
1607 0 48.1669 11.2525 542 120.315 491.653 488.186
1608 0 51.0811 12.4116 634 117.069 491.374 490.256
1609 0 55.1417 14.0184 773 113.621 489.581 489.471
1610 0 56.1784 13.4215 754 115.599 490.21 489.219
1611 0 57.146 14.1392 808 115.489 489.511 486.733
1612 0 60.0714 13.8003 829 109.007 489.8 487.263
1613 0 61.1233 12.6466 773 112.872 489.265 486.128
1614 0 64.1178 13.4128 860 110.724 489.477 484.279
1615 0 63.0726 12.6679 799 114.509 490.009 484.556
1616 0 68.0894 14.1725 965 109.415 489.401 482.611
1617 0 70.1046 12.4386 872 111.313 489.651 474.284
1618 0 72.1646 12.2775 886 111.883 489.49 474.499
1619 0 75.1555 12.7203 956 111.775 489.564 469.054
1620 0 78.0778 12.3851 967 109.606 490.575 474.856
1621 0 81.1263 12.7209 1032 109.454 489.179 472.682
1622 0 83.0564 11.727 974 112.234 489.872 471.878
1623 0 85.1293 11.9935 1021 111.629 489.787 473.44
1624 0 89.0788 12.4272 1107 111.166 490.37 472.735
1625 0 91.1588 11.5732 1055 114.301 490.441 467.013
1626 1 49.0594 11.4759 563 106.979 489.444 489.432
1627 0 51.0324 12.6586 646 101.076 490.189 486.947
1628 0 53.1182 11.2391 597 101.518 490.724 485.975
1629 0 56.1309 12.3996 696 100.083 491.02 486.346
1630 0 57.13 11.7101 669 102.8 490.964 484.146
1631 0 60.2262 11.9715 721 101.368 490.479 484.365
1632 0 59.138 11.2618 666 108.207 490.327 484.423
1633 0 62.0955 11.3535 705 108.102 489.965 482.043
1634 0 64.1612 12.0322 772 106.768 490.674 483.42
1635 0 66.1951 12.7804 846 106.651 490.414 480.126
1636 0 69.2116 13.1047 907 105.277 490.265 478.482
1637 0 70.167 11.4156 801 110.583 490.569 477.658
1638 0 73.2235 12.1955 893 109.813 490.357 476.884
1639 0 74.2301 10.7504 798 114.069 490.579 475.47
1640 0 75.1588 10.8038 812 114.969 490.64 475.998
1641 0 81.182 12.5274 1017 111.553 490.577 476.795
1642 0 81.3542 12.1321 987 114.561 490.376 472.224
1643 0 86.1777 13.4025 1155 111.718 490.61 471.049
1644 0 89.2848 12.4657 1113 119.074 490.385 469.559
1645 0 90.2204 11.8709 1071 116.513 490.007 467.089
1646 0 94.1884 13.1863 1242 112.771 490.32 468.076
1647 0 99.1605 12.7268 1262 113.713 489.929 466.067
1648 1 50.0724 11.763 589 117.098 490.613 490.236
1649 0 54.1045 12.8455 695 112.296 488.235 488.312
1650 0 54.0379 12.0286 650 111.949 488.542 487.168
1651 0 57.0971 11.7519 671 111.663 488.709 486.923
1652 0 58.1351 11.9377 694 110.357 488.493 487.282
1653 0 60.1266 14.22 855 105.586 488.74 484.278
1654 0 63.089 13.2828 838 106.764 489.304 485.433
1655 0 63.0804 12.6505 798 110.301 489.132 482.82
1656 0 65.0304 12.8094 833 109.179 489.659 482.862
1657 0 70.1532 12.5725 882 108.456 488.867 476.778
1658 0 73.0333 13.3364 974 105.457 489.39 478.236
1659 0 73.0993 12.5172 915 118.356 489.553 478.308
1660 0 77.2003 13.7435 1061 114.552 488.553 476.757
1661 0 79.2274 12.218 968 118.273 488.291 474.303
1662 0 82.1963 13.3948 1101 115.091 488.558 472.49
1663 0 85.3254 13.3137 1136 114.316 488.865 472.357
1664 0 87.2714 13.1887 1151 114.478 490.054 469.797
1665 0 88.4037 12.918 1142 116.011 489.993 468.616
1666 1 45.2751 9.23244 418 115.414 490.565 488.955
1667 0 43.1888 11.2298 485 105.247 489.804 483.505
1668 0 49.1574 9.90696 487 99.3203 490.456 485.776
1669 0 50.1638 10.1468 509 99.4538 490.705 488.167
1670 0 48.2483 9.98998 482 101.438 490.274 487.241
1671 0 52.1318 10.742 560 99.9607 489.505 485.239
1672 0 54.1646 10.2466 555 102.218 489.11 483.726
1673 0 54.1903 11.5888 628 101.269 489.338 484.584
1674 0 55.1326 11.5177 635 102.512 489.822 483.825
1675 0 57.1642 11.1083 635 103.255 489.403 482.668
1676 0 60.1196 11.5936 697 101.254 488.961 480.003
1677 0 61.1718 12.8818 788 100.171 488.857 478.459
1678 0 63.1436 11.5451 729 103.723 489.01 476.528
1679 0 65.0724 11.7869 767 103.295 489.639 478.138
1680 0 68.1751 12.2919 838 103.439 489.453 475.536
1681 0 68.1399 11.2709 768 106.158 489.453 477.102
1682 0 73.0964 13.0649 955 102.696 489.555 473.473
1683 0 76.0731 12.8561 978 102.236 490.334 474.098
1684 0 78.069 12.2328 955 104.843 489.506 471.341
1685 0 78.1338 11.2371 878 107.149 489.629 469.86
1686 0 83.2271 12.7483 1061 104.565 489.651 467.646
1687 0 86.1301 10.9253 941 112.854 488.965 468.95
1688 0 89.2001 11.4238 1019 107.644 489.15 466.15
1689 1 49.0874 10.7359 527 102.767 489.577 487.844
1690 0 48.1103 10.7461 517 106.18 488.87 488.704
1691 0 52.0712 12.9246 673 107.801 490.768 489.27
1692 0 54.1469 13.2233 716 108.179 491.035 487.743
1693 0 54.0318 13.2885 718 111.265 490.294 488.954
1694 0 54.0285 13.2337 715 112.063 490.394 487.79
1695 0 56.1515 13.3033 747 111.995 490.57 486.778
1696 0 60.0609 12.3874 744 112.636 491.046 486.692
1697 0 60.0637 13.3358 801 111.332 491.041 485.936
1698 0 62.1147 12.6218 784 114.733 490.459 483.492
1699 0 63.0464 11.896 750 116.797 491.495 483.435
1700 0 64.1786 13.1976 847 114.462 490.55 481.407
1701 0 70.0835 12.6849 889 113.78 490.531 482.506
1702 0 70.0982 13.0389 914 114.579 490.861 478.521
1703 0 72.1268 11.4659 827 117.542 490.761 481.01
1704 0 75.1206 13.0723 982 113.878 490.613 476.36
1705 0 78.0857 12.0765 943 110.874 490.869 477.233
1706 0 80.2433 11.8639 952 112.809 490.957 474.521
1707 0 82.1345 11.8951 977 113.088 491.216 473.801
1708 0 87.1674 12.2638 1069 111.309 490.48 470.525
1709 1 45.0868 10.6905 482 111.882 492.116 491.297
1710 0 44.1528 10.826 478 111.427 490.657 489.471
1711 0 46.0869 11.9557 551 108.156 490.942 491.532
1712 0 49.0311 13.3793 656 104.154 490.79 489.456
1713 0 49.1013 12.4437 611 106.935 491.232 490.836
1714 0 52.0814 13.0949 682 104.805 491.201 488.868
1715 0 53.076 12.3031 653 108.041 490.917 488.225
1716 0 55.099 13.6663 753 106.106 490.639 485.523
1717 0 56.0972 13.6014 763 106.075 490.704 486.473
1718 0 57.215 13.2483 758 107.796 490.54 484.475
1719 0 61.1636 13.7173 839 106.105 490.588 484.911
1720 0 62.141 13.4694 837 106.237 490.51 484.732
1721 0 64.1402 12.1609 780 110.092 490.312 483.305
1722 0 66.2525 12.7844 847 109.815 490.466 480.982
1723 0 68.2321 12.5747 858 108.946 491.279 482.233
1724 0 72.1383 13.585 980 105.731 491.161 482.257
1725 0 72.1578 13.8031 996 108.836 490.862 480.426
1726 0 72.1594 13.2484 956 112.155 490.673 478.826
1727 0 76.3278 13.5992 1038 112.054 490.766 477.578
1728 0 78.2407 13.7524 1076 112.314 491.1 475.923
1729 0 81.1569 13.7635 1117 112.429 490.995 477.228
1730 0 84.1086 14.2673 1200 111.993 491.223 474.279
1731 0 87.141 15.1938 1324 110.48 490.949 472.247
1732 0 89.2029 13.6318 1216 116.132 490.518 472.053
1733 1 44.0652 12.4134 547 115.49 491.232 495.126
1734 0 46.0466 11.4232 526 115.717 490.669 493.15
1735 0 47.1286 12.6675 597 114.817 488.538 487.563
1736 0 49.042 13.3355 654 110.044 488.466 490.092
1737 0 51.1478 12.8451 657 111.23 488.712 489.268
1738 0 51.1328 12.0275 615 114.984 489.302 488.286
1739 0 52.0361 11.05 575 119.887 488.723 489.67
1740 0 56.0322 12.118 679 116.383 488.655 488.633
1741 0 56.1016 12.1209 680 117.287 489.201 489.037
1742 0 57.0996 12.2943 702 117.942 488.611 487.292
1743 0 60.0747 12.2348 735 119.872 488.698 486.792
1744 0 62.0691 12.2605 761 118.88 488.919 485.145
1745 0 64.206 12.8493 825 117.898 489.148 482.824
1746 0 64.0385 12.555 804 119.336 489.316 483.184
1747 0 68.0317 13.3761 910 116.827 489.233 481.264
1748 0 71.0919 13.152 935 116.491 488.755 481.289
1749 0 74.1066 13.8719 1028 114.281 488.535 480.274
1750 0 78.1238 12.3266 963 116.692 489.075 476.976
1751 0 79.0635 11.6615 922 119.459 488.178 475.78
1752 0 80.1007 12.6216 1011 116.439 488.61 476.195
1753 0 84.0764 13.3807 1125 114.448 488.308 474.9
1754 1 47.0237 11.5899 545 118.294 487.25 490.806
1755 0 47.059 11.2412 529 120.609 488.259 490.964
1756 0 49.0407 12.8057 628 115.965 487.892 489.639
1757 0 50.0139 13.0364 652 114.883 491.27 490.61
1758 0 53.0722 12.304 653 119.711 489.149 490.426
1759 0 53.0743 13.0383 692 119.491 487.971 486.675
1760 0 53.0631 12.1365 644 122.815 488.696 489.062
1761 0 56.0371 13.8301 775 117.929 488.146 486.025
1762 0 59.0683 13.8822 820 116.982 488.183 485.621
1763 0 60.0378 13.5082 811 118.308 488.248 485.752
1764 0 62.0526 13.1179 814 119.645 488.412 486.133
1765 0 66.0339 14.326 946 115.516 488.549 483.237
1766 0 67.0468 13.677 917 117.983 487.964 482.399
1767 0 68.075 13.5145 920 118.725 488.274 481.06
1768 0 70.0542 13.9178 975 116.533 488.308 481.375
1769 0 72.1044 14.7841 1066 111.121 487.979 477.76
1770 0 75.0716 14.0932 1058 112.003 488.198 477.814
1771 0 77.041 13.9796 1077 112.809 487.931 476.97
1772 0 80.1245 13.9034 1114 112.426 488.578 476.055
1773 0 82.0852 13.352 1096 111.344 488.928 477.99
1774 1 45.0669 11.1834 504 113.96 488.383 494.383
1775 0 45.0313 11.4587 516 114.428 488.306 494.457
1776 0 48.0362 11.4705 551 115.419 488.909 493.004
1777 0 46.1415 11.5297 532 119.902 488.316 490.429
1778 0 48.0288 11.6389 559 108.433 487.884 491.839
1779 0 49.1176 11.4419 562 109.539 488.493 490.052
1780 0 52.0851 11.8652 618 108.419 488.982 489.743
1781 0 52.0417 13.5084 703 105.929 488.585 487.048
1782 0 53.0533 10.9512 581 111.251 488.835 487.503
1783 0 57.1012 13.7475 785 103.721 489.084 486.892
1784 0 57.0442 12.6043 719 107.745 488.848 484.004
1785 0 57.0485 11.534 658 110.416 488.847 483.547
1786 0 61.0556 12.9227 789 107.039 488.882 483.342
1787 0 63.1146 13.1507 830 105.97 488.857 482.186
1788 0 66.076 12.9548 856 105.661 488.632 481.349
1789 0 67.072 12.8668 863 106.283 488.711 480.206
1790 0 68.0872 12.6455 861 107.102 489.06 478.756
1791 0 69.0569 11.8887 821 110.336 488.99 478.571
1792 0 72.0578 12.7537 919 108.527 487.852 477.214
1793 0 75.0924 13.5833 1020 106.37 488.123 478.67
1794 0 77.0884 13.5299 1043 108.058 487.908 474.708
1795 0 80.107 13.3571 1070 109.493 487.923 473.418
1796 0 82.1244 12.5298 1029 110.994 488.272 471.153
1797 0 84.0445 12.4696 1048 113.256 488.301 470.785
1798 0 90.084 13.5318 1219 109.62 488.742 469.379
1799 0 91.039 12.566 1144 113.087 488.587 466.302
1800 1 51.0758 11.5319 589 115.487 488.525 486.222
1801 0 52.0556 11.8143 615 114.616 491.392 486.657
1802 0 52.0401 11.1452 580 114.147 490.536 487.04
1803 0 55.1105 12.5929 694 109.526 489.664 485.641
1804 0 56.0971 13.2449 743 108.055 490.987 485.507
1805 0 58.1773 11.2931 657 112.024 491.076 485.015
1806 0 60.0786 12.3338 741 109.873 490.918 483.645
1807 0 61.1162 12.4844 763 109.465 491.018 481.107
1808 0 65.0667 13.8781 903 104.965 491.256 481.087
1809 0 67.1633 12.4771 838 108.064 491.366 480.937
1810 0 68.1091 12.5974 858 107.829 491.147 478.371
1811 0 72.1045 11.8439 854 109.155 491.285 477.628
1812 0 74.083 10.9337 810 111.675 491.033 476.348
1813 0 75.0602 11.8971 893 110.291 491.041 478.42
1814 0 79.1471 13.6202 1078 105.601 490.654 475.009
1815 0 83.1265 12.5832 1046 107.384 490.731 475.685
1816 0 85.1566 14.0565 1197 105.545 490.301 471.692
1817 0 88.2108 13.8418 1221 105.867 490.409 470.401
1818 0 88.1068 13.2566 1168 108.696 491.056 470.74
1819 0 93.1219 14.3038 1332 106.734 490.326 468.581
1820 0 97.1214 13.2309 1285 109.644 490.339 468.171
1821 1 50.0493 12.3478 618 115.293 490.921 489.209
1822 0 48.0092 10.7271 515 114.54 488.394 484.6
1823 0 52.1783 13.2239 690 98.4928 490.129 485.062
1824 0 52.1204 11.5502 602 101.766 489.864 483.899
1825 0 52.1204 11.6845 609 127.015 490.88 483.757
1826 0 52.1195 11.4544 597 127.199 491.876 483.948
1827 0 59.0936 12.844 759 109.509 491.752 487.771
1828 0 61.0729 13.8032 843 108.066 491.44 485.536
1829 0 62.1022 12.6405 785 112.924 491.669 485.364
1830 0 63.089 13.6474 861 112.283 491.416 484.245
1831 0 67.0442 12.7677 856 113.488 491.398 485.231
1832 0 67.1193 13.6622 917 113.704 490.677 481.966
1833 0 69.0919 12.534 866 116.305 491.148 482.943
1834 0 72.1203 13.4498 970 114.738 490.786 480.419
1835 0 72.0905 12.7617 920 118.707 490.574 479.665
1836 0 75.1177 12.3007 924 121.285 490.567 477.69
1837 0 76.0585 13.4502 1023 120.139 490.253 477.123
1838 0 80.0908 13.2475 1061 120.837 490.43 476.627
1839 0 82.0958 13.1919 1083 122.535 490.452 475.031
1840 0 86.0909 14.4731 1246 117.72 490.054 471.998
1841 0 87.1778 13.2258 1153 121.696 490.157 471.343
1842 0 87.1778 13.2717 1157 148.018 491.131 471.163
1843 1 47.1378 10.7981 509 112.601 489.796 486.02
1844 0 46.0713 11.1132 512 105.965 488.539 486.016
1845 0 50.1091 10.8164 542 104.697 488.801 486.541
1846 0 52.1142 10.2851 536 106.138 489.069 485.41
1847 0 54.0522 11.3594 614 103.853 489.332 482.751
1848 0 55.0772 10.8212 596 105.357 489.221 483.935
1849 0 56.1115 10.9425 614 105.511 488.997 483.321
1850 0 58.0973 10.8267 629 105.262 489.364 481.843
1851 0 59.0661 12.3082 727 102.981 488.86 479.722
1852 0 62.1017 11.9642 743 104.083 488.619 479.209
1853 0 64.1258 12.1792 781 103.209 489.287 478.22
1854 0 64.0783 10.8461 695 106.823 488.963 477.262
1855 0 68.1515 12.1934 831 103.372 489.535 476.522
1856 0 68.1018 10.7486 732 108.033 489.305 473.355
1857 0 74.1309 13.004 964 102.699 488.904 471.987
1858 0 76.2126 12.7013 968 102.918 489.05 471.825
1859 0 79.2123 13.4575 1066 102.224 489.037 470.156
1860 0 81.1699 13.0837 1062 103.12 489.563 469.028
1861 0 84.2231 12.0395 1014 105.794 489.74 469.91
1862 0 87.3356 11.6676 1019 107.166 489.383 468.451
1863 0 92.3674 12.8833 1190 104.605 489.92 466.196
1864 0 93.29 11.4911 1072 108.871 489.429 462.157
1865 0 98.1816 11.7435 1153 109.579 489.963 465.364
1866 0 100.11 11.817 1183 108.265 489.82 463.726
1867 1 53.1362 12.2515 651 102.587 490.493 487.341
1868 0 55.2709 12.0497 666 103.713 490.625 484.345
1869 0 53.1249 10.6918 568 101.849 490.063 479.245
1870 0 56.212 11.083 623 102.441 489.892 479.942
1871 0 58.1204 11.1665 649 102.234 490.025 481.521
1872 0 61.1877 12.192 746 99.3244 489.452 477.68
1873 0 63.1403 12.1 764 99.6165 490.279 479.805
1874 0 64.1614 11.814 758 102.253 490.1 479.472
1875 0 67.1957 12.8133 861 100.674 489.751 480.115
1876 0 69.1308 12.0785 835 103.441 489.628 478.523
1877 0 71.1125 12.4732 887 104.132 489.293 477.56
1878 0 72.1236 12.0072 866 106.067 489.217 477.584
1879 0 75.1154 12.4875 938 105.059 489.806 477.195
1880 0 76.1055 13.271 1010 103.636 488.92 471.76
1881 0 76.2184 12.0443 918 107.938 488.855 470.903
1882 0 79.1084 12.8305 1015 106.893 489.199 468.637
1883 0 80.0896 12.2363 980 109.509 489.039 468.741
1884 0 82.2296 11.9422 982 113.013 488.881 468.294
1885 0 87.0658 12.2895 1070 112.763 488.914 465.968
1886 0 89.1182 12.9715 1156 122.722 489.586 468.346
1887 0 91.1009 12.7112 1158 123.756 489.623 467.316
1888 0 93.1337 13.282 1237 120.593 489.493 468.007
1889 0 97.1523 13.484 1310 117.676 488.761 459.61
1890 0 101.079 13.0294 1317 117.39 488.519 459.758
1891 0 104.062 11.7238 1220 118.622 488.439 455.431
1892 1 56.1074 10.0878 566 109.993 489.864 481.668
1893 0 58.0513 11.0592 642 115.695 488.366 478.489
1894 0 58.0469 10.9739 637 109.414 489.943 476.768
1895 0 64.1022 12.0901 775 105.525 489.654 478.178
1896 0 64.0443 10.8362 694 108.978 489.852 474.756
1897 0 68.0857 11.9702 815 105.412 489.69 475.395
1898 0 72.0853 12.4713 899 104.01 489.723 474.186
1899 0 73.0818 12.1097 885 105.572 489.623 471.429
1900 0 75.1023 12.4364 934 105.046 489.236 470.269
1901 0 77.1878 12.3077 950 105.622 488.925 469.081
1902 0 81.1442 11.991 973 105.866 489.117 468.136
1903 0 82.1192 12.1774 1000 106.838 489.247 466.283
1904 0 84.1158 12.0191 1011 107.275 489.381 466.561
1905 0 88.3178 11.7757 1040 109.101 489.184 462.962
1906 0 91.1498 12.7153 1159 108.002 489.063 460.663
1907 0 96.1979 12.599 1212 107.439 488.901 460.11
1908 0 99.1349 12.2056 1210 110.439 488.726 464.432
1909 1 49.0322 10.952 537 106.888 489.047 490.41
1910 0 52.1777 12.8791 672 105.882 488.436 485.369
1911 0 49.2044 10.2836 506 106.271 489.253 484.573
1912 0 52.1021 11.3047 589 104.015 489.445 484.968
1913 0 54.1241 11.7138 634 104.558 489.868 483.61
1914 0 55.158 10.7872 595 107.281 489.193 482.452
1915 0 58.0896 11.7405 682 104.692 489.054 480.393
1916 0 60.2289 11.9378 719 104.885 489.167 480.35
1917 0 61.1127 9.89975 605 110.152 489.169 479.798
1918 0 66.1063 12.2379 809 104.095 488.957 479.8
1919 0 66.0994 11.5583 764 107.823 488.724 476.755
1920 0 67.0841 11.985 804 107.734 489.021 476.274
1921 0 70.1414 11.8617 832 108.43 489.468 474.721
1922 0 73.0702 11.6737 853 108.878 489.204 473.79
1923 0 76.2383 11.9363 910 107.97 488.867 472.932
1924 0 77.2356 11.6009 896 110.275 489.17 469.442
1925 0 79.1418 11.0056 871 111.867 489.597 468.47
1926 0 81.2294 11.683 949 111.341 488.829 467.336
1927 0 86.1536 11.0849 955 112.582 488.696 463.094
1928 0 88.1869 11.9179 1051 112.657 488.63 460.648
1929 0 89.1762 10.2606 915 117.281 489.563 460.986
1930 0 95.3551 12.1965 1163 112.462 489.758 459.468
1931 1 48.0943 11.2279 540 108.378 489.557 483.322
1932 0 50.0711 10.7447 538 112.374 489.638 483.152
1933 0 50.2461 11.0655 556 111.167 489.3 483.104
1934 0 56.1266 12.1511 682 130.098 488.37 487.808
1935 0 57.0254 12.8364 732 127.99 488.075 486.473
1936 0 62.0324 12.0582 748 127.591 487.334 486.967
1937 0 61.0168 12.177 743 130.271 487.363 482.878
1938 0 62.0266 12.9461 803 129.837 487.587 478.898
1939 0 64.0614 11.848 759 134.812 486.947 478.883
1940 0 66.1698 13.0875 866 130.208 489.025 483.495
1941 0 70.1525 12.4443 873 133.286 489.165 480.786
1942 0 71.1816 11.857 844 136.428 489.358 479.821
1943 0 72.188 12.8138 925 135.658 488.813 478.498
1944 0 76.1771 12.8385 978 132.834 489.701 478.346
1945 0 80.2078 14.3128 1148 126.632 489.919 477.557
1946 0 82.171 13.4476 1105 130.934 489.495 476.027
1947 0 83.2236 12.0158 1000 135.636 490.147 476.647
1948 0 88.2623 13.8678 1224 130.618 489.547 473.757
1949 0 90.4802 13.8041 1249 132.901 489.75 470.24
1950 1 48.2508 12.4765 602 134.558 489.865 490.083
1951 0 49.2191 12.1498 598 124.635 489.023 489.151
1952 0 51.0283 12.0913 617 122.052 491.032 491.934
1953 0 52.0705 12.7519 664 122.134 490.877 491.301
1954 0 53.1876 12.9353 688 121.417 490.526 489.047
1955 0 55.1141 12.0114 662 124.66 490.31 488.964
1956 0 56.1284 12.8812 723 121.278 490.367 487.542
1957 0 58.1716 11.7067 681 124.775 490.8 486.558
1958 0 60.2017 12.7903 770 121.826 490.309 485.483
1959 0 61.1172 13.875 848 119.666 490.196 486.025
1960 0 62.2156 13.6461 849 119.784 490.065 485.376
1961 0 66.1873 12.5704 832 121.406 490.005 484.137
1962 0 67.1222 12.0378 808 122.918 490.401 481.231
1963 0 70.1226 11.9362 837 121.95 490.007 481.767
1964 0 71.1176 12.5145 890 120.578 489.651 480.611
1965 0 73.1149 12.6103 922 120.67 489.958 478.62
1966 0 78.1803 13.4433 1051 117.118 489.851 478.58
1967 0 79.2415 13.6166 1079 118.933 489.748 474.232
1968 0 84.1924 13.1841 1110 118.051 490.004 475.195
1969 0 85.1529 13.0471 1111 119.847 490.038 473.843
1970 0 89.1358 13.4738 1201 117.757 489.51 473.193
1971 0 92.083 13.8571 1276 115.911 489.684 470.068
1972 1 49.06 11.2108 550 122.291 490.589 491.753
1973 0 50.0588 11.087 555 125.029 490.591 487.809
1974 0 53.1658 11.9249 634 118.407 491.167 486.308
1975 0 55.1922 11.9944 662 118.077 490.926 482.882
1976 0 57.1053 12.976 741 113.505 491.094 483.946
1977 0 57.0285 12.485 712 116.397 490.514 486.296
1978 0 59.1411 12.3603 731 115.253 490.446 483.238
1979 0 60.2103 12.4563 750 116.192 489.975 482.569
1980 0 62.1094 12.8161 796 115.497 489.845 483.259
1981 0 63.1102 13.215 834 114.463 490.076 480.878
1982 0 67.1858 12.711 854 114.708 489.773 479.836
1983 0 67.2141 11.7684 791 116.86 490.161 479.686
1984 0 70.3355 12.5968 886 112 490.999 478.767
1985 0 73.1405 13.0981 958 112.978 490.264 475.453
1986 0 74.1594 11.9068 883 115.661 490.333 473.904
1987 0 76.1012 12.1023 921 115.279 489.908 476.369
1988 0 79.2101 10.9961 871 117.579 490.464 473.734
1989 0 83.0785 13.9386 1158 111.078 490.052 470.661
1990 0 84.1189 12.2089 1027 115.149 490.091 470.009
1991 0 89.1276 13.5424 1207 111.281 490.4 467.563
1992 0 90.2071 11.6842 1054 116.509 490.992 463.977
1993 1 47.0236 11.1646 525 112.474 491.802 489.055
1994 0 46.0716 10.8744 501 114.054 491.042 485.499
1995 0 48.0378 10.7207 515 114.85 491.402 485.419
1996 0 51.0511 11.322 578 110.427 491.514 483.009
1997 0 53.0152 11.7325 622 110.219 491.421 482.212
1998 0 55.0766 11.711 645 110.701 490.816 481.124
1999 0 54.0625 11.0428 597 114.625 490.836 478.737
2000 0 56.0281 11.3872 638 114.176 490.956 480.351
2001 0 59.0874 12.1007 715 111.849 490.548 481.441
2002 0 60.0194 11.7295 704 114.3 490.254 479.956
2003 0 62.057 11.7956 732 114.609 490.025 476.496
2004 0 68.0863 10.3251 703 115.835 490.319 477.778
2005 0 69.1996 12.8902 892 109.381 490.249 477.128
2006 0 72.1365 12.5179 903 111.192 490.218 475.633
2007 0 72.1421 13.2378 955 111.754 487.94 476.534
2008 0 73.1615 12.2195 894 115.568 488.032 473.255
2009 0 78.2479 13.0611 1022 112.815 488.027 473.167
2010 0 79.1225 13.7382 1087 112.082 487.996 471.926
2011 0 84.2066 13.2412 1115 112.376 488.117 471.882
2012 0 86.1799 15.1892 1309 108.96 487.916 468.202
2013 0 87.219 13.6209 1188 113.24 488.162 467.552
2014 0 88.1096 13.1654 1160 111.735 488.125 467.742
2015 0 91.2058 13.2886 1212 112.586 487.611 467.687
2016 0 94.1193 12.7285 1198 117.6 487.705 467.249
2017 0 95.3503 12.6901 1210 119.19 487.703 465.406
2018 0 99.3385 12.3416 1226 118.081 488.139 462.127
2019 0 103.267 13.2085 1364 117.48 488.067 458.899
2020 0 107.431 13.2923 1428 118.221 487.412 456.283
2021 0 110.315 12.5822 1388 119.62 487.603 455.006
2022 0 115.373 13.1486 1517 117.761 487.244 451.727
2023 1 60.2019 12.1425 731 107.722 488.233 480.129
2024 0 63.1387 12.2587 774 111.384 487.836 477.552
2025 0 63.1439 11.1491 704 117.588 487.295 479.57
2026 0 67.0563 12.0048 805 114.391 487.576 481.361
2027 0 70.0311 11.5663 810 115.596 487.686 477
2028 0 73.1259 12.458 911 114.75 487.727 476.705
2029 0 76.0879 13.8393 1053 110.339 488.07 475.923
2030 0 78.0642 11.6186 907 116.292 487.916 477.214
2031 0 81.2108 11.4394 929 117.337 488.013 470.312
2032 0 84.3286 12.3209 1039 116.41 488.46 468.22
2033 0 87.3519 12.2264 1068 116.932 488.332 467.153
2034 0 88.1932 11.4181 1007 120.038 487.986 464.778
2035 0 91.4221 10.9711 1003 120.379 488.401 466.483
2036 0 94.305 13.0534 1231 117.63 488.652 462.989
2037 1 52.3794 12.1422 636 124.788 488.829 486.755
2038 0 52.2035 14.022 732 122.996 488.954 486.82
2039 0 53.081 13.3381 708 126.496 489.972 487.691
2040 0 55.0893 12.6522 697 129.245 490.195 487.878
2041 0 56.2523 13.0128 732 126.736 490.298 486.612
2042 0 58.2097 13.5201 787 126.51 489.825 486.422
2043 0 61.2907 13.0852 802 129.569 489.271 486.436
2044 0 61.4762 13.127 807 130.388 488.888 485.129
2045 0 65.3212 12.982 848 130.672 488.684 482.725
2046 0 67.261 13.6483 918 128.763 488.539 481.599
2047 0 70.2674 14.089 990 126.934 488.752 481.891
2048 0 71.3116 13.3499 952 129.965 488.916 481.033
2049 0 72.4326 14.0544 1018 129.606 488.538 477.205
2050 0 76.48 14.2521 1090 127.947 488.337 474.135
2051 0 81.3902 13.9329 1134 128.04 488.832 471.513
2052 0 83.2708 14.0506 1170 127.465 488.438 471.166
2053 0 82.1379 13.246 1088 129.923 488.682 471.315
2054 0 88.1722 14.5738 1285 123.889 490.059 466.63
2055 0 89.1083 13.882 1237 127.132 489.628 469.973
2056 0 93.1323 12.4769 1162 131.963 489.188 469.799
2057 1 47.026 12.3123 579 127.204 489.971 491.33
2058 0 49.0328 13.9906 686 125.413 488.885 490.373
2059 0 51.1493 14.1155 722 124.652 488.856 489.226
2060 0 53.3316 13.1067 699 127.361 488.712 487.608
2061 0 52.3388 12.6866 664 131.483 488.533 485.498
2062 0 54.1436 13.3718 724 130.246 488.384 486.402
2063 0 55.2377 12.9622 716 132.325 488.454 485.006
2064 0 59.2579 14.2934 847 126.465 488.913 480.161
2065 0 59.1843 13.9395 825 128.033 488.985 481.086
2066 0 62.2628 14.5031 903 124.818 489.063 481.95
2067 0 63.1125 13.6106 859 128.811 489.708 481.25
2068 0 64.1366 14.0481 901 128.043 489.685 479.421
2069 0 68.1217 14.0044 954 123.766 488.494 476.151
2070 0 68.0651 12.6056 858 130.387 488.58 475.274
2071 0 71.1329 14.1004 1003 126.131 489.215 475.822
2072 0 75.0679 14.8532 1115 125.543 489.291 473.422
2073 0 78.0714 14.2434 1112 126.855 489.57 472.191
2074 0 81.1937 15.0627 1223 125.285 489.661 470.317
2075 0 81.463 14.436 1176 129.179 489.744 468.47
2076 0 85.2583 15.2947 1304 125.271 489.917 468.205
2077 0 90.1959 14.4574 1304 127.17 490.27 466.025
2078 0 91.1877 13.9602 1273 129.601 489.742 463.406
2079 0 94.1822 14.4613 1362 127.7 489.166 461.935
2080 0 97.1733 14.0676 1367 127.37 489.396 461.508
2081 0 101.19 14.0726 1424 126.676 489.066 457.999
2082 0 105.286 13.9715 1471 125.718 488.71 455.705
2083 0 109.177 13.8491 1512 124.415 487.853 455.996
2084 0 111.242 13.3582 1486 124.428 488.164 453.542
2085 1 61.1209 12.6961 776 127.714 488.726 476.124
2086 0 61.0503 12.072 737 129.304 489.19 476.288
2087 0 66.0711 13.652 902 122.983 488.982 475.734
2088 0 68.1737 14.0523 958 121.693 488.673 473.499
2089 0 71.2136 14.2389 1014 119.918 488.544 473.736
2090 0 73.1338 14.5487 1064 119.463 488.404 471.961
2091 0 77.1434 14.4666 1116 118.023 488.112 471.7
2092 0 77.1685 13.0494 1007 123.26 488.594 469.33
2093 0 82.3612 14.3393 1181 117.78 488.668 465.42
2094 0 83.1926 13.8834 1155 118.777 488.289 464.844
2095 0 87.1842 13.4084 1169 119.378 488.53 464.234
2096 0 89.3269 12.9972 1161 120.888 488.646 461.719
2097 0 94.2823 13.5232 1275 117.628 488.845 462.124
2098 0 96.2693 14.5218 1398 115.616 488.867 457.775
2099 0 100.174 13.5663 1359 117.601 488.745 458.294
2100 0 103.108 13.384 1380 117.313 488.425 457.336
2101 1 53.045 11.4243 606 121.748 488.655 481.125
2102 0 55.0349 10.7023 589 121.671 488.501 481.732
2103 0 57.0525 11.8838 678 109.494 489.19 482.376
2104 0 60.1608 13.0982 788 110.548 488.815 484.972
2105 0 63.0647 13.3196 840 109.608 487.7 483.314
2106 0 65.0375 14.6377 952 109.672 487.202 484.806
2107 0 66.073 12.8494 849 112.061 487.547 480.702
2108 0 69.1047 12.8067 885 111.243 487.948 479.391
2109 0 72.0713 12.8345 925 110.859 488.053 480.177
2110 0 73.0807 12.0825 883 114.989 488.113 477.225
2111 0 76.0648 13.4753 1025 112.11 488.265 476.947
2112 0 78.0768 12.8079 1000 113.719 488.368 476.85
2113 0 80.0778 12.2256 979 116.269 488.052 475.559
2114 0 83.0638 12.5927 1046 115.579 487.918 471.089
2115 0 86.1279 11.7732 1014 118.338 488.785 470.003
2116 0 89.23 12.1484 1084 116.471 488.872 468.086
2117 0 91.1227 11.9838 1092 118.636 488.55 464.235
2118 0 94.072 12.5223 1178 117.276 488.722 466.665
2119 0 97.0842 12.0102 1166 119.789 488.321 463.953
2120 0 99.1483 11.8812 1178 121.392 488.581 461.255
2121 1 53.1686 10.0999 537 116.266 489.345 488.635
2122 0 55.048 12.262 675 115.006 489.681 485.207
2123 0 57.2092 12.9175 739 114.727 488.279 480.644
2124 0 59.1379 12.2933 727 115.609 487.543 483.417
2125 0 61.0929 11.7362 717 116.77 488.554 485.731
2126 0 63.1396 13.0188 822 117.369 487.987 483.922
2127 0 66.1777 13.7811 912 126.157 487.304 482.598
2128 0 69.3727 12.2527 850 129.764 487.733 481.744
2129 0 71.1701 13.6012 968 126.012 487.796 478.963
2130 0 72.2196 12.8774 930 127.094 487.854 479.152
2131 0 75.1647 12.7986 962 125.967 487.587 476.998
2132 0 76.1034 12.2991 936 127.685 487.323 476.371
2133 0 80.1539 13.1372 1053 123.356 487.136 474.551
2134 0 83.2484 12.9252 1076 114.293 487.414 471.474
2135 0 86.2605 12.8796 1111 113.247 487.286 474.141
2136 0 89.1533 13.0674 1165 112.929 487.385 472.855
2137 0 90.2139 13.0024 1173 114.387 488.066 470.069
2138 0 94.2304 13.4564 1268 113.73 487.885 468.657
2139 0 96.1233 12.6816 1219 115.421 487.667 468.287
2140 0 99.115 12.2282 1212 116.205 488.107 466.735
2141 0 102.338 12.6053 1290 116.625 487.889 461.338
2142 1 52.1399 11.0664 577 119.841 487.39 487.246
2143 0 56.2072 12.3828 696 119.665 487.553 484.73
2144 0 56.3181 13.0509 735 120.848 487.346 484.356
2145 0 59.1724 12.81 758 121.479 486.384 483.64
2146 0 63.1785 14.0713 889 116.13 486.369 483.384
2147 0 62.2777 13.6164 848 118.341 486.738 483.005
2148 0 64.2984 13.2196 850 119.091 487.104 480.088
2149 0 65.1074 13.5008 879 118.75 486.469 479.893
2150 0 68.2915 13.4863 921 117.444 486.749 477.365
2151 0 73.3188 13.6663 1002 115.58 486.471 477.503
2152 0 75.2191 13.1881 992 116.74 486.767 476.237
2153 0 78.2286 14.1253 1105 114.348 486.715 473.581
2154 0 80.2272 11.966 960 118.629 486.822 474.401
2155 0 84.511 13.0989 1107 116.747 486.973 470.229
2156 0 89.2654 13.4879 1204 115.45 486.904 469.407
2157 0 92.2182 14.0536 1296 114.759 487.171 466.362
2158 0 94.1483 13.2769 1250 117.142 487.225 465.94
2159 1 47.2201 12.6641 598 117.201 487.095 489.099
2160 0 46.1937 11.6466 538 122.522 487.353 486.338
2161 0 49.1991 12.9067 635 117.386 487.523 487.109
2162 0 49.0501 12.6809 622 119.797 487.486 485.315
2163 0 55.1141 12.7191 701 117.014 486.235 485.792
2164 0 56.137 13.6096 764 115.552 486.806 483.428
2165 0 58.196 13.4717 784 115.651 486.48 483.379
2166 0 60.1783 14.374 865 114.257 486.334 481.467
2167 0 61.2801 13.887 851 115.831 486.281 481.606
2168 0 65.1375 13.5406 882 115.893 486.2 481.001
2169 0 67.1729 14.0235 942 115.775 486.592 479.511
2170 0 69.1285 13.8582 958 117.072 486.256 478.371
2171 0 73.193 13.5942 995 117.376 486.571 477.856
2172 0 76.1473 14.275 1087 115.69 486.707 476.984
2173 0 77.1361 15.3884 1187 115.408 486.615 475.392
2174 0 79.2317 14.5396 1152 118.103 486.507 474.832
2175 0 83.0744 14.469 1202 118.219 486.31 473.816
2176 0 86.124 15.2106 1310 117.102 486.215 471.477
2177 0 87.2043 13.8067 1204 122.826 486.662 469.561
2178 0 90.1301 15.167 1367 119.714 486.192 468.339
2179 0 94.2046 16.0608 1513 117.287 486.58 467.03
2180 0 97.1554 14.8834 1446 120.76 487.183 465.969
2181 0 100.136 14.3306 1435 120.705 487.232 464.289
2182 0 102.114 13.9061 1420 120.149 486.539 463.899
2183 0 105.154 14.0936 1482 117.779 487.127 461.041
2184 1 56.1381 12.7364 715 124.513 486.799 485.183
2185 0 58.1618 13.2045 768 124.292 486.568 482.979
2186 0 61.1962 12.9256 791 125.077 486.509 482.545
2187 0 62.1435 14.1447 879 121.283 486.954 482.247
2188 0 67.1388 14.7754 992 119.018 486.492 480.764
2189 0 67.1262 13.6906 919 123.941 486.762 477.9
2190 0 70.1124 14.163 993 122.783 486.622 477.981
2191 0 73.2489 14.1982 1040 122.865 486.683 475.637
2192 0 72.2087 13.1702 951 127.353 486.473 475.783
2193 0 76.1932 13.5314 1031 126.442 486.574 473.314
2194 0 79.1831 14.0181 1110 125.341 486.495 470.718
2195 0 83.1259 13.9788 1162 123.02 486.61 472.506
2196 0 84.6207 13.5546 1147 125.954 487.093 469.297
2197 0 88.1538 14.7696 1302 121.037 486.944 468.392
2198 0 90.1865 14.1485 1276 123.292 486.473 465.071
2199 0 90.2529 13.8389 1249 124.502 486.709 461.138
2200 1 46.1519 8.23368 380 113.85 487.258 484.353
2201 0 49.1618 8.97037 441 111.429 486.68 482.544
2202 0 49.2271 9.93356 489 108.327 487.272 483.041
2203 0 53.0448 10.0293 532 112.382 486.481 485.889
2204 0 51.0262 7.95669 406 113.933 489.515 488.65
2205 1 110.27 13.2674 1463 125.107 488.26 455.932
2206 0 114.288 13.116 1499 125.463 488.4 454.504
2207 0 115.094 13.4673 1550 126.217 488.397 450.568
2208 0 121.216 12.9273 1567 126.454 488.294 449.969
2209 0 128.146 14.1713 1816 122.577 488.103 447.014
2210 0 131.229 13.2211 1735 125.766 487.952 444.456
2211 0 135.16 14.4717 1956 123.109 488.111 442.535
2212 0 139.199 13.5634 1888 126.185 488.38 440.188
2213 0 145.172 13.8043 2004 125.576 488.103 435.702
2214 0 147.285 13.484 1986 126.136 488.178 435.708
2215 0 154.376 13.506 2085 126.067 487.752 433.328
2216 1 77.1252 9.62072 742 108.43 488.311 476.756
2217 0 81.2167 9.22224 749 110.494 488.413 472.109
2218 0 84.1385 10.043 845 108.515 488.486 474.121
2219 0 86.1331 9.93811 856 109.534 488.259 471.721
2220 0 89.2001 8.26232 737 113.229 488.374 468.499
2221 0 92.2458 10.2335 944 109.079 488.591 469.206
2222 0 94.2052 7.94011 748 113.568 488.134 469.68
2223 1 52.1377 10.5106 548 107.142 488.998 486.839
2224 0 52.1983 9.34896 488 110.904 489.025 485.221
2225 0 53.0614 10.3653 550 112.607 489.135 485.533
2226 0 56.0837 12.4457 698 106.404 489.132 486.348
2227 0 58.0703 11.951 694 108.751 489.039 484.28
2228 0 58.0547 10.0595 584 113.729 488.349 483.515
2229 0 62.0881 12.144 754 107.351 488.905 481.447
2230 0 64.1314 8.87241 569 108.236 487.78 483.167
2231 0 64.0885 10.7039 686 105.657 487.65 481.876
2232 0 65.241 10.1163 660 107.306 487.848 481.245
2233 0 65.075 9.40453 612 108.975 487.969 481.863
2234 0 67.0235 8.95208 600 110.127 487.915 481.247
2235 0 73.1038 10.6014 775 106.69 488.035 477.516
2236 0 72.0287 8.8437 637 110.816 487.961 478.768
2237 0 78.1499 9.66092 755 108.605 487.742 476.572
2238 0 76.126 8.88002 676 111.041 487.287 475.438
2239 0 80.1778 9.37916 752 110.281 486.864 474.888
2240 0 84.141 8.77099 738 110.275 486.68 475.142
2241 0 85.1616 9.9458 847 108.95 487.326 472.634
2242 0 88.1788 10.1271 893 108.226 487.012 470.092
2243 0 89.2009 8.64341 771 111.783 487 470.827
2244 0 94.1015 8.72462 821 111.061 487.502 469.317
2245 0 99.1098 10.897 1080 106.774 487.549 466.256
2246 1 53.0934 9.79406 520 105.315 487.235 488.269
2247 0 56.0357 11.4034 639 105.721 487.391 486.491
2248 0 58.1135 11.8733 690 104.432 490.375 479.261
2249 0 58.0728 10.814 628 106.561 488.779 483.919
2250 0 62.104 10.9977 683 106.04 488.963 482.449
2251 0 60.0979 10.017 602 109.661 488.749 481.053
2252 0 65.0446 12.2839 799 103.997 488.892 480.65
2253 0 68.1338 11.2573 767 106.156 488.462 479.542
2254 0 68.0276 10.9073 742 107.519 488.559 478.883
2255 0 71.0862 10.9023 775 108.183 487.916 474.419
2256 0 73.0642 9.45744 691 112.133 488.373 477.402
2257 0 74.1377 10.1838 755 111.572 487.852 476.26
2258 0 77.0771 9.88621 762 113.138 487.72 473.265
2259 0 81.2352 11.3621 923 109.935 489.677 473.935
2260 0 83.1026 11.6964 972 110.095 489.529 473.496
2261 1 43.0791 8.70491 375 113.547 489.725 495.267
2262 0 46.066 10.7889 497 110.533 489.491 494.163
2263 0 46.1308 9.19126 424 117.271 489.693 494.439
2264 0 48.1312 11.1778 538 115.171 485.511 495.165
2265 0 51.0246 10.9947 561 115.684 484.695 495.226
2266 0 51.0284 11.2878 576 116.033 484.969 496.774
2267 0 54.0663 11.0975 600 116.79 484.372 497.2
2268 0 55.03 11.8844 654 115.742 484.122 499.203
2269 0 56.0435 12.2227 685 115.904 483.807 498.234
2270 0 58.0716 11.5203 669 117.72 483.16 498.191
2271 0 60.0986 11.1816 672 119.244 483.315 496.893
2272 0 62.032 11.4135 708 118.331 483.096 497.305
2273 0 65.1019 12.5956 820 115.037 483.641 496.795
2274 0 66.1167 12.5233 828 117.229 483.649 494.627
2275 0 65.1047 11.4431 745 122.137 482.889 491.581
2276 0 69.1262 12.3687 855 118.582 482.425 492.604
2277 0 72.1053 13.1336 947 115.993 482.552 492.131
2278 0 72.0296 12.953 933 118.026 482.169 488.249
2279 0 76.0501 12.6364 961 117.896 481.303 489.158
2280 0 77.0967 11.8034 910 123.299 481.865 486.079
2281 0 83.1982 13.2695 1104 116.969 482.032 486.206
2282 1 42.0444 10.7981 454 118.498 481.436 504.916
2283 0 45.0145 10.8187 487 117.439 480.598 503.057
2284 0 43.0256 9.78488 421 115.995 481.181 502.356
2285 0 45.0253 10.594 477 108.449 481.298 497.889
2286 0 44.1114 11.3803 502 100.938 482.952 496.361
2287 0 45.1079 8.97846 405 105.951 482.911 497.064
2288 0 48.1746 11.0847 534 100.678 482.556 498.174
2289 0 48.1366 10.0132 482 104.222 481.691 497.415
2290 0 49.1512 9.80647 482 102.776 481.915 500.568
2291 0 51.1599 10.1642 520 102.75 482.488 499.548
2292 0 52.1257 10.8392 565 101.752 482.035 499.041
2293 0 54.1476 9.17862 497 104.113 481.453 498.936
2294 0 55.1284 9.68648 534 105.822 482.408 501.29
2295 0 57.0215 11.4343 652 110.775 482.738 502.801
2296 0 58.0631 11.7458 682 111.097 483.944 501.906
2297 0 62.0725 11.0516 686 110.867 483.586 501.742
2298 0 64.0656 11.2073 718 108.007 483.645 501.855
2299 0 67.13 11.4405 768 108.314 483.099 497.603
2300 0 68.11 11.7163 798 108.323 483.041 497.113
2301 0 71.1302 11.0783 788 109.74 483.138 494.508
2302 0 73.1258 12.9776 949 106.533 482.718 493.322
2303 0 75.1725 12.0789 908 108.85 482.562 493.014
2304 0 75.1595 10.9767 825 112.072 482.378 491.628
2305 0 79.0952 11.7833 932 110.366 482.546 491.564
2306 0 84.1837 12.734 1072 108.652 482.369 488.745
2307 0 84.1536 11.7523 989 112.42 482.193 487.34
2308 0 87.1454 11.6931 1019 113.651 482.196 485.989
2309 1 41.0221 11.5304 473 117.135 482.347 506.11
2310 0 44.1001 12.0861 533 113.415 482.561 505.195
2311 0 45.0822 12.6657 571 110.711 482.646 506.165
2312 0 46.0826 12.738 587 111.567 482.266 505.101
2313 0 46.0546 12.1378 559 114.798 482.612 503.268
2314 0 49.078 12.6941 623 112.14 483.005 503.079
2315 0 52.0727 12.8858 671 111.341 482.645 501.845
2316 0 51.1312 13.084 669 112.179 482.496 502.248
2317 0 54.0356 12.8249 693 112.289 482.631 499.368
2318 0 54.0968 12.6995 687 112.87 482.689 500.67
2319 0 58.0923 13.1687 765 110.352 482.797 499.122
2320 0 57.0449 13.0424 744 113.266 482.957 498.056
2321 0 58.1044 12.2194 710 115.679 483.058 497.463
2322 0 60.0362 12.8756 773 113.768 483.581 493.762
2323 0 62.0216 13.2373 821 112.423 483.429 494.378
2324 0 65.0264 13.7483 894 110.012 484.463 495.648
2325 0 66.0505 13.1566 869 112.192 483.994 493.147
2326 0 70.0675 14.6573 1027 107.256 483.73 491.392
2327 0 70.0816 12.7994 897 112.973 483.808 491.89
2328 0 74.0958 13.4151 994 111.243 483.567 488.956
2329 0 76.0866 12.9852 988 112.143 483.426 487.618
2330 0 78.1017 13.6361 1065 110.349 483.276 488.581
2331 0 82.0465 13.4192 1101 110.559 483.324 484.152
2332 0 85.0689 13.5772 1155 109.507 483.697 484.607
2333 0 87.0984 13.6857 1192 109.079 483.206 482.315
2334 0 91.125 13.893 1266 108.78 483.328 481.051
2335 0 94.2332 13.9866 1318 108.476 482.861 476.656
2336 1 51.1116 11.1521 570 117.47 482.998 497.726
2337 0 54.1318 11.9892 649 114.308 483.924 497.515
2338 0 55.0623 12.2044 672 114.089 483.549 497.567
2339 0 56.1244 13.1494 738 103.86 483.621 494.673
2340 0 58.0904 13.1003 761 105.306 483.678 492.752
2341 0 60.1115 12.8761 774 106.942 483.913 492.394
2342 0 62.0806 13.0959 813 106.277 484.062 490.793
2343 0 63.13 13.3059 840 107.264 483.788 489.21
2344 0 67.1657 14.1888 953 104.631 484.078 487.113
2345 0 67.163 12.9089 867 110.103 484.16 486.303
2346 0 70.1642 14.2665 1001 107.631 484.384 482.967
2347 0 71.1007 11.9408 849 115.068 484.316 483.656
2348 0 75.1363 13.1228 986 111.224 484.302 481.379
2349 0 77.1856 13.2149 1020 111.973 484.581 479.707
2350 0 80.3482 13.8896 1116 110.592 484.145 477.521
2351 0 83.2152 14.1801 1180 109.424 485.096 477.571
2352 0 85.3328 13.6759 1167 112.75 484.776 474.838
2353 0 86.3623 12.1349 1048 117.534 484.632 474.862
2354 0 91.1383 13.6825 1247 111.342 485.046 474.164
2355 0 93.217 13.431 1252 109.843 483.915 465.215
2356 0 95.1805 13.2275 1259 124.804 483.845 470.558
2357 0 99.1915 13.1463 1304 124.062 484.265 468.134
2358 0 101.176 12.7204 1287 125.002 483.773 464.913
2359 0 105.198 13.8786 1460 121.568 484.855 463.468
2360 0 109.343 14.2854 1562 121.146 485.415 462.311
2361 0 111.14 13.0826 1454 122.754 484.413 460.649
2362 0 115.051 12.3511 1421 123.315 485.052 460.346
2363 0 118.244 12.9732 1534 119.14 484.553 452.576
2364 0 122.38 12.6246 1545 118.915 484.761 452.885
2365 0 126.28 13.2405 1672 118.612 484.921 447.215
2366 0 130.369 12.9785 1692 118.9 484.803 448.854
2367 0 133.258 13.275 1769 119.739 484.989 445.151
2368 0 139.292 12.2907 1712 121.717 485.218 444.123
2369 0 144.297 12.9802 1873 120.86 485.343 442.06
2370 1 79.2007 10.606 840 112.281 485.03 476.952
2371 0 81.3252 10.2551 834 112.199 485.17 475.691
2372 0 84.2316 11.9077 1003 108.692 485.182 472.658
2373 0 87.145 11.2341 979 110.054 485.146 470
2374 0 92.2239 12.9034 1190 105.695 484.518 469.816
2375 0 93.2778 12.1251 1131 108.38 484.661 465.84
2376 0 97.1436 12.1161 1177 108.854 485.084 464.84
2377 0 98.217 12.0753 1186 108.845 484.12 466.232
2378 0 101.137 11.8651 1200 109.457 484.994 462.559
2379 0 105.055 10.7848 1133 113.246 485.099 461.437
2380 0 110.339 11.7185 1293 110.783 485.193 458.715
2381 0 113.202 10.892 1233 112.186 485.05 460.836
2382 0 117.284 12.3972 1454 109.217 485.005 457.981
2383 0 121.396 11.6314 1412 112.246 484.968 452.553
2384 1 66.1031 11.83 782 105.462 484.194 482.183
2385 0 67.1731 11.2843 758 104.876 487.544 483.358
2386 0 69.1254 11.7902 815 103.687 487.083 479.552
2387 0 73.1044 11.7503 859 103.545 487.963 480.844
2388 0 75.2289 11.8438 891 103.431 487.312 479.036
2389 0 75.2882 11.6884 880 105.114 486.953 476.527
2390 0 78.1421 11.0312 862 106.85 487.327 475.239
2391 0 79.1455 12.1169 959 105.643 487.249 475.045
2392 0 85.2117 12.3575 1053 104.589 486.322 473.125
2393 0 87.2215 11.5453 1007 106.468 486.837 473.101
2394 0 90.2782 11.7526 1061 106.54 486.626 471.874
2395 0 91.203 10.6904 975 110.148 486.778 471.098
2396 0 95.2249 13.0953 1247 105.25 486.759 470.046
2397 0 99.2521 12.9065 1281 105.957 486.609 465.611
2398 0 103.154 12.5249 1292 106.141 486.858 461.607
2399 0 105.216 13.1444 1383 105.502 487.183 459.782
2400 0 108.181 11.2404 1216 110.116 486.683 460.641
2401 0 111.129 12.2291 1359 107.115 486.662 458.862
2402 1 58.0654 11.4009 662 106.467 486.817 487.68
2403 0 61.0428 11.4674 700 105.774 484.993 487.711
2404 0 64.0765 11.3926 730 112.273 485.405 487.084
2405 0 67.0882 12.5655 843 110.07 484.159 481.401
2406 0 69.0812 11.9569 826 112.045 483.862 480.54
2407 0 73.1775 12.5995 922 109.421 484.934 479.465
2408 0 71.3257 11.7629 839 113.209 487.013 479.69
2409 0 76.1986 13.6617 1041 107.18 487.688 479.402
2410 0 79.2557 13.324 1056 108.693 488.076 477.257
2411 0 80.2861 12.8789 1034 110.823 488.069 475.957
2412 0 83.2548 12.2395 1019 112.963 487.608 473.63
2413 0 86.2975 13.6041 1174 109.827 487.054 472.435
2414 0 89.3338 13.041 1165 111.047 488.152 470.948
2415 0 91.3453 12.7647 1166 113.103 487.286 467.066
2416 0 93.3165 12.2701 1145 115.539 486.548 467.654
2417 0 98.5399 13.8218 1362 111.432 486.348 464.019
2418 1 52.4224 11.331 594 112.32 486.618 486.763
2419 0 53.4412 11.377 608 112.957 486.516 485.679
2420 0 55.2499 13.1403 726 99.4008 486.087 485.989
2421 0 56.103 11.9245 669 102.999 485.333 487.324
2422 0 58.1541 11.8822 691 102.407 485.562 488.03
2423 0 59.0789 11.8316 699 103.209 485.695 485.711
2424 0 60.2359 11.6376 701 103.696 486.265 484.596
2425 0 63.1779 12.0928 764 102.208 485.897 484.075
2426 0 65.2297 11.7125 764 103.065 485.814 483.936
2427 0 67.2902 11.651 784 102.547 485.811 483.778
2428 0 68.3077 11.58 791 103.496 485.843 480.861
2429 0 71.2202 11.2749 803 103.925 485.95 482.375
2430 0 75.2987 11.8727 894 102.192 485.733 479.054
2431 0 77.2358 11.8598 916 102.358 485.988 476.641
2432 0 79.1948 11.9452 946 102.096 486.181 478.129
2433 0 82.2185 12.3208 1013 102.127 485.734 472.363
2434 0 85.2198 10.7721 918 104.489 485.032 474.793
2435 1 45.0645 10.5626 476 103.032 484.372 494.975
2436 0 45.0379 11.1684 503 103.813 484.708 491.948
2437 0 45.0328 11.3473 511 100.834 488.804 492.043
2438 0 46.0605 10.3777 478 102.983 488.387 491.619
2439 0 50.0746 12.3416 618 97.1537 488.647 490.371
2440 0 52.0545 11.2766 587 99.3305 488.62 489.814
2441 0 53.1653 11.0975 590 100.641 488.983 489.79
2442 0 55.0633 12.0588 664 98.509 488.956 488.669
2443 0 57.075 12.1594 694 98.987 488.895 485.65
2444 0 58.0816 11.8798 690 100.604 489.416 486.446
2445 0 60.0812 12.0171 722 101.931 488.888 485.13
2446 0 59.073 11.1218 657 105.963 489.174 485.038
2447 0 62.104 11.996 745 102.983 488.797 483.544
2448 0 62.0638 12.2455 760 103.262 487.728 483.278
2449 0 64.1959 11.0599 710 105.142 488.249 481.018
2450 0 67.0616 12.317 826 102.736 488.902 481.965
2451 0 70.1164 12.1655 853 102.585 488.966 481.658
2452 0 72.0923 14.093 1016 99.2441 488.608 480.822
2453 0 75.0762 12.6671 951 102.826 488.735 476.62
2454 0 76.1399 12.8054 975 104.052 488.881 477.538
2455 0 78.0722 12.8983 1007 103.782 488.704 476.256
2456 0 80.0836 12.3371 988 105.093 489.302 478.788
2457 0 83.173 12.0712 1004 107.001 488.737 473.812
2458 0 86.1896 12.0432 1038 107.558 488.066 475.204
2459 0 87.1871 11.3893 993 109.049 487.072 471.099
2460 0 91.1527 11.5191 1050 105.382 487.292 468.479
2461 1 47.2001 11.1864 528 103.992 488.233 491.794
2462 0 49.0704 10.597 520 104.752 487.848 489.077
2463 0 50.1099 12.732 638 114.146 485.98 491.368
2464 0 53.1247 13.3271 708 115.458 486.411 490.468
2465 0 55.1862 13.5722 749 116.22 486.162 488.559
2466 0 55.1349 12.9682 715 118.836 485.888 487.571
2467 0 56.1846 12.9751 729 119.787 485.691 487.645
2468 0 58.0772 12.3801 719 122.033 486.085 487.644
2469 0 61.2064 14.4919 887 117.095 485.867 484.565
2470 0 61.2231 12.8383 786 122.69 486.519 486.365
2471 0 64.0857 13.2011 846 122.186 486.309 484.565
2472 0 67.3232 14.111 950 117.592 486.275 482.615
2473 0 67.3456 13.5421 912 120.065 486.923 481.232
2474 0 69.2716 13.9307 965 120.41 486.774 480.481
2475 0 73.5114 14.2835 1050 119.952 486.558 477.516
2476 0 75.3601 14.371 1083 120.345 487.1 476.505
2477 0 79.3393 13.3099 1056 123.081 486.933 478.189
2478 0 80.2725 14.3885 1155 121.058 486.543 477.229
2479 0 81.351 14.2223 1157 123.057 486.537 471.997
2480 0 86.427 15.2846 1321 119.981 486.64 470.393
2481 0 94.4586 14.0697 1329 121.375 486.853 469.733
2482 0 92.3753 14.7658 1364 121.834 486.571 467.238
2483 1 47.4406 12.1204 575 125.901 487.466 490.664
2484 0 50.2873 12.4684 627 124.617 487.073 491.596
2485 0 48.3306 12.249 592 128.182 487.644 489.338
2486 0 51.1927 13.8301 708 120.975 488.377 489.417
2487 0 54.2928 13.7403 746 121.188 487.472 487.857
2488 0 53.0695 14.2455 756 116.765 486.893 490.843
2489 0 54.0837 13.8489 749 119.781 486.68 488.865
2490 0 55.0928 12.8147 706 122.309 486.013 488.814
2491 0 58.0859 13.394 778 119.76 486.234 486.08
2492 0 61.0944 13.3728 817 119.747 486.862 485.164
2493 0 62.0392 12.8951 800 120.942 486.798 485.496
2494 0 66.1193 13.2639 877 120.075 486.73 482.512
2495 0 68.1065 15.5345 1058 113.599 486.851 481.64
2496 0 70.1308 14.0737 987 116.355 486.74 480.489
2497 0 74.243 13.9407 1035 116.392 487.056 478.362
2498 0 73.2128 13.0305 954 122.957 486.89 475.705
2499 0 80.1159 14.3417 1149 117.765 487.703 474.447
2500 0 82.0988 13.7274 1127 118.544 487.602 475.969
2501 0 84.2002 14.2636 1201 117.977 487.274 473.186
2502 0 86.12 12.9006 1111 122.06 487.298 471.123
2503 1 45.0378 12.2786 553 117.855 485.892 491.251
2504 0 47.0447 12.605 593 116.444 486.029 489.621
2505 0 49.2801 14.3668 708 110.91 488.035 485.987
2506 0 49.3313 11.9802 591 118.438 488.14 488.535
2507 0 52.4917 13.2592 696 113.371 487.976 488.642
2508 0 53.3298 12.8446 685 115.682 487.733 486.715
2509 0 55.2715 13.6779 756 113 488.067 486.503
2510 0 55.2831 11.6491 644 119.026 488.12 485.773
2511 0 58.2495 12.7211 741 114.356 488.362 485.061
2512 0 60.2542 12.6464 762 114.686 488.067 484.529
2513 0 64.2645 13.0399 838 112.494 488.171 483.152
2514 0 64.3604 13.2224 851 113.173 488.592 480.376
2515 0 66.1716 12.9814 859 112.709 488.596 481.813
2516 0 68.1305 13.0485 889 113.911 488.345 478.605
2517 0 71.2727 13.7921 983 111.774 488.32 477.071
2518 0 74.1264 13.2746 984 113.46 489.314 477.559
2519 0 75.0553 12.6973 953 115.57 489.382 476.239
2520 0 77.2002 12.7202 982 115.682 488.887 475.758
2521 0 82.1485 12.5504 1031 115.656 488.78 473.036
2522 0 84.0584 13.3241 1120 114.344 489.512 472.69
2523 0 88.1449 13.5686 1196 113.665 489.25 469.486
2524 0 92.1394 12.8826 1187 115.545 489.256 468.491
2525 1 48.0388 11.5324 554 113.655 489.321 489.014
2526 0 49.1604 12.7745 628 111.874 489.172 489.419
2527 0 50.2733 12.1138 609 113.998 489.591 487.271
2528 0 52.2856 12.0683 631 115.395 488.873 486.526
2529 0 55.2713 12.2668 678 115.531 488.951 485.535
2530 0 55.2603 12.5225 692 116.1 489.34 483.101
2531 0 57.2357 13.8375 792 114.109 489.405 482.1
2532 0 59.2336 12.8137 759 116.2 489.68 482.373
2533 0 60.359 11.6304 702 120.883 489.605 479.687
2534 0 64.179 13.2598 851 114.843 489.302 481.727
2535 0 66.2271 13.5141 895 115.83 490.181 479.79
2536 0 67.2114 14.2833 960 114.882 489.902 478.472
2537 0 69.2326 13.7507 952 116.674 489.963 478.168
2538 0 70.2135 13.6156 956 118.531 489.913 475.436
2539 0 72.3197 13.0532 944 120.128 489.689 476.578
2540 0 76.3177 14.23 1086 116.248 489.215 476.595
2541 0 76.2983 13.0933 999 122.387 489.351 473.85
2542 0 82.183 13.835 1137 119.018 489.193 472.592
2543 0 82.3554 13.296 1095 121.401 488.816 470.145
2544 0 88.4088 13.9918 1237 119.28 488.541 468.563
2545 0 89.3806 12.374 1106 121.389 488.618 466.008
2546 1 46.0529 12.2902 566 114.836 489.965 487.82
2547 0 49.0293 10.973 538 115.286 490.619 487.474
2548 0 50.1711 12.7364 639 111.889 490.54 483.889
2549 0 52.1906 12.8759 672 111.374 490.083 484.058
2550 0 52.07 12.1375 632 113.835 490.013 484.747
2551 0 55.0614 13.8754 764 110.919 488.251 485.215
2552 0 57.037 12.8162 731 114.663 487.773 484.22
2553 0 57.056 12.8821 735 115.907 487.986 483.339
2554 0 60.0734 12.8842 774 114.472 488.453 483.397
2555 0 63.1021 13.1533 830 113.79 488.271 481.233
2556 0 63.0346 13.1832 831 114.881 488.711 479.517
2557 0 67.0739 15.0282 1008 109.418 488.098 479.736
2558 0 68.1731 13.3777 912 114.034 488.505 478.575
2559 0 71.1351 13.383 952 114.648 488.428 478.114
2560 0 73.133 13.1131 959 116.188 487.831 475.495
2561 0 75.1551 13.7981 1037 114.87 488.379 475.891
2562 0 79.1991 13.9143 1102 113.709 488.711 474.64
2563 0 80.1103 13.5813 1088 115.481 488.065 473.678
2564 0 83.2027 13.9298 1159 114.713 488.305 471.331
2565 0 87.1824 14.0166 1222 114.209 488.335 469.198
2566 0 89.161 13.2233 1179 117.368 488.341 466.806
2567 0 91.2386 12.1111 1105 121.082 487.664 466.876
2568 0 95.1723 13.8065 1314 116.477 488.037 465.931
2569 1 49.0953 12.6692 622 121.378 487.32 486.883
2570 0 49.1227 12.0515 592 124.154 488.032 485.061
2571 0 53.2527 12.882 686 124.472 488.733 483.615
2572 0 55.2877 13.8005 763 121.541 489.041 483.185
2573 0 58.4318 13.9479 815 120.566 488.926 480.101
2574 0 58.4117 13.4391 785 123.196 489.373 482.397
2575 0 61.2941 13.8839 851 121.887 488.722 481.382
2576 0 62.2285 13.1612 819 122.031 489.138 480.525
2577 0 65.2398 12.8909 841 121.503 489.226 478.754
2578 0 67.2469 14.0378 944 118.237 488.817 478.98
2579 0 69.3294 13.0969 908 120.171 488.702 478.254
2580 0 70.2107 13.6019 955 119.637 488.855 474.76
2581 0 73.347 12.3113 903 121.95 488.74 475.889
2582 0 78.1637 13.0111 1017 119.265 488.75 474.137
2583 0 79.3456 13.6996 1087 117.028 489.162 473.534
2584 0 83.3385 14.0151 1168 116.295 489.327 468.553
2585 0 85.326 13.6535 1165 117.352 488.652 468.173
2586 0 88.6467 14.6988 1303 114.949 488.64 464.804
2587 0 91.7435 13.6358 1251 116.989 488.497 464.779
2588 0 96.1504 12.5221 1204 109.896 488.927 467.088
2589 0 99.1184 13.1661 1305 111.425 488.527 463.434
2590 1 51.1644 10.8474 555 113.449 489.063 485.798
2591 0 53.1962 12.2565 652 112.046 488.529 483.83
2592 0 54.2809 13.1906 716 109.609 488.208 483.677
2593 0 57.1377 13.1962 754 106.688 490.127 484.866
2594 0 60.1032 13.6598 821 105.546 489.945 482.499
2595 0 60.0386 12.7252 764 109.914 490.26 481.331
2596 0 60.0757 12.7173 764 110.495 490.363 481.904
2597 0 64.1158 13.382 858 107.51 490.288 479.755
2598 0 66.0836 12.5296 828 109.652 490.028 479.699
2599 0 67.1489 12.0181 807 110.647 489.559 477.014
2600 0 69.1907 12.9208 894 108.638 489.451 478.383
2601 0 72.1845 13.4378 970 107.187 489.409 475.613
2602 0 73.1452 12.8101 937 109.232 489.367 475.557
2603 0 76.0714 12.1991 928 110.647 489.371 475.224
2604 0 80.1915 12.9066 1035 108.71 489.169 473.118
2605 0 82.1926 12.86 1057 109.32 489.308 471.597
2606 0 85.1017 13.0432 1110 108.782 489.505 470.832
2607 1 45.1295 11.6997 528 110.697 489.934 490.581
2608 0 47.018 12.9312 608 109.058 489.727 488.033
2609 0 48.0764 12.5841 605 110.098 490.43 487.397
2610 0 50.071 12.9017 646 109.605 487.698 484.519
2611 0 52.0891 13.8801 723 106.698 487.968 482.784
2612 0 53.1137 12.7839 679 109.121 488.359 483.551
2613 0 54.0776 12.63 683 109.666 488.171 482.814
2614 0 56.0532 14.183 795 106.039 488.029 482.449
2615 0 59.1846 14.0239 830 106.06 488.552 480.995
2616 0 59.1271 14.1052 834 106.591 489.888 484.043
2617 0 59.162 14.773 874 107.781 489.722 481.104
2618 0 63.179 14.2927 903 105.893 490.317 481.097
2619 0 64.4227 13.2717 855 108.153 489.937 480.903
2620 0 67.1201 13.2598 890 107.552 489.51 480.891
2621 0 68.1638 14.6852 1001 105.725 488.54 477.806
2622 0 71.3368 13.99 998 107.178 488.945 477.001
2623 0 72.2497 12.4706 901 110.663 488.745 477.493
2624 0 75.4281 13.894 1048 107.881 488.455 475.801
2625 0 79.2172 14.1762 1123 104.967 487.886 475.406
2626 0 82.1671 13.7525 1130 103.709 487.347 471.943
2627 0 85.2793 13.919 1187 103.842 486.555 470.225
2628 0 88.4763 14.4785 1281 102.065 487.031 469.46
2629 0 90.4182 12.5528 1135 107.549 487.018 467.556
2630 0 92.3582 12.733 1176 107.422 486.903 467.386
2631 1 46.2404 11.3537 525 108.912 486.867 490.531
2632 0 49.3133 12.6132 622 106.309 486.762 489.013
2633 0 50.2249 14.0369 705 104.865 487.601 488.677
2634 0 49.1384 12.0883 594 111.451 487.455 488.357
2635 0 51.2412 12.9974 666 108.524 487.47 490.096
2636 0 53.2623 12.8046 682 109.129 487.374 487.799
2637 0 57.1439 13.6147 778 105.754 487.623 487.272
2638 0 58.2876 13.3476 778 106.612 487.506 485.567
2639 0 61.2223 13.6552 836 104.661 487.22 486.333
2640 0 63.1345 13.099 827 106.542 486.739 484.018
2641 0 64.1591 13.4042 860 106.326 487.002 483.676
2642 0 67.287 14.728 991 102.544 486.261 480.83
2643 0 70.2223 14.9952 1053 101.505 486.46 480.656
2644 0 71.1621 13.1109 933 106.367 486.554 479.874
2645 0 74.2724 14.4603 1074 103.529 486.436 477.858
2646 0 76.1436 12.0562 918 104.172 486.512 480.914
2647 0 78.2517 12.4981 978 100.923 485.755 476.612
2648 0 82.2629 11.755 967 102.128 486.374 472.862
2649 0 84.232 13.8308 1165 101.411 485.762 475.31
2650 0 87.2055 13.4166 1170 112.546 486.038 472.668
2651 0 92.2189 14.9535 1379 108.45 485.842 469.361
2652 0 93.1396 12.6799 1181 114.186 485.484 470.554
2653 0 97.4468 13.7511 1340 111.287 486.623 467.183
2654 0 99.3278 12.4738 1239 109.136 486.254 466.974
2655 1 52.3785 11.8942 623 108.064 486.584 488.286
2656 0 54.301 11.3442 616 109.201 486.685 487.654
2657 0 57.1161 12.7985 731 105.101 485.68 487.301
2658 0 58.2187 12.5389 730 106.16 487.04 485.259
2659 0 59.2424 12.0522 714 107.244 486.87 483.891
2660 0 63.2599 12.3933 784 104.837 487.241 483.787
2661 0 64.225 11.2106 720 107.293 486.914 482.66
2662 0 68.2281 11.6814 797 103.279 486.547 484.501
2663 0 71.2363 13.1113 934 101.449 486.682 481.586
2664 0 73.1897 12.1329 888 104.072 486.778 480.024
2665 0 72.227 10.6193 767 108.15 486.443 479.374
2666 0 78.2085 13.4001 1048 101.975 486.178 477.954
2667 0 79.304 12.3449 979 104.442 486.397 475.917
2668 0 81.1611 12.3581 1003 101.308 486.885 475.406
2669 0 81.1611 12.4074 1007 135.726 485.896 475.45
2670 0 86.2525 11.5591 997 102.531 486.991 475.194
2671 0 87.1064 11.5835 1009 104.837 487.157 471.038
2672 0 93.1935 12.2326 1140 103.657 486.899 468.904
2673 0 97.0732 12.6502 1228 103.685 486.391 467.406
2674 1 49.0997 9.79639 481 105.432 487.913 491.189
2675 0 52.0736 10.6388 554 103.31 487.588 491.227
2676 0 53.0479 11.5367 612 101.358 487.608 489.364
2677 0 55.1808 12.0694 666 98.7192 485.29 489.913
2678 0 58.1383 10.6642 620 101.947 484.91 487.777
2679 0 59.1469 12.7986 757 97.4254 485.65 488.366
2680 0 60.1488 12.6686 762 98.4738 485.13 488.518
2681 0 63.2501 13.0593 826 97.3777 485.488 486.393
2682 0 64.2528 12.1396 780 99.6064 485.722 485.926
2683 0 67.2003 11.5476 776 101.586 485.589 483.195
2684 0 70.1094 12.994 911 97.652 485.348 481.654
2685 0 70.201 12.1508 853 100.77 485.347 480.787
2686 0 73.2469 13.434 984 98.5356 485.28 478.401
2687 0 76.2163 12.7138 969 100.011 484.891 477.067
2688 0 78.1164 12.5454 980 100.943 485.171 475.768
2689 0 80.1659 13.3473 1070 100.556 485.091 471.192
2690 0 84.1774 13.4359 1131 100.599 484.991 471.517
2691 0 86.3046 13.6262 1176 101.354 485.732 471.572
2692 0 89.2548 13.5007 1205 103.578 486.105 469.044
2693 0 92.3032 12.2639 1132 104.701 487.256 473.989
2694 0 95.1492 13.1268 1249 104.926 486.678 470.038
2695 0 99.0995 13.6429 1352 104.032 486.746 467.165
2696 1 52.0967 11.7666 613 106.401 487.788 491.085
2697 0 53.0709 12.4739 662 107.731 487.748 488.941
2698 0 55.2758 11.524 637 106.556 486.827 484.314
2699 0 56.0924 12.3903 695 102.639 487.489 487.801
2700 0 55.1267 10.0133 552 107.428 485.976 487.469
2701 0 58.1499 11.264 655 105.992 486.337 486.429
2702 0 60.0646 11.3378 681 106.698 486.833 485.369
2703 0 62.0457 11.2659 699 106.366 486.728 486.094
2704 0 65.0625 11.2046 729 107.107 486.39 484.244
2705 0 67.0819 11.6127 779 106.125 486.03 486.065
2706 0 67.0801 10.5098 705 109.65 485.956 481.017
2707 0 72.0712 11.4609 826 106.579 485.751 481.159
2708 0 74.0775 10.597 785 109.266 485.215 480.614
2709 0 76.0477 10.6118 807 109.326 486.063 479.549
2710 0 79.051 10.917 863 109.52 485.538 474.769
2711 0 79.2004 9.74742 772 111.541 485.734 473.746
2712 0 83.1584 12.0132 999 107.303 485.574 472.977
2713 0 87.1805 10.7937 941 110.292 486.006 470.638
2714 0 90.3017 11.4394 1033 110.076 486.194 467.158
2715 0 92.1751 11.5432 1064 109.708 486.003 469.276
2716 0 93.1969 9.58186 893 114.859 485.744 464.703
2717 0 101.143 11.3503 1148 110.97 486.026 462.937
2718 1 52.1517 11.4282 596 108.446 485.302 485.257
2719 0 56.337 12.372 697 106.207 486.135 482.987
2720 0 55.2193 11.1917 618 109.589 487.824 487.261
2721 0 59.0962 12.4035 733 105.352 487.292 486.866
2722 0 58.1499 11.9519 695 108.486 487.237 485.129
2723 0 61.2092 12.5635 769 106.704 486.769 484.811
2724 0 64.3051 12.3163 792 107.648 486.837 482.718
2725 0 66.4265 12.3595 821 107.151 486.671 481.413
2726 0 67.4849 11.9434 806 109.516 486.187 478.345
2727 0 69.3468 12.5168 868 109.077 486.355 474.961
2728 0 72.363 12.7966 926 109.197 486.521 473.443
2729 0 74.2997 11.817 878 112.997 485.926 475.715
2730 0 76.1354 11.7028 891 118.361 485.446 476.105
2731 0 74.231 10.4943 779 122.796 485.271 474.87
2732 0 81.3726 12.7807 1040 117.504 485.9 469.478
2733 0 81.413 11.6566 949 122.217 486.538 466.331
2734 0 85.6259 12.8466 1100 118.562 486.381 466.677
2735 0 86.4179 12.1387 1049 122.216 486.004 464.873
2736 0 90.4735 11.9483 1081 122.99 486.533 462.457
2737 0 94.5543 13.0296 1232 120.454 486.219 459.916
2738 0 99.4265 12.8437 1277 120.46 486.193 462.213
2739 0 101.404 12.82 1300 121.899 486.402 458.697
2740 1 52.0881 11.1734 582 118.603 486.457 481.519
2741 0 54.3104 11.6 630 111.492 488.29 479.052
2742 0 53.2398 11.4764 611 115.679 487.779 479.607
2743 0 57.1492 12.7211 727 116.741 486.685 482.431
2744 0 57.1451 11.812 675 120.385 486.538 483.884
2745 0 61.1036 12.2251 747 118.386 486.878 484.997
2746 0 60.1449 12.1041 728 121.745 487.356 480.901
2747 0 62.1378 13.5988 845 117.982 486.783 480.923
2748 0 66.2341 12.5313 830 120.006 486.995 480.034
2749 0 67.2364 12.7461 857 121.905 486.693 477.097
2750 0 70.1725 12.1273 851 122.435 487.041 478.18
2751 0 70.1962 11.5248 809 126.535 487.311 478.08
2752 0 75.2253 12.9877 977 121.871 488.007 476.304
2753 0 77.1523 12.5466 968 124.822 487.761 472.855
2754 0 78.2309 12.412 971 125.178 487.344 473.636
2755 0 83.1966 13.2938 1106 123.033 487.666 470.772
2756 0 84.2612 11.856 999 128.636 487.324 470.233
2757 1 46.05 10.9663 505 123.592 489.384 491.917
2758 0 46.0372 12.1641 560 123.095 489.35 490.559
2759 0 49.044 12.6009 618 125.144 489.799 490.278
2760 0 52.1323 13.0821 682 123.284 489.04 489.164
2761 0 52.0439 12.72 662 125.068 489.14 488.748
2762 0 53.1043 12.9933 690 124.233 490.517 487.986
2763 0 56.0999 13.0303 731 125.276 489.432 487.104
2764 0 58.1566 15.0972 878 117.407 489.233 484.003
2765 0 58.0814 11.4839 667 130.627 489.202 485.408
2766 0 59.0454 12.99 767 126.289 489.846 484.044
2767 0 63.0681 13.5409 854 124.121 489.902 482.722
2768 0 64.0418 13.0071 833 125.255 489.695 481.813
2769 0 66.1008 12.9953 859 124.773 489.822 480.58
2770 0 68.1367 12.5336 854 126.352 489.742 478.678
2771 0 72.141 14.1806 1023 119.842 490.028 479.287
2772 0 74.1625 13.7266 1018 121.063 489.338 477.258
2773 0 75.1284 13.1907 991 123.735 489.252 476.508
2774 0 79.0571 13.5345 1070 121.267 489.102 475.509
2775 0 81.1295 13.6202 1105 121.511 489.083 473.999
2776 0 83.15 13.1088 1090 123.028 488.587 473.671
2777 1 44.0676 11.437 504 122.266 489.44 490.813
2778 0 46.1281 10.4925 484 123.618 489.715 489.07
2779 0 49.2567 12.912 636 117.077 488.344 488.108
2780 0 51.0439 13.3611 682 116.525 489.33 488.887
2781 0 51.028 11.8758 606 120.789 489.36 489.434
2782 0 55.0912 12.9059 711 117.958 488.873 486.837
2783 0 55.0159 12.2692 675 120.311 489.756 486.91
2784 0 59.0902 14.3509 848 113.088 489.584 484.492
2785 0 59.0356 13.3987 791 117.305 489.052 485.642
2786 0 61.06 12.7743 780 118.499 489.354 484.409
2787 0 63.0805 12.4286 784 119.527 489.094 483.638
2788 0 62.0219 12.9793 805 120.422 488.902 482.083
2789 0 65.0519 13.9273 906 116.962 489.166 479.836
2790 0 68.0493 13.6078 926 116.992 489.324 479.841
2791 0 69.0469 12.7594 881 118.644 488.384 479.72
2792 0 72.0965 13.1074 945 117.447 488.651 477.82
2793 0 74.0516 12.6128 934 118.574 488.615 476.426
2794 0 75.0822 11.6939 878 121.423 488.714 474.869
2795 0 78.0376 13.2244 1032 116.832 488.694 474.615
2796 0 83.1196 14.028 1166 113.768 488.238 473.208
2797 1 46.0549 10.6395 490 115.624 488.573 492.716
2798 0 48.0314 11.8672 570 112.065 488.651 492.44
2799 0 47.0647 10.2837 484 116.82 488.707 491.182
2800 0 48.1154 11.6802 562 108 486.635 488.966
2801 0 50.0167 12.1359 607 112.031 485.409 488.147
2802 0 54.0381 13.7681 744 106.331 485.308 488.438
2803 0 53.021 11.8066 626 112.757 485.626 486.291
2804 0 56.0302 12.1542 681 111.245 485.322 485.799
2805 0 58.0539 13.0052 755 109.097 485.513 486.38
2806 0 58.0421 12.2842 713 112.697 485.7 483.863
2807 0 61.0598 12.8562 785 110.92 485.339 481.996
2808 0 63.1101 12.9773 819 111.974 485.67 483.662
2809 0 66.082 13.4076 886 110.527 486.146 481.622
2810 0 68.0566 13.5328 921 110.131 486.257 481.723
2811 0 69.0897 12.1726 841 114.722 486.243 479.914
2812 0 72.1058 14.4787 1044 109.313 485.741 479.163
2813 0 75.076 12.7204 955 112.846 486.09 479.73
2814 0 77.1459 12.5347 967 114.16 485.891 475.482
2815 0 77.0888 11.9862 924 116.567 485.185 476.232
2816 0 81.1932 12.6488 1027 114.666 486.165 476.494
2817 0 83.1479 12.3395 1026 117.416 486.041 473.148
2818 0 85.1365 12.0512 1026 117.059 486.53 474.41
2819 0 91.0869 11.9446 1088 116.639 485.959 472.301
2820 0 94.0994 12.2424 1152 117.346 485.983 469.281
2821 0 95.1168 12.0168 1143 118.95 485.796 469.641
2822 0 98.1541 12.3581 1213 117.195 486.01 469.438
2823 0 102.079 14.5574 1486 112.221 485.834 466.12
2824 1 55.0764 10.6216 585 118.723 486.133 488.166
2825 0 56.0506 11.4718 643 115.065 486.283 487.163
2826 0 59.0824 11.9156 704 106.06 488.528 486.639
2827 0 60.0601 11.2054 673 106.942 486.722 489.312
2828 0 59.1331 10.1635 601 111.782 486.436 486.815
2829 0 62.0501 11.5874 719 108.656 486.672 485.707
2830 0 61.0779 9.43058 576 113.113 486.476 485.977
2831 0 65.0444 11.1155 723 108.299 485.538 483.376
2832 0 69.06 12.0041 829 104.815 485.457 482.766
2833 0 71.1485 11.483 817 106.077 485.488 480.946
2834 0 74.1065 11.6589 864 104.58 485.443 480.995
2835 0 75.0614 12.3499 927 104.769 485.835 477.9
2836 0 78.0979 12.6636 989 101.678 485.907 480.174
2837 0 80.1532 11.0663 887 106.078 485.468 477.812
2838 0 83.0565 11.1972 930 105.385 485.659 476.803
2839 0 88.1895 12.5072 1103 102.712 485.676 473.412
2840 0 89.1195 11.7595 1048 105.351 485.549 470.213
2841 0 96.1369 12.4718 1199 101.523 485.565 469.961
2842 0 97.1348 11.7774 1144 103.369 485.865 468.837
2843 1 50.0958 9.20236 461 108.059 485.54 491.33
2844 0 56.1399 12.4867 701 99.7261 488.208 488.646
2845 0 56.3 11.794 664 102.747 487.898 484.593
2846 0 58.3626 12.5594 733 107.554 486.689 478.262
2847 0 59.2804 11.1167 659 109.657 486.29 483.836
2848 0 62.0737 11.7602 730 108.974 484.429 483.275
2849 0 64.275 11.1396 716 109.119 484.446 483.7
2850 0 69.1868 12.011 831 105.255 484.484 483.42
2851 0 70.1347 13.5739 952 103.067 485.382 481.787
2852 0 71.1456 11.8911 846 107.723 484.833 479.417
2853 0 74.1551 11.7591 872 107.016 484.839 478.265
2854 0 76.1379 12.3197 938 106.238 484.737 477.904
2855 0 79.1267 11.3994 902 108.784 484.874 476.116
2856 0 82.135 12.2238 1004 105.949 485.202 476.259
2857 0 84.2072 12.1605 1024 108.468 484.557 473.752
2858 1 47.1863 12.5672 593 100.646 485.56 494.25
2859 0 46.1798 10.9788 507 101.479 485.69 493.864
2860 0 46.2622 10.3108 477 100.071 485.962 485.885
2861 0 47.2571 10.0726 476 102.206 485.397 483.968
2862 0 51.0977 11.2725 576 96.9132 487.306 491.156
2863 0 52.1381 11.9299 622 95.8023 488 489.661
2864 0 53.1851 11.1497 593 98.1501 487.401 489.511
2865 0 56.1388 12.2019 685 96.2 488.244 486.964
2866 0 56.0986 10.5707 593 100.922 487.064 487.612
2867 0 60.1088 12.0615 725 96.9476 487.265 487.508
2868 0 58.0841 11.0013 639 101.781 487.696 489.751
2869 0 60.1888 11.3642 684 101.044 487.477 485.803
2870 0 62.1583 11.1168 691 102.609 487.061 483.618
2871 0 66.1092 11.9651 791 99.7876 487.396 482.882
2872 0 68.0886 13.2181 900 98.0767 486.763 480.3
2873 0 70.103 10.9268 766 102.296 487.235 480.328
2874 0 73.1881 12.1604 890 99.8764 487.001 479.608
2875 0 73.1247 11.7607 860 102.164 487.323 477.947
2876 0 76.1064 11.2343 855 104.131 486.903 477.867
2877 0 79.1423 11.6625 923 103.576 487.652 477.189
2878 0 81.2243 12.5578 1020 102.936 486.966 473.25
2879 0 84.1935 11.723 987 104.858 486.458 472.638
2880 0 88.2144 12.9684 1144 102.252 486.977 471.325
2881 0 89.1342 10.8264 965 107.919 486.422 469.904
2882 0 94.1223 12.7281 1198 103.583 486.898 468.705
2883 0 97.2304 12.4961 1215 104.168 487.147 464.909
2884 0 100.182 12.0082 1203 106.07 486.663 464.167
2885 0 102.098 12.9875 1326 105.758 487.08 461.109
2886 0 106.262 12.3468 1312 106.337 486.992 461.568
2887 0 109.091 11.1558 1217 110.675 486.016 461.735
2888 1 60.1564 11.4535 689 104.16 486.45 486.938
2889 0 63.2394 12.8243 811 104.433 487.111 483.168
2890 0 65.0845 12.1842 793 105.826 485.805 484.142
2891 0 67.1599 13.4009 900 103.724 485.283 481.079
2892 0 70.0736 13.1719 923 105.647 486.894 479.924
2893 0 69.0884 12.0136 830 113.748 487.712 479.433
2894 0 73.1233 12.937 946 111.147 487.339 476.789
2895 0 74.1049 13.157 975 112.197 486.999 477.705
2896 0 77.1683 13.5677 1047 110.951 487.352 476.076
2897 0 80.155 14.5219 1164 108.696 487.194 474.939
2898 0 82.0975 14.1417 1161 110.613 487.239 473.993
2899 0 85.1424 14.5404 1238 109.396 486.919 471.395
2900 0 84.1492 12.8462 1081 115.341 486.932 470.478
2901 0 91.2212 13.5933 1240 112.062 487.405 469.487
2902 0 92.2513 14.3738 1326 111.447 487.068 466.535
2903 0 94.2961 13.8712 1308 111.207 486.456 464.681
2904 0 97.4866 13.2223 1289 112.342 486.983 461.352
2905 0 101.226 13.8798 1405 110.246 486.772 463.663
2906 0 102.265 14.1007 1442 109.983 487.414 459.585
2907 0 104.215 13.3378 1390 111.975 486.665 459.588
2908 0 107.421 13.5448 1455 111.525 486.264 457.489
2909 0 108.335 12.046 1305 112.541 486.061 456.69
2910 0 114.256 12.7433 1456 110.428 485.789 452.982
2911 0 118.426 13.4852 1597 108.846 485.987 453.786
2912 0 124.411 13.4715 1676 109.165 486.103 451.409
2913 1 62.0803 11.4851 713 106.655 484.976 482.128
2914 0 66.0592 11.7319 775 97.8981 485.695 476.921
2915 0 62.1034 10.9173 678 102 486.382 472.929
2916 0 66.0798 11.3196 748 101.126 486.1 472.811
2917 0 71.0383 11.7261 833 98.9916 486.726 474.352
2918 0 72.0734 12.1126 873 99.7239 486.336 472.887
2919 0 73.101 12.3938 906 99.6402 486.414 472.15
2920 0 80.0667 11.3281 907 100.951 485.654 469.728
2921 0 81.0697 12.0884 980 100.893 486.145 467.043
2922 0 82.1538 12.6592 1040 101.381 485.797 465.552
2923 0 84.1149 10.6283 894 105.358 486.248 464.435
2924 0 91.1143 12.2703 1118 101.482 485.764 465.568
2925 0 91.1557 11.1348 1015 106.186 486.244 461.59
2926 0 94.0713 12.8732 1211 103.134 486.405 460.735
2927 0 96.1568 11.9804 1152 105.582 486.266 460.918
2928 0 99.2516 12.433 1234 105.319 486.025 457.749
2929 0 103.114 13.5773 1400 103.72 486.015 455.315
2930 0 105.202 11.9389 1256 107.789 485.929 458.196
2931 0 108.12 12.4676 1348 108.274 486.493 455.784
2932 0 114.262 13.224 1511 121.318 486.132 457.889
2933 0 117.162 14.7147 1724 118.614 485.804 453.264
2934 0 121.286 14 1698 120.636 485.889 452.979
2935 0 125.262 14.4737 1813 119.753 484.785 451.063
2936 0 129.229 13.5109 1746 121.759 485.363 449.757
2937 0 133.468 14.3331 1913 120.685 485.412 446.205
2938 0 137.356 13.3449 1833 122.699 485.663 448.158
2939 0 143.263 14.3443 2055 121.048 485.327 442.545
2940 0 149.368 13.2893 1985 123.672 485.358 441.644
2941 0 152.175 12.1505 1849 125.703 485.922 439.587
2942 0 158.334 13.2189 2093 121.23 485.813 434.35
2943 1 77.0842 12.1426 936 116.809 485.369 476.741
2944 0 82.0939 13.3993 1100 113.133 487.099 473.003
2945 0 84.0743 13.3691 1124 115.461 486.681 470.302
2946 0 87.1579 14.1697 1235 112.129 487.572 470.164
2947 0 89.2374 12.9654 1157 114.626 487.903 470.546
2948 0 93.0507 13.0252 1212 115.327 487.632 466.809
2949 0 95.1089 13.4898 1283 113.948 487.645 466.228
2950 0 98.4032 14.217 1399 112.718 487.907 463.022
2951 0 100.183 13.1858 1321 114.656 487.805 462.381
2952 0 104.209 14.1831 1478 112.641 487.242 461.279
2953 0 106.154 13.9797 1484 113.412 486.604 460.718
2954 0 111.22 14.4218 1604 111.86 486.581 458.623
2955 0 115.157 13.512 1556 113.493 486.219 457.635
2956 0 119.172 12.4106 1479 115.73 486.007 456.128
2957 0 121.216 12.7541 1546 116.083 485.411 453.087
2958 1 66.0468 11.5524 763 119.48 484.118 478.623
2959 0 68.2002 12.6979 866 117.709 486.344 477.596
2960 0 73.2224 12.9469 948 114.682 487.022 476.285
2961 0 74.0552 12.8553 952 115.768 487.64 474.846
2962 0 74.0424 11.3854 843 113.312 486.559 471.966
2963 0 76.0741 12.8427 977 111.21 486.826 470.242
2964 0 76.04 10.1263 770 119.555 486.486 468.425
2965 0 78.0896 11.2563 879 117.718 486.337 465.23
2966 0 82.0595 12.7956 1050 113.739 486.151 463.793
2967 0 85.0376 10.7364 913 117.538 486.065 466.46
2968 0 87.0719 11.4962 1001 116.925 486.052 464.058
2969 0 92.062 12.6871 1168 113.723 485.719 461.574
2970 0 94.051 12.2274 1150 115.935 486.742 459.957
2971 0 96.0288 12.4025 1191 115.935 487.085 458.749
2972 0 98.1449 11.2283 1102 118.998 486.24 458.661
2973 0 101.185 11.642 1178 118.322 486.463 454.495
2974 0 104.18 12.4209 1294 117.9 486.327 450.927
2975 0 107.141 12.3295 1321 118.686 485.734 452.519
2976 0 113.247 12.8922 1460 116.665 485.579 449.847
2977 0 115.139 12.689 1461 117.433 485.537 445.079
2978 0 118.177 12.1597 1437 119.626 486.033 443.18
2979 0 122.294 12.7317 1557 118.06 486.645 440.539
2980 0 123.146 12.3756 1524 120.192 485.575 436.951
2981 0 128.292 12.3078 1579 120.672 485.897 437.015
2982 0 131.288 12.0575 1583 121.893 485.805 436.104
2983 0 139.275 12.8667 1792 119.621 485.436 436.598
2984 0 142.176 12.7236 1809 121.348 485.37 432.53
2985 0 147.277 12.4324 1831 121.177 485.417 428.574
2986 0 153.227 13.9205 2133 117.277 485.875 429.731
2987 0 158.391 13.2394 2097 122.989 484.952 425.462
2988 0 159.219 12.1405 1933 127.512 484.743 420.631
2989 0 171.316 12.8943 2209 122.517 485.115 422.507
2990 0 174.303 12.157 2119 125.093 484.739 419.157
2991 1 106.082 11.0669 1174 114.698 484.635 454.753
2992 0 111.236 13.9613 1553 115.264 485.844 457.303
2993 0 114.18 13.794 1575 116.497 486.288 458.586
2994 0 118.187 13.4956 1595 117.038 485.984 457.374
2995 0 120.106 12.5722 1510 118.668 486.139 455.534
2996 0 127.133 13.7966 1754 114.765 486.299 451.303
2997 0 130.186 13.5882 1769 116.295 486.349 448.933
2998 0 134.081 13.3278 1787 116.599 486.047 447.398
2999 1 78.0315 10.5983 827 118.614 487.433 477.764
3000 0 81.0735 12.1988 989 114.362 487.361 475.206
3001 0 83.0495 13.2692 1102 112.974 486.946 472.839
3002 0 83.1937 12.7173 1058 119.351 486.447 473.153
3003 0 87.0983 12.8361 1118 119.077 486.221 470.167
3004 0 87.0983 12.7787 1113 142.647 486.249 470.024
3005 0 92.1752 12.3135 1135 119.935 486.47 469.686
3006 0 95.2996 13.9245 1327 116.063 486.53 463.054
3007 0 100.396 12.7993 1285 117.28 485.77 464.493
3008 0 102.498 13.6003 1394 115.842 485.249 462.227
3009 0 105.37 12.3565 1302 118.677 484.945 460.409
3010 0 109.288 12.0965 1322 116.426 485.315 462.074
3011 1 56.1105 9.03575 507 108.986 486.813 487.779
3012 0 56.1906 10.5712 594 106.598 484.965 478.8
3013 0 60.3086 10.4131 628 105.664 485.21 481.336
3014 0 58.0645 10.7983 627 94.7959 484.582 475.612
3015 0 62.0669 9.94089 617 96.0956 485.013 477.684
3016 0 60.1488 10.2413 616 97.3068 485.321 473.282
3017 0 62.161 10.2798 639 97.5336 485.027 474.79
3018 0 65.1143 11.3186 737 94.3284 485.471 473.544
3019 0 68.1651 10.812 737 94.848 485.274 474.09
3020 0 68.1715 11.031 752 95.7939 484.984 472.239
3021 0 72.1748 12.0264 868 93.6106 484.85 470.421
3022 0 73.2237 10.7069 784 96.2194 484.907 469.36
3023 0 76.2134 10.1295 772 97.1049 484.854 470.268
3024 0 78.1051 10.6395 831 97.1697 484.976 466.671
3025 0 80.1184 11.9698 959 94.1376 484.635 469.252
3026 0 81.1816 10.6674 866 97.4353 485.179 461.453
3027 0 85.2978 10.6802 911 98.4018 485.256 464.276
3028 0 86.1927 10.5113 906 100.369 485.462 463.898
3029 0 89.1842 10.1587 906 102.322 485.851 460.337
3030 0 92.2347 9.70351 895 101.336 485.501 462.248
3031 0 94.1873 10.9569 1032 100.453 485.968 464.713
3032 0 99.219 9.85698 978 101.766 485.825 456.826
3033 0 102.292 11.477 1174 98.7896 485.241 455.531
3034 0 105.272 10.3256 1087 101.193 485.166 453.019
3035 0 107.259 11.4676 1230 101.254 485.79 454.076
3036 0 111.278 10.5771 1177 101.099 485.642 454.599
3037 1 57.205 10.3662 593 106.423 486.185 477.637
3038 0 61.1868 11.6038 710 102.348 485.669 475.976
3039 0 62.0365 10.9935 682 98.6129 484.717 478.978
3040 0 64.0537 12.0056 769 96.4408 484.769 477.296
3041 0 64.1463 11.0529 709 99.1918 484.533 478.197
3042 0 67.093 9.97124 669 100.294 484.945 475.528
3043 0 71.0848 10.593 753 98.9734 484.995 475.376
3044 0 73.0617 11.7435 858 97.0326 484.127 474.17
3045 0 76.0634 12.0294 915 96.1246 484.816 472.196
3046 0 77.1491 12.1064 934 93.1478 485.52 471.901
3047 0 78.1124 12.7381 995 101.656 486.202 473.465
3048 0 79.1941 11.8317 937 106.932 486.062 473.329
3049 0 81.1876 13.3887 1087 95.7709 486.273 473.744
3050 0 82.2221 12.4784 1026 102.326 485.916 472.483
3051 0 84.2588 13.8027 1163 105.324 486.817 472.429
3052 0 85.1461 13.6941 1166 106.453 486.295 470.705
3053 0 88.2484 14.4592 1276 103.465 486.432 472.315
3054 0 89.1949 12.2092 1089 108.411 486.419 471.684
3055 0 91.234 12.7694 1165 106.863 486.15 470.239
3056 1 48.1137 11.8677 571 104.039 487.005 489.685
3057 0 51.1478 11.3006 578 101.585 487.856 490.093
3058 0 51.1158 10.6425 544 102.355 487.882 489.34
3059 0 55.0491 11.9711 659 97.4871 487.775 487.439
3060 0 58.0359 12.1993 708 97.3008 487.833 487.27
3061 0 61.0565 13.0371 796 95.3706 487.655 484.305
3062 0 58.0368 11.1309 646 101.853 487.543 482.659
3063 0 63.071 13.0646 824 96.9709 487.333 483.307
3064 0 63.0648 11.3534 716 102.134 487.108 484.327
3065 0 66.0181 13.2539 875 99.4697 487.795 481.285
3066 0 69.0865 12.1008 836 102.629 487.452 479.593
3067 0 70.021 13.3817 937 101.858 487.528 479.646
3068 0 74.0906 13.5375 1003 102.748 487.01 478.867
3069 0 74.1614 13.2818 985 105.884 487.344 477.199
3070 0 76.0779 12.3689 941 110.086 487.15 474.818
3071 0 79.1479 13.3168 1054 108.914 487.386 475.697
3072 0 82.1069 14.1036 1158 107.638 487.644 475.657
3073 0 84.0985 13.7815 1159 111.094 487.569 473.814
3074 1 42.0225 12.0412 506 111.911 487.334 493.538
3075 0 43.0321 11.689 503 112.318 486.94 491.907
3076 0 45.0445 11.2111 505 109.891 487.56 490.428
3077 0 45.0864 12.2875 554 106.937 487 487.814
3078 0 46.1309 11.1639 515 101.771 486.353 487.773
3079 0 44.073 10.8229 477 105.195 486.403 487.423
3080 0 46.061 10.6598 491 106.32 486.857 486.77
3081 0 48.0486 10.2813 494 108.071 486.399 486.528
3082 0 51.0241 10.9948 561 105.791 486.257 486.59
3083 0 49.0956 10.4694 514 110.196 486.072 485.109
3084 0 52.0263 11.8017 614 107.389 486.342 484.992
3085 0 55.1688 11.2745 622 108.068 486.775 484.584
3086 0 55.0624 10.9512 603 110.29 486.595 484.638
3087 0 56.1758 11.4462 643 110.005 485.619 481.337
3088 0 58.0941 12.2216 710 108.927 485.758 480.57
3089 0 62.1083 11.2867 701 109.856 485.248 482.608
3090 0 61.0997 11.1785 683 111.388 486.284 479.302
3091 0 66.2522 11.6524 772 109.048 486.299 478.131
3092 0 68.1658 12.5576 856 107.439 486.171 475.742
3093 0 69.2077 10.0856 698 114.665 486.574 478.086
3094 0 72.3301 11.3231 819 112.282 486.47 476.209
3095 0 74.1984 11.294 838 113.71 486.426 470.754
3096 0 76.1708 11.4873 875 113.353 486.506 472.966
3097 0 80.131 10.8447 869 114.617 486.666 468.261
3098 0 83.1388 10.9456 910 114.77 485.831 467.793
3099 0 86.1781 10.4087 897 114.08 485.933 462.708
3100 1 43.2731 11.439 495 108.721 485.483 486.814
3101 0 46.1019 12.0168 554 106.742 485.596 484.312
3102 0 47.1046 11.8672 559 106.998 485.689 483.122
3103 0 49.0832 12.5094 614 108.759 485.902 484.972
3104 0 49.0643 11.1079 545 119.473 485.383 489.538
3105 0 51.0617 11.633 594 117.136 484.951 490.052
3106 0 52.1298 10.4163 543 120.136 485.232 488.65
3107 0 53.046 11.3486 602 118.819 485.355 487.138
3108 0 56.0788 11.8048 662 117.724 485.142 486.394
3109 0 55.0744 11.3301 624 119.503 485.197 485.034
3110 0 60.0523 13.1552 790 112.937 485.205 483.439
3111 0 61.1681 11.6237 711 116.377 485.418 482.601
3112 0 63.1645 13.4094 847 112.298 485.407 482.254
3113 0 66.2374 11.655 772 116.233 485.523 481.785
3114 0 68.0819 12.7787 870 114.384 484.884 480.003
3115 0 70.1272 13.3187 934 114.585 485.279 475.487
3116 0 71.0555 12.7365 905 116.27 485.072 473.967
3117 0 74.1381 12.9353 959 114.909 485.823 474.483
3118 0 79.082 13.9981 1107 111.416 485.061 472.378
3119 0 82.0758 13.914 1142 110.775 484.944 471.502
3120 1 44.0078 11.5207 507 111.921 484.4 490.759
3121 0 43.0304 10.0627 433 111.727 485.263 484.215
3122 0 46.0785 12.5221 577 97.383 485.553 483.913
3123 0 47.0257 11.3342 533 100.557 486.244 483.343
3124 0 48.0799 11.8761 571 98.9177 487.306 480.732
3125 0 47.1379 10.5647 498 101.669 488.295 483.558
3126 0 52.1234 11.5111 600 98.5833 488.012 483.16
3127 0 52.0996 10.6335 554 101.639 487.57 482.623
3128 0 54.2368 11.4314 620 100.36 487.658 479.384
3129 0 54.1355 12.2471 663 99.9638 487.439 481.894
3130 0 56.1604 11.1288 625 101.523 487.485 481.155
3131 0 58.1242 10.4431 607 102.768 486.685 481.119
3132 0 61.1637 11.3793 696 101.241 486.783 478.842
3133 0 63.2824 11.8674 751 99.8948 486.651 478.36
3134 0 66.1407 11.793 780 99.841 486.683 476.388
3135 0 68.2183 12.1522 829 99.5742 487.311 475.626
3136 0 71.1389 12.1312 863 100.641 486.917 472.633
3137 0 74.2697 13.4375 998 98.2094 486.763 470.365
3138 0 76.1754 13.3376 1016 99.1093 486.562 471.891
3139 0 77.2466 12.9714 1002 101.553 486.861 468.895
3140 0 80.3762 12.23 983 104.297 486.238 467.258
3141 1 41.1095 9.94904 409 107.022 486.753 488.132
3142 0 43.2693 10.9546 474 104.724 486.909 488.519
3143 0 44.2599 10.958 485 97.3155 487.266 487.895
3144 0 46.0457 11.7926 543 96.2394 487.516 487.162
3145 0 47.1895 11.0618 522 97.6552 488.165 487.347
3146 0 50.0739 11.8225 592 95.7348 487.725 486.831
3147 0 48.1752 11.1053 535 99.8299 487.194 483.484
3148 0 53.1937 12.7459 678 94.6445 487.73 485.64
3149 0 53.3275 11.12 593 98.4705 486.808 484.971
3150 0 55.0849 13.5246 745 94.945 487.188 484.169
3151 0 57.2166 10.836 620 100.298 487.156 482.765
3152 0 59.1519 12.1382 718 97.9039 487.727 482.476
3153 0 59.0532 10.0079 591 103.054 487.453 482.321
3154 0 63.1133 12.5806 794 97.9572 486.825 480.821
3155 0 64.2959 13.4068 862 96.8353 486.952 481.03
3156 0 67.235 11.9581 804 99.4017 486.94 476.944
3157 0 70.2896 12.3489 868 99.9965 487.032 476.073
3158 0 72.1975 12.6043 910 100.133 486.982 474.601
3159 0 73.3618 12.3906 909 102.471 486.781 473.041
3160 0 76.2345 12.6452 964 102.11 486.857 471.47
3161 0 79.399 13.8793 1102 99.775 486.815 470.495
3162 0 83.3548 12.9447 1079 101.309 486.437 468.511
3163 1 41.2052 11.0666 456 105.121 486.842 491.452
3164 0 43.0476 12.1261 522 104.51 486.785 488.239
3165 0 44.1239 10.8785 480 100.794 486.981 491.656
3166 0 46.2156 13.1774 609 96.7767 487.174 490.212
3167 0 48.1905 13.1769 635 97.4016 487.476 488.066
3168 0 49.2165 11.6831 575 99.8035 487.355 488.412
3169 0 51.2056 11.7565 602 99.6877 487.638 487.556
3170 0 50.0856 11.5602 579 101.769 487.361 487.499
3171 0 54.0398 12.6388 683 99.1186 487.701 485.59
3172 0 53.0679 11.099 589 103.161 486.051 486.667
3173 0 56.0812 12.5711 705 108.376 485.938 487.864
3174 0 59.0206 13.0294 769 107.035 485.999 489.602
3175 0 61.0793 12.4101 758 110.897 484.871 488.301
3176 0 62.0293 12.4941 775 111.765 485.013 488.594
3177 0 63.042 11.8334 746 113.669 484.979 488.273
3178 0 67.1477 12.6587 850 112.098 485.249 484.915
3179 0 69.1252 12.7884 884 112.062 484.479 483.63
3180 0 72.1049 12.3986 894 114.284 485.05 481.734
3181 0 73.0614 11.5245 842 115.406 485.527 484.652
3182 0 76.0829 12.5258 953 113.92 485.545 482.597
3183 0 80.0944 12.8598 1030 113.505 485.192 480.26
3184 1 43.1308 12.4041 535 116.693 485.335 496.181
3185 0 44.1679 13.2675 586 109.509 486.836 495.805
3186 0 46.2232 13.5213 625 110.514 486.608 492.648
3187 0 47.103 14.5638 686 108.657 486.376 494.71
3188 0 47.038 14.1588 666 112.258 485.92 494.479
3189 0 50.1591 13.9955 702 112.202 486.118 493.05
3190 0 51.2094 13.9037 712 114.125 485.982 478.763
3191 0 55.0528 13.4235 739 107.2 486.643 478.873
3192 0 52.1573 13.0567 681 111.441 486.884 491.483
3193 0 56.1061 13.5101 758 109.158 487.007 490.831
3194 0 57.1047 13.8868 793 108.718 487.178 488.644
3195 0 59.0984 15.3981 910 106.147 486.584 486.654
3196 0 61.0894 14.0614 859 109.419 486.576 487.815
3197 0 62.0653 13.8725 861 110.779 486.685 486.732
3198 0 65.1569 15.148 987 107.946 486.402 485.02
3199 0 64.0707 14.0782 902 111.686 486.238 484.676
3200 0 69.1307 14.176 980 110.051 486.593 483.628
3201 0 70.0774 13.7562 964 112.345 486.272 482.92
3202 0 72.161 14.6201 1055 113.546 486.345 481.372
3203 0 74.1479 13.7698 1021 114.124 486.14 479.859
3204 0 76.3242 14.006 1069 114.98 486.18 477.794
3205 0 79.1532 14.1371 1119 114.925 486.28 477.679
3206 0 82.1296 15.3294 1259 112.553 486.373 477.22
3207 0 82.1837 13.701 1126 119.75 486.731 476.167
3208 0 85.1294 14.848 1264 117.123 486.567 476.112
3209 0 88.1699 15.1299 1334 116.987 486.737 473.727
3210 0 91.1453 14.241 1298 120.56 486.395 471.953
3211 0 93.1367 13.9687 1301 121.639 485.85 469.433
3212 0 97.1794 15.3736 1494 118.704 485.751 469.322
3213 0 99.2854 15.0173 1491 120.436 485.462 469.368
3214 0 104.177 15.5889 1624 118.804 484.917 467.032
3215 0 107.292 15.304 1642 120.672 485.091 464.745
3216 0 111.342 15.9957 1781 119.693 485.025 462.182
3217 0 114.286 15.0674 1722 124.585 485.182 461.439
3218 0 119.302 15.574 1858 122.745 485.091 458.334
3219 0 122.381 15.9093 1947 123.093 485.062 456.333
3220 0 127.371 16.0554 2045 125.215 485.036 453.837
3221 0 130.339 15.5902 2032 127.359 485.314 452.5
3222 0 133.356 15.1774 2024 128.918 485.654 449.34
3223 0 139.312 15.1889 2116 129.554 485.387 446.584
3224 0 144.3 16.6182 2398 125.466 484.918 443.48
3225 0 149.181 15.4711 2308 128.541 484.971 444.081
3226 0 152.218 14.3807 2189 130.268 484.936 440.117
3227 0 158.215 16.1047 2548 126.046 485.404 436.646
3228 0 164.386 17.3494 2852 121.726 485.145 434.873
3229 0 171.344 17.3744 2977 121.054 484.884 430.696
3230 0 175.341 15.8434 2778 126.223 485.131 427.648
3231 0 182.227 17.3685 3165 120.575 484.796 429.492
3232 0 186.458 16.2664 3033 127.125 484.43 421.998
3233 0 196.516 17.2607 3392 122.962 484.63 418.131
3234 0 202.479 16.5746 3356 124.658 484.763 414.844
3235 0 208.405 16.468 3432 125.375 485.428 414.999
3236 0 215.328 15.553 3349 127.603 485.187 412.058
3237 0 222.565 14.7867 3291 129.684 485.493 406.581
3238 0 232.469 15.5591 3617 126.889 485.09 405.5
3239 0 240.368 17.1528 4123 122.764 485.396 397.544
3240 0 248.489 16.1859 4022 124.537 484.991 392.468
3241 1 73.0528 15.2356 1113 125.742 484.902 477.811
3242 0 76.0937 14.5479 1107 127.267 485.216 474.929
3243 0 78.1661 14.9169 1166 126.963 485.376 472.326
3244 0 82.1414 15.1811 1247 128.385 485.379 472.312
3245 0 83.1919 14.9654 1245 130.379 485.745 468.976
3246 0 87.2073 14.907 1300 129.838 485.591 468.285
3247 0 90.2813 14.5545 1314 126.761 486.49 468.851
3248 0 92.1005 14.2127 1309 125.612 487.355 467.074
3249 0 94.2222 14.954 1409 126.251 486.721 466.154
3250 0 94.2448 12.0749 1138 135.066 486.127 464.828
3251 0 102.211 13.9515 1426 127.267 486.766 463.506
3252 0 108.267 15.0923 1634 121.315 486.564 457.215
3253 0 109.429 13.2414 1449 125.687 486.233 460.932
3254 1 54.1778 11.9606 648 128.648 487.019 485.207
3255 0 57.0891 13.5578 774 126.798 486.231 482.28
3256 0 60.0811 13.2321 795 126.024 485.43 481.999
3257 0 61.1294 13.8395 846 124.898 486.812 479.243
3258 0 61.11 12.9602 792 127.159 485.97 478.823
3259 0 65.1221 13.5284 881 125.048 486.783 477.039
3260 0 68.144 13.1486 896 124.9 486.996 479.589
3261 0 73.2307 14.4065 1055 119.468 486.178 477.09
3262 0 75.2748 13.7762 1037 121.547 486.472 476.637
3263 0 76.29 14.0517 1072 121.623 486.668 476.347
3264 0 79.3889 15.0525 1195 113.495 486.141 473.457
3265 0 82.3115 15.903 1309 112.73 485.843 472.432
3266 0 88.3343 17.5809 1553 107.833 485.766 466.033
3267 0 88.2674 15.8836 1402 114.623 486.803 467.352
3268 0 88.3081 14.7438 1302 118.405 486.22 469.697
3269 0 92.3401 14.3924 1329 119.84 486.63 468.078
3270 0 92.2884 13.6854 1263 122.289 486.576 467.134
3271 0 98.266 14.247 1400 120.009 486.639 465.714
3272 0 101.32 14.7651 1496 118.941 486.976 461.751
3273 0 107.289 14.0834 1511 114.681 487.09 458.946
3274 1 52.0493 13.3143 693 116.302 485.873 484.789
3275 0 55.1912 13.9153 768 114.358 485.712 483.108
3276 0 57.0577 12.8992 736 117.075 485.753 482.537
3277 0 59.1359 13.2069 781 116.868 486.412 480.525
3278 0 62.3213 14.682 915 113.463 485.961 477.849
3279 0 64.1126 13.8974 891 115.727 486.047 480.141
3280 0 66.1371 13.5476 896 119.209 485.604 470.214
3281 0 69.1385 14.7964 1023 115.299 486.048 471.325
3282 0 71.1039 14.4577 1028 117.877 485.9 467.754
3283 0 72.1781 14.2841 1031 118.892 486.294 467.647
3284 0 74.2686 14.2321 1057 120.248 485.956 467.178
3285 0 79.3792 14.1725 1125 119.032 486.361 469.868
3286 0 80.3339 12.8339 1031 123.52 486.308 469.584
3287 0 82.3113 14.6031 1202 120.798 486.024 466.149
3288 0 84.4812 13.506 1141 123.129 485.6 467.232
3289 0 87.3989 13.7988 1206 123.89 486.143 463.643
3290 0 90.418 14.2118 1285 122.272 486.598 463.868
3291 0 93.6463 14.3092 1340 124.545 486.196 459.28
3292 0 96.5522 14.2514 1376 124.858 486.688 459.844
3293 0 98.378 14.2308 1400 125.823 486.706 455.884
3294 0 103.615 14.9302 1547 122.881 485.999 457.78
3295 0 107.488 14.383 1546 124.351 485.934 455.021
3296 0 113.732 14.6924 1671 123.864 486.643 451.418
3297 0 115.594 14.6201 1690 124.518 486.547 449.693
3298 0 119.665 14.198 1699 125.064 485.996 448.514
3299 1 63.3647 13.4618 853 116.399 486.478 477.64
3300 0 64.4484 13.2199 852 119.304 486.337 476.444
3301 0 67.3587 13.0644 880 122.198 486.922 475.99
3302 0 71.2741 13.0202 928 121.99 486.741 475.081
3303 0 71.0926 12.0406 856 127.933 486.443 475.303
3304 0 73.1375 13.3174 974 124.374 486.476 474.571
3305 0 78.1888 12.8407 1004 123.377 486.98 475.375
3306 0 79.1593 12.3675 979 126.048 486.265 471.819
3307 0 83.2334 12.5911 1048 125.306 486.073 469.313
3308 0 86.4109 13.7714 1190 121.892 485.999 460.772
3309 0 87.4435 12.3051 1076 126.612 485.775 464.786
3310 0 89.2863 12.1183 1082 128.115 486.438 461.618
3311 0 95.279 12.9724 1236 124.954 486.33 460.228
3312 0 98.4381 13.4399 1323 124.401 486.301 457.175
3313 0 102.311 14.0552 1438 123.299 486.43 452.783
3314 0 107.403 11.8805 1276 128.65 486.692 453.755
3315 1 58.3237 9.22438 538 123.212 486.981 480.766
3316 0 60.2942 12.24 738 120.454 486.488 477.187
3317 0 61.1442 10.6142 649 127.453 485.874 479.26
3318 0 64.2784 11.6835 751 125.897 486.069 476.394
3319 0 63.1835 11.9177 753 128.424 486.084 473.795
3320 0 67.3391 11.3604 765 128.952 486.258 472.933
3321 0 70.5634 11.6916 825 129.042 485.982 471.536
3322 0 73.4794 12.5069 919 126.707 485.33 471.519
3323 0 75.3462 10.6973 806 131.882 486.009 471.597
3324 0 79.3666 11.9698 950 130.253 485.265 468.126
3325 0 78.3634 10.6172 832 136.394 485.364 466.486
3326 0 84.3131 11.825 997 133.354 485.59 464.064
3327 0 86.4602 10.5598 913 137.689 485.491 463.975
3328 0 86.4508 10.6997 925 145.57 484.512 464.042
3329 0 93.2674 12.1908 1137 135.623 485.888 461.282
3330 0 96.3043 12.4813 1202 136.474 485.737 459.483
3331 0 98.3205 11.5134 1132 140.283 485.962 456.692
3332 0 102.39 11.6124 1189 140.638 485.703 455.5
3333 0 106.439 11.96 1273 140.148 485.594 451.698
3334 0 110.247 11.9641 1319 143.638 486.56 455.161
3335 0 112.228 12.0914 1357 143.544 487.283 457.466
3336 0 117.307 11.7896 1383 144.59 487.148 455.509
3337 1 58.1951 10.7225 624 139.28 487.538 484.255
3338 0 60.1658 10.8866 655 138.864 487.531 482.873
3339 0 63.1294 11.3735 718 137.276 486.33 482.116
3340 0 64.3109 10.6358 684 139.933 487.285 479.7
3341 0 65.381 10.8594 710 139.666 486.954 478.852
3342 0 69.3162 11.5413 800 138.958 486.675 477.467
3343 0 69.0999 11.5485 798 140.594 487.774 476.992
3344 0 70.0683 11.4032 799 142.766 487.881 477.892
3345 0 73.0352 11.7204 856 141.8 487.523 476.9
3346 0 76.0708 11.9362 908 142.775 487.967 473.656
3347 0 78.0358 12.0458 940 143.114 487.772 473.347
3348 0 81.1574 11.8412 961 142.326 487.525 474.382
3349 0 84.1033 12.0923 1017 143.322 486.918 471.255
3350 0 87.1191 11.8114 1029 144.59 487.263 468.81
3351 0 89.1206 12.6795 1130 143.112 487.881 467.702
3352 0 91.223 12.8476 1172 142.542 487.412 467.445
3353 0 96.2171 13.376 1287 140.896 487.534 464.718
3354 0 96.1918 12.7454 1226 145.171 487.212 461.856
3355 0 99.2838 12.3283 1224 146.922 487.188 461.337
3356 1 54.0232 9.62549 520 142.202 488.521 484.45
3357 0 57.2423 12.1414 695 133.622 486.99 483.292
3358 0 59.1995 12.4156 735 132.929 486.559 482.004
3359 0 59.0965 10.4236 616 141.516 487.864 484.294
3360 0 62.1383 11.2008 696 138.32 487.761 483.409
3361 0 64.2033 12.367 794 135.387 488.407 481.935
3362 0 64.1309 11.8352 759 137.444 487.95 482.701
3363 0 69.083 12.1593 840 134.656 487.915 481.364
3364 0 68.076 12.1776 829 135.66 488.048 481.444
3365 0 70.1504 12.5302 879 135.755 487.903 476.098
3366 0 73.0845 11.8082 863 136.556 487.648 478.871
3367 0 75.15 12.2821 923 134.194 487.405 477.067
3368 0 77.116 13.2657 1023 131.194 487.057 475.651
3369 0 78.2381 12.6665 991 132.997 487.065 473.804
3370 0 82.1929 13.2493 1089 130.54 486.832 471.841
3371 0 84.1791 12.9605 1091 131.511 486.963 470.896
3372 0 87.3277 13.7872 1204 127.704 486.811 470.134
3373 0 90.2719 12.8944 1164 128.653 487.208 472.025
3374 0 94.2917 13.4794 1271 126.533 487.547 466.423
3375 0 95.2794 12.1537 1158 132.024 486.611 464.685
3376 0 96.2444 10.9305 1052 134.772 487.153 465.935
3377 0 100.234 12.7701 1280 130.498 486.768 462.249
3378 0 103.178 12.241 1263 131.238 486.645 460.113
3379 1 50.0823 10.4628 524 122.794 488.384 488.634
3380 0 52.1674 11.4248 596 118.367 488.436 486.961
3381 0 52.1072 10.7855 562 115.014 488.68 490.109
3382 0 54.0799 11.2241 607 114.119 488.02 487.661
3383 0 55.0875 11.1459 614 114.073 487.997 489.283
3384 0 56.1616 11.6984 657 112.626 486.913 487.947
3385 0 58.1426 11.5578 672 114.109 486.811 484.76
3386 0 63.0592 12.3852 781 107.635 488.382 482.933
3387 0 63.129 11.2468 710 113.311 487.839 484.303
3388 0 64.1004 13.1044 840 111.924 487.877 483.539
3389 0 63.0717 11.0033 694 118.627 487.744 481.643
3390 0 68.1687 12.9972 886 125.112 485.611 480.225
3391 0 69.1136 11.2279 776 131.661 485.858 479.807
3392 0 71.3236 11.8474 845 130.884 486.425 477.499
3393 0 72.1699 11.4036 823 132.922 485.785 477.945
3394 0 77.1585 12.2864 948 129.773 486.305 478.538
3395 0 77.1916 11.9832 925 133.484 485.946 476.078
3396 0 79.2299 12.0157 952 135.144 486.962 472.283
3397 0 84.1855 11.9498 1006 134.939 486.056 473.741
3398 0 87.2114 12.292 1072 132.757 486.195 474.774
3399 0 87.2915 11.8568 1035 136.695 486.366 471.57
3400 1 45.1189 9.41956 425 135.066 487.489 492.381
3401 0 46.0734 10.505 484 132.864 487.723 489.99
3402 0 49.0585 10.2735 504 129.794 487.651 491.502
3403 0 47.0373 9.9708 469 125.486 487.627 489.032
3404 0 50.0321 11.0129 551 126.514 487.586 488.479
3405 0 51.0537 11.4194 583 124.83 487.811 487.885
3406 0 55.0948 12.5965 694 121.007 487.614 488.352
3407 0 54.1257 10.9744 594 127.318 484.626 486.02
3408 0 56.1051 11.6032 651 125.393 485.525 485.829
3409 0 57.0458 11.2366 641 126.899 485.819 486.459
3410 0 60.1 12.1464 730 124.39 485.738 485.237
3411 0 61.0531 11.1378 680 128.875 485.375 481.909
3412 0 65.1383 12.3276 803 123.501 484.753 479.087
3413 0 66.0484 11.5824 765 131.276 484.792 481.239
3414 0 70.0301 12.4232 870 128.32 484.686 479.906
3415 0 70.1494 11.8889 834 126.719 485.326 475.687
3416 0 74.0592 12.6385 936 124.979 485.178 474.49
3417 0 76.0818 11.9477 909 127.408 485.496 475.022
3418 1 40.0448 10.3884 416 129.262 484.356 493.447
3419 0 41.0366 12.7203 522 122.728 485.031 491.577
3420 0 43.0629 11.1233 479 126.111 485.029 490.91
3421 0 43.1736 12.0676 521 119.971 484.923 491.054
3422 0 44.023 12.0846 532 120.402 484.782 492.566
3423 0 43.0495 12.4276 535 121.262 485.57 490.239
3424 0 50.1335 14.0425 704 110.354 485.322 488.636
3425 0 47.0779 12.3625 582 121.172 485.072 490.768
3426 0 47.0835 11.8725 559 124.1 484.512 489.361
3427 0 50.0893 12.7173 637 119.931 484.948 489.912
3428 0 50.1701 11.8397 594 124.384 485.155 488.35
3429 0 53.1042 12.6167 670 122.722 484.2 488.743
3430 0 54.0566 12.3204 666 123.285 484.787 486.754
3431 0 54.0618 12.2268 661 124.897 485.053 487.1
3432 0 56.0971 12.7458 715 122.561 484.894 485.092
3433 0 59.1366 13.0207 770 120.703 484.517 485.995
3434 0 59.1784 13.6874 810 120.973 485.183 484.56
3435 0 60.1479 12.7353 766 124.252 484.971 484.114
3436 0 63.1221 12.9273 816 121.955 485.181 484.635
3437 0 64.1708 12.9031 828 123 485.37 482.414
3438 0 66.0986 12.4208 821 124.323 485.354 482.079
3439 0 68.1491 12.8689 877 122.466 485.396 482.057
3440 0 68.1321 12.285 837 125.996 485.559 479.447
3441 0 71.1249 13.4552 957 122.2 484.976 478.365
3442 0 76.0851 13.1958 1004 121.973 484.843 475.104
3443 0 79.1868 13.8786 1099 119.874 484.83 476.309
3444 0 81.2058 13.7306 1115 120.822 484.538 474.947
3445 0 83.2687 13.6666 1138 122.199 485.322 473.2
3446 0 87.105 13.2139 1151 123.894 485.394 473.03
3447 0 87.1181 13.1316 1144 125.565 485.515 469.874
3448 1 45.0152 10.5298 474 133.04 484.39 490.293
3449 0 50.2763 12.0932 608 129.054 486.414 487.469
3450 0 49.4062 11.9216 589 134.049 485.915 485.958
3451 0 51.2072 12.1858 624 132.837 486.202 488.175
3452 0 52.259 13.1843 689 129.968 486.763 486.916
3453 0 52.274 12.4154 649 133.26 486.582 485.219
3454 0 57.3869 13.5745 779 128.221 486.404 485.365
3455 0 58.3888 13.1875 770 129.53 486.966 483.849
3456 0 59.2798 11.6566 691 132.99 486.326 483.744
3457 0 63.1287 13.6071 859 127.879 486.944 481.9
3458 0 64.1078 12.7598 818 130.689 487.119 481.641
3459 0 66.0397 11.9171 787 132.656 487.46 481.91
3460 0 68.0356 12.6698 862 131.274 487.702 480.452
3461 0 70.048 12.3058 862 132.508 487.292 479.408
3462 0 73.1055 12.4751 912 132.544 486.927 478
3463 0 76.2565 13.7955 1052 128.282 486.875 475.16
3464 0 81.1695 12.9236 1049 129.922 486.6 474.259
3465 0 82.1154 11.9101 978 133.547 486.611 472.828
3466 0 85.1887 13.4173 1143 128.659 486.778 471.856
3467 0 88.1023 14.9599 1318 124.745 486.555 470.923
3468 1 47.1078 10.5715 498 131.333 486.528 490.701
3469 0 49.3349 11.1888 552 129.083 485.857 488.178
3470 0 52.0712 12.5405 653 124.851 487.153 484.977
3471 0 52.0426 11.9902 624 127.905 487.162 484.03
3472 0 54.1101 12.068 653 128.573 487.567 483.741
3473 0 55.0446 11.5179 634 130.765 487.103 485.162
3474 0 59.0452 12.5328 740 126.615 487.236 483.396
3475 0 58.0319 11.89 690 131.135 487.201 481.877
3476 0 61.0496 13.2188 807 126.763 487.502 481.974
3477 0 60.0404 12.4416 747 132.155 487.253 481.458
3478 0 65.1272 13.2049 860 128.674 487.181 480.085
3479 0 63.0962 12.473 787 128.807 487.123 480.534
3480 0 67.1047 12.5923 845 128.328 487.43 479.964
3481 0 69.1197 13.1656 910 126.875 487.524 480.132
3482 0 70.096 12.6398 886 130.517 487.415 478.486
3483 0 73.1784 13.0093 952 129.673 487.227 476.44
3484 0 76.0857 13.2876 1011 129.43 487.388 476.156
3485 0 78.1364 14.2827 1116 126.958 487.614 474.839
3486 0 81.1077 14.0677 1141 127.609 487.222 472.79
3487 1 43.0743 9.82025 423 133.57 487.423 491.605
3488 0 47.0797 11.7673 554 128.684 487.931 489.67
3489 0 47.0388 10.8208 509 131.678 487.831 491.609
3490 0 48.0516 12.5074 601 120.975 487.09 492.304
3491 0 50.0169 11.3961 570 124.893 486.993 491.393
3492 0 52.024 12.7057 661 120.551 486.785 490.421
3493 0 52.1311 13.2167 689 119.977 487.213 489.961
3494 0 51.1295 10.4245 533 129.632 487.09 491.255
3495 0 52.186 10.98 573 127.096 486.845 489.363
3496 0 53.0303 9.95656 528 128.735 487.295 488.021
3497 0 56.0571 10.7391 602 125.297 487.462 488.347
3498 0 56.1018 10.0532 564 128.314 487.011 487.071
3499 0 58.0298 10.6152 616 125.722 486.461 488.068
3500 0 61.0761 11.1828 683 124.613 486.773 485.824
3501 0 62.0452 10.5246 653 124.954 487.064 483.677
3502 0 65.1156 10.7194 698 121.844 487.219 482.723
3503 0 68.096 10.7789 734 120.537 487.439 482.206
3504 0 70.1037 11.1406 781 119.305 487.627 480.114
3505 0 71.1633 10.1035 719 120.191 487.125 480.673
3506 0 74.1215 11.5621 857 117.153 487.035 477.187
3507 0 77.1731 11.7787 909 116.487 486.702 475.36
3508 1 37.0233 8.99434 333 121.757 487.988 493.862
3509 0 41.1378 10.6715 439 116.713 488.239 492.87
3510 0 42.1407 10.7497 453 117.607 487.94 492.547
3511 0 44.1517 11.2113 495 115.863 487.513 492.002
3512 0 43.0409 11.7098 504 113.718 487.085 492.621
3513 0 47.0506 11.9021 560 112.461 487.321 490.271
3514 0 47.0826 12.0639 568 112.562 486.894 489.095
3515 0 48.0757 10.9619 527 116.66 486.736 489.307
3516 0 49.1103 11.688 574 114.23 487.446 489.936
3517 0 51.0831 12.6461 646 113.337 487.286 487.706
3518 0 53.0511 12.2146 648 114.182 487.394 487.381
3519 0 54.1938 12.3815 671 115.82 486.699 487.459
3520 0 55.2246 11.408 630 119.443 486.983 485.07
3521 0 55.1801 12.9213 713 115.468 486.934 486.602
3522 0 56.1985 12.1711 684 118.066 486.681 484.567
3523 0 58.1834 11.6184 676 117.994 487.046 485.29
3524 0 62.1927 10.9981 684 118.133 486.917 484.417
3525 0 63.1648 11.3671 718 117.727 486.868 480.624
3526 0 66.1174 11.7216 775 115.885 486.809 480.715
3527 0 67.2108 12.7807 859 113.271 486.498 480.669
3528 0 69.2338 12.1761 843 114.578 486.522 477.591
3529 0 74.1817 12.9681 962 111.633 486.749 477.166
3530 0 75.2932 11.7673 886 115.431 486.698 475.712
3531 0 77.2237 12.2501 946 114.433 487.064 475.625
3532 1 38.014 10.996 418 117.361 487.971 493.636
3533 0 41.0289 10.5048 431 114.84 487.921 493.893
3534 0 43.0663 12.6085 543 109.836 487.77 492.109
3535 0 43.0984 12.9471 558 110.57 487.746 491.111
3536 0 43.0331 11.8513 510 111.251 488.192 492.547
3537 0 46.0829 12.9332 596 107.131 487.982 492.062
3538 0 46.1891 11.6261 537 111.639 488.151 491.603
3539 0 47.0627 13.1952 621 108.536 488.425 491.303
3540 0 49.067 12.9619 636 109.772 488.116 489.994
3541 0 50.1275 13.1864 661 110.487 488.145 488.9
3542 0 52.108 13.9134 725 108.782 488.117 487.874
3543 0 52.121 12.4134 647 112.946 488.23 488.116
3544 0 55.1017 14.0831 776 108.352 488.227 487.648
3545 0 54.093 13.107 709 112.932 488.197 486.039
3546 0 60.0753 14.0157 842 107.901 488.457 486.648
3547 0 59.0917 13.1152 775 113.599 487.991 483.311
3548 0 61.1036 13.4853 824 112.661 487.614 483.664
3549 0 64.0695 13.2981 852 113.059 487.59 483.425
3550 0 65.1 14.2396 927 112.227 488.306 481.378
3551 0 68.0505 13.1226 893 115.012 488.207 481.573
3552 0 67.0752 13.2538 889 117.245 487.793 479.547
3553 0 71.0716 13.606 967 116.744 487.469 479.189
3554 0 76.0701 14.1317 1075 114.288 487.785 478.316
3555 0 75.0951 14.182 1065 116.915 487.184 477.333
3556 0 79.079 13.4423 1063 119.533 488.014 474.96
3557 0 80.0942 13.5341 1084 121.157 487.365 473.074
3558 1 41.0441 10.6227 436 127.367 487.626 492.658
3559 0 42.1409 12.0311 507 122.105 488.209 492.686
3560 0 43.2814 13.1234 568 117.799 487.822 492.498
3561 0 46.0711 12.4373 573 118.054 488.08 490.035
3562 0 46.0368 12.4248 572 119.309 488.703 489.689
3563 0 47.1751 11.8495 559 122.027 488.961 490.079
3564 0 49.0603 12.9433 635 119.616 488.987 488.559
3565 0 50.1458 13.4009 672 119.271 488.863 487.902
3566 0 52.0957 13.456 701 119.144 488.394 488.565
3567 0 53.0787 13.5459 719 119.797 488.132 487.384
3568 0 54.0806 13.1286 710 121.132 488.113 485.932
3569 0 54.0918 12.22 661 124.123 488.513 485.782
3570 0 60.1702 13.5117 813 119.157 488.496 482.963
3571 0 59.1253 12.871 761 123.534 487.67 480.968
3572 0 60.0711 13.7837 828 121.286 487.971 482.449
3573 0 64.1492 13.3439 856 123.117 488.072 480.513
3574 0 65.0838 12.7528 830 124.729 487.495 480.418
3575 0 68.0609 12.9884 884 123.979 487.955 479.846
3576 0 69.1308 12.744 881 125.367 487.317 477.694
3577 0 73.1685 12.8881 943 122.758 488.28 477.799
3578 0 77.1484 14.1805 1094 119.203 487.345 474.788
3579 0 77.1551 13.4405 1037 123.106 487.787 473.219
3580 0 80.1608 13.0612 1047 122.991 487.583 472.33
3581 1 40.0268 9.6935 388 128.853 488.278 494.655
3582 0 41.0139 11.4351 469 125.834 486.808 492.454
3583 0 43.2195 12.0779 522 121.036 485.881 491.464
3584 0 42.0951 12.1867 513 120.645 485.762 492.082
3585 0 45.0451 12.6318 569 118.654 485.436 490.84
3586 0 45.0329 12.8351 578 118.524 485.304 490.588
3587 0 46.045 12.4878 575 120.482 485.261 490.016
3588 0 50.043 12.4693 624 118.295 485.513 490.014
3589 0 50.1426 13.3619 670 117.11 485.564 489.479
3590 0 52.0687 13.2709 691 117.495 485.805 487.847
3591 0 53.0934 13.8247 734 116.597 486.078 488.619
3592 0 54.023 13.124 709 119.121 485.989 486.968
3593 0 56.0087 13.4265 752 118.779 485.749 486.539
3594 0 57.0341 14.3248 817 117.351 486.168 485.381
3595 0 60.0458 14.439 867 115.791 485.491 483.517
3596 0 61.1144 13.0084 795 120.008 485.771 483.258
3597 0 64.1044 12.3861 794 121.276 485.661 482.996
3598 0 64.0477 12.9123 827 119.764 485.366 481.527
3599 0 67.0508 13.2288 887 119.032 485.72 481.096
3600 0 68.111 12.7292 867 120.962 486.128 480.144
3601 0 72.235 13.5668 980 118.035 485.837 477.828
3602 0 73.1007 14.3364 1048 117.129 485.974 478.05
3603 0 74.1301 12.8558 953 123.841 485.96 478.401
3604 0 76.063 11.6877 889 127.573 486.408 476.966
3605 0 78.1003 12.2663 958 126.129 486.418 475.182
3606 0 82.147 12.6237 1037 125.784 486.104 474.683
3607 1 42.1252 12.3679 521 124.38 486.564 492.536
3608 0 43.0748 11.7702 507 126 486.515 491.525
3609 0 46.1259 11.4469 528 128.892 486.85 491.055
3610 0 46.282 13.2449 613 118.974 486.452 490.6
3611 0 47.0728 12.2151 575 123.2 485.868 490.384
3612 0 49.0478 13.0689 641 121.072 486.374 488.069
3613 0 51.0549 12.7902 653 116.285 486.147 488.349
3614 0 52.0478 13.4876 702 115.031 486.266 487.772
3615 0 54.1004 12.791 692 117.811 486.318 487.04
3616 0 55.1599 12.8717 710 118.469 486.361 484.792
3617 0 58.072 13.7243 797 115.846 486.483 486.797
3618 0 60.1317 13.0048 782 117.254 487.136 486.065
3619 0 61.0791 12.9668 792 117.431 486.996 485.74
3620 0 63.1147 13.4992 852 117.412 486.941 482.573
3621 0 65.202 13.4045 874 117.453 487.153 481.797
3622 0 66.1303 12.551 830 120.747 487.408 481.772
3623 0 70.1409 13.6582 958 115.851 487.248 479.618
3624 0 73.1516 13.3832 979 116.659 487.118 479.865
3625 0 75.1548 13.4921 1014 117.569 487.022 477.284
3626 0 77.1868 12.554 969 120.043 487.259 477.835
3627 0 79.1197 13.4227 1062 117.97 486.864 477.191
3628 0 83.1872 12.5019 1040 119.711 486.564 474.872
3629 0 85.1541 11.9078 1014 120.485 487.222 473.573
3630 0 90.1251 13.4036 1208 114.936 486.434 468.34
3631 1 47.0171 9.82622 462 111.273 486.4 492.777
3632 0 47.0956 13.3346 628 110.296 487.078 491.068
3633 0 46.1256 11.0568 510 117.847 487.373 489.222
3634 0 50.0646 12.5837 630 111.779 486.805 490.695
3635 0 51.0431 12.3817 632 112.362 486.174 488.646
3636 0 53.0574 12.5901 668 111.527 486.484 487.266
3637 0 56.0634 12.3253 691 109.653 486.993 487.427
3638 0 58.0744 11.623 675 110.976 486.31 486.36
3639 0 58.0968 12.1693 707 110.216 485.529 486.905
3640 0 60.0707 12.0358 723 110.758 485.9 485.456
3641 0 62.0567 12.5853 781 108.951 486.106 483.283
3642 0 63.062 11.0209 695 113.564 486.304 482.296
3643 0 68.0952 12.9231 880 107.217 486.609 482.132
3644 0 68.0486 12.9613 882 107.921 486.476 482.009
3645 0 70.0703 13.2153 926 108.355 486.24 481.377
3646 0 74.1263 12.6271 936 109.09 485.831 479.574
3647 0 75.1127 11.7956 886 106.944 486.847 476.385
3648 0 75.2479 11.11 836 107.907 486.926 470.554
3649 0 80.1773 12.2104 979 106.336 486.898 467.723
3650 0 83.1942 11.1787 930 108.462 486.558 464.727
3651 0 85.1292 12.9803 1105 107.691 487.092 466.651
3652 1 42.0311 11.0156 463 114.134 485.564 489.313
3653 0 44.3232 10.2429 454 116.945 486.463 484.284
3654 0 44.2233 10.0852 446 117.341 486.635 483.8
3655 0 49.2149 11.5412 568 103.349 487.144 486.319
3656 0 50.1852 10.0029 502 107.988 487.309 486.942
3657 0 51.1495 10.831 554 107.097 486.731 483.998
3658 0 53.1241 10.6731 567 106.966 487.275 486.771
3659 0 56.1644 11.6266 653 105.522 487.09 484.26
3660 0 57.1475 11.0416 631 107.371 487.063 482.179
3661 0 59.1496 11.8175 699 105.582 486.748 481.288
3662 0 60.1082 11.263 677 107.805 486.653 480.267
3663 0 63.0781 11.3193 714 108.053 486.422 477.648
3664 0 65.1741 12.5817 820 106.156 486.468 478.572
3665 0 67.112 12.8293 861 106.05 486.177 476.481
3666 0 67.1157 12.1879 818 108.676 486.427 475.392
3667 0 72.1786 12.5245 904 105.716 485.537 478.794
3668 0 75.0435 12.6726 951 105.897 485.833 475.744
3669 0 78.0589 12.2087 953 106.387 485.491 476.893
3670 0 80.2127 12.6663 1016 105.845 486.108 473.569
3671 0 83.0539 11.8598 985 108.284 485.822 471.397
3672 0 86.1205 12.6102 1086 106.551 485.74 471.583
3673 0 89.0888 13.2228 1178 105.957 486.194 470.271
3674 0 92.1178 12.712 1171 107.662 486.199 468.705
3675 0 92.113 11.2362 1035 111.667 486.058 466.55
3676 0 98.2664 13.4125 1318 119.442 485.219 467.969
3677 1 49.109 11.0774 544 118.039 485.377 491.272
3678 0 52.2563 11.9411 624 114.881 485.279 486.585
3679 0 50.1388 9.95238 499 112.747 485.269 482.701
3680 0 51.0355 10.5809 540 105.461 485.456 484.098
3681 0 56.1483 9.74206 547 106.245 485.338 483.126
3682 0 57.0212 10.9433 624 103.449 485.28 482.207
3683 0 60.2109 11.5594 696 102.48 484.912 480.246
3684 0 61.24 12.0836 740 101.827 485.141 481.474
3685 0 64.0953 10.8276 694 105.192 484.509 478.578
3686 0 65.1127 10.6124 691 107.113 484.379 478.074
3687 0 65.1065 10.5673 688 119.058 484.379 478.07
3688 0 69.071 11.5678 799 107.905 484.254 475.105
3689 0 72.1024 11.1924 807 109.069 484.255 474.165
3690 0 74.1276 11.4262 847 108.746 484.378 472.854
3691 0 77.1158 12.7471 983 107.447 484.947 472.127
3692 0 79.0419 11.3358 896 111.667 484.004 470.99
3693 0 81.0945 12.2326 992 110.429 483.804 471.417
3694 0 83.0888 12.0233 999 111.8 484.416 469.997
3695 0 83.1306 9.74371 810 119.2 484.544 467.747
3696 0 86.1378 11.2146 966 118.093 483.955 468.842
3697 0 90.1172 10.5085 947 124.775 484.258 468.786
3698 0 90.0886 10.9448 986 121.199 484.037 462.025
3699 0 96.1203 12.0162 1155 118.098 484.203 462.269
3700 0 98.0773 10.7466 1054 121.363 483.794 460.986
3701 0 103.049 12.7221 1311 115.899 483.821 459.31
3702 0 106.11 12.1666 1291 116.166 483.917 454.569
3703 0 109.057 12.9657 1414 116.504 484.039 451.737
3704 0 115.326 11.4285 1318 120.758 484.032 447.342
3705 0 118.263 11.8803 1405 119.3 483.85 451.357
3706 0 122.216 12.2652 1499 117.981 483.742 451.452
3707 1 63.066 11.1312 702 115.302 483.437 478.699
3708 0 67.05 11.4541 768 115.727 484.395 476.732
3709 0 67.0614 10.1847 683 118.151 484.246 475.505
3710 0 71.1319 9.92522 706 111.34 484.113 477.161
3711 0 71.0484 9.95097 707 113.167 484.707 473.847
3712 0 78.1034 11.7921 921 108.268 484.939 475.213
3713 0 81.1014 12.1083 982 108.124 484.852 475.117
3714 0 81.1326 11.056 897 112.781 484.817 473.266
3715 0 84.1028 11.5097 968 111.54 484.619 474.402
3716 0 89.1716 12.1339 1082 109.685 485.024 472.831
3717 0 88.1227 11.0187 971 116.049 485.033 469.373
3718 0 91.1321 10.8304 987 116.769 484.918 467.389
3719 0 97.168 12.7202 1236 112.233 484.799 464.422
3720 0 100.202 12.6045 1263 113.493 484.268 463.029
3721 0 103.239 12.563 1297 113.686 484.374 461.354
3722 1 54.0522 10.6194 574 107.005 484.479 486.774
3723 0 53.1332 9.74907 518 112.515 484.568 484.944
3724 0 56.1254 11.0467 620 108.237 484.36 484.148
3725 0 60.1115 11.4953 691 105.793 484.318 484.842
3726 0 59.125 12.7188 752 105.396 484.269 481.559
3727 0 62.2221 10.7679 670 109.391 484.451 481.834
3728 0 64.08 10.7678 690 109.323 485.262 481.18
3729 0 67.1431 10.6191 713 110.54 485.229 478.269
3730 0 68.1215 11.5235 785 109.536 484.631 478.38
3731 0 70.0849 11.8713 832 110.514 484.796 473.774
3732 0 73.1402 12.893 943 108.739 485.081 474.043
3733 0 74.1293 11.0752 821 113.635 485.179 474.971
3734 0 79.1006 12.0227 951 111.763 484.744 474.97
3735 0 80.2653 11.2751 905 112.253 485.141 470.909
3736 0 82.2251 12.405 1020 110.372 485.436 469.331
3737 0 85.1473 11.7209 998 113.545 485.004 464.798
3738 0 91.2121 11.8844 1084 113.475 485.077 465.174
3739 1 43.1469 10.0123 432 109.248 484.449 489.169
3740 0 45.0546 11.9411 538 110.366 484.485 490.257
3741 0 46.0332 11.3179 521 112.985 485.827 494.035
3742 0 47.2428 12.5522 593 111.88 484.137 489.922
3743 0 47.0425 12.4568 586 111.515 483.961 491.27
3744 0 49.124 13.9647 686 109.079 484.398 489.048
3745 0 49.0703 12.4515 611 113.177 484.453 487.101
3746 0 53.1571 12.5477 667 111.847 484.808 485.715
3747 0 56.0752 14.2487 799 105.946 485.153 486.293
3748 0 56.1432 12.5572 705 111.965 484.448 486.203
3749 0 57.033 12.5366 715 111.87 484.959 485.285
3750 0 60.0805 13.2156 794 109.995 484.84 483.885
3751 0 59.0827 13.388 791 111.033 484.541 484.067
3752 0 63.1005 14.2154 897 107.815 485.324 481.876
3753 0 64.0218 12.6051 807 112.677 485.462 482.342
3754 0 63.039 11.9608 754 117.256 485.042 479.956
3755 0 68.0417 13.624 927 111.67 485.235 479.632
3756 0 69.1489 13.5649 938 112.773 485.883 477.862
3757 0 72.032 14.1326 1018 111.118 485.729 477.154
3758 0 73.1302 12.9222 945 115.675 486.346 477.748
3759 0 76.2021 12.7424 971 116.474 486.14 474.316
3760 0 77.0566 13.5225 1042 116.226 486.601 475.712
3761 0 80.1206 13.1053 1050 117.682 486.217 472.765
3762 0 83.0963 13.0451 1084 117.991 486.577 471.703
3763 0 85.1168 13.9338 1186 116.275 486.728 469.987
3764 0 85.0487 12.7339 1083 120.851 487.148 470.373
3765 0 89.0859 12.5272 1116 120.592 486.889 469.316
3766 0 92.1779 12.8339 1183 121.524 486.545 467.127
3767 0 93.0438 12.1771 1133 122.513 486.365 468.353
3768 0 97.1103 12.6248 1226 120.5 487.396 466.15
3769 0 101.109 12.5706 1271 122.11 486.67 464.768
3770 0 103.095 12.6195 1301 121.715 486.846 461.846
3771 1 54.0626 10.4323 564 126.644 486.037 485.014
3772 0 58.0539 12.7984 743 119.53 485.883 484.748
3773 0 60.0961 12.5299 753 120.542 485.728 482.268
3774 0 63.1876 12.8031 809 119.513 486.426 480.87
3775 0 67.1374 12.9883 872 117.636 486.318 480.54
3776 0 67.1088 12.9938 872 117.963 486.611 479.975
3777 0 71.0591 12.9329 919 118.161 486.436 474.731
3778 0 73.1591 13.4638 985 115.942 485.887 478.415
3779 0 76.119 13.2556 1009 116.307 485.857 475.737
3780 0 76.2049 13.0832 997 120.756 486.34 474.989
3781 0 81.2403 12.6908 1031 122.019 486.356 472.296
3782 0 83.1736 13.4177 1116 119.955 486.263 471.631
3783 0 86.1975 12.0769 1041 122.485 486.575 472.614
3784 0 90.2032 13.4031 1209 119.426 486.804 468.897
3785 1 47.064 11.0913 522 117.416 486.693 490.967
3786 0 49.4205 12.9096 638 112.85 487.961 485.82
3787 0 49.1571 12.0837 594 109.17 488.894 485.796
3788 0 49.1109 11.8507 582 110.804 489.163 488.041
3789 0 53.0839 11.7361 623 110.225 489.039 485.597
3790 0 53.1146 11.4658 609 112.583 489.099 485.649
3791 0 55.0815 13.4346 740 108.212 488.504 484.203
3792 0 56.0549 13.1478 737 109.767 489.092 483.357
3793 0 58.0871 13.2732 771 109.643 489.872 482.428
3794 0 59.0771 11.8489 700 114.286 488.986 483.316
3795 0 62.0614 13.8089 857 108.462 488.935 482.79
3796 0 65.0866 14.473 942 107.167 488.956 481.373
3797 0 67.0798 13.9386 935 108.637 489.028 479.64
3798 0 68.0688 13.6773 931 111.186 489.06 479.905
3799 0 70.0566 13.0751 916 112.931 488.845 478.564
3800 0 72.0721 13.653 984 111.918 488.446 477.535
3801 0 74.1384 12.5711 932 114.929 488.305 473.998
3802 0 79.1322 14.4063 1140 107.821 488.789 475.505
3803 0 81.1058 14.0804 1142 109.638 488.51 473.665
3804 0 84.1092 13.9343 1172 109.864 488.653 472.282
3805 0 86.0839 14.451 1244 109.439 489.033 468.445
3806 0 90.0984 14.2955 1288 108.562 488.352 468.928
3807 1 42.0268 11.7544 494 113.457 489.5 490.652
3808 0 44.1018 13.0607 576 110.753 489.545 488.448
3809 0 44.0695 12.571 554 114.04 486.93 487.529
3810 0 47.1018 12.7384 600 114.478 487.34 490.622
3811 0 48.1673 12.3735 596 117.156 487.493 490.208
3812 0 50.206 11.9906 602 117.452 487.287 490.118
3813 0 51.1307 12.6343 646 116.533 487.193 489.469
3814 0 53.306 13.3569 712 115.42 487.039 486.268
3815 0 55.2572 13.0481 721 114.614 487.774 487.333
3816 0 56.6376 12.8713 729 114.981 487.311 485.096
3817 0 59.4315 14.0161 833 110.605 486.58 485.639
3818 0 60.4915 13.9358 843 112.038 487.025 481.286
3819 0 63.6914 13.2357 843 112.68 486.9 481.431
3820 0 65.3991 12.4619 815 113.929 487.134 482.517
3821 0 66.5177 12.6132 839 113.918 487.058 479.391
3822 0 67.4861 11.9136 804 114.715 487.422 479.495
3823 0 71.5159 13.3257 953 110.1 487.336 476.772
3824 0 73.4456 13.139 965 110.142 487.196 473.402
3825 0 75.4528 12.5376 946 108.839 487.503 475.878
3826 0 77.1743 11.325 874 106.287 487.743 476.8
3827 0 81.1195 12.5247 1016 102.565 487.315 477.194
3828 0 81.2691 10.5575 858 108.246 487.544 471.168
3829 1 42.2615 11.3579 480 102.769 487.973 486.429
3830 0 44.4799 10.5666 470 102.36 488.089 486.719
3831 0 48.1975 12.6355 609 97.4647 487.677 487.424
3832 0 46.2879 10.2619 475 103.133 488.042 490.968
3833 0 48.0383 10.3667 498 101.386 488.12 492.277
3834 0 50.1754 11.3004 567 101.314 487.981 489.642
3835 0 52.191 11.7453 613 99.7569 487.835 489.274
3836 0 53.2407 11.2696 600 100.137 487.213 488.42
3837 0 55.0798 12.5999 694 97.536 487.611 488.228
3838 0 56.0969 10.7671 604 102.579 487.954 486.56
3839 0 61.2913 11.3719 697 99.637 487.75 485.187
3840 0 62.2039 11.3498 706 99 487.754 485.81
3841 0 64.1763 13.4941 866 95.5231 487.701 484.102
3842 0 67.2627 12.414 835 97.6731 488.182 484.056
3843 0 69.1784 12.8942 892 97.9226 487.697 479.396
3844 0 71.2413 13.349 951 97.5089 488.291 478.367
3845 0 73.4569 12.3474 907 99.9239 487.678 477.544
3846 0 74.2173 11.7628 873 102.663 488.416 474.552
3847 0 77.2723 12.4754 964 100.34 488.282 474.609
3848 0 79.1002 11.3148 895 100.739 488.646 472.027
3849 0 84.1983 12.2449 1031 96.8681 488.329 469.284
3850 0 86.1566 11.3979 982 98.5092 488.591 468.147
3851 0 89.1387 11.5101 1026 98.5712 487.821 466.294
3852 0 93.1595 11.3891 1061 100.292 488.119 468.156
3853 0 97.4833 12.2482 1194 98.1834 488.291 464.202
3854 1 49.1211 9.09996 447 97.9083 488.805 486.557
3855 0 52.112 11.0339 575 96.5913 488.703 485.965
3856 0 54.181 12.2368 663 93.7873 487.772 484.519
3857 0 57.2277 11.6377 666 93.9309 488.005 485.263
3858 0 59.1298 11.2633 666 94.455 488.071 485.734
3859 0 60.1023 13.8764 834 89.1559 488.277 484.463
3860 0 63.1695 12.696 802 91.5761 487.662 483.858
3861 0 62.1926 10.773 670 95.4493 487.49 483.097
3862 0 65.1559 13.1991 860 90.586 487.837 481.927
3863 0 67.145 11.8252 794 92.6688 487.708 479.715
3864 0 68.2007 12.5365 855 92.8924 487.759 476.745
3865 0 72.309 12.3774 895 92.4156 487.664 478.125
3866 0 74.1775 12.2139 906 92.5861 487.254 477.407
3867 0 76.1537 11.5424 879 94.8407 487.423 474.537
3868 0 78.2818 12.1995 955 94.5948 487.336 471.619
3869 0 80.1535 13.05 1046 93.086 487.224 470.815
3870 0 84.1778 12.0459 1014 94.7811 487.179 471.853
3871 0 87.2601 13.4999 1178 92.4151 487.048 471.021
3872 0 88.2571 11.7384 1036 97.3678 486.989 469.03
3873 0 93.1839 13.1353 1224 95.223 486.803 465.277
3874 0 94.1569 11.9481 1125 97.8018 487.275 465.413
3875 0 97.1954 12.3874 1204 100.281 486.255 463.523
3876 0 103.154 13.349 1377 96.5839 487.269 460.421
3877 1 52.0769 11.2526 586 95.1485 487.826 487.823
3878 0 54.2007 10.9039 591 95.7665 487.404 486.257
3879 0 54.1765 11.4625 621 96.3414 487.866 485.444
3880 0 57.2715 13.3225 763 99.0485 487.68 483.509
3881 0 59.2264 12.6802 751 100.943 487.357 485.214
3882 0 61.2924 14.1127 865 98.6312 486.776 481.671
3883 0 62.3154 13.4798 840 100.3 486.863 480.989
3884 0 64.2126 12.443 799 103.466 486.3 479.332
3885 0 68.2737 13.5777 927 100.698 487.255 480.202
3886 0 68.2242 12.7228 868 104.376 487.109 479.802
3887 0 70.1488 12.8441 901 105.613 488.15 479.393
3888 0 69.1479 11.8008 816 110.566 488.333 477.488
3889 0 75.0839 13.7047 1029 105.024 488.304 477.379
3890 0 78.2633 13.5312 1059 104.785 488.492 478.365
3891 0 78.2032 12.6465 989 108.522 487.944 476.427
3892 0 83.2798 14.8055 1233 103.733 487.912 473.688
3893 0 85.1685 13.7375 1170 105.897 487.585 474.016
3894 0 87.2819 13.2674 1158 108.025 487.879 472.048
3895 0 91.1221 13.3557 1217 107.806 487.406 471.208
3896 0 92.2018 12.9499 1194 107.47 487.972 471.254
3897 0 96.1562 13.0101 1251 107.417 487.616 469.374
3898 0 97.156 11.9293 1159 109.823 487.077 467.002
3899 0 100.154 11.7019 1172 108.337 486.847 466.904
3900 1 56.0465 10.8838 610 105.862 487.015 487.248
3901 0 57.0543 12.9701 740 102.961 487.719 489.062
3902 0 57.0549 12.1988 696 105.69 488.076 486.774
3903 0 62.1505 12.8881 801 103.772 487.934 485.199
3904 0 63.0412 13.2294 834 103.823 487.993 484.552
3905 0 65.0633 14.3399 933 101.582 488.224 482.18
3906 0 65.0567 13.0809 851 105.685 487.774 479.675
3907 0 68.0964 13.5984 926 104.013 487.782 481.123
3908 0 70.0184 13.9535 977 103.461 488.138 480.316
3909 0 73.0667 12.7692 933 105.895 487.745 480.851
3910 0 74.0752 12.8923 955 105.668 488.353 478.284
3911 0 79.0925 13.7055 1084 102.238 488.361 477.456
3912 0 81.1091 14.1414 1147 102.384 487.965 475.928
3913 0 83.0686 12.3753 1028 105.574 488.196 475.47
3914 0 85.0529 12.3335 1049 105.415 488.212 475.55
3915 0 86.0781 12.6397 1088 105.725 488.133 472.851
3916 0 87.0511 13.1302 1143 105.894 486.967 470.646
3917 0 90.0935 13.0642 1177 104.88 486.989 471.423
3918 0 93.1779 12.0737 1125 106.415 486.769 468.247
3919 0 96.0991 12.5391 1205 104.315 487.085 467.934
3920 0 98.0716 12.2258 1199 104.924 486.847 468.498
3921 0 103.104 11.9588 1233 105.743 486.195 464.737
3922 0 108.171 12.7761 1382 103.237 486.102 463.063
3923 1 54.0821 12.1482 657 99.379 487.213 488.342
3924 0 55.147 12.1131 668 100.096 487.049 488.325
3925 0 59.0623 13.3926 791 93.2718 486.871 487.818
3926 0 59.0568 11.8191 698 96.7951 486.792 486.354
3927 0 59.0296 12.5022 738 97.3645 486.629 485.134
3928 0 63.0822 13.1099 827 95.4474 486.351 484.097
3929 0 65.0535 11.5751 753 98.5936 486.421 483.918
3930 0 69.1571 12.7246 880 96.3068 486.135 482.723
3931 0 73.1168 14.3059 1046 92.1424 486.25 481.793
3932 0 72.0918 12.3454 890 102.076 486.219 480.448
3933 0 76.0393 13.1379 999 102.107 486.313 480.973
3934 0 78.0998 12.7017 992 104.761 486.214 477.069
3935 0 81.1231 13.9048 1128 102.546 486.107 475.649
3936 0 84.1457 13.3697 1125 105.895 486.417 473.535
3937 0 89.0919 13.7162 1222 103.596 486.291 474.391
3938 0 91.0603 14.1225 1286 103.854 485.959 471.28
3939 0 94.1411 13.8834 1307 104.644 486.272 471.037
3940 0 95.0848 13.2198 1257 107.862 486.234 466.372
3941 0 101.097 13.5117 1366 105.998 486.187 466.78
3942 0 104.162 11.6645 1215 109.646 485.69 467.78
3943 0 107.109 12.6973 1360 102.69 485.251 464.129
3944 1 54.0904 12.0354 651 100.092 483.937 489.923
3945 0 53.0592 11.8924 631 102.487 483.821 489.805
