time division length width area intensity CMx CMy
0 0 33.0409 12.8023 423 156.714 122.447 487.693
1 0 33.0882 13.2676 439 157.285 122.715 487.784
2 0 33.0502 13.4038 443 156.345 123.169 487.393
3 0 31.017 13.4442 417 158.59 123.281 487.823
4 0 34.0088 13.7024 466 153.457 124.124 488.427
5 0 34.0283 12.8423 437 159.721 124.231 486.7
6 0 35.0439 14.1537 496 151.944 124.238 487.47
7 0 37.0431 13.4708 499 151.934 123.878 486.942
8 0 37.0265 12.6936 470 155.389 123.202 486.317
9 0 38.0413 13.5379 515 152.724 122.761 486.295
10 0 39.0558 12.7254 497 155.541 122.948 486.3
11 0 41.0535 13.6895 562 150.762 123.212 487.288
12 0 39.0251 13.786 538 155.1 123.024 485.52
13 0 39.0127 13.7648 537 156.168 123.052 485.553
14 0 42.0862 13.0209 548 156.482 122.843 486.365
15 0 43.111 13.616 587 155.061 122.276 484.731
16 0 43.0347 13.7099 590 155.031 122.661 486.139
17 0 45.0482 12.9417 583 157.148 122.545 485.969
18 0 46.0382 12.9892 598 156.338 121.701 484.916
19 0 50.0346 13.6705 684 150.352 122.348 485.091
20 0 50.0388 13.3296 667 153.375 122.151 483.415
21 0 53.0406 13.5368 718 151.045 121.358 483.368
22 0 55.0623 14.3837 792 145.549 121.192 483.395
23 0 55.0943 13.5404 746 149.394 120.394 483.083
24 0 55.0359 13.3004 732 152.001 120.583 482.678
25 0 57.1267 13.4963 771 151.508 120.361 481.724
26 0 59.0372 13.1104 774 151.271 120.005 482.592
27 0 63.039 14.6417 923 144.614 120.264 481.104
28 0 66.05 14.2468 941 145.707 120.024 479.549
29 0 66.1672 13.1787 872 151.12 119.358 477.603
30 0 69.1026 13.5161 934 149.522 119.294 476.91
31 0 71.0883 13.223 940 148.276 118.848 476.563
32 0 74.1824 13.5881 1008 145.872 119.215 475.549
33 0 77.1522 13.1299 1013 145.485 118.503 474.323
34 1 44.1661 13.7209 606 143.134 118.624 489.573
35 0 43.2184 13.4896 583 144.654 118.784 489.268
36 0 45.1334 13.8478 625 143.333 118.752 488.09
37 0 45.1096 13.7 618 136.738 119.903 488.971
38 0 46.1165 12.7503 588 139.617 119.653 487.942
39 0 48.0763 12.1058 582 139.318 119.433 488.485
40 0 49.1084 12.7473 626 138.081 119.708 487.083
41 0 52.2083 13.5994 710 133.62 119.79 486.234
42 0 53.1028 12.8995 685 135.042 119.672 485.822
43 0 57.0467 13.971 797 130.419 119.413 484.464
44 0 58.109 13.1649 765 131.576 119.187 483.267
45 0 60.0678 14.4836 870 126.8 119.116 482.318
46 0 62.031 13.59 843 129.407 118.696 481.523
47 0 64.0943 13.2461 849 129.168 118.143 481.141
48 0 65.0764 13.8606 902 129.161 118.713 478.758
49 0 70.0969 13.7096 961 127.211 119.162 478.792
50 0 72.0405 13.9782 1007 127.632 118.794 477.899
51 0 74.1313 13.9078 1031 127.434 118.768 476.893
52 0 77.1327 12.8739 993 129.486 119.132 476.278
53 0 81.0911 13.232 1073 127.672 119.213 475.607
54 0 83.1732 13.9709 1162 128.305 119.018 471.997
55 0 87.141 14.1724 1235 128.546 118.726 470.005
56 0 91.138 13.9569 1272 129.73 118.933 470.135
57 0 95.0834 13.2305 1258 134.527 119.683 467.727
58 0 96.2623 13.0685 1258 136.3 119.006 465.171
59 1 51.0449 12.6555 646 128.83 118.961 489.954
60 0 53.0872 12.9033 685 131.454 119.172 485.847
61 0 56.0895 14.1738 795 129.374 118.669 486.961
62 0 58.241 14.2168 828 136.673 119.229 484.679
63 0 58.1042 13.6823 795 138.035 119.319 484.254
64 0 63.0818 13.6489 861 137.419 119.087 484.184
65 0 62.1606 13.8995 864 139.878 118.819 482.148
66 0 63.1176 14.069 888 137.909 118.524 482.193
67 0 67.131 14.2706 958 136.662 118.897 480.446
68 0 69.1073 14.4702 1000 135.17 118.54 478.498
69 0 73.0913 14.9539 1093 133.037 118.239 477.275
70 0 73.1289 13.9069 1017 136.622 118.52 478.166
71 0 76.1392 13.9613 1063 137.471 118.274 475.29
72 0 79.1631 14.4006 1140 135.825 118.67 476.069
73 0 80.2839 13.39 1075 139.806 118.817 473.743
74 0 85.1011 14.8177 1261 134.62 118.74 472.608
75 0 87.1475 13.6321 1188 139.184 118.709 469.951
76 0 89.1534 13.617 1214 140.36 118.367 469.381
77 0 94.2085 14.2556 1343 137.133 118.57 468.415
78 0 97.2661 13.4374 1307 139.534 118.393 466.652
79 0 100.185 13.3752 1340 139.637 118.166 465.987
80 1 49.0693 11.3105 555 142.193 117.894 488.148
81 0 51.0911 12.6245 645 137.197 118.409 488.784
82 0 53.1656 13.2228 703 137.095 118.23 486.99
83 0 54.0787 13.0181 704 135.595 118.906 486.534
84 0 55.1339 13.2224 729 135.273 118.106 486.735
85 0 59.0387 13.8892 820 132.494 118.262 485.377
86 0 60.0642 13.0694 785 135.376 117.378 485.307
87 0 59.1645 13.0991 775 136.924 117.763 483.406
88 0 64.0641 14.4699 927 133.538 117.261 481.912
89 0 66.0517 14.1556 935 133.753 117.001 481.321
90 0 68.1425 13.6626 931 135.001 117.111 480.608
91 0 71.0438 13.8365 983 133.802 117.055 480.772
92 0 70.1363 12.9177 906 139.902 117.704 476.669
93 0 76.0712 14.5522 1107 133.672 116.349 476.434
94 0 78.0893 14.2785 1115 135.637 116.163 474.516
95 0 79.1185 14.3456 1135 135.627 116.581 472.339
96 0 80.1386 12.8153 1027 140.012 116.467 471.53
97 0 85.1563 14.5615 1240 133.968 116.688 471.317
98 0 86.1009 13.4958 1162 136.314 116.574 469.464
99 0 89.1494 13.9317 1242 134.848 116.892 466.241
100 0 93.1929 14.3681 1339 132.677 117.488 463.938
101 0 96.1916 14.1904 1365 132.983 116.728 459.831
102 0 100.148 14.0691 1409 132.925 116.87 460.055
103 0 103.235 14.2781 1474 133.288 117.159 455.216
104 0 105.195 13.0709 1375 137.407 116.392 451.641
105 0 110.345 12.905 1424 135.752 116.605 454.114
106 0 118.15 13.9568 1649 132.59 116.725 452.669
107 1 61.1673 11.1171 680 132.312 116.796 478.449
108 0 66.0809 12.8328 848 133.303 116.552 482.364
109 0 70.0529 12.2907 861 137.288 115.878 480.487
110 0 73.0816 13.4507 983 134.159 114.719 478.31
111 0 74.064 13.1373 973 135.138 115.457 477.707
112 0 76.0311 12.7053 966 138.966 115.598 478.149
113 0 79.0526 13.0799 1034 137.964 114.336 474.254
114 0 81.1124 11.8478 961 141.066 115.305 476.271
115 0 86.0731 13.8022 1188 135.476 115.495 474.013
116 0 89.0995 14.0068 1248 135.495 115.542 470.243
117 0 91.053 14.2884 1301 135.885 115.44 468.724
118 0 94.1172 13.8976 1308 135.874 115.33 468.396
119 0 97.0942 13.4715 1308 137.782 116.203 467.082
120 0 100.044 13.8638 1387 135.655 114.992 465.163
121 0 103.068 14.6797 1513 134.66 114.741 461.946
122 0 105.218 13.3437 1404 138.034 115.92 461.508
123 0 112.26 13.4153 1506 133.588 115.133 460.475
124 0 114.286 13.23 1512 133.908 115.638 458.808
125 0 119.232 13.4612 1605 135.978 115.213 454.156
126 0 124.277 13.5504 1684 134.849 114.553 453.919
127 1 64.1688 11.0022 706 132.823 114.612 481.877
128 0 63.1641 11.383 719 132.288 114.421 478.488
129 0 67.2093 12.3941 833 129.132 114.647 480.511
130 0 69.0565 11.9178 823 123.081 115.141 479.762
131 0 74.0952 12.9428 959 125.943 114.9 478.553
132 0 74.0535 11.3837 843 131.076 115.254 478.503
133 0 77.1462 12.6772 978 128.625 115.239 475.565
134 0 79.1957 11.4653 908 135.691 115.6 474.54
135 0 83.0791 12.9876 1079 129.166 115.053 472.836
136 0 84.1427 11.5399 971 133.671 115.438 472.258
137 0 86.2282 11.9219 1028 133.979 115.274 470.645
138 0 90.1419 12.3361 1112 132.325 115.436 470.258
139 0 94.1542 12.3946 1167 131.767 115.572 467.206
140 0 98.1487 11.8086 1159 131.731 116.077 466.265
141 0 99.1426 13.1225 1301 129.011 115.651 466.434
142 0 104.169 12.1341 1264 131.593 115.43 463.168
143 0 105.136 12.365 1300 133.34 114.893 459.539
144 0 110.105 13.2873 1463 130.88 115.792 457.739
145 0 112.2 13.3601 1499 129.562 115.315 459.8
146 0 116.102 13.2298 1536 131.834 115.185 454.4
147 0 120.165 12.7658 1534 129.494 114.071 451.953
148 0 124.119 13.2857 1649 130.458 115.11 450.977
149 0 128.18 13.5513 1737 129.245 114.98 448.159
150 0 133.162 13.1944 1757 126.711 115.683 448.523
151 0 136.198 12.9517 1764 126.63 115.693 443.899
152 0 140.196 12.4968 1752 127.322 116.032 443.996
153 0 145.203 13.6154 1977 123.209 116.382 439.13
154 0 148.181 12.8491 1904 125.739 116.614 440.061
155 0 155.17 12.7279 1975 126.053 116.912 437.389
156 0 159.225 13.9049 2214 124.505 116.503 434.252
157 0 166.26 13.6353 2267 125.537 117.825 432.382
158 0 168.196 13.5913 2286 126.691 116.803 428.773
159 0 175.263 14.8063 2595 123.922 117.012 424.414
160 0 180.277 13.4903 2432 128.899 117.534 424.528
161 0 186.245 13.9924 2606 125.66 116.944 423.221
162 0 192.307 14.3469 2759 124.668 116.406 419.119
163 0 196.296 15.2932 3002 122.27 115.943 416.85
164 0 202.273 15.0836 3051 122.145 116.371 413.208
165 0 210.337 16.0409 3374 121.109 116.282 405.218
166 0 213.246 13.8244 2948 127.741 116.297 405.507
167 0 221.283 14.7413 3262 126.376 115.798 398.47
168 0 230.403 14.939 3442 125.009 116.073 396.831
169 0 239.405 14.9537 3580 124.849 116.272 393.744
170 0 245.374 14.9201 3661 125.679 116.467 385.331
171 0 254.409 15.0191 3821 124.537 117.025 382.055
172 1 193.319 11.406 2205 132.345 116.519 419.238
173 0 203.296 14.5158 2951 126.729 116.564 407.951
174 0 206.247 13.4935 2783 130.942 116.615 400.608
175 0 213.46 14.3165 3056 129.548 117.345 398.217
176 0 219.299 13.2969 2916 132.702 117.001 388.794
177 0 230.368 13.257 3054 132.734 116.822 389.383
178 0 239.402 14.9915 3589 130.76 117.516 386.48
179 0 246.244 14.6359 3604 131.912 116.679 379.769
180 1 59.1939 10.3051 610 106.877 116.843 476.884
181 0 62.1971 10.9812 683 121.51 116.796 478.654
182 0 63.2316 10.3746 656 125.134 115.873 477.329
183 0 67.1557 13.4166 901 116.314 116.232 478.771
184 0 69.1104 11.2718 779 117.366 115.932 479.561
185 0 69.075 10.742 742 122.336 115.78 476.985
186 0 74.2222 12.5569 932 117.858 114.828 471.992
187 0 76.1307 12.0582 918 120.142 114.926 472.936
188 0 77.1065 11.1534 860 116.033 116.608 474.269
189 0 82.1177 11.5079 945 119.707 116.72 472.383
190 1 47.0693 9.96404 469 109.768 114.505 491.676
191 0 48.021 11.9323 573 107.885 114.827 489.091
192 0 49.0894 10.7151 526 116.169 114.51 487.15
193 0 50.0822 10.0036 501 118.673 114.719 487.182
194 0 51.0774 10.2394 523 118.38 114.547 486.916
195 0 53.0798 9.8154 521 118.793 115.188 484.916
196 0 56.1024 9.55396 536 118.72 115.332 485.334
197 0 57.0132 10.3309 589 117.151 114.728 484.669
198 0 59.0949 10.9146 645 115.371 115.688 482.171
199 0 60.0866 11.5999 697 113.732 115.27 480.066
200 0 58.0776 9.5734 556 110.403 117.477 483.14
201 0 61.0685 10.218 624 107.792 116.779 481.112
202 0 65.1138 11.549 752 107.964 118.08 479.891
203 0 67.1147 11.3537 762 108.135 118.098 478.6
204 0 67.0632 9.73708 653 110.81 117.855 480.384
205 0 71.0892 11.5207 819 106.802 117.689 478.602
206 0 71.1863 10.03 714 111.216 118.032 476.761
207 0 73.1664 10.2096 747 108.364 118.214 476.448
208 0 75.1412 12.0972 909 107.036 117.642 474.915
209 0 76.0887 11.5654 880 104.015 117.848 476.983
210 0 78.0797 11.9365 932 104.091 118.281 475.648
211 0 81.1395 10.8455 880 107.18 117.912 472.488
212 0 84.1666 11.6436 980 109.111 118.205 471.258
213 0 85.3001 11.9695 1021 109.123 117.893 469.395
214 0 89.3149 12.4391 1111 108.561 117.534 467.177
215 0 93.2939 12.2516 1143 109.381 117.817 465.987
216 1 51.1945 10.1183 518 112.651 117.643 483.994
217 0 54.2282 12.1524 659 98.4674 116.153 485.819
218 0 55.066 12.7483 702 99.7236 115.772 483.996
219 0 55.1192 11.72 646 104.927 115.466 483.872
220 0 56.11 11.923 669 103.786 115.504 485.021
221 0 60.1676 12.0829 727 104.425 115.336 484.116
222 0 60.0939 12.364 743 106.499 114.836 483.291
223 0 61.1596 11.9523 731 108.943 114.592 483.196
224 0 62.1238 10.4952 652 112.676 115.04 483.425
225 0 64.1323 12.3495 792 111.027 114.88 481.96
226 0 64.0475 11.9443 765 113.575 115.234 479.825
227 0 67.0771 11.6582 782 114.724 114.56 478.616
228 0 67.0743 11.614 779 115.935 114.474 479.105
229 0 72.0864 12.5266 903 113.121 114.992 478.623
230 0 73.0643 12.9886 949 113.444 114.868 476.533
231 0 77.1493 12.7934 987 112.713 115.487 475.147
232 0 78.037 11.2895 881 116.435 115.771 476.549
233 0 81.0444 12.1538 985 114.067 116.607 475.574
234 0 85.1057 13.0661 1112 114.626 115.751 471.195
235 0 85.0951 12.1394 1033 118.074 115.64 469.874
236 0 90.1423 11.8923 1072 115.191 116.747 470.667
237 0 93.1728 11.6772 1088 116.684 115.628 464.653
238 1 51.066 10.4179 532 114.742 115.59 487.314
239 0 53.1828 10.8118 575 110.146 118.609 486.464
240 0 54.0385 10.6036 573 112.092 118.288 485.885
241 0 54.0629 10.7837 583 112.52 116.666 485.429
242 0 54.1416 10.0108 542 113.076 116.74 485.875
243 0 58.1451 10.6974 622 110.529 116.64 484.696
244 0 61.2185 11.4671 702 108.318 117.113 482.024
245 0 62.1197 11.832 735 107.333 117.703 480.648
246 0 62.2463 11.3099 704 109.668 117.773 481.553
247 0 64.2044 12.1331 779 107.533 117.417 478.198
248 0 67.1526 11.9727 804 108.28 117.928 477.556
249 0 69.0872 11.6375 804 108.342 117.708 477.755
250 0 73.1159 11.8442 866 108.017 118.13 475.85
251 0 76.1605 11.8434 902 107.748 117.827 477.407
252 0 76.1006 11.0249 839 110.902 117.74 473.923
253 0 79.1905 12.1984 966 108.48 117.872 472.047
254 0 81.1446 12.3237 1000 108.54 118.015 471.334
255 0 82.1935 11.7163 963 111.363 117.744 470.431
256 0 84.2382 12.5596 1058 111.156 117.153 466.559
257 0 88.1847 11.2605 993 113.194 117.088 466.944
258 0 92.2515 12.0106 1108 112.11 117.17 464.332
259 0 97.292 11.9537 1163 110.628 116.833 464.923
260 0 102.207 13.277 1357 107.957 116.93 460.159
261 0 103.15 12.8454 1325 113.523 115.515 462.193
262 0 106.249 12.7343 1353 114.606 115.667 459.189
263 1 53.1511 9.31308 495 113.669 116.166 487.737
264 0 55.2836 10.7084 592 113.826 116.113 483.074
265 0 56.4401 11.4458 646 111.274 116.116 479.212
266 0 59.184 10.932 647 113.059 115.267 483.216
267 0 61.1521 12.2972 752 110.597 115.777 481.493
268 0 63.1773 11.9663 756 111.554 115.079 480.593
269 0 63.0994 10.3646 654 116.087 115.344 480.122
270 0 67.0636 12.1079 812 111.504 115.241 479.353
271 0 70.13 12.8333 900 109.628 115.971 479.572
272 0 71.1202 12.9077 918 110.245 115.375 477.703
273 0 75.0639 12.536 941 110.409 114.989 476.903
274 0 77.0344 12.41 956 111.779 115.202 475.91
275 0 80.1879 13.1192 1052 110.432 116.384 473.601
276 0 82.1881 11.9847 985 114.557 115.843 473.05
277 1 44.0434 9.80851 432 111.097 115.91 492.88
278 0 43.0676 11.2614 485 103.769 116.41 491.862
279 0 44.0969 11.6108 512 103.719 116.842 490.502
280 0 44.0186 11.3588 500 106.114 116.548 492.35
281 0 47.2446 12.7634 603 103.575 117.819 489.164
282 0 47.0179 11.7615 553 107.559 116.524 489.642
283 0 49.1387 11.3963 560 108.03 118.014 488.455
284 0 50.0196 12.5751 629 107.161 116.612 489.355
285 0 52.0352 12.7029 661 108.218 116.643 487.08
286 0 53.0954 11.3381 602 111.39 118.54 486.54
287 0 54.0671 10.9309 591 112.954 116.866 486.797
288 0 58.162 13.0154 757 107.667 117.754 484.749
289 0 60.1214 12.5247 753 110.622 118.345 484.235
290 0 60.066 12.4197 746 111.09 118.654 484.015
291 0 60.146 11.655 701 114.575 118.06 482.756
292 0 64.1521 13.4368 862 109.748 118.147 482.276
293 0 65.1236 12.1001 788 114.538 117.97 481.574
294 0 68.1364 13.4143 914 111.688 117.415 481.568
295 0 68.1605 12.9547 883 115.025 118.058 478.587
296 0 71.135 12.1459 864 117.699 117.744 478.743
297 0 74.0987 13.0771 969 117.148 117.456 476.733
298 0 77.2318 13.1423 1015 117.481 117.943 474.933
299 0 78.1514 12.0535 942 120.813 117.069 476.012
300 0 81.1812 13.0449 1059 120.114 116.997 473.263
301 0 84.1778 13.8754 1168 117.599 116.826 471.864
302 0 87.165 12.9754 1131 120.928 117.273 469.301
303 1 47.0676 11.6003 546 117.811 117.982 492.158
304 0 46.0363 10.1224 466 121.869 117.582 491.768
305 0 49.1234 12.3566 607 117.741 117.557 488.158
306 0 46.0655 11.2014 516 116.349 116.977 489.886
307 0 51.1585 11.9042 609 112.2 118.084 488.521
308 0 53.1125 12.916 686 110.534 116.732 487.724
309 0 52.2035 12.8727 672 111.734 118.018 486.476
310 0 53.0837 12.226 649 115.733 117.596 486.213
311 0 53.2021 11.9732 637 117.876 117.615 485.473
312 0 55.1436 11.4429 631 117.176 118.434 486.132
313 0 60.214 12.9538 780 112.855 118.401 484.774
314 0 60.1219 11.6597 701 116.792 117.893 483.703
315 0 61.2525 10.6445 652 119.009 117.133 484.617
316 0 65.126 11.7157 763 116.891 117.802 483.181
317 0 66.1552 12.4404 823 115.384 117.123 481.132
318 0 68.169 11.6769 796 118.299 117.3 481.198
319 0 71.204 12.5274 892 116.797 117.279 480.501
320 0 73.1248 12.2667 897 116.99 117.771 478.317
321 0 77.1769 11.9207 920 118.525 117.752 478.309
322 0 78.1886 12.1757 952 119.548 117.648 475.843
323 0 81.2477 12.4927 1015 118.927 118.08 474.878
324 0 83.2442 12.8778 1072 118.465 117.28 474.908
325 0 87.0949 12.7218 1108 119.716 117.278 471.736
326 0 88.1234 14.945 1317 114.383 117.846 471.361
327 0 91.181 13.9503 1272 118.225 117.282 467.811
328 0 95.184 13.5947 1294 118.627 117.568 465.633
329 0 98.2422 12.7542 1253 120.11 117.883 467.242
330 1 50.07 10.3655 519 120.57 117.626 489.638
331 0 52.0456 13.0463 679 115.698 118.514 487.415
332 0 51.0287 12.5616 641 110.368 116.275 487.652
333 0 51.0305 11.9928 612 113.894 115.807 487.619
334 0 54.0305 12.4929 675 112.292 115.861 485.858
335 0 55.1382 11.3714 627 115.274 115.493 485.979
336 0 57.0763 12.6322 721 112.286 115.336 485.017
337 0 60.0474 12.0738 725 111.942 115.582 484.503
338 0 61.182 12.0951 740 112.143 115.136 483.111
339 0 64.073 12.1892 781 111.575 115.466 482.146
340 0 65.1483 11.8038 769 114.202 115.753 480.957
341 0 67.1316 12.3191 827 117.918 115.173 479.348
342 0 67.0649 10.542 707 118.917 116.187 477.433
343 0 74.0727 13.5003 1000 110.257 115.522 480.226
344 0 74.0349 13.183 976 113.509 115.973 477.167
345 0 75.1386 13.2156 993 114.474 115.756 475.368
346 0 77.1228 12.0457 929 117.832 115.888 475.878
347 0 82.1486 13.7069 1126 113.272 116.309 474.075
348 0 82.1531 11.016 905 120.535 116.029 475.191
349 0 87.1334 13.0834 1140 116.496 116.709 472.206
350 0 89.1888 13.634 1216 117.068 116.478 470.652
351 0 94.103 13.7296 1292 117.556 115.456 467.358
352 0 96.1098 13.3597 1284 119.021 115.379 465.253
353 0 100.094 13.2875 1330 120.708 115.734 464.866
354 0 103.172 12.6004 1300 122.507 116.228 462.569
355 0 109.104 15.2973 1669 115.216 115.911 460.612
356 1 55.0835 11.6732 643 119.309 116.404 485.924
357 0 60.0277 12.7941 768 114.236 116.056 484.793
358 0 61.0654 12.0527 736 115.977 115.14 483.89
359 0 64.075 13.2813 851 112.019 115.543 483.998
360 0 64.0435 12.1792 780 116.556 115.401 482.618
361 0 67.1026 12.6523 849 113.823 115.761 481.444
362 0 71.0399 13.7247 975 110.174 115.975 480.492
363 0 71.1004 13.9943 995 112.539 116.567 480.117
364 0 73.0686 12.5362 916 116.498 115.924 478.669
365 0 74.1108 13.075 969 116.07 116.535 478.127
366 0 78.0762 13.5637 1059 115.014 116.492 476.647
367 0 80.2238 13.6742 1097 115.293 116.455 475.484
368 0 84.09 13.652 1148 115.79 116.31 473.901
369 0 84.0844 12.0236 1011 120.691 115.903 472.847
370 0 88.0951 12.7135 1120 119.456 116.135 471.784
371 0 92.0774 12.5655 1157 120.367 116.118 468.456
372 1 51.0437 11.5195 588 120.372 115.364 489.483
373 0 55.0738 11.8023 650 117.749 116.018 485.989
374 0 54.1569 11.0235 597 108.136 116.888 484.466
375 0 55.0931 11.9979 661 107.284 116.867 483.458
376 0 57.1494 11.3562 649 109.385 116.906 483.357
377 0 57.0773 12.4918 713 118.555 117.808 486.042
378 0 61.1588 11.3311 693 120.16 117.997 485.915
379 0 62.0965 12.4806 775 119.191 117.206 483.906
380 0 64.09 12.7945 820 119.338 117.516 482.816
381 0 67.106 13.3818 898 118.089 117.241 481.018
382 0 69.1202 11.5596 799 121.979 116.476 483.009
383 0 70.1627 13.7965 968 118.998 117.011 478.456
384 0 73.0538 13.3737 977 120.724 117.111 479.396
385 0 75.0946 15.354 1153 116.716 117.089 477.37
386 0 79.125 13.346 1056 121.926 117.093 478.201
387 0 82.0984 13.9223 1143 121.213 117.371 475.097
388 0 84.1431 13.382 1126 123.329 117.087 475.254
389 0 87.2064 13.6228 1188 123.539 117.125 473.951
390 0 89.1501 14.0437 1252 124.549 116.311 469.796
391 1 48.0215 10.9951 528 126.964 117.188 490.5
392 0 48.0582 11.715 563 124.964 116.572 490.444
393 0 50.0264 11.6738 584 124.697 117.252 487.765
394 0 52.0352 12.4723 649 123.052 116.975 488.254
395 0 53.0525 12.3274 654 120.312 116.492 490.428
396 0 53.0776 11.21 595 124.486 116.568 489.528
397 0 55.0877 13.3968 738 119.928 117.047 486.718
398 0 56.0715 12.2701 688 123.185 117.769 486.74
399 0 58.0766 12.7762 742 122.81 116.318 485.995
400 0 59.1563 11.85 701 123.622 116.853 486.639
401 0 62.0499 12.1838 756 123.468 116.571 485.234
402 0 64.0313 12.5408 803 122.29 117.666 483.587
403 0 66.1097 13.8104 913 120.084 117.963 481.414
404 0 68.1229 13.0646 890 122.382 118.273 481.4
405 0 72.0424 13.6586 984 120.201 117.938 480.545
406 0 73.1006 12.6264 923 122.976 117.697 478.765
407 0 76.1549 13.0917 997 122.631 117.19 477.968
408 0 78.1966 13.2487 1036 122.345 117.581 476.919
409 0 82.2397 13.5458 1114 119.979 117.215 475.436
410 0 84.1707 12.6172 1062 122.799 117.252 474.221
411 0 86.166 12.4527 1073 123.321 116.494 470.905
412 0 90.2028 12.7269 1148 122.17 116.624 469.449
413 1 49.2114 12.0297 592 122.329 116.446 489.895
414 0 52.0912 10.8848 567 118.616 116.492 490.564
415 0 50.1068 12.4135 622 112.387 116.325 489.01
416 0 49.0875 10.5729 519 119.333 115.69 490.222
417 0 53.0347 10.71 568 116.456 116.329 490.998
418 0 54.0962 11.0359 597 115.42 116.035 488.591
419 0 56.0462 11.2407 630 114.468 116.411 489.022
420 0 56.0644 11.2728 632 117.106 116.301 485.699
421 0 59.0792 11.4423 676 115.052 115.63 485.067
422 0 62.0642 11.1659 693 114.548 115.31 484.062
423 0 63.031 11.883 749 113.888 117.099 482.921
424 0 65.0348 12.0551 784 114.163 116.312 481.861
425 0 66.09 12.256 810 114.951 116.52 480.444
426 0 69.0428 10.4428 721 117.065 117.076 482.764
427 0 73.0356 11.2685 823 115.362 116.217 481.559
428 0 77.1627 12.3246 951 112.788 115.94 480.383
429 0 79.0585 12.6236 998 114.568 116.68 475.627
430 0 82.1086 13.0559 1072 111.518 115.594 474.399
431 0 83.1194 10.5631 878 117.82 116.597 476.142
432 0 89.1141 13.2863 1184 111.758 116.953 471.928
433 1 47.039 12.2239 575 109.355 115.598 493.675
434 0 49.042 11.7654 577 110.402 115.894 492.336
435 0 48.018 10.9959 528 109.64 116.223 493.839
436 0 50.0127 12.6368 632 105.956 116.65 491.747
437 0 51.0205 12.1324 619 108.25 116.588 491.263
438 0 53.1429 12.7016 675 107.004 115.359 488.136
439 0 54.0239 11.5504 624 110.04 116.144 488.901
440 0 57.0627 13.0558 745 104.835 116.336 489.734
441 0 55.0567 12.8958 710 107.296 116.511 489.096
442 0 55.0983 10.5992 584 115.188 117.195 487.45
443 0 55.1441 12.0956 667 113.174 115.709 485.775
444 0 59.1255 11.6193 687 112.709 115.997 485.38
445 0 60.0644 12.0204 722 111.591 116.012 486.735
446 0 63.2001 11.7247 741 113.215 115.718 483.806
447 0 65.0879 12.7213 828 110.976 117.351 483.841
448 0 66.0832 10.4565 691 115.573 118.67 481.747
449 0 69.0368 12.1674 840 111.879 116.645 480.129
450 0 69.0636 12.4233 858 112.375 116.256 480.444
451 0 73.1085 12.3925 906 110.566 115.841 479.968
452 0 75.0668 12.2558 920 112.601 116.249 477.941
453 0 77.1724 12.3878 956 113.539 116.171 475.249
454 0 81.1408 12.8789 1045 111.76 116.423 474.587
455 0 84.291 12.1958 1028 112.639 116.236 473.148
456 0 88.1043 13.257 1168 114.776 116.67 472.275
457 1 46.0348 10.8179 498 114.11 116.851 493.088
458 0 50.0182 12.2955 615 109.644 115.008 490.324
459 0 50.0883 10.6013 531 114.422 117.175 491.672
460 0 49.0613 12.0054 589 111.676 118.671 490.065
461 0 52.0157 11.9387 621 111.013 116.816 491.538
462 0 54.0931 11.3323 613 113.248 117.175 489.37
463 0 53.0815 11.5294 612 114.17 117.109 488.296
464 0 55.0482 12.2256 673 112.689 116.473 487.4
465 0 56.1089 11.7272 658 114.123 117.153 484.623
466 0 60.0803 11.9174 716 112.179 118.161 483.823
467 0 61.075 11.4286 698 113.529 117.888 481.89
468 0 65.0833 12.7682 831 109.538 116.746 482.923
469 0 68.0866 11.9554 814 111.21 116.431 481.773
470 0 66.0401 11.7504 776 112.957 116.183 481.401
471 0 71.0246 12.9251 918 109.633 116.554 481.142
472 0 71.0503 11.9071 846 113.952 115.991 477.52
473 0 75.1435 12.8953 969 112.087 115.882 476.58
474 0 78.0558 11.8249 923 114.992 116.257 476.983
475 0 79.0786 12.9997 1028 114.648 116.68 473.674
476 0 83.094 12.7446 1059 114.019 116.87 474.562
477 0 87.0829 12.2297 1065 115.044 115.554 472.488
478 0 89.1935 12.3776 1104 114.593 116.31 473.679
479 0 92.0945 12.2374 1127 115.365 117.094 470.473
480 0 96.0959 12.9558 1245 112.418 115.69 466.9
481 0 100.076 12.4406 1245 113.867 115.474 464.855
482 0 103.144 12.0899 1247 113.889 116.107 463.761
483 1 54.1115 11.0328 597 115.035 116.214 488.767
484 0 58.0946 13.3747 777 107.718 116.663 487.829
485 0 59.1148 12.8902 762 109.434 117.295 486.207
486 0 58.0367 11.0792 643 109.616 116.281 488.249
487 0 61.0456 11.7289 716 108.311 115.74 485.517
488 0 63.0764 12.0806 762 105.293 115.656 486.861
489 0 66.0845 11.7425 776 106.629 115.044 483.12
490 0 67.1027 11.5793 777 106.354 115.719 484.29
491 0 69.1009 12.5179 865 105.086 116.332 480.57
492 0 73.109 12.4335 909 103.831 116.704 481.433
493 0 74.0471 12.7892 947 103.753 116.342 479.754
494 0 78.1241 12.5953 984 103.012 116.155 479.028
495 0 79.1443 11.8644 939 104.052 117.24 476.304
496 0 82.2355 12.7439 1048 103.028 116.505 476.477
497 0 84.1389 12.622 1062 103.412 116.46 474.46
498 0 88.09 12.0899 1065 104.192 115.881 472.364
499 0 87.0963 12.0671 1051 106.153 115.735 469.197
500 0 91.067 11.2225 1022 109.643 116.767 471.285
501 0 94.239 11.2374 1059 112.563 116.324 468.347
502 0 100.279 11.8969 1193 112.849 116.381 467.122
503 0 104.15 12.5876 1311 111.732 116.961 463.024
504 1 54.123 11.2337 608 108.16 117.638 488.87
505 0 57.0815 14.5231 829 100.901 116.485 488.521
506 0 57.0408 12.6927 724 107.518 116.441 488.124
507 0 54.0838 10.9275 591 113.041 116.257 487.665
508 0 58.031 11.5972 673 111.639 117.184 486.376
509 0 60.0943 12.2308 735 110.185 117.452 484.434
510 0 62.1734 12.3847 770 110.282 116.778 484.587
511 0 65.1844 12.7178 829 109.683 116.449 484.171
512 0 67.0718 13.1799 884 110.704 116.674 481.149
513 0 69.094 12.6639 875 112.806 116.103 481.368
514 0 72.1168 11.1347 803 115.817 116.436 482.448
515 0 75.155 13.0264 979 114.149 117.091 477.589
516 0 77.0995 12.3996 956 117.522 116.594 477.998
517 0 80.1205 13.0304 1044 117.382 116.371 475.859
518 0 81.2361 12.556 1020 120.606 116.799 474.032
519 0 84.1429 13.9643 1175 119.127 116.894 472.796
520 0 87.0634 12.0946 1053 124.807 117.009 473.663
521 0 90.2493 12.809 1156 125.589 116.567 470.333
522 0 92.2117 13.1003 1208 126.675 117.461 468.344
523 0 96.2675 13.5248 1302 125.873 116.518 467.544
524 1 48.0415 11.1986 538 127.204 117.283 489.342
525 0 51.1655 12.0589 617 123.363 116.794 490.47
526 0 51.3173 11.4581 588 119.764 115.981 486.44
527 0 52.1518 11.5816 604 119.185 116.957 490.071
528 0 54.0813 12.6476 684 116.765 116.472 488.763
529 0 54.1716 12.5896 682 117.152 117.144 490.924
530 0 56.1726 12.2302 687 117.99 117.406 488.936
531 0 59.0457 12.7359 752 119.899 116.983 485.604
532 0 60.0588 12.571 755 120.121 116.273 485.955
533 0 64.1496 13.7023 879 115.842 116.62 485.739
534 0 63.0509 11.7048 738 122.625 116.537 484.652
535 0 65.1815 12.0126 783 124.049 116.262 482.252
536 0 68.0775 12.8677 876 121.116 116.322 483.219
537 0 70.2155 12.6325 887 123.395 116.689 480.943
538 0 72.1833 12.3574 892 125.831 116.895 479.647
539 0 76.1261 13.517 1029 122.293 116.19 479.112
540 0 76.0851 13.5243 1029 125.886 116.594 476.327
541 0 81.1655 13.9591 1133 128.374 117.219 474.611
542 0 82.1923 13.2494 1089 133.039 116.43 473.968
543 0 85.3231 12.939 1104 131.395 117.002 474.789
544 0 88.1656 13.055 1151 131.641 116.365 471.992
545 0 90.2026 13.4253 1211 130.2 116.291 470.964
546 0 93.1546 12.4202 1157 132.658 114.884 467.878
547 0 97.1399 13.9695 1357 128.749 114.73 467.339
548 0 100.143 13.5905 1361 129.273 116.448 466.489
549 0 103.289 13.8641 1432 129.13 116.503 464.75
550 1 54.0214 10.9401 591 128.474 116.22 491.569
551 0 54.1388 12.0616 653 127.473 114.818 487.764
552 0 56.0264 12.4406 697 129.857 114.828 486.91
553 0 61.0789 12.6066 770 127.51 114.547 486.827
554 0 61.0369 13.9424 851 120.927 115.342 485.758
555 0 58.0575 12.4532 723 127.815 116.97 487.82
556 0 62.1545 13.5308 841 124.665 117.669 484.803
557 0 66.0306 13.4332 887 122.302 117.159 484.887
558 0 68.132 13.9142 948 122.169 118.095 481.322
559 0 70.0961 12.7967 897 123.229 117.236 483.738
560 0 72.0734 13.0284 939 123.122 117.914 480.742
561 0 74.0917 12.66 938 120.681 118.215 483.204
562 0 76.062 13.8308 1052 120.66 117.738 477.377
563 0 78.1023 13.4823 1053 119.296 118.092 478.184
564 0 82.1143 13.8222 1135 117.45 117.952 475.257
565 0 86.0286 14.0535 1209 116.037 117.578 475.279
566 0 85.1196 12.923 1100 119.874 118.229 471.259
567 0 90.1126 13.1058 1181 117.25 117.545 472.011
568 0 93.1416 13.5385 1261 114.967 117.565 467.971
569 0 94.1693 12.4457 1172 118.683 117.34 467.613
570 0 100.11 13.7549 1377 114.818 117.86 466.511
571 0 101.185 12.3635 1251 118.657 117.752 464.093
572 1 52.0474 11.2974 588 115.192 116.417 488.133
573 0 55.2701 12.2851 679 111.697 117.546 485.764
574 0 55.1837 10.6372 587 109.026 117.451 488.911
575 0 57.1118 11.8715 678 105.316 118.174 488.833
576 0 59.1522 12.3749 732 103.857 117.104 488.354
577 0 62.1764 11.6443 724 106.079 117.291 486.471
578 0 63.2255 11.3245 716 107.7 117.321 484.163
579 0 65.3 10.8882 711 108.242 117.181 485.242
580 0 69.2244 10.8199 749 107.685 117.035 481.105
581 0 71.1019 11.8984 846 104.785 117.259 482.141
582 0 73.2351 10.8554 795 106.945 117.13 482.584
583 0 77.207 12.9781 1002 104.583 116.897 477.218
584 0 80.1769 11.5869 929 107.129 117.097 479.121
585 0 82.2515 11.5135 947 109.389 117.093 475.761
586 0 84.067 11.2172 943 111.571 116.74 472.231
587 0 84.1105 10.3435 870 113.323 117.144 472.083
588 0 92.1209 12.2882 1132 108.531 116.934 473.312
589 0 93.2042 11.8557 1105 112.115 117.423 469.662
590 0 96.2981 11.7032 1127 112.837 116.937 465.811
591 0 101.186 13.2528 1341 110.608 116.632 464.103
592 0 106.227 13.2546 1408 111.901 116.796 464.724
593 1 58.0491 11.4214 663 107.798 117.694 489.195
594 0 59.0635 11.1067 656 108.918 116.146 489.183
595 0 60.0901 12.2316 735 105.709 117.774 485.54
596 0 63.097 12.9642 818 106.579 117.667 484.797
597 0 63.1421 11.9572 755 110.616 118.33 484.252
598 0 67.0848 12.9985 872 107.257 118.149 483.798
599 0 69.2248 12.6255 874 108.427 117.475 482.13
600 0 69.1417 11.5415 798 111.327 118.07 482.035
601 0 73.1326 12.7713 934 107.502 118.179 479.375
602 0 73.1963 12.1181 887 111.711 118.152 477.356
603 0 78.2595 14.4136 1128 105.775 118.021 476.263
604 0 81.1249 13.7442 1115 107.697 118.322 476.585
605 0 82.0895 13.1929 1083 109.327 118.196 476.252
606 0 85.2352 11.5797 987 113.705 117.737 475.973
607 0 88.2308 11.6966 1032 113.878 117.579 474.529
608 0 90.2106 12.8588 1160 112.385 117.519 473.943
609 0 94.1864 12.6558 1192 112.609 117.183 472.307
610 0 98.1868 12.3438 1212 113.301 117.549 470.72
611 0 101.266 12.9067 1307 113.782 116.985 465.715
612 1 53.1079 11.5614 614 114.645 117.897 491.536
613 0 53.239 12.6599 674 113.85 117.604 488.77
614 0 55.1095 12.0487 664 114.834 118.065 491.054
615 0 56.0305 10.6371 596 117.856 118.193 490.077
616 0 59.0768 12.8646 760 111.774 118.45 488.957
617 0 59.0351 11.4508 676 117.034 118.034 487.442
618 0 61.2707 12.7141 779 115.178 117.322 484.866
619 0 64.2379 13.0453 838 112.456 117.061 485.61
620 0 65.2942 11.8234 772 116.734 117.535 483.722
621 0 69.2794 13.1785 913 111.711 117.885 483.396
622 0 67.0682 11.6747 783 113.146 118.243 483.897
623 0 69.211 12.1657 842 111.787 117.842 483.512
624 0 72.3071 11.7416 849 111.981 117.854 483.065
625 0 75.2374 11.5501 869 113.388 117.786 482.618
626 0 78.3178 12.0918 947 112.466 116.736 479.517
627 0 79.3694 12.2213 970 112.194 116.734 477.685
628 0 83.2704 12.3333 1027 112.06 116.566 476.108
629 0 84.4023 11.5992 979 115.478 116.982 475.614
630 0 87.6727 12.2843 1077 114.126 115.912 470.656
631 0 90.4608 11.1098 1005 115.33 116.311 473.788
632 0 94.6739 12.6857 1201 112.688 116.173 466.105
633 0 98.5438 12.5021 1232 113.117 117.281 467.04
634 1 50.3763 9.11143 459 103.109 116.847 484.922
635 0 51.1219 8.76336 448 105.317 117.208 481.714
636 0 53.0415 10.2373 543 98.6703 116.646 486.376
637 0 52.0454 9.1843 478 100.335 116.964 488.297
638 0 56.17 10.7175 602 99.1993 117.473 484.807
639 0 55.1257 11.7368 647 98.3277 117.507 482.039
640 0 56.1383 8.96001 503 104.227 117.487 480.875
641 0 57.0873 8.33811 476 105.158 117.922 481.336
642 0 58.0711 8.98898 522 104.77 117.665 479.4
643 0 60.0679 10.638 639 102.011 117.336 481.08
644 0 66.0554 11.4449 756 112.106 117.589 484.837
645 0 68.0854 11.9849 816 111.591 118.859 481.124
646 0 69.0475 12.1221 837 111.973 117.722 480.536
647 0 73.0751 13.0003 950 109.519 118.552 479.805
648 0 74.1083 12.6032 934 112.145 118.32 477.624
649 0 77.1365 12.3288 951 113.584 118.311 477.64
650 0 80.1186 11.7076 938 114.913 118.127 475.409
651 0 81.0994 11.566 938 114.989 116.345 477.174
652 0 84.1585 12.1794 1025 114.498 115.351 473.992
653 1 47.1305 10.2269 482 112.805 116.396 493.317
654 0 47.033 8.95117 421 116.228 118.404 490.791
655 0 47.0146 10.9753 516 109.725 118.337 489.426
656 0 49.2473 12.8941 635 101.494 118.402 489.334
657 0 50.3198 11.4071 574 105.24 118.16 489.298
658 0 52.2573 11.5008 601 104.822 117.642 490.188
659 0 53.0878 12.2627 651 104.296 117.009 487.777
660 0 53.1985 11.5605 615 109.164 116.745 488.756
661 0 56.2248 12.2722 690 106.023 117.046 487.342
662 0 56.1408 12.5221 703 107.777 116.289 486.613
663 0 59.093 11.2704 666 107.692 117.548 487.02
664 0 61.1527 11.7084 716 108.459 116.777 482.966
665 0 64.2069 12.8179 823 104.45 116.214 481.983
666 0 65.2345 11.8649 774 105.416 116.884 483.904
667 0 66.1761 11.1974 741 108.287 117.115 481.637
668 0 68.203 12.3308 841 107.562 117.024 480.213
669 0 70.202 11.7518 825 110.876 116.77 478.747
670 0 74.1631 12.0006 890 109.11 116.725 479.81
671 0 76.152 12.8821 981 109.705 116.995 476.073
672 0 81.2184 12.4972 1015 110.817 117.222 475.915
673 0 81.1856 12.8471 1043 112.523 116.912 473.981
674 0 84.1467 12.4663 1049 113.798 114.705 474.332
675 0 84.1898 11.9611 1007 116.767 114.518 472.054
676 0 87.0993 11.8026 1028 120.097 115.279 468.943
677 0 93.1582 12.4305 1158 117.858 115.227 468.054
678 0 95.2913 12.0368 1147 119.669 115.017 468.933
679 1 51.1444 11.2036 573 112.12 114.482 491.525
680 0 52.0792 11.5785 603 111.886 114.569 492.002
681 0 52.0509 11.8154 615 113.885 114.372 491.398
682 0 56.2956 12.612 710 115.999 117.893 489.032
683 0 56.1944 12.1542 683 118.003 117.436 490.473
684 0 59.0905 12.7432 753 116.08 116.487 489.385
685 0 59.0253 11.2833 666 121.575 114.119 488.27
686 0 60.0939 11.5486 694 122.35 114.128 486
687 0 62.0276 12.0108 745 121.415 114.062 485.968
688 0 66.0673 12.9414 855 118.67 113.759 485.608
689 0 66.0508 12.5055 826 121.203 113.969 484.156
690 0 66.2226 11.8389 784 125.069 115.023 483.776
691 0 70.2087 13.9157 977 119.539 114.996 483.026
692 0 72.1518 12.5846 908 124.274 115.503 481.377
693 0 75.1548 12.6539 951 125.28 115.644 479.073
694 0 77.1449 13.2997 1026 124.186 114.571 477.323
695 0 77.1312 12.4852 963 128.513 114.499 476.59
696 0 81.1452 12.8535 1043 126.244 114.753 476.112
697 0 86.2179 13.8254 1192 122.834 114.434 473.595
698 0 86.1591 12.8483 1107 127.148 114.787 472.44
699 0 91.2588 12.4591 1137 127.744 114.456 468.966
700 0 93.2679 13.2093 1232 124.865 115.48 471.69
701 0 96.214 12.2955 1183 128.306 114.757 469.428
702 0 98.2851 13.3896 1316 121.242 114.535 467.829
703 1 50.0527 10.3291 517 122.217 114.671 492.368
704 0 54.1773 12.0715 654 118.465 114.284 489.968
705 0 54.184 11.1287 603 121.786 115.123 488.25
706 0 56.1694 11.7858 662 120.654 115.08 489.716
707 0 58.1888 13.2156 769 117.455 115.765 487.26
708 0 59.3464 12.5534 745 119.497 116.656 486.075
709 0 59.3259 11.361 674 123.082 116.356 486.355
710 0 62.212 11.6216 723 122.823 115.394 485.42
711 0 62.2625 11.6603 726 123.039 115.846 484.187
712 0 66.2492 12.7398 844 118.778 115.775 483.94
713 0 66.2284 11.8076 782 122.124 115.729 484.221
714 0 71.3163 13.2368 944 117.627 116.702 481.109
715 0 72.2261 11.8932 859 121.447 116.406 480.718
716 0 74.3962 10.9817 817 122.863 116.574 480.78
717 0 78.3314 12.562 984 118.027 116.457 479.582
718 0 77.2778 11.8922 919 122.033 116.753 476.531
719 0 81.4113 12.0376 980 120.747 116.34 476.735
720 0 84.3469 11.4883 969 122.322 117.148 473.58
721 0 84.2977 11.1272 938 122.788 116.846 474.824
722 1 43.0213 9.64639 415 119.173 118.333 495.511
723 0 45.0534 11.4531 516 112.579 118.236 494.122
724 0 46.1746 11.7814 544 111.562 117.243 491.237
725 0 49.1813 11.4068 561 111.729 117.217 490.886
726 0 51.0721 11.9831 612 111.954 117.926 491.938
727 0 52.0361 10.0699 524 116.267 116.813 492.496
728 0 53.0415 11.1988 594 115.857 117.082 490.574
729 0 54.065 12.2075 660 113.245 117.362 490.432
730 0 55.0399 12.9542 713 110.825 116.854 487.487
731 0 57.0207 12.3815 706 111.943 117.235 488.18
732 0 61.1636 12.8181 784 110.992 117.499 488.144
733 0 62.1457 12.1811 757 113.835 117.192 485.915
734 0 65.056 12.9888 845 110.827 116.948 486.11
735 0 65.1585 12.7228 829 115.283 116.648 485.829
736 0 66.1713 12.0596 798 116.011 117.302 485.183
737 0 68.1409 11.0506 753 119.308 116.602 484.77
738 0 71.2715 12.6979 905 114.749 116.513 482.98
739 0 73.2889 12.5667 921 115.156 116.745 482.435
740 0 73.1883 10.4525 765 119.578 117.327 483.729
741 0 76.2727 11.8653 905 118.441 116.852 479.418
742 1 41.078 12.4398 511 115.63 117.532 497.288
743 0 41.2133 11.5497 476 119.521 116.966 496.027
744 0 37.0194 10.3189 382 115.961 115.704 499.584
745 0 39.0172 12.046 470 112.76 115.713 498.034
746 0 39.0625 11.2128 438 114.918 115.865 497.537
747 0 42.009 10.8786 457 115.702 116.177 496.254
748 0 43.0502 9.08243 391 118.954 115.972 496.987
749 0 45.0335 11.8578 534 114.339 116.824 494.669
750 0 46.0327 11.2312 517 115.079 116.959 495.669
751 0 47.0951 11.6785 550 115.467 117.387 494.891
752 0 48.0824 11.5635 556 117.045 117.122 493.527
753 0 48.1076 12.1394 584 117.959 116.166 493.416
754 0 50.1142 12.2121 612 118.49 117.052 493.039
755 0 51.0889 11.7638 601 119.28 117.406 492.759
756 0 53.1684 11.9432 635 119.266 116.888 491.34
757 0 54.0763 12.4639 674 119.177 117.021 489.536
758 0 55.0721 11.4395 630 121.976 117.206 489.302
759 0 56.0768 12.0727 677 119.402 116.931 488.879
760 0 62.1899 13.0085 809 114.681 117.465 488.276
761 0 61.1745 11.3936 697 119.706 117.501 488.347
762 0 62.0881 11.6931 726 120.523 117.062 485.897
763 0 65.106 10.3677 675 119.994 117.341 488.45
764 0 68.1909 11.1892 763 119.299 117.007 484.271
765 0 70.1644 12.1714 854 117.293 116.963 483.555
766 0 72.1899 12.3563 892 117.184 116.539 482.16
767 0 76.2795 11.7987 900 117.943 116.474 479.626
768 0 77.2098 11.3457 876 119.773 116.537 479.813
769 0 80.3465 11.8611 953 118.449 116.022 475.946
770 1 45.2455 12.2664 555 115.631 115.942 493.041
771 0 46.2352 12.0255 556 116.809 115.836 492.723
772 0 47.2202 12.2829 580 117.172 116.219 492.459
773 0 47.1194 13.1581 620 117.308 116.276 491.026
774 0 51.2635 12.6796 650 116.22 116.012 491.752
775 0 52.1744 13.7999 720 113.697 115.978 490.444
776 0 54.0697 14.2409 770 112.57 115.631 488.982
777 0 54.1458 13.2236 716 115.49 116.278 488.739
778 0 55.2153 12.4965 690 117.962 116.391 488.297
779 0 57.2108 13.6338 780 114.212 115.987 488.197
780 0 59.2539 13.1131 777 114.649 116.495 486.906
781 0 60.2916 12.9537 781 116.314 115.951 486.172
782 0 61.2548 12.75 781 117.16 116.341 485.858
783 0 63.396 11.9724 759 119.913 115.76 482.847
784 0 68.5752 13.1097 899 115.593 115.999 482.772
785 0 70.4168 12.7384 897 117.645 115.725 480.156
786 0 71.0519 11.7661 836 110.592 115.181 480.821
787 0 75.0834 13.0521 980 109.982 114.982 479.094
788 0 79.0674 11.5218 911 112.38 116.405 480.038
789 0 81.1459 12.2742 996 111.281 116.465 478.741
790 1 42.1977 10.83 457 109.672 116.451 496.882
791 0 40.1337 10.5149 422 112.491 116.858 495.211
792 0 43.2942 9.88585 428 113.182 116.283 495.168
793 0 45.1936 11.9929 542 110.149 116.557 491.269
794 0 48.36 11.2696 545 111.114 116.44 490.198
795 0 49.0522 11.8649 582 109.533 115.392 493.189
796 0 51.1485 11.6523 596 107.812 116.841 491.995
797 0 51.0677 11.3771 581 109.527 116.153 491.339
798 0 52.0761 10.8495 565 110.335 116.425 490.032
799 0 55.1001 11.9782 660 108.415 117.321 489.745
800 0 58.057 13.4178 779 104.461 117.211 487.377
801 0 57.1507 12.2308 699 112.403 117.502 490.059
802 0 59.171 13.5201 800 110.349 117.665 487.28
803 0 60.2443 12.2999 741 113.746 117.821 485.642
804 0 64.1164 12.5241 803 111.578 117.522 486.159
805 0 64.187 13.1023 841 110.778 117.669 485.486
806 0 67.2033 11.8893 799 113.269 116.912 485.185
807 0 71.1026 12.8968 917 111.028 117.055 482.656
808 0 73.1282 12.061 882 113.027 117.118 483.201
809 0 76.1148 14.0183 1067 109.622 116.627 479.465
810 0 79.2409 13.6546 1082 110.388 116.149 478.134
811 0 82.1687 12.377 1017 113.842 116.914 477.026
812 0 85.1962 12.8762 1097 112.699 116.526 476.462
813 0 87.1696 12.8256 1118 112.714 116.433 475.936
814 1 45.2548 10.9381 495 115.392 116.717 494.784
815 0 47.2485 11.6829 552 113.569 115.504 493.975
816 0 51.1847 11.9958 614 111.767 116.283 492.581
817 0 47.062 11.0917 522 113.69 116.061 494.839
818 0 51.0698 12.1011 618 111.921 117.032 492.756
819 0 51.1256 11.6184 594 115.325 117.766 491.418
820 0 53.0436 11.4246 606 114.328 116.518 493.614
821 0 55.0423 13.1717 725 111.799 117.114 489.794
822 0 58.0441 12.1976 708 114.732 117.116 489.919
823 0 61.1398 12.545 767 115.063 117.476 488.048
824 0 62.1443 13.1468 817 114.69 117.695 486.534
825 0 64.1009 11.6847 749 118.326 117.789 486.413
826 0 67.1111 14.1854 952 114.409 116.983 484.043
827 0 68.0503 13.7545 936 115.55 116.807 484.482
828 0 71.0677 12.27 872 118.063 116.575 485.364
829 0 73.1299 12.5257 916 118.242 115.773 482.192
830 0 77.0837 13.3621 1030 117.11 116.504 481.833
831 0 79.2272 12.6724 1004 117.277 115.321 479.311
832 0 82.2134 12.5527 1032 119.348 115.047 477.118
833 1 45.0934 11.6868 527 115.452 114.173 495.605
834 0 44.0338 10.6963 471 112.278 115.019 491.832
835 0 44.0733 10.006 441 107.705 116.24 492.501
836 0 49.1719 12.3038 605 106.418 117.164 494.157
837 0 49.1703 11.6941 575 110.026 117.254 492.546
838 0 48.0873 11.1464 536 112.843 117.371 494.274
839 0 51.0696 11.3962 582 112.876 115.002 492.689
840 0 53.1285 10.3711 551 113.759 115.583 491.837
841 0 52.0602 11.3522 591 114.139 115.832 490.068
842 0 58.0751 11.5884 673 110.171 116.302 490.681
843 0 58.046 11.7665 683 110.432 116.228 490.416
844 0 59.1435 11.2269 664 111.765 117.706 489.453
845 0 63.1263 12.1027 764 109.758 116.406 488.33
846 0 64.1356 12.1773 781 109.215 116.8 487.047
847 0 65.1679 12.1532 792 110.996 116.731 484.311
848 0 68.1388 11.2271 765 112.478 116 483.171
849 0 71.1186 11.3894 810 107.843 115.764 482.02
850 0 73.0993 10.4105 761 111.627 116.428 484.427
851 0 77.063 10.9521 844 110.71 115.859 480.834
852 0 79.1888 10.696 847 110.917 116.383 481.793
853 1 42.0677 10.8872 458 108.969 116.579 497.779
854 0 42.0806 11.7394 494 110.314 116.721 494.338
855 0 43.0509 11.0567 476 111.712 115.435 494.723
856 0 47.0697 11.5998 546 118.214 113.861 494.302
857 0 49.0132 11.6295 570 117.446 113.618 493.279
858 0 51.1017 13.3459 682 113.548 113.629 492.067
859 0 52.0797 13.3257 694 114.823 113.735 491.588
860 0 53.0365 13.3116 706 116.003 113.623 489.487
861 0 55.0321 12.102 666 119.146 113.86 490.94
862 0 58.0378 13.0777 759 117.287 114.262 489.672
863 0 59.0317 13.3318 787 116.352 114.203 489.513
864 0 60.0333 13.809 829 116.908 114.211 487.074
865 0 61.1517 13.442 822 118.063 114.221 488.06
866 0 65.0815 14.72 958 115.474 113.928 486.181
867 0 66.1796 13.7353 909 119.477 114.15 484.625
868 0 69.1271 14.0755 973 118.362 114.449 483.963
869 0 71.0714 14.5487 1034 119.077 114.56 481.786
870 0 73.0984 15.2534 1115 116.102 114.203 482.578
871 0 77.1232 14.4444 1114 119.638 114.066 480.321
872 0 79.2125 15.3259 1214 118.639 114.011 479.077
873 0 83.1568 14.5749 1212 120.256 114.113 477.517
874 0 85.1449 15.2563 1299 120.129 114.51 475.433
875 0 87.249 13.96 1218 123.612 115.022 475.064
876 0 90.0901 14.3967 1297 119.018 114.561 472.833
877 0 93.0809 14.0201 1305 119.542 115.441 472.927
878 1 51.1382 12.3978 634 122.278 114.599 491.601
879 0 50.1283 11.9693 600 121.8 115.317 493.28
880 0 50.0924 11.359 569 123.441 116.243 493.185
881 0 53.1237 11.7273 623 121.804 116.324 491.787
882 0 54.2756 11.8285 642 123.388 116.449 490.05
883 0 55.1416 10.9718 605 124.329 116.866 490.126
884 0 58.1504 12.5365 729 121.664 116.693 488.734
885 0 59.0649 12.2577 724 124.388 116.04 488.116
886 0 61.0673 12.5927 769 122.88 115.727 488.441
887 0 63.1113 12.1373 766 122.907 116.236 487.117
888 0 64.1667 12.0312 772 125.058 116.475 484.988
889 0 68.1016 13.3771 911 120.578 115.582 483.263
890 0 70.0732 13.1291 920 122.636 115.189 482.927
891 0 70.1665 12.9834 911 121.068 115.54 484.529
892 0 74.1479 13.028 966 122.012 115.903 481.355
893 0 75.1199 11.7279 881 126.569 115.379 479.816
894 0 78.0832 12.2305 955 123.694 115.881 479.626
895 0 82.1278 12.4684 1024 122.832 116.016 477.082
896 0 84.1674 13.1048 1103 122.638 115.82 476.053
897 0 86.1952 12.5181 1079 124.951 116.545 475.593
898 0 89.1201 12.4327 1108 125.006 116.029 474.575
899 0 93.2562 12.3531 1152 126.413 116.238 470.97
900 0 93.1583 12.4519 1160 128.164 115.841 471.362
901 1 49.0248 11.1372 546 122.555 115.962 494.201
902 0 51.1216 10.5044 537 126.158 115.786 490.808
903 0 54.1118 12.7144 688 118.831 116.715 488.503
904 0 55.0938 11.544 636 125.863 117.131 489.907
905 0 55.0372 11.901 655 123.559 116.753 488.875
906 0 59.1222 11.7215 693 121.16 116.593 490.4
907 0 59.1394 12.1577 719 120.075 116.713 486.808
908 0 63.1791 12.2667 775 123.139 116.221 484.422
909 0 63.0723 11.4472 722 125.019 116.643 485.305
910 0 67.1101 12.5317 841 121.967 116.737 484.334
911 0 68.087 11.4266 778 126.09 116.058 484.174
912 0 70.0824 11.9146 835 127.41 116.389 479.692
913 0 71.0635 11.1731 794 129.131 116.278 480.606
914 0 76.191 13.1249 1000 123.454 116.283 478.014
915 0 79.224 13.1778 1044 122.33 116.702 476.573
916 0 82.1226 12.8954 1059 122.322 116.726 476.505
917 0 86.1265 13.5382 1166 119.582 115.933 474.081
918 0 88.2572 12.8488 1134 122.583 116.239 471.586
919 0 91.1747 11.6589 1063 125.334 116.371 472.294
920 1 48.0813 12.3957 596 121.559 116.267 491.133
921 0 49.0991 10.876 534 116.906 115.004 492.06
922 0 49.0617 11.0473 542 115.469 115.458 492.566
923 0 49.0992 12.0369 591 114.846 117.288 492.355
924 0 50.2384 11.3061 568 115.954 117.65 489.745
925 0 53.1114 10.9581 582 116.797 117.273 489.96
926 0 54.1943 11.0713 600 118.5 116.773 487.705
927 0 55.0925 11.2356 619 117.635 116.118 488.027
928 0 59.1517 12.2397 724 114.286 116.54 486.104
929 0 61.1363 11.3353 693 115.457 116.73 488.01
930 0 61.1844 10.689 654 118.118 116.327 485.823
931 0 65.0984 11.7975 768 114.859 116.48 485.81
932 0 67.2134 11.1139 747 115.786 116.266 484.842
933 0 69.2419 12.0881 837 114.422 116.125 483.438
934 0 70.144 10.564 741 117.35 116.464 482.865
935 0 74.2341 12.3259 915 113.677 116.212 481.003
936 0 75.1343 11.4062 857 117.051 116.111 480.078
937 0 80.2104 13.3399 1070 111.684 115.993 477.778
938 0 82.2009 12.8831 1059 113.684 116.315 475.84
939 0 85.2146 12.6387 1077 114.618 116.016 475.526
940 0 86.1916 12.0081 1035 116.612 116.379 475.256
941 0 92.2257 13.5971 1254 122.671 115.706 469.25
942 0 95.1738 12.7661 1215 121.254 115.808 470.255
943 0 97.1554 12.9792 1261 118.504 115.725 469.755
944 0 102.195 12.486 1276 117.904 115.622 466.228
945 1 51.0845 10.1596 519 115.58 117.166 491.374
946 0 56.0186 11.4605 642 112.889 115.907 489.783
947 0 58.0796 12.8961 749 106.162 114.948 489.435
948 0 60.1366 12.9705 780 112.004 113.951 487.505
949 0 60.0642 13.0027 781 109.375 114.168 487.676
950 0 63.1214 13.1176 828 109.821 114.86 486.344
951 0 65.2034 12.8521 838 109.979 114.529 482.569
952 0 68.0873 13.1008 892 108.835 114.679 483.613
953 0 70.0397 12.4215 870 120.301 115.553 483.567
954 0 70.0764 11.3876 798 126.041 115.4 481.64
955 0 74.1188 12.0077 890 121.582 115.674 483
956 0 78.0891 12.6138 985 120.509 117.221 476.88
957 0 79.1075 11.7561 930 122.37 116.418 478.702
958 0 82.0747 11.4042 936 124.238 115.681 475.746
959 0 87.1203 11.6965 1019 120.165 116.075 476.261
960 0 89.1308 11.5785 1032 113.194 115.818 471.108
961 0 88.1503 10.4254 919 121.35 115.193 469.866
962 0 95.1067 12.5438 1193 116.044 115.964 469.879
963 1 46.3621 11.2592 522 115.674 116.492 489.964
964 0 48.2322 12.1496 586 115.904 116.507 487.616
965 0 49.1205 11.482 564 116.887 117.275 490.34
966 0 52.2008 11.8006 616 110.562 117.071 489.612
967 0 53.1829 11.7143 623 110.886 117.063 491.265
968 0 56.1274 13.701 769 105.696 116.559 488.575
969 0 58.1051 12.3913 720 108.912 116.762 489.519
970 0 60.1071 13.6922 823 106.377 116.401 488.177
971 0 60.1973 12.2431 737 111.41 116.094 487.172
972 0 61.1375 13.2488 810 109.525 115.768 486.681
973 0 62.0812 12.7092 789 112.044 115.639 484.379
974 0 67.1663 13.9058 934 108.801 115.622 484.097
975 0 67.0682 12.7333 854 113.341 116.37 483.196
976 0 69.114 13.1088 906 112.566 115.998 482.287
977 0 71.0553 12.0188 854 116.048 116.559 481.355
978 0 77.0655 13.2355 1020 111.275 116.807 480.956
979 0 78.0959 13.2786 1037 110.618 117.149 480.817
980 0 78.1203 11.9175 931 115.408 117.139 477.946
981 0 83.0667 12.6404 1050 113.322 116.518 477.387
982 0 87.0768 13.2297 1152 112.71 116.407 474.885
983 1 43.0479 11.3362 488 115.055 116.83 495.996
984 0 44.0432 12.0563 531 115.864 116.853 493.363
985 0 49.1338 13.4124 659 113.636 117.182 493.605
986 0 45.0345 11.1692 503 116.39 116.759 494.811
987 0 49.021 11.9133 584 114.601 117.337 491.286
988 0 48.1034 11.4961 553 117.354 117.405 492.839
989 0 51.0673 12.5129 639 114.423 117.063 492.072
990 0 51.0559 12.1827 622 115.748 117.002 491.36
991 0 53.0496 12.3846 657 115.037 117.142 491.222
992 0 56.1346 13.8417 777 112.172 116.838 489.044
993 0 57.0712 13.2116 754 113.955 116.739 488.085
994 0 61.0995 11.8331 723 115.74 116.928 488.176
995 0 63.0756 12.9844 819 113.869 116.404 486.198
996 0 63.1808 11.9024 752 117.37 116.992 485.15
997 0 67.0791 12.0902 811 117.125 117.021 484.71
998 0 69.1207 12.4709 862 117.74 116.867 484.561
999 0 69.0901 12.8817 890 119.058 116.86 482.234
1000 0 73.1869 12.3246 902 120.235 116.407 480.924
1001 0 76.1555 13.9583 1063 115.862 116.879 480.266
1002 0 77.0952 13.1396 1013 119.807 116.494 478.819
1003 0 79.1743 12.7946 1013 121.338 116.453 477.64
1004 0 84.1759 13.1392 1106 121.427 116.699 474.834
1005 0 87.2743 14.8383 1295 116.261 117.08 474.39
1006 0 88.1331 13.8427 1220 119.77 117.541 472.38
1007 0 92.2032 13.4377 1239 120.937 116.555 469.954
1008 1 47.168 12.1269 572 124.273 116.04 490.811
1009 0 46.1729 12.4099 573 125.771 115.723 486.815
1010 0 48.1162 11.4307 550 122.26 115.896 484.913
1011 0 50.0889 11.9587 599 118.902 115.88 487.167
1012 0 49.0767 11.2681 553 121.807 116.159 486.92
1013 0 52.1063 11.5725 603 119.786 115.826 486.27
1014 0 53.1989 12.1807 648 119.73 115.673 484.069
1015 0 56.1151 12.207 685 118.015 115.761 484.345
1016 0 57.1127 12.1339 693 118.309 115.388 484.273
1017 0 59.1289 12.8025 757 117.202 115.855 483.074
1018 0 62.0409 13.3783 830 124.786 115.613 485.039
1019 0 65.0862 13.6742 890 123.251 115.48 484.182
1020 0 66.1026 13.7967 912 124.007 115.876 482.982
1021 0 67.1044 12.0707 810 128.965 115.394 481.702
1022 0 71.1073 14.3867 1023 120.775 115.39 479.182
1023 0 73.0939 13.6537 998 123.338 115.605 478.744
1024 0 75.1668 13.4102 1008 124.341 115.414 477.018
1025 0 78.121 13.1719 1029 124.651 115.637 476.212
1026 0 81.1587 14.0712 1142 121.629 115.853 476.354
1027 0 83.1893 13.5114 1124 123.603 115.722 475.044
1028 0 83.1743 13.4657 1120 125.496 115.638 472.711
1029 0 88.2728 14.5685 1286 120.955 115.418 470.291
1030 1 44.0814 10.9797 484 114.86 116.492 494.39
1031 0 46.2041 12.4015 573 113.349 116.761 490.937
1032 0 47.1039 12.0797 569 113.065 116.114 493.896
1033 0 48.184 12.9711 625 109.03 117.213 490.976
1034 0 47.0763 11.6832 550 114.536 116.891 491.884
1035 0 50.2923 11.6718 587 116.966 116.758 491.198
1036 0 53.1732 13.1645 700 111.55 116.326 489.181
1037 0 54.115 12.4919 676 113.283 116.935 488.834
1038 0 56.2297 12.4489 700 112.671 116.883 487.037
1039 0 56.1364 11.8283 664 115.622 116.893 488.137
1040 0 59.1196 12.5339 741 112.644 117.161 486.903
1041 0 62.3273 12.4825 778 112.882 116.373 483.123
1042 0 63.2022 12.5154 791 113.223 116.929 485.027
1043 0 66.2618 13.0543 865 113.046 116.451 482.467
1044 0 67.267 11.2537 757 114.938 116.435 479.313
1045 0 70.1051 12.6667 888 114.587 117.146 480.574
1046 0 75.1777 13.4082 1008 112.74 116.887 478.841
1047 0 78.1687 13.1766 1030 113.773 117.46 477.846
1048 0 80.1817 12.9955 1042 114.875 116.179 476.436
1049 0 84.1131 13.363 1124 114.244 116.992 472.273
1050 1 43.0489 11.4753 494 117.348 114.838 493.241
1051 0 46.0306 12.7958 589 112.859 115.601 493.754
1052 0 47.1121 12.2686 578 114.635 115.779 491.176
1053 0 50.1978 13.2078 663 111.338 116.3 492.287
1054 0 51.1032 12.2497 626 114.422 115.768 490.115
1055 0 53.1109 12.1068 643 113.949 115.12 490.067
1056 0 54.0846 12.4065 671 112.51 114.906 489.587
1057 0 54.0754 12.7415 689 114.356 114.702 488.393
1058 0 58.0672 13.5016 784 108.899 114.977 487.177
1059 0 58.0776 12.4316 722 114.457 115.147 487.337
1060 0 61.3781 11.4862 705 114.356 115.091 487.513
1061 0 62.1951 11.5604 719 114.765 114.544 486.675
1062 0 66.2839 12.9896 861 110.99 114.988 482.268
1063 0 66.0954 12.5879 832 113.183 115.096 483.562
1064 0 69.2034 11.6757 808 114.157 115.467 484.837
1065 0 70.2736 11.8252 831 115.373 114.922 483.455
1066 0 73.1159 13.3076 973 112.869 115.059 480.43
1067 0 80.1511 14.6099 1171 108.007 116.26 474.28
1068 0 80.1855 12.5459 1006 114.614 116.01 478.385
1069 1 42.0924 11.4747 483 117.242 115.851 495.35
1070 0 45.0422 10.6789 481 118.245 116.245 494.684
1071 0 47.1593 13.6558 644 111.733 115.05 493.123
1072 0 47.0484 12.5615 591 115.42 116.098 494.066
1073 0 48.1555 13.4772 649 113.752 114.495 490.416
1074 0 50.0842 12.6986 636 116.19 115.953 491.439
1075 0 49.099 11.7721 578 121.83 116.626 491.715
1076 0 51.0789 12.6667 647 118.929 116.997 490.986
1077 0 54.0506 13.5799 734 116.18 116.824 488.906
1078 0 54.1973 12.5652 681 120.938 116.435 488.53
1079 0 56.0568 13.0939 734 118.387 116.864 488.943
1080 0 58.0718 13.9827 812 117.129 117.373 487.484
1081 0 57.0433 12.6746 723 121.548 117.306 486.819
1082 0 60.1962 12.9908 782 119.604 116.93 487.228
1083 0 62.0647 13.8082 857 118.495 116.718 484.643
1084 0 65.1465 12.8019 834 119.428 116.965 485.235
1085 0 65.0714 13.2316 861 119.578 116.814 483.238
1086 0 70.0841 12.9416 907 119.625 116.968 481.87
1087 0 70.0322 13.6366 955 119.216 117.289 482.202
1088 0 73.0879 13.6137 995 118.462 117.205 481.093
1089 0 77.1032 13.3717 1031 118.056 117.589 480.171
1090 0 80.0261 13.6206 1090 118.321 117.368 479.341
1091 0 81.1032 13.5876 1102 118.819 117.621 477.223
1092 0 87.0486 14.5551 1267 115.24 117.149 475.019
1093 0 88.0886 13.5999 1198 119.235 116.927 473.251
1094 1 48.0232 12.1192 582 122.354 117.254 492.04
1095 0 49.2082 11.5225 567 122.46 115.083 490.536
1096 0 47.1191 10.8449 511 112.982 115.423 485.908
1097 0 52.1485 12.2918 641 123.232 116.622 490.009
1098 0 53.112 12.4642 662 122.279 116.949 490.385
1099 0 55.1123 12.7013 700 123.586 116.571 487.54
1100 0 57.0636 12.4423 710 122.939 117.146 487.397
1101 0 62.1032 13.1072 814 119.802 117.005 487
1102 0 62.0435 13.3616 829 120.469 117.168 485.165
1103 0 63.0745 13.4761 850 120.772 116.841 484.108
1104 0 66.0253 13.4797 890 120.546 117.33 484.512
1105 0 68.0158 13.8203 940 119.361 117.555 483.573
1106 0 72.0466 13.0888 943 122.224 117.355 481.069
1107 0 74.0577 13.0574 967 122.981 117.319 480.52
1108 0 76.1336 12.5569 956 125.88 118.168 479.191
1109 0 80.0228 13.871 1110 122.959 117.619 476.73
1110 1 40.0788 10.679 428 123.981 117.269 496.745
1111 0 44.0415 12.6926 559 117.233 117.614 495.971
1112 0 43.0165 11.7397 505 122.137 117.38 494.034
1113 0 46.1388 11.9205 550 120.827 114.975 494.013
1114 0 47.1645 11.9369 563 122.787 114.874 493.025
1115 0 47.181 11.7632 555 123.404 115.398 493.371
1116 0 48.1037 11.0802 533 125.073 114.917 492.659
1117 0 52.1183 11.1477 581 123.821 114.769 491.539
1118 0 53.1588 11.5503 614 122.029 114.863 491.689
1119 0 53.1096 12.0505 640 122.325 114.342 490.127
1120 0 55.044 12.7534 702 118.91 114.073 489.736
1121 0 56.0536 12.381 694 122.291 114.408 487.657
1122 0 57.0278 12.1344 692 122.882 113.682 487.121
1123 0 60.0616 12.8035 769 120.783 114.169 486.062
1124 0 62.036 12.9441 803 120.279 113.624 484.643
1125 0 63.0554 12.1639 767 122.362 114.091 485.01
1126 0 65.0536 12.9432 842 120.544 114.124 483.929
1127 0 67.0779 12.6122 846 121.943 113.987 481.745
1128 0 69.0843 12.9841 897 120.139 114.719 480.495
1129 0 71.0432 12.4854 887 121.468 114.117 480.304
1130 0 73.0352 13.2265 966 121.04 114.626 479.245
1131 0 77.2354 12.1706 940 125.207 115.063 477.426
1132 0 80.3046 12.2035 980 124.329 116.383 475.42
1133 1 43.0443 9.89678 426 122.864 116.176 495.265
1134 0 45.0771 12.4897 563 117.741 117.082 493.456
1135 0 46.0916 11.6941 539 117.833 116.878 493.323
1136 0 46.0882 11.8035 544 121.55 116.892 493.971
1137 0 47.0536 11.2637 530 124.519 118.225 489.726
1138 0 49.1041 11.4858 564 125.17 116.927 491.44
1139 0 51.1081 10.605 542 126.692 116.893 491.057
1140 0 52.1065 11.1694 582 125.723 117.022 491.199
1141 0 54.1067 10.1836 551 127.737 116.817 488.748
1142 0 57.0585 11.532 658 122.403 116.533 489.061
1143 0 56.0787 12.1971 684 123.386 117.566 487.073
1144 0 58.0471 11.4562 665 124.296 116.704 488.681
1145 0 61.0882 11.9827 732 123.454 117.589 485.885
1146 0 61.0538 11.3179 691 128.197 116.204 484.795
1147 0 63.021 11.3137 713 126.762 116.641 485.229
1148 0 66.0822 12.8325 848 122.039 117.263 483.579
1149 0 67.0629 11.4818 770 127.586 116.517 481.991
1150 0 69.0472 12.3249 851 124.069 115.597 484.398
1151 0 72.0602 12.2675 884 125.377 116.188 478.817
1152 0 76.0843 12.4336 946 123.162 116.171 479.407
1153 0 76.0587 11.6226 884 126.626 116.124 477.034
1154 0 78.037 10.8666 848 127.285 116.212 477.965
1155 0 81.1039 11.6394 944 125.983 116.163 475.07
1156 0 84.0665 11.9667 1006 124.2 116.122 473.589
1157 0 88.057 11.6856 1029 120.783 116.089 474.552
1158 1 46.0235 11.0161 507 116.034 116.501 493.018
1159 0 48.0308 11.5551 555 112.802 115.863 491.762
1160 0 47.0351 10.439 491 114.78 116.442 491.888
1161 0 50.1521 12.502 627 110.268 116.418 490.054
1162 0 53.0608 11.6847 620 112.597 116.563 490.265
1163 0 53.063 12.5134 664 111.974 116.248 489.006
1164 0 54.0762 12.3529 668 112.196 116.668 488.566
1165 0 57.0504 11.7089 668 112.165 116.521 488.302
1166 0 57.0527 11.8136 674 132.019 117.547 488.282
1167 0 60.1018 12.745 766 111.125 116.516 486.812
1168 0 60.0485 12.4566 748 112.155 116.888 485.777
1169 0 62.0995 11.9002 739 113.793 116.438 485.08
1170 0 64.0785 12.828 822 112.254 117.122 484.129
1171 0 66.1626 12.6658 838 110.395 117.379 483.26
1172 0 67.1029 12.4287 834 113.522 116.763 481.186
1173 0 69.0576 12.9457 894 110.884 116.493 483.095
1174 0 72.1789 13.3419 963 110.816 116.445 479.991
1175 0 72.1207 12.3404 890 114.146 116.601 478.293
1176 0 76.1706 12.7083 968 113.606 115.782 477.444
1177 0 77.1471 12.1197 935 114.49 116.088 476.565
1178 0 77.2183 11.7459 907 118.472 115.447 476.151
1179 0 80.1281 11.8186 947 120.092 116.039 474.362
1180 0 83.0784 11.7239 974 120.861 116.767 474.511
1181 1 43.0426 10.8962 469 124.032 117.198 492.409
1182 0 44.022 11.3352 499 124.487 116.996 491.639
1183 0 46.2072 14.0238 648 116.458 115.21 490.09
1184 0 48.0324 11.867 570 123.033 116.068 490.954
1185 0 49.075 11.0851 544 125.292 116.333 490.814
1186 0 50.0566 12.0264 602 122.676 116.62 489.141
1187 0 52.0876 12.287 640 122.522 116.806 489.47
1188 0 53.0661 12.5504 666 122.353 116.895 489.143
1189 0 54.0355 12.9359 699 121.815 116.827 488.059
1190 0 56.0407 12.3125 690 123.791 116.538 486.952
1191 0 58.0499 12.9199 750 122.195 116.729 486.485
1192 0 59.0574 13.3937 791 121.981 116.985 485.241
1193 0 58.1308 13.0052 756 126.176 116.786 483.269
1194 0 61.045 13.1379 802 124.168 117.05 484.146
1195 0 63.0374 13.6268 859 123.061 117.241 482.462
1196 0 65.0634 13.3101 866 124.411 117.412 482.975
1197 0 68.0221 13.0693 889 126.595 116.809 481.378
1198 0 69.073 12.7836 883 128.734 116.379 480.65
1199 0 70.0637 13.4021 939 127.619 117.117 480.936
1200 0 74.0487 13.5046 1000 127.959 116.865 477.991
1201 0 76.1 13.2983 1012 129.415 117.205 477.793
1202 0 80.0262 13.0582 1045 129.842 116.38 477.12
1203 0 82.0512 13.7963 1132 128.995 116.722 475.759
1204 0 85.0704 14.87 1265 125.878 116.462 473.708
1205 0 87.1429 12.7951 1115 132.479 116.067 474.428
1206 0 90.0685 13.3454 1202 132.31 115.722 470.562
1207 1 43.0338 10.8287 466 133.245 116.637 493.528
1208 0 47.0591 11.0712 521 129.948 115.125 491.647
1209 0 49.0968 13.8094 678 120.513 114.15 490.016
1210 0 49.0831 12.163 597 124.817 114.653 490.245
1211 0 50.1004 12.1755 610 125.21 114.921 490.775
1212 0 53.0473 13.0827 694 122.837 114.977 489.334
1213 0 54.1008 13.1976 714 123.765 115.011 488.5
1214 0 53.1093 12.2013 648 128.343 114.772 486.711
1215 0 56.1006 13.7788 773 123.576 114.534 485.918
1216 0 59.0726 12.9502 765 124.344 114.604 485.736
1217 0 61.0751 14.5886 891 119.519 113.963 484.499
1218 0 62.1004 13.4621 836 123.49 114.408 481.848
1219 0 65.038 13.2077 859 123.41 115.357 484.237
1220 0 68.0332 14.5223 988 119.23 115.21 482.443
1221 0 67.0293 13.4717 903 125.238 116.518 481.446
1222 0 71.0408 13.26 942 124.818 116.22 480.748
1223 0 74.1043 13.508 1001 122.359 116.713 479.25
1224 0 77.1315 13.5353 1044 121.698 116.529 477.188
1225 0 79.1566 13.4922 1068 121.896 116.412 477.755
1226 1 43.0498 11.5912 499 127.475 116.369 494.996
1227 0 43.0319 11.7122 504 127.573 116.252 494.448
1228 0 43.01 12.4622 536 126.336 115.459 494.132
1229 0 43.0187 12.2737 528 122.428 116.025 493.973
1230 0 47.0694 12.7896 602 120.289 116.585 494.105
1231 0 44.0171 11.2456 495 128.547 115.986 492.752
1232 0 48.0691 11.5459 555 125.883 116.189 491.292
1233 0 51.1806 12.2117 625 121.237 117.547 488.686
1234 0 51.1248 12.2446 626 122.617 116.968 490.489
1235 0 51.0767 12.4714 637 122.677 116.744 489.972
1236 0 53.05 12.4976 663 123.468 116.98 488.187
1237 0 56.0405 12.7229 713 121.586 115.243 489.247
1238 0 56.0681 11.3968 639 125.911 116.446 488.164
1239 0 56.0857 11.7677 660 127.224 116.338 486.186
1240 0 58.0407 12.4396 722 124.256 116.666 486.544
1241 0 63.042 12.6424 797 123.02 116.598 484.488
1242 0 64.0994 11.7318 752 125.601 116.113 483.997
1243 0 65.0781 12.3698 805 125.061 116.252 483.675
1244 0 68.1859 12.2606 836 126.212 116.051 482.617
1245 0 70.2428 12.8127 900 125.123 115.918 481.889
1246 0 72.1091 11.8432 854 127.073 116.92 482.792
1247 0 73.1779 11.7249 858 129.406 116.437 479.492
1248 0 77.3291 12.1041 936 127.447 115.158 477.012
1249 0 79.4702 12.0171 955 128.842 115.447 473.257
1250 0 82.6838 13.5335 1119 125.48 115.021 470.038
1251 0 86.0875 12.3131 1060 126.883 116.159 471.479
1252 1 46.0657 12.4388 573 129.188 116.148 491.373
1253 0 49.4834 12.7315 630 126.29 115.016 488.46
1254 0 51.0115 11.468 585 132.797 116.899 490.961
1255 0 53.0658 13.0027 690 128.181 116.994 490.568
1256 0 53.0565 12.3642 656 131.604 116.384 489.509
1257 0 54.0343 12.8992 697 130.211 116.588 488.211
1258 0 55.0272 13.2843 731 130.383 116.461 487.308
1259 0 56.0804 13.2845 745 129.851 116.397 486.877
1260 0 58.0674 13.4843 783 128.783 115.99 487.027
1261 0 60.0504 13.8051 829 128.566 115.854 484.461
1262 0 63.1424 12.3847 782 130.049 116.463 485.765
1263 0 64.0921 13.1998 846 128.862 115.57 483.63
1264 0 67.0738 12.9708 870 128.6 115.664 483.948
1265 0 68.1521 12.5015 852 129.768 116.428 482.55
1266 0 69.0555 13.2502 915 128.749 116.154 480.374
1267 0 74.0819 14.349 1063 123.897 115.223 478.849
1268 0 75.1811 14.3254 1077 127.045 115.75 476.481
1269 0 79.406 13.538 1075 129.614 116.269 475.378
1270 0 79.4845 12.9962 1033 132.055 115.719 473.964
1271 0 83.3706 13.8178 1152 127.367 115.06 473.475
1272 0 84.0842 12.2258 1028 132.147 115.704 471.668
1273 0 88.1004 12.4744 1099 125.968 115.712 471.659
1274 0 90.2573 12.697 1146 130.747 115.848 468.841
1275 1 49.0236 12.3818 607 123.061 115.74 492.623
1276 0 48.0577 12.2353 588 129.347 116.25 489.357
1277 0 48.0743 11.8983 572 116.185 116.04 486.565
1278 0 51.1847 11.605 594 111.266 114.87 487.362
1279 0 51.1981 11.0551 566 114.205 114.779 484.458
1280 0 53.1225 11.0688 588 113.594 114.318 486.563
1281 0 55.087 11.146 614 115.155 114.987 485.005
1282 0 55.1587 12.5456 692 112.405 114.483 481.772
1283 0 59.1299 12.7685 755 109.942 114.805 483.252
1284 0 60.1528 11.6204 699 113.179 115.089 482.246
1285 0 60.0888 11.3499 682 115.091 115.327 479.71
1286 0 60.0553 11.1064 667 116.805 115.406 480.412
1287 0 64.186 12.604 809 114.001 115.281 477.027
1288 0 67.097 11.7293 787 115.219 115.123 478.3
1289 0 69.0326 13.0663 902 124.359 114.334 481.327
1290 0 72.0782 12.7362 918 124.514 114.298 481.058
1291 0 73.1 13.3379 975 124.77 114.48 479.842
1292 0 76.1073 13.389 1019 125.579 114.83 478.223
1293 0 79.0454 13.8022 1091 124.971 114.586 476.802
1294 0 80.0706 12.5015 1001 130.273 115.024 474.444
1295 0 84.1282 12.4572 1048 129.132 114.306 474.315
1296 0 85.081 13.0464 1110 129.043 114.777 473.277
1297 0 90.1122 13.3056 1199 129.206 114.186 469.396
1298 0 92.2468 13.2796 1225 128.824 114.645 470.007
1299 0 95.2053 13.077 1245 129.231 114.654 469.335
1300 0 99.1998 13.9113 1380 126.601 113.893 468.122
1301 0 102.285 14.4792 1481 125.481 114.293 465.441
1302 1 52.2443 11.829 618 129.371 114.528 489.715
1303 0 55.2852 12.6074 697 126.065 115.855 489.666
1304 0 54.1837 11.0734 600 119.872 115.407 484.798
1305 0 58.2218 11.5592 673 116.097 114.825 485.578
1306 0 61.301 12.2184 749 115.068 114.689 485.021
1307 0 61.1528 11.8392 724 117.221 114.912 482.617
1308 0 63.1989 12.4053 784 115.043 115.242 481.653
1309 0 63.1396 11.4508 723 116.844 115.266 482.994
1310 0 65.0349 12.255 797 124.048 115.602 483.957
1311 0 68.0493 12.2117 831 124.928 115.28 482.75
1312 0 70.0938 12.9113 905 123.608 116.007 479.561
1313 0 73.103 13.4331 982 122.805 115.593 478.441
1314 0 74.0921 12.7274 943 125.121 115.297 478.513
1315 0 78.0515 12.9145 1008 125.176 115.037 477.128
1316 0 82.1971 13.7718 1132 122.641 115.413 476.823
1317 0 83.1097 12.7061 1056 125.723 115.199 476.2
1318 0 86.1881 13.5866 1171 124.751 115.052 474.005
1319 0 89.291 13.54 1209 126.604 115.4 471.332
1320 0 92.131 13.2529 1221 128.416 115.264 468.939
1321 0 92.1686 13.6598 1259 127.974 115.092 469.177
1322 0 97.1235 14.6103 1419 125.397 115.87 466.007
1323 0 102.099 14.006 1430 126.021 115.556 465.008
1324 0 105.239 15.2985 1610 121.178 114.964 464.252
1325 0 105.126 14.0688 1479 127.984 115.456 460.407
1326 0 111.079 14.3501 1594 119.745 115.425 456.832
1327 0 115.254 14.0473 1619 119.099 115.611 454.812
1328 0 120.17 14.7957 1778 116.226 115.83 454.877
1329 0 124.197 13.1726 1636 121.729 115.648 450.105
1330 0 126.377 14.2748 1804 125.63 114.547 445.123
1331 1 66.0686 10.2318 676 123.743 115.151 477.457
1332 0 70.1937 13.9899 982 115.286 114.808 480.834
1333 0 75.1476 12.5619 944 115.341 116.573 478.287
1334 0 79.3259 13.7534 1091 124.218 115.383 477.18
1335 0 79.3432 11.5952 920 130.808 115.072 475.343
1336 0 82.21 12.0302 989 128.589 114.817 473.7
1337 0 86.267 13.3075 1148 123.882 115.046 473.508
1338 0 89.34 13.499 1206 124.719 115.15 471.036
1339 0 91.3768 12.9573 1184 124.366 115.055 469.791
1340 0 97.229 13.6688 1329 117.762 114.385 466.504
1341 0 97.3671 12.6326 1230 123.384 114.929 468.772
1342 0 98.24 12.103 1189 125.837 114.281 466.959
1343 0 103.478 12.8626 1331 125.183 114.047 458.192
1344 0 107.291 12.8342 1377 124.116 114.014 460.731
1345 0 110.454 11.9779 1323 127.2 114.147 458.868
1346 0 114.678 12.4958 1433 125.615 114.046 457.033
1347 1 59.251 10.0927 598 121.338 114.127 483.249
1348 0 61.0551 10.6789 652 119.276 115.581 487.678
1349 0 64.0676 10.723 687 115.245 115.91 485.763
1350 0 65.0756 12.5546 817 112.803 116.179 483.567
1351 0 68.0309 11.3184 770 115.971 116.008 482.992
1352 0 70.0403 12.0788 846 114.799 115.87 479.449
1353 0 71.0439 11.514 818 115.924 116.214 480.467
1354 0 75.0842 12.3994 931 114.27 116.316 477.212
1355 0 77.0922 11.6743 900 116.41 116.189 475.739
1356 0 80.1964 12.1202 972 114.516 116.506 473.321
1357 0 85.2239 12.5434 1069 113.095 115.925 471.984
1358 0 87.1106 11.9503 1041 115.027 116.041 474.435
1359 0 89.0582 11.1837 996 123.803 116.201 469.1
1360 0 94.1975 11.7094 1103 120.973 115.619 468.929
1361 0 97.2072 11.4189 1110 117.194 115.284 467.245
1362 1 50.0955 11.6378 583 111.079 114.736 489.473
1363 0 53.0534 11.6487 618 109.756 114.788 490.32
1364 0 53.288 10.7529 573 112.695 113.211 486.269
1365 0 53.0158 11.3174 600 113.222 114 489.635
1366 0 55.0625 11.2418 619 111.42 113.625 489.225
1367 0 56.0987 11.1411 625 113.504 113.114 485.933
1368 0 58.1085 10.0157 582 113.155 113.163 486.211
1369 0 59.0221 11.4533 676 112.385 113.944 484.519
1370 0 59.0441 10.6022 626 114.998 113.414 483.735
1371 0 64.1047 10.7948 692 111.608 112.851 484.418
1372 0 67.1433 10.6638 716 112.123 112.927 481.954
1373 0 68.09 12.4101 845 109.02 113.292 480.931
1374 0 71.0957 12.7715 908 107.677 115.137 480.748
1375 0 73.1435 11.4022 834 111.535 116.824 478.415
1376 0 77.0867 11.8827 916 109.693 117.12 477.36
1377 0 79.0852 11.4813 908 110.876 115.696 476.496
1378 0 80.169 11.4758 920 114.024 114.078 476.152
1379 0 84.0793 12.738 1071 114.556 112.798 470.992
1380 0 86.0581 11.3296 975 118.147 113.096 472.666
1381 0 91.1026 12.3377 1124 115.031 113.261 470.249
1382 1 47.1042 9.6382 454 117.511 113.758 493.789
1383 0 47.1283 11.5642 545 115.013 113.229 493.387
1384 0 46.0255 10.5594 486 110.36 115.611 493.626
1385 0 47.0508 10.393 489 112.047 115.268 491.8
1386 0 50.0335 10.8527 543 110.033 116.195 490.162
1387 0 51.0689 10.339 528 110.975 116.814 491.152
1388 0 52.1243 11.3767 593 109.433 116.717 486.358
1389 0 53.0414 9.86023 523 112.258 116.772 487.637
1390 0 58.1036 11.4451 665 106.57 116.752 487.386
1391 0 60.1038 11.4968 691 106.89 117.214 485.368
1392 0 60.0645 11.471 689 109.224 116.94 483.919
1393 0 62.0885 11.8218 734 108.62 116.91 482.193
1394 0 64.0995 10.4057 667 110.777 116.261 483.177
1395 0 68.0948 12.042 820 106.415 116.604 481.211
1396 0 69.0763 11.4945 794 108.777 116.822 479.196
1397 0 72.109 11.1221 802 107.738 117.232 478.966
1398 0 75.095 12.0514 905 104.817 116.759 477.765
1399 0 78.0808 11.9492 933 104.121 116.942 477.281
1400 0 80.1013 12.2345 980 103.884 116.992 474.191
1401 0 81.1512 9.7842 794 106.992 117.047 478.014
1402 0 84.0792 10.7993 908 104.895 116.837 476.219
1403 0 87.1192 10.9276 952 105.46 116.666 474.105
1404 0 92.1168 12.7447 1174 103.296 116.666 470.209
1405 1 52.0175 10.6118 552 107.027 116.815 486.353
1406 0 54.1267 11.3807 616 105.417 116.213 485.974
1407 0 55.0093 10.8345 596 99.6107 115.685 482.562
1408 0 56.0258 10.6201 595 100.703 115.968 482.126
1409 0 56.0229 11.5132 645 101.595 115.955 479.495
1410 0 58.0378 10.7861 626 103.283 115.883 479.326
1411 0 60.02 12.2459 735 99.4707 115.887 479.367
1412 0 60.035 11.9097 715 102.436 115.824 476.116
1413 0 65.0778 10.6642 694 104.359 115.826 476.128
1414 0 69.0991 13.2563 916 98.6747 115.814 474.417
1415 0 70.0831 11.1582 782 103.453 115.978 473.563
1416 0 70.0648 11.5893 812 103.839 115.814 471.392
1417 0 73.0931 12.272 897 102.953 116.405 471.184
1418 0 76.0594 11.2675 857 105.93 116.006 469.967
1419 0 79.0796 12.6202 998 103.57 115.716 467.041
1420 0 83.0848 11.9516 993 105.874 115.825 466.024
1421 0 85.0594 12.0151 1022 105.638 115.812 466.007
1422 0 86.109 11.2648 970 108.942 115.468 460.614
1423 1 44.0654 9.12281 402 101.132 115.833 485.527
1424 0 44.0698 9.82532 433 100.111 115.674 482.85
1425 0 47.0464 11.0954 522 96.7912 116.142 482.406
1426 0 50.131 10.3329 518 96.0309 116.251 482.127
1427 0 53.091 12.3938 658 100.948 117.655 487.125
1428 0 54.0806 11.187 605 104.382 117.42 487.284
1429 0 56.0661 13.1452 737 101.072 116.927 484.791
1430 0 56.0411 11.67 654 105.32 116.561 484.838
1431 0 59.0616 13.5452 800 101.831 116.529 483.17
1432 0 62.1223 13.4895 838 101.313 116.51 482.365
1433 0 62.1361 12.5853 782 105.949 116.235 479.756
1434 0 63.0996 13.3598 843 105.87 116.014 477.829
1435 0 67.0599 12.8989 865 106.573 116.645 478.899
1436 0 68.1267 13.3868 912 106.208 116.172 476.333
1437 0 70.0518 13.647 956 106.526 115.952 475.529
1438 0 72.0826 13.8868 1001 106.751 115.331 475.052
1439 0 76.1119 15.3984 1172 102.806 116.573 475.616
1440 0 77.0868 13.4783 1039 109.159 116.407 475.691
1441 0 79.1827 14.435 1143 108.34 116.261 473.015
1442 0 81.1298 13.9776 1134 110.668 115.976 471.49
1443 0 83.0828 15.5989 1296 107.742 116.017 468.785
1444 0 87.2727 15.3083 1336 108.465 115.868 469.009
1445 0 89.1077 14.7238 1312 111.885 116.071 468.872
1446 0 91.167 16.0255 1461 109.376 115.511 467.78
1447 0 94.168 14.3998 1356 114.644 115.779 466.627
1448 0 96.1657 14.735 1417 115.592 115.603 464.296
1449 0 98.2276 13.5502 1331 119.286 116.012 465.652
1450 0 101.125 13.5574 1371 118.564 115.726 464.923
1451 0 104.128 13.1857 1373 123.11 115.95 461.339
1452 1 59.0777 11.5103 680 122.635 116.597 486.153
1453 0 62.0896 13.4805 837 120.834 116.836 480.896
1454 0 63.1304 13.1157 828 121.93 116.499 480.54
1455 0 66.1662 12.0605 798 125.382 117.144 481.481
1456 0 68.0946 14.2449 970 120.808 116.769 478.552
1457 0 68.0965 12.6879 864 126.628 116.594 479.503
1458 0 72.0905 14.6066 1053 121.771 117.017 476.637
1459 0 72.1622 12.7352 919 127.081 114.206 477.82
1460 0 76.3094 14.3495 1095 121.226 114.315 477.579
1461 0 78.0908 13.7276 1072 125.029 114.098 475.329
1462 0 80.0507 13.6039 1089 124.732 114.178 474.229
1463 0 82.1807 12.8984 1060 126.943 114.242 473.936
1464 0 86.1397 13.629 1174 124.343 113.704 471.344
1465 0 86.2011 12.9929 1120 123.221 114.133 472.651
1466 0 90.1876 13.0728 1179 122.704 113.439 470.856
1467 0 92.1139 13.7221 1264 121.094 113.339 471.427
1468 0 97.1063 13.686 1329 121.144 113.325 468.496
1469 0 99.0965 13.3708 1325 123.78 113.064 465.523
1470 0 102.112 13.1914 1347 123.63 113.685 463.85
1471 1 59.052 12.5144 739 120.191 113.089 484.38
1472 0 59.0933 11.1011 656 126.375 114.029 486.134
1473 0 60.1854 10.6837 643 117.383 114.588 480.115
1474 0 60.0912 10.717 644 110.315 114.354 482.057
1475 0 64.0941 11.0619 709 109.014 114.2 478.855
1476 0 66.0401 10.8873 719 110.576 114.387 478.499
1477 0 69.1084 11.7641 813 108.786 114.199 476.31
1478 0 70.114 11.5669 811 109.699 114.096 475.564
1479 0 74.0812 12.1488 900 108.082 114.806 476.056
1480 0 74.0386 12.1288 898 109.992 114.567 474.555
1481 0 78.1153 11.5982 906 111.359 114.415 474.48
1482 0 82.1022 12.8864 1058 116.259 113.087 472.256
1483 0 86.0953 13.7522 1184 112.27 113.373 470.89
1484 0 89.1163 12.6688 1129 114.554 113.395 473.155
1485 0 91.1074 12.0188 1095 118.087 113.251 470.998
1486 0 92.1489 11.5899 1068 120.213 113.087 470.772
1487 0 96.0831 11.2091 1077 120.436 112.888 465.746
1488 0 101.107 12.7786 1292 116.077 113.115 465.409
1489 0 102.194 11.8207 1208 118.892 112.996 465.57
1490 1 55.0603 11.2422 619 115.582 112.958 487.945
1491 0 56.0956 11.1239 624 115.96 112.737 485.046
1492 0 61.0755 12.5418 766 111.963 112.877 484.299
1493 0 61.1232 13.6118 832 109.099 112.999 483.525
1494 0 63.1542 12.8733 813 112.512 113.588 485.449
1495 0 61.0454 12.0074 733 118.791 113.175 485.405
1496 0 64.0528 12.7551 817 117.115 112.329 481.944
1497 0 65.1358 11.3302 738 121.45 112.997 483.462
1498 0 66.1765 11.7867 780 122.917 113.036 481.199
1499 0 71.152 12.663 901 119.678 113.024 480.251
1500 0 72.06 12.781 921 120.705 113.363 481.046
1501 0 74.0764 12.4736 924 122.142 113.065 478.897
1502 0 75.0685 11.7359 881 125.422 113.188 478.312
1503 0 77.0917 12.4916 963 122.89 113.966 478.508
1504 0 82.0307 13.629 1118 113.685 114.333 476.104
1505 0 82.2346 14.3857 1183 115.3 113.669 474.793
1506 0 83.0958 13.8033 1147 121.354 114.201 476.273
1507 0 83.0904 13.4071 1114 124.6 114.273 474.276
1508 0 83.0871 12.4929 1038 128.897 113.467 474.17
1509 0 86.089 12.7659 1099 130.548 112.995 472.665
1510 0 86.1548 13.2204 1139 131.63 112.76 471.361
1511 0 91.1239 13.6408 1243 126.916 113.209 471.467
1512 0 94.1447 13.0438 1228 129.107 113.254 469.759
1513 0 97.244 14.1705 1378 124.212 113.353 467.472
1514 0 99.2067 13.6584 1355 125.28 112.982 465.838
1515 1 54.1375 12.3759 670 128.036 113.366 488.058
1516 0 58.1721 11.827 688 126.153 113.445 487.451
1517 0 59.1744 11.8125 699 128.044 113.425 484.349
1518 0 61.084 12.6547 773 124.565 113.189 485.263
1519 0 61.159 12.0506 737 120.484 113.963 486.486
1520 0 63.1213 13.3552 843 118.225 113.819 484.848
1521 0 65.1057 12.7331 829 120.258 114.48 484.785
1522 0 67.0737 13.1199 880 121.752 114.097 482.484
1523 0 70.0483 13.9618 978 119.043 114.394 482.089
1524 0 69.1683 13.2286 915 124.082 114.004 482.622
1525 0 69.1507 12.3209 852 128.703 113.55 482.657
1526 0 76.0815 13.4067 1020 125.619 114.311 482.588
1527 0 76.1277 13.0701 995 129.963 114.183 480.426
1528 0 79.2472 12.543 994 133.012 113.829 478.618
1529 0 80.0902 12.7981 1025 134.122 114.001 481.02
1530 0 82.2574 13.1903 1085 137.229 113.72 475.691
1531 1 44.0724 11.8668 523 142.572 114.147 495.554
1532 0 46.0433 12.0756 556 142.921 113.885 495.32
1533 0 46.1625 12.8893 595 144.134 113.808 494.114
1534 0 49.021 12.4029 608 146.225 114.664 494.234
1535 0 46.0313 11.9484 550 140.858 113.515 495.191
1536 0 49.213 12.3748 609 139.708 112.798 491.796
1537 0 50.0431 12.8689 644 140.37 113.332 492.46
1538 0 52.0424 12.8933 671 140.861 113.446 490.653
1539 0 53.0795 12.3023 653 141.57 112.93 490.594
1540 0 54.0714 12.2061 660 143.017 113.136 490.435
1541 0 55.1361 12.3875 683 141.432 112.593 489.878
1542 0 57.1365 13.3715 764 139.018 112.916 487.577
1543 0 60.0709 13.3675 803 137.726 113.34 486.054
1544 0 61.0749 12.149 742 141.447 112.841 486.337
1545 0 64.1262 12.6469 811 139.009 112.829 484.451
1546 0 66.1407 12.3676 818 139.641 112.054 483.483
1547 0 69.1523 12.6388 874 137.359 112.625 483.275
1548 0 70.081 12.4713 874 137.656 111.787 482.906
1549 0 70.0726 12.5584 880 137.617 112.332 483.635
1550 0 75.0561 13.2568 995 135.898 112.392 479.348
1551 0 77.1652 12.7389 983 137.939 111.682 476.571
1552 0 81.1677 13.737 1115 133.217 111.283 477.15
1553 0 81.0735 12.8279 1040 136.78 112.138 475.265
1554 0 86.2039 14.3961 1241 132.461 111.572 471.916
1555 0 89.1256 12.8807 1148 137.667 111.557 472.39
1556 0 90.1614 12.9767 1170 135.098 112.464 468.023
1557 0 94.2155 13.363 1259 134.239 112.817 468.153
1558 1 48.0488 10.4061 500 133.538 111.442 492.244
1559 0 50.0404 11.4508 573 128.618 113.274 490.346
1560 0 52.0524 12.4106 646 124.582 113.138 488.789
1561 0 53.1022 12.7678 678 124.102 113.17 483.139
1562 0 56.138 13.5203 759 121.138 113.585 485.642
1563 0 58.1203 12.3021 715 122.717 113.33 485.129
1564 0 58.1641 12.5507 730 122.516 113.551 484.452
1565 0 62.1117 12.075 750 123.047 113.667 483.669
1566 0 63.1377 12.9875 820 120.871 113.598 482.168
1567 0 66.2075 12.6874 840 120.608 113.104 481.285
1568 0 66.0961 12.3154 814 122.085 111.946 483.851
1569 0 69.0885 12.5781 869 121.577 112.025 483.205
1570 0 71.0686 11.9603 850 123.799 111.948 480.898
1571 0 73.2202 12.5102 916 122.095 112.784 477.947
1572 0 77.1331 12.6664 977 121.295 111.001 477.238
1573 0 78.1001 12.7657 997 120.941 111.466 476.795
1574 0 81.1503 12.6925 1030 121.349 111.417 472.928
1575 0 82.1001 12.4726 1024 122.248 111.7 471.595
1576 0 85.1216 12.4058 1056 122.065 112.143 471.913
1577 0 89.1753 13.7146 1223 119.034 111.6 468.478
1578 0 91.0288 12.5784 1145 122.128 111.761 468.515
1579 0 96.1461 13.1675 1266 120.303 111.983 467.5
1580 0 98.0972 13.242 1299 120.112 112.311 465.307
1581 0 100.183 11.469 1149 124.711 111.185 462.596
1582 0 104.166 13.0656 1361 120.688 111.952 462.781
1583 0 110.168 12.9348 1425 119.773 112.248 462.031
1584 0 114.373 13.1937 1509 119.683 112.087 457.944
1585 1 63.1859 10.9202 690 118.343 111.857 484.261
1586 0 64.0437 11.6015 743 118.872 111.646 482.935
1587 0 66.1089 13.5383 895 114.675 112.235 481.534
1588 0 68.1744 13.6122 928 110.345 111.557 481.968
1589 0 71.1472 12.7623 908 113.181 112.086 480.793
1590 0 72.2893 12.3946 896 115.771 111.643 479.61
1591 0 73.0909 11.7115 856 115.779 111.467 479.777
1592 0 77.1151 12.0988 933 115.277 111.119 477.495
1593 0 80.0818 12.737 1020 113.427 111.524 477.928
1594 0 82.2139 11.762 967 116.759 111.928 475.582
1595 0 84.1779 12.2954 1035 116.448 112.037 474.51
1596 0 88.1951 12.4724 1100 116.153 111.551 471.4
1597 0 92.0857 11.8042 1087 117.823 111.547 470.962
1598 0 96.1554 12.3134 1184 116.378 111.826 466
1599 0 96.1218 12.016 1155 119.016 112.992 466.734
1600 0 100.163 10.3332 1035 120.684 112.089 468.922
1601 0 105.214 10.9396 1151 123.476 111.569 462.806
1602 0 109.138 12.2689 1339 122.676 111.409 461.443
1603 1 59.1023 13.5528 801 112.504 111.459 487.458
1604 0 58.0662 12.3652 718 118.645 111.266 485.394
1605 0 61.1262 14.0202 857 112.158 111.716 485.352
1606 0 61.0499 11.9411 729 120.277 111.772 486.889
1607 0 63.1135 12.1844 769 120.78 111.347 483.891
1608 0 64.0947 11.8419 759 123.129 111.68 482.951
1609 0 68.178 13.5234 922 118.711 110.983 481.54
1610 0 68.2045 11.9787 817 123.983 111.732 479.537
1611 0 72.2 12.9363 934 120.595 111.183 481.441
1612 0 73.1545 12.7128 930 123.754 111.915 477.273
1613 0 76.3558 12.5989 962 124.032 111.759 474.367
1614 0 79.2556 12.9455 1026 123.21 111.77 474.391
1615 0 83.219 13.9151 1158 121.136 112.367 471.803
1616 0 85.3674 12.7918 1092 126.579 111.7 472.26
1617 0 87.5335 12.8408 1124 123.714 112.465 469.345
1618 0 92.177 13.4415 1239 117.036 111.282 467.863
1619 1 49.0208 10.4037 510 118.312 113.131 491.212
1620 0 50.044 10.8305 542 116.939 114.076 491.389
1621 0 48.0524 11.9245 573 116.468 112.532 488.464
1622 0 53.1829 12.6732 674 112.601 111.166 487.175
1623 0 56.0552 12.5234 702 112.472 112.62 488.879
1624 0 56.0766 11.3951 639 115.696 114.081 488.249
1625 0 58.045 13.1277 762 111.58 114.058 487.892
1626 0 56.0393 12.4734 699 113.468 112.569 488.123
1627 0 57.0592 10.3401 590 118.986 114.034 487.451
1628 0 59.0803 11.8314 699 119.718 113.356 482.923
1629 0 61.1244 12.2046 746 118.027 113.477 485.307
1630 0 64.0935 12.4506 798 116.916 113.454 484.692
1631 0 65.123 12.5301 816 116.496 112.543 483.441
1632 0 70.074 12.7865 896 117.349 112.676 481.104
1633 0 71.0647 13.2977 945 118.814 111.979 479.543
1634 0 71.1815 12.4611 887 122.928 112.494 480.193
1635 0 76.2001 12.4541 949 121.84 112.202 480.694
1636 0 77.2062 12.5119 966 119.133 112.409 476.47
1637 0 80.1393 13.0148 1043 117.208 112.735 474.348
1638 0 81.2391 12.3709 1005 123.786 111.927 474.122
1639 1 45.1846 11.6854 528 119.973 112.665 493.591
1640 0 48.0971 13.5559 652 116.031 112.526 491.532
1641 0 50.154 11.6641 585 110.609 112.431 492.781
1642 0 47.0528 11.4127 537 117.59 112.771 493.156
1643 0 48.0172 10.7253 515 120.093 113.258 492.175
1644 0 55.0469 14.5331 800 105.19 112.706 487.828
1645 0 53.0933 12.6005 669 114.848 112.439 489.46
1646 0 54.0509 12.3217 666 114.306 112.85 490.27
1647 0 54.1268 11.9165 645 116.688 112.42 489.913
1648 0 58.0442 13.1279 762 115.197 112.127 487.534
1649 0 60.1491 12.5189 753 114.542 112.246 486.078
1650 0 61.1303 11.6963 715 116.408 112.347 485.527
1651 0 63.1466 11.0695 699 118 112.579 484.166
1652 0 65.2582 11.9985 783 115.375 112.331 484.789
1653 0 67.2461 12.5509 844 115.909 112.466 481.154
1654 0 69.1369 11.0795 766 119.86 112.355 480.807
1655 0 72.2058 12.2566 885 116.149 112.407 477.814
1656 0 74.1075 11.5778 858 117.121 112.707 480.625
1657 0 77.095 12.2576 945 117.549 112.154 476.556
1658 0 80.0957 11.4863 920 120.024 111.822 474.888
1659 0 83.1794 12.0102 999 117.274 109.746 475.404
1660 0 86.1831 12.1021 1043 118.657 110 473.775
1661 1 47.0478 11.1589 525 115.712 109.303 490.796
1662 0 47.0522 10.2439 482 117.276 109.778 490.793
1663 0 47.0972 9.44855 445 109.937 111.155 486.519
1664 0 51.2228 12.3383 632 114.201 113.544 490.214
1665 0 52.0114 11.9781 623 115.538 113.538 489.806
1666 0 53.0484 11.4047 605 117.19 113.57 488.096
1667 0 57.0832 11.9299 681 114.194 113.42 487.137
1668 0 55.0671 12.6755 698 114.595 113.281 486.364
1669 0 57.1202 12.2549 700 114.997 113.61 486.694
1670 0 60.1804 12.4459 749 113.437 113.143 486.932
1671 0 62.2542 13.0594 813 111.739 112.315 485.304
1672 0 62.1691 12.2569 762 114.419 111.915 483.483
1673 0 65.1007 12.2887 800 114.609 112.112 483.154
1674 0 66.1645 12.1364 803 115.21 112.489 481.054
1675 0 69.2173 14.0572 973 109.892 111.666 481.174
1676 0 71.2832 13.7199 978 111.28 111.657 480.135
1677 0 73.2642 12.5164 917 111.167 111.559 478.797
1678 0 74.2038 11.8458 879 113.411 111.512 478.408
1679 0 76.1361 11.7027 891 112.835 111.716 477.835
1680 0 77.1752 12.0375 929 113.634 111.618 475.868
1681 0 79.342 12.2886 975 112.689 111.32 474.747
1682 0 83.2487 12.3606 1029 112.656 111.252 473.265
1683 0 86.1966 12.5179 1079 110.744 112.032 473.466
1684 0 88.2595 11.7608 1038 110.932 111.452 474.235
1685 0 89.1574 12.0573 1075 107.339 111.066 470.695
1686 0 94.1617 12.1175 1141 110.635 111.314 470.376
1687 0 98.1246 12.6574 1242 109.275 110.961 468.482
1688 0 101.217 12.2213 1237 110.436 111.577 460.011
1689 0 105.394 14.033 1479 106.967 111.782 459.851
1690 0 105.302 11.8231 1245 112.668 111.435 459.255
1691 0 107.289 12.3871 1329 112.988 111.236 456.518
1692 0 112.25 13.755 1544 110.443 111.859 453.887
1693 0 116.541 12.811 1493 110.878 111.506 456.332
1694 0 121.352 12.163 1476 113.852 110.793 451.275
1695 0 126.372 13.6423 1724 110.405 111.235 449.757
1696 0 128.376 12.7672 1639 113.077 111.477 447.186
1697 0 133.425 12.6438 1687 112.166 111.614 446.587
1698 0 138.309 12.5155 1731 112.86 110.876 447.658
1699 0 145.434 13.862 2016 109.779 112.03 439.345
1700 1 79.2389 11.3959 903 109.19 111.289 476.609
1701 0 80.2273 11.455 919 109.505 110.778 476.279
1702 0 85.2477 11.7774 1004 108.818 111.403 475.349
1703 0 86.1085 11.4391 985 110.467 111.222 475.094
1704 0 91.3791 12.0706 1103 109.027 111.721 471.761
1705 0 93.3094 11.7459 1096 106.583 111.783 470.169
1706 0 96.0888 11.9889 1152 105.056 110.772 466.561
1707 0 101.211 12.7258 1288 102.539 110.944 463.259
1708 0 103.258 11.0112 1137 106.449 111.157 464.546
1709 0 108.274 11.9235 1291 103.799 111.985 464.778
1710 0 111.317 12.4329 1384 104.045 110.417 458.083
1711 0 115.344 12.7011 1465 104.088 110.217 454.053
1712 0 119.319 11.5154 1374 107.085 110.177 452.02
1713 0 123.255 11.9103 1468 106.169 110.597 451.71
1714 0 128.247 12.4915 1602 104.632 111.509 454.86
1715 0 132.184 10.5686 1397 108.747 111.523 451.251
1716 1 61.14 11.58 708 105.306 112.692 485.264
1717 0 64.0718 12.1739 780 104.953 113.014 486.265
1718 0 67.1726 12.0436 809 107.456 112.671 483.01
1719 0 69.0351 12.5733 868 110.15 112.94 482.541
1720 0 73.0745 13.0141 951 111.312 113.117 482.641
1721 0 72.1278 12.2976 887 116.182 112.946 479.23
1722 0 77.1105 13.6817 1055 113.571 113.065 478.087
1723 0 79.0667 12.4199 982 117.079 113.912 479.187
1724 0 83.1617 13.131 1092 115.771 113.566 477.725
1725 0 84.2914 12.0653 1017 120.652 112.927 477.268
1726 0 86.2457 13.0441 1125 120.337 112.948 472.258
1727 0 91.1385 13.6715 1246 118.241 112.928 472.462
1728 1 51.0784 11.9424 610 113.541 113.113 492.125
1729 0 51.0999 11.0372 564 112.035 111.578 494.296
1730 0 52.0219 10.4764 545 110.07 111.473 488.901
1731 0 55.1637 13.1427 725 103.614 111.912 488.527
1732 0 56.2926 12.0442 678 110.056 112.487 482.617
1733 0 58.0841 13.1878 766 113.131 113.164 487.687
1734 0 60.129 13.0553 785 115.931 112.716 487.814
1735 0 60.1098 12.6768 762 117.47 112.307 487.496
1736 0 62.1119 11.8174 734 119.627 112.21 488.094
1737 0 61.1499 11.7089 716 122.637 112.376 486.858
1738 0 66.1164 12.3721 818 121.91 112.907 485.579
1739 0 69.2229 13.3915 927 119.523 112.55 484.248
1740 0 72.0974 12.8299 925 120.239 112.277 483.651
1741 0 72.1081 12.4258 896 127.307 113.696 481.831
1742 0 75.1033 13.0088 977 126.511 113.074 481.576
1743 0 78.1983 12.1102 947 130.219 113.253 481.798
1744 0 78.1958 12.814 1002 129.313 113.379 479.137
1745 0 82.0897 12.864 1056 129.413 113.617 478.069
1746 0 84.1414 13.4298 1130 128.01 113.808 477.327
1747 0 86.1087 12.7629 1099 131.124 113.708 476.146
1748 0 92.1014 14.1474 1303 124.263 113.252 472.381
1749 0 94.2652 14.7244 1388 118.924 112.633 470.898
1750 0 96.1582 12.313 1184 123.996 112.361 473.162
1751 0 98.162 12.3775 1215 125.609 111.699 469.767
1752 1 56.0887 12.2306 686 123.281 113.315 489.862
1753 0 58.0327 12.7514 740 122.369 112.712 488.78
1754 0 57.1125 12.309 703 115.952 111.482 487.415
1755 0 60.2538 12.4805 752 114.233 112.477 487.783
1756 0 61.1413 12.054 737 116.17 111.879 487.003
1757 0 63.1371 11.0712 699 119.25 112.461 485.591
1758 0 65.1756 13.4253 875 113.075 112.402 485.167
1759 0 65.1637 11.709 763 120.046 112.324 483.885
1760 0 67.1906 12.0999 813 123.836 111.744 487.319
1761 0 67.1668 11.2407 755 125.779 112.621 487.219
1762 0 71.0445 11.4154 811 126.402 112.289 484.535
1763 0 74.1074 11.9691 887 118.831 112.411 480.873
1764 0 75.0487 10.9529 822 121.94 112.791 481.578
1765 0 78.1144 11.9952 937 120.681 112.809 481.241
1766 0 81.1398 11.5849 940 123.138 112.224 478.481
1767 0 85.1316 11.4881 978 122.815 112.482 478.494
1768 1 44.0311 12.0824 532 122.188 113.094 498.062
1769 0 46.1023 12.4072 572 122.36 112.397 495.409
1770 0 46.0314 12.5784 579 124.94 112.767 495.074
1771 0 50.0668 12.9227 647 120.944 112.386 493.465
1772 0 49.0801 12.5102 614 120.08 111.492 493.66
1773 0 53.0892 13.5056 717 116.198 111.222 493.478
1774 0 49.0528 11.6201 570 126.812 111.149 493.228
1775 0 55.1459 12.5848 694 122.431 110.67 491.47
1776 0 55.1817 12.9572 715 122.49 111.358 490.867
1777 0 56.1488 13.0368 732 124.21 110.572 488.777
1778 0 58.1363 12.7287 740 124.862 110.564 489.234
1779 0 61.0723 12.8864 787 124.376 111.187 488.194
1780 0 63.0693 13.1601 830 124.7 111.694 487.877
1781 0 62.1579 13.2405 823 127.825 111.267 485.704
1782 0 67.1726 13.6961 920 125.518 111.967 486.059
1783 0 70.0968 13.7239 962 127.261 111.953 483.459
1784 0 71.2164 14.0979 1004 128.569 111.613 482.935
1785 0 72.0809 13.5958 980 135.689 112.702 482.116
1786 0 73.0271 14.1044 1030 135.996 112.569 480.383
1787 0 77.0998 13.6576 1053 137.016 112.523 479.524
1788 0 82.158 14.4356 1186 132.953 110.799 476.719
1789 0 83.2729 13.762 1146 134.273 110.773 476.729
1790 0 86.2182 14.9736 1291 131.837 111.04 474.01
1791 0 89.2625 13.9476 1245 135.841 111.022 472.684
1792 0 92.2013 14.425 1330 134.906 109.963 472.523
1793 1 48.071 13.168 633 137.027 110.747 493.303
1794 0 48.057 13.4008 644 139.644 110.511 493.616
1795 0 50.1104 14.0091 702 139.466 110.754 492.299
1796 0 53.1591 14.372 764 135.603 111.665 491.673
1797 0 53.1872 13.8567 737 139.129 111.76 490.505
1798 0 56.0894 15.1187 848 134.83 112.053 488.928
1799 0 57.145 14.577 833 138.161 111.927 487.58
1800 0 59.1849 14.328 848 138.131 112.075 487.596
1801 0 61.0911 14.5848 891 137.618 111.917 486.908
1802 0 62.1335 14.7103 914 136.926 111.9 486.325
1803 0 66.1652 14.9323 988 133.632 111.591 484.317
1804 0 67.1665 14.3077 961 136.584 111.696 484.35
1805 0 68.1134 14.8869 1014 136.293 111.607 482.677
1806 0 70.1693 14.294 1003 138.35 111.466 480.884
1807 0 72.3109 14.977 1083 136.845 111.777 478.975
1808 0 74.2064 14.015 1040 139.264 111.981 479.572
1809 0 77.1008 14.8507 1145 136.913 111.905 477.144
1810 0 79.2506 14.41 1142 139.391 111.844 476.82
1811 0 83.1923 15.2658 1270 135.505 111.906 474.9
1812 0 85.3072 14.0316 1197 138.936 111.695 474.931
1813 0 88.2877 14.5547 1285 137.875 111.534 471.753
1814 1 45.0764 13.2442 597 134.854 112.176 495.451
1815 0 47.1369 13.2593 625 139.203 112.115 492.765
1816 0 50.1701 14.0323 704 137.589 111.747 490.619
1817 0 52.0961 13.763 717 134.261 112.237 492.008
1818 0 50.0195 13.8146 691 138.291 112.551 489.844
1819 0 53.1083 14.348 762 134.734 111.975 490.308
1820 0 56.1565 15.9198 894 136.711 111.767 489.078
1821 0 60.1508 16.7579 1008 130.412 111.705 488.163
1822 0 59.1458 14.2022 840 134.725 112.046 488.215
1823 0 63.1055 15.0383 949 138.325 111.644 486.296
1824 0 64.1511 15.7129 1008 136.713 111.748 486.169
1825 0 67.1598 14.6814 986 140.404 112.266 483.875
1826 0 69.1215 14.7856 1022 133.066 112.851 483.451
1827 0 71.0861 14.4895 1030 135.153 112.988 481.842
1828 0 73.0553 14.2358 1040 136.127 112.647 480.778
1829 0 76.1316 14.3961 1096 135.473 113.053 480.764
1830 0 79.1806 14.6248 1158 134.329 112.579 478.722
1831 0 80.1733 14.2566 1143 136.959 112.448 477.374
1832 0 84.0877 14.8892 1252 137.843 111.802 474.714
1833 0 88.1411 14.4087 1270 138.083 112.185 474.751
1834 1 46.1233 13.9626 644 134.536 112.231 491.89
1835 0 46.09 13.3651 616 135.601 111.826 492.565
1836 0 48.1112 13.1362 632 133.734 112.009 494.595
1837 0 48.0907 12.019 578 140.107 111.673 492.199
1838 0 52.0452 14.0839 733 134.337 111.329 491.704
1839 0 54.0432 13.2857 718 136.031 111.861 489.907
1840 0 57.06 14.9141 851 130.442 111.529 488.415
1841 0 59.3345 14.0391 833 133.174 112.276 485.366
1842 0 60.1075 13.2762 798 137.021 112.01 488.223
1843 0 62.1175 13.6032 845 137.605 112.142 485.692
1844 0 65.1692 14.1631 923 136.671 111.31 484.965
1845 0 65.1249 14.2495 928 137.337 111.641 483.318
1846 0 69.2247 13.8101 956 137.937 111.985 482.117
1847 0 74.1858 15.2185 1129 144.242 111.51 481.354
1848 0 76.1656 15.3744 1171 143.623 111.383 479.819
1849 0 76.3075 13.4194 1024 151.667 111.059 479.302
1850 0 78.3095 14.4427 1131 147.837 111.557 476.018
1851 0 82.1339 13.7458 1129 145.239 111.325 473.372
1852 0 86.3102 13.6137 1175 144.363 110.935 474.299
1853 1 47.0196 10.9529 515 141.538 112.311 494.177
1854 0 50.1253 12.6084 632 138.047 112.139 489.508
1855 0 51.0517 12.693 648 138.052 111.767 491.344
1856 0 54.0171 14.1067 762 132.13 111.801 491.21
1857 0 54.0482 13.0809 707 137.943 111.059 489.314
1858 0 54.0931 12.8297 694 139.879 111.095 488.313
1859 0 57.1996 13.0945 749 137.421 110.82 488.701
1860 0 59.2848 14.287 847 133.537 111.36 486.227
1861 0 62.2551 13.4768 839 135.932 111.533 485.243
1862 0 64.3547 13.2236 851 137.35 111.133 483.501
1863 0 65.1792 13.9768 911 136.483 111.641 483.369
1864 0 68.2194 13.7937 941 136.384 111.277 482.121
1865 0 72.2802 14.2224 1028 135.344 111.309 481.097
1866 0 75.323 14.2719 1075 143.052 111.318 479.021
1867 0 77.3834 13.8143 1069 145.413 111.405 478.114
1868 0 80.3466 13.1555 1057 146.606 111.737 476.513
1869 0 83.4866 14.1819 1184 143.63 111.46 474.06
1870 1 45.1326 12.5408 566 139.525 110.765 493.629
1871 0 46.1744 12.9076 596 137.552 111.97 494.052
1872 0 47.2586 12.8865 609 135.484 111.645 493.527
1873 0 49.2983 13.5502 668 134.091 111.493 491.787
1874 0 50.1695 13.3547 670 136.101 111.21 491.279
1875 0 52.1749 13.5889 709 133.941 110.921 491.247
1876 0 54.0802 13.3505 722 134.519 110.77 490.72
1877 0 53.0761 12.4538 661 139.874 110.428 490.077
1878 0 56.1064 13.9556 783 133.442 110.55 489.677
1879 0 58.1992 13.3335 776 134.562 111.256 488.675
1880 0 59.1308 14.2904 845 132.959 110.233 486.781
1881 0 59.194 14.0217 830 134.171 110.333 487.516
1882 0 63.0804 14.0139 884 133.348 110.667 485.887
1883 0 62.1135 13.8295 859 135.324 110.46 485.712
1884 0 64.163 13.9956 898 135.198 110.226 483.64
1885 0 68.1586 14.0848 960 133.964 110.493 482.484
1886 0 69.1834 13.8762 960 136.912 110.09 481.444
1887 0 74.0943 15.8177 1172 129.678 109.794 477.804
1888 0 75.0822 13.8515 1040 136.946 110.214 480.042
1889 0 78.2444 13.9435 1091 135.949 110.437 479.406
1890 0 81.2888 14.7991 1203 133.392 110.404 475.574
1891 0 83.2857 12.8353 1069 139.646 110.41 476.65
1892 0 88.2551 14.6847 1296 133.809 110.231 471.278
1893 1 44.1303 11.2168 495 136.065 111.735 495.212
1894 0 46.0124 13.8006 635 130.192 112.165 493.496
1895 0 49.0256 12.8708 631 131.341 112.006 492.853
1896 0 49.0814 13.4878 662 119.382 112.076 492.767
1897 0 50.1354 13.2441 664 114.739 110.361 490.032
1898 0 52.0639 13.8292 720 117.517 110.396 490.308
1899 0 54.0458 12.9705 701 115.108 110.609 488.027
1900 0 53.1488 12.4368 661 117.988 110.375 489.145
1901 0 56.1166 13.7214 770 116.927 110.27 488.587
1902 0 59.1375 13.8153 817 112.152 110.121 487.59
1903 0 61.0968 13.585 830 114.594 110.62 486.746
1904 0 64.1 13.6662 876 111.116 110.387 485.17
1905 0 65.1389 12.4503 811 115.142 110.367 483.693
1906 0 67.1294 12.6174 847 113.459 110.361 483.575
1907 0 70.0374 14.6922 1029 107.464 110.256 482.065
1908 0 72.0546 13.4759 971 110.87 110.897 480.523
1909 0 75.0733 12.0416 904 113.388 111.615 480.835
1910 0 77.0806 13.2199 1019 110.812 112.011 477.838
1911 0 80.1361 12.5287 1004 112.292 112.087 474.667
1912 1 42.0231 12.5169 526 111.249 112.259 495.816
1913 0 42.0217 12.446 523 114.327 112.587 494.061
1914 0 43.1951 13.358 577 117.092 110.898 494.586
1915 0 45.0772 12.046 543 119.834 111.219 494.088
1916 0 47.0884 11.85 558 119.719 111.586 493.69
1917 0 47.0948 12.9314 609 119.003 111.938 487.558
1918 0 48.137 13.3785 644 117.654 111.877 487.189
1919 0 51.2119 12.6143 646 118.898 111.707 485.93
1920 0 51.1434 12.8658 658 119.992 111.965 484.584
1921 0 52.1069 11.841 617 122.222 112.326 484.924
1922 0 56.1853 12.4054 697 119.227 111.964 483.547
1923 0 57.214 11.8153 676 120.763 111.861 483.666
1924 0 60.1959 13.4893 812 116.435 112.128 481.175
1925 0 61.306 12.2174 749 119.06 112.599 482.116
1926 0 62.3515 12.9107 805 119.525 111.961 479.878
1927 0 64.226 13.1255 843 118.6 111.877 480.405
1928 0 66.2634 13.386 887 119.045 111.66 478.228
1929 0 68.3175 12.3248 842 122.227 112.387 478.052
1930 0 73.328 14.3874 1055 116.651 112.556 475.548
1931 0 75.318 12.9451 975 122.631 112.381 474.921
1932 0 77.3814 12.8972 998 126.388 112.213 473.462
1933 0 80.5114 13.7372 1106 125.475 112.278 471.173
1934 0 85.3045 14.2665 1217 124.459 112.127 471.458
1935 1 41.1922 11.4099 470 129.853 112.553 490.185
1936 0 45.1504 12.6688 572 124.1 112.119 494.483
1937 0 46.0068 12.0417 554 127.597 110.671 493.556
1938 0 47.2446 13.3772 632 125.741 112.149 488.722
1939 0 49.1564 13.04 641 129.658 111.48 490.073
1940 0 50.0707 13.0815 655 131.614 110.768 490.044
1941 0 51.1092 13.3831 684 131.471 111.339 488.651
1942 0 54.169 13.9748 757 130.42 109.852 486.712
1943 0 54.1622 13.4226 727 135.895 109.224 484.091
1944 0 55.1937 13.1899 728 136.016 110.242 483.809
1945 0 58.2355 14.0121 816 134.045 110.368 482.696
1946 0 58.2318 12.725 741 140.858 109.881 481.74
1947 0 63.3549 14.5845 924 134.84 110.513 481.254
1948 0 63.319 13.045 826 143.236 110.283 480.212
1949 0 67.315 13.8751 934 140.024 110.532 480.573
1950 0 67.2887 13.4495 905 143.853 110.335 479.558
1951 0 71.308 14.5145 1035 141.287 110.605 478.304
1952 0 71.3035 13.6459 973 145.939 111.17 480.163
1953 0 75.2832 14.4255 1086 145.995 110.721 475.738
1954 0 75.428 14.0001 1056 149.206 110.451 473.545
1955 0 80.3039 13.947 1120 148.537 110.405 472.637
1956 0 81.1841 13.5494 1100 152.575 110.351 470.251
1957 0 85.2766 14.6816 1252 149.522 111.003 468.45
1958 0 89.3989 14.6982 1314 147.946 110.391 467.398
1959 1 47.1137 12.5653 592 143.432 109.623 488.958
1960 0 50.1053 12.5136 627 143.836 109.622 487.431
1961 0 48.0955 12.7247 612 139.482 112.428 489.471
1962 0 50.0175 12.9555 648 137.694 111.91 489.173
1963 0 52.0615 13.2344 689 137.126 112.155 489.03
1964 0 52.0599 11.3715 592 140.051 111.562 491.127
1965 0 56.0514 12.1139 679 138.191 111.867 487.981
1966 0 57.0569 12.8994 736 137.185 111.643 487.477
1967 0 60.0954 11.5982 697 140.242 111.875 485.574
1968 0 60.0555 11.6059 697 140.977 111.966 485.056
1969 0 64.1109 13.0711 838 135.782 111.919 482.619
1970 0 64.162 12.7022 815 138.173 111.48 482.19
1971 0 69.0991 12.8945 891 134.597 111.783 482.235
1972 0 70.1103 11.8955 834 138.277 111.999 480.03
1973 0 73.2664 12.6934 930 134.917 111.671 479.248
1974 0 78.2337 13.2552 1037 136.447 112.555 475.735
1975 0 81.2354 13.4178 1090 132.206 111.886 473.58
1976 0 84.4144 13.718 1158 130.449 111.987 474.643
1977 0 87.2037 13.1302 1145 130.199 111.876 471.075
1978 0 88.1737 11.4773 1012 133.198 111.59 470.702
1979 0 94.4492 13.1923 1246 127.88 111.077 468.134
1980 1 49.0767 11.0847 544 129.943 110.704 490.09
1981 0 49.1085 11.383 559 130.358 111.109 488.669
1982 0 49.037 11.6035 569 126.07 110.601 490.798
1983 0 51.0261 12.0527 615 124.511 110.803 489.068
1984 0 51.0304 11.0522 564 126.156 111.316 488.704
1985 0 54.0821 11.3901 616 124.36 110.904 488.554
1986 0 56.0625 11.612 651 123.177 111.138 487.224
1987 0 58.1128 11.3744 661 124.033 110.707 487.195
1988 0 58.022 10.1858 591 127.809 111.486 485.601
1989 0 63.0344 12.0886 762 122.234 111.243 484.268
1990 0 65.1928 11.9952 782 122.474 111.335 482.706
1991 0 65.1215 10.8259 705 125.955 112.233 481.54
1992 0 68.1299 12.1826 830 122.319 112.998 482.033
1993 0 71.1259 12.1053 861 123.463 113.123 479.228
1994 0 73.2164 10.6397 779 127.936 112.924 479.24
1995 0 79.2566 13.0588 1035 119.215 112.669 475.539
1996 0 80.3166 12.8118 1029 122.429 112.77 473.941
1997 0 83.3012 12.5688 1047 122.695 112.553 474.898
1998 0 86.264 12.74 1099 122.862 112.129 473.189
1999 1 44.1133 11.2665 497 123.171 112.781 492.746
2000 0 45.0751 11.1148 501 124.928 112.984 493.539
2001 0 46.1077 11.0394 509 118.91 110.758 493.576
2002 0 46.0692 11.1571 514 119.031 110.72 493.918
2003 0 48.1096 9.85251 474 123.154 110.582 492.563
2004 0 48.1493 11.5267 555 117.618 109.6 488.96
2005 0 50.1332 11.0506 554 119.042 109.381 488.628
2006 0 52.1334 11.1828 583 120.983 111.388 490.432
2007 0 54.2513 12.6633 687 114.665 108.764 487.44
2008 0 55.1592 12.4186 685 118.781 110.549 488.857
2009 0 56.1015 11.4079 640 121.164 110.031 487.298
2010 0 58.0566 12.2467 711 120.954 110.585 488.432
2011 0 58.0959 10.6892 621 125.915 110.596 486.676
2012 0 63.2139 11.8961 752 116.298 108.781 486.242
2013 0 63.2645 10.7959 683 121.132 109.127 484.905
2014 0 65.1424 11.7589 766 118.986 109.393 484.087
2015 0 65.1612 10.8807 709 123.654 109.049 481.836
2016 0 67.185 12.0711 811 121.327 109.456 483.074
2017 0 70.3515 11.869 835 122.428 109.505 480.992
2018 0 74.2716 12.3331 916 120.761 109.952 480.688
2019 0 74.177 13.9936 1038 118.754 109.962 479.596
2020 0 76.1981 11.8769 905 125.059 109.108 478.49
2021 0 77.3525 12.1522 940 125.773 109.673 477.697
2022 0 80.2496 12.0001 963 127.418 109.255 475.768
2023 0 84.3138 12.3349 1040 127.134 109.661 473.107
2024 1 46.3406 11.3507 526 129.072 110.162 485.43
2025 0 48.2542 12.9108 623 117.584 109.504 483.294
2026 0 51.051 12.8499 656 123.377 109.396 490.424
2027 0 50.0431 12.1096 606 125.771 109.038 489.66
2028 0 52.0803 12.3271 642 126.321 108.983 487.137
2029 0 54.0869 12.2211 661 125.714 109.516 485.611
2030 0 56.1101 11.8695 666 125.809 109.245 486.661
2031 0 59.086 12.6426 747 122.775 108.969 486.489
2032 0 59.0899 12.2356 723 126.108 110.285 485.929
2033 0 61.332 12.5872 772 124.501 111.26 483.847
2034 0 64.2417 13.5737 872 121.792 110.846 482.069
2035 0 65.2574 12.535 818 124.084 111.108 483.435
2036 0 66.2993 12.4134 823 126.062 111.437 483.583
2037 0 68.268 13.74 938 123.227 110.875 480.464
2038 0 70.2448 12.7839 898 125.151 111.067 480.539
2039 0 72.1739 12.8024 924 125.594 110.992 479.968
2040 0 75.232 13.0131 979 125.854 111.359 478.552
2041 0 79.2063 13.9383 1104 123.187 111.601 475.893
2042 0 79.3139 11.3725 902 131.147 111.369 477.019
2043 1 42.0598 11.8403 498 122.508 112.679 495.175
2044 0 44.2036 11.0624 489 124.108 110.957 494.978
2045 0 46.0577 13.3311 614 110.205 110.326 494.627
2046 0 44.0244 11.2665 496 118.879 110.438 495.274
2047 0 44.127 11.3309 500 118.812 110.614 496.308
2048 0 49.0526 11.1717 548 119.08 112.332 493.766
2049 0 47.066 12.1744 573 119.579 111.37 492.503
2050 0 50.0307 11.1332 557 121.921 110.445 492.031
2051 0 53.2031 13.1008 697 115.935 111.575 490.693
2052 0 54.0885 11.9249 645 119.839 111.178 489.878
2053 0 54.0774 11.9089 644 119.245 111.047 489.433
2054 0 55.048 12.0259 662 121.406 112.393 487.686
2055 0 58.0745 13.0005 755 117.848 112.261 488.013
2056 0 60.0716 12.2021 733 119.997 111.468 487.038
2057 0 62.1106 12.6387 785 118.82 111.845 486.199
2058 0 62.0662 12.9217 802 119.414 111.389 485.733
2059 0 65.1112 12.256 798 120.218 111.209 483.62
2060 0 65.1087 11.1659 727 122.267 111.307 484.292
2061 0 68.1279 11.0821 755 123.282 110.991 483.196
2062 0 71.1503 13.1131 933 119.744 111.242 480.193
2063 0 73.1537 12.3439 903 121.39 111.436 480.653
2064 0 78.2389 12.449 974 119.665 111.397 479.08
2065 0 79.1323 12.1442 961 122.203 111.11 474.93
2066 1 43.0529 11.5904 499 123.158 112.351 494.06
2067 0 44.2586 12.5625 556 122.484 110.032 492.93
2068 0 43.2115 11.895 514 124.879 109.881 494.06
2069 0 46.1759 12.9721 599 121.828 109.265 493.249
2070 0 47.0564 13.962 657 121.927 108.778 491.753
2071 0 49.0176 12.8933 632 124.472 109.193 492.234
2072 0 51.225 13.9971 717 121.084 109.576 490.174
2073 0 50.0498 12.8872 645 127.647 109.806 491.02
2074 0 52.0613 12.8118 667 127.888 109.975 491.006
2075 0 54.0318 13.0479 705 127.932 110.057 488.776
2076 0 56.0734 13.6963 768 126.874 110.156 488.186
2077 0 57.0179 13.1538 750 130.791 110.503 487.276
2078 0 60.0407 14.3902 864 126.221 110.02 486.02
2079 0 63.0669 14.5084 915 125.343 109.628 486.911
2080 0 62.0803 14.0302 871 129.885 109.691 484.688
2081 0 67.0297 15.0679 1010 125.649 109.403 483.899
2082 0 67.0585 14.1966 952 130.051 108.989 481.69
2083 0 70.0479 14.0761 986 131.031 108.189 482.532
2084 0 72.0422 13.964 1006 133.221 109.315 483.108
2085 0 76.0504 14.8586 1130 129.719 109.326 480.403
2086 0 78.0556 14.2334 1111 133.158 109.585 479.629
2087 0 79.0822 12.9233 1022 138.232 109.801 477.756
2088 0 82.0714 13.4639 1105 136.381 110.008 478.727
2089 1 46.0184 11.93 549 143.885 109.823 494.231
2090 0 48.0149 13.3292 640 139.306 110.155 494.242
2091 0 49.0466 13.0488 640 143.884 110.633 493.331
2092 0 51.0897 13.7601 703 142.27 111.74 490.851
2093 0 52.0639 12.1197 631 148.919 111.094 491.195
2094 0 54.0245 14.0307 758 141.544 111.074 489.954
2095 0 54.0229 13.7534 743 146.199 111.643 487.197
2096 0 57.1022 13.8699 792 143.875 111.716 487.097
2097 0 56.064 12.9495 726 148.901 111.992 486.431
2098 0 59.0628 13.7142 810 145.59 112.098 485.467
2099 0 62.0846 14.3514 891 141.989 111.86 485.617
2100 0 63.0799 14.0774 888 142.807 111.215 484.428
2101 0 66.0653 13.7591 909 142.766 111.054 482.949
2102 0 68.092 14.5538 991 139.03 111.199 481.769
2103 0 72.0521 14.7255 1061 136.389 111.893 480.959
2104 0 72.1082 13.8819 1001 139.383 111.195 479.905
2105 0 77.2042 14.1313 1091 136.652 111.18 480.284
2106 0 78.239 13.3054 1041 141.235 110.997 478.216
2107 0 79.355 13.3199 1057 143.089 109.648 476.256
2108 0 84.3555 14.51 1224 136.362 110.25 475.072
2109 0 88.3462 13.6508 1206 137.138 110.497 475.187
2110 1 47.2594 11.5321 545 136.297 111.024 493.031
2111 0 49.1682 13.0166 640 128.572 109.269 489.878
2112 0 51.0898 12.6444 646 125.994 111.206 492.89
2113 0 52.0431 12.5857 655 126.403 111.684 490.467
2114 0 54.0233 13.124 709 125.937 110.581 490.2
2115 0 53.0312 12.2381 649 130.026 111.072 491.074
2116 0 55.134 13.5488 747 124.124 111.324 489.9
2117 0 58.0563 12.9185 750 123.125 111.743 488.224
2118 0 59.1206 12.1108 716 126.362 111.054 487.613
2119 0 60.0858 11.8164 710 127.8 110.506 487.759
2120 0 64.1536 12.7195 816 124.985 110.754 485.091
2121 0 67.1581 13.4757 905 118.771 111.158 482.212
2122 0 69.1826 13.197 913 123.911 110.751 483.218
2123 0 71.1638 12.2675 873 123.318 110.599 480.281
2124 0 75.0941 13.25 995 119.972 110.862 477.791
2125 0 78.2328 13.7155 1073 117.688 111.515 476.498
2126 0 79.1807 12.5031 990 122.153 110.876 474.758
2127 0 84.2659 13.5049 1138 118.756 110.21 474.86
2128 1 44.1722 12.089 534 123.114 111.17 492.974
2129 0 44.2028 11.9449 528 122.117 109.812 491.705
2130 0 47.1815 11.8903 561 109.633 110.556 492.275
2131 0 46.2437 11.3745 526 113.43 110.329 490.622
2132 0 49.2231 12.7786 629 116.661 110.587 491.684
2133 0 51.2136 13.1801 675 111.951 110.424 491.178
2134 0 53.152 13.151 699 112.784 110.216 489.2
2135 0 52.1763 11.4612 598 117.846 110.043 489.88
2136 0 53.1582 12.5098 665 117.194 110.083 490.218
2137 0 54.2175 10.6239 576 123.363 110.898 490.108
2138 0 57.2335 12.7023 727 116.85 110.376 487.818
2139 0 58.1933 12.2351 712 119.001 110.205 486.919
2140 0 61.2732 11.8649 727 120.381 110.648 486.63
2141 0 65.1318 13.4957 879 114.337 110.28 482.58
2142 0 67.2016 13.0056 874 115.706 110.118 483.549
2143 0 69.1981 13.3385 923 116.075 110.181 480.215
2144 0 72.1398 12.7253 918 117.313 110.009 479.92
2145 0 76.1253 12.8341 977 116.285 109.781 479.059
2146 0 78.1742 13.342 1043 115.964 109.8 476.432
2147 0 80.2334 12.4138 996 118.704 110.398 473.292
2148 0 85.2491 12.2582 1045 119.181 110.779 470.746
2149 1 44.0622 11.8242 521 120.681 110.384 493.033
2150 0 46.1494 12.8062 591 117.562 110.528 492.288
2151 0 48.119 12.1781 586 121.387 110.367 492.031
2152 0 48.0667 14.1054 678 122.917 111.032 489.954
2153 0 53.0809 14.0352 745 120.557 110.995 490.738
2154 0 54.2243 13.647 740 122.784 111.101 489.766
2155 0 55.0835 14.4508 796 121.955 111.057 489.075
2156 0 57.0965 13.5735 775 125.079 111.001 487.755
2157 0 58.1556 14.0485 817 124.076 111.191 487.198
2158 0 58.1647 13.6165 792 128.176 111.571 486.389
2159 0 61.0407 14.2364 869 125.627 111.526 483.994
2160 0 66.1107 15.8673 1049 118.888 111.615 482.969
2161 0 65.0972 14.0098 912 125.588 111.928 481.679
2162 0 67.1139 12.9779 871 128.977 111.803 481.132
2163 0 71.1308 15.3942 1095 121.388 110.662 478.647
2164 0 74.1104 14.4649 1072 124.01 111.255 478.149
2165 0 77.1636 15.1237 1167 121.483 110.943 476.859
2166 0 77.1509 14.854 1146 123.693 110.688 474.723
2167 0 82.2777 14.84 1221 121.503 110.772 474.211
2168 0 83.0869 15.1167 1256 119.828 110.59 473.357
2169 0 86.1091 14.5281 1251 121.499 110.452 468.313
2170 0 88.2204 13.4436 1186 126.384 110.548 468.812
2171 0 89.0848 12.9876 1157 127.576 110.504 467.194
2172 0 93.0926 12.2674 1142 127.933 110.44 464.256
2173 1 46.0297 9.73285 448 126.975 111.221 489.866
2174 0 52.0765 12.7889 666 124.483 110.423 491.038
2175 0 52.0941 12.631 658 124.927 109.869 490.287
2176 0 58.0979 16.3517 950 109.695 109.266 485.048
2177 0 59.1388 15.117 894 114.874 110.02 487.643
2178 0 59.1476 13.4917 798 120.674 109.638 487.316
2179 0 60.2275 12.5192 754 123.375 109.98 485.223
2180 0 66.2216 13.8776 919 117.656 110.616 484.375
2181 0 67.1682 13.697 920 119.733 110.486 483.485
2182 0 68.179 12.7459 869 124.243 109.923 482.707
2183 0 72.2714 13.9751 1010 119.955 110.388 482.728
2184 0 73.1797 13.5557 992 122.818 110.249 479.838
2185 0 75.1773 14.0069 1053 122.571 110.126 479.837
2186 0 76.1792 13.6126 1037 124.647 110.022 477.632
2187 0 81.2606 15.0257 1221 120.249 110.238 474.7
2188 0 84.256 13.9456 1175 123.188 110.066 475.378
2189 0 86.1808 13.3905 1154 126.153 110.382 473.339
2190 0 89.359 14.6376 1308 123.911 109.98 469.173
2191 0 92.2353 13.368 1233 127.964 110.269 470.276
2192 1 51.1165 11.1314 569 126 111.286 493.292
2193 0 53.2294 13.0567 695 123.977 111.296 489.994
2194 0 54.1436 13.7043 742 121.83 111.071 487.978
2195 0 58.2067 15.2044 885 116.777 111.249 488.643
2196 0 57.0404 12.272 700 125.16 112.017 488.371
2197 0 59.0999 13.6887 809 120.812 111.549 486.578
2198 0 60.078 12.9165 776 123.782 110.973 486.492
2199 0 62.0265 13.462 835 122.292 111.066 484.334
2200 0 64.1177 12.4926 801 123.195 112.357 483.582
2201 0 66.1097 12.7213 841 122.644 111.693 483.641
2202 0 70.0761 12.9716 909 120.99 111.732 482.361
2203 0 70.2162 13.6009 955 122.117 109.231 480.106
2204 0 73.2553 13.7601 1008 123.285 110.003 480.311
2205 0 76.2159 13.7898 1051 121.705 109.459 478.032
2206 0 78.177 12.5868 984 124.901 109.439 477.01
2207 0 82.1692 12.7785 1050 123.993 109.542 475.762
2208 0 85.2734 12.1609 1037 125.257 109.453 475.765
2209 1 45.0261 10.9714 494 122.621 108.211 495.279
2210 0 47.0627 12.5152 589 120.389 107.98 493.484
2211 0 46.1959 11.4945 531 114.478 108.87 491.331
2212 0 48.0837 11.9167 573 113.431 109.305 494.822
2213 0 49.0719 11.045 542 118.301 109.897 494.065
2214 0 50.1078 11.2956 566 115.772 110.739 493.823
2215 0 51.1915 10.9198 559 117.73 110.372 490.8
2216 0 52.183 11.0381 576 119.323 110.78 491.885
2217 0 53.1219 11.6713 620 119.345 110.677 489.642
2218 0 56.1097 11.4062 640 119.097 110.745 490.65
2219 0 57.1633 11.7733 673 119.675 110.428 488.226
2220 0 59.1357 11.5497 683 119.362 110.656 488.262
2221 0 61.1157 11.9773 732 119.59 110.893 486.086
2222 0 63.116 12.1681 768 119.138 110.342 485.598
2223 0 65.113 11.7181 763 121.056 110.63 484.236
2224 0 67.1201 10.7121 719 123.227 110.7 484.168
2225 0 71.1346 12.3569 879 120.571 110.316 482.807
2226 0 72.1104 12.0648 870 124.713 109.87 478.874
2227 0 75.1372 12.7101 955 125.073 109.915 477.314
2228 0 79.3896 12.4953 992 124.996 109.196 472.959
2229 0 81.2623 12.6873 1031 124.733 109.591 474.242
2230 0 85.3069 12.4257 1060 124.805 110.313 473.01
2231 0 87.3618 12.4196 1085 125.47 110.218 469.62
2232 0 92.4043 14.1444 1307 121.462 109.857 466.637
2233 0 96.3712 13.2612 1278 124.633 110.055 463.901
2234 0 100.561 15.3937 1548 117.625 110.165 461.777
2235 1 51.2653 11.5868 594 121.948 110.902 487.168
2236 0 52.016 11.7272 610 125.064 111.302 492.692
2237 0 53.0783 11.1722 593 123.636 110.204 492.334
2238 0 55.0616 12.2227 673 124.04 110.013 489.789
2239 0 56.0663 12.9133 724 123.901 110.079 488.079
2240 0 59.0967 13.4187 793 122.076 109.828 488.53
2241 0 62.1969 13.1357 817 123.279 110.66 486.477
2242 0 62.1938 13.072 813 124.872 110.107 481.678
2243 0 64.2621 13.2271 850 125.319 109.125 482.714
2244 0 68.3507 12.7431 871 125.018 109.567 479.617
2245 0 70.4489 13.3714 942 123.886 109.436 478.055
2246 0 72.3197 13.2191 956 124.687 109.442 477.137
2247 0 73.5251 13.7096 1008 125.598 109.035 476.694
2248 0 77.4985 13.6906 1061 124.874 109.503 476.352
2249 0 80.6797 13.2127 1066 126.358 108.824 475.508
2250 0 82.3862 13.7887 1136 126.099 109.023 473.627
2251 0 84.5512 13.5776 1148 128.906 108.927 470.043
2252 0 87.6022 14.1777 1242 126.19 109.018 471.966
2253 0 91.3893 13.0759 1195 129.977 108.688 469.415
2254 0 93.531 13.5998 1272 130.311 108.743 466.842
2255 1 50.2007 13.1273 659 126.12 108.269 488.841
2256 0 49.2037 12.3975 610 132.326 108.741 487.598
2257 0 51.1843 13.2658 679 130.664 108.33 488.455
2258 0 54.2185 13.63 739 133.181 109.191 490.74
2259 0 57.0774 14.0861 804 131.568 109.479 491.188
2260 0 57.0612 12.7057 725 136.789 108.337 489.863
2261 0 60.1332 13.653 821 134.408 107.821 489.75
2262 0 61.2095 12.9392 792 137.857 107.989 489.956
2263 0 64.1828 13.8978 892 135.717 108.619 489.054
2264 0 66.1873 14.4287 955 136.417 107.443 489.443
2265 0 68.3597 13.9556 954 140.137 107.701 488.651
2266 0 69.1816 14.1223 977 140.375 107.478 489.77
2267 0 71.1066 13.3321 948 145.831 106.95 488.786
2268 0 76.2362 14.6256 1115 139.87 106.516 488.974
2269 0 77.1971 14.2233 1098 142.64 106.345 488.85
2270 0 80.2641 14.9631 1201 141.999 105.618 486.526
2271 0 83.1623 14.5499 1210 144.399 105.883 485.369
2272 0 86.1719 14.9121 1285 143.114 105.518 486.661
2273 0 89.3128 14.9811 1338 144.184 105.913 484.723
2274 0 90.2693 14.0801 1271 149.063 106.069 484.974
2275 0 94.2006 15.6475 1474 144.714 105.308 479.3
2276 0 97.1737 15.5598 1512 145.739 104.884 480.183
2277 0 100.201 14.3611 1439 151.556 105.021 477.53
2278 0 106.246 16.0948 1710 143.877 104.671 472.14
2279 0 108.143 15.0449 1627 149.03 103.925 473.158
2280 1 57.0642 13.6338 778 148.584 103.794 498.504
2281 0 59.0647 12.4948 738 150.27 103.774 495.618
2282 0 60.0439 13.7899 828 145.679 103.458 496.417
2283 0 63.0395 13.9595 880 143.322 103.781 495.776
2284 0 64.0714 13.6566 875 144.63 103.898 494.141
2285 0 68.0598 14.2669 971 141.668 103.846 492.208
2286 0 70.0936 13.6246 955 142.643 103.969 489.506
2287 0 72.0691 13.9449 1005 140.812 103.726 488.715
2288 0 75.1262 13.6171 1023 141.563 103.35 488.674
2289 0 79.1023 14.1462 1119 140.575 102.496 486.735
2290 0 80.0922 14.6706 1175 138.484 102.834 486.7
2291 0 84.0528 13.5748 1141 140.528 103.512 485.636
2292 0 84.2553 13.6846 1153 142.06 103.072 482.91
2293 0 89.1692 14.4669 1290 139.342 102.736 481.739
2294 0 91.1475 13.7908 1257 141.529 103.402 479.777
2295 0 97.2112 13.9799 1359 140.493 104.42 481.294
2296 0 100.13 14.1416 1416 140.161 104.169 480.099
2297 0 102.216 13.9606 1427 139.493 104.435 479.137
2298 0 107.211 13.3475 1431 140.191 104.075 477.018
2299 0 108.241 12.9987 1407 143.652 103.195 468.211
2300 1 59.1221 12.7702 755 130.903 103.719 497.632
2301 0 62.111 11.4312 710 125.31 104.285 495.455
2302 0 59.0566 11.0403 652 129.353 105.408 492.721
2303 0 65.0194 11.7042 761 126.466 104.037 496.185
2304 0 65.0296 11.687 760 148.162 103.03 496.145
2305 0 70.0258 12.8524 900 123.558 104.34 492.352
2306 0 70.1429 11.7902 827 127.307 105.249 492.23
2307 0 73.0412 11.2265 820 127.213 104.666 493.896
2308 0 77.0939 13.1528 1014 123.677 104.762 488.985
2309 0 80.0919 11.6242 931 126.524 104.127 489.707
2310 0 81.0503 12.3257 999 126.689 103.844 485.812
2311 0 84.0973 11.0229 927 127.717 104.113 487.99
2312 0 86.0892 12.7542 1098 125.352 103.556 482.791
2313 0 91.122 12.0827 1101 125.545 104.136 484.243
2314 0 92.1096 12.2897 1132 127.068 104.425 481.882
2315 0 95.1616 12.1583 1157 126.509 104.175 479.97
2316 0 98.1741 13.089 1285 125.725 104.317 481.44
2317 0 102.12 12.5049 1277 125.132 104.248 478.188
2318 0 103.1 12.1047 1248 127.484 104.135 472.961
2319 0 110.187 12.6876 1398 127.773 104.284 470.986
2320 0 115.178 12.0682 1390 128.035 101.945 470.524
2321 0 118.086 12.0675 1425 126.9 102.04 467.794
2322 0 124.198 12.1982 1515 126.557 102.66 463.667
2323 1 65.0307 9.51858 619 122.17 102.64 495.666
2324 0 69.1049 11.0991 767 115.877 103.666 494.778
2325 0 70.1262 12.3064 863 112.528 103.803 492.216
2326 0 70.0599 11.5901 812 114.713 104.078 490.825
2327 0 74.0871 11.7024 867 115.406 103.732 491.203
2328 0 78.0781 11.386 889 116.506 103.502 487.99
2329 0 82.1293 12.456 1023 124.093 102.513 484.853
2330 0 81.1661 11.9631 971 126.478 102.602 485.054
2331 0 88.0797 10.6608 939 127.094 102.954 485.235
2332 0 90.1727 13.4631 1214 120.345 102.952 482.195
2333 0 92.0945 13.041 1201 120.41 102.498 481.278
2334 0 94.2199 13.2244 1246 120.013 102.53 479.24
2335 0 96.2818 12.5361 1207 122.633 102.263 473.675
2336 0 101.27 13.0147 1318 118.08 102.395 474.953
2337 0 101.093 11.247 1137 123.742 102.811 473.079
2338 0 106.185 11.8944 1263 121.729 102.625 469.381
2339 0 108.197 11.1926 1211 122.755 102.516 468.036
2340 1 57.1267 12.7261 727 112.037 102.994 494.752
2341 0 61.1924 12.2074 747 114.17 102.992 493.025
2342 0 59.2204 12.6139 747 117.146 103.558 491.477
2343 0 62.0533 11.8124 733 118.72 103.16 490.95
2344 0 66.0651 13.0175 860 115.486 103.402 488.945
2345 0 67.0961 12.7578 856 116.768 103.505 487.999
2346 0 70.0864 13.0411 914 117.363 103.946 486.44
2347 0 72.0546 12.6015 908 119.621 103.722 485.825
2348 0 73.156 12.5075 915 121.08 104.325 482.516
2349 0 74.2129 12.828 952 121.897 104.84 482.203
2350 0 74.167 12.0134 891 116.956 104.066 483.501
2351 0 78.1166 14.4144 1126 114.372 104.71 480.881
2352 0 79.0995 12.3389 976 122.316 104.363 478.786
2353 0 81.1201 12.7835 1037 122.887 104.397 475.819
2354 0 84.166 12.1783 1025 121.869 104.994 477.893
2355 0 88.045 12.4027 1092 121.074 104.677 474.189
2356 0 90.1895 12.5403 1131 120.49 104.672 473.118
2357 0 94.1698 12.4031 1168 119.56 105.471 473.313
2358 1 52.1331 11.2405 586 120.031 104.599 490.444
2359 0 53.3142 11.029 588 122.131 107.31 484.502
2360 0 53.405 10.5795 565 116.559 106.789 481.308
2361 0 55.2981 10.2354 566 114.74 106.251 484.286
2362 0 56.313 10.9033 614 114.505 106.927 482.303
2363 0 59.3067 12.6461 750 110.491 107.069 481.272
2364 0 60.2266 11.5563 696 113.325 107.109 478.901
2365 0 62.0984 11.8683 737 112.972 106.767 478.592
2366 0 65.1232 11.2249 731 114.737 106.694 475.698
2367 0 67.1065 11.2806 757 108.366 108.131 478.59
2368 0 69.077 11.2483 777 107.816 108.436 477.403
2369 0 72.0821 11.5979 836 108.337 108.394 475.712
2370 0 75.0983 11.9843 900 107.45 107.969 471.832
2371 0 77.0953 10.4676 807 110.289 107.633 473.465
2372 0 79.1765 11.9227 944 115.121 109.472 478.285
2373 0 81.2024 11.0095 894 116.306 109.547 477.658
2374 0 84.2779 11.7113 987 115.38 108.756 475.938
2375 0 88.1523 13.2725 1170 112.609 108.652 470.229
2376 0 90.1955 12.739 1149 116.104 109.187 469.93
2377 1 46.0174 10.3005 474 119.884 109.095 493.118
2378 0 51.0376 12.3438 630 112.01 109.773 491.31
2379 0 50.0854 12.319 617 113.822 107.702 490.123
2380 0 52.1176 13.9684 728 108.78 109.893 488.996
2381 0 53.0986 12.4485 661 114.23 109.823 489.991
2382 0 54.07 12.6688 685 114.22 109.568 487.521
2383 0 56.085 12.5702 705 113.33 109.652 488.662
2384 0 58.0398 13.1462 763 111.886 109.303 486.16
2385 0 59.1267 12.7015 751 113.981 110.145 486.519
2386 0 60.1178 12.4589 749 115.698 109.65 484.666
2387 0 64.0744 12.345 791 115.063 110.528 484.904
2388 0 67.1485 13.3138 894 112.574 109.748 481.857
2389 0 66.066 12.0031 793 118.127 109.527 481.718
2390 0 71.0976 14.6559 1042 110.814 109.863 481.691
2391 0 74.1412 12.3818 918 116.108 109.365 480.993
2392 0 77.1833 13.3837 1033 114.591 108.713 477.281
2393 0 78.1515 13.0388 1019 116.533 109.617 475.999
2394 0 81.1497 12.6803 1029 118.053 109.019 475.8
2395 0 85.1841 12.6315 1076 118.23 109.214 474.198
2396 0 88.1839 13.4718 1188 115.53 109.362 474.779
2397 0 88.1662 11.9093 1050 121.543 108.938 471.757
2398 1 47.0081 11.0832 521 122.167 109.925 493.242
2399 0 47.1661 11.4277 539 122.284 110.28 492.477
2400 0 49.0592 12.1282 595 110.035 108.96 491.595
2401 0 48.0846 11.4798 552 115.275 106.502 493.431
2402 0 49.0603 11.0884 544 117.392 107.04 491.219
2403 0 52.1207 10.3222 538 118.27 107.043 490.738
2404 0 53.0501 10.443 554 117.15 107.162 492.5
2405 0 57.0512 11.6387 664 115.292 107.011 488.586
2406 0 54.0357 10.0859 545 120.637 106.543 487.93
2407 0 60.0679 11.9198 716 114.781 107.578 487.792
2408 0 62.123 10.6563 662 118.251 107.257 486.633
2409 0 65.044 11.2847 734 114.59 107.956 485.229
2410 0 66.0622 11.5497 763 115.122 108.444 486.376
2411 0 69.0393 11.0662 764 117.571 108.614 484.431
2412 0 69.0322 11.7481 811 119.746 108.189 480.93
2413 0 72.0853 12.4575 898 118.857 107.761 481.431
2414 0 75.0589 11.6575 875 120.234 109.053 481.443
2415 0 76.0777 10.9756 835 122.65 108.329 478.491
2416 0 80.101 12.5342 1004 119.858 107.703 476.393
2417 0 82.1189 11.4955 944 123.673 107.579 475.786
2418 0 85.1717 12.5042 1065 123.707 108.666 476.871
2419 0 90.3386 12.2207 1104 122.416 107.974 474.263
2420 0 91.2018 12.0831 1102 127.741 108.244 472.044
2421 1 50.0416 10.9309 547 129.793 107.733 491.506
2422 0 53.0436 11.6319 617 126.974 107.935 490.7
2423 0 54.1233 11.7694 637 126.002 108.215 488.954
2424 0 55.2025 12.2096 674 125.408 108.589 486.539
2425 0 58.1259 12.559 730 124.015 108.407 488.641
2426 0 61.1881 11.8651 726 138.583 108.094 487.58
2427 0 62.3531 13.6481 851 137.663 108.082 484.935
2428 0 65.4762 13.2873 870 138.06 108.131 484.36
2429 0 66.2284 12.321 816 138.282 108.466 484.618
2430 0 67.2241 10.7997 726 135.052 108.493 476.868
2431 0 69.2501 10.7437 744 136.719 108.695 474.183
2432 0 73.1917 11.9686 876 132.114 108.595 476.796
2433 0 75.1273 12.7916 961 126.389 108.254 479.63
2434 0 76.0784 11.6985 890 133.348 109.215 479.346
2435 0 78.3646 11.8931 932 128.44 109.414 477.32
2436 0 82.2997 12.5031 1029 125.977 109.556 474.879
2437 0 84.1148 11.8172 994 134.395 109.815 474.413
2438 0 88.6144 13.0114 1153 128.23 109.075 469.353
2439 0 91.3971 12.5059 1143 131.108 109.582 472.115
2440 0 94.519 12.3044 1163 135.124 109.228 458.695
2441 1 48.3401 11.1088 537 127.324 110.223 482.143
2442 0 50.3069 11.6684 587 126.348 110.019 481.259
2443 0 52.1864 12.4362 649 131.381 110.009 476.337
2444 0 53.1388 12.552 667 131.454 110.778 485.844
2445 0 54.2621 11.7577 638 135.036 110.265 488.776
2446 0 57.2905 12.777 732 131.201 110.268 488.784
2447 0 57.1912 12.362 707 134.368 110.089 487.294
2448 0 57.2011 13.4263 768 131.772 109.113 486.335
2449 0 61.4193 12.5042 768 132.746 109.737 486.566
2450 0 62.3219 13.5426 844 131.299 110.23 485.441
2451 0 63.3198 13.1239 831 131.49 110.333 485.386
2452 0 67.45 14.4403 974 126.664 109.793 482.658
2453 0 67.2258 12.9712 872 133.317 110.034 479.945
2454 0 71.5117 12.6693 906 134.519 110.095 480.163
2455 0 71.3493 13.6091 971 132.426 109.918 478.844
2456 0 74.5093 14.4412 1076 129.158 110.388 478.749
2457 0 77.4221 13.9753 1082 130.952 109.91 475.221
2458 0 77.3678 13.0545 1010 135.51 109.325 476.102
2459 0 81.6322 14.6756 1198 130.08 108.536 474.093
2460 0 84.3666 14.4726 1221 130.742 108.899 472.838
2461 0 86.5883 14.6209 1266 130.345 108.922 470.564
2462 0 89.3733 13.7737 1231 133.734 108.742 469.075
2463 0 90.5327 13.0561 1182 137.534 109.166 468.935
2464 0 95.5115 13.569 1296 134.257 109.321 467.904
2465 0 98.3999 13.3842 1317 135.667 109.332 467.86
2466 0 100.264 13.5841 1362 136.047 109.07 465.62
2467 1 52.092 11.9788 624 141.207 109.705 489.037
2468 0 51.1138 14.008 716 137.874 109.86 486.75
2469 0 54.1701 11.87 643 128.677 107.627 486.297
2470 0 55.1173 12.4462 686 128.001 108.066 485.939
2471 0 53.0614 12.363 656 132.721 109.851 488.267
2472 0 56.2328 11.1501 627 130.758 110.209 487.104
2473 0 59.2096 12.042 713 128.168 110.696 484.86
2474 0 62.1872 11.6744 726 126.948 110.515 484.879
2475 0 63.1854 12.0756 763 126.997 109.768 479.617
2476 0 68.2037 13.8262 943 118.963 110.283 480.175
2477 0 69.2443 12.7086 880 121.877 110.76 481.635
2478 0 72.2307 13.2769 959 120.728 110.098 478.17
2479 0 74.3249 12.5664 934 121.915 110.273 477.57
2480 0 76.2212 12.5556 957 123.376 109.929 475.56
2481 0 80.2056 13.6399 1094 120.308 109.903 474.77
2482 0 82.2763 13.2237 1088 121.991 109.686 473.552
2483 0 84.2345 12.2871 1035 126.152 108.777 472.085
2484 1 45.2966 11.1267 504 117.794 107.762 491.278
2485 0 46.2989 11.7713 545 116.662 108.295 488.602
2486 0 49.1038 12.606 619 114.136 109.057 490.41
2487 0 49.0901 11.428 561 117.46 107.471 489.635
2488 0 50.094 11.4185 572 116.727 107.923 489.058
2489 0 52.1455 11.8898 620 116.029 108 488.3
2490 0 53.1835 10.7552 572 117.902 107.43 488.149
2491 0 53.2308 10.7644 573 117.696 107.524 487.656
2492 0 56.1407 11.4177 641 116.254 108.354 485.167
2493 0 59.1671 11.4591 678 116.13 108.324 484.096
2494 0 61.1515 13.4747 824 111.011 108.024 483.757
2495 0 62.1761 12.9954 808 112.905 108.281 481.707
2496 0 64.1035 11.2162 719 116.911 107.851 483.633
2497 0 67.1059 11.7128 786 116.55 108.207 480.491
2498 0 69.1185 12.9054 892 114.939 108.123 479.276
2499 0 68.1094 11.3494 773 120.527 108.847 479.101
2500 0 73.1298 12.2522 896 118.597 108.961 476.513
2501 0 75.1015 12.1569 913 120.297 108.426 475.635
2502 0 78.1365 13.1181 1025 119.797 108.609 474.064
2503 0 80.1574 13.5109 1083 119.953 107.987 473.369
2504 0 82.0534 13.1622 1080 121.577 107.71 471.721
2505 0 82.1519 11.43 939 127.987 108.21 470.677
2506 0 90.1112 13.439 1211 120.831 108.413 469.322
2507 0 90.1063 13.8947 1252 122.129 108.097 467.95
2508 1 47.1267 12.2224 576 123.622 107.545 490.12
2509 0 49.146 12.412 610 123.893 108.077 489.01
2510 0 50.3558 12.4712 628 121.639 108.674 489.403
2511 0 50.0357 13.2306 662 125.373 111.789 486.236
2512 0 53.0203 12.2783 651 127.017 111.335 486.833
2513 0 54.0677 13.1502 711 125.85 111.547 484.917
2514 0 53.0246 12.3339 654 130.095 112.197 484.98
2515 0 57.0271 13.1341 749 126.621 111.947 484.364
2516 0 59.0867 13.2686 784 126.634 111.75 483.495
2517 0 61.081 13.7522 840 125.289 111.799 481.055
2518 0 61.0407 12.0248 734 131.67 112.001 483.199
2519 0 63.0342 13.1992 832 129.643 111.871 478.593
2520 0 64.1064 13.0252 835 130.14 111.516 479.586
2521 0 69.0439 13.629 941 127.012 111.292 479.569
2522 0 72.1257 14.0311 1012 126.487 112.001 477.226
2523 0 74.0658 14.1361 1047 126.071 111.765 476.507
2524 0 77.0852 13.777 1062 126.886 111.918 477.04
2525 0 77.1656 13.633 1052 129.543 111.924 474.429
2526 0 80.0731 13.0631 1046 131.216 111.805 472.728
2527 0 83.0817 13.589 1129 129.002 112.223 471.645
2528 0 85.1432 13.2013 1124 130.736 111.875 470.261
2529 0 91.0837 13.8554 1262 128.957 111.643 469.509
2530 0 92.1054 12.8548 1184 132.365 112.144 468.388
2531 0 97.175 13.3162 1294 131.456 112.169 465.014
2532 1 53.1309 12.7986 680 126.128 112.974 486.497
2533 0 52.1608 11.733 612 129.913 112.662 485.224
2534 0 54.1171 13.4523 728 127.353 112.43 483.621
2535 0 56.0494 12.4176 696 130.67 113.289 482.703
2536 0 59.1257 13.1246 776 128.259 113.068 482.924
2537 0 62.0253 13.9943 868 125.372 112.933 481.954
2538 0 64.0551 13.1605 843 127.172 112.861 481.323
2539 0 64.127 14.0658 902 125.053 112.748 480.603
2540 0 67.0822 13.476 904 126.749 111.513 478.729
2541 0 67.0803 12.731 854 130.52 111.446 478.022
2542 0 70.1329 12.1626 853 130.556 111.141 477.897
2543 0 73.1153 12.5282 916 129.833 110.892 476.499
2544 0 73.1989 11.9947 878 132.329 109.926 473.97
2545 0 77.154 13.3759 1032 127.028 110.646 473.061
2546 0 80.1174 13.1307 1052 128.115 110.9 471.505
2547 0 80.2903 12.3676 993 131.17 110.686 468.819
2548 0 83.2342 13.6242 1134 126.98 110.819 467.675
2549 0 86.2214 12.0272 1037 129.401 110.42 467.838
2550 0 89.2757 11.5597 1032 128.437 110.86 469.101
2551 0 92.4492 13.6183 1259 127.085 110.724 463.678
2552 0 95.2047 12.9931 1237 124.584 110.386 463.137
2553 0 97.2407 12.6285 1228 125.985 110.357 461.193
2554 1 48.065 10.2985 495 117.198 109.665 485.414
2555 0 51.0787 11.6095 593 112.137 110.386 485.094
2556 0 53.1528 11.5516 614 113.174 110.279 482.5
2557 0 55.1201 12.7358 702 115.132 109.077 484.446
2558 0 56.0471 13.6135 763 113.958 109.612 482.339
2559 0 58.0389 11.8197 686 118.876 109.369 481.593
2560 0 61.0377 12.8937 787 115.105 108.97 481.291
2561 0 63.0804 12.6505 798 115.296 109.404 479.028
2562 0 65.0728 13.2467 862 113.729 109.762 477.794
2563 0 66.1077 12.8578 850 115.72 109.108 477.533
2564 0 69.1162 13.6003 940 114.421 109.119 475.883
2565 0 73.0332 14.1169 1031 113.214 109.068 476.256
2566 0 73.0608 15.1381 1106 111.08 109.484 474.528
2567 0 74.1489 12.2591 909 118.943 108.718 473.582
2568 0 79.2138 13.7602 1090 114.303 109.147 471.055
2569 0 81.1025 13.711 1112 115.321 108.927 472.759
2570 0 82.0602 13.2951 1091 119.951 109.276 472.219
2571 0 84.1655 13.4616 1133 120.625 109.205 468.393
2572 0 88.1 13.0193 1147 121.156 109.493 468.429
2573 0 90.1129 11.985 1080 123.411 110.181 467.789
2574 0 95.0908 12.4197 1181 122.564 110.257 465.288
2575 0 101.152 13.8405 1400 116.374 109.734 464.279
2576 1 53.1058 11.2605 598 118.941 109.554 483.63
2577 0 53.0163 11.5813 614 120.109 109.785 480.243
2578 0 53.2074 9.90465 527 119.142 111.573 477.719
2579 0 54.4705 10.6296 579 119.672 110.758 476.261
2580 0 58.2227 11.1812 651 108.47 111.424 477.535
2581 0 60.3479 11.0029 664 107.8 111.12 477.414
2582 0 62.2135 11.9427 743 106.851 111.117 475.016
2583 0 63.1352 11.0715 699 108.422 111.539 475.721
2584 0 62.2441 10.1054 629 112.49 111.514 471.3
2585 0 68.1077 11.614 791 105.779 111.442 474.102
2586 0 69.124 10.9369 756 108.181 111.303 471.726
2587 0 71.0894 11.0143 783 109.066 110.969 468.139
2588 0 74.1382 11.0065 816 109.452 111.391 468.901
2589 0 76.1472 11.3202 862 109.356 111.123 468.63
2590 0 81.1326 11.6353 944 108.409 111.292 467.557
2591 0 83.12 10.5991 881 112.27 111.194 465.472
2592 0 85.2267 11.7099 998 111.712 110.326 466.516
2593 1 47.2382 11.1562 527 120.89 110.765 486.408
2594 0 49.3873 11.3794 562 120.171 111.413 483.82
2595 0 49.0517 11.4981 564 115.369 111.207 484.051
2596 0 51.0538 10.7338 548 117.024 111.104 485.653
2597 0 53.0714 11.2678 598 121.92 109.406 485.363
2598 0 56.0665 12.5208 702 118.671 109.717 483.779
2599 0 56.0656 12.6994 712 119.077 109.35 483.787
2600 0 60.0401 13.0246 782 117.528 109.141 482.471
2601 0 60.0376 11.9758 719 120.957 108.925 481.816
2602 0 62.054 12.747 791 119.807 109.196 481.459
2603 0 64.0734 12.9695 831 119.674 109.002 479.106
2604 0 66.0617 13.5479 895 118.072 109.372 479.244
2605 0 68.1103 12.6119 859 119.331 109.257 478.82
2606 0 71.0248 12.8688 914 117.641 109.295 477.136
2607 0 72.1179 12.8262 925 118.025 109.204 475.177
2608 0 75.0928 12.7176 955 116.448 109.292 474.89
2609 0 78.0881 12.5755 982 118.587 109.73 472.149
2610 0 80.1322 12.417 995 118.961 109.105 471.071
2611 0 81.086 12.1476 985 120.291 109.487 470.196
2612 0 86.093 12.835 1105 116.651 109.726 467.953
2613 0 90.1667 13.3198 1201 114.334 109.813 467.222
2614 0 92.0647 12.4369 1145 115.306 109.409 466.831
2615 0 96.1242 12.9104 1241 114.36 109.905 465.026
2616 1 51.0462 10.8725 555 112.114 109.714 486.953
2617 0 53.1805 13.3132 708 108.322 109.788 485.636
2618 0 54.2838 12.1768 661 105.567 110.198 486.781
2619 0 56.1031 13.8673 778 102.028 109.571 482.806
2620 0 57.1031 12.4512 711 105.367 109.336 482.264
2621 0 60.1605 13.331 802 102.729 108.993 483.486
2622 0 60.0407 11.3756 683 107.739 109.111 483.458
2623 0 63.1068 13.2632 837 103.534 109.114 482.533
2624 0 66.0817 12.1214 801 105.581 109.026 482.599
2625 0 67.203 12.7673 858 104.444 108.619 481.351
2626 0 69.1125 13.6589 944 103.103 108.606 480.342
2627 0 72.0608 12.9752 935 105.237 107.983 479.196
2628 0 72.0973 12.3306 889 108.574 108.629 478.879
2629 0 76.1303 11.9269 908 109.731 108.381 478.093
2630 0 78.1624 11.4377 894 111.151 108.249 479.673
2631 0 82.195 13.3098 1094 109.348 108.418 475.946
2632 0 84.1739 11.8802 1000 113.456 108.101 475.684
2633 0 87.0764 13.3561 1163 111.244 108.96 474.541
2634 0 92.1943 13.2546 1222 111.85 108.595 473.212
2635 0 92.1053 12.0406 1109 116.076 108.601 471.894
2636 0 96.117 13.057 1255 114.224 108.308 471.693
2637 1 53.1514 13.0759 695 112.353 108.637 491.971
2638 0 53.0423 13.3667 709 109.044 108.666 490.035
2639 0 56.0763 13.3033 746 108.066 109.067 490.528
2640 0 57.0541 13.7413 784 111.348 107.346 488.05
2641 0 57.0773 13.5255 772 113.478 107.483 488.789
2642 0 59.0307 12.8069 756 113.077 106.762 488.139
2643 0 61.0852 13.473 823 111.036 107.303 487.764
2644 0 62.0919 13.6733 849 111.793 107.261 485.245
2645 0 64.0946 13.3241 854 112.657 107.144 482.721
2646 0 67.0573 13.5705 910 111.655 106.465 483.265
2647 0 69.071 13.9422 963 111.158 106.052 482.432
2648 0 70.1201 13.3628 937 114.38 106.581 480.829
2649 0 73.0887 13.2031 965 114.523 106.403 480.665
2650 0 78.0578 14.1434 1104 111.329 106.617 481.143
2651 0 78.1101 14.8508 1160 111.774 106.695 479.952
2652 0 80.1884 13.5182 1084 116.845 106.251 478.801
2653 0 84.1745 14.1967 1195 115.661 107.005 475.765
2654 0 85.1827 14.0404 1196 116.669 107.34 476.386
2655 0 87.2759 14.0818 1229 117.968 106.648 474.551
2656 0 91.3218 14.3339 1309 117.247 106.872 471.243
2657 0 94.2388 14.7392 1389 116.953 106.912 472.46
2658 0 97.1662 14.9332 1451 118.243 107.376 467.924
2659 0 100.315 14.4146 1446 118.808 107.458 470.039
2660 0 101.291 13.9104 1409 122.475 107.818 469.195
2661 0 105.266 14.6961 1547 119.342 107.515 468.89
2662 0 107.306 13.5874 1458 121.616 107.067 467.019
2663 0 113.435 14.0344 1592 119.413 107.309 465.67
2664 0 116.487 13.9586 1626 121.362 107.419 462.335
2665 0 118.596 12.336 1463 122.572 107.837 451.934
2666 1 60.1115 10.3308 621 118.364 109.333 486.773
2667 0 62.0917 10.6456 661 115.938 109.631 487.086
2668 0 65.2849 12.9892 848 115.191 107.925 483.656
2669 0 65.2827 13.0203 850 155.739 107.926 483.625
2670 0 71.1269 13.1033 932 112.58 107.812 484.245
2671 0 74.0631 13.394 992 111.199 107.952 480.773
2672 0 75.1748 13.5551 1019 111.25 107.742 478.362
2673 0 77.1284 12.1615 938 116.958 107.287 479.335
2674 0 80.1617 12.7368 1021 113.964 107.192 477.384
2675 0 81.181 12.1087 983 116.945 106.747 474.704
2676 0 83.1686 11.0258 917 118.912 107.022 475.798
2677 0 85.1219 12.6642 1078 116.783 106.994 471.05
2678 0 90.1274 12.0052 1082 116.472 106.54 472.892
2679 0 91.1651 12.3073 1122 114.495 109.421 472.861
2680 0 94.2125 10.954 1032 114.173 108.858 470.414
2681 0 98.1833 11.4276 1122 116.468 107.307 469.242
2682 0 100.132 11.0854 1110 117.099 107.981 468.95
2683 1 52.121 12.0681 629 111.207 109.719 489.981
2684 0 56.0782 12.4647 699 109.82 108.68 489.339
2685 0 57.1728 11.9287 682 110.738 109.213 486.638
2686 0 57.1118 12.3092 703 111.374 109.158 485.179
2687 0 61.1626 13.3578 817 107.663 109.13 485.785
2688 0 63.1372 13.637 861 106.9 109.055 483.894
2689 0 65.0925 12.6896 826 109.548 109.122 483.259
2690 0 66.0847 12.2873 812 110.708 108.913 483.256
2691 0 70.0845 13.6549 957 110.605 108.893 482.492
2692 0 71.0529 12.9622 921 114.119 109.21 479.593
2693 0 71.0306 12.9944 923 116.327 109.041 480.863
2694 0 73.1666 12.3964 907 116.905 109.491 477.734
2695 0 75.145 11.8172 888 120.224 109.405 475.145
2696 0 77.0656 11.9768 923 118.541 109.078 479.502
2697 0 81.1473 12.4958 1014 117.644 109.625 475.343
2698 0 84.1834 12.1877 1026 116.822 109.7 475.667
2699 0 88.0972 13.0651 1151 115.369 108.958 471.894
2700 0 91.2048 12.2801 1120 116.852 109.356 470.67
2701 0 98.2266 14.4462 1419 110.455 109.692 466.255
2702 1 53.0347 11.615 616 113.834 110.693 489.294
2703 0 56.0743 12.5904 706 109.576 111.136 485.079
2704 0 55.1306 11.7539 648 118.779 111.006 484.091
2705 0 57.0965 11.8046 674 117.951 110.573 488.987
2706 0 58.0429 12.5769 730 117.197 110.36 485.268
2707 0 62.0442 12.346 766 117.095 109.974 485.646
2708 0 62.0796 11.9041 739 118.839 109.482 485.632
2709 0 64.0509 12.5525 804 117.874 110.376 483.517
2710 0 65.0517 12.8974 839 118.46 109.833 482.386
2711 0 69.1061 13.1682 910 116.801 109.866 481.292
2712 0 70.0783 12.115 849 120.227 109.743 482.181
2713 0 72.1263 13.1159 946 118.946 110.038 480.129
2714 0 75.2779 13.4435 1012 118.733 110.055 477.616
2715 0 78.0693 13.6802 1068 116.897 109.805 479.092
2716 0 79.2206 12.2317 969 122.845 109.714 477.062
2717 0 82.1064 12.8492 1055 120.415 110.387 477.733
2718 0 85.0772 13.4349 1143 120.174 109.8 474.655
2719 0 86.192 13.1915 1137 122.409 109.894 472.706
2720 0 91.0901 13.7117 1249 120.313 110.528 471.714
2721 0 91.0659 13.1224 1195 123.323 110.111 468.765
2722 0 96.0638 13.7929 1325 120.607 110.288 467.065
2723 0 101.087 14.2749 1443 118.146 109.792 465.447
2724 0 103.122 14.1871 1463 118.893 110.024 465.167
2725 0 105.092 12.8364 1349 123.178 110.096 462.758
2726 0 111.108 14.4184 1602 117.745 109.502 460.831
2727 1 60.1056 12.2784 738 119.285 110.119 483.925
2728 0 61.0522 11.4492 699 123.023 110.632 483.24
2729 0 63.1094 12.1693 768 123.922 109.441 482.525
2730 0 67.1778 12.906 867 120.867 109.684 482.759
2731 0 67.2615 13.0238 876 122.244 109.124 479.65
2732 0 69.2706 13.7865 955 120.904 109.541 477.251
2733 0 73.3531 13.2373 971 121.43 109.955 477.937
2734 0 74.326 13.3197 990 122.932 109.88 476.707
2735 0 76.2793 12.3231 940 126.464 109.519 475.673
2736 0 75.2637 14.1104 1062 124.472 109.953 474.844
2737 0 79.1158 12.665 1002 125.365 107.486 471.544
2738 0 82.1469 12.782 1050 125.31 107.392 470.3
2739 0 85.1425 13.0957 1115 125.909 107.83 470.795
2740 0 88.1483 13.2164 1165 125.429 108.266 473.02
2741 0 90.1047 14.1391 1274 125.086 108.834 469.38
2742 0 93.1369 14.3874 1340 124.739 108.34 468.704
2743 0 97.2336 13.9458 1356 127.581 108.279 467.105
2744 0 97.3908 12.8041 1247 135.266 108.261 462.059
2745 0 102.162 13.6058 1390 130.471 108.408 464.25
2746 0 106.127 13.4839 1431 129.901 108.917 463.02
2747 0 108.13 12.9381 1399 133.638 108.585 460.405
2748 0 115.227 13.8075 1591 130.42 108.894 460.268
2749 1 60.2087 11.8754 715 128.35 108.934 485.366
2750 0 60.0525 12.2226 734 127.965 109.211 484.613
2751 0 62.1073 13.1869 819 122.647 109.397 484.988
2752 0 65.0672 12.6485 823 119.638 109.672 482.722
2753 0 69.0804 13.5494 936 116.772 109.531 479.833
2754 0 71.0811 13.2384 941 116.859 109.146 480.106
2755 0 74.1116 12.2248 906 119.483 109.383 479.01
2756 0 75.073 12.9341 971 131.297 108.804 475.559
2757 0 80.1303 12.8416 1029 128.671 109.171 477.291
2758 0 80.2423 12.2504 983 131.708 109.115 475.073
2759 0 85.0775 13.8815 1181 125.115 109.378 474.265
2760 0 88.1454 12.9672 1143 129.78 109.807 473.322
2761 0 89.1914 12.5236 1117 131.795 109.595 470.106
2762 0 93.2603 13.0817 1220 126.219 110.999 469.939
2763 0 97.283 14.0724 1369 124.976 110.37 465.642
2764 1 48.1411 10.4069 501 125.345 108.092 488.95
2765 0 47.0934 10.1076 476 125.643 109.223 489.336
2766 0 50.047 11.6291 582 116.837 109.534 489.801
2767 0 51.2247 11.3422 581 117.859 108.816 487.614
2768 0 49.0391 9.68615 475 122.486 109.495 491.52
2769 0 52.1038 10.8245 564 120.379 109.963 490.259
2770 0 53.0425 11.1986 594 121.056 109.827 488.451
2771 0 54.0226 11.5878 626 119.38 110.125 488.788
2772 0 55.1033 10.7253 591 121.272 108.332 486.783
2773 0 60.013 12.8805 773 114.567 109.243 488.004
2774 0 60.1271 11.6919 703 118.496 108.642 483.727
2775 0 63.1208 13.1811 832 114.668 108.701 481.721
2776 0 63.1147 11.4553 723 120.159 108.3 481.073
2777 0 67.0747 12.9557 869 115.59 108.466 481.806
2778 0 68.1608 11.6196 792 119.165 108.875 481.475
2779 0 71.0508 11.9492 849 118.516 108.682 479.61
2780 0 73.0971 13.2563 969 115.842 108.595 478.465
2781 0 75.1406 11.7513 883 115.88 109.176 475.703
2782 0 77.0638 12.3145 949 115.953 109.166 472.695
2783 0 81.224 12.3978 1007 115.346 109.868 471.804
2784 0 83.1457 13.0374 1084 115.373 109.595 469.814
2785 0 88.2881 12.1874 1076 116.996 109.321 470.131
2786 0 90.2022 12.738 1149 116.393 109.25 467.1
2787 1 53.0707 11.0607 587 115.513 108.985 489.634
2788 0 54.0304 12.1783 658 115.336 109.047 490.193
2789 0 57.1846 12.6083 721 113.657 111.223 485.036
2790 0 56.2411 12.7131 715 115.745 111.351 484.232
2791 0 58.1493 13.6889 796 118.344 109.835 485.457
2792 0 59.1221 12.1951 721 124.122 111.201 485.738
2793 0 61.1081 12.7479 779 123.193 111.195 485.831
2794 0 65.0694 13.9236 906 120.908 110.967 482.675
2795 0 67.1039 12.5328 841 124.166 111.139 484.448
2796 0 69.0562 13.9596 964 121.118 110.673 481.743
2797 0 68.1039 11.9376 813 128.606 110.625 480.61
2798 0 71.033 13.0644 928 125.405 110.774 479.681
2799 0 72.0738 12.3485 890 126.763 110.961 481.099
2800 0 75.0995 12.2637 921 126.242 110.296 480.51
2801 0 78.0979 13.1758 1029 125.364 110.728 477.642
2802 0 78.1359 12.2479 957 128.909 110.648 476.258
2803 0 83.074 12.6754 1053 127.561 110.955 474.205
2804 0 84.1117 11.9603 1006 130.276 110.893 473.981
2805 0 86.0948 12.3004 1059 130.2 110.836 472.5
2806 0 89.1861 13.085 1167 128.039 110.302 471.503
2807 0 93.1557 13.3218 1241 128.35 110.384 467.218
2808 0 97.121 13.5604 1317 126.555 109.773 464.121
2809 1 52.0112 10.3055 536 118.834 110.806 484.578
2810 0 52.1958 10.8246 565 116.724 109.317 482.981
2811 0 56.1311 12.3283 692 105.689 108.988 486.01
2812 0 57.2334 11.8637 679 108.099 108.405 484.944
2813 0 55.0781 10.6394 586 113.305 108.799 484.157
2814 0 59.1827 11.946 707 110.02 108.668 481.771
2815 0 60.1957 10.8812 655 113.418 107.855 484.063
2816 0 64.0926 12.4819 800 108.928 108.421 482.425
2817 0 64.1016 11.4974 737 111.221 108.775 480.259
2818 0 66.0176 13.0117 859 107.985 109.205 479.242
2819 0 67.2268 11.9595 804 110.582 109.187 476.244
2820 0 72.1709 12.609 910 108.82 109.455 474.344
2821 0 72.0922 12.3453 890 111.067 109.243 472.728
2822 0 72.2352 11.5595 835 116.196 109.274 472.592
2823 0 79.1294 13.7875 1091 119.712 108.212 475.424
2824 0 81.1906 14.3859 1168 118.725 108.467 474.404
2825 0 82.2114 12.699 1044 123.58 108.535 472.279
2826 0 86.0704 13.1055 1128 121.525 107.989 468.289
2827 0 90.1325 13.5134 1218 122.489 109.027 470.677
2828 0 92.1834 12.8982 1189 125.373 108.725 469.151
2829 0 95.2318 12.4538 1186 121.568 109.585 469.756
2830 0 96.1036 12.6842 1219 129.588 110.128 466.493
2831 0 103.186 14.1977 1465 121.412 108.775 462.837
2832 1 51.0555 10.753 549 124.342 107.874 488.14
2833 0 54.0246 11.7169 633 122.649 107.733 488.311
2834 0 57.2046 11.9571 684 124.706 108.548 487.173
2835 0 59.1084 12.1133 716 119.207 110.499 485.337
2836 0 60.0906 12.2482 736 119.08 110.245 484.535
2837 0 62.1067 11.8667 737 119.97 109.92 485.46
2838 0 65.1326 12.2059 795 119.252 109.893 483.312
2839 0 67.1119 13.3657 897 117.873 109.445 481.002
2840 0 72.0892 13.1365 947 116.871 109.532 482.199
2841 0 74.1392 13.124 973 117.964 109.158 480.74
2842 0 74.0693 12.1238 898 123.225 107.341 478.102
2843 0 77.095 13.0877 1009 120.999 107.723 478.44
2844 0 81.1206 12.7958 1038 121.522 108.003 478.126
2845 0 83.1581 13.5405 1126 120.902 107.662 478.051
2846 0 86.1547 13.0811 1127 122.951 107.763 473.846
2847 0 88.2284 13.363 1179 122.342 107.303 473.911
2848 0 89.1709 13.3788 1193 123.789 107.091 469.973
2849 0 92.2044 12.2554 1130 128.898 106.995 469.834
2850 0 97.2265 13.1446 1278 128.035 107.243 470.421
2851 0 100.258 12.4478 1248 131.099 108.557 467.236
2852 0 103.486 13.3545 1382 128.916 107.535 465.244
2853 0 106.305 13.2449 1408 130.221 107.561 461.804
2854 1 55.1845 11.1263 614 125.226 106.95 489.355
2855 0 57.1532 12.5627 718 122.9 108.372 488.801
2856 0 59.239 12.036 713 122.426 109.222 486.25
2857 0 62.1977 12.3799 770 121.444 108.503 485.468
2858 0 63.1209 12.4998 789 120.987 109.093 482.627
2859 0 66.2457 13.3745 886 120.105 108.979 480.766
2860 0 68.2714 11.8058 806 121.536 109.565 480.667
2861 0 70.2084 12.8332 901 119.054 108.815 478.659
2862 0 73.2436 12.4926 915 119.909 108.703 477.231
2863 0 76.2563 13.4284 1024 115.359 107.764 479.605
2864 0 76.0637 13.6596 1039 116.115 107.321 476.755
2865 0 83.1498 13.3734 1112 114.91 107.747 477.88
2866 0 84.1045 12.0683 1015 120.776 106.603 476.779
2867 0 86.1011 13.1938 1136 119.974 107.013 475.405
2868 0 89.0788 12.6854 1130 123.351 107.433 472.857
2869 0 90.2821 12.2948 1110 124.83 106.945 472.019
2870 0 95.263 12.2503 1167 124.011 106.862 469.511
2871 0 99.1804 12.9159 1281 122.02 106.835 471.221
2872 0 101.211 11.5501 1169 126.29 106.345 469.447
2873 1 55.1028 12.268 676 120.867 106.328 489.799
2874 0 55.0724 10.695 589 125.238 105.995 490.462
2875 0 57.167 12.2798 702 121.615 106.801 489.708
2876 0 59.2806 13.5626 804 122.929 107.588 486.071
2877 0 60.0719 12.2853 738 119.298 107.312 489.016
2878 0 63.1194 12.4051 783 119.005 106.739 486.313
2879 0 65.0511 12.6209 821 117.929 106.486 485.629
2880 0 65.2254 12.7864 834 119.445 107.134 482.482
2881 0 70.0669 13.5157 947 116.717 106.721 482.222
2882 0 72.084 13.512 974 117.659 106.717 481.335
2883 0 74.1809 11.6472 864 122.36 107.325 480.31
2884 0 78.122 13.6965 1070 117.355 106.921 477.556
2885 0 78.1727 13.0225 1018 121.037 107.215 477.088
2886 0 82.1632 13.5706 1115 119.178 107.275 475.513
2887 0 86.0641 13.1181 1129 115.568 107.746 471.344
2888 0 86.1549 12.7329 1097 121.89 108.445 475.998
2889 0 87.1948 11.1933 976 122.759 108.309 470.318
2890 0 92.2426 11.4372 1055 121.931 107.68 468.623
2891 1 47.0957 9.85228 464 117.435 108.009 490.123
2892 0 51.0366 12.8927 658 122.125 109.953 491.318
2893 0 53.0442 12.9326 686 120.513 110.159 488.875
2894 0 53.0648 12.5318 665 122.832 109.895 489.932
2895 0 53.0672 12.6255 670 122.164 109.685 489.696
2896 0 56.051 13.4342 753 119.733 109.968 488.529
2897 0 57.095 12.8908 736 122.053 109.789 485.732
2898 0 59.0787 13.7952 815 118.605 110.063 487.097
2899 0 61.0534 14.2171 868 117.296 109.698 483.819
2900 0 64.0858 13.5131 866 118.828 109.731 484.397
2901 0 64.1034 13.5718 870 119.901 110.484 481.514
2902 0 66.0586 13.2155 873 121.658 110.116 480.099
2903 0 68.0619 13.6934 932 118.123 109.776 480.06
2904 0 72.1516 14.1092 1018 116.732 110.074 478.289
2905 0 72.151 12.7926 923 121.665 109.896 478.793
2906 0 74.0487 12.8564 952 122.103 110.526 476.581
2907 0 78.1525 13.0898 1023 120.994 109.958 474.399
2908 0 80.1039 13.2828 1064 120.59 109.744 474.179
2909 0 83.098 14.2482 1184 117.758 110.088 472.785
2910 0 84.1296 12.9562 1090 122.471 109.578 469.339
2911 0 88.1222 12.8798 1135 121.315 109.562 469.355
2912 1 46.0423 11.2722 519 123.501 110.43 489.376
2913 0 48.0239 11.6192 558 121.523 110.228 486.203
2914 0 51.1435 10.8323 554 126.195 109.745 488.386
2915 0 55.0673 12.9478 713 121.007 109.377 488.245
2916 0 53.0859 11.8864 631 125.777 109.271 486.83
2917 0 57.1258 12.9013 737 121.21 110.058 487.391
2918 0 57.0768 12.4219 709 123.212 109.726 486.416
2919 0 59.0634 12.7659 754 123.313 109.942 483.893
2920 0 62.1163 13.2011 820 121.009 109.176 483.159
2921 0 62.0796 12.3712 768 123.029 109.759 483.935
2922 0 65.0674 13.1249 854 120.769 109.379 481.857
2923 0 68.0704 13.3538 909 120.399 109.696 479.122
2924 0 69.0918 12.3604 854 123.231 109.397 478.159
2925 0 71.1173 13.4004 953 120.077 109.752 477.397
2926 0 73.1006 12.5033 914 121.058 109.722 476.857
2927 0 75.101 12.6097 947 121.94 109.584 474.914
2928 0 79.1533 13.657 1081 118.307 109.251 472.973
2929 0 81.0505 13.4484 1090 118.489 109.095 470.933
2930 0 83.0984 13.3697 1111 119.203 109.079 471.95
2931 0 86.0559 12.887 1109 120.593 109.588 469.438
2932 0 90.0601 12.6804 1142 120.03 109.384 467.531
2933 0 94.0553 13.4495 1265 117.107 108.857 467.421
2934 1 51.0468 12.0282 614 116.34 109.774 486.638
2935 0 51.1391 12.7887 654 111.535 108.523 487.315
2936 0 53.0616 12.363 656 112.422 109.489 484.982
2937 0 56.0655 14.7149 825 107.561 109.513 484.964
2938 0 58.044 13.1969 766 110.708 109.587 483.796
2939 0 59.0828 12.9649 766 110.52 109.125 484.987
2940 0 60.0529 12.4723 749 112.381 109.348 482.008
2941 0 63.0592 14.9225 941 105.529 109.544 481.396
2942 0 65.0822 12.707 827 110.752 109.204 480.173
2943 0 67.042 14.215 953 106.284 109.299 480.789
2944 0 68.1028 13.0832 891 109.814 109.23 477.269
2945 0 74.1551 14.6585 1087 104.435 108.603 476.835
2946 0 75.1307 12.2054 917 110.309 109.646 474.979
2947 0 76.0802 13.1309 999 109.083 107.672 473.784
2948 0 79.0468 12.6634 1001 109.176 107.156 473.214
2949 0 84.1117 13.6961 1152 106.141 107.168 471.193
2950 0 85.133 13.1794 1122 107.223 108.008 471.641
2951 0 88.0443 12.7663 1124 108.644 107.42 467.91
2952 0 90.0899 12.2211 1101 110.262 106.886 467.257
2953 0 94.0667 12.6506 1190 108.54 106.564 465.906
2954 0 98.124 11.139 1093 110.565 106.776 465.065
2955 0 100.112 11.597 1161 109.339 106.714 464.026
2956 1 52.1012 10.4796 546 105.837 106.408 488.168
2957 0 52.0416 12.9128 672 99.2202 107.199 485.387
2958 0 54.054 10.9335 591 100.766 108.914 484.149
2959 0 58.0883 12.1023 703 98.9132 108.993 483.579
2960 0 58.0821 11.3288 658 100.365 108.533 482.998
2961 0 61.1021 11.5217 704 99.0966 109.358 482.131
2962 0 62.0731 11.9536 742 98.8989 108.705 479.951
2963 0 64.0496 10.929 700 101.677 109.114 478.301
2964 0 67.0649 13.7031 919 95.9597 108.721 478.345
2965 0 70.12 12.2647 860 99.0081 108.507 476.313
2966 0 70.1038 11.5971 813 102.566 108.571 475.7
2967 0 75.1093 11.9825 900 101.749 108.162 475.486
2968 0 76.0885 13.2083 1005 100.871 108.216 473.345
2969 0 79.118 11.9695 947 103.875 107.701 473.541
2970 0 82.0965 13.6668 1122 100.516 108.851 474.947
2971 0 82.0882 12.0602 990 105.148 109.253 474.645
2972 0 87.1597 14.2038 1238 101.482 108.502 471.524
2973 0 89.1384 14.4831 1291 102.319 108.69 470.6
2974 0 93.1481 13.0545 1216 105.581 108.695 469.17
2975 0 93.1535 12.4848 1163 109.46 108.083 467.267
2976 0 97.1297 12.8694 1250 109.252 107.884 464.867
2977 0 99.2665 12.945 1285 109.826 107.818 462.616
2978 1 57.0318 11.3972 650 107.705 108.594 489.651
2979 0 58.0395 12.0952 702 107.567 109.01 486.729
2980 0 61.1783 13.5506 829 106.42 106.435 482.246
2981 0 63.0603 12.94 816 107.746 106.118 481.679
2982 0 65.0721 13.3237 867 107.303 105.909 483.994
2983 0 67.1422 12.9874 872 109.692 105.786 482.282
2984 0 69.0725 13.551 936 109.337 105.827 481.231
2985 0 72.0995 13.7033 988 109.526 105.918 479.235
2986 0 76.1134 13.677 1041 108.169 106.283 480.172
2987 0 77.1121 13.3312 1028 112.014 105.768 477.208
2988 0 77.1044 13.4623 1038 112.803 105.884 476.111
2989 0 81.0798 14.5042 1176 109.847 106.185 474.868
2990 0 84.0576 13.693 1151 113.238 105.902 472.57
2991 0 87.0894 14.9502 1302 110.605 106.506 470.612
2992 0 89.1279 14.036 1251 112.902 106.492 469.783
2993 0 92.0751 13.1197 1208 115.402 106.457 468.713
2994 0 95.1755 14.6992 1399 111.811 106.597 466.084
2995 0 98.0588 12.7984 1255 116.034 106.207 467.355
2996 1 50.025 11.4343 572 115.462 106.238 484.077
2997 0 54.1207 13.6177 737 112.414 107.426 483.14
2998 0 56.0617 11.9511 670 120.806 108.485 487.346
2999 0 59.1627 13.2178 782 118.34 109.366 483.914
3000 0 59.1272 13.2934 786 118.594 108.79 485.095
3001 0 63.0791 13.7288 866 116.479 108.471 484.203
3002 0 63.0673 13.0178 821 119.369 108.379 484.077
3003 0 64.0962 12.3408 791 122.507 108.101 479.36
3004 0 67.076 12.7915 858 120.682 107.58 481.012
3005 0 71.0991 13.3335 948 118.657 107.874 479.838
3006 0 74.0747 14.0534 1041 115.96 108.605 477.193
3007 0 73.0668 13.5629 991 119.973 107.75 475.364
3008 0 75.0251 13.3822 1004 120.388 107.142 476.678
3009 0 81.1467 13.6543 1108 119.465 105.736 474.088
3010 0 83.3461 13.5459 1129 119.795 106.099 470.81
3011 0 86.2027 13.7467 1185 119.451 106.858 472.408
3012 0 87.147 13.1387 1145 121.268 107.024 470.583
3013 0 88.187 12.6209 1113 122.344 107.137 470.551
3014 1 48.0236 11.89 571 112.977 107.098 492.405
3015 0 51.0586 11.9666 611 114.889 107.229 489.468
3016 0 52.043 12.6818 660 114.106 107.121 488.147
3017 0 53.0267 13.4272 712 111.344 107.958 489.317
3018 0 55.0913 12.5791 693 113.838 107.949 489.481
3019 0 55.086 12.2536 675 116.695 107.631 486.308
3020 0 59.0712 13.526 799 112.348 108.061 484.745
3021 0 61.1025 12.5199 765 114.133 108.136 484.663
3022 0 63.0722 12.6839 800 115.22 107.385 482.399
3023 0 65.0468 13.006 846 114.796 107.116 484.046
3024 0 66.104 13.6452 902 113.356 108.186 481.091
3025 0 69.101 13.8493 957 111.72 107.902 482.111
3026 0 73.1777 13.0641 956 113.864 108.351 478.868
3027 0 73.0914 13.2574 969 114.344 106.871 481.065
3028 0 78.0255 14.79 1154 110.363 106.258 478.026
3029 0 80.0731 13.5251 1083 114.67 106.431 478.388
3030 0 81.1088 12.699 1030 118.119 106.299 475.958
3031 0 83.0825 11.964 994 119.638 106.442 475.382
3032 0 87.1272 14.6682 1278 112.541 106.694 474.76
3033 0 89.1375 12.9351 1153 117.716 106.369 472.306
3034 0 91.1164 13.4114 1222 118.163 107.07 471.022
3035 0 96.1418 14.6034 1404 114.467 106.754 467.796
3036 0 102.1 14.8384 1515 113.348 106.437 467.559
3037 1 54.046 11.6382 629 120.871 107.506 489.603
3038 0 56.1412 12.6289 709 118.633 107.488 489.292
3039 0 57.1533 12.9651 741 119.097 107.518 488.229
3040 0 61.0553 13.7253 838 117.791 109.085 487.53
3041 0 63.0604 13.5267 853 118.585 108.618 486.237
3042 0 64.1029 13.4315 861 118.678 108.806 485.511
3043 0 67.0798 13.7597 923 116.27 109.652 484.989
3044 0 67.0358 13.0378 874 120.177 108.16 482.947
3045 0 73.1096 13.3772 978 116.321 109.318 481.783
3046 0 74.1086 13.0484 967 113.327 108.137 478.614
3047 0 74.0376 12.8313 950 116.051 108.535 479.967
3048 0 74.0781 13.3508 989 121.154 108.496 479.044
3049 0 76.1204 12.9926 989 114.202 108.64 478.34
3050 0 78.119 13.057 1020 115.946 108.276 477.749
3051 0 78.0852 13.1651 1028 124.71 109.36 478.037
3052 0 79.0544 13.1302 1038 124.418 109.057 476.758
3053 0 82.0476 14.1381 1160 121.114 109.244 475.565
3054 0 82.0945 14.8122 1216 120.785 109.175 474.609
3055 0 84.0826 13.2251 1112 124.272 108.881 474.031
3056 1 45.0906 11.4215 515 123.4 109.181 492.565
3057 0 47.0454 12.201 574 114.939 109.578 492.131
3058 0 48.0766 11.3569 546 113.921 109.055 490.907
3059 0 50.047 13.0477 653 108.946 108.44 490.988
3060 0 51.0906 12.9769 663 106.899 109.33 487.056
3061 0 51.1013 12.7981 654 108.752 108.448 486.417
3062 0 56.0249 13.851 776 103.919 106.97 486.258
3063 0 54.0674 11.6521 630 111.613 106.703 486.162
3064 0 58.0427 13.3006 772 106.754 106.452 485.22
3065 0 60.0738 12.984 780 108.978 107.206 484.486
3066 0 62.0414 12.9107 801 110.72 107.127 483.09
3067 0 64.0568 12.6762 812 112.033 106.866 483.081
3068 0 68.1476 13.4414 916 111.328 106.645 483.009
3069 0 69.0823 13.6793 945 113.93 107.086 480.029
3070 0 69.146 12.8713 890 119.676 107.037 478.608
3071 0 73.1104 13.8831 1015 118.011 107.315 478.017
3072 0 74.1122 13.6954 1015 122.26 107.493 477.96
3073 0 75.084 12.6125 947 127.65 107.503 477.715
3074 0 77.075 13.2079 1018 128.745 108.287 477.436
3075 0 80.0608 13.0901 1048 142.325 108.01 475.427
3076 0 84.0764 12.8455 1080 142.968 109.648 474.466
3077 1 43.0701 11.3304 488 142.105 109.885 493.789
3078 0 45.0215 12.1942 549 143.508 110.239 491.064
3079 0 47.0988 12.2084 575 142.812 109.289 491.13
3080 0 48.0895 12.3728 595 135.674 110.536 491.168
3081 0 47.0254 12.5464 590 139.831 108.008 490.637
3082 0 50.1098 13.0114 652 135.202 106.794 489.153
3083 0 51.0157 13.4664 687 137.015 107.902 489.418
3084 0 51.0443 12.4989 638 142.03 107.014 486.955
3085 0 54.0571 12.6903 686 141.351 107.334 486.49
3086 0 53.0452 12.216 648 145.364 108.5 487.569
3087 0 57.0408 13.9199 794 137.191 108.421 487.248
3088 0 58.0168 12.5653 729 142.897 106.439 485.901
3089 0 59.0777 13.0337 770 141.423 105.882 484.152
3090 0 59.059 12.7161 751 144.485 106.924 483.141
3091 0 64.0877 14.1057 904 136.054 106.414 482.981
3092 0 66.0788 13.7714 910 136.925 106.535 480.89
3093 0 68.1042 14.1107 961 137.42 106.711 481.382
3094 0 70.0663 13.3017 932 141.267 106.465 480.223
3095 0 72.0816 13.2073 952 142.267 106.546 477.812
3096 0 75.0525 14.2833 1072 137.933 106.745 477.009
3097 0 76.1269 13.6877 1042 140.17 106.999 475.537
3098 0 76.0396 12.1384 923 146.895 107.306 476.185
3099 0 80.1464 12.1902 977 144.733 106.548 473.685
3100 0 84.1146 12.8277 1079 141.192 107.002 472.85
3101 0 85.1683 12.716 1083 141.163 107.052 472.089
3102 0 88.0683 11.775 1037 142.686 106.938 472.38
3103 0 91.1635 13.7884 1257 136.775 107.71 469.925
3104 0 94.1025 11.9976 1129 141.51 107.262 468.793
3105 0 97.1817 13.2638 1289 135.673 106.989 467.067
3106 1 52.0841 12.3454 643 131.509 106.815 488.151
3107 0 54.2083 11.6587 632 128.854 107.353 486.141
3108 0 56.1951 12.0829 679 129.451 107.265 484.508
3109 0 59.0514 11.9726 707 129.283 106.625 485.72
3110 0 59.0462 12.2108 721 129.635 106.549 484.775
3111 0 62.0382 12.3956 769 128.637 106.728 482.014
3112 0 64.0666 12.7055 814 126.51 106.774 482.774
3113 0 66.0732 12.7737 844 126.664 106.93 479.274
3114 0 69.0795 12.8837 890 124.828 106.854 479.581
3115 0 70.1509 13.4139 941 123.804 107.387 477.905
3116 0 72.0856 13.7753 993 122.372 107.489 476.044
3117 0 75.1197 13.3121 1000 123.419 107.645 476.24
3118 0 78.1092 13.4555 1051 122.049 107.622 474.746
3119 0 80.1874 13.8925 1114 121.261 107.325 473.96
3120 0 81.2103 12.7077 1032 124.47 107.365 474.056
3121 0 83.1352 11.4392 951 127.808 107.676 473.413
3122 0 85.2167 11.9812 1021 127.431 107.555 471.613
3123 0 87.1474 12.083 1053 126.455 108.231 470.877
3124 0 92.3032 13.4557 1242 122.114 108.885 468.151
3125 0 95.2881 12.5619 1197 124.908 108.931 465.353
3126 0 98.2027 13.1768 1294 122.753 108.978 464.737
3127 0 102.126 12.4258 1269 130.177 108.879 462.994
3128 0 108.134 12.6694 1370 127.839 108.999 458.987
3129 0 110.257 11.6636 1286 124.531 109.526 453.675
3130 0 112.374 12.2448 1376 123.933 109.56 452.973
3131 0 116.626 12.3386 1439 125.149 108.885 450.867
3132 0 119.233 12.2365 1459 126.322 108.795 451.445
3133 0 125.263 13.5155 1693 122.219 108.736 451.561
3134 0 131.389 12.8474 1688 123.847 109.134 445.37
3135 0 135.537 13.192 1788 122.554 109.824 443.951
3136 0 139.553 12.1387 1694 126.04 109.437 440.022
3137 1 56.2425 10.4369 587 115.656 110.007 484.341
3138 0 58.1274 12.3006 715 109.283 108.54 485.098
3139 0 58.2913 11.4082 665 108.905 110.687 484.299
3140 0 61.1835 11.49 703 107.967 110.579 484.525
3141 0 63.164 12.1588 768 106.168 110.957 484.858
3142 0 63.1839 11.5219 728 110.409 109.791 484.772
3143 0 64.2773 10.7659 692 112.591 110.564 483.389
3144 0 67.1246 11.1137 746 112.964 110.996 484.193
3145 0 70.1835 11.2277 788 111.434 111.598 484.283
3146 0 72.2756 11.5945 838 112.68 111.001 481.753
3147 0 73.1057 12.1468 888 115.512 110.999 481.771
3148 0 75.1531 12.0554 906 115.625 110.774 480.178
3149 0 75.191 10.9854 826 120.41 110.153 479.029
3150 0 80.2038 12.5804 1009 117.075 110.291 477.561
3151 0 81.2074 12.5604 1020 114.135 110.359 478.793
3152 0 82.1612 11.7817 968 117.759 110.844 476.658
3153 0 87.2616 11.9755 1045 118.051 110.483 472.586
3154 0 89.2365 11.52 1028 118.168 109.991 473.64
3155 0 91.3597 10.3218 943 121.176 110.053 474.053
3156 0 98.2959 12.8083 1259 114.703 109.259 468.718
3157 1 51.0971 11.3705 581 116.272 108.041 490.413
3158 0 51.1095 11.896 608 115.842 108.339 488.913
3159 0 52.05 10.7205 558 113.029 108.579 492.554
3160 0 52.031 10.6667 555 114.564 108.535 491.276
3161 0 55.2284 11.4977 635 113.269 107.335 489.15
3162 0 58.082 11.5699 672 113.329 106.585 488.235
3163 0 56.0668 11.3436 636 116.303 107.083 486.646
3164 0 60.0548 12.4553 748 111.965 107.463 487.365
3165 0 62.1145 11.2534 699 116.399 106.999 486.049
3166 0 62.1026 11.6581 724 115.815 108.387 486.157
3167 0 65.0776 12.2469 797 115.552 107.688 483.424
3168 0 67.081 12.1793 817 115.506 108.279 483.403
3169 0 69.0762 11.7986 815 114.663 107.78 485.066
3170 0 72.1006 11.7613 848 115.498 107.705 482.553
3171 0 79.1308 13.7115 1085 108.335 107.724 476.985
3172 0 82.1249 14.9894 1231 105.657 106.962 476.069
3173 0 80.0801 13.2243 1059 113.428 106.927 477.985
3174 0 80.0877 13.198 1057 116.458 107.147 476.258
3175 0 86.1469 12.1537 1047 117.247 106.759 475.651
3176 0 89.18 13.0074 1160 115.221 107.041 474.771
3177 1 49.4516 11.9106 589 117.803 108.01 488.701
3178 0 50.1143 12.8706 645 109.806 108.175 492.245
3179 0 52.2026 13.2177 690 110.952 107.777 488.067
3180 0 55.2991 12.9116 714 118.944 107.692 485.461
3181 0 62.0555 18.3706 1140 97.8035 106.728 483.584
3182 0 62.0298 15.6376 970 106.298 106.576 487.902
3183 0 60.0442 14.1229 848 113.787 106.322 488.143
3184 0 63.0287 14.1364 891 113.65 106.35 486.707
3185 0 64.109 14.5533 933 112.721 107.345 485.581
3186 0 66.0738 14.0298 927 113.536 106.732 484.853
3187 0 68.0618 13.9579 950 114.646 106.997 485.065
3188 0 70.1427 14.8412 1041 113.522 106.64 482.993
3189 0 71.1199 14.2717 1015 117.451 106.761 481.77
3190 0 71.167 14.206 1011 118.095 106.889 481.21
3191 0 76.1545 15.2979 1165 114.752 106.977 478.747
3192 0 77.1954 14.2625 1101 118.343 106.901 479.312
3193 0 81.2339 15.0184 1220 116.661 107.432 477.029
3194 0 81.177 13.9325 1131 121.658 107.368 476.355
3195 0 87.2013 15.6076 1361 115.462 106.85 473.724
3196 0 89.1296 14.9782 1335 117.983 107.2 473.984
3197 0 92.264 15.3689 1418 117.15 107.424 470.203
3198 0 96.3632 16.1576 1557 115.201 107.385 469.244
3199 1 52.4269 12.1884 639 123.685 107.9 487.936
3200 0 52.181 11.6326 607 118.415 107.573 484.801
3201 0 55.2925 11.828 654 117.45 107.341 484.43
3202 0 55.2069 11.3029 624 118.99 107.321 483.252
3203 0 56.1286 10.6007 595 121.155 107.321 483.355
3204 0 59.2469 11.6462 690 119.78 107.051 479.855
3205 0 58.2955 10.8242 631 122.883 107.168 479.965
3206 0 63.1843 11.5377 729 118.971 107.235 480.167
3207 0 66.2889 12.174 807 118.207 107.625 477.457
3208 0 67.177 12.2066 820 118.291 107.489 476.363
3209 0 70.2065 12.0074 843 118.896 107.603 474.562
3210 0 73.1369 11.7314 858 119.075 107.321 475.371
3211 0 76.103 13.1401 1000 123.554 107.754 478.678
3212 0 79.3181 13.9438 1106 120.311 106.877 477.435
3213 0 80.1662 13.2974 1066 122.777 106.607 475.245
3214 0 84.146 12.6328 1063 123.188 105.789 474.678
3215 0 87.2101 12.4527 1086 123.219 105.949 473.506
3216 0 91.1775 12.9089 1177 121.66 105.754 471.488
3217 1 51.0312 11.7183 598 116.58 105.818 493.018
3218 0 52.0744 12.2517 638 116.588 107.158 490.436
3219 0 53.0738 12.3978 658 111.634 108.556 489.497
3220 0 56.0683 12.0389 675 110.761 108.738 487.899
3221 0 55.0685 12.1667 670 113.819 107.472 488.83
3222 0 57.2125 12.5147 716 112.919 106.729 486.844
3223 0 59.0274 13.2142 780 110.26 106.459 487.24
3224 0 60.057 11.6889 702 115.679 106.138 487.192
3225 0 61.1462 11.8732 726 115.977 107 485.796
3226 0 61.1054 11.6684 713 115.582 106.388 486.439
3227 0 63.2052 12.5623 794 114.649 107.363 484.319
3228 0 68.0592 13.4001 912 112.834 106.893 483.726
3229 0 69.1088 12.8204 886 115.856 106.495 481.722
3230 0 71.1039 12.4184 883 117.143 106.726 480.456
3231 0 75.1236 13.2715 997 114.357 106.589 480.03
3232 0 76.1687 13.7721 1049 114.334 106.463 479.831
3233 0 78.0698 13.2061 1031 117.379 106.49 478.067
3234 0 84.1588 13.3438 1123 115.145 106.32 478.177
3235 0 86.0698 14.2791 1229 114.278 106.834 475.374
3236 0 88.1303 13.9453 1229 115.849 106.779 473.351
3237 0 90.3385 12.6413 1142 120.255 107.116 471.86
3238 0 95.2052 13.3606 1272 118.942 106.91 469.703
3239 0 98.1889 13.3926 1315 118.469 107.308 470.275
3240 1 55.3047 11.8073 653 122.828 108.003 487.113
3241 0 54.2081 11.917 646 119.889 107.272 481.486
3242 0 58.0866 13.807 802 107.415 107.758 483.099
3243 0 60.0707 12.7184 764 110.505 107.323 480.12
3244 0 63.1706 12.6641 800 112.546 107.621 479.549
3245 0 64.1582 12.9679 832 113.639 108.429 481.075
3246 0 65.1003 13.0875 852 114.431 108.296 479.278
3247 0 68.1049 14.1253 962 112.128 108.699 477.34
3248 0 70.1402 13.3162 934 114.406 109.251 474.304
3249 0 73.1923 12.5423 918 115.95 108.83 474.629
3250 0 76.1966 13.8064 1052 114.286 108.122 471.697
3251 0 77.1784 13.3198 1028 115.956 108.983 471.708
3252 0 81.2664 13.1666 1070 116.302 108.835 468.936
3253 0 84.2514 13.7683 1160 115.545 108.208 468.238
3254 0 85.1782 13.7477 1171 117.381 108.787 465.489
3255 0 89.157 13.2687 1183 118.5 108.389 465.279
3256 0 91.2217 13.1986 1204 120.396 107.411 462.906
3257 0 96.1683 14.3706 1382 119.712 108.113 463.533
3258 0 97.1723 12.7505 1239 125.078 107.317 461.414
3259 0 101.205 14.0211 1419 121.594 107.961 458.703
3260 1 54.2846 11.2739 612 126.763 108.448 480.676
3261 0 56.1754 12.5322 704 121.585 107.801 481.209
3262 0 61.0435 12.4338 759 117.352 108.701 480.648
3263 0 62.0286 13.3809 830 123.653 108.125 485.82
3264 0 65.1025 12.0272 783 124.304 108.777 482.008
3265 0 66.2199 13.0625 865 121.733 108.679 482.601
3266 0 66.1193 11.6002 767 127.391 107.858 479.117
3267 0 72.1679 12.7342 919 122.585 109.394 477.919
3268 0 74.1469 12.8124 950 120.737 108.978 477.139
3269 0 78.1347 12.8752 1006 119.842 109.251 475.344
3270 0 81.2433 14.0319 1140 115.856 109.224 474.43
3271 0 83.1184 12.0431 1001 121.542 107.918 472.709
3272 0 87.1859 13.3737 1166 118.4 108.686 470.03
3273 0 89.1227 13.6329 1215 119.081 108.441 468.178
3274 0 91.2095 12.4548 1136 121.344 109.275 466.224
3275 0 96.1612 14.0597 1352 116.418 109.082 465.683
3276 0 98.2238 12.7057 1248 119.958 108.835 464.095
3277 0 101.229 13.4645 1363 118.021 109.501 461.922
3278 0 105.269 12.6058 1327 119.81 109.067 460.726
3279 0 109.356 12.8297 1403 118.271 109.2 460.221
3280 1 59.0163 11.7425 693 118.453 108.293 483.717
3281 0 59.059 11.751 694 118.833 109.519 480.692
3282 0 60.2715 10.7845 650 108.391 108.583 479.04
3283 0 60.3274 11.2221 677 107.765 108.718 476.518
3284 0 63.096 12.901 814 104.086 108.096 479.178
3285 0 66.047 13.2633 876 108.967 107.64 480.968
3286 0 68.0536 13.0339 887 109.973 107.477 479.481
3287 0 71.0731 13.3102 946 109.113 107.364 479.165
3288 0 72.0595 11.9762 863 112.254 106.885 478.409
3289 0 74.0154 11.9029 881 113.938 107.514 475.566
3290 0 76.0656 13.0808 995 111.29 107.943 474.855
3291 0 78.0934 11.7039 914 115.777 107.45 474.6
3292 0 80.0623 11.9657 958 114.372 107.831 474.606
3293 0 85.1519 13.5992 1158 110.846 107.858 472.181
3294 0 85.1 11.8566 1009 117.03 107.182 470.276
3295 0 91.1808 13.1607 1200 113.579 107.188 468.778
3296 0 92.1151 11.1491 1027 119.21 107.554 467.793
3297 0 98.0355 12.8831 1263 113.971 107.576 466.594
3298 0 102.096 12.547 1281 115.512 107.902 463.431
3299 0 106.071 12.8876 1367 112.877 108.725 465.554
3300 0 109.182 12.7218 1389 116.327 107.642 461.575
3301 0 111.175 13.1325 1460 119.166 108.352 459.238
3302 0 115.098 11.9376 1374 122.465 108.169 456.399
3303 1 64.0696 10.8632 696 117.29 107.514 483.095
3304 0 66.2339 12.8031 848 114.669 109.729 478.559
3305 0 67.098 11.9676 803 115.807 110.661 478.239
3306 0 69.1505 12.321 852 114.791 109.931 478.087
3307 0 73.1331 12.3337 902 113.905 109.85 478.798
3308 0 75.1578 12.4538 936 114.781 109.673 476.204
3309 0 77.0401 12.8245 988 116.969 107.652 476.385
3310 0 79.1165 13.2589 1049 115.235 107.895 474.221
3311 0 82.0409 13.0423 1070 117.979 107.871 472.905
3312 0 85.1827 12.5143 1066 117.481 107.876 471.428
3313 0 88.1648 11.7507 1036 121.264 108.191 471.004
3314 0 91.1329 12.3775 1128 118.66 108.33 469.059
3315 0 95.1797 13.1015 1247 120.305 108.418 469.295
3316 0 97.1451 11.7247 1139 124.454 108.14 468.047
3317 0 101.205 13.1911 1335 119.728 108.64 467.744
3318 0 104.189 11.8055 1230 123.964 108.837 463.935
3319 1 57.1183 12.0977 691 120.425 110.386 485.219
3320 0 59.0738 12.2728 725 120.994 110.49 484.839
3321 0 61.0747 12.1163 740 125.732 107.791 483.961
3322 0 61.0261 11.6999 714 120.174 108.721 486.978
3323 0 61.0563 11.2683 688 123.374 109.837 483.712
3324 0 65.1041 11.4432 745 121.345 109.934 483.264
3325 0 65.064 12.1112 788 122.137 109.959 480.708
3326 0 69.0997 12.6629 875 120.962 109.941 477.695
3327 0 71.1809 12.8967 918 119.775 110.101 476.795
3328 0 73.1049 12.2837 898 121.656 109.928 477.463
3329 0 74.1232 11.319 839 125.182 110.333 476.472
3330 0 75.0839 12.5326 941 124.627 108.158 476.014
3331 0 79.0733 10.6736 844 127.763 108.128 478.075
3332 0 82.0931 12.0229 987 126.463 108.043 474.327
3333 0 86.1233 13.2949 1145 122.923 108.112 473.488
3334 0 87.1017 12.2845 1070 127.205 108.243 473.611
3335 0 89.1024 11.7281 1045 129.53 107.563 473.752
3336 0 92.1477 12.7513 1175 128.29 107.732 472.288
3337 0 96.2709 13.4101 1291 127.174 108.012 470.029
3338 0 97.188 13.0675 1270 130.935 108.156 469.169
3339 0 99.1608 12.273 1217 136.022 107.661 466.841
3340 0 104.114 13.9847 1456 130.751 107.405 464.698
3341 0 108.293 13.4451 1456 131.994 107.035 464.335
3342 0 108.166 12.9061 1396 138.127 106.914 461.615
3343 0 113.181 13.5712 1536 136.387 107.382 458.195
3344 0 116.22 13.4401 1562 137.134 107.403 457.862
3345 0 121.123 14.3655 1740 133.894 107.191 458.294
3346 1 64.1868 11.747 754 137.631 109.216 478.735
3347 0 69.2566 13.2262 916 130.297 108.818 478.85
3348 0 71.0602 13.9459 991 128.653 107.008 481.026
3349 0 72.1157 13.1178 946 132.558 106.227 479.716
3350 0 75.0649 13.9213 1045 129.919 106.478 479.195
3351 0 75.1796 13.4345 1010 131.943 107.414 478.563
3352 0 81.1162 14.0909 1143 126.962 107.42 476.188
3353 0 82.0937 14.0571 1154 128.366 107.66 475.675
3354 0 84.1488 12.8701 1083 131.819 107.315 476.095
3355 0 87.1439 13.0474 1137 132.758 107.343 474.173
3356 0 89.2152 12.2849 1096 133.824 107.749 473.78
3357 0 93.0585 12.2826 1143 128.212 107.416 469.899
3358 0 96.0775 13.6973 1316 123.851 107.35 469.769
3359 0 99.1206 12.2074 1210 128.921 107.017 466.898
3360 0 102.146 13.0988 1338 127.18 107.269 465.182
3361 0 105.17 12.5702 1322 128.028 107.77 466.896
3362 0 106.141 12.6812 1346 129.173 107.507 462.698
3363 1 61.0586 12.1031 739 129.953 106.706 485.276
3364 0 64.0467 13.5838 870 128.385 106.925 484.632
3365 0 67.0602 12.5559 842 131.719 106.941 482.441
3366 0 70.0582 12.7037 890 134.303 106.331 482.973
3367 0 71.0894 13.265 943 134.218 106.162 481.051
3368 0 72.1042 12.1491 876 138.092 105.896 480.703
3369 0 74.1407 12.6247 936 137.718 106.261 478.087
3370 0 79.2105 13.8871 1100 132.355 106.268 476.881
3371 0 81.0794 13.1353 1065 134.846 106.342 477.034
3372 0 84.1483 12.169 1024 136.591 106.621 476.993
3373 0 85.1544 12.7768 1088 137.142 107.006 472.988
3374 0 87.1941 12.627 1101 138.017 107.65 473.007
3375 0 90.2118 13.6346 1230 135.585 106.824 470.158
3376 0 93.1929 13.3379 1243 135.355 107.512 468.634
3377 0 96.2625 12.7879 1231 135.955 107.538 469.108
3378 0 100.414 13.4343 1349 134.028 107.795 467.042
3379 0 101.165 13.6015 1376 134.424 108.1 465.274
3380 0 103.249 12.1647 1256 137.998 107.929 463.857
3381 1 57.0614 11.0583 631 125.8 107.556 487.544
3382 0 59.0793 11.6284 687 131.02 107.189 487.199
3383 0 61.0266 11.7654 718 125.538 107.706 487.714
3384 0 60.0837 12.4659 749 131.466 110.158 482.458
3385 0 61.1068 11.4881 702 134.396 109.679 482.467
3386 0 66.0468 13.0968 865 127.151 107.173 485.795
3387 0 68.0252 12.76 868 129.553 106.797 483.467
3388 0 68.0521 12.1965 830 132.21 106.918 480.623
3389 0 71.0928 12.6876 902 130.063 106.894 481.533
3390 0 74.0272 11.6038 859 133.249 106.766 480.113
3391 0 76.0363 12.7702 971 131.219 106.868 478.429
3392 0 78.0485 12.3513 964 132.116 106.644 479.119
3393 0 81.092 12.603 1022 132.684 106.88 476.684
3394 0 82.0774 12.2324 1004 132.457 106.923 475.488
3395 0 87.0702 13.2996 1158 129.004 106.983 470.562
3396 0 89.1296 12.824 1143 130.182 107.342 471.372
3397 0 93.0466 13.058 1215 129.831 107.102 469.519
3398 1 54.0595 11.5613 625 127.549 106.941 491.053
3399 0 52.1217 12.2598 639 128.146 107.424 488.829
3400 0 53.1045 11.5809 615 129.88 106.878 488.302
3401 0 58.082 13.7048 796 122.727 106.5 484.523
3402 0 60.1747 13.1284 790 123.238 106.394 484.958
3403 0 61.069 13.3456 815 123.887 106.664 483.445
3404 0 64.1393 12.5508 805 124.916 106.763 482.542
3405 0 65.1728 13.3645 871 123.129 106.952 483.775
3406 0 66.1686 13.5714 898 124.321 107.059 479.864
3407 0 69.1381 13.2054 913 124.543 106.938 479.6
3408 0 70.1293 13.5749 952 122.933 107.15 478.822
3409 0 72.1954 14.7516 1065 120.234 107.89 478.292
3410 0 75.1291 14.6282 1099 119.732 107.848 478.112
3411 0 75.1607 14.6087 1098 121.513 107.686 475.17
3412 0 79.1595 13.9465 1104 123.267 107.792 475.923
3413 0 82.2109 14.0857 1158 123.083 107.739 475.244
3414 0 82.0837 14.1197 1159 125.198 107.561 471.785
3415 0 85.1354 13.273 1130 127.361 107.916 472.017
3416 0 88.1289 15.205 1340 122.299 107.844 469.555
3417 0 91.0956 14.0402 1279 126.182 108.256 469.027
3418 0 94.2163 14.5516 1371 124.458 107.907 468.454
3419 0 97.07 13.3821 1299 127.888 108.555 465.275
3420 0 100.132 14.2013 1422 125.961 108.243 463.568
3421 1 52.13 12.066 629 131.905 107.921 486.553
3422 0 55.2788 13.7666 761 123.942 108.548 485.001
3423 0 58.0705 14.0519 816 124.377 107.934 483.137
3424 0 59.1293 13.6819 809 125.869 107.724 484.745
3425 0 61.1868 13.3362 816 125.762 108.172 484.817
3426 0 62.2007 14.2924 889 123.092 107.386 483.299
3427 0 62.1113 12.9767 806 127.103 107.862 481.948
3428 0 66.2792 12.9 855 126 107.926 481.142
3429 0 66.1761 13.6756 905 126.6 107.071 480.207
3430 0 69.1618 13.7359 950 125.449 107.656 477.958
3431 0 73.2859 13.8499 1015 123.26 107.928 477.815
3432 0 76.3425 14.5266 1109 120.862 107.89 476.492
3433 0 78.1567 13.4217 1049 123.895 108.359 477.398
3434 0 79.1565 12.0521 954 128.699 108.882 475.318
3435 0 80.2753 12.5194 1005 124.434 108.373 467.541
3436 0 83.1069 13.0194 1082 121.896 108.666 473.545
3437 0 86.1319 12.4112 1069 123.826 108.679 472.219
3438 0 90.1513 12.8894 1162 120.823 108.75 471.713
3439 0 92.1902 13.6999 1263 120.301 108.601 468.633
3440 0 95.1695 12.7877 1217 122.154 108.69 466.684
3441 1 53.1391 10.576 562 116.795 108.628 488.094
3442 0 53.1243 11.9719 636 116.53 107.818 486.451
3443 0 57.2256 13.0012 744 119.742 107.946 485.207
3444 0 60.2712 12.5433 756 118.356 107.47 484.849
3445 0 61.2424 11.7729 721 119.963 108.252 483.184
3446 0 64.1995 12.5235 804 117.076 108.372 481.399
3447 0 65.1623 11.7399 765 118.247 108.452 480.762
3448 0 70.3815 12.8159 902 113.646 108.043 480.063
3449 0 70.2767 11.1986 787 117.483 107.55 480.285
3450 0 74.3436 12.0387 895 114.525 107.307 476.127
3451 0 78.2713 12.3289 965 111.046 107.726 478.886
3452 0 78.2386 11.7717 921 114.446 107.904 474.488
3453 0 81.2369 11.6573 947 114.732 107.794 470.947
3454 0 86.2708 13.4344 1159 106.037 107.706 470.065
3455 0 88.2968 12.8091 1131 107.706 107.966 466.518
3456 0 89.3908 12.093 1081 109.143 107.335 469.296
3457 0 93.1343 12.1974 1136 107.327 108.013 466.718
3458 0 97.1549 10.9825 1067 112.899 108.216 466.557
3459 0 101.279 12.7371 1290 106.338 108.254 461.294
3460 1 54.0978 10.7398 581 108.341 109.009 487.305
3461 0 53.1264 11.482 610 107.47 108.533 488.034
3462 0 57.059 11.6897 667 107.892 108.352 485.295
3463 0 59.2215 11.972 709 107.268 107.203 481.316
3464 0 61.0904 12.4733 762 106.866 106.555 480.934
3465 0 64.0811 12.094 775 108 106.614 483.448
3466 0 66.1568 11.7751 779 109.089 106.696 481.354
3467 0 68.1298 12.5643 856 107.491 106.249 477.966
3468 0 69.1139 12.2117 844 108.845 105.585 477.771
3469 0 74.1354 13.9474 1034 104.521 105.895 477.538
3470 0 76.157 12.1591 926 108.473 106.14 475.249
3471 0 78.2396 13.1136 1026 107.835 106.257 473.827
3472 0 80.1613 12.9614 1039 109.756 108.311 473.391
3473 0 83.1855 13.4519 1119 108.97 107.744 471.819
3474 0 87.1263 14.06 1225 108.014 107.933 470.418
3475 0 87.1011 12.3649 1077 114.444 107.494 471.2
3476 0 91.1171 13.2467 1207 113.216 108.292 467.138
3477 0 93.1199 11.9953 1117 116.134 106.875 469.218
3478 0 94.1326 12.1318 1142 116.087 106.357 465.298
3479 0 100.177 12.7375 1276 114.433 106.54 463.774
3480 0 102.066 12.0413 1229 118.219 107.469 462.975
3481 0 105.213 12.3844 1303 117.354 106.861 460.876
3482 0 111.352 12.3752 1378 117.639 106.808 457.713
3483 1 60.122 11.3935 685 116.674 108.845 484.819
3484 0 62.2064 12.0727 751 115.672 108.382 483.43
3485 0 63.1199 12.8961 814 114.552 108.618 483.181
3486 0 64.1632 11.2214 720 119.103 108.465 481.665
3487 0 67.0878 12.819 860 116.005 107.869 478.915
3488 0 70.1022 12.3391 865 116.449 108.52 480.363
3489 0 72.1066 11.5385 832 118.97 108.589 477.296
3490 0 76.1054 14.7558 1123 110.995 108.24 476.146
3491 0 78.0982 12.6251 986 117.304 108.152 475.718
3492 0 80.1149 12.8815 1032 117.258 107.785 472.734
3493 0 83.1565 13.0597 1086 117.844 108.326 472.062
3494 0 87.1496 14.0448 1224 116.21 108.62 469.855
3495 0 89.0648 13.3274 1187 118.59 108.456 469.818
3496 0 92.0936 12.7696 1176 120.891 108.657 469.533
3497 0 93.1585 10.9383 1019 136.22 107.736 467.78
3498 0 99.1707 12.9978 1289 131.317 108.078 464.676
3499 0 103.167 12.9692 1338 130.818 107.078 463.614
3500 0 104.14 12.0702 1257 133.582 107.475 461.609
3501 0 108.204 12.4856 1351 132.927 106.893 461.462
3502 0 112.146 13.634 1529 126.646 107.027 458.281
3503 0 115.242 12.0356 1387 133.89 107.663 458.152
3504 0 119.139 13.3122 1586 130.076 107.702 453.87
3505 1 67.0559 11.0057 738 127.449 106.756 481.984
3506 0 69.1656 10.9447 757 129.712 109.147 477.845
3507 0 71.0741 12.2126 868 128.825 109.397 475.044
3508 0 75.1219 13.6977 1029 123.759 109.418 475.058
3509 0 75.2629 12.2371 921 132.089 109.078 476.116
3510 0 78.3718 12.53 982 133.772 108.498 474.104
3511 0 82.2736 13.4065 1103 130.463 108.248 473.999
3512 0 84.2508 13.8159 1164 129.481 107.73 473.32
3513 0 88.3192 13.5871 1200 131.178 107.941 472.661
3514 0 91.2541 13.698 1250 131.412 107.526 471.146
3515 0 92.295 13.6735 1262 134.655 107.232 468.237
3516 0 94.1208 12.9514 1219 134.237 106.698 466.257
3517 0 98.2066 13.9705 1372 138.896 107.367 465.179
3518 0 102.398 13.6721 1400 140.431 107.542 462.496
3519 0 105.169 13.2454 1393 136.041 107.202 463.762
3520 0 110.17 13.3249 1468 137.315 107.547 459.526
3521 1 60.11 10.5972 637 130.309 106.033 479.338
3522 0 58.1138 10.772 626 132.57 107.406 483.299
3523 0 64.2515 12.2643 788 127.881 108.835 480.221
3524 0 64.1094 11.9327 765 130.366 107.924 483.148
3525 0 68.215 12.6219 861 127.073 108.884 480.082
3526 0 70.2351 13.0704 918 126.021 109.042 478.405
3527 0 71.2163 12.9886 925 127.495 108.829 478.561
3528 0 74.2361 13.0799 971 128.457 108.796 474.361
3529 0 75.0268 13.3286 1000 128.532 108.403 477.715
3530 0 76.1149 13.5584 1032 130.266 106.81 473.764
3531 0 80.0956 12.9096 1034 132.524 107.152 474.368
3532 0 82.2173 13.1724 1083 132.097 107.079 474.085
3533 0 86.066 13.0133 1120 132.662 107.033 472.619
3534 0 86.0693 12.3157 1060 137.653 107.25 472.712
3535 0 89.0564 12.5763 1120 139.07 107.53 470.045
3536 0 92.0654 12.4477 1146 138.207 108.097 472.83
3537 0 94.0832 12.8078 1205 139.614 108.035 466.959
3538 0 100.061 13.9814 1399 133.042 107.31 465.04
3539 0 101.066 12.4177 1255 141.543 108.41 466.494
3540 0 104.077 13.3171 1386 138.817 108.072 464.918
3541 0 107.068 12.4313 1331 141.087 108.579 463.4
3542 0 112.065 14.2061 1592 134.615 107.818 460.128
3543 1 65.0299 12.748 829 133.443 108.393 484.229
3544 0 65.0573 11.1748 727 143.206 107.759 481.931
3545 0 67.0613 12.2127 819 134.211 108.591 480.167
3546 0 70.0612 12.1608 852 130.854 110.121 479.749
3547 0 71.1603 11.9589 851 133.435 110.083 476.318
3548 0 76.113 12.9807 988 128.822 109.823 475.664
3549 0 78.0991 12.4073 969 131.45 109.674 474.116
3550 0 79.1164 12.7281 1007 130.58 110.398 473.374
3551 0 82.1094 13.1654 1081 129.462 110.24 472.392
3552 0 84.2091 13.5971 1145 129.341 109.688 469.955
3553 0 87.1061 13.1219 1143 129.988 109.461 470.472
3554 0 91.1258 14.4745 1319 125.835 109.793 469.669
3555 0 93.1587 13.5897 1266 129.503 109.255 467.357
3556 0 96.0405 13.7859 1324 128.634 108.739 468.983
3557 0 99.0671 14.0915 1396 128.843 107.461 463.519
3558 0 101.147 13.594 1375 130.262 107.369 463.034
3559 0 103.1 13.3947 1381 130.757 108.734 463.589
3560 0 106.062 12.6812 1345 133.033 108.789 461.848
3561 0 109.209 12.4806 1363 133.081 108.933 457.488
3562 0 113.18 12.6524 1432 132.087 109.573 457.534
3563 0 115.181 13.8304 1593 129.464 109.235 458.219
3564 0 119.22 13.1941 1573 130.417 109.782 455.144
3565 0 122.187 12.972 1585 132.376 109.599 450.953
3566 0 126.273 13.3124 1681 132.307 109.357 449.477
3567 0 131.185 13.4237 1761 131.244 109.113 449.074
3568 0 135.317 13.1395 1778 133.969 109.096 447.251
3569 0 139.251 13.5726 1890 133.961 109.256 444.934
3570 0 144.264 14.2031 2049 134.657 109.344 442.029
3571 0 150.23 14.6176 2196 133.659 108.564 440.157
3572 1 87.2 10.9977 959 137.57 109.388 469.599
3573 0 92.1508 12.7508 1175 130.973 109.444 469.142
3574 0 95.1862 11.6929 1113 125.879 107.8 469.344
3575 0 97.4177 11.8664 1156 122.533 108.255 465.382
3576 0 99.1589 12.0009 1190 125.826 107.421 465.848
3577 0 103.19 12.4237 1282 123.105 108.461 465.399
3578 0 102.095 10.5 1072 129.317 107.791 462.839
3579 0 109.22 11.985 1309 124.722 107.872 459.892
3580 0 112.125 11.7904 1322 127.028 108.2 455.045
3581 0 117.31 12.7952 1501 124.362 107.924 456.166
3582 0 120.371 12.5113 1506 127.061 107.912 452.529
3583 0 123.249 11.5133 1419 131.411 108.456 449.128
3584 0 130.449 13.9058 1814 124.595 108.45 447.615
3585 0 132.36 13.1762 1744 127.771 107.939 440.252
3586 0 138.503 13.4294 1860 126.653 107.913 441.802
3587 0 142.417 13.5728 1933 127.096 107.872 440.206
3588 0 146.436 13.3847 1960 128.3 108.233 439.03
3589 0 150.343 12.6245 1898 131.31 108.173 435.858
3590 0 156.345 13.6109 2128 128.316 108.39 435.306
3591 0 166.285 16.6942 2776 118.177 108.607 423.714
3592 0 166.362 12.6591 2106 132.263 108.554 427.023
3593 0 172.315 13.4579 2319 131.099 108.25 425.821
3594 0 177.247 13.2302 2345 131.881 108.664 423.722
3595 0 180.28 12.1034 2182 136.081 107.988 419.522
3596 0 189.312 13.8924 2630 130.542 108.067 416.19
3597 0 194.324 13.0812 2542 133.151 108.092 413.25
3598 0 201.307 13.2087 2659 132.597 107.608 409.093
3599 0 207.253 13.4666 2791 131.773 108.106 407.721
3600 1 164.27 13.6057 2235 128.29 108.481 431.342
3601 0 169.241 12.9638 2194 130.632 108.235 428.5
3602 0 173.314 12.8957 2235 131.34 108.306 426.487
3603 0 179.408 12.5357 2249 131.659 108.301 425.105
3604 0 187.315 13.3038 2492 129.245 108.603 420.876
3605 0 192.269 13.3095 2559 130.717 108.717 413.566
3606 0 199.441 13.8287 2758 131.068 108.131 407.922
3607 0 204.451 13.2648 2712 132.346 108.734 409.233
3608 0 212.509 13.9618 2967 130.69 108.893 404.979
3609 0 220.427 14.05 3097 131.613 109.282 401.325
3610 1 57.1219 10.7489 614 107.155 109.321 476.326
3611 0 61.0311 11.7973 720 110.597 109.251 481.501
3612 0 62.0751 11.7116 727 117.128 109.81 482.421
3613 0 65.1581 10.5129 685 115.845 108.863 485.121
3614 0 67.2486 10.9593 737 116.856 109.024 481.137
3615 0 68.1564 11.4443 780 115.251 108.844 481.481
3616 0 70.2096 11.195 786 117.115 108.649 479.692
3617 0 72.2045 11.7444 848 116.866 109.022 477.251
3618 0 79.3981 15.4664 1228 105.114 109.117 474.475
3619 0 78.2443 14.5059 1135 110.974 108.834 474.495
3620 0 79.2905 12.4479 987 116.256 108.681 477.004
3621 0 81.3126 11.9908 975 117.803 108.944 475.529
3622 0 90.1508 16.3615 1475 101.725 109.674 464.763
3623 0 84.3171 12.3818 1044 118.036 109.067 472.221
3624 0 87.4447 14.1461 1237 115.766 109.133 473.088
3625 0 90.286 12.7041 1147 117.269 108.89 472.269
3626 0 92.2232 12.5673 1159 117.524 109.138 470.286
3627 0 94.1896 11.9334 1124 119.33 108.659 467.029
3628 0 99.1255 13.266 1315 111.535 109.061 443.984
3629 1 112.26 18.5195 2079 92.2362 110.001 427.447
3630 0 104.215 12.6758 1321 115.537 109.276 424.579
3631 0 105.146 11.0133 1158 119.729 109.002 434.578
3632 0 108.263 11.5644 1252 118.472 108.952 439.395
3633 0 112.215 12.0215 1349 116.241 109.142 444.999
3634 0 113.339 11.073 1255 119.167 108.682 449.064
3635 0 119.127 11.3241 1349 118.567 108.238 458.086
3636 1 67.3123 11.3501 764 108.726 110.025 479.263
3637 0 68.1396 13.2229 901 112.885 111.024 481.896
3638 0 71.2157 12.9185 920 112.309 109.982 482.484
3639 0 71.2508 12.5613 895 114.473 109.213 478.744
3640 0 73.2089 11.8838 870 117.871 109.648 477.877
3641 0 76.1885 11.9966 914 116.658 109.658 478.086
3642 0 79.0854 11.456 906 111.607 110.162 476.53
3643 0 80.1552 10.4797 840 114.275 110.276 477.383
3644 0 89.246 15.4293 1377 99.6609 109.808 469.658
3645 0 88.3032 13.6348 1204 107.522 109.586 472.159
3646 0 91.3328 11.792 1077 112.433 109.148 473.651
3647 0 92.1472 12.5668 1158 112.297 109.44 471.307
3648 0 96.273 13.067 1258 111.574 108.964 469.25
3649 0 96.2595 11.8949 1145 116.297 108.787 469.587
3650 0 101.533 13.6311 1384 112.714 108.488 465.464
3651 0 105.233 12.5532 1321 120.451 109.011 467.836
3652 0 108.36 13.1137 1421 119.575 108.467 462.288
3653 0 111.335 12.1974 1358 122.724 108.495 460.321
3654 0 114.28 13.1081 1498 122.06 108.75 459.655
3655 0 116.26 12.7387 1481 124.178 108.574 459.011
3656 0 120.503 13.2943 1602 124.476 108.631 456.351
3657 0 122.541 13.1385 1610 125.789 108.265 454.494
3658 0 127.605 12.5152 1597 127.142 108.662 456.412
3659 0 130.44 13.6921 1786 126.01 108.391 448.621
3660 0 133.581 13.0932 1749 128.033 108.396 446.532
3661 0 139.788 13.9283 1947 125.115 108.093 444.814
3662 0 141.516 12.3307 1745 131.221 107.932 440.654
3663 0 146.394 13.3271 1951 128.404 108.018 439.985
3664 0 151.509 13.5833 2058 128.329 107.631 437.263
3665 0 154.563 12.9009 1994 131.932 107.491 433.391
3666 0 159.577 13.2099 2108 131.586 107.849 431.984
3667 0 163.626 13.5309 2214 129.539 107.372 434.394
3668 0 168.652 13.602 2294 131.184 107.642 427.258
3669 0 174.798 14.0505 2456 130.387 107.168 424.507
3670 0 178.79 13.5354 2420 132.485 107.745 423.855
3671 0 184.657 13.2029 2438 134.455 107.575 419.459
3672 0 189.573 13.7203 2601 133.255 107.41 416.558
3673 0 197.714 15.0166 2969 128.404 107.773 413.121
3674 0 204.643 16.4091 3358 124.129 107.71 406.959
3675 0 206.76 14.7562 3051 129.975 107.599 405.661
3676 0 215.545 15.5327 3348 127.784 107.33 405.117
3677 0 218.51 14.3471 3135 131.59 107.351 401.045
3678 0 227.862 14.7019 3350 130.21 106.995 394.445
3679 0 233.624 14.1852 3314 132.727 106.418 389.38
3680 0 242.675 14.6905 3565 131.584 106.809 390.306
3681 1 52.2463 9.015 471 117.798 107.011 485.079
3682 0 55.1857 10.5824 584 117.229 107.349 489.716
3683 0 54.0749 10.1156 547 114.872 109.102 489.532
3684 0 56.1612 11.1643 627 113.142 109.732 487.92
3685 0 56.0771 10.4142 584 115.678 108.241 486.642
3686 0 59.1001 10.8291 640 112.978 108.059 488.95
3687 0 59.0917 8.35989 494 117.743 108.634 489.745
3688 0 62.1428 8.96323 557 117.944 107.923 487.373
3689 0 64.0571 10.6311 681 116.392 107.881 485.034
3690 0 70.1753 12.1268 851 113.176 108.845 479.006
3691 0 69.0829 11.7685 813 114.13 108.534 485.45
3692 0 70.2475 11.4737 806 117.136 107.577 481.465
3693 0 71.1586 10.7366 764 119.736 107.393 482.143
3694 0 72.1707 11.7499 848 117.926 107.917 482.255
3695 0 73.1181 11.6797 854 120.357 108.04 478.888
3696 0 74.0928 10.7298 795 121.049 107.454 481.127
3697 0 75.1671 12.0798 908 119.796 107.809 478.798
3698 0 77.1551 12.7017 980 117.884 107.278 478.332
3699 0 75.3649 10.9202 823 123.317 107.354 478.841
3700 0 77.3674 12.0593 933 121.741 106.804 476.748
3701 0 86.4432 14.2637 1233 112.443 105.666 467.225
3702 0 90.5313 17.1433 1552 102.28 105.816 462.692
3703 0 86.4626 16.2382 1404 108.066 106.199 466.165
3704 0 85.459 12.8132 1095 117.582 105.671 469.081
3705 0 86.4447 12.5051 1081 117.816 106.198 466.488
3706 0 88.475 14.0379 1242 112.477 106.03 468.121
3707 0 89.3808 12.7097 1136 108.319 105.705 468.279
3708 0 91.2107 12.0381 1098 108.912 106.614 470.748
3709 0 90.4788 10.356 937 112.734 106.489 470.113
3710 0 94.3646 12.6742 1196 106.375 105.672 468.651
3711 0 93.3179 12.1091 1130 107.862 106.141 468.382
3712 0 94.5085 12.4962 1181 107.588 106.54 466.736
3713 0 94.6146 13.1375 1243 106.51 105.941 466.661
3714 0 95.3328 11.8952 1134 108.2 105.987 469.217
3715 0 93.5033 12.7803 1195 106.705 105.926 468.229
3716 0 95.4483 13.5361 1292 104.697 106.428 465.58
3717 0 95.359 11.4619 1093 109.504 106.406 466.973
3718 0 97.75 12.931 1264 105.392 106.37 466.29
3719 0 96.4937 10.8712 1049 109.922 106.05 464.99
3720 0 94.4894 11.4193 1079 110.029 105.418 465.392
3721 0 97.5073 12.2452 1194 106.528 105.477 466.126
3722 0 94.475 10.86 1026 110.784 105.964 463.398
3723 0 98.6243 12.0863 1192 105.801 105.616 465.489
3724 0 97.5584 11.5316 1125 107.338 105.558 463.652
3725 0 98.4698 12.0951 1191 105.642 105.451 463.372
3726 0 97.434 11.0434 1076 108.954 105.244 462.398
3727 0 96.5026 10.5489 1018 109.195 105.48 463.893
3728 0 100.499 12.0897 1215 105.165 106.207 463.169
3729 0 99.4843 12.1527 1209 105.491 106.231 461.958
3730 0 98.332 11.8781 1168 107.074 105.726 459.148
3731 0 98.474 13.5873 1338 103.507 105.874 457.729
3732 0 100.524 12.3652 1243 105.356 105.971 460.718
3733 0 99.6044 12.4091 1236 105.265 106.209 458.73
3734 0 99.3499 11.9175 1184 105.436 105.691 462.173
3735 0 100.621 12.0948 1217 105.6 106.469 458.867
3736 0 99.4638 11.0593 1100 107.665 106.705 459.264
3737 0 102.428 12.194 1249 104.339 106.288 460.315
3738 0 100.489 12.2302 1229 105.088 106.645 455.893
3739 0 101.684 11.4078 1160 106.021 106.304 457.924
3740 0 100.339 11.0824 1112 106.666 106.768 456.796
3741 0 101.379 11.5507 1171 105.355 106.46 458.699
3742 0 102.364 12.0258 1231 104.045 106.081 457.154
3743 0 101.484 10.7997 1096 105.905 106.076 457.794
3744 0 103.352 11.872 1227 103.454 106.2 458.238
3745 0 100.715 9.92903 1000 108.149 106.496 455.487
3746 0 101.623 10.9227 1110 106.115 106.643 454.554
3747 0 102.454 10.6194 1088 106.21 107.216 452.151
3748 0 100.45 12.4241 1248 103.545 106.38 452.213
3749 0 100.506 11.8599 1192 104.357 107.092 453.988
3750 0 102.621 11.0698 1136 104.374 106.952 454.368
3751 0 102.407 11.8254 1211 103.697 106.716 453.29
3752 0 102.494 11.7178 1201 102.567 107.47 453.045
3753 0 103.6 11.1004 1150 103.047 107.511 452.134
3754 0 103.662 10.7754 1117 103.517 107.427 450.498
3755 0 102.486 11.5137 1180 102.478 107.294 449.529
3756 0 102.459 11.2435 1152 102.312 107.858 453.272
3757 0 103.479 11.442 1184 100.422 107.807 455.073
3758 0 100.512 9.97888 1003 103.791 108.29 454.84
3759 0 99.5485 10.2262 1018 104.909 108.22 451.582
3760 0 101.543 9.92682 1008 104.763 108.646 455.021
3761 0 97.6124 9.86555 963 106.653 108.273 449.677
3762 0 98.5684 11.9714 1180 101.157 108.442 453.713
3763 0 97.4699 9.13102 890 105.408 108.363 455.678
3764 0 99.5156 9.30508 926 105.059 109.013 454.578
3765 0 96.3997 7.29255 703 108.743 108.856 452.522
3766 0 97.4081 8.34632 813 106.353 108.517 455.01
3767 0 99.4187 8.93192 888 105.441 108.295 451.949
3768 0 99.4772 9.2584 921 103.932 109.098 453.85
3769 0 100.683 8.89919 896 105.379 108.586 456.662
3770 0 102.471 11.3203 1160 102.421 108.608 452.201
3771 0 98.506 10.5476 1039 103.022 108.258 455.233
3772 0 96.4954 9.68959 935 104.306 108.437 452.585
3773 0 97.4905 10.4626 1020 101.805 108.159 455.474
3774 0 95.4134 7.91294 755 106.634 108.895 452.983
3775 0 99.3306 7.9633 791 104.831 108.675 456.306
3776 0 98.4559 8.95832 882 104.583 109.22 453.006
3777 0 98.5355 8.63648 851 103.8 108.765 456.488
3778 0 96.4261 10.1736 981 102.046 108.51 452.234
3779 0 98.6263 9.48023 935 103.729 108.455 451.182
3780 0 100.533 10.703 1076 101.133 108.395 452.845
3781 0 101.603 10.8462 1102 99.5889 108.28 454.813
3782 0 102.41 10.8974 1116 101.311 108.096 457.424
3783 0 99.5797 9.42964 939 103.602 108.708 454.849
3784 1 151.992 9.41496 1431 119.241 108.835 425.575
3785 0 155.58 9.96271 1550 117.997 109.155 424.885
3786 0 160.643 12.506 2009 113.017 108.637 416.625
3787 0 158.563 8.7599 1389 123.114 108.492 414.111
3788 0 161.584 9.63583 1557 116.96 108.623 419.329
3789 0 161.6 8.81809 1425 120.239 108.922 411.334
3790 0 167.732 10.642 1785 114.903 108.733 416.596
3791 0 169.831 9.16792 1557 118.543 108.13 413.7
3792 0 173.662 10.9638 1904 116.17 108.775 409.893
3793 1 100.357 8.68894 872 102.882 109.513 454.774
3794 0 101.486 10.3758 1053 99.9744 108.577 457.974
3795 0 100.478 9.77333 982 101.522 108.654 448.662
3796 0 99.4337 9.56416 951 102.476 108.782 449.404
3797 0 100.461 12.0544 1211 96.8415 108.827 451.548
3798 0 101.499 10.2464 1040 100.045 108.847 453.072
3799 0 99.4804 10.3035 1025 100.025 108.876 451.508
3800 1 148.706 11.2773 1677 106.974 108.817 431.958
3801 0 148.544 9.02092 1340 113.721 109.072 426.545
3802 0 149.536 8.90758 1332 113.976 109.468 423.614
3803 0 153.607 9.59591 1474 113.047 108.958 422.088
3804 0 151.617 8.78528 1332 114.836 109.343 419.101
3805 1 101.347 9.35398 948 99.7447 109.443 451.795
3806 0 101.467 9.3035 944 98.4184 108.529 453.587
3807 0 105.478 9.45218 997 99.3842 108.724 452.14
3808 0 101.505 8.73849 887 100.862 108.796 453.558
3809 0 101.602 9.45851 961 100.284 109.011 449.645
3810 0 105.594 10.834 1144 96.9449 108.59 451.714
3811 0 102.525 10.5926 1086 98.3066 108.529 456.054
3812 0 102.327 10.7694 1102 98.2169 108.622 452.338
3813 0 103.544 8.98169 930 100.33 108.492 453.682
3814 0 103.382 9.39238 971 99.9598 108.096 453.024
3815 0 104.567 12.3366 1290 94.6202 108.877 453.318
3816 0 103.566 11.4033 1181 94.6012 108.187 452.424
3817 0 99.3796 9.58949 953 97.0462 107.722 449.392
3818 0 104.437 11.4902 1200 95.0017 108.007 456.628
