time division length width area intensity CMx CMy
0 0 34.2214 11.9516 409 153.386 43.8655 474.513
1 0 35.1815 12.6487 445 151.701 44.1124 473.533
2 0 36.3021 12.396 450 152.2 44.7822 473.32
3 0 36.2094 12.9524 469 152.849 44.6716 472.785
4 0 35.148 12.3194 433 157.148 45.3256 473.058
5 0 38.2989 12.8985 494 153.063 45.2591 471.864
6 0 36.1112 12.4338 449 157.575 44.6548 472.497
7 0 40.2088 13.2807 534 150.15 44.3989 472.086
8 0 41.1252 13.1306 540 151.181 44.5167 471.863
9 0 40.1778 12.9176 519 154.405 44.605 472.104
10 0 43.1873 13.754 594 150.086 44.3367 470.551
11 0 43.1379 12.4021 535 155.361 44.2336 472.305
12 0 43.1747 13.457 581 152.262 44.148 470.969
13 0 46.3203 13.4282 622 150.981 43.4646 470.31
14 0 44.2616 12.5617 556 156.955 44.1151 471.203
15 0 49.2297 13.6909 674 147.871 43.5534 470.76
16 0 48.1458 12.3168 593 156.575 44.1012 470.099
17 0 48.242 12.6653 611 156.116 43.5205 469.29
18 0 51.1411 13.9614 714 148.746 43.9006 469.843
19 0 52.2361 13.439 702 150.547 43.2749 470.571
20 0 54.183 14.4326 782 147.474 43.5141 468.113
21 0 56.1544 14.0684 790 147.387 43.3772 469.258
22 0 58.098 13.7354 798 149.585 44.0263 468.217
23 0 58.1239 13.8325 804 150.345 42.9963 466.943
24 0 62.2143 13.5499 843 148.77 42.2254 466.526
25 0 61.228 13.7519 842 150.129 42.4703 466.254
26 0 65.262 13.8825 906 146.766 42.8786 465.927
27 0 67.1242 13.7655 924 147.494 42.7457 465.188
28 0 69.1591 14.2136 983 147.011 42.4649 462.123
29 0 71.1498 13.4364 956 148.435 43.1328 462.722
30 0 74.1038 13.3326 988 149.629 42.4858 461.579
31 0 78.1772 13.3543 1044 150.544 42.0833 459.987
32 1 41.0314 11.7227 481 141.532 42.2994 476.769
33 0 43.0837 12.7194 548 141.626 42.312 476.438
34 0 43.1379 12.8657 555 139.995 42.4324 475.184
35 0 44.1027 12.811 565 140.442 42.8053 475.159
36 0 48.1121 12.8866 620 136.182 42.7661 474.794
37 0 46.0974 14.0789 649 137.471 42.0693 473.715
38 0 47.0722 13.6386 642 138.787 41.7757 473.14
39 0 51.0389 13.2056 674 136.372 40.9896 473.058
40 0 51.0588 13.788 704 136.67 41.9858 472.511
41 0 54.1179 14.2651 772 134.008 41.7034 470.856
42 0 56.0752 14.5697 817 132.365 41.3892 469.894
43 0 59.0835 15.2327 900 127.972 41.81 470.149
44 0 60.0273 14.2102 853 132.532 41.1981 469.308
45 0 59.0838 12.2538 724 138.793 41.8135 468.588
46 0 61.0865 13.7346 839 133.918 41.9476 467.217
47 0 65.0882 13.6737 890 132.199 41.591 466.261
48 0 66.1359 13.8352 915 133.804 41.9661 464.719
49 0 69.1339 14.0452 971 134.816 41.5108 463.388
50 0 72.2682 15.1519 1095 132.763 41.0603 462.278
51 0 75.0799 14.1582 1063 136.864 41.2531 460.97
52 0 75.1911 14.0841 1059 139.144 41.5449 459.703
53 0 82.1925 14.101 1159 136.496 41.0673 459.098
54 0 83.1901 14.7253 1225 134.879 41.2571 458.108
55 0 85.2528 14.24 1214 137.49 41.7817 454.872
56 0 91.0867 14.6125 1331 134.089 42.2607 454.362
57 0 93.1422 14.8375 1382 133.832 41.9768 452.361
58 1 47.0478 11.2014 527 131.214 41.7837 475.106
59 0 49.1081 12.9918 638 126.071 41.7085 474.95
60 0 51.2593 14.0072 718 135.05 41.6448 476.57
61 0 51.234 13.6823 701 142.208 41.8117 474.471
62 0 55.2564 14.9847 828 138.324 41.2814 473.332
63 0 56.1468 13.3935 752 141.302 41.3005 472.824
64 0 60.2467 15.4199 929 132.707 41.5393 472.258
65 0 61.2441 14.8422 909 134.727 41.418 471.481
66 0 63.2259 13.95 882 137.98 41.0283 469.984
67 0 64.2242 14.4961 931 137.995 40.9205 467.771
68 0 66.221 14.5271 962 137.985 41.29 468.752
69 0 70.3055 14.8637 1045 134.411 40.9196 467.646
70 0 74.2241 14.9278 1108 135.562 40.9657 464.514
71 0 75.1607 15.0877 1134 137.038 40.7416 463.275
72 0 78.2041 14.1297 1105 139.099 40.6869 462.995
73 0 80.2415 14.7056 1180 138.681 41.3797 460.519
74 0 83.2667 14.7838 1231 138.109 41.2307 459.241
75 0 85.1639 15.476 1318 136.963 40.9712 455.936
76 0 88.2391 14.3021 1262 130.378 41.0372 456.988
77 0 93.1511 14.5892 1359 129.135 40.9558 453.949
78 0 96.2565 14.4925 1395 128.624 41.152 454.768
79 1 51.1623 13.3106 681 126.673 41.7151 477.04
80 0 53.2256 12.8885 686 126.934 42.0539 476.203
81 0 54.1161 12.5286 678 129.161 41.8569 474.709
82 0 56.212 13.4313 755 123.593 41.2053 474.274
83 0 58.2002 13.1271 764 124.052 40.7317 472.967
84 0 61.2817 12.9239 792 123.494 41.3447 472.312
85 0 64.396 13.6033 876 120.289 41.6005 470.507
86 0 66.2015 12.5224 829 124.1 41.1773 469.882
87 0 68.2351 13.7026 935 120.182 41.1305 469.602
88 0 70.2478 13.2389 930 122.581 40.3129 466.424
89 0 72.1858 13.4098 968 121.809 40.4576 465.779
90 0 76.1789 12.3 937 122.552 40.3287 466.017
91 0 78.2226 13.7173 1073 118.85 40.5005 463.635
92 0 80.2214 12.7522 1023 121.574 40.2102 462.821
93 0 85.3319 14.3909 1228 115.7 40.2101 462.435
94 0 89.2733 13.5315 1208 118.035 40.9503 460.373
95 0 91.387 13.9954 1279 118.245 40.5395 459.277
96 0 93.305 12.8825 1202 122.978 40.5258 456.737
97 1 51.255 11.5891 594 119.987 41.0219 477.414
98 0 51.1576 12.9209 661 119.533 40.2905 476.433
99 0 55.4323 13.9089 771 123.001 40.6213 474.977
100 0 56.1175 12.955 727 118.561 40.9161 475.491
101 0 56.223 12.6639 712 120.677 40.302 473.794
102 0 59.3149 12.7624 757 119.272 40.8217 474.139
103 0 61.1326 12.2521 749 120.991 40.2617 473.251
104 0 63.2468 13.8189 874 120.379 39.9657 471.252
105 0 65.1258 13.6966 892 121.881 39.8845 469.772
106 0 67.1828 13.4558 904 121.879 40.0431 468.753
107 0 68.1781 12.218 833 124.785 40.4106 469.83
108 0 70.2347 14.0671 988 120.281 40.4403 465.624
109 0 75.248 13.2362 996 120.171 40.3343 465.719
110 0 77.1858 13.2796 1025 119.454 39.8059 465.787
111 0 80.3164 13.6585 1097 119.557 39.701 460.606
112 0 84.2488 13.923 1173 118.246 40.0222 461.778
113 0 84.3069 12.1817 1027 124.126 39.4479 458.157
114 0 89.271 12.8933 1151 119.135 39.5873 458.732
115 1 48.4294 12.4924 605 116.574 40.6545 479.223
116 0 50.1187 11.1136 557 114.982 40.2496 476.883
117 0 52.2366 12.3285 644 117.908 40 477.489
118 0 51.1125 11.0541 565 117.782 38.1345 474.947
119 0 52.1233 12.2594 639 116.499 38.0438 473.089
120 0 52.3038 10.2287 535 119.346 38.9103 471.652
121 0 56.2924 12.0976 681 116.126 38.5184 468.664
122 0 58.2773 11.8743 692 115.487 38.7081 470.091
123 0 61.1664 12.327 754 115.393 38.7732 469.151
124 0 62.1459 11.6017 721 118.442 38.9445 468.368
125 0 62.1723 11.9185 741 120.073 39.3509 464.911
126 0 66.1289 12.642 836 117.963 38.0682 466.718
127 0 69.1392 12.2651 848 117.735 38.5 464.713
128 0 71.1634 12.394 882 118.59 38.9694 463.74
129 0 74.155 12.3795 918 120.063 38.6155 462.211
130 0 75.1058 13.0749 982 118.525 39.0937 462.288
131 0 78.1303 11.916 931 121.641 38.7615 460.333
132 0 79.0356 12.0958 956 124.251 38.9414 458.197
133 0 83.1274 13.2688 1103 121.194 39.2276 456.488
134 0 86.0876 12.859 1107 121.633 39.0912 456.875
135 0 91.1153 13.8396 1261 120.286 39.0365 454.048
136 0 92.1128 13.3749 1232 122.506 38.9083 453.331
137 0 97.2195 13.5055 1313 123.072 39.2795 451.677
138 0 97.1856 12.4813 1213 127.756 39.3594 448.763
139 0 102.143 13.0503 1333 126.313 38.4336 447.598
140 1 49.1914 9.81879 483 122.505 39.8219 472.178
141 0 51.1192 11.1504 570 119.037 40.0053 472.535
142 0 54.1517 10.8584 588 115.196 38.9235 473.043
143 0 55.0518 11.3529 625 116.17 38.8496 471.312
144 0 56.0564 11.3279 635 115.077 39.1276 471.194
145 0 60.0828 12.2498 736 113.122 39.6196 470.346
146 0 59.1478 11.8855 703 115.952 39.3784 468.498
147 0 62.0384 10.9932 682 118.422 39.2449 467.887
148 0 66.1729 13.4194 888 111.194 39.7173 466.655
149 0 66.0978 12.3907 819 116.28 39.2405 464.954
150 0 68.06 12.3714 842 116.069 39.924 463.867
151 0 73.2003 12.2404 896 115.483 39.577 462.845
152 0 74.066 12.5429 929 115.781 39.4887 463.376
153 0 75.1025 12.3964 931 118.244 39.3008 460.997
154 0 79.1194 13.1447 1040 119.706 39.0327 459.74
155 0 81.0952 12.4422 1009 122.046 38.89 457.763
156 0 83.1337 13.2437 1101 119.63 38.8056 456.314
157 0 87.0801 13.1029 1141 119.152 39.2428 455.85
158 0 87.1308 12.3378 1075 123.108 39.0177 452.845
159 0 90.1514 12.6787 1143 121.656 38.6413 452.213
160 0 94.145 12.5126 1178 121.774 39.0246 451.26
161 0 98.1068 13.8828 1362 117.205 39.2695 450.28
162 0 101.226 13.2673 1343 119.165 39.105 448.11
163 0 104.246 12.576 1311 121.037 38.9962 445.374
164 0 107.28 13.5161 1450 116.403 39.4345 445.046
165 1 56.1788 10.876 611 109.845 40.3372 472.398
166 0 58.1707 11.6725 679 112.586 40.5022 470.436
167 0 60.1531 12.2188 735 110.816 40.781 471.125
168 0 61.2465 12.6538 775 110.092 40.6942 470.365
169 0 63.2302 11.8456 749 111.28 40.1856 468
170 0 66.1537 12.7582 844 108.604 40.0415 468.284
171 0 69.1617 13.5624 938 105.924 39.7026 468.125
172 0 71.2114 13.3125 948 107.04 40.231 464.176
173 0 71.2168 12.5813 896 109.265 40.4353 465.191
174 0 74.2012 12.547 931 109.202 40.145 463.936
175 0 77.2203 12.1859 941 109.592 40.2699 462.837
176 0 80.1511 12.6386 1013 108.502 39.8746 460.739
177 0 83.2362 13.3235 1109 107.037 39.716 459.455
178 0 87.2338 13.1142 1144 107.102 40.0122 458.276
179 0 88.177 13.8925 1225 107.092 40.5053 454.291
180 0 89.1231 12.2303 1090 110.886 39.8963 455.686
181 0 95.2557 13.532 1289 106.076 39.858 454.17
182 1 50.1876 12.6725 636 106.752 40.1148 475.698
183 0 51.2227 11.9674 613 109.679 39.8842 474.096
184 0 52.2579 12.7254 665 110.035 39.4466 473.783
185 0 53.3445 11.5101 614 112.99 39.8013 473.964
186 0 55.3104 12.4389 688 112.176 39.5087 471.185
187 0 58.3572 12.1836 711 113.077 39.5963 469.992
188 0 60.2934 12.887 777 110.519 40.0772 469.901
189 0 62.3702 13.5 842 109.954 39.7791 470.148
190 0 61.2776 11.7009 717 116.774 39.3738 468.338
191 0 66.3717 12.0835 802 115.123 39.6596 467.842
192 0 68.3028 13.9672 954 113.182 39.0241 465.808
193 0 70.3101 13.9952 984 113.885 39.2297 465.377
194 0 68.2667 12.2607 837 120.956 39.2127 466.135
195 0 71.2432 13.4329 957 118.667 39.6792 464.006
196 0 74.3399 13.9898 1040 117.713 39.5663 462.585
197 0 78.3149 15.0801 1181 114.854 39.8586 460.212
198 0 80.2252 13.7613 1104 118.135 39.9221 461.713
199 0 82.2069 13.7458 1130 112.291 40.9283 461.807
200 0 84.1782 12.4854 1051 115.13 40.0143 461.344
201 0 86.1122 11.7986 1016 116.936 39.6565 458.942
202 0 88.1605 12.3411 1088 116.664 39.3153 455.943
203 1 46.0624 12.1574 560 114.759 40.9946 477.046
204 0 48.1053 12.6389 608 115.37 40.5493 475.263
205 0 46.2004 11.6449 538 110.68 40.7138 476.405
206 0 46.1057 11.3869 525 113.109 40.9867 476.326
207 0 50.1184 11.7721 590 111.386 40.7559 474.825
208 0 49.2102 10.6482 524 113.414 41 475.557
209 0 52.1671 11.8082 616 109.388 41.5471 472.964
210 0 54.1741 11.5738 627 110.086 41.177 471.612
211 0 56.1701 12.0349 676 108.638 41.0015 471.146
212 0 59.1812 12.8419 760 106.789 40.2711 469.986
213 0 60.0841 11.5838 696 108.534 40.7256 471.047
214 0 61.0976 12.5046 764 107.37 40.8757 469.734
215 0 63.115 11.0592 698 109.976 40.3625 469.496
216 0 65.2043 12.4685 813 108.173 41.3235 465.892
217 0 69.0919 13.3301 921 105.497 40.6862 465.287
218 0 71.1305 12.4279 884 106.963 40.8009 464.999
219 0 72.2296 11.9757 865 109.034 40.1329 464.988
220 0 76.1402 13.2125 1006 105.954 40.0567 463.706
221 0 79.2183 12.2951 974 108.013 40.2248 463.34
222 0 80.2381 12.1638 976 110.255 40.6352 459.145
223 0 84.2429 12.4165 1046 111.295 40.2763 457.23
224 0 86.1272 12.8647 1108 109.344 40.4874 458.08
225 0 90.2122 11.8498 1069 112.213 40.2357 457.095
226 1 46.1637 10.9826 507 107.757 41.7022 476.769
227 0 48.1931 11.7029 564 106.234 41.3918 477.559
228 0 49.1075 11.1185 546 108.982 40.5952 475.842
229 0 50.2496 13.4329 675 104.33 40.1852 474.458
230 0 52.1517 13.4991 704 104.516 39.9986 473.989
231 0 52.22 11.2026 585 110.354 40.1521 473.215
232 0 55.178 12.1425 670 107.766 39.6627 473.016
233 0 58.1719 12.5146 728 106.584 40.4093 472.005
234 0 57.2351 12.5622 719 108.41 40.4367 470.369
235 0 61.2559 12.4233 761 108.736 40.523 469.141
236 0 62.2783 11.7537 732 110.186 40.5642 470.21
237 0 64.1787 12.6678 813 109.942 40.8721 467.351
238 0 69.2708 12.7182 881 115.25 40.4336 466.478
239 0 70.2287 11.9182 837 117.556 40.2652 465.281
240 0 73.2373 11.3194 829 118.906 39.9409 465.046
241 0 75.3238 11.9219 898 118.922 40.2929 461.666
242 0 77.2879 12.2788 949 116.747 40.3066 462.277
243 0 82.3959 11.6268 958 117.752 40.309 463.049
244 0 83.198 12.9811 1080 115.598 40.1444 459.743
245 1 45.1902 11.4184 516 111.275 42.0349 478.862
246 0 45.0473 12.2316 551 110.973 42.2214 476.955
247 0 46.0658 11.5487 532 110.84 42.1278 478.252
248 0 48.2752 11.828 571 110.317 42.1944 476.716
249 0 50.2087 11.512 578 111.457 42.2785 476.173
250 0 50.1185 11.6524 584 113.305 42.5479 475.048
251 0 51.0627 12.4553 636 111.695 42.2327 475.542
252 0 54.1027 12.0142 650 112.769 42.1908 472.597
253 0 55.0984 10.7444 592 116.044 40.9139 473.623
254 0 58.1566 12.8962 750 111.377 40.848 472.759
255 0 57.0781 11.6857 667 116.267 41.2639 472.184
256 0 62.1206 12.9426 804 112.947 39.9316 469.481
257 0 63.1483 11.7343 741 115.699 40.3225 469.143
258 0 65.096 12.2435 797 114.748 40.3952 466.901
259 0 67.1545 12.6276 848 114.259 40.7653 466.915
260 0 71.2046 13.6929 975 112.039 40.8185 465.13
261 0 74.1302 11.9789 888 116.352 41.5507 464.395
262 0 74.1073 13.0082 964 116.487 41.4554 462.582
263 0 79.1462 12.6096 998 117.251 41.1022 461.005
264 0 81.113 13.7832 1118 115.244 41.2066 458.458
265 0 84.1177 13.1958 1110 116.777 40.9279 457.099
266 0 87.1892 12.2378 1067 117.267 41.254 458.853
267 0 91.2018 14.0567 1282 113.236 41.7051 456.649
268 0 93.2773 12.897 1203 117.406 41.1205 454.18
269 1 52.1532 11.217 585 111.232 42.212 477.009
270 0 52.1812 11.1343 581 112.737 41.3649 475.525
271 0 54.2523 11.5018 624 118.912 41.2516 473.25
272 0 55.173 11.8536 654 106.95 41.581 475.274
273 0 57.1569 13.4542 769 104.131 41.2276 472.143
274 0 59.1873 11.5058 681 109.852 40.953 471.711
275 0 63.1585 12.999 821 104.309 41.2826 471.642
276 0 62.1408 12.9223 803 107.675 41.1955 469.752
277 0 66.2979 12.3382 818 106.554 41.1491 471.18
278 0 65.1404 12.2044 795 108.896 40.9937 469.447
279 0 69.1717 13.0978 906 107.252 41.6203 467.724
280 0 71.2021 12.7524 908 107.999 41.4031 465.73
281 0 73.1907 12.7612 934 108.106 40.9818 464.44
282 0 75.2276 11.977 901 109.703 41.0388 463.35
283 0 76.2602 12.536 956 109.54 41.4393 461.781
284 0 79.2146 12.0306 953 111.544 41.0231 460.11
285 0 83.1837 12.2139 1016 110.33 41.2736 459.661
286 0 87.254 12.6298 1102 109.01 41.7377 458.848
287 0 89.1539 12.0242 1072 111.042 41.8172 455.376
288 1 45.1834 9.87088 446 112.034 43.0448 477.845
289 0 48.039 11.3241 544 108.031 42.8364 476.833
290 0 50.1603 11.7224 588 106.231 42.7262 477.061
291 0 51.2587 12.2321 627 105.6 41.8549 475.252
292 0 53.1057 12.1268 644 105.02 41.9022 474.284
293 0 55.0991 12.2144 673 104.933 41.7563 473.832
294 0 56.1024 12.1207 680 105.613 41.3868 472.515
295 0 57.1107 10.751 614 109.389 41.0212 472.469
296 0 59.0632 12.512 739 106.191 41.0974 469.135
297 0 60.2105 11.3435 683 109.996 41.202 470.584
298 0 59.0578 10.5829 625 112.978 41.552 469.936
299 0 64.1228 12.8504 824 106.18 41.1808 469.388
300 0 66.1997 12.3868 820 107.821 40.7793 466.82
301 0 69.174 13.054 903 104.833 40.4784 467.722
302 0 71.1214 13.1887 938 104.872 41.5458 465.816
303 0 75.1714 12.7176 956 105.658 41.0575 464.345
304 0 73.1957 11.681 855 110.502 41.1591 461.924
305 0 79.1079 12.1606 962 106.849 41.369 462.683
306 0 80.183 12.9703 1040 106.199 40.2981 459.256
307 0 83.1784 13.5252 1125 104.425 41.0027 458.228
308 1 41.0654 11.8591 487 106.62 40.5544 479.15
309 0 42.2356 12.0988 511 107.816 39.6223 478.599
310 0 44.1729 11.8172 522 110.013 41.1494 477.408
311 0 42.2538 11.3836 481 113.385 41.4116 476.644
312 0 47.2098 12.0102 567 110.185 41.6561 477.233
313 0 48.2455 13.7422 663 106.023 41.9487 474.842
314 0 49.1249 12.1731 598 110.766 41.2074 476.338
315 0 51.1977 12.5982 645 110.707 40.3225 473.833
316 0 52.0434 13.3735 696 109.815 41.2759 473.431
317 0 52.1447 12.2735 640 113.444 40.6391 474.35
318 0 56.1186 13.0794 734 111.03 40.8365 474.252
319 0 54.1914 12.6035 683 114.93 41.1098 472.873
320 0 56.1113 13.0633 733 114.042 41.0532 472.386
321 0 58.1347 13.7095 797 113.015 41.1506 471.508
322 0 61.1506 13.6548 835 113.646 40.7964 470.467
323 0 61.1083 12.5515 767 117.698 41.0587 470.293
324 0 63.2406 12.318 779 120.012 40.8267 469.565
325 0 67.104 13.6504 916 116.187 40.952 468.199
326 0 69.1531 13.3472 923 114.585 41.7551 467.153
327 0 73.193 13.7308 1005 114.414 40.993 465.486
328 0 74.2188 14.5785 1082 113.044 40.6294 464.455
329 0 76.1823 12.7982 975 119.342 41.1333 463.331
330 0 78.269 13.7858 1079 117.491 41.3753 461.856
331 0 82.2198 14.4734 1190 115.83 41.4647 461.455
332 0 87.1558 14.4224 1257 117.333 40.2259 458.729
333 0 88.2366 13.0558 1152 122.371 39.9896 458.328
334 1 48.0991 11.2684 542 121.559 42.0793 478.295
335 0 48.1399 12.0067 578 117.742 41.5779 478.863
336 0 48.2227 11.6957 564 129.86 41.4238 475.837
337 0 49.2588 11.5715 570 123.446 41.0421 476.923
338 0 49.2078 10.3439 509 126.212 41.057 476.226
339 0 51.1882 11.1354 570 124.582 41.793 474.439
340 0 56.1641 13.0867 735 117.62 41.532 474.401
341 0 58.2528 13.3384 777 117.586 41.3089 473.218
342 0 59.2241 13.1703 780 117.049 41.2872 473.64
343 0 60.1295 12.8722 774 118.894 40.5904 471.857
344 0 62.2283 12.7113 791 119.407 41.1302 471.484
345 0 64.2467 13.1524 845 118.748 40.574 470.047
346 0 66.356 11.8753 788 121.269 40.5355 469.334
347 0 67.2008 12.4403 836 120.932 41.1507 467.191
348 0 71.2279 12.3968 883 122.118 40.761 466.118
349 0 73.2974 12.6471 927 121.831 40.5825 464.982
350 0 75.1991 12.9257 972 121.188 41.0535 465.396
351 0 78.3088 13.5872 1064 119.702 40.5028 461.685
352 0 80.1884 12.2836 985 122.331 41.264 462.402
353 0 83.2514 12.4202 1034 122.756 40.7592 459.132
354 0 85.2297 12.8476 1095 121.186 41.0548 459.947
355 0 87.2729 12.4094 1083 123.977 40.8486 455.802
356 0 92.1918 12.5608 1158 125.702 40.6071 455.482
357 1 50.0505 11.3685 569 122.903 42.1775 475.768
358 0 51.077 11.0422 564 124.34 41.8865 474.28
359 0 52.0083 9.95995 518 125.847 42.2143 473.091
360 0 53.015 11.8646 629 121.499 42.3879 474.393
361 0 52.2464 9.87627 516 118.62 39.938 475.223
362 0 54.1063 11.2002 606 115.375 39.4373 473.32
363 0 56.0948 11.6945 656 114.861 39.3415 472.3
364 0 59.1203 12.3984 733 111.9 39.3574 472.989
365 0 61.1511 11.6923 715 114.278 39.2364 471.688
366 0 64.0878 11.3282 726 115.627 39.5992 469.117
367 0 66.1537 11.6698 772 114.475 39.1658 469.016
368 0 67.1475 11.1992 752 115.445 39.1729 468.438
369 0 70.1248 12.164 853 113.903 39.1559 465.668
370 0 72.0332 11.4947 828 115.709 39.4577 466.552
371 0 76.1369 11.8865 905 114.15 39.3934 465.586
372 0 79.1506 11.0675 876 115.897 39.29 463.823
373 0 82.1972 11.4846 944 114.739 39.7468 460.98
374 0 85.1709 13.3144 1134 112.035 39.7813 458.342
375 0 88.0848 12.6696 1116 112.735 40.2446 458.298
376 0 92.1308 12.6885 1169 111.322 40.0898 456.699
377 1 49.082 11.3484 557 110.325 39.6409 477.472
378 0 51.1103 12.4828 638 106.934 39.9263 476.806
379 0 52.1239 10.9163 569 110.645 39.652 475.62
380 0 53.1373 12.6088 670 107.021 39.3597 476.385
381 0 56.2253 12.4321 699 106.378 39.1445 475.237
382 0 56.1381 11.3292 636 109.322 39.0487 473.519
383 0 58.1605 11.7262 682 107.485 38.934 473.647
384 0 60.3185 12.6164 761 106.097 38.8844 471.95
385 0 61.1736 12.7342 779 106.855 39.8113 470.308
386 0 64.1523 11.9559 767 107.654 39.6128 471.249
387 0 66.1658 12.2873 813 106.646 39.4416 471.219
388 0 67.1981 12.9022 867 107.421 39.5975 467.835
389 0 70.175 12.2978 863 108.864 39.0684 466.452
390 0 71.1895 13.0216 927 107.915 38.6753 466.789
391 0 74.1303 12.1273 899 110.196 39.2303 465.632
392 0 77.167 11.974 924 111.346 39.0909 463.771
393 0 80.1479 12.6267 1012 110.897 39.1275 462.63
394 0 82.2096 12.9912 1068 111.797 39.7107 460.316
395 0 85.2007 13.2628 1130 111.593 39.5053 458.948
396 0 89.2103 13.2496 1182 112.559 40.0948 456.122
397 0 91.1119 11.6011 1057 117.845 39.754 457.169
398 1 45.0797 10.67 481 117.272 39.0624 478.794
399 0 49.088 11.897 584 113.476 40.0616 477.601
400 0 49.0831 12.3668 607 115.389 39.3443 475.998
401 0 51.1435 12.3183 630 111.832 40.1365 475.311
402 0 52.1091 11.9941 625 115.394 39.7264 477.027
403 0 53.0945 11.6961 621 115.552 39.3994 476.683
404 0 54.0833 11.4268 618 117.587 38.9579 476.78
405 0 57.1001 11.2609 643 116.824 39.2131 476.771
406 0 57.0728 11.6167 663 118.855 39.6486 473.492
407 0 60.1317 11.8906 715 117.53 38.3175 472.957
408 0 62.0837 11.5328 716 118.388 39.074 471.814
409 0 64.1242 12.6317 810 115.88 39.0716 470.457
410 0 66.1164 12.3872 819 115.416 39.6862 470.444
411 0 69.1049 12.8066 885 114.591 39.2 469.94
412 0 70.1557 12.5435 880 116.567 39.1727 469.276
413 0 74.1398 13.0429 967 116.804 39.7663 466.746
414 0 76.1584 12.9467 986 117.493 39.3813 466.09
415 0 79.1682 12.5682 995 118.4 39.6975 465.088
416 0 80.2184 12.7652 1024 119.682 39.915 463.966
417 0 84.1339 12.599 1060 120.138 40.3858 461.81
418 0 86.1343 13.5834 1170 119.247 40.3846 460.456
419 0 87.1134 11.9385 1040 123.369 39.6923 460.418
420 0 91.1871 13.0391 1189 121.61 39.7981 457.463
421 0 93.1252 13.6053 1267 121.124 39.3252 456.65
422 0 96.1316 12.9718 1247 123.751 39.3224 454.621
423 0 98.2656 13.8604 1362 121.723 39.7783 452.098
424 0 101.115 12.7676 1291 124.868 39.6855 450.631
425 0 104.186 13.0728 1362 122.515 39.1542 448.098
426 0 108.229 12.1687 1317 123.19 39.6879 447.336
427 0 113.171 12.6977 1437 122.253 39.2324 443.989
428 1 63.3036 11.6581 738 123.304 39.5894 472.027
429 0 64.12 11.884 762 124.799 40.0171 469.35
430 0 67.0693 13.6128 913 120.072 39.4348 467.131
431 0 70.0808 13.6557 957 118.322 39.396 466.494
432 0 71.0635 13.0728 929 120.79 39.0474 465.125
433 0 74.0599 13.2055 978 119.454 39.1309 464.362
434 0 76.1144 13.3221 1014 119.231 39.8935 465.033
435 0 78.1169 11.8668 927 124.881 39.9061 462.107
436 0 80.0871 12.5863 1008 123.108 39.7778 461.172
437 0 81.0322 12.3284 999 125.888 39.5666 459.969
438 0 87.0676 13.0473 1136 123.526 39.978 458.268
439 0 87.1125 12.1682 1060 128.231 39.3972 456.507
440 0 92.1113 12.9952 1197 125.045 40.152 455.358
441 0 94.1131 12.6444 1190 121.403 39.9933 451.866
442 0 97.2547 11.3825 1107 121.367 39.878 450.496
443 0 97.2827 11.1428 1084 124.543 39.8054 445.898
444 1 52.3683 10.4834 549 116.302 40.3734 470.592
445 0 53.2907 10.3958 554 117.913 40.3159 470.273
446 0 54.1088 9.94294 538 113.833 39.9721 473.297
447 0 57.1518 10.9533 626 111.666 39.5639 471.292
448 0 58.1127 9.51599 553 114.383 40.208 472.047
449 0 58.1546 10.025 583 114.726 40.4923 470.439
450 0 62.0915 9.72758 604 115.679 40.7848 469.826
451 0 64.1408 11.085 711 112.129 40.6934 468.996
452 0 66.1219 11.8871 786 112.107 40.6069 465.562
453 0 69.0679 11.438 790 113.725 41.3316 465.785
454 0 67.1439 10.3211 693 116.965 41.3651 464.642
455 0 72.1172 11.3981 822 113.102 41.3175 465.86
456 0 74.3546 11.5931 862 114.58 41.5719 462.669
457 0 74.1608 12.392 919 114.479 41.2024 460.013
458 0 78.1455 11.261 880 115.227 40.8295 463.511
459 0 81.1638 10.8423 880 118.073 40.5761 459.226
460 0 86.1461 12.1073 1043 113.687 40.5062 457.579
461 0 87.1532 11.7953 1028 119.464 41.071 454.173
462 0 92.2226 12.6 1162 117.439 40.9604 452.259
463 0 95.1182 12.3215 1172 118.287 40.6783 451.356
464 0 97.2319 11.3337 1102 120.152 40.9338 449.947
465 0 103.161 11.9619 1234 119.532 41.5673 446.699
466 1 52.0548 9.06737 472 112.65 41.2119 474.983
467 0 54.128 9.73618 527 113.641 40.9032 472.875
468 0 57.3756 11.5903 665 114.992 41.1474 473.047
469 0 59.2056 11.2996 669 115.605 40.568 472.019
470 0 59.2047 11.9754 709 109.315 41.8166 470.972
471 0 62.2447 12.4187 773 107.05 41.6624 470.325
472 0 64.1917 12.1667 781 107.369 41.1997 468.206
473 0 66.248 12.1211 803 106.899 41.8531 467.676
474 0 67.1902 11.7428 789 107.452 42.1128 465.961
475 0 72.2141 12.5876 909 106.161 42.6381 465.113
476 0 75.2837 14.2395 1072 101.769 42.458 464.667
477 0 74.2112 11.0226 818 111.189 41.8117 464.743
478 0 78.1399 12.6312 987 107.429 42.1591 462.471
479 0 83.312 12.6752 1056 106.117 41.6809 462.319
480 0 85.3348 11.4373 976 111.022 40.874 458.777
481 0 86.3412 12.1263 1047 113.968 40.5062 458.406
482 0 89.2924 11.7591 1050 114.481 40.6229 455.31
483 0 93.2348 10.8007 1007 116.384 40.8292 454.552
484 1 48.2547 10.7762 520 106.775 41.9269 476.79
485 0 50.2066 9.83935 494 109.273 40.8927 476.47
486 0 51.4519 10.5341 542 107.721 41.0221 473.579
487 0 53.156 12.3975 659 102.788 42.5797 473.393
488 0 55.2062 10.9408 604 105.303 42.005 474.255
489 0 57.1682 12.4545 712 101.76 42.1671 472.869
490 0 58.2957 10.7041 624 106.489 42.4984 471.224
491 0 61.233 12.4769 764 101.691 42.1584 471.416
492 0 63.1628 11.7316 741 103.734 41.83 470.294
493 0 65.1807 12.0588 786 103.377 41.6399 469.191
494 0 67.1794 10.8515 729 105.523 42.1824 467.34
495 0 66.1833 11.1962 741 107.625 42.417 466.231
496 0 72.1688 11.3345 818 105.274 41.5892 465.642
497 0 73.1519 12.3032 900 104.066 41.6933 464.899
498 0 77.1554 13.3108 1027 102.077 42.0029 463.772
499 0 79.2272 12.1928 966 104.589 41.8696 462.27
500 0 81.1733 12.4671 1012 107.251 41.5889 462.52
501 0 84.2218 12.942 1090 109.235 41.1505 459.755
502 0 86.1917 13.0059 1121 111.084 41.2275 458.863
503 0 90.1824 12.2862 1108 113.714 41.4982 456.588
504 0 92.3394 12.2158 1128 114.918 41.5027 455.275
505 0 94.2268 12.1621 1146 116.072 41.2373 453.779
506 0 97.2865 12.5917 1225 116.807 41.2155 451.467
507 0 102.292 12.5425 1283 116.299 41.3515 451.323
508 0 104.289 11.727 1223 120.918 41.5143 449.383
509 1 55.1284 11.0107 607 113.806 42.2998 474.384
510 0 55.0788 10.8572 598 115.284 41.99 473.774
511 0 59.1216 11.5863 685 113.098 40.6467 473.648
512 0 60.1555 11.7861 709 119.007 38.3907 472.094
513 0 64.2444 12.8416 825 120.491 38.7818 472.27
514 0 65.2661 12.2422 799 123.81 39.5019 470.987
515 0 67.199 12.4704 838 124.624 39.3747 468.593
516 0 69.1816 12.0986 837 125.379 38.7802 467.141
517 0 72.3171 12.4314 899 123.162 39.2158 467.293
518 0 72.1707 11.4312 825 126.725 39.5879 465.765
519 0 75.1901 12.2622 922 125.32 39.7093 464.644
520 0 76.1106 11.2468 856 128.141 39.6507 465.43
521 0 79.274 12.6145 1000 125.713 39.073 462.981
522 0 83.1589 13.396 1114 123.263 39.1625 461.732
523 0 82.1516 12.1726 1000 121.169 39.945 463.627
524 0 85.2318 12.6596 1079 121.689 39.152 461.486
525 0 89.1359 13.1821 1175 120.578 39.0315 460.094
526 0 92.1461 13.0771 1205 124.668 39.0531 458.269
527 0 93.218 12.401 1156 127.496 38.6436 455.574
528 0 98.1347 13.6955 1344 122.4 39.1682 455.596
529 0 100.151 11.9619 1198 128.523 38.8472 451.327
530 0 103.186 12.4144 1281 126.86 39.5379 454.172
531 0 106.318 12.6037 1340 127.963 39.2194 450.874
532 0 107.426 12.2783 1319 129.499 39.2123 450.102
533 0 113.352 13.0478 1479 127.444 39.4814 448.557
534 0 115.286 12.2738 1415 130.128 39.2919 448.042
535 0 120.271 12.7545 1534 129.291 39.5756 444.961
536 0 122.264 13.25 1620 129.85 40.0772 441.452
537 0 128.266 13.0276 1671 130.095 39.2238 441.44
538 0 130.293 13.0245 1697 131.48 39.5227 437.721
539 0 133.355 12.388 1652 133.752 39.2119 438.376
540 0 137.376 13.3138 1829 131.731 39.3461 436.502
541 0 141.282 13.0944 1850 133.802 39.0676 431.35
542 0 146.257 13.1412 1922 133.035 39.2888 430.97
543 0 150.224 12.8475 1930 133.231 39.3627 429.676
544 0 155.296 12.7112 1974 134.99 39.1763 425.176
545 0 160.377 12.6764 2033 135.739 41.0935 422.622
546 0 166.426 13.6036 2264 132.297 40.5331 420.729
547 0 170.257 13.139 2237 134.583 40.464 416.893
548 0 176.2 12.0375 2121 136.148 40.3894 418.718
549 0 179.411 12.4853 2240 136.323 40.7527 414.198
550 0 185.505 12.3986 2300 137.09 40.4165 409.978
551 0 192.382 13.4991 2597 134.829 40.4559 405.27
552 0 199.544 13.3004 2654 134.422 40.4657 404.96
553 0 202.353 12.7994 2590 137.108 39.9239 402.647
554 0 210.303 14.3507 3018 133.442 39.6355 396.821
555 0 215.617 13.3663 2882 135.848 39.5718 395.823
556 0 222.455 13.0903 2912 137.941 40.3218 390.211
557 0 230.496 14.0784 3245 133.972 40.2333 384.694
558 0 241.601 14.4163 3483 132.712 40.5401 382.891
559 0 250.729 15.3552 3850 130.19 40.1421 375.663
560 0 259.608 14.6798 3811 132.817 41.2296 372.044
561 1 195.439 12.3926 2422 134.324 41.0227 411.03
562 0 202.356 12.9969 2630 131.621 40.138 399.216
563 0 209.455 13.1675 2758 132.776 40.4068 391.892
564 1 84.2594 10.9068 919 122.351 40.4842 452.811
565 0 90.4145 11.6574 1054 118.473 40.2391 452.7
566 0 92.117 12.3104 1134 118.37 41.5309 453.515
567 0 93.1396 11.8424 1103 121.019 41.2158 452.089
568 0 98.1976 11.3139 1111 121.8 40.9541 451.725
569 0 100.23 10.9747 1100 123.279 40.5909 450.321
570 0 104.217 12.4644 1299 123.713 41.6205 450.433
571 0 109.19 12.1257 1324 121.955 41.5287 448.296
572 0 113.239 12.6723 1435 119.942 41.1547 444.42
573 0 117.256 12.9631 1520 119.016 41.6447 442.707
574 0 119.131 12.1211 1444 121.784 41.9529 439.557
575 0 124.226 13.9262 1730 118.699 42.4208 439.699
576 0 127.276 13.561 1726 120.031 42.0238 438.232
577 1 69.2017 10.8668 752 119.191 42.0186 467.164
578 0 71.2432 11.3134 806 118.102 42.2891 468.364
579 0 74.0939 10.6217 787 121.182 42.9428 464.912
580 0 76.2834 12.8337 979 126.107 40.9469 463.617
581 0 77.2236 11.9912 926 129.295 40.96 462.891
582 0 82.2057 13.4176 1103 123.271 42.2321 458.359
583 0 84.092 12.5696 1057 126.458 42.3179 460.102
584 0 87.3351 12.8814 1125 125.022 42.2889 456.376
585 0 89.223 13.6176 1215 124.761 41.5778 454.961
586 0 93.1093 13.6291 1269 124.192 42.4003 456.911
587 0 94.2221 12.4493 1173 129.726 41.4672 454.657
588 0 96.1696 11.6253 1118 123.462 39.7352 453.81
589 0 98.1019 12.0997 1187 109.775 40.6302 449.517
590 0 99.137 11.7817 1168 113.678 40.0582 451.166
591 0 103.299 11.2585 1163 117.382 40.9269 448.471
592 0 105.225 10.5868 1114 119.876 40.9865 445.417
593 0 110.215 12.9928 1432 114.806 41.102 443.139
594 0 114.199 11.3573 1297 119.231 41.01 441.711
595 0 117.336 11.0964 1302 120.726 40.3633 438.18
596 1 62.0767 10.1165 628 106.877 41.7166 471.709
597 0 63.1216 9.18861 580 110.426 42.0966 468.148
598 0 68.1927 12.0101 819 109.675 40.9316 468.998
599 0 71.0628 12.4256 883 106.64 39.6297 468.806
600 0 71.0189 10.0537 714 114.412 42.5602 464.239
601 0 74.1226 10.3747 769 114.217 42.6073 463.367
602 0 76.1337 10.9807 836 112.236 42.0813 463.88
603 0 77.1942 10.5448 814 114.107 41.7776 461.611
604 0 81.1683 11.4946 933 113.054 42.1383 459.821
605 0 84.2479 10.9676 924 114.427 42.4729 458.319
606 0 85.2709 11.0237 940 116.317 41.2543 457.702
607 0 90.207 11.7064 1056 113.616 40.9621 456.973
608 0 94.2728 11.6152 1095 114.627 40.726 455.879
609 0 94.1162 10.9439 1030 117.972 41.5621 453.037
610 0 99.1561 11.4365 1134 116.854 41.2046 450.711
611 0 101.2 12.4901 1264 115.873 40.8948 448.452
612 1 49.1285 9.03752 444 108.255 41.8446 474.768
613 0 53.1851 10.3976 553 106.154 40.915 474.83
614 0 53.2759 10.5676 563 108.554 41.8721 473.321
615 0 53.1433 9.87895 525 108.215 41.6381 474.918
616 0 57.1973 11.539 660 105.395 41.9939 473.136
617 0 59.3093 11.0438 655 106.14 41.6122 474.053
618 0 60.3278 10.1446 612 109.475 41.5964 472.348
619 0 61.2624 11.0835 679 108.713 41.3623 469.52
620 0 63.231 10.8807 688 108.068 41.6541 471.515
621 0 65.0914 11.7834 767 106.876 41.9061 468.666
622 0 67.2206 10.9788 738 112.337 40.0528 469.678
623 0 70.1335 11.7205 822 110.167 40.0304 469.964
624 0 70.1373 11.2921 792 112.943 39.8409 468.26
625 0 74.1867 10.851 805 114.227 39.5329 467.506
626 0 76.1056 11.3264 862 113.646 39.4768 466.119
627 0 81.1734 12.9353 1050 109.161 40.001 465.137
628 0 83.1679 12.9377 1076 110.202 39.4229 461.757
629 0 84.073 12.1918 1025 113.634 39.2351 461.625
630 0 89.2153 12.722 1135 111.206 39.5648 462.335
631 0 89.2025 13.049 1164 113.096 39.543 458.994
632 0 94.2035 13.1418 1238 113.359 40.0969 457.599
633 0 97.1757 12.6986 1234 115.349 40.2285 457.151
634 0 100.257 13.2858 1332 115.294 39.9865 455.664
635 1 53.1095 12.5401 666 112.634 39.9625 478.15
636 0 55.1983 13.1526 726 112.966 40.6061 476.649
637 0 56.3434 13.045 735 112.959 40.9116 475.501
638 0 59.1773 14.0087 829 112.309 40.5971 475.584
639 0 60.2314 14.1288 851 112.355 41.564 475.913
640 0 61.2083 13.1845 807 116.159 41.7398 475.043
641 0 63.1678 13.4087 847 115.525 41.046 473.999
642 0 67.3568 13.6438 919 113.404 40.0413 471.965
643 0 68.3336 13.7121 937 113.228 40.3607 471.715
644 0 70.2872 14.1989 998 112.682 40.8407 470.873
645 0 71.367 13.4516 960 114.577 40.0906 470.195
646 0 75.2154 15.0767 1134 112.322 39.4295 466.785
647 0 77.1593 14.3599 1108 114.683 39.1616 464.521
648 0 80.1189 13.143 1053 117.057 39.5584 465.098
649 0 84.1013 14.7917 1244 112.135 39.033 463.72
650 0 84.0993 12.9965 1093 117.844 39.4959 460.083
651 0 90.0964 13.5633 1222 114.285 39.4975 458.886
652 1 51.0477 13.9673 713 113.328 38.4292 479.076
653 0 49.0382 12.1334 595 119.844 39.5563 478.299
654 0 52.0676 13.6553 711 112.425 39.4487 479.087
655 0 54.0798 13.1657 712 113.507 39.5028 477.354
656 0 54.1291 13.9666 756 112.536 39.7963 476.328
657 0 58.1066 13.2343 769 113.036 38.9987 475.148
658 0 59.0481 14.1749 837 111.713 38.8196 474.511
659 0 61.094 12.6035 770 114.712 38.9377 473.901
660 0 62.0857 14.0451 872 111.802 38.9358 472.975
661 0 64.2241 12.9546 832 114.1 39.2981 472.904
662 0 65.1101 13.3159 867 113.322 38.4902 472.037
663 0 66.1894 12.6002 834 114.745 39.1103 469.504
664 0 70.1822 14.7901 1038 107.359 39.8218 470.041
665 0 69.0957 12.8952 891 112.822 39.3457 468.033
666 0 72.1323 14.0436 1013 108.416 39.5449 467.392
667 0 74.1295 12.3028 912 112.02 39.5197 466.103
668 0 78.1409 13.578 1061 108.76 39.7719 463.306
669 0 79.1943 12.8923 1021 109.705 39.4976 465.437
670 0 83.0847 12.4331 1033 110.361 39.4347 463.947
671 0 85.1866 12.5137 1066 110.343 39.6332 462.888
672 0 88.1452 13.4437 1185 107.004 39.6127 461.352
673 0 90.1774 15.2145 1372 104.181 39.5408 457.729
674 0 92.1669 13.3128 1227 108.836 39.0595 460.181
675 0 96.2458 13.2473 1275 108.928 39.9741 458.019
676 0 99.2218 12.7795 1268 110.006 40.0284 455.192
677 0 101.137 13.1109 1326 109.168 39.8786 454.086
678 0 103.361 13.0707 1351 109.637 40.0836 452.83
679 0 106.142 12.3797 1314 108.113 40.2968 452.698
680 0 110.089 12.8804 1418 107.054 39.5395 449.52
681 0 113.317 11.9223 1351 105.279 39.4737 445.314
682 0 119.398 11.4073 1362 111.278 39.8003 443.632
683 0 123.63 11.769 1455 110.39 40.3038 440.935
684 1 66.2698 11.2872 748 104.064 40.4345 470.381
685 0 66.1578 11.5179 762 103.879 40.21 471.364
686 0 69.3195 12.4784 865 106.814 39.8578 471.461
687 0 72.1329 12.0749 871 106.745 40.4948 468.933
688 0 74.3188 12.4867 928 106.36 40.3653 467.859
689 0 77.3896 12.3014 952 106.456 40.5116 468.18
690 0 79.3399 11.4949 912 109.497 41.0757 466.484
691 0 83.2982 12.0171 1001 109.748 40.6853 461.048
692 0 87.492 13.7841 1206 106.804 40.5672 463.938
693 0 90.2293 13.3881 1208 108.671 41.1258 461.821
694 0 90.3656 12.0732 1091 115.561 40.8075 458.332
695 0 96.1577 13.4675 1295 112.764 41.0255 456.751
696 0 98.2545 11.918 1171 116.437 40.3501 459.026
697 0 101.373 14.3726 1457 112.455 40.4708 454.189
698 1 55.1788 12.6679 699 110.177 40.8298 477.083
699 0 55.3246 13.6648 756 113.016 39.668 474.659
700 0 57.1794 12.3296 705 112.346 39.8908 475.789
701 0 59.1496 11.8006 698 114.265 40.3438 474.933
702 0 60.1988 12.4255 748 114.18 39.8249 473.727
703 0 63.1058 13.3902 845 111.612 39.5101 471.884
704 0 64.1427 13.0178 835 114.134 39.2383 470.023
705 0 68.1453 12.5027 852 114.235 40.0575 470.587
706 0 72.1667 13.6351 984 111.895 39.06 467.977
707 0 72.1819 11.9143 860 116.229 39.8326 467.423
708 0 76.2828 12.6634 966 115.33 39.9948 467.498
709 0 79.132 11.9673 947 114.848 39.982 468.01
710 0 82.1873 12.7514 1048 114.212 39.6479 464.571
711 0 86.2035 13.1549 1134 113.2 39.9559 462.236
712 1 45.0408 11.6783 526 111.323 39.9449 482.451
713 0 43.112 12.6879 547 111.042 39.7002 483.163
714 0 46.1319 13.6131 628 109.624 40.7771 480.508
715 0 48.1955 13.715 661 111.505 40.1891 476.708
716 0 49.1634 13.7297 675 107.658 39.7689 478.157
717 0 53.2245 13.0955 697 114.76 40.5968 479.108
718 0 53.1088 12.7098 675 116.664 40.2933 478.376
719 0 53.1767 12.9568 689 117.089 40.2075 476.546
720 0 57.2224 13.8932 795 112.468 39.9811 474.98
721 0 59.1066 13.3149 787 112.512 40.4079 477.168
722 0 58.1091 13.5435 787 108.893 40.6823 473.798
723 0 62.1264 12.5229 778 109.85 41.3188 472.81
724 0 63.0821 12.0954 763 111.48 40.3958 472.987
725 0 65.1986 11.672 761 112.604 39.8778 471.98
726 0 67.1779 12.8167 861 111.36 39.3322 470.41
727 0 70.1039 12.8666 902 109.802 39.9523 468.55
728 0 71.1067 13.2055 939 110.568 40.0202 467.534
729 0 75.1656 13.2507 996 109.436 40.2781 467.45
730 0 76.1983 12.625 962 111.536 40.5624 466.514
731 0 80.1133 14.105 1130 106.822 40.4115 467.013
732 0 82.1129 14.0904 1157 109.202 40.5946 463.341
733 0 84.1015 12.9724 1091 111.712 40.7919 465.111
734 0 88.1479 13.1937 1163 111.83 40.7653 460.499
735 0 90.2169 12.8136 1156 113.462 39.7656 459.931
736 1 47.2715 14.7235 696 107.917 39.9009 478.289
737 0 48.2034 12.551 605 113.489 40.114 478.263
738 0 50.2075 12.5678 631 114.162 39.9667 477.029
739 0 51.1382 12.8084 655 114.869 39.826 478.108
740 0 53.1193 14.1192 750 110.669 39.0347 479.42
741 0 54.2624 14.7247 799 109.852 39.4556 475.188
742 0 56.1963 13.9511 784 112.889 39.4732 475.876
743 0 59.0702 14.3727 849 112.649 39.298 475.249
744 0 61.1815 14.0238 858 115.959 39.7168 474.383
745 0 61.0724 12.739 778 122.073 39.7995 473.631
746 0 65.136 13.3106 867 121.125 39.2122 472.713
747 0 68.2319 14.1723 967 120.372 39.2037 471.925
748 0 68.3385 13.3307 911 126.638 39.2733 469.775
749 0 72.2055 15.1927 1097 121.253 38.9681 469.524
750 0 74.1723 14.8034 1098 124.97 39.3953 466.956
751 0 78.1862 14.5678 1139 125.931 39.3213 465.062
752 0 79.2289 14.313 1134 129.467 39.3933 463.887
753 0 81.3109 15.6436 1272 125.932 39.4575 464.529
754 0 84.2498 14.2196 1198 131.875 39.9666 462.076
755 0 86.5537 15.0427 1302 131.177 39.4493 459.886
756 0 88.5137 14.0656 1245 136.035 40.5494 457.802
757 0 93.5114 14.672 1372 133.682 39.8732 456.719
758 0 96.4567 14.7527 1423 135.162 39.6817 453.963
759 0 99.3665 14.6629 1457 135.874 39.6321 452.902
760 0 103.752 15.2287 1580 134.484 38.7766 451.802
761 0 106.474 14.9332 1590 135.078 39.2748 452.244
762 0 109.376 14.9667 1637 136.978 39.3293 449.294
763 1 60.1066 12.5111 752 132.56 39.0811 476.104
764 0 61.1799 13.4685 824 133.36 39.1032 474.455
765 0 65.1476 14.7665 962 130.049 38.9782 470.409
766 0 67.1712 14.0983 947 133.661 39.1098 468.086
767 0 69.1843 14.1217 977 134.328 38.9662 467.058
768 0 71.242 14.2893 1018 134.764 39.0737 467.616
769 0 75.2723 14.0689 1059 134.758 39.1615 466.653
770 0 78.3651 14.4324 1131 134.422 39.3466 464.139
771 0 81.22 14.1221 1147 136.527 39.4281 462.664
772 0 83.2414 14.4039 1199 138.39 39.7932 459.353
773 0 86.2004 13.8978 1198 138.033 40.197 461.497
774 0 89.1942 14.9561 1334 136.561 39.8163 458.442
775 0 91.2049 13.815 1260 141.363 38.9754 458.142
776 0 96.2483 15.5431 1496 135.947 38.7467 455.155
777 0 96.2398 14.4847 1394 140.852 39.5007 452.923
778 0 100.183 13.8546 1388 143.444 38.9359 451.331
779 0 105.167 14.6814 1544 142.628 38.8517 448.258
780 1 57.1187 12.3777 707 141.873 39.1768 475.56
781 0 57.1206 12.6749 724 134.304 39.9254 473.76
782 0 60.1698 12.6808 763 133.946 39.6946 472.339
783 0 60.0984 11.7141 704 133.349 39.7116 472.949
784 0 65.1 12.212 795 131.338 39.6101 471.147
785 0 65.2663 12.4107 810 132.805 39.8728 470.363
786 0 67.3282 12.4614 839 132.011 39.7819 470.806
787 0 70.2521 13.1669 925 130.724 38.9708 469.054
788 0 71.1407 12.6088 897 134.465 39.146 467.339
789 0 76.231 12.4359 948 134.146 39.3207 467.685
790 0 78.0891 12.998 1015 132.208 39.2936 465.938
791 0 80.1105 13.7685 1103 134.179 39.2856 463.818
792 0 82.0843 12.4019 1018 138.826 38.3713 462.705
793 0 84.1302 13.5029 1136 136.137 38.5176 462.594
794 0 89.1204 14.9797 1335 131.563 38.8052 461.358
795 0 90.0942 14.5736 1313 135.541 39.5126 460.454
796 0 92.2941 14.1721 1308 136.442 39.0306 458.989
797 0 96.2443 14.91 1435 135.289 38.915 455.68
798 0 99.1889 14.0036 1389 138.269 38.8862 453.552
799 0 100.159 13.828 1385 138.611 38.9487 451.876
800 0 104.212 13.3286 1389 138.471 38.7963 451.4
801 0 109.246 14.7923 1616 133.693 38.4146 445.486
802 0 111.24 13.6911 1523 137.81 38.3578 442.703
803 0 116.264 14.2864 1661 134.663 38.5322 441.579
804 0 119.166 13.9217 1659 135.735 39.0874 438.753
805 1 67.116 12.4262 834 129.385 39.5372 470.429
806 0 68.1395 13.0614 890 129.472 38.8697 471.106
807 0 73.1863 12.4887 914 127.705 38.465 471.426
808 0 75.1399 13.0956 984 128.49 38.1839 466.572
809 0 78.1565 14.5222 1135 125.022 38.8405 465.744
810 0 82.1048 13.0443 1071 133.85 38.817 464.699
811 0 84.1499 13.4284 1130 135.504 39.4044 461.941
812 0 85.064 14.1188 1201 133.048 39.0233 460.374
813 0 88.1228 13.0954 1154 130.571 38.2244 461.048
814 0 91.1315 13.2446 1207 131.096 38.8434 457.357
815 0 93.0464 12.886 1199 133.023 38.8924 458.376
816 0 94.0919 12.3921 1166 135.25 39.4691 455.151
817 0 102.148 13.7545 1405 130.203 39.0633 453.059
818 0 104.279 12.62 1316 133.164 38.9096 450.672
819 0 106.149 12.586 1336 134.448 39.5531 450.274
820 0 113.185 13.0848 1481 132.21 39.3552 447.841
821 0 115.373 12.6632 1461 132.56 38.7995 446.379
822 1 62.1409 11.7958 733 128.349 39.191 473.188
823 0 65.043 12.7454 829 123.544 39.3088 473.661
824 0 66.115 11.2077 741 123.613 38.2051 472.907
825 0 69.2193 10.9651 759 119.755 39.1186 469.036
826 0 70.1377 12.2188 857 116.625 38.2322 468.97
827 0 73.1831 11.8743 869 122.125 38.1484 469.483
828 0 75.0818 12.0935 908 121.586 38.739 464.715
829 0 79.1321 11.8662 939 118.983 38.918 466.174
830 0 81.0922 12.6523 1026 119.045 38.6316 463.245
831 0 83.1506 10.511 874 120.15 38.3616 463.468
832 0 87.215 11.764 1026 117.292 38.3743 462.707
833 0 90.1458 11.0931 1000 117.761 39.135 456.547
834 0 92.144 10.8309 998 118.527 38.7054 455.392
835 0 97.3197 11.5701 1126 121.474 39.2105 450.83
836 1 52.1137 9.55603 498 112.12 39.6847 476.797
837 0 55.0549 12.6964 699 119.262 40.5722 477.159
838 0 58.1149 12.0967 703 120.572 40.7155 475.979
839 0 57.1513 12.2132 698 121.567 41.1734 474.97
840 0 60.1453 14.2655 858 115.79 40.9755 474.097
841 0 61.0395 12.8769 786 119.959 40.6323 472.684
842 0 64.1138 13.8504 888 115.866 40.5203 472.461
843 0 66.1361 13.6839 905 117.547 40.4552 470.903
844 0 66.1236 13.1874 872 119.93 40.1456 470.445
845 0 70.1496 13.9131 976 118.092 39.9969 467.818
846 0 72.0803 13.5266 975 119.145 39.2195 467.052
847 0 77.1318 13.4964 1041 118.46 39.4899 468.123
848 0 75.0678 13.1614 988 123.066 39.0374 464.89
849 0 79.1729 14.02 1110 120.785 39.2027 463.702
850 0 83.3665 14.1904 1183 119.844 39.8986 465.232
851 0 85.2856 14.2814 1218 122.03 39.4737 463.186
852 0 87.272 14.3689 1254 123.851 39.6148 460.532
853 0 89.2715 14.6967 1312 123.821 39.2851 460.239
854 0 92.3925 14.0379 1297 125.969 39.4133 458.188
855 0 96.5239 14.2141 1372 125.423 39.3673 453.257
856 0 99.4103 14.4754 1439 125.454 39.9215 452.689
857 0 103.302 15.1401 1564 123.735 39.3453 451.416
858 0 105.237 14.5101 1527 126.487 38.8546 451.308
859 0 110.366 15.4667 1707 123.968 38.9859 449.443
860 1 59.1582 12.0186 711 131.224 39.1927 474.2
861 0 58.1343 11.4218 664 132.877 39.7801 474.913
862 0 62.1192 13.4258 834 129.6 39.7494 472.918
863 0 64.0997 13.0266 835 124.996 40.1509 471.463
864 0 66.2045 13.6547 904 121.83 39.8385 472.624
865 0 67.1486 14.2222 955 121.756 39.7089 470.747
866 0 69.0861 14.7208 1017 120.272 39.352 468.343
867 0 71.145 12.6081 897 127.04 39.641 468.734
868 0 77.1509 13.8948 1072 121.933 39.2062 467.729
869 0 77.1883 13.9011 1073 123.197 39.6263 467.484
870 0 80.1657 13.5095 1083 123.469 39.4284 466.947
871 0 81.1422 12.854 1043 128.618 39.9492 464.298
872 0 85.1785 12.5853 1072 128.25 39.5662 465.873
873 0 86.1495 13.2212 1139 129.104 39.6945 461.044
874 0 90.1819 13.872 1251 126.937 40.2086 461.954
875 0 91.1737 12.3939 1130 132.081 40.0743 460.479
876 1 50.1129 12.6315 633 130.676 40.2054 477.645
877 0 53.0659 12.7954 679 128.875 40.6156 477.616
878 0 55.1274 13.5686 748 128.306 40.6176 477.16
879 0 54.2521 13.2898 721 132.978 39.4466 476.526
880 0 56.2196 12.6113 709 136.647 39.9422 475.623
881 0 57.2018 12.8842 737 135.695 39.4749 474.913
882 0 60.324 13.1125 791 135.234 38.7257 472.698
883 0 63.2438 13.4401 850 133.546 39.0341 471.667
884 0 66.3604 14.2706 947 131.199 39.0707 470.644
885 0 65.339 13.7896 901 134.841 39.2653 468.469
886 0 67.4922 14.2683 963 134.676 38.5961 469.162
887 0 69.3404 13.1092 909 134.463 38.868 469.282
888 0 70.1845 13.6925 961 133.121 39.2643 468.15
889 0 74.1803 13.2785 985 133.943 38.7208 467.321
890 0 76.2385 14.4022 1098 130.979 38.9062 466.962
891 0 80.1088 12.7576 1022 127.192 40.2182 464.631
892 0 83.2336 13.0716 1088 124.566 40.4743 463.218
893 0 83.2803 12.3078 1025 128.86 40.159 461.087
894 0 87.271 13.0628 1140 127.137 39.9825 460.146
895 0 90.1946 13.1937 1190 127.817 39.9647 458.992
896 1 48.2508 11.3159 546 125.374 40.3425 481.018
897 0 51.2897 12.1857 625 122.371 40.2656 477.997
898 0 51.419 12.0578 620 125.258 40.3661 478.216
899 0 52.3429 12.1315 635 124.646 40.0992 477.754
900 0 53.3153 11.9103 635 125.072 40.1118 477.987
901 0 55.2477 12.7426 704 124.746 39.6392 476.249
902 0 55.26 12.3236 681 126.903 40.0103 476.231
903 0 58.3649 13.0215 760 123.909 40.4053 475.733
904 0 58.2221 12.6756 738 126.579 40.1748 473.465
905 0 61.2106 13.086 801 125.072 40.0524 471.576
906 0 62.3286 12.8673 802 125.421 40.1272 472.039
907 0 62.2008 12.0256 748 129.726 39.7353 470.106
908 0 67.3203 12.7599 859 125.722 39.7148 470.728
909 0 68.1858 12.5686 857 126.891 39.3221 468.295
910 0 70.213 12.7754 897 127.146 40.0089 468.702
911 0 71.2563 12.7006 905 129.487 39.6133 466.002
912 0 76.2182 13.9206 1061 128.659 40.065 466.793
913 0 77.3699 13.3773 1035 132.167 39.5942 463.698
914 0 79.3837 13.2017 1048 133.184 40.0095 462.333
915 0 82.4583 12.6367 1042 134.169 40.3273 461.01
916 0 86.5094 13.3743 1157 131.188 39.9879 460.946
917 0 89.68 13.1467 1179 131.418 39.6692 460.293
918 0 91.3586 14.0654 1285 129.376 39.8366 459.426
919 0 94.3409 13.2286 1248 132.775 40.0954 455.413
920 0 95.2588 13.2061 1258 133.797 39.5246 454.192
921 0 100.482 13.893 1396 130.019 40.2765 453.395
922 0 102.483 13.973 1432 131.362 39.8911 451.112
923 0 105.444 13.8937 1465 131.76 39.8355 448.765
924 0 110.492 13.6118 1504 131.736 39.1569 449.107
925 1 60.3467 11.7819 711 127.249 40.0127 473.257
926 0 62.3108 11.8759 740 128.057 38.8946 472.828
927 0 63.3184 12.8083 811 127.221 38.9901 471.158
928 0 66.2864 13.1399 871 126.372 38.9518 470.181
929 0 68.3495 12.0411 823 128.323 39.6075 468.453
930 0 70.1713 13.5241 949 124.846 40.2582 466.296
931 0 72.146 12.5856 908 127.753 39.9967 465.96
932 0 75.3499 13.4174 1011 124.471 40.0682 466.119
933 0 77.3252 13.398 1036 125.611 39.9961 461.145
934 0 79.2217 13.4685 1067 126.628 40.3327 459.26
935 0 83.3625 13.9151 1160 124.32 40.8543 459.747
936 0 85.3482 13.1579 1123 127.277 40.528 457.068
937 0 89.4542 14.309 1280 123.762 40.4641 456.323
938 0 91.3987 13.6654 1249 125.585 40.0392 455.176
939 0 94.3842 13.0742 1234 127.971 40.1694 453.531
940 0 98.464 12.6747 1248 128.735 40.141 452.196
941 0 102.426 13.317 1364 126.618 40.1158 451.295
942 0 106.466 12.5393 1335 127.267 39.5049 450.439
943 1 56.2673 10.8233 609 121.567 40.514 473.972
944 0 59.382 11.8891 706 119.864 40.551 471.248
945 0 61.1312 13.5283 827 116.285 39.8452 471.99
946 0 62.0984 12.9955 807 118.014 40.3767 471.43
947 0 65.1529 12.5704 819 118.247 40.7436 469.73
948 0 67.0941 12.6092 846 118.668 40.6147 467.991
949 0 70.1028 13.0951 918 116.192 40.0861 467.601
950 0 72.2301 12.9724 937 116.498 40.7065 467.431
951 0 74.2274 12.5156 929 119.323 40.5339 464.207
952 0 78.11 13.5962 1062 115.679 40.7684 464.199
953 0 79.1881 13.2343 1048 117.022 40.3893 464.793
954 0 81.2086 13.3976 1088 117.976 40.6397 461.419
955 0 84.2 12.8504 1082 118.618 40.3595 461.372
956 0 87.292 13.2085 1153 118.313 40.6323 460.175
957 0 91.2811 13.7926 1259 118.284 40.3813 457.064
958 0 93.3102 13.3104 1242 120.948 40.6337 456.411
959 0 97.2406 13.4923 1312 120.774 40.4367 452.444
960 0 100.246 13.028 1306 120.64 39.9985 453.352
961 0 103.296 13.6211 1407 119.768 40.705 450.294
962 0 106.282 12.9561 1377 120.763 41.1917 446.837
963 0 112.111 13.0317 1461 119.36 40.4408 445.284
964 1 59.0913 11.0676 654 115.596 41.0459 473.124
965 0 60.2219 12.0222 724 122.312 40.3826 470.782
966 0 64.1758 13.5409 869 114.86 40.2106 469.388
967 0 67.189 13.3355 896 114.75 40.6607 469.666
968 0 68.2312 13.8939 948 113.099 39.8534 468.66
969 0 72.305 13.8303 1000 112.726 39.469 467.126
970 0 74.2486 13.3605 992 114.251 39.6734 463.943
971 0 75.106 13.8072 1037 113.556 39.4436 463.28
972 0 76.1199 12.8876 981 116.886 40.001 463.084
973 0 79.079 13.8596 1096 114.461 39.9589 461.054
974 0 80.1546 12.8502 1030 118.287 40.3427 457.231
975 0 85.1092 12.5368 1067 118.5 40.4096 457.064
976 0 84.0492 12.2547 1030 120.701 40.5583 452.598
977 0 88.0803 12.7724 1125 119.388 40.9298 452.335
978 0 91.206 13.8916 1267 117.718 39.1871 451.194
979 0 94.1121 13.1545 1238 120.515 39.1244 450.326
980 0 97.1148 13.1391 1276 122.06 38.9005 448.527
981 0 101.13 13.3392 1349 121.004 39.0423 447.746
982 0 104.277 14.0108 1461 119.681 39.1732 442.848
983 0 109.203 14.1296 1543 119.338 38.8004 441.108
984 1 60.1529 10.1408 610 123.318 39.018 466.67
985 0 62.094 12.3361 766 118.287 38.1214 464.858
986 0 65.0275 12.3794 805 120.111 38.2646 466.282
987 0 67.0837 13.8335 928 113.403 38.556 467.734
988 0 69.068 12.4515 860 118.348 38.8058 466.072
989 0 73.1362 12.634 924 116.851 39.0671 463.175
990 0 76.1222 13.3732 1018 115.963 38.9332 461.574
991 0 77.1865 12.7483 984 118.641 38.3354 460.359
992 0 80.1159 13.468 1079 116.603 38.7535 459.641
993 0 82.096 13.4111 1101 117.325 38.8165 458.934
994 0 85.0916 13.3503 1136 118.156 38.662 457.129
995 0 86.0743 13.1863 1135 119.315 39.1595 456.492
996 0 89.0866 13.2455 1180 118.236 39.5466 453.156
997 0 88.2396 12.5454 1107 122.824 39.4192 447.637
998 0 92.1974 12.2997 1134 123.633 38.8801 446.197
999 0 95.068 12.6225 1200 122.81 38.9608 445.344
1000 0 102.283 13.8342 1415 118.043 39.5237 444.096
1001 0 106.221 14.5264 1543 114.878 39.3921 442.122
1002 0 108.33 13.2281 1433 119.488 39.7509 442.184
1003 0 113.247 13.0511 1478 118.282 39.5995 440.422
1004 1 58.1328 10.5448 613 121.225 39.6215 463.281
1005 0 60.1171 11.8435 712 118.782 39.5197 462.348
1006 0 62.251 11.1002 691 119.716 39.411 460.994
1007 0 68.2608 12.4522 850 112.052 40.5176 463.271
1008 0 70.1206 11.8367 830 114.4 40.5386 462.178
1009 0 75.1497 12.9342 972 109.772 40.7459 464.539
1010 0 76.3686 12.3087 940 111.453 39.7798 463.107
1011 0 76.3297 10.4939 801 119.029 39.7703 459.414
1012 0 79.3468 12.6281 1002 114.101 39.7475 457.604
1013 0 82.3279 12.7782 1052 113.651 39.8888 458.208
1014 0 84.355 13.135 1108 113.69 39.9792 455.058
1015 0 88.4651 14.2316 1259 111.624 40.394 456.064
1016 0 89.4587 12.3409 1104 117.33 40.2183 454.634
1017 0 92.4814 13.2892 1229 115.292 40.4483 452.142
1018 0 94.5009 13.439 1270 116.189 39.9433 449.074
1019 0 97.4444 14.675 1430 113.543 40.1413 446.492
1020 0 98.5011 13.5633 1336 117.73 40.8428 447.831
1021 0 103.306 14.0457 1451 116.669 40.428 444.726
1022 0 104.452 13.834 1445 118.318 40.5889 444.606
1023 0 105.513 12.2449 1292 122.567 40.4489 443.695
1024 0 111.582 13.4609 1502 118.208 40.3575 443.231
1025 0 112.458 13.2494 1490 119.419 40.3631 438.411
1026 0 118.357 13.1889 1561 118.589 40.3664 437.172
1027 1 64.3008 10.9019 701 110.496 40.0271 464.886
1028 0 70.3532 12.025 846 108.195 40.1915 463.703
1029 0 71.1395 12.0468 857 108.678 40.9837 463.648
1030 0 75.129 11.6333 874 108.34 40.786 465.989
1031 0 76.1943 11.3001 861 109.923 40.813 463.927
1032 0 78.2005 11.6367 910 111.407 41.067 462.095
1033 0 79.2736 10.3692 822 114.824 41.0973 460.802
1034 0 85.2465 11.0972 946 111.593 41.1966 461.091
1035 0 88.2194 12.2082 1077 111.63 40.8877 457.197
1036 0 88.2172 11.1429 983 115.067 41.1251 455.927
1037 0 90.3467 11.2898 1020 114.745 41.6029 455
1038 0 93.3371 10.7353 1002 114.825 41.522 457.519
1039 0 97.201 10.5143 1022 115.087 41.2906 454.333
1040 0 100.336 10.0064 1004 115.658 41.2052 452.054
1041 0 102.245 11.9028 1217 113.073 41.1528 450.039
1042 0 108.228 11.1524 1207 114.939 41.2229 446.037
1043 0 110.18 10.7188 1181 115.744 41.1804 444.191
1044 1 60.2165 10.9937 662 108.201 39.7931 472.251
1045 0 63.2078 10.9005 689 101.237 41.0464 469.062
1046 0 68.147 10.9763 748 101.993 38.9412 469.389
1047 0 67.1449 9.72524 653 105.256 39.1302 470.248
1048 0 70.1428 11.3198 794 103.146 38.9446 467.248
1049 0 74.2121 12.4508 924 100.835 38.684 466.343
1050 0 73.1539 11.3323 829 104.811 39.0555 463.393
1051 0 76.1349 11.5584 880 106.251 38.5511 462.44
1052 0 80.1226 11.9692 959 104.39 38.8363 463.199
1053 0 82.179 12.5823 1034 104.686 38.9004 460.368
1054 0 84.1367 11.2198 944 109.469 39.09 459.846
1055 0 85.1955 11.4325 974 111.858 39.1766 457.083
1056 0 88.1058 11.6224 1024 110.754 39.7246 457.96
1057 0 93.1737 12.1172 1129 110.719 38.6856 455.211
1058 0 94.3685 11.4233 1078 112.863 38.8488 450.312
1059 0 97.5183 11.1466 1087 113.773 38.9062 448.371
1060 0 101.558 12.5544 1275 111.064 38.7459 447.584
1061 0 104.522 11.9497 1249 112.773 38.1681 445.377
1062 0 108.655 12.0105 1305 112.745 38.2123 444.738
1063 1 60.3311 10.575 638 105.813 38.431 469.889
1064 0 61.2707 10.8698 666 106.61 38.7342 468.006
1065 0 62.3254 11.3437 707 106.846 38.8967 468.56
1066 0 66.0819 11.8943 786 105.781 38.0725 470.005
1067 0 66.1443 11.2935 747 107.233 38.4739 470.016
1068 0 69.1094 11.7929 815 106.834 38.8675 468.742
1069 0 70.1198 12.1221 850 107.747 38.6235 465.801
1070 0 73.1105 12.2828 898 106.624 38.471 466.532
1071 0 73.1085 12.4336 909 108.578 38.516 464.289
1072 0 76.1595 10.9638 835 111.16 38.3497 465.811
1073 0 78.1036 11.3823 889 115.326 37.604 462.864
1074 0 79.1575 10.8013 855 118.179 37.4819 460.968
1075 0 85.1637 11.9182 1015 113.062 37.6443 461.448
1076 0 85.0943 11.9162 1014 112.938 38.0602 461.101
1077 0 88.1695 11.9996 1058 112.405 37.6163 459.53
1078 0 90.17 12.6871 1144 109.941 38.146 459.844
1079 0 94.1201 12.824 1207 109.118 38.2411 459.683
1080 0 97.2836 12.0164 1169 110.966 39.0009 456.104
1081 0 100.226 11.504 1153 111.294 39.1145 456.685
1082 0 100.265 11.2402 1127 113.245 39.5741 454.69
1083 0 102.262 12.0084 1228 112.745 38.706 448.958
1084 0 106.366 11.8647 1262 112.242 38.7512 451.418
1085 0 112.387 11.2468 1264 112.809 39.5356 448.04
1086 0 113.326 10.9948 1246 114.292 39.3283 444.209
1087 0 118.365 11.152 1320 113.328 39.3553 442.622
1088 0 125.404 10.5659 1325 113.572 38.7849 440.869
1089 0 126.268 10.2797 1298 113.876 39.8128 441.827
1090 1 73.3084 11.1447 817 108.725 40.4211 468.269
1091 0 76.1258 11.1526 849 103.584 40.0342 465.305
1092 0 77.1179 11.0999 856 112.007 40.118 462.155
1093 0 79.1341 11.9417 945 109.948 39.2614 459.742
1094 0 80.1595 11.053 886 112.818 39.6874 458.857
1095 0 82.1403 10.7621 884 113.286 38.9695 458.503
1096 0 86.14 11.4117 983 110.746 38.705 457.245
1097 0 90.1874 12.7956 1154 105.932 38.331 455.973
1098 0 93.3817 11.287 1054 110.525 38.7429 452.305
1099 0 98.3911 11.7185 1153 109.683 38.1448 451.807
1100 0 100.386 11.7944 1184 110.322 38.4882 449.405
1101 0 103.615 12.643 1310 109.498 38.3977 447.608
1102 0 106.522 11.0024 1172 113.349 38.2201 446.712
1103 0 112.35 12.0071 1349 111.336 37.9778 442.093
1104 1 63.2757 11.0627 700 106.614 37.9114 469.029
1105 0 64.2798 10.9054 701 107.078 38.0571 468.006
1106 0 66.2241 11.0383 731 106.833 38.0492 468.209
1107 0 69.1332 12.4398 860 102.56 37.8826 466.928
1108 0 71.1682 11.9997 854 102.981 37.7635 465.384
1109 0 74.1736 12.5381 930 100.68 37.9226 465.117
1110 0 75.1139 12.1283 911 102.338 37.2272 463.366
1111 0 78.0842 12.5249 978 101.163 37.6851 463.093
1112 0 79.1174 10.7688 852 105.448 37.2101 463.151
1113 0 83.1436 11.5102 957 104.17 37.93 461.789
1114 0 84.1371 11.1841 941 105.576 37.5728 460.291
1115 0 88.1084 11.3837 1003 104.543 37.5334 460.612
1116 0 90.2808 11.8298 1068 105.544 37.3081 456.345
1117 0 94.1474 11.0677 1042 106.218 37.7457 455.536
1118 0 96.2441 12.0007 1155 104.977 38.2442 453.193
1119 0 99.2029 11.5521 1146 105.607 38.4599 453.535
1120 0 104.272 11.5755 1207 105.918 38.3538 449.981
1121 0 106.138 11.0517 1173 106.981 38.6905 450.413
1122 0 111.137 12.4081 1379 104.783 38.6012 447.364
1123 0 114.163 11.3084 1291 107.152 38.4438 444.089
1124 1 66.1629 12.2123 808 100.467 37.5446 469.84
1125 0 67.2551 11.4341 769 104.228 38.5007 469.142
1126 0 67.1214 11.6952 785 105.647 38.2217 468.45
1127 0 70.1026 12.6957 890 103.178 37.5517 465.584
1128 0 73.0894 12.0674 882 104.466 37.4717 467.621
1129 0 74.097 12.1732 902 105.38 37.633 464.814
1130 0 77.0864 12.8168 988 104.37 37.5587 465.17
1131 0 78.0827 12.1026 945 105.594 37.7259 466.788
1132 0 80.0905 13.0977 1049 104.879 37.3317 463.86
1133 0 84.1647 12.9033 1086 105.38 37.5994 462.167
1134 0 85.2661 13.6631 1165 104.925 37.4661 461.17
1135 0 87.1454 13.1504 1146 106.453 37.3735 458.946
1136 0 90.1806 11.4659 1034 111.323 37.7186 459.058
1137 0 93.2613 13.0708 1219 108.418 38.74 456.437
1138 0 96.1302 13.5961 1307 107.825 38.5149 455.4
1139 0 100.118 14.2133 1423 106.838 37.844 453.11
1140 0 99.161 13.463 1335 111.157 38.5453 454.333
1141 0 102.271 13.0633 1336 113.449 38.8466 451.344
1142 0 106.253 12.2067 1297 116.121 40.3462 446.842
1143 1 61.1465 10.8428 663 118.641 40.9593 471.178
1144 0 64.2909 11.3235 728 117.309 40.8297 470.187
1145 0 64.3836 12.5343 807 116.709 39.8686 467.668
1146 0 65.3627 13.5245 884 115.369 40.0441 469.788
1147 0 66.4399 13.1246 872 116.734 40.1021 470.393
1148 0 68.2518 12.6297 862 121.173 39.3179 465.853
1149 0 70.4256 12.5097 881 120.28 39.1896 465.847
1150 0 71.3669 12.779 912 120.292 38.8092 466.583
1151 0 74.3788 13.5119 1005 118.503 38.6517 464.154
1152 0 75.2365 13.3446 1004 119.784 38.9502 462.154
1153 0 77.2665 13.2011 1020 121.274 38.2147 461.23
1154 0 80.2931 13.102 1052 120.917 38.3546 461.176
1155 0 82.2836 12.9916 1069 121.83 38.3882 459.466
1156 0 85.2784 14.74 1257 116.694 38.7741 458.487
1157 0 87.1962 14.7025 1282 116.576 38.3877 458.172
1158 0 90.3223 13.8393 1250 118.712 39.004 456.302
1159 0 93.136 14.817 1380 115.93 39.0268 455.651
1160 0 94.3394 13.3454 1259 120.887 38.9357 453.041
1161 0 98.3241 15.0726 1482 115.766 38.9143 452.022
1162 0 99.2688 13.398 1330 123.241 38.694 449.761
1163 0 105.234 13.7597 1448 120.749 38.9392 448.173
1164 1 57.1695 12.3492 706 117.789 37.6997 472.688
1165 0 59.3322 12.489 741 115.695 38.1835 471.723
1166 0 60.2518 12.3316 743 110.389 37.4724 472.789
1167 0 61.1174 12.9096 789 109.134 37.9442 471.262
1168 0 63.2003 12.0094 759 110.179 38.0132 470.7
1169 0 66.1938 12.4785 826 109.544 36.8644 469.123
1170 0 67.1145 12.4861 838 110.017 37.4857 467.715
1171 0 70.1947 13.4768 946 107.268 38.2051 466.86
1172 0 70.1086 13.2366 928 108.995 38.2263 466.121
1173 0 72.1558 13.3461 963 110.127 37.7809 464.184
1174 0 73.1045 12.8857 942 111.461 37.5021 464.564
1175 0 75.2233 13.5729 1021 110.338 37.9853 461.27
1176 0 75.1891 12.2225 919 115.18 37.8455 459.762
1177 0 81.1334 14.1002 1144 107.518 38.1294 460.963
1178 0 82.0833 13.267 1089 110.141 38.2378 459.264
1179 0 82.1577 12.3665 1016 113.83 37.9656 458.252
1180 0 87.1025 12.6288 1100 112.522 37.7627 457.49
1181 0 88.1645 13.5655 1196 112.065 38.4139 454.833
1182 0 91.0667 13.3638 1217 113.592 38.0707 454.45
1183 0 91.0977 13.3154 1213 115.501 37.6958 452.293
1184 0 97.2669 15.3084 1489 109.31 37.5514 450.486
1185 0 99.1344 14.1122 1399 113.838 38.1401 449.968
1186 0 103.169 14.1031 1455 113.301 38.1505 448.105
1187 0 105.252 12.8264 1350 116.202 38.2763 448.503
1188 0 109.156 14.1175 1541 111.605 37.5977 443.404
1189 1 56.1305 11.7583 660 112.955 38.097 472.103
1190 0 60.1061 11.5629 695 113.685 37.9669 472.079
1191 0 62.1701 12.3693 769 115.182 37.1157 471.783
1192 0 63.1113 13.1514 830 115.599 37.4976 467.061
1193 0 65.2852 12.5143 817 118.606 37.6671 468.335
1194 0 67.0806 13.7447 922 115.108 37.7408 466.825
1195 0 69.1463 13.5365 936 116.395 38.0331 466.677
1196 0 72.1889 13.6863 988 116.986 37.1397 465.987
1197 0 73.1097 12.83 938 121.166 38.0618 465.049
1198 0 77.1341 14.0275 1082 117.797 37.7671 463.026
1199 0 79.1394 13.6721 1082 119.235 37.8457 462.43
1200 0 80.0422 14.255 1141 119.269 37.4698 462.311
1201 0 83.1367 13.556 1127 121.009 37.5652 461.477
1202 0 85.0997 13.6898 1165 122.142 37.7665 459.244
1203 0 87.1078 13.4776 1174 124.289 37.5273 459.336
1204 0 88.183 13.1885 1163 126.058 37.9845 457.453
1205 0 93.1231 13.058 1216 126.033 37.991 454.409
1206 0 95.105 11.8921 1131 128.933 37.5208 455.386
1207 1 57.0678 12.5465 716 126.264 37.5042 472.925
1208 0 60.0675 12.8522 772 125.556 37.6218 472.789
1209 0 57.2354 11.3566 650 138.148 37.8954 471.445
1210 0 61.1985 12.4513 762 133.806 37.3517 470.197
1211 0 63.2089 12.4982 790 133.727 37.4354 469.771
1212 0 65.3398 12.7028 830 133.602 37.9976 469.846
1213 0 69.1544 13.8097 955 130.165 37.5487 468.017
1214 0 71.154 12.7751 909 133.923 37.4862 464.89
1215 0 74.1752 13.5625 1006 131.884 36.8618 465.308
1216 0 74.1714 13.8328 1026 131.851 37.2271 462.532
1217 0 77.1748 14.1108 1089 130.287 37.506 464.052
1218 0 79.2315 13.3911 1061 132.862 37.7823 462.865
1219 0 82.073 13.7195 1126 133.377 36.8073 459.76
1220 0 83.2193 13.5545 1128 134.355 37.6179 459.035
1221 0 87.1298 12.4986 1089 136.996 37.753 457.589
1222 0 88.1319 13.8202 1218 134.702 37.8818 455.06
1223 0 92.1224 13.786 1270 133.839 37.452 456.013
1224 0 95.1571 14.0294 1335 132.495 37.1813 453.983
1225 0 97.1596 13.4109 1303 135.249 37.3369 453.485
1226 0 101.181 13.3029 1346 136.143 37.3269 451.899
1227 0 105.191 13.7274 1444 134.842 37.106 447.88
1228 0 107.179 13.8179 1481 133.945 37.3633 448.622
1229 0 112.218 13.5807 1524 133.982 37.8812 447.316
1230 0 114.273 12.8727 1471 138.229 36.7444 440.396
1231 1 61.0638 11.1359 680 124.507 36.4147 471.431
1232 0 62.0658 11.1333 691 125.737 36.7844 469.896
1233 0 64.204 10.5445 677 121.102 36.8301 471.077
1234 0 66.0623 12.579 831 114.409 37.1637 470.806
1235 0 69.0932 12.4759 862 115.651 37.3863 467.691
1236 0 71.135 10.9229 777 120.048 36.7529 467.624
1237 0 72.1368 11.0623 798 119.843 36.5877 467.169
1238 0 75.1676 11.6141 873 118.814 37.0401 466.049
1239 0 78.1089 11.8424 925 118.405 37.2324 464.544
1240 0 78.1379 12.5291 979 118.304 37.1297 463.209
1241 0 82.1749 12.802 1052 116.529 37.4791 461.006
1242 0 84.1187 13.4215 1129 115.651 37.8423 460.353
1243 0 87.1913 12.031 1049 119.69 37.5605 458.396
1244 0 90.1138 13.2277 1192 116.273 36.8716 456.227
1245 0 92.1203 12.0603 1111 118.656 37.5059 456.491
1246 0 95.1537 12.2434 1165 118.736 37.8472 454.992
1247 0 98.1698 12.5497 1232 118.431 37.5584 453.211
1248 0 99.1443 11.1857 1109 120.823 37.8485 449.884
1249 0 103.198 12.229 1262 119.49 37.1965 447.473
1250 0 105.233 11.2227 1181 121.229 37.5893 441.992
1251 1 57.1726 10.1797 582 110.933 37.0326 469.048
1252 0 60.1646 12.2497 737 108.913 37.076 471.828
1253 0 61.1409 12.463 762 110.314 37.7664 469.747
1254 0 62.1389 11.5548 718 115.348 37.4833 469.929
1255 0 66.1187 12.7498 843 110.986 37.5125 470.626
1256 0 66.1448 13.0471 863 114.577 36.606 466.499
1257 0 69.1004 12.8509 888 112.425 37.0991 468.889
1258 0 71.1546 13.3091 947 112.069 37.2798 466.582
1259 0 72.0521 13.9066 1002 111.155 37.02 465.21
1260 0 74.1298 13.2201 980 113.771 36.9704 464.389
1261 0 76.1257 13.1099 998 115.207 36.507 464.565
1262 0 78.1629 12.9601 1013 116.031 36.382 463.622
1263 0 81.1934 12.5133 1016 117.826 36.81 461.264
1264 0 84.0992 13.5673 1141 115.19 37.1569 460.233
1265 0 84.1143 12.6257 1062 119.382 36.8983 460.742
1266 0 88.1053 13.2342 1166 117.826 37.3353 459.582
1267 0 89.0912 13.5928 1211 119.09 37.3988 456.277
1268 0 93.0829 13.0099 1211 120.698 37.1825 456.223
1269 0 96.112 13.5259 1300 119.003 36.4608 455.148
1270 0 98.0792 13.8562 1359 120.8 36.6004 451.106
1271 0 101.11 11.6211 1175 126.028 36.3515 450.26
1272 1 54.1094 11.3104 612 125.961 36.4641 473.99
1273 0 58.0519 11.7481 682 130.424 36.3211 471.761
1274 0 57.1035 10.122 578 123.218 38.2509 468.644
1275 0 58.0836 11.1391 647 114.244 37.6801 468.597
1276 0 62.0471 11.4268 709 112.903 37.457 468.649
1277 0 65.0781 11.6783 760 112.213 37.2618 467.03
1278 0 66.113 11.6014 767 113.419 37.7353 463.074
1279 0 69.1691 11.3635 786 113.621 37.6285 463.985
1280 0 72.135 12.3934 894 111.372 37.4653 462.294
1281 0 73.1077 13.2954 972 110.662 37.0566 461.827
1282 0 75.1437 11.7508 883 115.304 37.8403 459.623
1283 0 77.116 12.6692 977 118.305 38.0972 462.287
1284 0 79.146 12.597 997 115.618 38.2086 458.43
1285 0 82.1656 11.1847 919 121.147 38.3939 455.252
1286 0 84.3066 12.1224 1022 120.426 38.3728 454.069
1287 0 88.1289 12.7994 1128 121.178 38.2004 450.621
1288 0 91.2603 11.8781 1084 124.785 38.5065 450.661
1289 0 93.2695 13.4771 1257 123.137 37.8576 449.266
1290 0 96.2898 13.9579 1344 123.092 38.497 447.634
1291 0 100.303 13.7084 1375 121.402 38.7142 448.481
1292 1 52.1319 8.90049 464 124.444 38.7069 469.328
1293 0 58.2255 11.7131 682 117.078 38.9179 469.717
1294 0 58.2294 10.5445 614 126.238 38.7296 468.119
1295 0 60.2727 11.9955 723 121.99 38.6141 466.961
1296 0 61.0621 12.1188 740 127.332 37.4689 468.5
1297 0 63.2686 13.2451 838 133.575 37.8186 467.63
1298 0 67.3558 12.961 873 132.722 37.7446 467.723
1299 0 69.2596 12.8213 888 132.762 38.2601 466.098
1300 0 72.1723 14.1883 1024 128.468 38.0986 464.328
1301 0 72.2712 13.3802 967 132.676 38.3578 462.327
1302 0 76.1888 14.2409 1085 129.431 38.6406 462.793
1303 0 79.267 13.1328 1041 132.971 37.8492 461.794
1304 0 81.2333 13.6767 1111 131.678 38.4266 459.494
1305 0 84.2198 13.2985 1120 132.483 37.7875 457.946
1306 0 85.2375 13.3861 1141 133.561 38.3497 456.602
1307 0 89.215 14.5155 1295 129.202 38.3985 454.3
1308 0 93.2293 13.869 1293 130.585 38.3009 455.084
1309 0 96.1778 14.1717 1363 130.779 37.8437 452.502
1310 1 48.0262 10.8066 519 132.699 39.5087 476.83
1311 0 51.0536 12.4379 635 127.731 39.0598 473.946
1312 0 50.1225 11.452 574 130.122 38.9599 473.232
1313 0 53.2489 12.9392 689 125.745 38.5414 473.274
1314 0 53.2102 12.3473 657 126.294 38.4231 474.064
1315 0 57.2628 12.6958 727 123.411 38.3673 474.206
1316 0 57.3286 12.8732 738 124.236 38.4661 472.217
1317 0 59.2978 13.9128 825 121.736 38.0497 470.659
1318 0 60.2886 13.7008 826 121.93 37.776 471.338
1319 0 63.2592 13.6107 861 121.39 37.8153 470.496
1320 0 61.2719 12.5996 772 127.96 37.785 468.063
1321 0 68.3441 13.7247 938 124.784 36.7814 465.98
1322 0 69.3663 13.0179 903 127.021 37.7331 466.732
1323 0 72.5657 13.3396 968 126.398 37.7107 464.745
1324 0 73.4585 13.722 1008 126.688 37.2847 462.005
1325 0 76.5331 13.5236 1035 127.161 36.3633 461.655
1326 0 79.2593 13.2098 1047 125.683 37.1366 463.212
1327 0 81.3285 12.4802 1015 126.793 37.1941 461.128
1328 0 85.4874 12.7621 1091 123.444 37.7764 461.137
1329 0 87.2327 12.9653 1131 123.882 37.9293 460.029
1330 0 90.2185 13.0794 1180 124.385 37.8347 457.297
1331 0 93.3558 13.5075 1261 123.623 37.5377 456.483
1332 0 96.4432 14.2571 1375 122.536 37.4982 454.865
1333 0 100.473 13.5261 1359 125.146 37.5556 453.673
1334 1 53.3338 10.6499 568 125.873 37.4155 477.252
1335 0 56.4347 11.6063 655 126.681 36.7359 471.69
1336 0 59.4547 12.6819 754 123.638 37.126 471.263
1337 0 60.2875 12.9546 781 123.859 37.5647 468.881
1338 0 61.1979 12.0919 740 122.762 37.6297 471.081
1339 0 65.1973 12.7613 832 121.635 37.3101 469.532
1340 0 66.2276 12.6835 840 121.554 38.1548 470.381
1341 0 70.3155 12.2164 859 120.717 38.1956 469.166
1342 0 70.2759 12.4936 878 121.721 37.746 466.131
1343 0 74.1779 12.2678 910 121.578 38.0341 466.115
1344 0 76.293 12.7272 971 119.311 37.8167 466.299
1345 0 79.288 12.7005 1007 119.668 37.9335 463.767
1346 0 81.3526 12.2307 995 119.945 37.8804 463.788
1347 0 85.2923 13.3189 1136 116.827 37.6039 459.787
1348 0 87.6137 12.2241 1071 119.823 37.2558 458.313
1349 0 89.5682 12.4933 1119 119.73 38.0938 456.576
1350 0 94.4668 12.4594 1177 119.031 38.0799 456.073
1351 0 95.3887 12.643 1206 119.278 38.4776 452.448
1352 1 50.279 11.3765 572 119.67 38.2115 473.736
1353 0 54.4817 12.3711 674 115.407 37.7567 473.55
1354 0 54.3814 11.5665 629 117.914 38.2846 474.968
1355 0 55.4303 12.5022 693 116.912 37.8153 471.166
1356 0 58.4472 13.9271 814 115.114 37.7838 473.139
1357 0 60.4144 13.3081 804 115.794 38.1866 472.035
1358 0 63.5331 12.7807 812 113.746 37.9914 469.991
1359 0 63.2161 12.0223 760 115.536 37.525 471.191
1360 0 64.1838 10.9529 703 119.661 37.4324 468.969
1361 0 68.2175 12.6214 861 115.186 37.5761 468.044
1362 0 71.372 12.5259 894 115.447 38.0246 464.349
1363 0 72.4425 12.0647 874 116.04 37.3284 466.237
1364 0 73.6129 11.6148 855 118.265 36.986 464.058
1365 0 78.7959 12.8433 1012 114.287 37.2055 459.402
1366 0 78.5884 12.0374 946 117.759 37.777 456.901
1367 0 81.6516 12.8105 1046 116.147 38.0229 457.652
1368 0 82.5617 11.9426 986 119.609 38.1684 456.861
1369 0 86.6743 12.1835 1056 118.098 37.75 457.227
1370 0 89.4229 12.6701 1133 119.188 38.3336 454.327
1371 0 90.5215 12.6158 1142 119.257 38.0779 453.63
1372 0 94.3933 13.3908 1264 117.986 37.5997 451.165
1373 0 96.3114 12.8541 1238 120.039 37.8449 450.618
1374 0 99.5981 13.8557 1380 118.557 37.5486 446.076
1375 0 102.359 13.0325 1334 121.21 37.006 445.634
1376 0 106.566 14.1509 1508 118.394 37.0086 444.834
1377 0 108.407 12.1947 1322 124.626 38.0325 443.746
1378 0 115.754 13.52 1565 120.397 36.2933 442.157
1379 0 117.771 13.9339 1641 119.506 36.7215 441.718
1380 1 66.6245 11.7224 781 117.035 36.9885 465.973
1381 0 69.5318 12.3541 859 117.097 37.1397 465.744
1382 0 71.4583 12.035 860 116.556 36.9163 465.386
1383 0 74.5961 12.3733 923 116.57 37.2589 466.893
1384 0 73.5366 11.8988 875 120.867 37.0549 460.085
1385 0 75.4536 12.0604 910 120.21 37.1231 459.668
1386 0 79.8483 11.6721 932 119.307 37.1556 459.803
1387 0 83.5606 12.7093 1062 116.925 36.5989 457.787
1388 0 86.8682 12.5823 1093 117.059 37.6048 455.564
1389 0 90.7493 12.2646 1113 117.364 38.0467 454.712
1390 0 91.8886 12.2213 1123 116.875 38.0801 455.302
1391 0 96.8191 13.4994 1307 114.099 37.4422 451.452
1392 0 98.7404 11.5049 1136 118.39 37.5572 450.68
1393 0 101.776 11.7808 1199 118.149 37.3011 448.765
1394 0 104.746 12.3728 1296 116.167 37.0694 451.151
1395 0 106.629 13.0358 1390 116.695 36.7835 445.363
1396 0 111.64 12.7373 1422 116.781 37.2201 444.93
1397 0 111.559 11.4379 1276 121.201 37.5055 440.942
1398 0 119.772 13.2084 1582 114.953 37.4855 441.613
1399 0 123.614 13.526 1672 114.303 37.3565 438.36
1400 0 126.446 13.2705 1678 114.446 37.8552 437.113
1401 1 71.2914 11.4179 814 107.773 37.3022 467.229
1402 0 72.5752 12.2218 887 120.159 38.0823 463.053
1403 0 72.2444 12.8176 926 113.458 39.1112 462.335
1404 0 76.1514 14.1166 1075 109.127 39.0335 458.821
1405 0 76.2066 14.277 1088 111.04 38.7528 456.674
1406 0 78.275 12.9926 1017 115.128 38.5585 454.804
1407 0 82.4334 13.2228 1090 114.033 37.2688 454.223
1408 0 85.5616 14.1886 1214 111.813 37.4448 451.343
1409 0 88.5973 13.0704 1158 116.115 37.0285 447.201
1410 0 89.3573 14.5371 1299 113.915 36.2363 445.68
1411 0 94.4283 13.2905 1255 116.908 37.1299 446.372
1412 0 95.5124 13.5689 1296 117.444 37.8387 444.183
1413 0 100.35 13.0742 1312 119.411 37.1745 441.494
1414 0 101.378 13.356 1354 119.56 37.0687 439.992
1415 0 105.596 12.5763 1328 121.565 37.7184 438.764
1416 0 107.439 12.3233 1324 123.363 37.6986 438.276
1417 0 112.34 13.112 1473 121.406 37.3557 436.354
1418 0 117.513 14.2112 1670 118.154 37.2976 435.171
1419 0 120.333 13.0804 1574 121.917 36.5813 432.881
1420 0 123.357 14.7296 1817 118.074 36.6538 429.57
1421 0 126.341 12.7749 1614 123.205 36.689 428.493
1422 0 132.508 14.6105 1936 118.933 36.7231 424.643
1423 0 138.441 13.652 1890 121.112 36.5259 425.549
1424 0 141.433 12.734 1801 122.892 36.1688 420.244
1425 1 76.29 12.0724 921 118.653 37.5939 453.709
1426 0 80.4104 13.1451 1057 117.08 38.5005 458.331
1427 0 84.4198 14.4279 1218 113.736 38.9204 455.093
1428 0 85.3696 13.3537 1140 117.152 38.7088 452.484
1429 0 87.3765 14.5462 1271 114.873 38.4052 450.915
1430 0 90.3517 13.536 1223 116.011 38.0703 446.85
1431 0 92.27 13.0812 1207 117.948 38.0563 447.066
1432 0 95.2951 12.8233 1222 119.662 37.8191 444.118
1433 0 95.3772 12.5921 1201 122.243 37.5229 441.391
1434 0 99.3297 15.2422 1514 115.081 37.4775 439.53
1435 0 103.325 13.7237 1418 118.943 37.8449 440.014
1436 0 107.398 13.5571 1456 119.906 37.9169 435.79
1437 0 108.327 12.85 1392 123.238 37.8851 434.294
1438 0 115.298 13.9204 1605 120.285 37.7352 432.519
1439 0 117.221 12.8646 1508 123.764 37.5517 431.91
1440 1 65.0777 10.2339 666 116.342 39.1787 456.556
1441 0 70.072 10.9602 768 110.943 38.8438 459.451
1442 0 69.1205 10.8651 751 105.98 38.3449 460.659
1443 0 68.2034 9.20776 628 110.901 39.0541 458.822
1444 0 73.1304 11.7051 856 106.562 38.3855 456.871
1445 0 75.1504 10.1264 761 109.719 38.816 456.363
1446 0 78.1401 10.0589 786 110.369 38.8003 456.475
1447 0 80.2629 10.4282 837 111.379 38.9881 453.805
1448 0 84.1951 10.2619 864 111.421 39.0428 453.071
1449 0 86.1551 11.3516 978 108.65 39.0603 454.347
1450 0 89.2113 12.2854 1096 107.109 39.0949 450.78
1451 0 91.0829 12.6039 1148 107.751 39.0819 452.054
1452 0 94.1594 11.2787 1062 110.694 38.7363 451.391
1453 0 96.1876 11.1137 1069 113.422 39.0524 444.346
1454 0 100.113 11.8466 1186 112.561 39.2159 443.583
1455 0 103.15 11.7886 1216 113.517 39.4679 443.543
1456 0 102.262 11.4999 1176 116.848 39.6454 441.964
1457 0 105.154 12.3438 1298 114.904 39.322 436.424
1458 0 111.214 11.9499 1329 114.851 39.0271 435.638
1459 0 116.117 12.5304 1455 116.676 37.9065 434.943
1460 0 120.211 11.8958 1430 118.708 37.4741 436.427
1461 1 67.1789 9.66078 649 110.048 38.2327 464.297
1462 0 69.1712 8.94881 619 117.742 39.0598 462.158
1463 0 75.2566 11.401 858 122.62 38.0804 462.864
1464 0 78.2365 13.4592 1053 117.667 37.4425 461.524
1465 0 79.176 12.6806 1004 120.41 36.8835 461.102
1466 0 82.2507 13.4224 1104 120.159 37.4357 456.311
1467 0 83.2598 12.9955 1082 122.372 37.988 456.335
1468 0 87.1955 13.1085 1143 121.962 38.1382 456.427
1469 0 89.1916 13.0057 1160 123.002 37.8224 454.329
1470 0 93.1892 12.4693 1162 125.046 38.0052 454.52
1471 0 93.1808 12.3845 1154 126.126 37.8328 452.9
1472 0 97.1505 13.3401 1296 124.272 38.7562 450.295
1473 0 100.104 13.1863 1320 116.025 37.7962 452.03
1474 0 102.103 11.3219 1156 121.298 37.6332 451.343
1475 0 106.192 12.6751 1346 118.561 37.0646 447.97
1476 0 111.243 12.9626 1442 118.155 37.292 444.632
1477 0 114.239 11.7911 1347 120.867 37.2791 443.828
1478 1 63.1894 11.8374 748 117.576 36.1858 469.321
1479 0 66.1928 12.796 847 116.53 37.6812 467.92
1480 0 67.0905 13.1464 882 107.684 36.0215 467.768
1481 0 67.0507 12.0655 809 110.906 36.5229 466.849
1482 0 72.097 12.6219 910 109.069 36.4824 466.563
1483 0 74.1082 12.1039 897 110.961 36.5808 465.653
1484 0 75.1421 12.0438 905 111.053 36.8309 463.654
1485 0 79.1036 12.7807 1011 108.822 36.3986 462.286
1486 0 80.1428 13.6631 1095 107.666 36.4018 459.509
1487 0 83.2023 13.2568 1103 106.529 36.6083 462.811
1488 0 86.0851 13.9281 1199 106.858 35.7248 459.614
1489 0 89.162 13.425 1197 107.167 36.5096 457.815
1490 0 93.2474 13.1156 1223 106.739 36.7907 457.663
1491 0 96.1137 13.6817 1315 107.349 36.7468 455.068
1492 0 98.1523 14.4062 1414 105.641 36.9003 454.561
1493 0 100.094 13.9169 1393 111.802 36.2656 450.287
1494 0 103.101 13.3559 1377 113.231 36.5214 448.897
1495 0 106.176 13.892 1475 112.126 36.339 447.623
1496 1 61.069 12.1174 740 113.147 35.9365 471.089
1497 0 61.1026 11.5216 704 114.705 35.8295 469.251
1498 0 65.2476 13.3185 869 111.794 37.4672 469.159
1499 0 66.3092 13.3164 883 111.743 38.1042 468.426
1500 0 67.2727 13.4081 902 111.426 38.2306 467.87
1501 0 69.2675 12.8199 888 112.481 37.661 466.756
1502 0 71.1878 13.2326 942 111.053 38.0287 465.78
1503 0 74.2266 13.6474 1013 108.156 38.4383 462.773
1504 0 76.2519 13.1144 1000 103.73 38.869 462.787
1505 0 77.2606 13.228 1022 104.075 37.7701 463.968
1506 0 76.2262 12.5547 957 111.231 37.7659 461.773
1507 0 76.2186 12.5822 959 111.96 37.9093 462.08
1508 0 79.246 13.6915 1085 108.994 38.2645 461.396
1509 0 79.2971 13.4179 1064 111.86 38.2105 460.755
1510 0 82.2576 14.3938 1184 109.307 37.935 460.805
1511 0 86.3819 14.5169 1254 106.67 37.8979 458.597
1512 0 89.2625 13.4995 1205 107.611 38.6207 458.763
1513 0 93.3449 14.0875 1315 105.419 38.5719 456.835
1514 0 93.2127 13.5175 1260 106.878 37.8667 456.543
1515 0 95.2822 14.074 1341 106.224 37.7256 452.66
1516 0 100.16 14.0576 1408 105.804 37.2621 451.745
1517 0 101.278 13.8036 1398 107.27 37.2461 449.588
1518 0 102.27 12.5159 1280 111.996 37.1523 449.368
1519 1 60.1157 12.5092 752 107.346 36.0332 473.358
1520 0 62.2894 12.153 757 109.155 37.1532 471.762
1521 0 60.2166 11.6413 701 108.553 37.5392 466.22
1522 0 59.2083 10.4377 618 101.916 37.356 465.757
1523 0 63.1956 10.5703 668 101.861 37.5404 466.792
1524 0 66.0592 11.4291 755 99.8344 37.6132 468.532
1525 0 68.0853 12.0584 821 101.35 37.285 465.082
1526 0 69.2 11.5896 802 103.945 37.3304 463.443
1527 0 73.0953 12.6547 925 101.298 38.3005 465.882
1528 0 73.282 11.8037 865 105.692 37.9075 464.859
1529 0 77.1619 13.1671 1016 102.906 37.124 462.728
1530 0 77.163 11.8321 913 107.817 37.8762 460.37
1531 0 80.1471 12.4022 994 107.554 37.2757 463.424
1532 0 82.1202 12.8348 1054 107.311 37.6717 459.541
1533 0 84.1603 12.6188 1062 109.868 37.8578 458.295
1534 0 88.1917 12.4842 1101 110.69 37.4923 459.09
1535 0 89.1486 13.8981 1239 109.868 36.883 458.111
1536 0 94.1961 13.0366 1228 112.879 37.4764 455.302
1537 0 94.3465 12.3375 1164 116.414 37.4914 453.461
1538 0 99.2402 13.3011 1320 114.599 37.5439 451.331
1539 0 99.5054 12.3109 1225 118.743 36.9355 451.415
1540 0 106.181 11.9889 1273 119.314 36.9725 450.874
1541 1 58.2559 12.5137 729 114.898 36.4198 474.492
1542 0 58.3068 12.3313 719 115.234 35.6857 473.833
1543 0 59.1383 12.3609 731 117.094 36.0985 470.971
1544 0 63.1503 13.5866 858 121.52 36.3392 473.324
1545 0 64.0553 12.3799 793 125.99 35.9697 472.473
1546 0 66.078 13.7111 906 123.063 35.3764 470.921
1547 0 68.1684 13.496 920 123.917 34.862 471.025
1548 0 68.1 13.6417 929 125.406 34.8375 469.214
1549 0 72.0691 15.0689 1086 119.214 34.9669 468.726
1550 0 74.0937 13.3075 986 124.687 34.9239 465.69
1551 0 76.0742 13.408 1020 124.198 35.2206 464.405
1552 0 79.1686 13.5534 1073 122.36 34.753 465.407
1553 0 82.1966 12.7377 1047 124.315 34.8873 462.418
1554 0 87.253 14.9451 1304 116.59 35.171 460.66
1555 0 89.1825 15.0142 1339 115.931 34.8335 458.989
1556 0 90.1025 13.418 1209 121.133 34.3275 458.254
1557 0 94.459 14.2602 1347 118.647 34.752 457.485
1558 0 94.1526 13.5949 1280 122.718 34.8992 454.377
1559 0 99.3207 13.1795 1309 121.844 34.7494 452.794
1560 0 103.182 14.5569 1502 118.101 35.0646 451.229
1561 0 105.158 13.3989 1409 121.791 34.6203 449.637
1562 0 109.134 12.471 1361 124.262 34.9772 447.841
1563 0 114.186 13.443 1535 122.283 34.4489 446.468
1564 1 63.0359 11.9614 754 121.24 33.374 471.188
1565 0 63.1987 11.092 701 121.13 35.408 467.469
1566 0 63.2901 11.3446 718 123.408 35.7577 467.267
1567 0 66.2094 12.3849 820 115.129 35.4463 463.317
1568 0 68.1762 10.5315 718 115.813 35.0585 463.103
1569 0 72.146 10.2708 741 115.881 34.7827 461.325
1570 0 74.0999 11.8354 877 113.151 34.5735 462.966
1571 0 77.0869 10.8968 840 114.854 35.2476 460.387
1572 0 79.0653 12.8122 1013 110.597 34.69 456.743
1573 0 79.132 11.8789 940 113.596 35.1894 452.454
1574 0 84.2193 10.4608 881 115.245 35.5698 453.966
1575 0 90.2417 11.2919 1019 112.664 35.6192 451.898
1576 0 91.205 11.7208 1069 111.926 36.1254 450.819
1577 0 93.3584 10.8399 1012 115.057 36.6976 447.033
1578 0 98.1619 11.532 1132 112.556 36.2094 449.977
1579 0 102.224 11.9835 1225 114.569 35.7143 446.891
1580 0 104.374 11.8995 1242 115.028 34.2842 446.662
1581 0 111.166 12.8006 1423 111.826 35.26 444.278
1582 0 114.3 11.776 1346 114.111 34.9822 442.47
1583 1 64.1363 9.74487 625 114.819 34.8496 470.568
1584 0 66.0708 12.3353 815 113.141 33.8626 468.439
1585 0 70.0423 11.1932 784 116.533 34.1811 463.526
1586 0 70.0646 13.2449 928 113.301 34.5302 465.809
1587 0 74.0654 13.5826 1006 112.622 34.4841 464.353
1588 0 76.1243 12.1512 925 117.264 33.4616 461.056
1589 0 79.1692 12.5554 994 115.665 33.4336 460.52
1590 0 82.1086 13.945 1145 111.794 33.4515 458.781
1591 0 86.1248 13.8172 1190 110.873 33.5378 458.838
1592 0 90.1531 13.9984 1262 110.03 34.1252 456.826
1593 0 91.102 13.3038 1212 113.214 34.4596 455.11
1594 0 92.0793 12.9128 1189 115.362 34.2607 454.338
1595 0 96.1652 13.248 1274 114.637 34.9812 452.062
1596 0 99.0877 13.9472 1382 114.293 34.7648 450.967
1597 0 101.237 13.5029 1367 115.576 33.992 451.898
1598 0 106.191 13.3156 1414 116.197 34.6902 449.663
1599 0 109.131 14.139 1543 113.158 35.2191 447.555
1600 0 113.138 13.3819 1514 115.95 34.7028 445.562
1601 0 115.137 12.3766 1425 111.58 35.0568 447.689
1602 0 118.333 14.0958 1668 116.264 36.2578 445.49
1603 1 66.4586 11.1799 743 117.841 35.8708 469.786
1604 0 66.1886 11.9809 793 114.308 36.3102 463.673
1605 0 67.1272 12.2305 821 115.815 36.2509 461.423
1606 0 68.201 11.0409 753 107.789 36.0066 462.133
1607 0 73.1225 11.1457 815 106.389 35.6258 462.578
1608 0 74.2357 10.8304 804 108.674 35.9565 458.54
1609 0 75.1239 10.4627 786 109.337 35.9262 460.408
1610 0 78.1813 11.7931 922 108.204 35.0553 458.152
1611 0 81.2074 12.5604 1020 107.731 35.3049 456.401
1612 0 83.1853 12.5383 1043 108.839 36.0566 454.878
1613 0 86.1329 11.6796 1006 110.546 35.4364 455.853
1614 0 87.1591 12.8845 1123 111.143 35.2199 449.984
1615 0 91.272 11.6903 1067 112.785 36.0759 451.723
1616 0 94.2299 13.0213 1227 110.447 35.2779 450.239
1617 0 96.2273 12.4601 1199 112.18 35.2719 449.384
1618 0 102.252 12.7235 1301 109.062 35.8148 449.663
1619 0 103.364 12.5189 1294 112.206 36.0348 443.674
1620 0 107.317 13.1107 1407 111.504 35.688 443.706
1621 0 110.245 12.9893 1432 111.55 35.8247 442.765
1622 0 112.257 12.2308 1373 113.278 36.0881 440.919
1623 0 113.189 12.0506 1364 114.598 36.0799 440.41
1624 0 120.237 13.4734 1620 112.289 36.058 437.283
1625 0 122.158 11.4606 1400 117.009 35.3264 435.374
1626 0 128.245 12.9128 1656 115.217 35.4783 434.039
1627 0 133.159 11.8881 1583 118.978 35.796 428.852
1628 1 78.1699 11.0529 864 113.306 35.1215 458.307
1629 0 81.0781 12.1858 988 112.196 33.9281 457.461
1630 0 81.0984 11.2949 916 116.318 33.905 455.064
1631 0 86.0914 11.8246 1018 114.382 33.4725 455.255
1632 0 89.059 12.9802 1156 110.966 33.5779 453.522
1633 0 92.0908 13.3129 1226 111.176 33.6827 451.814
1634 0 92.0853 12.9011 1188 113.889 33.6136 450.08
1635 0 98.0966 12.8445 1260 113.233 33.6627 447.604
1636 0 101.149 13.2378 1339 112.376 33.8499 447.066
1637 0 104.153 13.2306 1378 111.56 33.7373 447.178
1638 0 107.211 13.4314 1440 111.722 34.5597 443.334
1639 0 110.227 13.9258 1535 110.272 34.901 442.836
1640 0 114.28 13.4057 1532 111.109 34.3401 438.033
1641 0 116.323 13.3077 1548 112.805 34.8017 436.458
1642 0 120.297 14.5473 1750 110.183 34.3051 434.065
1643 0 125.453 13.6147 1708 111.674 35.2254 432.112
1644 1 67.3465 9.59219 646 109.551 34.0495 462.396
1645 0 70.128 9.68229 679 108.574 34.4256 460.022
1646 0 75.2165 11.5932 872 106.667 35.2385 463.891
1647 0 77.1383 12.2766 947 105.9 35.0127 463.241
1648 0 78.1766 11.1159 869 110.6 34.9942 460.072
1649 0 82.2137 11.3241 931 110.22 35.3663 460.502
1650 0 85.2072 11.431 974 110.973 35.6561 460.666
1651 0 87.2804 12.1906 1064 113.209 35.2594 454.914
1652 0 88.1599 12.9084 1138 112.459 34.8383 454.178
1653 0 93.1921 12.0718 1125 115.829 34.5102 453.011
1654 0 94.1069 11.6888 1100 118.592 34.4455 453.139
1655 0 98.1182 12.1282 1190 117.874 33.6849 452.318
1656 0 102.14 12.1304 1239 119.414 34.707 448.717
1657 0 104.196 12.2941 1281 119.907 34.4731 446.722
1658 0 109.139 12.5345 1368 120.18 34.4898 445.87
1659 0 113.099 12.6792 1434 120.807 34.4358 442.968
1660 1 61.0806 10.478 640 113.388 34.7766 471.058
1661 0 64.047 11.3979 730 112.262 35.3466 468.83
1662 0 67.1039 12.8458 862 118.136 34.4095 468.345
1663 0 69.048 12.7882 883 116.804 33.8596 467.673
1664 0 71.1138 13.3167 947 114.006 34.0486 466.692
1665 0 74.1096 13.453 997 114.247 34.4634 465.403
1666 0 76.1326 12.3337 939 117.36 34.4995 464.65
1667 0 77.0808 13.5831 1047 115.328 34.4021 462.404
1668 0 81.1028 13.0328 1057 115.967 33.755 461.803
1669 0 80.0621 11.8158 946 121.353 33.2801 461.49
1670 0 84.051 12.659 1064 118.381 33.6579 459.084
1671 0 88.0641 12.9905 1144 116.917 33.2596 459.006
1672 0 90.102 13.5513 1221 115.369 33.8165 458.303
1673 0 94.1095 14.3875 1354 114.66 34.2799 455.578
1674 0 96.0701 13.4173 1289 118.071 34.1808 454.939
1675 0 100.117 13.654 1367 115.65 33.8778 451.396
1676 0 103.088 13.8717 1430 115.622 33.8056 451.392
1677 0 107.169 13.8846 1488 115.104 34.3784 450.24
1678 0 109.146 12.7444 1391 117.999 34.3293 447.478
1679 1 61.0655 12.1345 741 117.687 34.7152 470.625
1680 0 63.0313 12.7714 805 115.379 34.0161 471.554
1681 0 62.1406 11.8924 739 120.147 35.4303 470.138
1682 0 64.0524 11.6467 746 120.055 33.7949 467.574
1683 0 66.1027 12.2234 808 117.731 34.0903 468.322
1684 0 69.1059 13.8338 956 114.013 33.8044 465.953
1685 0 71.139 12.9465 921 115.764 33.8882 465.206
1686 0 74.0935 12.8351 951 115.89 34.0326 466.585
1687 0 75.164 13.3176 1001 115.827 33.5814 465.641
1688 0 77.0629 13.3138 1026 117.905 34.0906 461.901
1689 0 79.097 12.7438 1008 120.101 34.3373 463.07
1690 0 81.1024 12.6507 1026 121.264 34.3148 460.669
1691 0 85.1748 13.3608 1138 118.889 33.9736 459.882
1692 0 87.0979 13.4332 1170 119.28 34.4479 460.032
1693 0 89.1316 13.6876 1220 119.32 34.3066 454.822
1694 0 92.078 13.3691 1231 121.128 34.2884 457.208
1695 0 95.1564 13.5671 1291 121.818 35.2316 455.775
1696 0 98.156 14.0796 1382 122.279 34.8386 452.365
1697 0 100.163 12.9489 1297 124.877 35.5705 453.367
1698 0 103.188 13.4221 1385 125.606 35.7487 451.098
1699 0 107.282 13.7581 1476 125.271 36.0346 449.841
1700 0 109.203 13.1407 1435 128.144 35.7296 447.666
1701 0 113.315 14.2523 1615 125.143 35.9381 445.751
1702 0 115.475 13.5613 1566 126.995 36.1277 444.696
1703 0 116.13 12.3568 1435 129.383 35.6523 440.512
1704 0 122.183 13.9791 1708 121.043 34.9362 433.006
1705 0 126.302 12.8423 1622 121.583 35.4026 433.843
1706 0 131.248 12.1373 1593 116.742 35.6077 429.728
1707 1 76.2683 11.0269 841 115.155 35.5933 461.881
1708 0 76.1481 10.7948 822 112.819 36.0633 460.816
1709 0 80.1993 11.434 917 109.766 35.1723 463.585
1710 0 82.1468 12.3803 1017 110.405 35.4887 458.069
1711 0 87.3763 12.0742 1055 109.373 35.8967 459.193
1712 0 87.2482 11.9429 1042 111.13 35.9683 456.917
1713 0 90.1767 12.1096 1092 111.952 36.0971 455.027
1714 0 94.2309 12.6816 1195 110.135 36.4527 453.865
1715 0 96.141 13.1578 1265 110.275 35.3755 451.74
1716 0 95.1536 9.72112 925 119.724 36.387 448.616
1717 0 100.231 11.5334 1156 115.964 35.7111 447.703
1718 0 104.29 11.1228 1160 116.632 35.6414 450.259
1719 0 109.161 12.7151 1388 113.553 35.6117 447.778
1720 0 112.158 12.8925 1446 113.663 35.6224 444.892
1721 0 116.257 12.4638 1449 113.969 35.2443 444.039
1722 0 118.34 12.9457 1532 114.389 35.7963 440.702
1723 0 123.253 12.6245 1556 114.224 36.0296 438.317
1724 0 126.346 11.7692 1487 115.877 35.4633 434.539
1725 1 73.2402 11.4418 838 108.699 35.5752 467.857
1726 0 78.2551 13.111 1026 111.081 35.2105 463.556
1727 0 80.2086 13.2405 1062 111.562 35.3399 461.535
1728 0 81.1957 12.747 1035 105.22 35.3459 462.246
1729 0 84.2013 11.8763 1000 108.241 35.374 457.804
1730 0 85.2247 12.3673 1054 107.474 35.6698 457.35
1731 0 90.2494 13.4405 1213 104.939 35.7683 454.284
1732 0 95.1972 13.3827 1274 104.676 35.4419 454.338
1733 0 95.1837 12.0084 1143 109.457 35.3526 452.695
1734 0 96.1988 13.1291 1263 108.971 35.5883 450.88
1735 0 100.258 11.5602 1159 112.186 35.0906 449.746
1736 0 104.203 13.0131 1356 109.722 35.3031 445.284
1737 0 107.212 12.6665 1358 111.911 35.0552 445.421
1738 0 110.215 13.0745 1441 109.917 35.4337 446.036
1739 0 115.41 13.1098 1513 110.385 35.2181 442.073
1740 0 119.297 12.6323 1507 114.079 35.718 441.062
1741 1 66.1348 11.8243 782 105.152 34.7852 470.706
1742 0 67.1995 11.1459 749 108.864 36.5501 468.979
1743 0 70.1813 12.7242 893 114.148 37.1657 464.685
1744 0 72.2121 13.7927 996 111.773 36.5853 463.581
1745 0 74.2488 13.0642 970 113.171 36.2165 463.173
1746 0 79.2015 12.929 1024 111.731 36.1348 465.438
1747 0 80.1804 13.4197 1076 112.046 35.8318 461.836
1748 0 83.1528 13.4451 1118 112.638 36.0313 461.107
1749 0 86.1937 15.2099 1311 108.372 35.9466 460.86
1750 0 87.1227 13.3375 1162 114.728 35.1196 459.429
1751 0 91.1397 15.2732 1392 110.605 34.6889 458.467
1752 0 93.1049 13.705 1276 116.374 35.5008 456.733
1753 0 95.1249 12.9724 1234 118.587 35.218 457.834
1754 0 99.2409 15.3465 1523 115.146 35.2397 453.711
1755 0 100.291 13.6602 1370 121.35 35.808 453.555
1756 0 102.194 13.5136 1381 122.594 35.3295 451.603
1757 0 106.186 14.7101 1562 119.832 35.8329 451.27
1758 0 109.338 13.8378 1513 125.995 34.9914 448.933
1759 0 110.245 14.0142 1545 126.965 34.8382 447.542
1760 0 118.396 14.3839 1703 124.697 35.4492 445.223
1761 0 121.349 14.1987 1723 125.694 34.5659 444.512
1762 0 122.322 14.1103 1726 126.423 34.8071 440.871
1763 0 125.253 12.3909 1552 124.878 35.3061 442.528
1764 0 131.35 13.6048 1787 123.613 35.2037 436.173
1765 1 72.37 10.6812 773 120.041 34.6934 465.928
1766 0 76.2423 11.4897 876 117.473 35.5685 465.42
1767 0 78.2927 12.8748 1008 114.409 35.0813 462.13
1768 0 79.3205 11.3212 898 113.771 35.4332 461.027
1769 0 81.211 11.858 963 113.298 35.6636 460.417
1770 0 85.4007 11.9671 1022 111.872 36.1389 461.451
1771 0 88.2425 11.9784 1057 113.024 35.9044 457.201
1772 0 92.2337 12.3491 1139 111.59 35.9113 457.165
1773 0 94.3461 12.9947 1226 111.323 36.5889 457.401
1774 0 99.3471 12.6929 1261 112.732 35.7835 455.102
1775 0 101.25 13.1457 1331 113.577 35.9752 452.252
1776 0 105.222 13.0486 1373 114.179 36.1289 451.645
1777 0 107.412 12.317 1323 118.658 35.0839 449.647
1778 0 107.101 12.4462 1333 119.812 35.7097 450.131
1779 0 113.182 12.555 1421 119.626 36.5454 448.858
1780 0 117.325 13.5009 1584 116.305 36.5328 446.777
1781 0 119.209 12.5829 1500 120.445 36.942 444.007
1782 1 65.2573 11.447 747 119.938 36.8474 472.91
1783 0 68.2741 12.567 858 117.195 37.2995 469.939
1784 0 69.1074 12.9074 892 117.341 36.9058 470.377
1785 0 71.1236 13.8491 985 122.029 36.7127 467.974
1786 0 73.1986 14.5358 1064 122.024 37.1109 466.418
1787 0 75.2808 13.6423 1027 124.36 37.3486 464.521
1788 0 79.1748 13.8933 1100 123.41 36.0764 460.927
1789 0 80.2581 14.7275 1182 121.065 36.033 460.788
1790 0 82.2474 14.0187 1153 123.676 35.7329 460.744
1791 0 83.2311 12.6275 1051 127.945 35.2112 457.248
1792 0 87.2726 13.7615 1201 124.224 34.9001 460.097
1793 0 90.2342 13.8528 1250 124.675 35.5504 457.392
1794 0 92.3486 14.337 1324 124.106 34.9834 454.663
1795 0 96.3752 15.2321 1468 121.832 35.1144 453.495
1796 0 98.4046 14.7554 1452 124.213 35.0475 449.787
1797 0 103.374 14.1912 1467 121.43 35.4676 453.326
1798 0 103.122 13.1397 1355 122.369 34.848 450.661
1799 0 108.288 13.7504 1489 120.59 35.4137 447.749
1800 0 112.281 13.5552 1522 120.198 36.1564 451.269
1801 0 114.333 14.2653 1631 120.108 35.3372 445.454
1802 0 117.391 13.9022 1632 122.372 35.8192 445.248
1803 0 119.435 12.9694 1549 125.644 35.9619 445.903
1804 0 124.653 14.0871 1756 123.728 35.4653 441.968
1805 1 68.2979 12.7969 874 119.881 35.3364 470.189
1806 0 70.1139 12.3941 869 121.589 34.7894 469.086
1807 0 71.1272 12.6534 900 121.267 35.54 467.338
1808 0 74.1966 13.4642 999 120.585 35.5526 466.429
1809 0 78.1765 14.3521 1122 114.996 35.5205 463.802
1810 0 80.2187 13.7748 1105 116.457 35.3747 463.228
1811 0 82.1787 12.9839 1067 118.15 35.6336 462.178
1812 0 87.1902 13.7286 1197 116.256 35.6048 460.317
1813 0 89.2247 13.494 1204 118.976 35.3547 457.92
1814 0 92.1326 13.0356 1201 120.336 35.2789 458.362
1815 0 95.3391 13.4992 1287 120.153 34.9138 455.636
1816 0 97.1794 14.3137 1391 118.633 35.0137 454.781
1817 0 101.244 13.1465 1331 121.601 35.1473 453.058
1818 0 104.265 13.3697 1394 121.567 35.1944 451.626
1819 0 109.278 12.9028 1410 121.799 34.8284 450.205
1820 0 112.243 14.3884 1615 118.118 35.1585 449.573
1821 0 115.255 14.0558 1620 119.759 35.3111 445.318
1822 0 119.268 13.9518 1664 120.307 35.268 443.181
1823 0 122.325 13.0554 1597 122.774 35.4934 442.594
1824 0 127.402 14.9134 1900 118.204 35.7332 437.81
1825 0 131.389 14.2935 1878 119.93 35.2561 437.258
1826 0 134.394 14.2417 1914 120.936 35.5031 434.3
1827 0 139.327 13.8236 1926 122.06 34.8229 432.92
1828 0 144.323 14.1627 2044 120.325 35.6037 430.883
1829 0 148.504 13.6023 2020 123.224 35.8054 426.979
1830 0 153.434 14.7229 2259 118.996 34.9721 425.024
1831 0 158.373 15.1036 2392 116.1 34.7613 423.169
1832 0 164.365 15.1188 2485 120.254 34.7823 416.992
1833 1 90.4269 12.1756 1101 124.317 34.901 455.556
1834 0 91.2299 12.4192 1133 126.756 34.8147 453.907
1835 0 95.2597 13.7834 1313 124.662 34.8248 452.228
1836 0 97.3691 12.5707 1224 128.958 35.3775 450.767
1837 0 101.501 12.719 1291 128.471 35.5081 448.028
1838 0 104.451 13.9013 1452 126.499 35.0034 445.534
1839 0 108.359 13.3999 1452 127.841 35.8581 443.208
1840 0 112.43 14.5513 1636 124.435 35.6388 441.936
1841 0 115.39 13.216 1525 129.355 35.5692 438.963
1842 0 119.375 13.3026 1588 129.098 35.3948 437.29
1843 0 123.525 13.7462 1698 128.299 36.0171 437.008
1844 0 127.371 13.7394 1750 129.774 35.4023 434.15
1845 0 131.413 13.5831 1785 129.348 34.921 433.57
1846 0 137.29 14.2764 1960 127.523 35.3531 427.973
1847 0 143.658 14.7573 2120 124.31 35.1005 425.283
1848 1 82.5196 12.5425 1035 119.857 34.3082 459.077
1849 0 83.7718 13.3458 1118 118.974 34.949 456.572
1850 0 87.48 12.9515 1133 119.615 35.1121 460.12
1851 0 89.3674 12.8906 1152 120.075 35.7378 454.07
1852 0 92.4139 12.9959 1201 119.326 35.3555 455.774
1853 0 96.5141 13.2416 1278 119.812 35.9499 451.445
1854 0 100.484 12.8479 1291 120.921 35.6204 450.662
1855 0 104.594 12.8784 1347 120.984 35.3133 448.48
1856 0 106.476 13.3551 1422 119.321 35.102 447.068
1857 0 107.693 12.3592 1331 123.432 35.5109 443.844
1858 0 112.792 13.1569 1484 120.78 34.9441 442.963
1859 0 117.652 13.2085 1554 120.573 34.9717 441.064
1860 0 120.932 13.2719 1605 121.133 34.8729 439.547
1861 0 122.629 12.1015 1484 125.742 35.4832 438.03
1862 0 128.916 14.3271 1847 120.367 35.6448 436.753
1863 0 130.781 13.3658 1748 124.38 35.7025 433.898
1864 1 75.8533 12.1287 920 125.585 36.1598 460.335
1865 0 78.6924 13.0254 1025 122.749 35.6849 461.513
1866 0 80.2286 13.5986 1091 122.951 36.9945 459.906
1867 0 83.139 14.0006 1164 121.068 36.5438 460.479
1868 0 85.1755 13.4194 1143 122.528 36.7384 459.54
1869 0 87.161 12.9875 1132 125.277 37.1864 456.966
1870 0 89.18 12.4243 1108 126.59 37.2843 454.892
1871 0 95.1105 13.2162 1257 123.521 36.7963 453.751
1872 0 97.2218 12.8263 1247 121.7 36.5533 453.762
1873 0 100.14 12.5823 1260 123.031 36.3016 450.125
1874 0 104.226 13.7297 1431 120.082 36.0328 446.679
1875 0 107.294 13.71 1471 120.321 35.6424 445.321
1876 0 110.142 13.0832 1441 122.173 35.7571 445.592
1877 0 115.251 13.8393 1595 119.294 35.5442 443.369
1878 0 116.199 13.8383 1608 120.531 35.5037 441.468
1879 0 120.339 14.1516 1703 118.637 35.7587 436.782
1880 0 123.317 13.5504 1671 121.048 35.6972 435.095
1881 0 128.448 14.1925 1823 119.423 35.9194 434.427
1882 0 132.475 14.0252 1858 120.224 35.9629 432.055
1883 0 136.361 14.2709 1946 119.511 36.2523 428.229
1884 0 142.429 15.2988 2179 116.752 35.5792 426.222
1885 0 146.511 13.6918 2006 120.385 35.7787 425.377
1886 1 80.1951 12.1329 973 122.975 36.1686 457.252
1887 0 83.2733 12.2488 1020 123.832 36.4804 453.62
1888 0 89.3374 14.8762 1329 115.231 36.076 452.872
1889 0 91.1557 13.3617 1218 119.424 36.3227 452.639
1890 0 90.1426 12.2473 1104 120.973 35.8542 449.26
1891 0 97.2474 13.3782 1301 117.588 35.2736 449.334
1892 0 98.1778 13.2413 1300 120.542 36.1815 446.665
1893 0 100.28 13.3925 1343 120.308 35.4512 447.71
1894 0 105.171 13.1596 1384 121.523 35.5845 443.677
1895 0 109.214 13.7711 1504 119.61 35.5226 441.333
1896 0 109.276 13.4522 1470 121.963 34.9354 440.963
1897 0 114.346 14.1763 1621 120.275 34.7687 440.917
1898 0 115.185 12.6492 1457 125.076 35.5264 440.677
1899 0 121.378 13.4868 1637 123.665 35.1387 437.606
1900 0 125.159 14.126 1768 123.162 35.3371 434.113
1901 0 129.428 13.7374 1778 123.111 35.1502 434.654
1902 0 132.399 13.1421 1740 125.613 35.5529 431.303
1903 0 139.307 13.5312 1885 124.431 35.3056 427.288
1904 0 141.278 14.5175 2051 122.032 35.3871 427.383
1905 0 147.356 14.4344 2127 122.467 35.5675 423.049
1906 0 152.458 13.1971 2012 125.187 35.3424 422.493
1907 0 157.368 13.7322 2161 123.984 35.1425 417.628
1908 0 164.48 14.4638 2379 121.695 34.8768 413.88
1909 1 92.2729 11.8236 1091 124.911 36.1302 448.389
1910 0 98.2139 12.5542 1233 120.23 36.0381 446.728
1911 0 101.274 14.5151 1470 115.018 36.5918 443.469
1912 0 102.252 14.0339 1435 116.831 36.3833 443.975
1913 0 107.171 14.0803 1509 116.505 35.8648 441.065
1914 0 111.201 14.5862 1622 114.644 35.389 435.678
1915 0 114.266 14.2038 1623 114.842 34.9113 438.712
1916 0 115.219 13.3832 1542 118.451 35.5318 434.278
1917 0 121.254 13.2697 1609 118.027 35.2778 434.617
1918 0 125.238 12.8236 1606 118.502 35.7976 433.392
1919 0 128.197 13.2453 1698 117.867 36.1702 430.252
1920 0 135.234 13.7392 1858 114.854 36.2234 427.409
1921 0 137.445 12.485 1716 118.448 35.8829 426.591
1922 1 78.2014 11.4704 897 119.012 36.7124 453.298
1923 0 82.2479 13.7754 1133 114.479 36.5993 454.552
1924 0 85.1674 12.9744 1105 116.44 36.1095 451.983
1925 0 87.2594 14.4741 1263 112.843 36.0111 449.481
1926 0 89.348 13.1396 1174 117.088 36.506 446.704
1927 0 93.3326 14.0251 1309 113.4 35.8411 445.105
1928 0 96.242 13.4868 1298 115.19 35.8259 442.475
1929 0 100.288 14.1992 1424 113.188 36.1285 439.57
1930 0 103.276 14.1853 1465 113.517 36.8082 439.36
1931 0 105.312 13.5692 1429 117.348 36.4493 438.666
1932 0 110.307 14.9492 1649 115.611 36.0018 436.623
1933 0 113.242 13.6433 1545 120.505 35.9437 433.387
1934 0 115.198 13.9499 1607 120.698 35.6005 434.217
1935 0 120.231 14.364 1727 120.203 35.4134 431.904
1936 0 125.359 14.8215 1858 118.192 35.5409 430.402
1937 0 127.163 14.2337 1810 120.593 35.4359 426.829
1938 0 131.164 13.7309 1801 123.043 35.342 424.398
1939 0 136.189 14.6782 1999 120.847 35.4877 422.608
1940 0 139.148 13.4892 1877 125.07 34.8791 420.851
1941 0 145.343 14.8201 2154 121.451 34.2456 419.465
1942 0 148.325 14.5424 2157 122.998 34.3755 415.638
1943 0 150.254 13.537 2034 126.753 34.9484 414.997
1944 0 156.349 13.9879 2187 126.552 35.3969 410.169
1945 0 161.576 13.3621 2159 127.44 35.7082 408.609
1946 0 169.572 14.3774 2438 123.838 35.8097 406.473
1947 0 172.348 12.4225 2141 129.879 35.8463 401.496
1948 1 104.378 12.4069 1295 119.222 35.4772 439.82
1949 0 108.335 12.5167 1356 119.027 35.7588 438.597
1950 0 110.374 13.3183 1470 117.749 35.4259 440.04
1951 0 113.304 14.1037 1598 114.989 35.4406 437.615
1952 0 116.412 13.521 1574 117.833 35.1099 431.744
1953 0 118.343 12.1764 1441 122.913 34.8758 429.902
1954 0 123.482 13.3299 1646 119.108 35.3858 429.183
1955 0 123.242 11.8061 1455 124.968 34.7739 425.567
1956 0 129.361 12.4844 1615 122.718 34.831 423.274
1957 0 134.371 13.098 1760 120.422 34.8438 422.974
1958 0 135.465 13.0513 1768 122.16 34.7811 417.564
1959 0 143.346 13.736 1969 118.071 35.8476 419.052
1960 0 148.351 12.9288 1918 120.774 35.6345 413.948
1961 0 152.437 12.9889 1980 120.497 35.746 411.293
1962 0 155.422 12.6945 1973 121.641 35.5256 408.983
1963 0 163.327 12.9189 2110 122.197 35.3047 406.885
1964 0 170.425 14.2995 2437 117.5 35.3882 406.341
1965 0 173.393 12.8955 2236 120.899 34.962 402.496
1966 0 179.569 14.0114 2516 119.601 35.1149 398.901
1967 0 184.607 13.9756 2580 121.179 34.781 396.686
1968 0 191.414 13.0973 2507 122.824 35.438 391.604
1969 0 196.552 14.4135 2833 116.699 35.2729 390.518
1970 0 201.497 13.3699 2694 116.704 35.5033 388.341
1971 0 207.48 12.3241 2557 120.602 35.1134 384.497
1972 0 218.444 13.7152 2996 116.849 35.3014 376.968
1973 1 154.455 12.1265 1873 117.125 35.7064 412.867
1974 0 160.509 13.6005 2183 113.76 35.4966 407.18
1975 0 163.317 12.4666 2036 116.908 34.861 405.332
1976 0 169.269 12.9143 2186 114.59 35.425 402.721
1977 0 176.458 13.4876 2380 113.05 35.466 398.924
1978 0 182.596 13.4504 2456 112.833 35.5334 392.018
1979 0 190.605 14.1602 2699 111.109 35.4472 392.539
1980 0 194.404 13.2765 2581 113.723 34.7726 386.275
1981 0 202.728 13.9547 2829 112.268 35.4896 386.698
1982 0 208.424 14.2354 2967 112.483 35.3718 382.118
1983 0 217.597 14.196 3089 112.038 35.4552 381.45
1984 0 223.568 14.7696 3302 109.865 35.5563 378.152
1985 0 230.452 13.5864 3131 113.229 35.2715 376.721
1986 0 238.556 14.1518 3376 109.817 35.0435 374.178
1987 0 244.468 14.2104 3474 111.225 35.8731 369.846
1988 0 252.561 15.133 3822 109.273 35.9971 360.025
1989 0 256.398 13.483 3457 114.218 35.6699 350.607
1990 0 267.469 16.1215 4312 106.35 36.1289 357.033
1991 0 275.342 16.2562 4476 106.112 37.0056 354.765
1992 0 283.517 16.1225 4571 108.324 36.3052 344.142
1993 1 73.2286 10.5696 774 90.0258 37.6602 463.331
1994 0 76.2188 9.47273 722 92.2008 35.5402 463.492
1995 0 75.1623 11.3887 856 89.6005 34.4136 460.98
1996 0 78.2079 11.2393 879 90.7747 35.1536 460.249
1997 0 80.1836 11.0496 886 92.5824 34.8555 459.114
1998 0 83.1395 10.6448 885 93.8486 34.0734 455.249
1999 0 87.2339 10.81 943 90.3743 34.5196 452.013
2000 0 87.0832 10.0134 872 99.0975 35.9794 451.945
2001 0 87.1803 9.11903 795 103.489 36.8679 446.112
2002 0 90.2357 10.3285 932 100.78 36.7511 450.043
2003 0 94.3581 8.80687 831 104.718 36.9892 446.632
2004 0 95.3343 10.3635 988 100.419 35.8603 438.753
2005 0 104.311 13.6227 1421 89.7931 35.6418 430.557
2006 0 101.318 11.3208 1147 100.577 35.6321 430.545
2007 0 105.457 11.5023 1213 103.942 35.6579 441.951
2008 0 104.243 10.0055 1043 109.14 34.9597 438.715
2009 0 110.281 10.7634 1187 107.823 35.4869 439.944
2010 1 121.384 15.0926 1832 95.0928 35.2724 413.902
2011 0 121.207 15.0817 1828 99.349 34.7205 415.824
2012 0 120.461 11.7465 1415 109.721 34.8749 423.871
2013 0 125.531 12.0607 1514 108.272 35.3765 432.995
2014 0 127.447 12.2953 1567 109.466 34.9241 431.565
2015 0 129.618 13.4395 1742 105.359 34.8944 425.436
2016 0 134.728 14.4513 1947 103.339 34.8511 423.917
2017 0 137.279 12.9298 1775 108.201 35.0439 409.1
2018 0 143.316 14.8832 2133 103.33 35.4763 413.254
2019 0 145.314 13.1508 1911 109.677 35.5133 406.647
2020 0 149.4 13.5876 2030 108.078 35.6823 414.344
2021 1 87.2899 8.5806 749 99.267 35.8798 451.368
2022 0 92.2551 8.38978 774 100.199 35.8643 451.889
2023 0 92.204 9.99956 922 97.9577 36.1041 451.691
2024 0 95.5604 10.6215 1015 97.7113 36.0502 449.697
2025 0 97.2539 9.89163 962 99.1736 36.8815 453.341
2026 0 97.1814 10.3312 1004 100.04 36.9104 450.067
2027 0 99.1693 10.4569 1037 101.86 37.5121 445.864
2028 0 104.22 11.4373 1192 100.344 36.0956 446.978
2029 0 104.208 11.1988 1167 101.117 36.4584 446.886
2030 0 107.197 11.5862 1242 100.833 36.5129 447.347
2031 0 109.327 10.5647 1155 105.248 37.0909 439.536
2032 0 112.289 11.5862 1301 103.676 36.9201 441.657
2033 0 114.357 11.1668 1277 105.933 35.9859 439.005
2034 0 118.258 11.5511 1366 105.502 36.3141 439.652
2035 0 121.216 11.1042 1346 106.748 35.5067 439.418
2036 0 123.445 12.3861 1529 106.47 34.5919 437.044
2037 0 126.371 11.9647 1512 107.81 35.7176 434.851
2038 0 128.344 12.0302 1544 109.407 35.2189 430.347
2039 0 133.347 12.4187 1656 110.321 35.5676 431.315
2040 0 136.334 12.0513 1643 114.526 34.7511 428.071
2041 0 141.64 14.1344 2002 111.318 35.4431 427.136
2042 0 145.416 13.2379 1925 114.272 35.9184 426.5
2043 0 149.59 13.1827 1972 116.441 36.1075 420.965
2044 0 152.441 13.1527 2005 118.154 35.7541 418.859
2045 0 156.462 12.5206 1959 119.627 35.5242 416.665
2046 0 164.598 12.9771 2136 118.425 35.7088 416.262
2047 0 168.604 12.301 2074 120.681 35.9142 411.195
2048 0 175.504 13.2932 2333 118.193 35.877 409.711
2049 1 104.38 8.90016 929 115.763 35.6749 445.445
2050 0 108.39 11.228 1217 110.181 35.954 445.21
2051 0 110.361 11.5983 1280 110.822 35.6398 444.341
2052 0 114.224 10.5933 1210 113.852 36.3033 440.499
2053 0 118.445 12.1491 1439 109.684 35.9083 439.61
2054 0 121.234 11.8119 1432 111.478 36.2835 439.184
2055 0 124.245 12.2822 1526 111.67 36.3381 436.536
2056 0 127.146 12.82 1630 111.251 35.9258 433.356
2057 0 130.259 12.3677 1611 112.453 35.586 431.565
2058 0 135.283 12.4628 1686 111.612 35.5824 431.612
2059 0 139.328 12.8043 1784 111.162 35.3363 428.908
2060 0 142.465 11.638 1658 114.721 35.5066 424.663
2061 0 148.319 12.0349 1785 114.116 35.5804 422.644
2062 0 151.439 11.4435 1733 116.81 35.247 420.516
2063 0 155.362 12.3583 1920 113.745 35.8932 421.579
2064 0 160.31 11.7959 1891 116.325 35.8181 417.683
2065 0 164.276 11.8946 1954 117.371 36.3818 415.098
2066 0 166.374 12.2195 2033 117.968 36.2568 411.431
2067 0 173.391 13.3975 2323 115.056 36.7934 409.054
2068 0 178.377 12.9445 2309 116.549 36.5682 405.599
2069 0 181.363 12.6266 2290 117.842 36.0664 404.866
2070 0 188.572 12.7909 2412 119.133 35.789 401.573
2071 0 192.383 12.4283 2391 121.499 36.5462 395.743
2072 0 200.351 13.656 2736 118.979 35.5947 393.747
2073 0 208.326 14.6357 3049 115.641 36.0905 391.539
2074 0 211.324 12.611 2665 123.689 35.9782 384.427
2075 1 151.308 12.0417 1822 116.717 35.2667 425.739
2076 0 153.282 11.8279 1813 119.247 35.8919 418.887
2077 0 157.495 11.975 1886 120.573 36.1782 412.337
2078 0 163.495 13.5845 2221 115.872 35.5979 415.475
2079 0 167.529 12.571 2106 119.464 35.2246 414.215
2080 0 172.346 12.6548 2181 118.519 35.1674 412.274
2081 0 179.424 13.2313 2374 117.574 35.1929 407.213
2082 0 183.346 12.6755 2324 119.859 35.0258 403.955
2083 0 189.36 12.9489 2452 119.312 34.7753 394.832
2084 0 197.546 13.1767 2603 118.926 34.5674 398.769
2085 0 202.439 12.7594 2583 121.962 35.115 392.237
2086 0 207.518 13.0639 2711 120.966 35.5101 389.584
2087 0 214.633 12.6821 2722 122.459 35.2836 388.987
2088 0 221.88 14.0932 3127 119.944 34.9642 381.697
2089 0 228.063 14.1934 3237 119.367 34.8919 380.753
2090 0 233.814 13.4466 3144 123.017 34.9475 374.543
2091 0 241.932 14.1321 3419 120.654 34.5449 374.207
2092 0 246.882 12.5363 3095 126.03 34.6468 368.826
2093 0 256.723 14.1631 3636 122.435 35.1999 363.642
2094 0 264.478 13.6571 3612 124.373 34.3782 360.176
2095 1 205.538 12.0756 2482 123.241 34.3904 392.857
2096 0 210.818 11.5835 2442 125.516 34.4398 388.601
2097 0 213.577 11.607 2479 127.242 34.9189 382.473
2098 0 219.638 12.7938 2810 124.505 35.3445 382.158
2099 0 228.851 13.0871 2995 122.657 35.1436 384.172
2100 0 236.043 13.2603 3130 123.418 34.8652 374.664
2101 0 241.725 12.5473 3033 126.83 34.4461 367.922
2102 0 249.853 12.8716 3216 126.701 35.2917 364.33
2103 0 258.835 12.6953 3286 128.054 35.122 361.479
2104 0 267.686 13.075 3500 128.478 34.7017 353.07
2105 1 63.2699 11.5853 733 110.248 35.4447 461.269
2106 0 65.2382 11.8795 775 109.15 35.4271 460.895
2107 0 68.4237 12.1157 829 109.14 35.07 460.819
2108 0 71.4224 12.4471 889 107.335 35.6783 461.063
2109 0 69.4824 11.4417 795 113.331 35.3396 461.891
2110 0 71.6188 12.2314 876 111.749 35.5993 459.769
2111 0 70.4274 10.4505 736 118.041 35.6332 457.891
2112 0 72.6041 10.4126 756 116.997 35.9815 460.876
2113 0 77.651 11.2941 877 114.896 35.6522 457.838
2114 0 76.5068 10.9794 840 116.867 35.8155 456.224
2115 1 88.6999 15.4566 1371 101.425 35.709 448.015
2116 0 93.6362 13.7447 1287 102.911 35.432 444.747
2117 0 89.6465 13.2632 1189 108.441 35.1884 447.374
2118 0 87.5071 10.3306 904 119.169 35.1073 450.52
2119 0 97.5254 9.3309 910 118.185 35.544 452.391
2120 0 97.5738 14.3379 1399 107.952 34.8556 442.252
2121 0 99.7006 13.5506 1351 110.386 34.456 442.139
2122 0 100.721 12.9268 1302 114.791 34.1252 441.978
2123 0 103.687 13.4347 1393 114.413 34.7236 439.075
2124 0 105.568 12.409 1310 117.387 34.2649 437.851
2125 0 108.585 12.2669 1332 117.984 35.3146 438.601
2126 0 111.585 12.3314 1376 119.235 35.4571 434.689
2127 0 115.554 13.9675 1614 115.853 34.8804 432.921
2128 0 118.672 12.9685 1539 118.696 34.6199 431.89
2129 0 123.604 12.2326 1512 120.081 34.8505 432.132
2130 0 125.52 12.9063 1620 118.354 35.1698 431.769
2131 0 131.5 13.1939 1735 117.099 35.1066 429.186
2132 1 75.375 11.4096 860 127.084 34.7337 450.707
2133 0 78.2922 11.8147 925 123.492 35.1005 452.535
2134 0 81.4179 13.3877 1090 120.046 34.7349 449.401
2135 0 84.3715 14.0213 1183 117.163 34.7506 449.286
2136 0 85.3141 13.2334 1129 120.132 34.5554 449.707
2137 0 87.3576 14.0228 1225 118.774 34.8082 446.804
2138 0 89.5302 13.3139 1192 122.387 34.0998 443.978
2139 0 90.3483 13.3594 1207 123.068 34.6139 444.17
2140 0 96.263 13.6086 1310 121.918 34.5542 442.007
2141 0 97.2582 13.7778 1340 122.479 34.5701 441.38
2142 0 101.308 13.3652 1354 124.713 34.6433 438.776
2143 0 104.278 13.9914 1459 122.498 34.6408 437.815
2144 0 107.321 14.1631 1520 123.04 34.4691 435.42
2145 0 108.364 13.7592 1491 125.7 34.0919 433.372
2146 0 112.286 14.6858 1649 122.565 34.3208 431.753
2147 0 116.28 14.4221 1677 123.121 34.6148 430.798
2148 0 117.347 14.8363 1741 123.939 34.2165 427.62
2149 0 120.315 14.1877 1707 126.797 34.3984 426.242
2150 0 123.313 13.7536 1696 128.926 34.5861 423.037
2151 0 127.304 15.0899 1921 124.841 34.1838 423.996
2152 0 131.152 15.0208 1970 126.038 34.3254 418.739
2153 0 135.185 14.1954 1919 129.087 34.7264 416.094
2154 0 140.137 14.6071 2047 128.259 34.6619 417.214
2155 0 143.206 14.9924 2147 127.804 35.1714 416.918
2156 0 147.226 13.3197 1961 132.815 34.6527 414.636
2157 0 150.283 13.7541 2067 132.671 35.2037 410.194
2158 0 157.437 15.079 2374 128.216 34.9537 410.764
2159 0 160.354 14.1561 2270 132.014 34.8194 401.607
2160 0 164.285 13.0262 2140 136.009 35.3495 398.907
2161 0 164.328 13.6069 2236 134.921 35.1212 398.104
2162 0 174.388 14.2957 2493 131.626 35.089 395.71
2163 0 176.21 12.8597 2266 138.449 34.613 389.483
2164 0 174.379 13.6886 2387 136.043 33.863 387.17
2165 0 181.415 14.7893 2683 130.71 33.9985 384.696
2166 1 192.529 12.8397 2472 134.675 33.8228 383.244
2167 1 120.325 8.82612 1062 123.801 34.1299 424.287
2168 1 16.0333 4.11643 66 85.1515 36.7273 487.061
2169 0 10.0002 2.79993 28 86.6071 37.3571 492.393
2170 0 13.0009 2.15369 28 90.7143 37.3571 490
2171 0 16.0027 4.62421 74 92.8378 37.9054 488.865
2172 0 18.009 5.6083 101 90.4356 38.802 487.653
2173 0 11.0004 3.81803 42 88.7381 39.2143 492.69
2174 0 15.0065 6.26396 94 85.5851 38.4149 491.628
2175 0 19.0049 5.89321 112 90.2411 37.8036 487.589
2176 0 10.0013 3.99949 40 88.9 37.775 492.775
2177 0 11.015 3.54063 39 89.8462 38.5641 491.769
2178 0 11.0013 3.63593 40 88.85 38.6 491.95
2179 0 11.001 6.72667 74 87.5541 38.4459 492.392
2180 0 18.0053 6.22039 112 89.9554 38.5179 487.696
2181 0 13.0008 3.46133 45 92.3333 38.8222 490.556
2182 0 7.0013 3.57076 25 91.96 37.84 492.28
2183 1 20.0098 6.7467 135 89.1111 38.7111 488.185
2184 0 12.0031 6.49832 78 83.9103 38.7308 493.295
2185 0 14.0042 5.06992 71 89.831 38.338 490.817
2186 0 13.0167 2.30474 30 91.7667 38.2333 492.2
2187 0 16.0014 2.56227 41 93.8293 38.3171 491.683
2188 0 17.0084 7.11413 121 87.0413 38.7521 490.661
2189 0 16.005 3.12403 50 87.72 38.26 492.06
2190 0 14.0023 4.57068 64 90.125 38.25 491.578
2191 0 11.0055 3.7254 41 93.6098 38.6341 489.634
2192 0 18.0356 6.32083 114 93.3421 36.8158 488.623
2193 0 19.0966 7.75005 148 88.8446 36.7635 489.831
2194 0 16.0226 5.05536 81 95.3457 36.9012 488.951
2195 0 18.0013 6.72173 121 88.3223 37.7934 492.066
2196 0 18.0094 8.05137 145 88.3931 38.2552 490.959
2197 0 14.0231 4.92044 69 90.8986 38.3623 491.464
2198 0 13.0405 6.7482 88 90.1705 38.2045 492.227
2199 0 16.004 4.49888 72 91.2917 38.2361 492.208
2200 0 14.0395 5.41331 76 91.8289 38.6842 492.566
2201 0 19.0399 6.25004 119 92.2017 38.2353 488.361
2202 0 12.0004 1.66661 20 98.05 37.1 491.85
2203 0 14.0209 7.34617 103 91.233 38.1553 490.233
2204 0 14.0034 6.71264 94 90.8191 38.6809 489.968
2205 1 80.2628 12.5338 1006 92.4543 34.7833 442.392
2206 0 79.0832 11.8736 939 96.7796 35.8083 442.206
2207 0 79.1241 11.2355 889 99.6299 35.9123 442.395
2208 0 75.3016 8.43276 635 109.02 34.7512 439.956
2209 1 86.0537 7.62315 656 107.226 34.7439 443.316
2210 1 69.0992 5.35462 370 102.727 35.773 444.662
2211 0 72.055 2.78954 201 114.393 35.1144 439.199
2212 0 74.1088 4.14256 307 109.997 35.6873 443.287
2213 1 99.2983 8.05653 800 111.836 34.9062 429.229
2214 0 105.47 9.74689 1028 108.224 35.0973 437.629
2215 0 109.454 9.34638 1023 109.918 35.436 443.695
2216 0 112.27 10.644 1195 111.242 34.5782 443.515
2217 0 112.209 9.93685 1115 112.726 35.2682 429.165
2218 1 65.1622 8.79345 573 106.883 34.8674 453.928
2219 0 69.1951 9.40818 651 107.644 34.8264 460.08
2220 0 70.2608 10.6887 751 105.257 33.7337 465.177
2221 0 73.1803 11.1369 815 104.033 35.0393 460.755
2222 0 74.3151 11.2494 836 105.033 35 462.586
2223 0 77.2958 11.6565 901 104.27 34.3441 461.14
2224 0 75.2796 10.7599 810 109.079 34.8852 456.915
2225 0 76.2412 11.2406 857 109.054 34.5344 457.49
2226 0 79.2828 10.5319 835 109.802 34.9042 457.905
2227 0 81.204 12.4994 1015 106.29 34.9537 453.716
2228 0 81.1473 10.5118 853 112.92 35.1501 450.257
2229 0 85.1951 11.6439 992 109.917 34.9375 453.262
2230 0 87.1992 11.3992 994 111.894 34.4406 448.151
2231 0 87.2615 12.1359 1059 111.283 34.9868 448.938
2232 0 88.192 11.7471 1036 114.136 34.8002 447.66
2233 0 90.2267 11.8479 1069 115.647 35.0804 447.094
2234 0 92.2528 10.623 980 119.74 34.6041 445.158
2235 0 95.2167 11.2375 1070 118.819 35.0925 442.77
2236 0 99.3183 12.1126 1203 115.396 35.8495 445.643
2237 0 101.194 11.4533 1159 118.356 35.4892 442.064
2238 0 103.327 12.6298 1305 116.952 35.354 441.178
2239 0 107.466 13.2786 1427 115.605 35.5074 439.872
2240 0 108.401 11.6973 1268 121.053 34.877 441.221
2241 0 113.242 15.1092 1711 123.629 34.6271 440.29
2242 0 116.332 13.6249 1585 128.399 33.6139 438.585
2243 0 119.378 14.4666 1727 125.575 33.4424 437.35
2244 0 123.44 14.8251 1830 123.815 33.9372 434.884
2245 0 126.457 14.2499 1802 126.229 34.4168 431.214
2246 0 129.592 13.9052 1802 126.4 33.9906 431.658
2247 0 134.388 13.5205 1817 127.873 33.5938 423.33
2248 0 135.576 12.6571 1716 129.136 32.9918 426.551
2249 0 140.506 13.6934 1924 125.96 33.5203 423.325
2250 1 61.2114 11.8279 724 114.985 34.3688 463.725
2251 0 62.0412 11.4762 712 114.698 33.1924 464.538
2252 0 64.059 11.427 732 114.586 33.6667 464.787
2253 0 68.0917 12.7035 865 110.873 32.9792 465.329
2254 0 68.097 11.9682 815 114.417 33.3227 461.537
2255 0 69.0698 12.4367 859 113.2 32.5972 461.235
2256 0 70.0757 12.1868 854 115.119 33.3712 458.445
2257 0 74.1039 12.9548 960 111.944 33.8771 459.268
2258 0 76.102 13.114 998 112.064 33.4619 457.581
2259 0 77.0782 12.8571 991 113.737 34.2573 455.48
2260 0 79.1905 13.1581 1042 113.332 34.1017 455.955
2261 0 81.2076 13.0407 1059 114.798 33.7177 457.76
2262 0 84.2524 13.0441 1099 115.071 33.2721 457.775
2263 0 87.3199 13.5593 1184 113.604 33.5084 456.043
2264 0 87.2652 12.2386 1068 120.681 32.7996 454.93
2265 0 92.273 13.7744 1271 115.987 33.3902 456.054
2266 0 93.1218 12.3279 1148 120.76 33.0775 456.125
2267 1 53.1923 10.885 579 119.509 31.8014 479.136
2268 0 52.328 9.7271 509 118.263 31.9705 476.839
2269 0 56.3812 11.3513 640 115.388 32.1906 475.609
2270 0 59.315 10.3178 612 114.477 32.7778 479.4
2271 0 60.25 10.6556 642 115.397 32.3193 479.304
2272 0 62.246 11.1172 692 114.535 32.3757 478.941
2273 0 65.2998 11.0567 722 115.715 32.1814 477.965
2274 0 65.1751 10.8784 709 118.158 32.7969 476.127
2275 0 68.2181 11.5512 788 116.334 32.1104 476.405
2276 0 71.2661 12.1376 865 113.97 31.9746 477.09
2277 0 71.2133 12.596 897 115.097 31.7046 473.823
2278 0 71.209 11.3047 805 118.954 31.8174 473.642
2279 0 75.2056 12.5523 944 116.296 31.4809 473.354
2280 0 74.289 11.4149 848 122.125 30.9634 471.91
2281 0 76.2178 12.3068 938 119.591 31.2484 468.843
2282 0 78.1917 12.5333 980 118.435 30.6163 469.184
2283 0 81.1429 12.5827 1021 117.595 30.9961 467.601
2284 0 82.3854 11.519 949 119.87 30.4837 468.51
2285 0 86.2951 12.7122 1097 116.963 29.5242 464.308
2286 0 88.4624 12.9886 1149 116.264 29.7581 461.859
2287 0 90.4284 11.6335 1052 120.495 29.7272 459.779
2288 0 94.6202 11.8262 1119 119.078 28.9196 460.48
2289 0 97.1801 13.6139 1323 114.767 28.7218 461.721
2290 0 98.2135 12.1877 1197 118.399 28.4536 462.611
2291 0 103.494 12.8799 1333 116.433 28.6414 460.695
2292 0 105.322 13.6248 1435 115.333 28.9213 456.254
2293 0 111.308 12.3172 1371 116.624 28.7214 455.868
2294 0 112.412 11.7959 1326 118.969 29.8725 454.086
2295 0 118.278 12.0394 1424 117.624 29.8701 455.072
2296 0 120.459 12.386 1492 117.7 29.4779 452.874
2297 0 122.326 11.6982 1431 119.672 29.6534 452.18
2298 0 128.379 12.5644 1613 116.521 29.9802 448.706
2299 0 132.493 12.5667 1665 116.247 29.2462 447.477
2300 0 138.352 12.8658 1780 116.013 29.8438 444.607
2301 0 143.415 12.1536 1743 117.927 29.4607 437.271
2302 0 147.346 13.7364 2024 114.618 29.4926 434.115
2303 1 86.1476 12.2929 1059 105.991 29.3532 468.114
2304 0 87.1796 10.1744 887 109.983 28.2537 464.82
2305 0 91.1518 11.9581 1090 107.006 29.0193 465.486
2306 0 93.198 11.8457 1104 106.422 28.9004 461.111
2307 0 96.2922 11.6313 1120 106.279 29.0777 461.74
2308 0 99.3056 11.5905 1151 107.374 29.0252 457.416
2309 0 102.309 11.0058 1126 109.067 28.3472 456.2
2310 0 105.24 11.1459 1173 108.845 27.821 456.685
2311 0 110.281 13.1663 1452 104.152 28.4511 456.398
2312 0 114.257 12.927 1477 104.916 28.564 454.101
2313 0 119.468 13.3593 1596 104.402 28.0244 451.855
2314 0 122.378 11.7096 1433 107.8 29.4299 450.63
2315 0 123.281 12.4188 1531 108.93 28.6558 447.991
2316 0 128.412 12.7948 1643 108.439 28.9349 447.092
2317 0 132.379 11.9127 1577 109.867 28.7235 446.004
2318 0 137.578 12.2912 1691 108.954 28.0615 443.884
2319 0 140.376 12.6375 1774 108.218 27.9448 438.711
2320 0 147.412 13.7845 2032 105.866 28.7741 434.955
2321 1 80.4976 9.76427 786 104.564 29.1018 471.774
2322 0 85.3509 11.7163 1000 101.625 29.343 467.615
2323 0 88.2431 12.4316 1097 102.403 29.8514 468.348
2324 0 90.2386 12.9435 1168 103.875 30.9837 467.118
2325 0 90.4509 11.2658 1019 111.09 30.1884 464.175
2326 0 98.4039 13.0076 1280 106.175 29.6422 463.28
2327 0 98.4869 12.692 1250 108.831 30.576 463.018
2328 0 101.499 12.6209 1281 109.49 29.8041 461
2329 0 102.524 12.8556 1318 110.829 30.352 457.03
2330 0 107.555 12.6447 1360 111.097 29.6897 457.06
2331 0 112.413 13.3525 1501 110.268 29.8388 455.302
2332 0 115.343 14.2012 1638 109.197 29.7357 453.646
2333 0 118.497 11.9582 1417 112.583 29.6895 454.89
2334 0 120.299 11.9452 1437 114.418 29.6701 450.995
2335 0 125.45 13.057 1638 112.035 30.3877 448.322
2336 0 129.497 14.0158 1815 109.834 29.7736 446.692
2337 0 134.448 13.1426 1767 111.713 29.6672 443.685
2338 0 139.353 12.5294 1746 113.543 30.134 442.388
2339 1 75.2374 11.7894 887 108.795 30.8399 470.77
2340 0 77.447 12.5634 973 109.154 30.9949 468.244
2341 0 81.3331 11.582 942 113.827 30.483 468.138
2342 0 81.43 11.9366 972 114.827 30.4887 466.318
2343 0 85.3379 13.3587 1140 112.404 30.3211 465.751
2344 0 86.3407 12.4159 1072 115.22 30.5821 464.031
2345 0 89.3358 13.0519 1166 114.258 30.9571 462.684
2346 0 93.5668 13.3488 1249 114.135 30.8671 459.078
2347 0 97.4947 13.1084 1278 113.952 31.2105 459.646
2348 0 97.4258 13.4153 1307 114.382 31.0291 458.046
2349 0 101.409 12.1291 1230 117.721 31.6268 456.597
2350 0 104.372 13.1358 1371 116.103 31.0861 452.5
2351 0 107.271 13.1723 1413 117.256 31.6631 451.021
2352 0 110.315 13.4252 1481 116.002 31.6057 450.889
2353 0 112.275 14.42 1619 114.624 31.3243 446.857
2354 0 116.281 13.4244 1561 116.477 31.5061 445.463
2355 0 119.287 13.2621 1582 117.909 31.5563 443.805
2356 0 124.292 14.2567 1772 113.941 31.9622 441.108
2357 0 125.371 12.475 1564 118.973 32.6029 438.633
2358 0 132.323 13.195 1746 115.99 32.2016 438.166
2359 0 134.246 12.5144 1680 118.704 32.0262 438.524
2360 0 139.443 13.9842 1950 118.609 32.1697 430.993
2361 0 143.546 14.4065 2068 118.179 32.7007 430.102
2362 0 150.575 14.5243 2187 118.361 32.5889 427.779
2363 0 154.674 13.6739 2115 119.831 31.8794 421.591
2364 0 160.496 13.7013 2199 119.39 32.2478 422.491
2365 0 163.405 13.8674 2266 119.64 32.5141 418.164
2366 0 169.384 12.9174 2188 121.769 32.6088 416.01
2367 0 175.457 13.5304 2374 120.551 32.0632 413.016
2368 0 180.372 13.4833 2432 119.713 32.0683 413.263
2369 0 187.37 13.6201 2552 120.212 31.9667 405.908
2370 0 192.298 14.0927 2710 119.872 32.1284 403.088
2371 0 194.423 13.1518 2557 123.467 31.7321 400.74
2372 0 203.424 14.9393 3039 117.491 30.9819 400.563
2373 0 207.527 12.143 2520 125.102 31.7171 398.575
2374 0 215.499 13.6845 2949 122.397 31.4466 389.564
2375 0 223.67 14.3649 3213 120.575 31.6987 384.228
2376 0 230.654 13.7175 3164 122.395 32.494 383.731
2377 1 241.391 14.1182 3408 120.939 31.9331 377.689
2378 1 58.283 10.449 609 112.278 31.8752 467.312
2379 0 59.3505 10.3285 613 114.79 31.9755 468.728
2380 0 59.1373 11.6509 689 119.052 34.7242 469.081
2381 0 64.2021 13.3952 860 113.312 34.9837 466.153
2382 0 64.1005 13.1044 840 116.68 34.6631 466.033
2383 0 64.1057 11.871 761 122.162 34.8042 463.633
2384 0 66.0779 11.5016 760 123.809 34.5974 464.184
2385 0 69.1121 11.9516 826 122.674 35.0956 463.539
2386 0 72.2491 12.969 937 120.053 33.8175 464.114
2387 0 73.4718 11.746 863 124.419 33.6222 462.173
2388 0 76.2027 12.6767 966 122.419 33.6004 458.035
2389 0 76.2904 11.9674 913 124.065 33.5509 460.782
2390 0 79.2146 12.321 976 123.569 34.0697 460.057
2391 0 81.3406 12.6013 1025 123.671 34.039 456.822
2392 0 84.4589 13.0714 1104 122.325 33.567 453.692
2393 0 84.2882 12.3386 1040 126.753 33.425 451.074
2394 0 87.2345 11.3258 988 123.363 33.5415 454.127
2395 0 90.1805 13.2845 1198 118.89 33.4791 450.832
2396 0 89.121 11.7593 1048 123.843 34.063 449.833
2397 0 94.1909 12.4003 1168 120.975 34.0505 451.027
2398 0 95.1371 12.0247 1144 123.233 34.2124 445.626
2399 0 99.3238 11.7797 1170 122.83 34.594 444.468
2400 0 102.208 13.2768 1357 119.458 33.4164 440.211
2401 0 104.287 12.993 1355 121.508 33.6339 440.246
2402 0 108.23 13.2866 1438 119.736 33.8414 437.765
2403 0 109.304 13.0827 1430 122.168 33.8448 433.698
2404 0 114.383 13.0963 1498 121.416 33.8578 436.044
2405 1 66.0582 11.2779 745 123.008 35.2899 457.71
2406 0 69.1662 12.4049 858 120.318 34.62 455.657
2407 0 73.1954 13.2385 969 117.376 32.9732 462.194
2408 0 75.3227 13.024 981 118.803 33.4088 460.668
2409 0 76.1513 12.7115 968 121.115 32.1725 454.84
2410 0 77.2369 13.4003 1035 119.814 32.999 458.066
2411 0 80.2598 12.8209 1029 121.294 33.7473 454.954
2412 0 83.2465 11.9284 993 124.438 33.3172 453.103
2413 0 86.3106 13.1154 1132 121.238 33.2977 452.476
2414 0 87.2934 11.8451 1034 125.394 32.9516 449.657
2415 0 91.2368 10.5988 967 128.592 32.6846 447.699
2416 0 93.3554 11.8686 1108 125.427 32.4522 445.176
2417 0 96.3297 12.6441 1218 123.264 33.1905 442.539
2418 0 100.345 12.7261 1277 122.269 33.26 442.481
2419 0 104.377 12.5028 1305 122.781 33.2613 441.297
2420 0 108.31 13.2029 1430 122.039 33.5028 439.516
2421 0 108.339 12.9501 1403 123.986 33.6094 436.731
2422 0 111.403 13.0427 1453 122.788 33.3909 438.626
2423 0 116.358 13.6733 1591 120.893 33.6468 435.341
2424 0 119.377 13.6375 1628 121.596 33.5049 433.103
2425 0 120.421 12.8549 1548 124.492 33.5736 431.567
2426 0 122.242 12.9252 1580 124.453 33.4278 427.825
2427 0 129.353 12.7249 1646 123.604 33.5966 425.326
2428 1 58.1303 9.77116 568 106.15 34.5282 464.158
2429 0 58.2006 8.00679 466 113.217 34.882 462.661
2430 0 60.1906 10.9652 660 99.9091 33.8636 463.877
2431 0 62.0996 9.96785 619 102.897 33.8255 463.457
2432 0 64.122 9.37275 601 104.903 34.3378 463.067
2433 0 66.3063 11.5524 766 100.685 33.5 463.769
2434 0 67.1544 10.0961 678 104.426 33.4012 462.817
2435 0 68.1948 9.51686 649 107.359 33.681 459.24
2436 0 73.1527 10.4029 761 104.901 33.5637 461.763
2437 0 74.1168 10.2676 761 105.623 34.3771 459.56
2438 0 76.2804 10.3827 792 106.194 33.9053 457.487
2439 0 78.1593 11.2591 880 105.125 33.383 455.825
2440 0 81.1917 10.8016 877 106.023 33.8278 458.05
2441 0 84.2341 11.9904 1010 104.72 33.6703 455.771
2442 0 85.2114 11.4773 978 107.352 33.5869 453.733
2443 0 89.2429 11.8553 1058 106.625 34.069 453.076
2444 0 90.2511 11.1578 1007 109.986 34.1609 451.596
2445 0 96.3263 12.0839 1164 108.174 33.7474 451.182
2446 0 97.174 11.4743 1115 112.022 34.1937 449.769
2447 0 101.271 10.8126 1095 118.606 33.7461 446.944
2448 0 104.307 11.284 1177 116.603 33.6398 447.181
2449 0 106.554 12.0878 1288 115.643 33.6483 440.725
2450 0 109.281 12.198 1333 115.448 33.2558 441.608
2451 0 115.276 11.0083 1269 117.358 33.2372 441.089
2452 0 119.458 11.8619 1417 117.691 33.4975 437.559
2453 1 69.3022 9.10505 631 110.529 34.1807 463.084
2454 0 73.2423 10.7452 787 108.227 34.5794 461.614
2455 0 75.1168 12.4207 933 105.763 33.1018 462.875
2456 0 76.0405 12.204 928 108.189 33.0463 460.467
2457 0 79.1011 11.8709 939 109.332 32.4984 459.056
2458 0 81.21 11.5749 940 109.91 32.7606 461.061
2459 0 85.3427 12.3971 1058 108.197 32.621 459.46
2460 0 86.1978 10.8936 939 112.495 33.0096 457.457
2461 0 89.2163 11.9149 1063 111.068 33.4431 450.767
2462 0 90.2138 11.6058 1047 112.342 33.6141 454.757
2463 0 94.1748 11.5636 1089 116.121 32.4279 450.421
2464 0 96.1681 10.96 1054 120.49 33.3188 448.311
2465 0 101.191 12.8273 1298 115.893 33.4206 447.576
2466 0 100.151 10.2345 1025 123.618 33.8771 442.724
2467 0 105.124 12.2427 1287 117.529 33.7832 444.123
2468 0 108.161 11.6586 1261 119.177 34.1943 444.12
2469 0 112.198 12.7721 1433 117.134 33.4361 439.934
2470 0 114.433 12.2343 1400 119.179 33.7843 438.804
2471 0 119.325 12.8892 1538 117.105 33.2926 438.419
2472 0 123.506 13.9508 1723 112.847 33.6175 436.052
2473 0 124.565 12.7885 1593 117.121 33.3572 433.686
2474 0 125.309 12.8004 1604 118.901 34.0549 430.768
2475 0 130.407 13.7339 1791 117.228 33.3283 429.175
2476 0 134.312 13.8111 1855 115.353 33.5639 430.214
2477 0 138.359 12.959 1793 118.257 33.7479 427.765
2478 0 142.306 13.2602 1887 118.302 33.6974 427.201
2479 0 143.426 13.4076 1923 118.835 34.2501 425.165
2480 0 146.353 12.5108 1831 122.043 33.3381 423.967
2481 0 151.262 13.4138 2029 120.633 33.3504 417.785
2482 0 156.366 12.6498 1978 122.515 33.1881 417.999
2483 0 159.389 13.9658 2226 120.458 33.2987 414.378
2484 0 164.414 13.7397 2259 121.308 32.6742 413.858
2485 0 167.332 12.6455 2116 125.149 33.4981 410.77
2486 0 173.25 13.7951 2390 122.065 34.0674 408.792
2487 0 180.25 14.2802 2574 120.953 34.0917 406.34
2488 0 182.235 12.3631 2253 127.041 33.8757 404.868
2489 0 188.363 12.444 2344 128.185 34.2628 401.329
2490 0 195.43 12.4495 2433 127.011 33.6704 398.739
2491 0 200.464 13.1445 2635 126.252 34.0539 390.91
2492 0 208.38 13.0435 2718 126.552 33.9286 391.659
2493 0 213.338 12.6888 2707 127.695 33.628 387.315
2494 0 222.434 13.6265 3031 124.218 33.4738 384.813
2495 1 153.394 11.2064 1719 122.41 32.9267 419.964
2496 0 161.336 12.446 2008 121.192 33.5608 415.866
2497 0 163.175 13.3109 2172 121.079 33.0801 407.852
2498 0 165.165 12.5208 2068 125.757 32.9647 403.556
2499 0 173.358 14.5133 2516 120.313 33.5696 398.469
2500 0 176.41 12.5333 2211 126.793 32.9272 394.647
2501 0 186.394 13.5036 2517 122.15 33.6373 396.793
2502 0 193.584 14.7016 2846 119.878 33.6022 393.109
2503 0 195.376 13.9628 2728 122.051 33.6756 389.079
2504 0 201.377 13.944 2808 122.301 33.3661 385.302
2505 0 206.387 12.8012 2642 125.164 33.0363 383.251
2506 0 216.327 13.5073 2922 121.657 33.5034 379.538
2507 0 219.409 13.7552 3018 121.589 33.612 375.071
2508 0 226.437 13.3724 3028 122.853 33.3762 373.344
2509 0 235.33 14.8685 3499 117.973 33.6665 372.36
2510 1 269.354 8.07488 2175 129.965 33.6685 389.359
2511 1 175.232 12.4464 2181 125.916 33.3586 401.525
2512 0 183.222 13.5192 2477 123.139 33.3702 401.015
2513 0 189.369 12.9958 2461 126.032 33.4535 400.997
2514 0 196.492 13.8835 2728 123.94 33.8926 396.197
2515 0 199.342 13.0128 2594 127.228 33.9695 392.446
2516 0 208.357 13.8225 2880 126.435 33.7177 392.293
2517 0 214.376 13.9755 2996 126.571 33.8224 388.616
2518 0 221.355 13.1553 2912 129.316 34.0484 387.754
2519 0 228.676 13.2021 3019 129.061 34.1133 383.281
2520 0 235.577 12.7729 3009 130.072 34.4939 382.737
2521 0 245.571 14.0489 3450 125.553 34.7087 373.106
2522 0 251.668 13.2754 3341 127.532 34.8264 369.157
2523 0 261.608 14.1089 3691 125.094 34.6099 368.883
2524 0 259.527 10.8698 2821 132.722 34.9706 374.841
2525 0 260.659 10.6116 2766 130.033 34.6367 381.458
2526 0 259.742 10.3988 2701 133.245 34.9641 373.387
2527 0 257.643 9.32687 2403 131.639 35.5943 387.002
2528 1 226.631 11.6621 2643 125.756 35.5649 388.984
2529 0 234.705 12.7735 2998 128.214 35.2718 377.41
2530 0 243.574 13.2116 3218 127.438 35.3894 373.18
2531 0 250.778 12.6965 3184 126.315 35.1796 369.51
2532 0 258.668 11.6404 3011 127.356 34.4709 362.81
2533 1 77.1282 9.29621 717 114.181 37.0418 447.554
2534 0 79.1891 10.658 844 110.78 36.9787 450.148
2535 0 82.1543 9.85949 810 102.198 35.6716 454.598
2536 0 83.2521 8.32412 693 105.348 34.4055 454.544
2537 0 88.2946 11.2011 989 100.676 35.0243 450.198
2538 0 89.322 9.75124 871 104.389 35.1022 448.15
2539 0 93.2312 10.1146 943 104.804 33.8473 448.136
2540 0 95.2756 10.076 960 103.788 33.724 449.862
2541 0 96.1909 9.8658 949 106.54 34.1254 448.187
2542 0 99.3723 9.81159 975 108.816 33.7026 446.076
2543 0 103.349 10.6822 1104 108.194 34.3569 442.514
2544 0 105.333 10.9083 1149 109.547 34.3603 442.316
2545 0 113.57 13.6656 1552 100.263 34.962 435.915
2546 0 120.43 16.6237 2002 91.4401 34.6379 428.722
2547 1 134.33 18.5587 2493 85.4007 34.5844 427.006
2548 0 130.594 16.8921 2206 91.9447 35.0734 427.958
2549 0 132.439 18.4085 2438 89.329 34.8884 420.893
2550 0 130.384 14.3116 1866 103.488 34.2256 428.759
2551 0 132.595 16.1771 2145 100.171 34.4378 426.931
2552 0 137.286 17.0593 2342 100.041 34.5482 421.837
2553 0 132.287 14.6349 1936 110.994 34.6457 401.396
2554 1 78.0941 9.92393 775 108.488 34.231 431.468
2555 0 78.1564 10.543 824 107.459 35.2718 425.932
2556 0 80.244 10.6301 853 107.74 35.8242 434.001
2557 0 85.1418 10.923 930 105.56 35.7731 437.769
2558 0 84.1335 10.4001 875 107.433 35.7166 439.063
2559 0 86.1702 10.6069 914 108.521 35.4179 435.934
2560 0 91.0947 11.0654 1008 106.876 35.8403 441.055
2561 0 92.1256 10.7353 989 108.642 35.1416 440.049
2562 0 93.1126 10.6538 992 108.868 35.0867 441.686
2563 0 95.182 11.084 1055 110.158 35.0237 440.231
2564 0 96.1141 11.8817 1142 108.625 35.2478 445.711
2565 0 100.078 12.1405 1215 107.807 35.6033 444.572
2566 0 102.131 11.8279 1208 109.839 35.2715 441.942
2567 0 106.087 12.5746 1334 107.677 35.3426 441.192
2568 0 109.11 13.0328 1422 107.07 35.3052 439.325
2569 0 113.201 12.3674 1400 108.883 35.5257 437.466
2570 0 114.193 11.2354 1283 116.956 35.2557 433.85
2571 0 119.234 12.7564 1521 114.27 35.8895 434.843
2572 0 119.105 10.94 1303 121.684 36.2609 430.144
2573 0 123.211 12.0443 1484 119.332 36.1516 430.982
2574 0 127.19 11.9428 1519 120.756 36.2943 427.446
2575 0 133.316 12.4516 1660 117.707 36.3892 430.589
2576 0 133.277 11.9151 1588 119.957 35.5951 425.78
2577 0 136.265 12.6445 1723 118.867 35.0441 423.476
2578 0 142.156 14.2379 2024 113.479 35.252 423.62
2579 0 145.168 12.2341 1776 119.502 34.8553 419.523
2580 1 85.1662 11.8474 1009 107.25 35.0763 455.766
2581 0 86.2442 12.8357 1107 113.557 33.9783 455.309
2582 0 89.2079 13.575 1211 114.64 33.853 452.905
2583 0 90.0875 13.1539 1185 116.158 33.7004 453.077
2584 0 93.1907 14.0679 1311 113.982 34.4188 450.843
2585 0 97.1579 14.4404 1403 112.706 33.9615 447.071
2586 0 99.2373 13.11 1301 117.353 34.0215 446.032
2587 0 100.141 13.3112 1333 118.39 34.0773 446.557
2588 0 104.21 13.7511 1433 119.054 34.2931 444.502
2589 0 108.324 14.5582 1577 117.535 34.7134 440.1
2590 0 107.28 13.0407 1399 123.897 34.3245 439.376
2591 0 112.425 13.8226 1554 121.463 34.9337 438.734
2592 0 115.171 12.7637 1470 125.777 34.5544 438.172
2593 0 118.155 13.9478 1648 123.028 34.3161 436.194
2594 0 121.266 13.1859 1599 125.464 34.9006 432.059
2595 0 125.243 14.5637 1824 121.023 34.6557 431.54
2596 0 126.246 12.1192 1530 127.36 34.7007 429.156
2597 0 130.346 13.8325 1803 122.391 35.9473 427.602
2598 0 134.341 13.2796 1784 123.569 36.1155 425.463
2599 0 140.396 13.8893 1950 121.796 35.7241 422.749
2600 0 145.316 15.1256 2198 118.593 35.6137 422.777
2601 0 152.3 15.3513 2338 119.838 35.4607 418.115
2602 1 88.1465 8.63336 761 121.685 36.2746 454.627
2603 0 91.2683 10.113 923 109.508 36.1972 451.375
2604 0 94.1698 12.4137 1169 112.938 36.9649 446.965
2605 0 96.1653 13.0088 1251 111.137 36.9009 447.098
2606 0 98.1802 12.803 1257 112.492 37.2188 444.099
2607 0 103.121 13.0623 1347 111.313 37.1945 445.249
2608 0 104.193 12.9183 1346 113.017 36.9547 443.016
2609 0 105.169 13.1883 1387 113.609 36.6986 441.018
2610 0 110.11 13.3231 1467 113.613 36.3088 440.523
2611 0 113.147 12.4529 1409 120.212 36.489 441.698
2612 0 117.153 13.3159 1560 118.808 36.359 437.816
2613 0 120.195 13.2368 1591 119.662 36.2546 433.886
2614 0 123.213 13.7647 1696 118.662 36.2748 435.21
2615 0 127.26 12.777 1626 122.066 36.5707 432.073
2616 0 131.276 13.5897 1784 121.42 36.1407 432.831
2617 0 133.21 13.2873 1770 124.899 35.3989 425.594
2618 0 138.306 13.1375 1817 125.013 35.2603 425.637
2619 0 145.239 13.3366 1937 124.377 35.3382 425.588
2620 0 147.264 13.6694 2013 125.66 35.3219 423.665
2621 0 153.258 14.2766 2188 125.271 34.4205 421.351
2622 0 155.225 13.4708 2091 129.525 34.4835 417.833
2623 0 161.327 13.8167 2229 128.087 34.7672 417.408
2624 0 167.255 14.8755 2488 123.4 35.0084 412.626
2625 0 170.345 13.2907 2264 128.008 34.2019 411.509
2626 0 173.244 12.0928 2095 125.032 35.0826 407.688
2627 0 180.235 12.7112 2291 125.736 35.1126 408.523
2628 1 104.126 9.57492 997 127.041 35.2126 443.337
2629 0 103.241 10.3254 1066 131.637 34.363 434.765
2630 0 114.248 11.7727 1345 114.801 34.9264 441.527
2631 0 116.299 10.8686 1264 118.27 34.7682 438.212
2632 0 120.251 12.7317 1531 114.777 34.9771 438.211
2633 0 122.211 11.6356 1422 119.02 35.1055 437.084
2634 0 126.175 12.451 1571 119.041 34.6601 433.504
2635 0 127.272 11.6994 1489 124.981 34.7079 432.235
2636 0 132.233 12.3948 1639 124.757 34.1885 430.242
2637 0 137.295 12.3311 1693 127.006 34.332 429.537
2638 0 142.281 12.8478 1828 125.991 34.0673 426.89
2639 0 147.476 12.341 1820 127.857 33.6907 421.064
2640 0 152.535 12.7381 1943 127.141 34.1143 420.26
2641 1 89.3739 9.67844 865 125.024 34.1318 450.822
2642 0 91.2718 11.0658 1010 126.598 34.2525 446.663
2643 0 94.3363 11.8088 1114 124.415 33.9192 447.183
2644 0 94.11 10.7321 1010 118.836 33.1693 447.736
2645 0 102.215 12.4444 1272 113.474 33.4748 447.575
2646 0 102.298 11.7891 1206 118.09 32.9602 443.619
2647 0 106.512 12.3084 1311 116.959 32.8909 440.986
2648 0 110.387 12.8638 1420 115.977 32.9507 442.017
2649 0 113.421 13.0488 1480 118.882 32.4608 441.466
2650 0 114.118 13.6087 1553 125.236 32.642 444.471
2651 0 118.17 13.4045 1584 125.749 33.2121 441.092
2652 0 121.255 13.9541 1692 125.322 32.8647 437.612
2653 0 124.311 13.7236 1706 127.12 33.4191 437.458
2654 0 129.335 13.0978 1694 128.353 33.4475 434.717
2655 0 134.324 14.9936 2014 123.112 33.0343 429.563
2656 0 137.489 15.4631 2126 122.556 32.8401 428.905
2657 0 141.383 14.8391 2098 125.302 32.7655 424.989
2658 0 145.204 15.0409 2184 125.58 32.0114 424.211
2659 0 150.213 13.5941 2042 129.638 33.3007 422.174
2660 0 154.272 13.3855 2065 130.96 33.3429 421.739
2661 0 162.371 14.239 2312 127.743 32.5995 418.513
2662 0 165.359 13.8305 2287 130.189 32.6108 414.917
2663 1 102.11 13.0153 1329 123.752 32.8465 446.792
2664 0 104.216 12.2342 1275 127.882 32.3851 444.508
2665 0 110.106 14.477 1594 123.848 32.0728 447.508
2666 0 111.172 13.9514 1551 127.123 33.7092 446.894
2667 0 115.252 13.388 1543 129.474 33.5911 444.198
2668 0 118.149 13.9147 1644 128.464 33.1235 442.723
2669 0 123.258 13.5731 1673 128.865 33.7059 440.785
2670 0 128.229 14.3494 1840 126.268 33.7125 442.418
2671 0 128.274 13.2607 1701 131.347 33.5191 438.414
2672 0 131.205 13.0635 1714 132.537 33.5379 436.886
2673 0 136.327 13.3869 1825 131.334 33.149 435.53
2674 0 141.225 13.2979 1878 131.192 33.1209 433.926
2675 0 145.278 14.0145 2036 129.611 32.8949 430.236
2676 0 150.413 14.2075 2137 127.04 32.4637 426.37
2677 0 156.466 13.2361 2071 127.6 32.7793 427.172
2678 0 161.411 13.4997 2179 126.698 32.3538 422.96
2679 0 164.699 12.7687 2103 127.938 32.8012 421.437
2680 0 168.514 13.2986 2241 125.564 32.4016 419.409
2681 0 173.542 12.775 2217 127.703 32.0713 417.201
2682 0 180.266 13.0307 2349 127.077 32.4836 415.839
2683 0 184.45 13.4346 2478 127.619 32.504 407.892
2684 0 189.467 12.7463 2415 129.433 31.8149 409.665
2685 0 196.465 14.6845 2885 124.957 31.7272 400.75
2686 0 201.487 13.589 2738 127.479 31.0551 402.879
2687 0 205.395 13.0626 2683 129.697 31.0656 396.02
2688 0 214.416 14.3319 3073 124.81 31.9196 399.566
2689 0 220.423 14.3678 3167 125.997 31.9826 391.723
2690 1 173.309 13.5365 2346 125.013 32.4949 415.267
2691 0 175.177 13.7747 2413 124.661 32.5885 408.754
2692 0 181.201 13.2726 2405 126.368 32.3339 407.701
2693 0 187.24 13.3145 2493 124.463 32.274 409.518
2694 0 194.231 14.3953 2796 122.286 32.4903 401.031
2695 0 200.403 13.8172 2769 122.658 32.6984 400.127
2696 0 207.471 14.8406 3079 122.286 33.1686 395.209
2697 0 214.384 13.933 2987 121.389 33.5276 391.86
2698 0 220.307 13.5584 2987 122.446 33.4275 387.402
2699 1 162.295 13.3091 2160 122.948 33.1889 414.933
2700 0 166.291 13.2057 2196 123.547 33.0105 412.837
2701 0 174.368 15.1118 2635 119.727 32.7829 410.496
2702 0 176.336 14.0357 2475 121.282 32.6877 410.775
2703 0 185.288 14.3938 2667 119.563 33.0892 407.41
2704 0 189.589 14.1569 2684 120.906 32.5194 402.846
2705 0 196.423 13.8171 2714 121.746 32.168 404.798
2706 0 201.502 14.0842 2838 121.544 31.4027 397.141
2707 0 207.417 14.4058 2988 119.428 32.2661 395.158
2708 0 215.234 15.216 3275 117.268 32.3258 393.076
2709 0 223.334 15.9447 3561 114.368 32.5785 391.179
2710 1 166.366 12.7791 2126 123.302 32.4835 417.512
2711 0 171.256 13.1616 2254 119.823 32.8327 410.807
2712 0 178.3 14.3185 2553 115.043 33.1422 407.993
2713 0 183.463 14.4171 2645 115.359 32.5992 407.182
2714 0 188.251 13.2005 2485 117.948 32.7421 404.823
2715 0 194.371 13.8498 2692 116.927 32.7504 401.681
2716 0 202.288 13.723 2776 116.947 32.8927 397.777
2717 0 208.432 14.0861 2936 115.416 32.655 393.063
2718 0 215.502 14.0509 3028 116.427 32.5931 390.791
2719 0 222.492 13.8027 3071 117.4 32.6584 384.415
2720 0 232.478 14.3283 3331 115.845 32.9985 384.125
2721 0 238.385 14.3046 3410 116.809 32.6988 380.062
2722 0 244.37 13.9911 3419 117.872 33.1506 374.444
2723 0 254.574 14.483 3687 116.755 32.6103 375.481
2724 0 261.462 14.7096 3846 117.634 32.2197 365.819
2725 0 270.534 14.7486 3990 117.271 32.3684 365.293
2726 0 276.688 13.9833 3869 120.995 32.2724 359.063
2727 0 284.738 15.1753 4321 118.948 32.2432 353.131
2728 0 293.688 14.7367 4328 120.987 32.2881 354.949
2729 0 300.804 14.531 4371 123.423 32.4619 344.287
2730 0 308.823 14.5876 4505 125.853 32.4981 337.727
2731 0 367.165 21.5952 7929 97.755 33.2493 304.723
2732 0 367.179 23.9338 8788 94.5592 32.8317 298.328
2733 0 366.934 22.1757 8137 99.2576 32.5019 295.566
2734 0 366.777 23.4911 8616 97.9947 32.7531 292.438
2735 0 365.737 17.9801 6576 113.346 33.2973 306.815
