time division length width area intensity CMx CMy
0 0 47.0622 11.7929 555 136.719 800.813 468.715
1 0 47.1163 11.5247 543 137.615 801.105 469.67
2 0 49.0292 11.8093 579 135.775 801.927 468.604
3 0 51.1438 11.7512 601 138.323 801.84 466.666
4 0 54.1254 12.3048 666 134.14 802.458 467.402
5 0 53.0865 10.9256 580 138.534 802.426 467.672
6 0 55.0658 13.1116 722 133.976 801.899 464.766
7 0 57.064 12.3896 707 134.378 801.728 463.649
8 0 58.1057 12.4773 725 133.839 801.862 464.781
9 0 59.0851 11.3226 669 136.218 802.583 462.233
10 0 62.0966 11.6754 725 133.876 802.199 462.338
11 1 32.075 9.85191 316 136.997 802.494 478.566
12 0 33.0178 11.3272 374 133.059 802.308 476.725
13 0 33.0178 11.2364 371 123.981 802.288 476.779
14 0 37.0721 11.4372 424 131.08 802.085 476.113
15 0 38.0754 11.95 455 129.866 801.633 475.437
16 0 40.067 12.7287 510 128.751 801.914 474.437
17 0 41.0765 12.3672 508 128.26 801.439 475.343
18 0 42.0381 14.2252 598 127.144 801.905 474.313
19 0 43.2074 13.5393 585 129.214 801.161 474.126
20 0 43.024 13.3646 575 134.115 801.052 474.043
21 0 44.176 12.4728 551 135.027 801.372 474.162
22 0 47.0538 13.0064 612 131.041 801.796 474.925
23 0 46.0496 12.8123 590 138.453 803.827 474.581
24 0 48.0502 13.3402 641 130.997 799.97 473.211
25 0 48.0559 13.3594 642 129.928 796.974 473.174
26 0 52.1085 13.28 692 130.879 800.773 473.442
27 0 53.022 13.8245 733 129.951 800.555 472.78
28 0 56.1163 13.7215 770 129.636 800.047 470.968
29 0 57.1014 13.3797 764 130.77 800.762 470.209
30 0 59.0584 13.1734 778 130.801 800.252 469.844
31 0 63.0379 14.642 923 125.628 799.857 467.196
32 0 63.1082 13.5957 858 130.078 799.449 466.713
33 0 66.0997 13.8881 918 128.194 799.62 465.41
34 0 70.0481 13.505 946 128.108 799.694 463.92
35 0 70.0885 12.2274 857 132.54 800.205 463.847
36 0 74.14 13.7577 1020 126.995 800.159 461.64
37 0 77.1101 14.5895 1125 124.5 799.411 459.262
38 0 77.1101 14.5766 1124 135.599 798.419 459.258
39 0 80.1927 11.7093 939 132.003 798.411 457.957
40 0 84.0455 13.0168 1094 128.244 799.356 456.352
41 0 87.2002 13.5321 1180 126.405 798.625 453.338
42 1 45.1915 11.8385 535 125.376 798.265 473.396
43 0 49.0765 11.9405 586 121.316 798.717 473.935
44 0 49.0334 13.1951 647 121.603 798.61 475.966
45 0 49.0364 13.1535 645 129.2 797.608 476.009
46 0 52.026 12.3208 641 123.59 798.523 475.139
47 0 56.0356 12.8668 721 120.54 798.304 474.57
48 0 56.0995 12.5313 703 122.189 798.55 473.353
49 0 57.2089 12.1834 697 124.452 798.403 470.793
50 0 61.1562 12.6561 774 121.207 797.898 470.127
51 0 62.0275 13.2522 822 120.259 798.191 469.036
52 0 64.0426 11.7266 751 123.968 798.422 469.101
53 0 67.0637 13.1069 879 120.01 797.749 468.256
54 0 70.0365 13.3645 936 119.544 798.169 466.811
55 0 73.0501 13.2238 966 120.112 798.269 464.536
56 0 73.0476 13.2927 971 137.491 799.28 464.511
57 0 79.1171 12.5257 991 122.11 798.476 462.509
58 0 83.248 13.4177 1117 120.258 798.554 459.906
59 0 87.2143 14.0917 1229 120.802 798.973 459.027
60 1 44.0244 10.9485 482 117.571 797.961 480.398
61 0 44.0244 10.9939 484 131.872 796.965 480.318
62 0 46.1602 12.435 574 114.859 796.589 476.688
63 0 50.0201 13.5545 678 109.088 796.978 478.64
64 0 49.0283 11.6055 569 115.383 797.752 478.701
65 0 51.0757 12.55 641 112.612 797.732 478.376
66 0 52.068 12.3684 644 114.089 796.974 475.792
67 0 52.068 12.5029 651 125.977 796.943 475.833
68 0 55.0245 12.1582 669 115.03 797.022 474.737
69 0 59.0243 12.2492 723 114.084 796.758 474.181
70 0 60.0519 13.6049 817 111.367 797.116 472.367
71 0 61.0637 12.6262 771 114.888 796.943 473.511
72 0 62.0521 11.6193 721 118.34 796.857 472.667
73 0 64.0554 12.5673 805 117.845 797.788 469.297
74 0 70.0464 13.3911 938 114.889 797.482 468.538
75 0 71.0866 12.534 891 118.202 796.967 467.434
76 0 72.1122 12.536 904 142.143 796.931 467.829
77 0 72.1184 12.5349 904 141.649 796.931 467.829
78 0 80.2187 13.2762 1065 118.903 797.371 465.248
79 0 83.0543 13.0878 1087 120.441 797.226 461.949
80 0 86.1143 13.6911 1179 119.678 797.519 461.422
81 0 89.0535 13.2055 1176 121.783 797.369 460.968
82 0 91.0638 12.4418 1133 124.002 796.653 457.35
83 0 96.0925 13.0187 1251 120.34 796.568 457.3
84 1 52.0415 11.0489 575 124.772 796.852 478.336
85 0 55.0565 12.3873 682 121.419 796.886 478.173
86 0 53.0661 13.1723 699 122.09 796.579 476.255
87 0 58.0204 13.5125 784 117.181 798.42 475.855
88 0 58.06 12.2287 710 118.708 797.648 475.78
89 0 59.0602 11.5137 680 121.796 797.738 474.099
90 0 61.0393 11.5663 706 121.001 797.425 474.568
91 0 64.0601 12.0824 774 119.243 797.643 472.31
92 0 64.0601 12.1292 777 146.645 797.652 472.411
93 0 70.0975 12.5682 881 117.176 797.293 472.134
94 0 73.0431 13.0745 955 117.262 798.195 468.889
95 0 75.0508 12.6181 947 118.936 798.111 468.32
96 0 78.0515 12.9658 1012 119.23 798.221 466.152
97 0 80.088 13.3978 1073 118.36 797.881 465.38
98 0 84.1569 12.5955 1060 119.854 797.48 465.792
99 0 86.119 13.2723 1143 119.864 798.123 462.787
100 1 44.0366 11.6721 514 119.586 797.7 483.196
101 0 47.0327 12.3106 579 117.335 797.482 481.51
102 0 47.0918 12.9534 610 116.13 797.221 481.213
103 0 49.031 11.8701 582 119.412 797.055 479.175
104 0 49.0758 12.5928 618 114.841 794.884 479.43
105 0 51.1175 12.6962 649 115.296 794.941 477.569
106 0 54.0476 13.3586 722 111.039 795.251 479.913
107 0 55.0538 13.8047 760 110.745 795.851 477.161
108 0 58.0674 12.916 750 110.929 796.304 476.84
109 0 56.1018 13.0834 734 113.349 795.831 476.717
110 0 57.1065 12.3979 708 115.552 795.294 476.233
111 0 59.1392 12.5805 744 115.099 795.316 473.882
112 0 60.0732 12.5181 752 116.614 795.58 472.277
113 0 65.1245 12.668 825 114.084 795.305 472.501
114 0 65.1242 12.5453 817 135.537 795.294 472.701
115 0 66.0381 12.4171 820 116.482 796.051 469.787
116 0 70.1086 12.9085 905 114.254 795.399 468.19
117 0 72.0736 12.2236 881 116.375 795.585 465.758
118 0 76.0458 12.9527 985 114.037 795.135 466.128
119 0 79.0955 12.5797 995 115.334 795.085 464.114
120 0 81.0915 12.1221 983 116.448 795.119 463.152
121 0 85.065 12.2024 1038 115.933 795.054 461.682
122 0 88.0676 12.286 1082 115.653 795.123 458.113
123 1 45.0638 10.6072 478 117.362 795.314 479.021
124 0 48.0451 11.3435 545 113.528 795.492 480.202
125 0 52.0436 13.335 694 108.45 795.882 477.468
126 0 53.096 13.5227 718 108.616 794.5 476.783
127 0 53.1901 12.8783 685 110.352 796.158 475.488
128 0 55.2308 13.1629 727 109.693 796.252 474.342
129 0 57.2924 12.2704 703 110.063 796.643 475.593
130 0 55.1837 11.3802 628 113.669 796.94 473.417
131 0 61.2712 12.8772 789 107.349 796.712 473.07
132 0 62.1799 12.9302 804 107.458 796.744 472.76
133 0 63.1609 12.2069 771 109.444 797.345 470.569
134 0 66.1868 13.4015 887 105.882 797.186 470.538
135 0 69.2402 13.3737 926 106.278 796.874 468.518
136 0 71.1123 13.7529 978 105.382 796.405 467.052
137 0 74.1872 13.9512 1035 104.978 796.916 468.665
138 0 74.1872 13.9647 1036 136.1 797.922 468.504
139 0 79.1461 13.3424 1056 106.924 796.042 464.83
140 0 82.2096 11.9937 986 108.301 796.981 462.37
141 0 82.1772 12.4244 1021 144.005 797.981 461.686
142 0 88.1334 12.9349 1140 104.797 796.041 459.89
143 0 91.1252 12.5761 1146 107.151 795.947 456.508
144 0 91.1231 12.6203 1150 142.914 794.939 456.485
145 1 45.0421 10.9897 495 98.8404 797.602 480.98
146 0 47.0521 12.3693 582 104.527 795.55 478.658
147 0 48.0479 10.8017 519 103.645 797.534 479.432
148 0 47.1246 10.2282 482 105.407 797.9 477.5
149 0 50.1746 11.4002 572 102.143 797.552 478.778
150 0 51.0866 12.0775 617 101.87 798.058 474.914
151 0 52.0475 11.8738 618 103.256 797.83 474.77
152 0 56.0488 12.7032 712 100.263 797.656 474.676
153 0 57.1772 12.0677 690 102.396 797.572 474.467
154 0 62.2133 11.991 746 100.508 797.075 474.177
155 0 61.2314 12.6079 772 101.892 796.921 470.132
156 0 66.1879 13.2653 878 98.2688 796.797 470.904
157 0 69.0829 13.2594 916 97.3493 797.298 471.051
158 0 70.197 12.5646 882 99.7007 796.902 468.957
159 0 70.1209 11.0238 773 103.668 796.646 468.47
160 0 74.2161 11.8168 877 102.608 796.797 467.266
161 0 75.255 10.9627 825 105.08 796.943 464.801
162 0 78.2424 11.311 885 105.031 796.502 462.262
163 0 81.1452 11.1528 905 105.982 796.222 462.408
164 0 82.1227 10.7887 886 106.296 796.427 457.85
165 0 86.1232 11.6229 1001 105.06 796.387 457.038
166 1 46.0684 10.6364 490 100.449 796.761 479.649
167 0 46.0289 8.79882 405 104.679 797.138 480.56
168 0 48.105 10.9552 527 101.129 798.309 477.548
169 0 50.0207 12.8747 644 97.3323 797.297 476.376
170 0 49.0397 12.0922 593 107.035 797.322 476.737
171 0 51.0833 12.0587 616 108.411 797.096 472.718
172 0 54.065 12.3925 670 107.051 797.709 472.845
173 0 54.065 12.337 667 132.481 798.715 472.84
174 0 57.0705 13.2468 756 105.847 797.549 472.245
175 0 57.0899 11.0177 629 111.544 797.641 469.822
176 0 60.0721 12.3518 742 107.925 797.352 471.911
177 0 60.0526 11.4566 688 112.407 797.26 468.273
178 0 63.0709 11.6853 737 112.003 797.559 468.977
179 0 68.1198 12.7276 867 109.872 797.856 466.15
180 0 70.1448 14.0852 988 105.869 797.323 467.226
181 0 70.2117 13.032 915 109.298 797.196 467.122
182 0 74.1032 13.3193 987 109.537 797.116 464.293
183 0 74.0443 12.8977 955 112.993 797.063 462.153
184 0 74.0425 12.9115 956 139.763 797.061 462.108
185 0 77.0212 12.1135 933 116.114 797.349 459.352
186 0 79.0725 11.8752 939 112.339 797.019 460.958
187 0 82.1082 11.1195 913 115.493 797.286 460.23
188 0 82.103 10.8766 893 116.558 797.884 457.654
189 1 42.0747 11.646 490 111.91 797.545 474.557
190 0 44.0642 11.9144 525 111.164 797.229 477.034
191 0 45.0268 12.7258 573 110.462 797.602 476.475
192 0 48.0632 11.5889 557 113.346 796.732 478.409
193 0 49.1589 11.8595 583 112.887 796.878 477.75
194 0 51.0689 13.2174 675 109.652 796.899 476.542
195 0 52.0508 12.8144 667 110.27 797.277 476.364
196 0 52.0508 12.7184 662 133.772 797.305 476.384
197 0 53.1446 11.2711 599 115.836 797.095 474.953
198 0 54.3574 13.0249 708 111.798 797.076 475.229
199 0 55.2484 10.7876 596 117.498 797.361 473.466
200 0 59.1805 11.034 653 116 796.404 472.998
201 0 59.1535 11.4617 678 114.845 796.198 472.229
202 0 61.2388 11.9205 730 113.426 795.892 472.3
203 0 64.225 13.406 861 109.856 796.754 470.36
204 0 67.171 12.5947 846 110.448 796.414 469.793
205 0 69.2018 12.3841 857 111.477 796.838 467.614
206 0 72.1311 12.3941 894 111.106 797.051 466.934
207 0 74.13 11.1965 830 113.284 797.049 466.705
208 0 77.1207 13.0056 1003 108.383 796.945 464.57
209 0 79.1792 12.5538 994 109.15 797.129 463.184
210 0 84.3047 12.0278 1014 111.101 796.728 461.597
211 0 86.432 12.0326 1040 112.692 796.318 456.926
212 0 89.3837 12.5526 1122 111.896 795.539 455.004
213 1 50.3147 11.0504 556 108.423 795.781 473.932
214 0 51.2738 11.9359 612 109.145 796.167 472.036
215 0 53.1113 12.3138 654 105.599 795.408 476.261
216 0 52.0346 12.9914 676 107.124 798.003 476.106
217 0 55.0983 13.1038 722 106.548 796.661 475.994
218 0 58.0877 12.4123 721 107.723 796.734 474.168
219 0 59.1663 12.3719 732 108.754 797.242 473.716
220 0 60.0886 12.2153 734 109.034 797.199 474.089
221 0 61.0696 12.5103 764 110.204 797.238 472.423
222 0 63.0557 13.6546 861 107.99 797.927 469.739
223 0 65.0828 12.0923 787 112.108 797.902 471.399
224 0 66.0858 11.8331 782 113.795 797.788 468.907
225 0 72.0627 13.4189 967 109.495 797.883 467.529
226 0 73.0799 12.4111 907 112.254 798.385 466.656
227 0 75.0914 12.6779 952 112.246 797.964 466.493
228 0 74.0896 12.2959 911 148.21 796.948 465.909
229 0 80.0771 13.5245 1083 113.02 797.099 463.525
230 0 80.0771 13.5994 1089 144.094 798.11 463.434
231 0 84.1761 12.5808 1059 116.878 796.754 459.995
232 0 88.103 13.7339 1210 114.269 796.464 458.801
233 0 91.0788 13.3621 1217 116.622 797.176 455.674
234 1 48.0495 10.947 526 117.945 797.686 478.403
235 0 50.053 12.0273 602 115.111 797.9 476.522
236 0 52.0216 13.0138 677 111.323 797.842 476.098
237 0 50.0986 11.7967 591 114.871 795.765 477.998
238 0 53.0869 12.8845 684 110.931 795.692 476.868
239 0 53.114 11.7483 624 115.763 795.726 475.05
240 0 54.0772 10.8179 585 118.964 795.287 475.685
241 0 57.1718 11.9814 685 115.22 795.892 474.126
242 0 60.1352 12.2391 736 113.751 795.81 473.731
243 0 61.1309 12.8577 786 113.569 795.879 472.415
244 0 60.1291 12.2902 739 146.934 795.777 471.447
245 0 65.2359 13.7194 895 110.718 796.536 471.221
246 0 67.2221 13.6116 915 111.763 796.757 469.929
247 0 69.2296 13.1158 908 113.506 796.935 469.617
248 0 71.089 12.8993 917 114.456 797.142 467.903
249 0 73.1172 12.8424 939 114.618 797.298 466.105
250 0 74.052 10.8707 805 115.771 797.53 463.84
251 0 78.094 11.102 867 112.548 797.118 467.393
252 0 82.126 12.4199 1020 109.989 797.157 463.493
253 0 83.0622 10.763 894 113.649 795.917 464.321
254 0 86.2102 12.4347 1072 110.242 797.219 460.09
255 0 86.2408 12.4999 1078 139.67 798.241 460.147
256 1 50.0685 10.7453 538 111.81 797.323 477.182
257 0 53.0438 11.5188 611 109.106 797.741 476.136
258 0 55.1041 12.0499 664 108.752 797.678 474.815
259 0 54.1937 11.1637 605 113.547 798.299 474.894
260 0 57.2113 11.5187 659 112.17 798.126 474.372
261 0 59.0499 11.9391 705 106.126 797.919 473.726
262 0 60.1911 12.2776 739 106.56 797.801 473.03
263 0 62.1221 10.9945 683 107.98 797.413 471.46
264 0 66.0419 11.6138 767 105.529 797.699 471.398
265 0 69.1247 12.4558 861 103.118 797.264 469.936
266 0 70.0342 10.9232 765 105.752 796.208 469.608
267 0 70.1147 10.7823 756 107.287 796.868 469.351
268 0 75.095 12.9702 974 102.902 796.587 465.489
269 0 78.0833 11.8207 923 104.522 796.557 465.122
270 0 79.2173 10.9698 869 106.038 795.728 464.975
271 0 81.0872 12.0118 974 105.713 795.914 461.475
272 0 84.1019 11.3791 957 106.822 796.443 461.826
273 0 87.106 11.8247 1030 106.403 795.952 458.963
274 0 92.1712 13.2471 1221 102.847 795.848 457.715
275 0 92.1712 13.182 1215 132.671 795.828 457.691
276 0 92.1712 13.2688 1223 131.904 795.848 457.58
277 1 55.0319 7.66828 422 106.46 796.109 478.659
278 0 57.0386 10.6945 610 102.038 795.943 475.557
279 0 55.04 9.86556 543 105.926 796.851 475.586
280 0 59.0463 11.9906 708 101.294 797.914 473.921
281 0 59.1982 10.9294 647 103.757 797.691 472.643
282 0 61.1054 12.0284 735 101.599 798.008 473.888
283 0 63.0406 12.0557 760 102.772 798.492 471.083
284 0 68.0602 13.0473 888 100.291 798.035 470.029
285 0 68.1357 11.1542 760 104.953 798.309 469.863
286 0 71.0711 12.9729 922 102.58 798.795 465.288
287 0 74.0732 11.5696 857 105.04 798.952 467.202
288 0 77.0712 12.8453 990 102.984 798.765 463.972
289 0 79.1066 12.0344 952 105.267 798.616 463.621
290 0 79.0533 12.1817 963 106.773 798.807 460.763
291 0 83.1169 12.5125 1040 105.962 798.235 461.293
292 0 88.0888 12.9982 1145 105.065 797.71 459.018
293 0 90.1421 12.9906 1171 105.282 797.64 459.74
294 0 91.1191 11.0405 1006 111 797.285 457.962
295 0 95.1142 14.1094 1342 105.581 796.63 454.548
296 0 99.1498 14.0696 1395 106.728 796.923 451.885
297 0 103.206 14.4178 1488 105.935 797.088 453.774
298 0 106.171 13.9303 1479 106.769 797.367 454.265
299 0 109.128 13.2138 1442 110.344 796.916 448.301
300 0 113.116 13.5701 1535 109.067 796.606 448.372
301 0 119.13 13.7664 1640 108.477 796.291 445.792
302 0 119.13 13.6825 1630 141.937 796.305 445.702
303 1 64.2143 13.9377 895 105.061 795.989 466.852
304 0 68.1664 13.1443 896 105.354 796.642 468.484
305 0 68.1376 13.4874 919 105.203 798.143 469.362
306 0 71.1186 14.9469 1063 101.35 797.077 467.05
307 0 73.1796 15.2228 1114 100.32 797.644 465.258
308 0 75.2198 12.9088 971 105.832 797.069 464.027
309 0 79.1773 13.716 1086 102.577 796.799 463.903
310 0 80.1444 13.7876 1105 103.765 797.075 462.646
311 0 84.2018 13.8714 1168 102.31 797.247 461.165
312 0 86.0642 12.5604 1081 106.881 797.6 458.764
313 0 87.1891 12.7539 1112 106.117 797.361 458.457
314 0 92.2373 13.1075 1209 105.373 796.738 456.814
315 0 95.2457 13.1134 1249 105.762 795.865 456.337
316 1 49.3802 11.5431 570 103.733 795.898 475.84
317 0 48.0395 9.61708 462 102.894 797.965 475.279
318 0 52.0554 12.4098 646 101.69 798.265 477.509
319 0 52.0501 12.0077 625 104.134 798.427 475.954
320 0 53.0181 12.6749 672 103.637 798.411 474.984
321 0 54.0676 12.059 652 104.954 798.446 475.548
322 0 56.0477 12.7748 716 103.274 797.965 475.048
323 0 57.0402 13.4992 770 101.523 798.292 474.351
324 0 61.0399 13.1062 800 102.019 798.095 472.739
325 0 61.0521 11.9406 729 104.414 798.144 471.871
326 0 62.0681 12.3896 769 103.155 798.492 470.612
327 0 67.1026 12.8162 860 101.638 797.7 469.706
328 0 67.0831 12.6858 851 102.774 797.349 468.967
329 0 70.0868 13.8685 972 100.172 798.018 468.421
330 0 73.207 13.496 988 100.682 798.141 466.571
331 0 73.1295 13.4146 981 101.549 798.517 466.721
332 0 77.1391 13.1969 1018 102.129 797.224 464.086
333 0 78.0739 14.1148 1102 100.084 797.125 464.283
334 0 79.1549 12.444 985 105.112 798.072 460.835
335 0 80.1709 11.9245 956 102.908 797.669 461.354
336 0 84.0945 12.8903 1084 99.5341 797.973 460.425
337 0 87.0723 12.1393 1057 101.892 797.638 458.76
338 0 91.1928 13.2905 1212 99.4414 797.441 457.329
339 0 93.1288 14.0665 1310 99.2305 798.312 454.714
340 0 95.2309 12.3384 1175 102.232 798.603 454.592
341 0 97.1714 12.4522 1210 104.748 797.314 453.588
342 1 51.0799 11.5505 590 103.108 798.642 475.229
343 0 53.0477 12.4228 659 101.279 797.202 476.662
344 0 55.0349 12.9736 714 96.605 797.536 475.388
345 0 54.1178 11.2532 609 100.14 795.414 476.243
346 0 57.1331 11.1494 637 100.562 795.452 476.608
347 0 59.1008 11.8273 699 100.631 796.072 474.489
348 0 61.1106 11.7001 715 102.762 796.764 474.288
349 0 61.0724 12.2641 749 103.732 795.824 471.409
350 0 65.1131 12.2095 795 103.532 796.171 472.483
351 0 67.1909 12.0701 811 104.898 795.866 471.338
352 0 69.1284 12.4406 860 105.778 796.272 468.607
353 0 73.1223 11.8295 865 106.345 795.916 470.039
354 0 75.0504 12.8714 966 105.576 796.258 467.938
355 0 76.0892 12.7876 973 107.909 796.232 466.781
356 0 82.0875 12.9861 1066 107.311 796.077 466.021
357 0 84.1007 12.9488 1089 108.754 796.165 463.887
358 0 86.1362 12.2016 1051 111.639 796.196 461.662
359 0 89.1909 13.1403 1172 110.326 796.609 460.563
360 1 49.0804 12.9787 637 105.611 796.688 481.662
361 0 50.1664 13.1363 659 105.446 796.809 479.575
362 0 50.1218 12.729 638 106.53 796.4 479.94
363 0 50.0947 12.9754 650 104.06 796.334 479.185
364 0 52.1157 12.4723 650 105.729 796.415 478.223
365 0 54.2197 12.4678 676 106.259 796.111 477.973
366 0 55.0825 11.3829 627 108.158 796.558 477.26
367 0 57.153 13.1227 750 104.308 795.881 477.475
368 0 58.238 13.6509 795 105.345 796.146 475.255
369 0 61.1022 13.011 795 105.477 795.784 474.301
370 0 60.1246 12.2911 739 109.2 796.074 474.502
371 0 64.0745 13.375 857 105.429 796.218 473.133
372 0 64.0748 12.3762 793 109.805 796.28 471.753
373 0 68.0732 13.5736 924 105.937 796.904 469.715
374 0 70.1407 13.3018 933 107.823 796.754 470.392
375 0 73.0373 13.2809 970 109.679 797.099 468.17
376 0 75.0983 13.4357 1009 109.686 797.018 465.459
377 0 77.1032 12.0747 931 113.337 797.045 466.58
378 0 81.1044 12.6257 1024 111.902 797.442 464.942
379 0 83.1087 13.1274 1091 113.736 796.955 463.018
380 0 86.0878 12.2782 1057 116.605 796.621 462.36
381 1 42.0134 11.9248 501 109.986 795.932 484.369
382 0 43.1161 10.2746 443 113.289 795.553 484.411
383 0 45.0262 11.7487 529 112.015 795.72 481.325
384 0 46.0841 11.5875 534 108.888 795.522 484.35
385 0 45.054 10.2988 464 114.534 796.218 483.088
386 0 48.1013 10.8729 523 112.419 796.344 481.858
387 0 49.0428 11.4798 563 111.302 796.7 480.671
388 0 51.1169 11.8356 605 111.235 796.155 479.418
389 0 54.0416 10.7695 582 112.77 795.625 478.959
390 0 55.0348 11.0112 606 112.206 795.305 478.568
391 0 56.0358 10.8145 606 113.368 795.95 477.305
392 0 57.046 10.9561 625 113.325 795.693 477.394
393 0 60.0832 11.6838 702 110.264 798.007 475.678
394 0 62.0628 11.8267 734 110.542 798.358 473.499
395 0 63.0886 11.999 757 110.037 798.332 472.326
396 0 66.1017 11.7546 777 109.015 798.736 472.994
397 0 67.1128 10.4004 698 108.388 798.159 470.218
398 0 69.089 9.85685 681 110.054 798.225 467.332
399 0 71.1389 11.1894 796 107.716 799.072 466.1
400 0 75.0636 10.8575 815 107.133 798.306 465.763
401 0 77.0706 10.8083 833 111.175 799.114 465.772
402 0 81.0911 12.1345 984 106.329 798.821 464.322
403 0 81.1125 10.208 828 111.61 798.467 463.58
404 1 42.0432 9.08589 382 108.953 798.686 483.181
405 0 44.2774 11.5409 511 105.769 796.791 479.027
406 0 47.1586 11.79 556 103.363 798.793 479.196
407 0 46.1366 11.1842 516 106.727 797.585 479.546
408 0 48.0831 12.3328 593 103.089 798.191 479.836
409 0 51.1073 12.4053 634 102.416 798.148 478.568
410 0 53.1011 11.9395 634 103.861 798.749 477.298
411 0 54.1294 13.0059 704 101.905 798.286 477.518
412 0 56.0903 12.5512 704 104.49 798.095 475.864
413 0 57.1873 11.6284 665 106.23 798.356 476.937
414 0 60.0927 13.1464 790 102.735 798.104 474.797
415 0 61.1796 12.3244 754 104.301 798.485 476.202
416 0 64.1711 12.7783 820 104.041 798.626 473.232
417 0 64.1395 12.3793 794 105.655 799.164 473.009
418 0 66.1541 12.4104 821 107.099 799.023 471.633
419 0 69.2105 13.4662 932 104.752 798.167 469.965
420 0 69.2105 13.4228 929 130.67 797.173 469.989
421 0 72.102 12.2188 881 110.253 797.804 467.379
422 0 77.1884 12.9164 997 109.248 797.554 466.162
423 0 78.099 12.6122 985 115.295 797.939 464.925
424 0 82.272 11.8631 976 115.556 797.832 464.852
425 0 84.193 11.7587 990 117.007 796.781 464.676
426 0 85.2528 11.8119 1007 118.829 796.746 460.14
427 0 90.3228 13.0421 1178 116.49 796.1 456.053
428 1 47.0426 9.90592 466 116.148 797.464 482.403
429 0 51.0911 11.7829 602 111.934 799.254 480.636
430 0 54.0742 12.113 655 111.911 798.496 478.377
431 0 55.0421 13.5533 746 115.335 796.995 478.143
432 0 55.09 12.1619 670 120.373 796.334 477.673
433 0 57.0636 13.3185 760 117.928 796.382 476.395
434 0 56.0798 12.8032 718 121.345 797.078 476.404
435 0 58.0728 12.6221 733 121.799 797.076 476.382
436 0 62.0688 12.4539 773 120.536 796.815 474.516
437 0 64.0565 12.5514 804 121.045 796.55 472.149
438 0 64.1181 12.1807 781 122.426 796.939 470.265
439 0 67.0696 13.1505 882 120.155 796.317 468.749
440 0 69.0683 12.2922 849 121.173 796.874 469.53
441 0 70.1142 12.0946 848 123.074 796.553 466.37
442 0 76.1134 11.7325 893 122.487 796.078 467.026
443 0 78.0525 12.6197 985 120.016 796.07 464.154
444 0 80.061 11.7785 943 121.584 796.383 463.01
445 0 84.0872 13.0579 1098 118.89 796.322 460.498
446 0 87.0751 13.0577 1137 117.856 796.246 460.692
447 0 89.0627 12.6765 1129 118.709 795.811 457.956
448 1 47.0286 10.1428 477 114.616 796.786 476.836
449 0 50.0883 11.919 597 106.915 798.632 474.878
450 0 50.1521 11.844 594 102.152 798.348 474.052
451 0 53.0346 10.71 568 103.88 797.375 474.407
452 0 55.0202 10.1054 556 105.189 797.619 472.288
453 0 57.0518 10.7972 616 103.768 798.305 472.313
454 0 58.1494 12.4679 725 110.519 798.276 475.49
455 0 62.1181 13.6836 850 106.749 797.833 472.875
456 0 62.2024 12.6362 786 110.524 798.046 472.464
457 0 64.231 11.661 749 112.226 797.622 472.162
458 0 69.0921 12.8235 886 108.562 797.376 470.677
459 0 71.1614 13.1813 938 107.666 796.699 470.097
460 0 73.1469 12.3724 905 110.379 796.574 466.212
461 0 74.1231 11.5214 854 112.845 797.061 467.76
462 0 76.1324 11.7427 894 113.434 797.092 464.551
463 0 81.1301 12.4615 1011 110.768 796.803 462.583
464 0 84.2771 12.5301 1056 110.153 797.306 463.305
465 0 88.154 12.1946 1075 111.865 797.759 457.853
466 1 46.0485 10.3369 476 113.71 796.229 481.475
467 0 47.0703 10.9198 514 111.912 796.265 480.675
468 0 47.0712 11.0258 519 131.582 796.287 480.672
469 0 49.0838 12.1833 598 102.804 796.676 477.07
470 0 50.0859 12.0992 606 104.276 796.761 478.677
471 0 53.1755 11.5279 613 103.584 796.783 478.145
472 0 55.0815 12.5813 693 102.675 796.348 475.662
473 0 56.0679 12.3778 694 102.742 797.212 473.684
474 0 57.0951 10.176 581 104.456 797.411 475.78
475 0 59.1479 10.1103 598 108.152 797.926 474.055
476 0 61.1291 11.7947 721 104.162 797.813 472.847
477 0 65.1291 13.0971 853 100.495 797.224 473.261
478 0 67.1815 12.8905 866 100.956 797.706 471.285
479 0 68.1111 11.0114 750 104.685 797.155 470.639
480 0 70.2145 12.1485 853 102.009 796.655 469.227
481 0 73.1449 11.2106 820 103.789 796.339 468.213
482 0 75.154 11.9754 900 103.547 796.59 466.318
483 0 78.1588 11.579 905 104.192 796.969 466.288
484 0 81.0787 11.8033 957 103.828 797.087 464.819
485 0 84.1562 11.6688 982 104.944 796.452 464.367
486 1 43.0212 10.9946 473 106.416 795.801 482.222
487 0 45.0868 11.4002 514 105.611 798.671 482.339
488 0 46.0285 12.4923 575 100.81 796.956 481.715
489 0 47.0214 11.6117 546 101.553 796.824 479.731
490 0 48.0308 10.3475 497 105.451 797.336 479.376
491 0 51.0637 12.553 641 99.3931 796.877 479.045
492 0 50.0574 11.2071 561 103.64 796.544 479.57
493 0 53.0572 11.7986 626 102.22 796.561 479.855
494 0 54.0382 11.3623 614 104.277 796.831 478.125
495 0 57.0252 12.9767 740 100.699 797.351 476.97
496 0 59.0408 14.2613 842 98.1496 796.35 475.114
497 0 61.0384 12.2218 746 102.713 796.642 475.645
498 0 63.0614 12.8922 813 101.967 796.942 471.993
499 0 65.0748 12.5087 814 102.889 797.041 470.397
500 0 67.042 12.082 810 107.453 796.951 470.288
501 0 69.0946 12.7362 880 108.405 796.462 471.422
502 0 72.127 11.5491 833 112.786 796.677 469.375
503 0 75.0929 13.7829 1035 107.643 796.929 468.87
504 0 76.1307 12.7281 969 111.302 796.967 467.834
505 0 77.0905 12.0119 926 115.18 796.805 465.248
506 0 81.1349 11.9184 967 115.771 796.527 465.239
507 0 85.0861 12.8928 1097 112.413 796.722 462.204
508 1 47.0583 11.8364 557 111.977 796.691 482.494
509 0 47.0583 11.9426 562 129.4 796.694 482.582
510 0 48.0629 13.3159 640 112.178 798.219 480.509
511 0 51.1857 13.285 680 113.744 798.3 479.238
512 0 52.1814 13.2231 690 113.091 797.768 478.274
513 0 52.185 12.7431 665 114.809 798.089 477.979
514 0 53.0791 12.6792 673 115.412 798.976 477.498
515 0 55.1558 11.7848 650 120.48 798.635 477.388
516 0 55.0347 12.3922 682 120.588 797.594 475.735
517 0 57.065 11.5307 658 123.562 798.327 475.272
518 0 58.088 10.4669 608 125.503 798.602 475.301
519 0 62.1398 12.4719 775 119.506 798.634 475.364
520 0 62.0542 10.6681 662 123.94 798.745 474.86
521 0 65.252 11.5552 754 122.821 797.873 472.233
522 0 66.1292 12.7024 840 120.876 797.782 469.323
523 0 67.1678 11.4192 767 124.226 798.502 469.428
524 0 70.1372 12.333 865 123.282 797.645 468.179
525 0 72.1176 12.341 890 123.819 797.502 469.982
526 0 74.1332 11.9784 888 126.798 797.466 466.083
527 0 79.2196 12.2066 967 125.954 796.799 465.497
528 0 81.1976 12.6851 1030 124.75 797.261 463.999
529 0 83.1579 13.0475 1085 123.465 797.442 462.441
530 0 88.1673 13.6332 1202 122.747 797.861 460.363
531 0 90.196 12.0626 1088 127.119 797.646 458.24
532 0 93.1477 12.7539 1188 125.913 797.638 457.624
533 1 48.0253 11.8688 570 114.791 798.677 478.209
534 0 49.0827 10.4721 514 115.3 798.43 478.984
535 0 51.0897 11.8419 605 120.995 798.782 480.256
536 0 54.1226 12.5825 681 117.16 798.824 477.759
537 0 53.1327 12.6288 671 121.225 798.148 476.52
538 0 56.1049 13.3856 751 117.119 798.374 477.443
539 0 56.101 11.9784 672 123.241 798.182 476.143
540 0 60.1001 12.7787 768 120.048 798.168 475.322
541 0 59.1018 12.4192 734 122.748 798.027 474.158
542 0 63.1193 12.7695 806 120.553 798.134 472.581
543 0 65.1206 13.4673 877 119.958 798.197 471.311
544 0 68.2309 13.85 945 119.621 797.812 470.956
545 0 69.1513 12.9716 897 122.557 798.242 471.864
546 0 69.2005 12.9623 897 123.716 797.721 468.336
547 0 73.1669 14.1867 1038 119.223 797.694 467.772
548 0 76.2413 12.9851 990 121.508 797.71 468.017
549 0 79.1408 13.0527 1033 121.628 798.181 466.526
550 0 80.3064 12.2904 987 125.219 797.841 463.649
551 0 84.1801 12.6039 1061 123.865 797.741 464.134
552 0 85.1308 12.0286 1024 122.995 798.412 464.16
553 1 44.0451 10.8525 478 122.703 798.475 483.872
554 0 47.1457 12.875 607 121.061 797.662 480.954
555 0 46.2033 12.3151 569 123.74 796.984 480.344
556 0 50.0236 11.9943 600 117.672 798.267 480.965
557 0 51.0509 13.3005 679 114.392 797.477 480.42
558 0 53.0626 13.7762 731 113.486 799.352 478.027
559 0 53.0966 12.8633 683 116.728 798.938 477.086
560 0 52.0644 11.7547 612 120.743 799.784 477.492
561 0 57.0892 12.279 701 117.054 799.565 476.944
562 0 57.0854 12.385 707 133.041 799.53 476.789
563 0 59.0918 13.0137 769 114.947 799.265 475.687
564 0 61.0812 13.4575 822 114.915 797.707 474.101
565 0 64.1665 12.1559 780 116.783 797.3 473.242
566 0 65.0615 12.7264 828 116.052 797.821 472.293
567 0 65.0107 11.5058 748 119.699 797.926 471.441
568 0 69.0609 13.6836 945 113.301 797.563 468.168
569 0 71.1491 13.4506 957 114.574 797.61 467.301
570 0 73.0699 12.7823 934 115.773 797.636 467.406
571 0 76.0637 12.8051 974 115.608 797.497 467.187
572 0 77.0502 12.9137 995 116.765 797.735 465.97
573 0 82.0958 12.729 1045 116.909 798.343 463.92
574 0 83.1407 12.2443 1018 121.573 797.806 464.666
575 0 87.1208 13.6936 1193 119.249 797.953 459.643
576 1 41.034 9.86986 405 123.474 797.637 483.551
577 0 45.0252 11.2826 508 117.299 797.872 482.138
578 0 47.1666 12.6997 599 113.601 797.649 480.893
579 0 47.0432 11.3513 534 117.698 799.367 482.071
580 0 49.06 12.0261 590 115.485 798.77 480.624
581 0 50.0478 12.2882 615 115.031 798.234 480.135
582 0 49.0365 11.0734 543 118.385 798.792 479.109
583 0 54.0827 12.3145 666 113.58 798.539 478.554
584 0 55.0423 12.3178 678 114.538 799.522 478.473
585 0 56.0723 12.3234 691 116.038 798.599 476.557
586 0 58.058 12.9526 752 114.326 799.037 475.654
587 0 60.0367 11.6762 701 116.755 799.174 476.016
588 0 63.0819 12.4758 787 114.243 798.9 474.356
589 0 65.0729 12.8932 839 113.299 799.296 473.108
590 0 64.0793 12.9839 832 115.681 798.966 471.498
591 0 67.0745 13.1794 884 114.706 798.748 471.184
592 0 70.0464 13.6767 958 113.523 799.163 469.927
593 0 74.0389 13.6415 1010 114.667 799.076 467.614
594 0 76.0271 13.4952 1026 114.957 798.99 469.178
595 0 78.2128 14.1537 1107 115.301 798.602 464.782
596 0 78.1381 12.913 1009 118.541 798.752 464.483
597 0 85.1158 13.511 1150 116.01 798.806 463.017
598 0 85.1851 12.15 1035 120.974 799.268 460.833
599 0 90.0648 13.5347 1219 118.049 798.927 457.884
600 0 93.1196 13.6706 1273 117.059 799.256 457.207
601 0 94.076 13.0958 1232 119.9 799.37 455.191
602 0 97.2023 11.6767 1135 123.129 798.783 450.677
603 1 53.3216 11.7776 628 112.154 797.922 475.018
604 0 55.3266 10.5736 585 113.501 798.193 474.056
605 0 57.1246 11.6762 667 104.945 798.658 473.273
606 0 57.0812 10.2836 587 110.242 797.434 472.421
607 0 60.1003 10.8153 650 108.602 797.312 470.435
608 0 62.0712 11.4868 713 108.759 797.122 468.983
609 0 64.053 12.2399 784 108.297 797.976 469.409
610 0 66.0863 11.3185 748 110.472 797.58 469.884
611 0 69.0909 12.9829 897 107.977 798.046 468.981
612 0 71.0731 10.7073 761 114.117 797.913 468.374
613 0 75.134 13.0301 979 110.232 797.557 465.684
614 0 74.1203 13.3162 987 129.879 797.588 465.638
615 0 77.1895 12.5665 970 114.522 797.856 465.088
616 0 78.0791 11.2834 881 120.858 798.401 465.266
617 0 82.2344 12.3914 1019 121.192 797.151 464.604
618 0 85.2543 12.7149 1084 121.755 797.377 463.112
619 0 90.1036 13.8396 1247 119.045 797.238 458.274
620 0 94.0868 12.4885 1175 122.511 797.531 458.975
621 0 97.1559 12.3513 1200 122.664 797.824 457.851
622 0 101.189 13.4996 1366 120.815 797.111 455.753
623 1 51.2202 11.9289 611 119.19 797.09 480.065
624 0 53.0241 11.1836 593 120.912 796.872 480.403
625 0 56.137 12.042 676 117.87 796.914 479.473
626 0 54.15 12.133 657 122.186 797.874 477.167
627 0 59.0595 12.2927 726 119.361 798.428 476.543
628 0 60.0627 11.771 707 120.837 797.952 476.656
629 0 63.1426 11.9729 756 120.683 797.581 475.344
630 0 63.0633 11.7977 744 122.556 798.023 474.16
631 0 65.0978 12.9344 842 118.78 797.519 473.923
632 0 68.1249 12.2422 834 120.697 798.157 471.748
633 0 70.1354 12.5472 880 121.053 798.208 469.557
634 0 72.1195 11.9246 860 122.145 797.985 470.555
635 0 76.0821 12.7757 972 119.387 798.248 468.808
636 0 77.124 12.9661 1000 119.739 798.247 466.584
637 0 79.0772 12.4562 985 121.862 799.022 464.837
638 0 80.1899 11.6224 932 125.049 797.979 464.5
639 0 85.0738 13.118 1116 120.951 797.736 463.09
640 0 88.1025 13.28 1170 120.657 797.943 461.735
641 0 89.0678 13.0013 1158 122.869 797.285 458.755
642 0 93.1185 13.6493 1271 120.578 796.393 458.317
643 0 96.1684 12.8213 1233 123.381 796.57 456.656
644 0 99.1782 11.2928 1120 127.83 797.25 455.738
645 0 103.213 11.9365 1232 127.364 796.369 451.692
646 1 53.1025 12.2216 649 120.462 796.465 479.153
647 0 54.0537 12.2286 661 120.806 796.26 477.531
648 0 54.1921 12.3634 670 125.763 798.369 475.328
649 0 57.2111 12.987 743 123.608 797.716 473.844
650 0 55.1537 11.749 648 127.519 798.315 474
651 0 59.1831 11.9967 710 124.741 798.307 474.172
652 0 60.1598 12.0346 724 125.704 797.684 471.872
653 0 65.1648 12.4454 811 123.038 798.631 472.353
654 0 65.1366 13.1723 858 121.91 798.375 470.414
655 0 70.1666 13.8812 974 118.853 798.201 470.613
656 0 70.1685 12.5127 878 124.181 798.449 468.035
657 0 73.1915 13.3622 978 121.704 797.481 468.212
658 0 77.1744 13.5019 1042 119.881 797.436 466.706
659 0 77.1608 13.5431 1045 120.902 797.344 464.369
660 0 79.2036 12.9666 1027 116.585 797.408 463.675
661 0 82.0663 11.4785 942 120.251 798.224 463.433
662 0 85.119 12.9466 1102 117.53 797.474 462.219
663 0 88.0624 12.1164 1067 119.309 797.645 458.328
664 1 44.0319 10.7195 472 117.085 798.998 482.659
665 0 44.0361 10.7185 472 131.231 801.015 482.699
666 0 49.1143 11.9924 589 110.141 798.667 479.535
667 0 51.1252 12.577 643 107.538 798.481 480.384
668 0 53.0304 12.5588 666 107.629 798.209 479.937
669 0 53.0608 11.892 631 110.184 798.61 479.108
670 0 55.1084 12.7748 704 107.601 798.791 477.294
671 0 54.0553 11.8212 639 112.013 798.626 476.728
672 0 59.0734 13.1193 775 106.867 798.377 476.123
673 0 59.0734 13.0854 773 129.962 797.395 476.114
674 0 62.0747 13.3871 831 108.442 797.697 472.835
675 0 65.0898 12.6594 824 110.073 798.615 474.2
676 0 64.1051 12.1363 778 113.811 798.524 471.918
677 0 68.2099 12.5642 857 111.861 798.588 470.898
678 0 69.137 13.3069 920 110.988 798.828 469.437
679 0 73.1759 13.2557 970 111.149 798.95 469.639
680 0 75.1084 12.3022 924 114.505 798.397 468.13
681 0 76.101 12.9959 989 114.062 797.846 467.912
682 0 80.1206 12.9056 1034 116.632 797.99 466.246
683 0 83.1469 12.965 1078 114.673 798.587 464.589
684 0 84.1308 12.5043 1052 116.56 798.303 463.517
685 1 45.0616 10.6965 482 117.689 798.458 483.29
686 0 49.016 11.4656 562 112.048 798.279 482.055
687 0 48.081 11.4598 551 110.884 796.79 481.23
688 0 50.0208 12.055 603 108.415 798.161 482.245
689 0 51.0467 11.6168 593 108.04 795.428 481.422
690 0 53.059 12.3824 657 106.785 795.866 479.895
691 0 55.099 13.4304 740 105.184 795.651 478.473
692 0 56.1012 12.121 680 108.026 795.385 477.088
693 0 59.0478 11.1435 658 108.719 796.109 477.824
694 0 60.1171 13.2242 795 106.171 796.009 474.158
695 0 62.1294 12.4096 771 108.813 796.082 474.748
696 0 63.1328 12.5608 793 109.738 795.574 473.744
697 0 66.0932 13.9197 920 107.007 795.796 471.796
698 0 67.0843 12.1638 816 112.127 796.082 471.428
699 0 69.1052 13.1539 909 110.311 795.823 469.727
700 0 73.1562 14.9133 1091 105.213 796.147 469.07
701 0 76.0981 13.1541 1001 110.915 796.641 466.609
702 0 76.1698 12.2489 933 113.464 796.283 463.577
703 0 79.1176 13.3851 1059 111.011 796.023 463.983
704 0 82.1241 13.711 1126 111.123 795.924 462.488
705 0 87.0777 14.3895 1253 108.242 797.003 462.942
706 0 86.1426 12.6418 1089 115.065 795.815 462.1
707 0 92.1325 13.2635 1222 112.875 796.81 459.02
708 0 95.1876 14.6553 1395 110.781 797.042 457.961
709 0 97.1841 12.3168 1197 118.099 796.854 453.19
710 1 53.1376 10.8398 576 115.811 796.04 480.137
711 0 54.1054 11.6624 631 114.103 796.452 480.06
712 0 55.1007 12.8855 710 112.193 798.142 476.883
713 0 58.1375 13.3649 777 112.118 797.739 475.353
714 0 58.114 12.5959 732 112.56 797.082 476.424
715 0 61.1121 12.2398 748 113.801 796.472 474.803
716 0 64.0815 12.921 828 111.932 796.298 474.623
717 0 64.0275 12.2447 784 114.624 796.939 474.185
718 0 68.1068 12.6713 863 112.795 796.773 473.677
719 0 70.159 14.2533 1000 111.119 796.614 470.799
720 0 71.1608 13.4765 959 112.829 796.816 468.933
721 0 74.111 13.3853 992 114.16 797.132 467.601
722 0 75.1794 12.5699 945 116.455 797.056 467.906
723 0 80.2368 14.4447 1159 110.803 797.643 467.028
724 0 83.2413 13.3708 1113 114.942 796.827 465.205
725 0 83.2685 13.5706 1130 116.37 796.319 463.091
726 0 87.2571 13.5118 1179 118.129 795.841 460.986
727 0 88.3157 13.5197 1194 119.681 796.324 461.715
728 0 92.1924 13.4501 1240 121.145 796.441 457.181
729 1 50.1232 10.9331 548 122.071 795.998 478.768
730 0 50.1093 11.7743 590 118.269 796.349 476.703
731 0 48.2182 9.31183 449 119.973 796.655 474.679
732 0 51.1726 10.4743 536 111.166 798.459 475.828
733 0 55.144 10.1915 562 111.053 798.706 477.005
734 0 56.1451 10.6332 597 110.312 798.358 475.397
735 0 58.2019 10.4979 611 111.754 797.966 475.501
736 0 60.2725 10.6848 644 111.492 797.503 472.443
737 0 61.3199 10.1761 624 113.748 797.623 468.335
738 0 63.1575 9.89589 625 114.259 797.453 469.909
739 0 69.0416 12.4128 857 113.202 798.035 473.631
740 0 71.1298 11.5704 823 115.957 797.52 470.705
741 0 71.0588 11.2724 801 117.802 798.061 469.77
742 0 74.0374 11.3186 838 117.555 797.817 468.254
743 0 79.1048 11.6681 923 114.307 797.752 467.608
744 0 82.1685 11.6711 959 114.35 798.148 466.348
745 0 85.2021 11.2556 959 115.369 798.263 463.707
746 0 88.0752 11.229 989 113.396 797.721 464.615
747 0 92.0784 11.664 1074 112.114 797.648 463.442
748 0 94.1757 11.0113 1037 115.122 797.608 460.492
749 0 98.1249 11.5567 1134 111.172 796.252 454.929
750 0 102.158 10.8166 1105 119.733 796.033 456.892
751 0 107.231 11.3867 1221 121.097 795.798 453.468
752 0 108.247 11.2244 1215 122.364 795.699 451.715
753 1 57.0528 13.8468 790 108.349 796.115 477.546
754 0 58.034 12.3893 719 114.299 796.747 476.841
755 0 60.0575 12.4714 749 113.291 795.581 474.232
756 0 63.0413 13.6419 860 109.856 796.658 474.44
757 0 65.0537 12.3744 805 114.067 796.062 471.325
758 0 66.0618 12.7154 840 113.587 795.842 470.967
759 0 69.1722 14.1531 979 109.192 796.082 469.796
760 0 70.0394 13.264 929 111.439 795.213 469.879
761 0 75.215 13.2155 994 110.743 795.912 468.112
762 0 76.1391 13.4491 1024 111.24 795.984 465.766
763 0 79.2528 13.2992 1054 110.88 796.131 465.188
764 0 82.269 13.1641 1083 112.005 796.069 463.959
765 0 85.2853 14.5277 1239 108.446 796.188 463.597
766 0 89.4027 13.4672 1204 111.409 796.183 461.83
767 0 92.228 13.4233 1238 111.817 796.112 459.851
768 0 95.318 13.4392 1281 112.916 796.299 458.755
769 0 97.429 13.4867 1314 113.705 796.597 457.667
770 1 50.1914 10.5596 530 116.102 797.368 481.121
771 0 50.2778 11.8541 596 114.809 797.681 477.844
772 0 51.1484 9.73637 498 106.283 797.516 475.546
773 0 54.164 10.8005 585 98.253 798.354 474.877
774 0 56.1043 10.7657 604 99.2252 798.187 474.882
775 0 57.1712 12.8911 737 96.3894 797.274 475.244
776 0 59.075 11.4939 679 98.9956 797.087 474.127
777 0 60.115 11.4946 691 100.259 797.478 471.939
778 0 62.1077 11.6894 726 100.974 796.97 471.047
779 0 64.1901 11.871 762 101.693 797.026 471.749
780 0 65.0786 12.6155 821 101.699 796.901 470.724
781 0 67.0848 10.8668 729 106.281 796.955 469.086
782 0 70.1513 10.9905 771 107 796.77 468.079
783 0 69.0839 11.2182 775 109.196 797.003 465.748
784 0 74.2169 11.8706 881 107.454 796.955 465.766
785 0 77.1652 11.5596 892 109.691 797.101 463.149
786 0 79.1467 11.6619 923 110.946 796.992 461.736
787 0 82.2923 12.0181 989 112.694 796.529 459.184
788 0 85.2591 12.984 1107 111.266 796.611 459.425
789 1 42.0051 8.49897 357 111.793 797.213 481.35
790 0 44.0642 10.5301 464 109.409 796.903 480.004
791 0 46.1379 12.4193 573 115.787 795.222 482.281
792 0 49.1182 12.5004 614 123.298 794.796 482.933
793 0 51.0735 13.7449 702 119.866 794.581 481.191
794 0 52.0946 12.0742 629 125.787 794.361 480.065
795 0 54.0918 12.6637 685 125.204 795.263 478.701
796 0 55.016 12.8508 707 123.214 794.993 479.736
797 0 56.1033 13.2434 743 122.908 795.05 478.977
798 0 59.174 12.8773 762 123.518 794.692 477.173
799 0 59.031 12.5866 743 126.871 794.666 475.07
800 0 60.0444 11.8079 709 128.329 794.557 475.929
801 0 63.0783 13.8717 875 121.702 794.533 475.179
802 0 64.0623 13.2215 847 125.099 794.445 473.592
803 0 66.0839 12.8322 848 126.712 794.64 472.312
804 0 68.0739 12.3102 838 126.8 795.13 471.85
805 0 71.0975 13.7839 980 123.9 794.942 469.25
806 0 71.1501 13.1553 936 126.616 796.082 469.463
807 0 73.1378 13.1533 962 126.541 796.129 468.78
808 0 77.1744 14.0202 1082 123.561 796.026 468.119
809 0 76.227 12.1348 925 131.832 796.552 465.805
810 0 80.197 14.1402 1134 125.461 796.575 464.681
811 0 84.1866 13.8264 1164 125.503 797.305 463.223
812 0 88.1531 13.4766 1188 125.698 796.673 461.666
813 0 90.2475 13.8508 1250 124.532 795.854 461.251
814 0 93.1277 13.1755 1227 126.758 796.494 460.024
815 1 48.0773 10.6495 512 126.914 795.938 482.443
816 0 50.1252 11.3316 568 120.565 795.023 482.548
817 0 52.053 12.641 658 120.378 795.064 480.132
818 0 54.0414 12.2684 663 122.243 796.846 479.291
819 0 55.0702 12.9108 711 120.924 797.502 479.435
820 0 58.0562 12.729 739 121.593 797.517 480.08
821 0 59.0294 13.3832 790 120.813 797.556 477.062
822 0 60.0583 12.5878 756 125.193 797.327 475.566
823 0 63.0409 13.1661 830 121.572 797.284 475.575
824 0 63.0737 12.3506 779 125.243 797.149 475.065
825 0 67.0567 12.646 848 125.39 797.812 472.811
826 0 66.0908 12.0592 797 128.739 797.028 472.221
827 0 69.0934 12.2588 847 129.697 796.351 471.851
828 0 71.0941 13.5595 964 127.119 797.059 471.221
829 0 73.1095 13.1583 962 128.346 796.975 469.992
830 0 78.1731 13.2399 1035 128.25 796.364 469.257
831 0 78.1142 13.3906 1046 130.321 796.184 467.245
832 0 82.1395 14.5971 1199 127.091 795.9 466.3
833 0 84.133 12.3257 1037 134.093 796.516 465.726
834 0 87.1464 13.1732 1148 132.733 795.651 463.409
835 0 90.2393 13.5972 1227 131.223 795.865 463.857
836 1 47.0517 11.4555 539 129.484 796.03 483.963
837 0 50.0708 12.3026 616 121.703 795.804 483.037
838 0 51.1683 11.6478 596 120.919 797.518 481.337
839 0 50.0579 13.0449 653 119.266 797.721 480.45
840 0 51.0566 12.5351 640 122.641 797.767 481.542
841 0 54.0567 11.9689 647 122.743 797.322 480.893
842 0 56.0592 13.5928 762 118.219 797.304 479.357
843 0 57.0796 12.2285 698 121.728 797.248 480.116
844 0 59.0634 14.3405 847 116.856 796.811 477.091
845 0 62.129 12.5545 780 120.555 796.563 476.731
846 0 65.0546 13.5732 883 116.991 795.861 474.716
847 0 65.1942 13.0073 848 120.426 796.101 472.182
848 0 66.1044 11.9508 790 123.359 795.652 473.382
849 0 70.0392 12.9356 906 120.567 795.876 472.471
850 0 72.0485 11.8254 852 123.711 796.669 470.583
851 0 75.116 13.1397 987 120.578 796.107 470.089
852 0 76.1602 13.0777 996 122.991 796.207 468.258
853 0 80.1214 13.7042 1098 122.283 795.758 466.478
854 0 82.1236 13.3092 1093 124.151 795.9 464.872
855 0 86.1305 13.259 1142 124.304 795.963 464.362
856 0 89.0382 14.3197 1275 123.296 797.034 461.068
857 0 91.2423 13.6888 1249 126.897 796.47 458.576
858 0 93.1683 13.8996 1295 127.84 796.31 458.756
859 1 47.0703 11.0261 519 127.445 796.819 482.237
860 0 49.0372 11.8278 580 125.49 796.329 481.647
861 0 50.1118 13.0708 655 121.699 796.565 479.25
862 0 53.1083 12.7099 675 123.376 796.6 478.683
863 0 55.0223 13.122 722 122.821 796.414 478.544
864 0 56.0292 13.493 756 124.405 796.397 477.159
865 0 56.0369 12.1706 682 129.273 796.389 476.764
866 0 59.0666 13.1039 774 125.864 795.996 477.457
867 0 61.0995 13.0116 795 126.356 796.524 476.075
868 0 63.0414 13.5784 856 125.693 796.493 475.027
869 0 67.1473 13.8055 927 124.243 797.132 473.975
870 0 67.1645 13.4446 903 126.173 796.364 472.468
871 0 70.0581 13.7315 962 126.464 796.996 470.585
872 0 71.0649 14.3249 1018 125.886 796.952 472.484
873 0 74.0883 13.5244 1002 128.051 797.142 469.173
874 0 76.2241 13.867 1057 127.718 797.442 470.114
875 0 79.1303 13.2187 1046 129.87 797.384 467.447
876 0 79.1262 13.4974 1068 131.028 796.977 466.42
877 0 83.1535 13.7457 1143 129.495 797.147 465.128
878 0 85.1424 14.4581 1231 127.141 797.402 461.327
879 0 89.2155 12.9238 1153 131.31 796.344 461.112
880 0 90.1779 13.5399 1221 130.93 796.753 460.234
881 1 48.0205 11.4326 549 131.337 796.304 481.109
882 0 50.0108 12.6173 631 129.487 795.708 480.433
883 0 50.0108 12.5973 630 135.943 794.719 480.438
884 0 55.0659 12.367 681 129.025 796.564 476.768
885 0 57.0508 12.5152 714 127.606 796.641 477.374
886 0 59.0936 13.4363 794 125.36 796.068 475.816
887 0 59.207 13.1572 779 127.438 795.798 474.584
888 0 62.0968 13.7366 853 124.11 796.263 473.836
889 0 65.1232 13.3593 870 124.576 795.977 474.444
890 0 66.0783 12.1674 804 129.483 796.28 471.698
891 0 67.0799 12.5224 840 128.931 797.18 471.706
892 0 71.0539 12.6524 899 128.917 797.398 469.57
893 0 74.0987 13.3201 987 127.122 797.053 468.126
894 0 75.1925 12.8337 965 129.114 796.934 468.817
895 0 79.1135 13.6766 1082 128.015 796.803 465.311
896 0 80.121 13.1426 1053 130.369 796.755 465.328
897 0 85.0718 13.1536 1119 129.519 796.853 464.47
898 0 87.1498 13.5514 1181 130.165 796.853 462.76
899 0 89.1645 13.391 1194 131.859 796.548 460.126
900 0 93.1069 12.9099 1202 132.9 796.534 459.488
901 0 95.0879 13.9976 1331 131.279 796.098 457.891
902 0 101.379 14.4211 1462 129.777 796.465 456.388
903 0 103.191 13.2279 1365 133.831 796.653 452.944
904 0 106.14 13.3691 1419 134.408 796.503 452.188
905 0 110.295 13.6634 1507 134.921 796.314 448.8
906 1 57.2133 11.5183 659 133.81 796.842 478.159
907 0 57.1354 11.674 667 129.513 796.37 472.234
908 0 60.0896 11.6326 699 127.02 796.585 470.722
909 0 64.1474 12.1751 781 124.233 795.597 470.849
910 0 64.1447 11.5364 740 129.259 796.247 467.958
911 0 68.0804 12.2208 832 127.042 795.915 465.968
912 0 71.1261 13.0051 925 124.668 796.25 464.619
913 0 74.1424 12.8536 953 124.408 796.009 466.285
914 0 77.1128 12.553 968 125.635 796.272 466.224
915 0 78.1022 12.9574 1012 122.606 796.301 466.63
916 0 82.0908 12.6933 1042 122.479 796.4 465.998
917 0 83.1776 11.1689 929 127.033 796.04 464.628
918 0 87.082 12.8155 1116 126.175 796.342 463.416
919 0 90.1328 13.5023 1217 127.847 796.613 459.028
920 0 95.1576 13.1992 1256 129.073 796.048 457
921 0 98.1791 13.18 1294 129.362 796.283 456.766
922 0 102.379 13.0593 1337 130.504 795.939 453.408
923 1 52.0874 11.4807 598 123.338 795.533 479.878
924 0 54.0527 11.5258 623 124.438 794.706 478.531
925 0 56.0778 12.1795 683 122.223 795.47 478.69
926 0 58.1269 11.8362 688 123.709 794.467 476.722
927 0 60.1319 11.242 676 124.991 794.7 476.459
928 0 62.1255 13.1669 818 121.746 794.914 473.274
929 0 64.1141 12.1502 779 123.195 795.502 473.725
930 0 65.1651 12.1691 793 124.7 795.361 471.359
931 0 69.2108 12.3536 855 123.462 795.781 470.688
932 0 71.232 12.5786 896 122.544 795.74 471.344
933 0 71.1394 11.3861 810 127.083 795.574 468.964
934 0 74.2162 11.6686 866 126.926 796.057 467.389
935 0 79.2716 13.6997 1086 120.54 796.496 466.156
936 0 80.1274 12.9169 1035 124.34 796.242 464.809
937 0 79.1054 11.2635 891 130.227 796.107 464.251
938 0 84.2272 11.837 997 127.776 795.717 464.18
939 0 84.2272 11.8014 994 151.831 794.766 464.017
940 0 92.0907 13.7582 1267 124.825 796.071 459.859
941 0 94.2046 13.821 1302 130.269 795.887 458.503
942 0 97.1757 14.0364 1364 128.68 795.341 458.111
943 0 99.1037 11.9975 1189 130.734 795.773 457.199
944 0 104.388 11.965 1249 129.459 797.521 453.364
945 1 54.136 12.4871 676 123.664 797.222 474.805
946 0 54.0752 11.4655 620 127.174 797.711 474.187
947 0 57.0584 13.4424 767 124.339 797.609 477.28
948 0 59.2104 14.1698 839 124.491 796.93 474.963
949 0 61.3099 13.4725 826 124.59 796.409 474.976
950 0 62.2527 13.1079 816 126.311 797.099 473.164
951 0 64.5029 13.1002 845 126.18 797.004 472.556
952 0 65.196 12.6081 822 127.943 797.135 471.551
953 0 68.1463 12.8107 873 126.797 796.769 471.501
954 0 67.2545 12.5939 847 129.492 797.035 469.545
955 0 70.2734 12.3091 865 128.573 796.812 469.814
956 0 72.2364 13.3312 963 126.337 797.124 467.363
957 0 77.2831 13.2112 1021 125.334 796.904 467.786
958 0 78.2839 13.6554 1069 123.867 797.207 466.663
959 0 77.1237 12.8754 993 126.886 797.123 464.807
960 0 81.1469 14.5169 1178 119.758 796.582 465.409
961 0 85.1585 13.5042 1150 121.623 797.25 463.015
962 0 87.1539 13.8146 1204 115.039 798.126 462.326
963 0 89.1079 12.7935 1140 117.441 797.276 461.73
964 0 91.0888 12.6909 1156 118.452 797.655 457.71
965 0 95.0946 13.0291 1239 116.715 797.178 457.361
966 1 50.0432 12.4492 623 115.119 797.836 478.981
967 0 52.049 12.2769 639 115.258 797.626 479.006
968 0 53.0345 12.4824 662 114.912 796.5 478.606
969 0 57.0716 12.5807 718 112.595 795.563 477.402
970 0 57.1654 11.6504 666 113.851 796.129 474.98
971 0 58.0239 12.4087 720 112.096 795.288 473.485
972 0 62.0701 13.8553 860 107.931 795.924 473.022
973 0 64.0763 12.8597 824 110.225 795.814 471.636
974 0 65.1302 12.8205 835 110.153 796.327 471.281
975 0 66.1256 13.1568 870 110.359 796.118 470.898
976 0 70.1576 14.3392 1006 107.078 796.542 468.484
977 0 72.11 13.5765 979 109.12 796.803 469.188
978 0 73.2643 13.2261 969 112.094 796.761 466.755
979 0 77.1398 13.5728 1047 110.658 796.589 466.01
980 0 80.222 13.9114 1116 110.59 796.266 464.782
981 0 80.1828 13.5316 1085 113.698 796.269 461.835
982 0 84.1171 12.7917 1076 114.763 796.329 459.72
983 0 83.0545 12.8349 1066 116.975 795.916 457.826
984 0 87.0934 13.342 1162 115.942 796.305 456.995
985 0 90.1287 13.9245 1255 115.645 795.464 456.734
986 0 93.1305 14.4743 1348 114.357 796.148 456.361
987 0 94.0952 14.4216 1357 116.514 796.416 453.903
988 0 98.081 15.2833 1499 114.801 796.583 452.752
989 0 101.13 14.3677 1453 117.957 796.9 451.151
990 0 106.123 13.277 1409 122.235 796.742 447.874
991 0 108.124 14.4741 1565 120.358 795.988 447.799
992 0 112.129 13.8769 1556 114.932 796.741 440.657
993 1 55.1238 12.1907 672 110.485 796.918 471.741
994 0 59.097 11.7603 695 110.553 796.993 469.786
995 0 58.0258 11.581 672 111.015 797.304 468.868
996 0 60.1032 11.9461 718 110.552 797.542 466.213
997 0 63.023 11.8211 745 111.668 797.267 466.733
998 0 68.0386 13.1102 892 115.336 797.448 465.04
999 0 71.077 12.803 910 115.12 797.458 466.474
1000 0 70.1946 12.5081 878 113.484 797.524 463.313
1001 0 76.1004 13.7713 1048 108.641 797.5 464.948
1002 0 76.0856 12.0259 915 120.695 798.033 460.752
1003 0 82.0637 12.8437 1054 113.443 797.507 460.076
1004 0 85.1656 13.6675 1164 115.523 797.91 460.566
1005 0 88.0578 15.0924 1329 120.043 797.856 461.683
1006 0 90.1083 14.7378 1328 121.5 797.8 461.404
1007 0 93.082 14.6645 1365 123.338 797.245 456.489
1008 0 98.0952 15.0874 1480 120.897 797.314 457.732
1009 0 101.185 14.1029 1427 123.13 796.678 455.935
1010 1 54.0556 13.2271 715 117.997 795.625 477.373
1011 0 57.2627 13.7611 788 114.254 797.438 475.115
1012 0 58.0504 12.9026 749 116.796 796.595 476.909
1013 0 60.0434 12.7241 764 116.88 796.517 476.538
1014 0 62.0969 14.5418 903 113.13 796.625 474.601
1015 0 65.0545 14.0498 914 114.972 796.762 473.928
1016 0 67.1801 13.2182 888 117.258 796.503 472.271
1017 0 71.1714 13.7696 980 116.538 796.474 469.381
1018 0 72.0395 13.5065 973 117.41 796.466 471.352
1019 0 74.0964 13.7794 1021 119.074 796.407 467.614
1020 0 76.086 14.6939 1118 117.579 797.108 467.123
1021 0 79.0551 14.8251 1172 118.133 796.85 464.682
1022 0 80.079 14.0361 1124 120.867 796.897 464.268
1023 0 84.1922 13.2673 1117 123.902 796.756 463.984
1024 0 85.3629 14.9128 1273 120.295 797.424 462.896
1025 0 88.202 15.0223 1325 120.604 797.408 459.725
1026 0 91.3272 15.2747 1395 120.103 797.204 457.475
1027 0 93.243 14.4676 1349 121.912 796.832 457.992
1028 0 94.1392 12.6302 1189 121.384 796.329 450.887
1029 1 52.2238 9.74651 509 115.686 796.904 475.532
1030 0 50.12 9.93616 498 117.436 796.44 472.872
1031 0 56.1116 12.9385 726 108.154 796.197 473.306
1032 0 57.1344 12.3393 705 108.679 796.773 473.2
1033 0 58.0654 11.2115 651 111.267 796.78 471.484
1034 0 61.151 12.4773 763 108.864 797.01 470.068
1035 0 64.0855 12.9983 833 110.409 796.72 469.122
1036 0 67.0818 12.1344 814 118.205 797.817 467.498
1037 0 71.1027 13.4172 954 122.897 798.543 470.19
1038 0 72.253 13.5219 977 123.471 798.311 469.593
1039 0 75.1365 12.8034 962 126.227 798.114 467.621
1040 0 77.2657 13.4859 1042 126.199 798.063 465.975
1041 0 79.1919 13.7514 1089 126.712 798.15 464.877
1042 0 82.1235 13.5041 1109 127.294 798.249 465.414
1043 0 85.1454 13.2597 1129 129.182 798.231 462.833
1044 0 89.2568 14.8224 1323 125.376 797.835 462.692
1045 0 92.1154 14.0802 1297 127.958 798.123 459.441
1046 0 94.3136 13.3067 1255 129.139 797.505 458.424
1047 0 98.3712 13.1136 1290 129.325 797.487 456.417
1048 0 98.3553 11.9363 1174 132.972 797.142 454.581
1049 0 104.343 13.6473 1424 126.185 796.846 448.978
1050 1 55.2321 10.646 588 121.548 797.529 477.473
1051 0 58.3151 11.4207 666 117.437 796.309 475.477
1052 0 59.1225 12.3642 731 115.079 797.116 475.733
1053 0 60.2051 11.6269 700 116.954 797.063 476.949
1054 0 63.1813 12.4562 787 114.722 797.089 473.785
1055 0 66.256 11.3348 751 116.57 797.061 472.895
1056 0 70.0818 13.1275 920 110.423 796.924 471.911
1057 0 70.1 11.3267 794 116.132 796.846 470.484
1058 0 72.1723 13.0382 941 119.967 796.702 466.166
1059 0 76.2311 12.2916 937 120.299 796.995 466.893
1060 0 78.2937 12.0444 943 120.265 796.85 466.356
1061 0 81.2735 11.5167 936 120.221 796.304 465.793
1062 0 84.2626 12.7696 1076 117.053 796.12 461.434
1063 0 87.2104 13.7713 1201 114.584 796.324 461.552
1064 0 90.2156 13.5675 1224 113.092 796.393 460.049
1065 0 93.2207 11.993 1118 115.973 796.299 459.415
1066 1 47.0806 10.3652 488 110.682 797.295 482.668
1067 0 49.0465 10.8469 532 110.423 797.186 479.573
1068 0 52.1756 10.2347 534 110.974 796.86 477.052
1069 0 53.177 12.3362 656 105.369 796.271 479.268
1070 0 53.1341 11.4992 611 107.592 795.833 478.491
1071 0 55.0444 13.4619 741 108.891 795.762 476.564
1072 0 56.1872 12.8499 722 110.932 795.673 475.896
1073 0 59.1278 12.1939 721 112.078 795.395 475.268
1074 0 61.0703 12.3628 755 111.669 795.148 475.605
1075 0 64.1858 13.5077 867 109.725 795.366 473.437
1076 0 63.032 12.5174 789 114.343 795.708 472.858
1077 0 67.2272 13.6106 915 111.838 795.315 470.692
1078 0 68.21 12.8134 874 114.957 795.801 471.121
1079 0 71.2324 13.3928 954 114.854 795.782 470.002
1080 0 73.272 13.7433 1007 114.521 796.241 469.428
1081 0 76.1975 13.8325 1054 115.016 796.209 467.99
1082 0 79.1808 14.2964 1132 114.533 796.582 467.324
1083 0 81.4015 14.6066 1189 115.38 795.952 466.095
1084 0 85.2933 14.8429 1266 115.177 795.532 464.84
1085 0 87.2912 13.2201 1154 120.76 796.139 461.883
1086 0 89.2229 14.1668 1264 118.498 795.983 461.518
1087 0 92.2311 13.8348 1276 119.959 795.992 459.865
1088 0 96.1896 14.409 1386 118.26 795.597 457.987
1089 0 100.234 13.8376 1387 119.674 796.646 455.669
1090 1 53.1119 11.2781 599 126.255 796.937 475.79
1091 0 55.1545 12.2383 675 125.713 796.61 475.397
1092 0 58.1586 12.2596 713 124.041 797.285 474.342
1093 0 60.0561 13.3542 802 122.242 797.219 472.627
1094 0 62.0497 13.3764 830 123.727 797.652 470.941
1095 0 63.0909 13.0605 824 124.345 796.909 470.927
1096 0 65.0546 13.3734 870 123.995 796.917 470.712
1097 0 70.1071 14.2782 1001 120.563 797.512 469.98
1098 0 71.0458 14.371 1021 121.639 797.594 469.136
1099 0 75.043 14.2318 1068 121.727 797.432 467.562
1100 0 76.1249 14.4368 1099 122.419 797.823 465.073
1101 0 78.0424 13.6336 1064 123.688 797.604 465.523
1102 0 81.144 14.9611 1214 119.802 797.356 464.719
1103 0 84.0542 13.3723 1124 124.593 797.221 464.007
1104 0 87.0974 14.5814 1270 121.28 797.135 462.757
1105 0 90.1496 14.3983 1298 121.488 796.854 460.478
1106 0 93.0686 14.3872 1339 121.358 797.091 460.594
1107 0 95.1013 13.2595 1261 125.288 797.526 459.531
1108 1 53.0346 11.5019 610 126.71 797.577 479.793
1109 0 54.0242 12.5314 677 125.576 798.121 477.934
1110 0 54.0765 12.2419 662 125.147 797.098 474.16
1111 0 59.0548 13.9701 825 121.983 797.343 474.696
1112 0 60.0328 13.0429 783 125.524 797.3 474.595
1113 0 61.0422 13.3023 812 124.399 797.926 474.169
1114 0 60.04 13.4077 805 126.963 797.318 473.486
1115 0 62.0594 13.5354 840 127.021 797.513 470.508
1116 0 66.0345 14.1896 937 123.011 797.115 470.828
1117 0 65.088 12.3986 807 128.713 797.566 469.068
1118 0 70.0716 14.4995 1016 122.244 797.714 468.678
1119 0 71.0578 13.0035 924 124.834 797.845 469.192
1120 0 73.0485 12.7723 933 127.977 797.405 465.15
1121 0 76.0797 13.8933 1057 124.287 797.552 462.96
1122 0 79.1318 13.8503 1096 124.232 797.195 462.245
1123 0 79.1491 12.6091 998 128.146 797.086 461.333
1124 0 83.1818 11.9858 997 130.059 796.647 458.221
1125 0 86.3377 12.6017 1088 127.29 796.498 460.163
1126 0 88.3142 11.9913 1059 129.349 796.344 456.117
1127 0 93.3692 12.9272 1207 122.172 796.186 452.697
1128 1 48.1254 11.4285 550 123.205 796.784 477.442
1129 0 50.1393 12.8043 642 120.38 795.997 474.712
1130 0 50.113 12.1925 611 123.437 795.535 476.234
1131 0 52.1019 14.2029 740 118.846 795.664 474.45
1132 0 54.1849 13.0295 706 121.385 795.448 475.246
1133 0 56.1238 13.595 763 119.033 795.052 473.857
1134 0 57.1149 13.1839 753 122.614 795.012 471.984
1135 0 60.0689 13.6177 818 120.232 795.081 472.204
1136 0 60.142 13.784 829 120.187 795.503 470.869
1137 0 63.2784 12.9902 822 121.8 796.393 470.809
1138 0 66.318 13.6011 902 119.902 796.155 469.386
1139 0 68.2333 13.2633 905 121.167 795.752 467.096
1140 0 71.2859 14.0701 1003 119.406 796.341 466.5
1141 0 73.3831 14.6764 1077 118.027 796.387 465.33
1142 0 76.3178 13.8631 1058 120.513 796.407 462.538
1143 0 80.3888 15.2758 1228 115.937 796.058 461.611
1144 0 80.3304 13.6187 1094 118.64 796.158 462.722
1145 0 84.196 12.7203 1071 121.427 795.801 460.8
1146 1 47.2765 11.8029 558 122.416 795.719 479.869
1147 0 47.0862 12.1904 574 122.371 796.892 479.329
1148 0 49.1557 12.9995 639 120.714 796.022 477.016
1149 0 49.0395 12.6633 621 122.989 796.254 478.43
1150 0 51.0352 13.9316 711 120.412 796.022 477.392
1151 0 55.0626 14.0386 773 118.004 795.68 475.983
1152 0 57.049 14.321 817 117.302 796.365 474.958
1153 0 59.0381 14.1773 837 117.865 795.673 474.268
1154 0 60.0431 13.4237 806 121.801 795.821 473.582
1155 0 61.0132 12.9316 789 123.049 795.836 472.535
1156 0 62.0977 13.2694 824 123.576 796.271 470.604
1157 0 66.2192 13.4553 891 121.981 795.897 470.145
1158 0 67.11 12.934 868 123.986 796.488 467.979
1159 0 73.1887 14.5787 1067 118.243 796.547 466.697
1160 0 74.2601 13.52 1004 122.975 796.509 465.124
1161 0 74.1785 12.4699 925 127.522 796.466 461.671
1162 0 77.1382 13.9231 1074 125.337 796.143 459.438
1163 0 81.061 13.7427 1114 125.484 796.281 457.189
1164 0 83.1641 12.9623 1078 127.764 796.171 455.34
1165 0 86.1584 13.5564 1168 126.925 796.449 453.191
1166 0 89.2012 13.5536 1209 125.912 795.959 454.535
1167 0 91.0984 13.3153 1213 128.677 796.389 450.152
1168 0 96.1488 13.6975 1317 126.434 796.418 448.535
1169 0 100.31 15.6713 1572 121.563 795.051 445.44
1170 0 100.151 13.5295 1355 128.016 795.46 444.8
1171 1 53.1001 12.015 638 118.694 795.94 471.244
1172 0 54.2509 11.7602 638 114.114 796.683 470.516
1173 0 57.1688 13.294 760 114.07 796.086 473.016
1174 0 59.2073 14.8124 877 117.35 795.745 473.705
1175 0 60.2681 13.6391 822 121.124 795.86 473.822
1176 0 63.12 13.0862 826 122.552 795.735 471.881
1177 0 67.4599 13.949 941 119.384 796.046 471.808
1178 0 67.3894 13.1326 885 121.959 795.977 469.913
1179 0 67.375 14.3525 967 120.904 795.898 466.528
1180 0 70.2613 13.1936 927 123.107 795.769 467.009
1181 0 70.2535 12.1845 856 127.694 796.272 462.632
1182 0 74.2299 13.1079 973 123.366 796.141 464.195
1183 0 74.3169 13.0253 968 125.658 795.724 457.592
1184 0 77.3734 14.6303 1132 121.883 795.604 454.021
1185 0 80.231 12.2646 984 129.102 795.979 454.799
1186 0 81.2543 12.9101 1049 128.516 796.038 452.202
1187 0 87.2577 13.8211 1206 125.649 795.988 452.245
1188 0 91.4198 13.5529 1239 126.563 795.313 451.434
1189 0 92.3169 14.1686 1308 125.201 796.31 449.842
1190 0 96.2753 14.3547 1382 124.609 796.025 449.365
1191 0 99.4087 14.7371 1465 124.99 795.722 445.919
1192 0 100.323 13.8054 1385 128.528 795.844 444.034
1193 0 104.256 14.0232 1462 128.328 796.018 442.333
1194 0 107.264 13.5926 1458 128.942 795.979 441.684
1195 0 112.297 13.8383 1554 128.479 796.396 440.446
1196 0 113.303 13.5742 1538 130.232 795.547 439.895
1197 0 118.315 13.6754 1618 130.412 796.416 436.037
1198 0 121.354 13.6131 1652 130.576 796.084 432.065
1199 0 123.302 12.1409 1497 134.662 796.21 434.403
1200 0 128.205 13.3068 1706 131.495 795.904 430.984
1201 0 134.242 13.9896 1878 129.356 795.808 424.286
1202 0 138.274 14.2109 1965 128.797 796.147 425.486
1203 0 145.482 13.8162 2010 129.615 795.86 420.271
1204 0 151.34 14.4509 2187 126.591 796.278 421.252
1205 0 153.477 13.0574 2004 131.509 796.086 417.609
1206 0 161.331 13.3701 2157 130.217 795.622 415.367
1207 0 165.431 13.6008 2250 130.904 796.156 407.505
1208 0 172.529 14.3744 2480 129.043 796.133 406.106
1209 0 179.367 14.501 2601 129.013 795.993 403.847
1210 0 186.474 14.8278 2765 127.672 795.36 400.022
1211 0 191.478 14.4299 2763 128.978 795.275 394.863
1212 0 191.478 14.4403 2765 146.703 795.276 394.977
1213 1 206.183 13.7015 2825 132.394 795.264 389.924
1214 0 212.287 13.006 2761 134.463 795.076 386.188
1215 0 217.335 13.118 2851 135.366 794.357 386.493
1216 0 227.341 14.3485 3262 131.129 794.579 379.448
1217 0 233.392 13.9851 3264 132.23 794.885 379.028
1218 0 241.24 12.9788 3131 135.096 795.363 375.185
1219 0 249.196 13.8405 3449 132.27 794.784 365.655
1220 0 249.212 13.8597 3454 164.391 792.782 365.574
1221 1 64.104 10.405 667 113.316 796.192 469.325
1222 0 68.1791 12.4965 852 111.073 797.502 469.975
1223 0 71.1209 10.9813 781 107.429 797.7 470.949
1224 0 71.0381 10.1917 724 111.337 797.086 467.427
1225 0 75.0435 11.5933 870 107.851 797.102 464.763
1226 0 78.1442 10.9541 856 109.241 796.824 466.627
1227 0 79.1107 11.7936 933 109.622 794.164 462.615
1228 0 82.1043 11.3149 929 110.093 794.262 464.515
1229 0 85.1679 11.5184 981 110.693 794.71 459.72
1230 0 88.1175 11.4733 1011 110.08 793.53 458.734
1231 0 91.141 12.0034 1094 108.59 794.29 456.409
1232 0 94.117 12.5057 1177 107.428 794.375 457.18
1233 0 97.1086 11.4511 1112 107.38 794.533 454.732
1234 0 97.2421 11.0652 1076 112.071 794.458 454.827
1235 0 106.05 13.2579 1406 101.865 795.2 445.314
1236 0 107.199 11.4553 1228 107.424 794.544 444.146
1237 0 109.133 11.8479 1293 109.144 793.779 449.559
1238 0 112.157 11.3324 1271 120.68 796.002 448.093
1239 0 116.189 12.7637 1483 117.645 796.14 445.229
1240 0 119.283 12.4578 1486 117.701 795.831 442.3
1241 0 124.2 11.4815 1426 120.433 796.098 439.899
1242 0 127.217 12.2704 1561 118.966 796.331 439.149
1243 0 131.233 11.7043 1536 120.013 795.742 438.926
1244 0 133.221 10.2912 1371 121.025 794.893 434.777
1245 0 137.195 11.1447 1529 118.804 795.318 433.564
1246 1 79.1056 9.92344 785 106.437 795.19 467.111
1247 0 84.1677 10.4434 879 106.093 795.886 463.564
1248 0 84.2775 9.18395 774 115.899 796.225 462.484
1249 0 89.054 11.0495 984 112.045 793.846 460.261
1250 0 92.1288 10.5287 970 114.575 793.496 459.369
1251 0 92.0398 10.4303 960 115.669 792.916 457.867
1252 0 96.1062 10.5196 1011 115.132 793.487 456.91
1253 0 100.233 10.1763 1020 115.483 795.137 455.484
1254 1 51.3063 9.84284 505 107.083 794.818 475.697
1255 0 51.4134 9.70565 499 109.802 795.024 473.794
1256 0 53.2752 11.8254 630 109.465 794.424 472.379
1257 0 55.1591 11.1677 616 107.956 794.435 477.252
1258 0 56.1851 11.3909 640 107.955 794.569 477.97
1259 0 57.1628 9.74411 557 114.316 794.533 477.88
1260 0 59.2016 10.4051 616 113.649 794.516 476.771
1261 0 60.1245 10.5448 634 114.09 793.926 477.145
1262 0 60.1862 10.6337 640 113.819 793.972 476.328
1263 0 63.1095 10.2203 645 113.349 794.236 474.754
1264 0 64.2424 10.8028 694 112.64 794.768 474.36
1265 0 67.116 9.59532 644 115.554 794.531 473.034
1266 0 71.0576 11.7651 836 110.977 795.227 471.138
1267 0 71.1556 10.2873 732 116.23 795.362 469.055
1268 0 75.121 11.7677 884 112.631 795.384 469.138
1269 0 77.1144 12.1119 934 114.105 794.685 466.5
1270 0 78.2101 11.6098 908 117.442 794.541 464.216
1271 0 82.4253 11.5135 949 118.016 794.45 462.189
1272 0 86.5131 11.3624 983 118.309 795.183 462.038
1273 0 89.3429 12.7039 1135 116.697 795.3 459.085
1274 0 90.1661 11.9114 1074 120.406 795.424 457.026
1275 1 48.2028 10.9952 530 117.549 795.306 479.196
1276 0 49.1769 10.9401 538 119.459 795.346 476.721
1277 0 52.1822 12.1689 635 117.224 794.937 478.148
1278 0 54.2836 11.9557 649 118.76 794.817 476.573
1279 0 53.2997 10.5254 561 123.955 795.098 475.848
1280 0 53.2802 11.2988 602 123.982 794.492 474.394
1281 0 56.2774 11.6032 653 122.253 794.637 475.68
1282 0 59.2072 12.0256 712 122.084 795.096 473.882
1283 0 60.2672 12.5441 756 120.655 795.933 474.172
1284 0 61.237 12.2475 750 123.417 795.317 474.257
1285 0 66.2767 12.7948 848 122.291 795.5 470.404
1286 0 68.2424 12.6461 863 124.029 795.48 471.651
1287 0 68.2073 13.283 906 125.945 795.064 468.822
1288 0 72.2649 12.7725 923 126.541 794.926 468.065
1289 0 74.306 14.2384 1058 125.095 793.959 464.099
1290 0 75.4461 12.7508 962 129.226 794.453 462.41
1291 0 80.3948 13.9934 1125 124.593 794.543 461.812
1292 0 83.6135 13.8136 1155 126.134 794.14 460.262
1293 0 85.4882 13.6159 1164 129.221 794.362 457.745
1294 0 89.3208 14.1177 1261 127.308 794.299 456.259
1295 1 48.4722 11.4499 555 127.083 794.461 476.888
1296 0 48.3152 11.7354 567 129.735 794.053 475.178
1297 0 52.2932 13.061 683 124.937 793.64 475.35
1298 0 54.1749 13.1242 711 123.897 793.743 474.454
1299 0 55.1579 13.9781 771 121.108 794.429 475.274
1300 0 56.1729 13.5119 759 123.266 795.426 476.095
1301 0 58.1653 14.3041 832 120.845 795.714 475.932
1302 0 60.21 13.5692 817 123.328 796.043 476.971
1303 0 61.2587 14.2837 875 121.225 795.24 476.77
1304 0 63.1894 14.6227 924 121.814 795.807 474.374
1305 0 63.2222 13.1758 833 127.523 795.4 473.303
1306 0 65.132 12.9429 843 129.066 795.682 471.663
1307 0 68.1531 14.1006 961 124.188 795.792 471.012
1308 0 70.2292 13.8119 970 126.12 795.701 468.527
1309 0 74.1596 13.8755 1029 124.952 795.27 468.816
1310 0 74.2429 13.375 993 128.813 795.493 467.272
1311 0 77.2568 14.5359 1123 124.816 795.397 465.947
1312 0 80.1788 13.5323 1085 128.712 795.222 464.394
1313 0 84.3723 13.4878 1138 128.307 795.163 461.547
1314 0 86.4597 13.7752 1191 126.848 794.735 460.109
1315 0 90.4688 13.9164 1259 127.193 794.466 458.297
1316 0 91.4156 13.8707 1268 127.382 794.894 457.889
1317 0 94.4629 14.4395 1364 126.577 794.571 455.044
1318 0 97.6184 12.2415 1195 132.82 794.356 452.19
1319 1 57.3216 13.2585 760 125.403 794.263 469.447
1320 0 58.2656 12.0311 701 126.763 793.964 468.565
1321 0 58.2656 12.0654 703 152.868 793.956 468.593
1322 0 62.1328 13.8091 858 117.076 793.955 472.897
1323 0 62.104 12.2375 760 121.497 794.163 473.043
1324 0 62.1186 12.5405 779 122.426 793.863 469.684
1325 0 66.2314 12.3959 821 121.519 793.155 470.134
1326 0 69.096 12.3307 852 121.708 793.525 469.3
1327 0 71.1996 12.9776 924 119.39 793.786 465.065
1328 0 75.1998 13.2181 994 117.282 794.258 466.928
1329 0 77.1457 13.5069 1042 116.226 794.662 465.277
1330 0 79.244 12.4678 988 118.754 794.196 465.079
1331 0 82.1982 14.0636 1156 114.263 794.012 461.958
1332 0 83.1543 12.2423 1018 120.187 794.176 461.315
1333 0 87.2956 13.5173 1180 115.724 793.894 460.531
1334 0 91.3077 13.449 1228 115.562 793.699 457.699
1335 0 94.1796 12.3381 1162 118.919 793.213 457.734
1336 0 92.1772 11.9878 1105 141.153 792.233 458.949
1337 1 54.5195 12.5276 683 110.552 795.343 473.144
1338 0 55.066 11.6406 641 109.808 796.072 474.947
1339 0 55.1549 11.93 658 111.404 795.102 475.123
1340 0 56.0678 9.8809 554 118.085 796.063 475.543
1341 0 59.0433 10.0773 595 114.859 795.968 472.575
1342 0 61.0482 11.0241 673 112.832 795.522 473.27
1343 0 62.0802 11.5818 719 112.698 795.638 471.551
1344 0 64.1139 10.8869 698 114.662 795.749 468.619
1345 0 67.0994 10.0001 671 115.51 795.714 469.382
1346 0 70.1513 12.4303 872 109.606 795.669 467.397
1347 0 70.1491 12.4307 872 122.847 795.705 467.557
1348 0 73.1544 9.91055 725 115.815 795.225 463.603
1349 0 78.0859 10.7702 841 112.81 796.735 463.817
1350 0 80.1303 11.7808 944 111.675 796.786 462.568
1351 0 80.1229 10.1469 813 114.943 796.432 462.863
1352 0 83.056 10.6314 883 114.92 796.326 461.592
1353 0 87.1273 11.466 999 114.039 795.52 457.325
1354 0 91.1187 12.5002 1139 111.35 795.354 457.745
1355 0 92.1037 11.4653 1056 115.182 795.158 456.07
1356 0 97.1232 12.2834 1193 112.648 794.863 456.526
1357 0 101.331 12.2766 1244 112.344 794.511 452.437
1358 1 55.0343 9.86658 543 110.972 795.459 475.823
1359 0 57.1696 11.7895 674 106.699 794.168 472.65
1360 0 58.2112 10.5306 613 109.37 793.936 473.664
1361 0 59.0532 10.3635 612 110.198 793.658 473.56
1362 0 62.1019 12.9948 807 103.974 793.506 472.682
1363 0 64.0961 12.2784 787 105.705 793.473 472.644
1364 0 64.0961 12.2472 785 132.214 793.476 472.583
1365 0 69.1968 12.9919 899 104.75 793.591 469.83
1366 0 69.1948 12.1541 841 107.659 794.1 469.189
1367 0 68.1978 12.1118 826 135.306 794.107 468.546
1368 0 75.1024 13.2752 997 106.02 794.792 466.804
1369 0 76.1507 12.8955 982 107.542 794.441 466.24
1370 0 78.1228 11.7635 919 111.868 795.098 464.459
1371 0 80.0704 12.8137 1026 110.163 794.918 462.174
1372 0 83.116 12.5608 1044 111.666 794.333 461.008
1373 0 85.184 12.9367 1102 111.52 794.662 459.857
1374 0 88.2205 13.1829 1163 111.243 794.412 459.279
1375 0 93.0823 12.967 1207 112.543 793.901 456.642
1376 0 95.2226 13.7362 1308 111.266 793.991 455.448
1377 0 97.1734 13.8927 1350 111.604 794.87 455.299
1378 0 99.1809 12.3612 1226 116.582 793.197 453.422
1379 0 103.157 14.4827 1494 113.026 793.626 450.667
1380 1 54.0781 9.43081 510 119.806 793.145 475.667
1381 0 57.302 10.1218 580 116.519 794.024 475.062
1382 0 59.1227 11.1632 660 106.673 796.473 473.929
1383 0 58.1889 11.1361 648 107.994 796.528 472.961
1384 0 59.084 11.3736 672 107.247 796.082 469.795
1385 0 60.0825 12.0002 721 107.262 796.064 471.094
1386 0 64.0806 11.8601 760 106.279 796.254 469.75
1387 0 67.1768 11.7005 786 106.249 795.622 469.57
1388 0 66.0954 11.786 779 107.941 796.498 466.377
1389 0 71.058 12.8487 913 104.484 796.955 466.434
1390 0 72.1623 13.3311 962 103.936 796.994 467.187
1391 0 73.1002 12.7086 929 106.672 796.184 463.936
1392 0 75.1759 11.2536 846 110.738 796.188 461.327
1393 0 77.2137 12.5107 966 108.153 795.988 463.338
1394 0 80.1179 12.1072 970 111.16 795.856 462.125
1395 0 81.1241 11.7721 955 113.384 795.404 458.444
1396 0 83.1343 11.2348 934 114.121 795.802 459.252
1397 0 86.1265 13.3408 1149 110.294 796.021 458.406
1398 0 90.1742 13.6624 1232 109.25 796.083 454.629
1399 0 94.1077 12.5813 1184 112.829 795.624 455.225
1400 0 95.1286 13.0035 1237 110.502 796.375 455.371
1401 0 96.136 11.7542 1130 115.632 795.827 451.375
1402 0 101.207 11.7482 1189 114.198 796.132 451.376
1403 0 105.283 13.0791 1377 111.335 796.134 446.914
1404 1 57.0461 11.3417 647 115.124 796.377 470.025
1405 0 57.0386 10.4315 595 109.287 795.526 465.745
1406 0 59.1106 10.9456 647 104.898 795.073 464.576
1407 0 61.1208 11.0601 676 104.592 794.503 462.945
1408 0 62.0956 11.2729 700 104.649 795.001 463.434
1409 0 66.0889 11.3635 751 104.356 794.82 460.788
1410 0 68.0686 10.7686 733 106.52 794.611 461.272
1411 0 69.0878 11.6953 808 106.203 795.335 457.584
1412 0 71.1069 11.5741 823 106.932 796.011 458.169
1413 0 74.2325 11.5987 861 107.47 795.517 457.091
1414 0 74.1722 10.597 786 111.893 795.043 455.205
1415 0 81.2568 11.7652 956 108.831 795.759 454.04
1416 0 83.1182 11.5979 964 110.6 795.823 452.233
1417 0 86.1669 10.0851 869 114.322 795.422 452.461
1418 0 88.1159 11.2919 995 114.307 795.181 449.298
1419 0 89.1609 11.9223 1063 115.065 794.452 447.413
1420 0 95.1599 12.6629 1205 114.525 794.446 446.448
1421 1 45.0221 9.70635 437 113.389 795.856 468.465
1422 0 50.0164 10.4566 523 115.287 796.023 469.444
1423 0 53.039 11.4821 609 111.588 795.972 470.514
1424 0 54.076 11.2619 609 114.171 795.478 466.887
1425 0 56.027 11.4588 642 115.405 796.241 472.078
1426 0 57.1056 12.6082 720 112.928 796.667 471.951
1427 0 60.0473 12.5901 756 111.733 797.352 471.683
1428 0 59.0494 11.211 662 116.983 797.421 470.517
1429 0 62.1342 11.6039 721 114.006 796.899 472.035
1430 0 63.0818 11.4296 721 116.517 796.78 468.001
1431 0 66.1079 12.9031 853 112.978 796.514 467.789
1432 0 68.1021 11.4975 783 116.304 796.082 467.206
1433 0 71.1325 12.315 876 114.491 795.905 464.605
1434 0 71.1541 12.3113 876 135.143 795.89 464.459
1435 0 73.2346 11.7977 864 118.059 795.927 461.105
1436 0 76.2789 11.8906 907 116.923 795.971 461.233
1437 0 76.3517 12.0495 920 118.699 795.858 455.992
1438 0 80.3676 11.8829 955 118.164 794.856 455.304
1439 0 80.3066 11.8421 951 135.83 794.873 455.372
1440 1 46.2174 10.4073 481 116.177 794.809 470.805
1441 0 44.1069 9.99844 441 114.805 794.27 470.345
1442 0 46.1178 10.3431 477 110.239 795.01 466.233
1443 0 44.0628 9.3276 411 116.399 796.511 468.144
1444 0 47.0677 11.0267 519 110.378 796.102 467.158
1445 0 50.0422 11.3504 568 108.338 796.468 469.107
1446 0 48.0558 9.73867 468 115.043 796.31 466.788
1447 0 49.0584 10.5385 517 114.255 796.408 467.05
1448 0 52.0386 11.8374 616 110.343 796.498 466.981
1449 0 54.0438 12.3974 670 108.066 796.318 467.785
1450 0 55.0642 11.3867 627 110.861 796.555 467.262
1451 0 57.0724 12.5455 716 110.127 796.298 463.552
1452 0 58.0346 11.2174 651 114.06 795.965 462.911
1453 0 62.025 12.0597 748 110.63 796.282 463.504
1454 0 60.0258 12.4446 747 112.792 796.672 459.813
1455 0 65.0232 13.2876 864 109.219 796.808 462.531
1456 0 68.1032 13.1125 893 110.355 796.994 460.591
1457 0 70.0468 12.3917 868 112.067 796.704 458.962
1458 0 73.0932 12.4909 913 113.273 796.617 458.715
1459 0 76.1908 12.8887 982 112.694 796.207 458.764
1460 0 76.0866 11.9338 908 117.395 795.912 456.997
1461 0 79.0668 12.8119 1013 115.604 796.581 457.299
1462 0 79.0668 12.7993 1012 142.826 797.59 457.206
1463 0 84.1331 12.9913 1093 109.178 795.656 454.763
1464 0 85.1299 12.5338 1067 112.17 794.97 453.124
1465 0 90.1326 12.415 1119 111.334 794.384 453.71
1466 0 93.117 12.5004 1164 112.419 794.701 450.905
1467 0 94.1732 12.4452 1172 113.135 795.264 451.794
1468 0 98.1097 12.3943 1216 114.685 795.53 447.56
1469 0 104.181 12.987 1353 116.091 795.44 446.432
1470 1 57.1681 12.1921 697 114.242 794.407 474.499
1471 0 59.0345 12.8908 761 113.891 796.792 469.704
1472 0 61.0462 13.2522 809 112.836 797.399 470.392
1473 0 63.0985 12.948 817 113.864 797.034 470.115
1474 0 65.0989 13.0263 848 113.929 796.943 467.493
1475 0 65.1012 12.3039 801 117.365 796.341 466.386
1476 0 68.1348 12.2111 832 118.237 796.566 466.338
1477 0 71.1203 13.6951 974 114.619 796.605 466.086
1478 0 74.0913 14.2932 1059 113.308 796.002 462.964
1479 0 76.1538 14.4182 1098 113.356 796.374 462.194
1480 0 79.1642 14.4889 1147 113.458 795.741 459.695
1481 0 79.085 13.7826 1090 117.027 795.806 460.854
1482 0 81.1376 13.2245 1073 118.929 794.595 462.695
1483 0 85.1496 13.7875 1174 119.083 794.934 460.058
1484 0 88.1923 13.5613 1196 118.793 795.008 458.314
1485 0 90.1618 13.1874 1189 118.019 794.106 458.923
1486 0 93.2041 13.7118 1278 118.246 794.36 456.149
1487 1 50.1389 10.1119 507 121.022 793.984 478.974
1488 0 52.0982 11.7087 610 117.336 793.392 477.946
1489 0 56.2048 12.7391 716 115.772 794.124 476.501
1490 0 55.184 11.8513 654 122.746 794.526 476.521
1491 0 57.1804 11.2626 644 124.609 794.581 475.179
1492 0 57.1492 11.1988 640 164.945 793.566 475.144
1493 0 62.2162 12.8905 802 123.817 794.42 471.865
1494 0 62.1616 12.5158 778 126.733 794.563 471.82
1495 0 63.1535 12.7467 805 127.102 794.425 472.473
1496 0 67.1723 13.19 886 124.773 794.49 470.853
1497 0 69.2091 12.8451 889 127.465 794.276 468.646
1498 0 70.2489 13.3241 936 125.751 794.091 469.045
1499 0 70.2145 11.8067 829 130.367 794.122 468.147
1500 0 74.3261 13.8175 1027 125.549 794.489 465.361
1501 0 76.4466 11.9168 911 131.353 793.842 463.597
1502 0 78.4198 12.8284 1006 127.275 794.173 465.363
1503 0 81.4758 13.2186 1077 125.916 795.264 458.205
1504 0 86.5932 13.6385 1181 116.726 795.714 457.24
1505 0 85.1429 12.4497 1060 111.41 795.198 459.707
1506 0 86.2751 11.2315 969 119.031 795.073 459.641
1507 0 86.2274 11.1913 965 120.636 795.193 458.856
1508 0 87.1676 11.5869 1010 119.887 795.537 456.971
1509 0 89.1716 11.4274 1019 121.145 795.366 456.903
1510 0 89.1498 9.80373 874 126.761 794.89 453.476
1511 1 49.1211 9.50711 467 110.912 795.576 475.246
1512 0 53.1935 11.054 588 104.791 796.165 475.418
1513 0 52.1589 10.2188 533 106.707 796.143 473.792
1514 0 56.315 11.1516 628 107.041 795.686 476.304
1515 0 56.1938 10.9976 618 107.202 795.505 474.822
1516 0 56.0662 10.7551 603 109.486 795.856 471.823
1517 0 61.0707 13.0341 796 102.763 795.846 472.535
1518 0 63.0673 11.2261 708 107.606 795.733 472.427
1519 0 65.0695 12.5251 815 105.081 795.265 470.497
1520 0 67.0863 11.8802 797 107.497 795.36 469.723
1521 0 71.075 12.0296 855 107.379 795.334 471.04
1522 0 69.0615 10.7151 740 112.704 795.372 469.142
1523 0 73.0543 12.6481 924 108.776 795.489 469.561
1524 0 74.2336 11.6794 867 113.151 795.683 467.572
1525 0 76.0786 12.3951 943 113.669 795.227 466.265
1526 0 80.1644 12.1251 972 114.997 795.263 466.43
1527 1 46.1087 10.5837 488 115.473 796.219 483.84
1528 0 45.0756 10.671 481 119.744 796.094 482.358
1529 0 46.0592 11.6372 536 120.604 795.539 481.746
1530 0 48.076 11.9394 574 123.486 796.338 479.385
1531 0 49.0595 11.2924 554 123.742 795.693 481.218
1532 0 51.068 13.0023 664 123.19 796.199 478.94
1533 0 51.1095 11.7395 600 129.225 796.348 478.158
1534 0 53.0855 12.0937 642 129.338 796.067 477.506
1535 0 56.0872 12.748 715 127.901 795.445 476.053
1536 0 56.1562 12.0022 674 132.042 795.945 475.789
1537 0 58.0848 11.8964 691 132.069 795.916 475.569
1538 0 59.0996 13.0796 773 129.119 796.048 475.065
1539 0 62.1221 13.2964 826 127.938 795.18 474.173
1540 0 64.1404 13.5796 871 124.854 795.236 474.73
1541 0 64.1574 13.5292 868 126.659 794.779 472.702
1542 0 66.0684 11.8968 786 126.779 794.604 473.726
1543 0 66.0737 10.5488 697 131.419 794.732 471.409
1544 0 68.0641 11.9299 812 128.092 795.64 470.821
1545 0 73.0447 12.2938 898 125.043 795.266 470.473
1546 0 72.0865 11.6665 841 129.301 794.542 467.364
1547 0 77.0657 13.2874 1024 122.721 794.084 467.982
1548 0 79.0965 12.9968 1028 123.444 793.808 465.054
1549 0 82.1676 13.0343 1071 122.464 794.009 465.062
1550 0 84.1726 13.5317 1139 122.455 793.608 462.511
1551 0 87.2297 12.7136 1109 125.811 793.817 459.175
1552 1 49.0793 11.3286 556 121.058 793.468 482.655
1553 0 47.1018 11.2522 530 118.155 794.085 480.77
1554 0 50.0134 12.2967 615 115.15 794.494 479.774
1555 0 51.165 12.5086 640 117.362 794.002 479.25
1556 0 52.075 11.8675 618 119.311 793.579 477.824
1557 0 55.062 13.2033 727 113.635 793.785 478.695
1558 0 57.1719 11.859 678 116.631 794.056 476.872
1559 0 56.035 12.0104 673 116.796 793.752 476.949
1560 0 60.0771 12.7503 766 113.244 793.796 472.471
1561 0 60.1556 12.7004 764 113.899 793.518 475.187
1562 0 62.1198 12.7335 791 112.91 793.637 473.867
1563 0 64.1778 12.8549 825 112.316 793.316 472.961
1564 0 66.0792 12.1521 803 114.257 792.965 470.547
1565 0 68.0968 13.1871 898 112.284 793.213 470.084
1566 0 72.1005 13.1622 949 110.915 793.48 466.288
1567 0 73.09 12.3273 901 127.696 793.557 466.954
1568 0 77.115 12.5786 970 111.157 793.234 467.686
1569 0 80.1999 13.0175 1044 111.674 793.495 464.086
1570 0 82.0989 12.8138 1052 112.417 793.246 459.949
1571 0 85.2371 12.4594 1062 113.264 793.863 459.763
1572 0 88.186 12.9386 1141 112.185 793.135 459.828
1573 0 91.2107 12.367 1128 113.745 793.422 458.729
1574 1 52.0894 10.8275 564 114.803 793.406 479.301
1575 0 53.0239 10.8253 574 115.22 793.627 478.155
1576 0 56.0575 13.3435 748 109.475 794.211 475.944
1577 0 58.0691 12.1579 706 111.133 795.296 475.33
1578 0 58.0475 12.9721 753 110.331 794.88 474.282
1579 0 62.1352 13.6798 850 108.866 795.009 472.609
1580 0 64.125 13.1618 844 109.588 794.072 473.345
1581 0 65.1567 13.2296 862 110.71 794.85 469.682
1582 0 70.0975 12.9391 907 110.422 794.673 470.408
1583 0 71.0683 13.9021 988 109.596 794.513 466.525
1584 0 71.037 12.951 920 112.338 793.745 466.058
1585 0 74.1016 13.4275 995 110.322 793.876 464.568
1586 0 76.1102 12.587 958 112.367 794.747 462.738
1587 0 78.0891 12.2424 956 113.726 794.664 461.434
1588 0 79.084 11.0389 873 116.581 793.785 459.368
1589 0 85.2105 13.0618 1113 109.677 793.65 460.205
1590 0 86.2405 12.2912 1060 111.915 793.583 456.251
1591 0 89.1373 12.52 1116 111.126 793.611 454.2
1592 1 46.0545 9.61903 443 112.991 794.438 472.77
1593 0 49.1141 10.9541 538 110.613 793.474 466.329
1594 0 51.0449 10.9707 560 100.557 793.343 471.073
1595 0 53.0588 10.0078 531 102.337 793.944 468.912
1596 0 53.0632 10.7419 570 114.63 794.932 470.086
1597 0 55.1363 10.3562 571 101.872 792.68 470.431
1598 0 58.076 11.2783 655 100.905 793.379 467.98
1599 0 59.107 11.3354 670 101.036 793.463 467.788
1600 0 58.0559 10.9377 635 103.813 792.74 465.57
1601 0 63.1291 10.5973 669 103.68 792.71 465.788
1602 0 66.0852 11.5911 766 101.044 793.256 464.928
1603 0 66.1388 10.6896 707 104.055 792.371 463.738
1604 0 71.0557 11.878 844 101.039 792.545 464.883
1605 0 75.0446 12.4193 932 99.5397 792.608 464.044
1606 0 76.0413 12.7431 969 99.6161 793.029 461.383
1607 0 80.1029 12.2343 980 100.303 792.913 461.955
1608 0 83.0988 11.8413 984 101.45 793.336 458.791
1609 0 83.0988 11.8173 982 131.116 793.349 458.658
1610 0 89.1554 13.0783 1166 99.7024 792.288 456.87
1611 0 89.1566 13.1566 1173 121.646 791.264 456.708
1612 0 95.2587 13.983 1332 100.807 792.951 453.627
1613 0 97.144 13.7734 1338 106.053 791.657 453.435
1614 0 100.152 12.1415 1216 109.51 791.547 454.89
1615 0 103.087 12.3003 1268 108.588 792.614 452.491
1616 1 55.1322 11.6992 645 108.251 791.622 475.981
1617 0 57.122 12.3595 706 106.293 791.814 475.443
1618 0 58.1552 12.4666 725 106.468 792.444 473.972
1619 0 60.1601 13.0485 785 105.828 792.572 473.066
1620 0 64.1849 13.6948 879 104.298 792.176 471.344
1621 0 64.0715 11.893 762 109.232 792.098 469.383
1622 0 66.1148 13.4614 890 106.21 792.797 469.843
1623 0 68.2787 12.9469 884 107.972 792.554 469.378
1624 0 69.1907 12.3138 852 110.887 792.499 466.266
1625 0 73.3347 13.6497 1001 107.509 791.968 465.105
1626 0 73.4172 12.6673 930 111.484 792.04 464.885
1627 0 77.3879 12.909 999 110.276 792.347 462.649
1628 0 79.4015 12.6824 1007 112.245 792.026 460.292
1629 0 79.4015 12.6068 1001 142.723 792.016 460.183
1630 0 86.5827 14.2176 1231 109.622 792.554 455.582
1631 0 89.0858 13.2344 1179 109.412 791.016 454.982
1632 0 90.134 12.4814 1125 112.34 791.4 451.429
1633 0 92.1364 11.2116 1033 116.168 791.541 451.119
1634 0 97.2991 13.2786 1292 111.646 791.499 450.695
1635 1 56.1202 10.6913 600 115.753 791.068 469.565
1636 0 57.3606 10.4253 598 116.587 791.816 466.393
1637 0 61.1511 11.8559 725 110.588 791.666 465.886
1638 0 60.1784 11.9977 722 112.266 792.535 463.824
1639 0 62.2235 13.3551 831 107.807 792.734 465.2
1640 0 64.2062 10.6688 685 115.721 791.661 463.162
1641 0 68.2445 11.0925 757 112.106 792.69 466.049
1642 0 70.1173 12.7643 895 105.892 791.573 465.389
1643 0 72.1443 10.9087 787 109.759 792.795 462.319
1644 0 74.1112 10.7271 795 110.777 791.647 462.145
1645 0 75.1256 10.5956 796 111.879 791.923 459.536
1646 0 79.1375 11.2589 891 109.386 792.717 460.085
1647 0 81.0934 12.2328 992 106.531 792.47 459.814
1648 0 83.149 11.2689 937 109.006 792.501 459.608
1649 0 85.0975 10.8464 923 110.258 793.183 459.081
1650 0 85.0824 10.7895 918 146.426 794.185 459.217
1651 0 91.1326 10.9291 996 110.942 793.349 454.292
1652 0 97.0889 12.3083 1195 107.013 793.118 453.429
1653 0 98.2484 11.0434 1085 110.548 792.146 450.002
1654 1 54.0298 10.7348 580 104.071 791.753 467.66
1655 0 54.1385 11.1196 602 104.223 791.816 470.277
1656 0 54.074 10.726 580 110.572 792.564 466.791
1657 0 60.0714 12.9013 775 98.0026 792.205 467.966
1658 0 59.1459 11.9535 707 101.595 792.231 467.509
1659 0 63.1336 12.7983 808 99.9592 792.077 468.553
1660 0 64.1454 12.4873 801 101.459 791.578 467.521
1661 0 66.11 12.7515 843 101.402 792.171 465.942
1662 0 68.1698 13.2903 906 99.543 792.126 465.191
1663 0 69.0696 11.1916 773 104.763 791.938 466.532
1664 0 73.0726 13.7261 1003 99.4925 791.905 466.195
1665 0 73.1192 11.365 831 107.1 792.184 463.994
1666 0 78.139 13.0281 1018 103.447 792.333 462.043
1667 0 80.1113 12.0832 968 106.625 792.194 461.792
1668 0 82.2209 13.2935 1093 105.008 791.424 459.934
1669 0 83.1951 12.7171 1058 107.986 790.842 459.735
1670 0 88.0739 13.5909 1197 104.955 791.084 458.195
1671 0 89.2178 13.383 1194 106.888 790.755 455.366
1672 0 93.1564 12.946 1206 108.317 791.228 454.391
1673 0 95.2156 12.1199 1154 111.396 791.505 453.837
1674 0 95.3308 12.5878 1200 111.221 791.523 450.817
1675 0 100.136 12.2334 1225 110.915 791.311 450.934
1676 0 103.167 12.4168 1281 110.288 791.166 450.452
1677 0 106.157 13.4989 1433 109.395 791.574 445.103
1678 0 111.246 13.5915 1512 110.689 791.916 442.777
1679 1 59.1669 9.53236 564 107.732 792.502 469.055
1680 0 61.1148 10.4066 636 106.072 791.858 468.143
1681 0 63.1599 10.1805 643 105.1 791.711 470.061
1682 0 66.1193 10.4811 693 104.201 791.1 469.899
1683 0 68.1293 11.1259 758 103.723 791.606 465.069
1684 0 68.1293 11.1259 758 120.653 791.606 465.069
1685 0 72.133 10.3836 749 106.271 791.375 463.198
1686 0 75.1506 10.938 822 104.444 791.529 463.236
1687 0 79.0738 12.4567 985 102.356 791.053 462.3
1688 0 82.1581 11.2709 926 104.929 791.419 460.416
1689 0 86.1509 12.3272 1062 102.955 791.581 459.851
1690 0 87.1253 11.1334 970 105.925 791.719 458.175
1691 0 91.2301 12.1013 1104 104.04 791.389 457.758
1692 0 93.2832 11.2989 1054 107.91 792.029 455.939
1693 0 96.1381 11.7643 1131 108.543 791.808 452.632
1694 0 102.231 12.6185 1290 107.167 791.91 449.983
1695 1 57.1967 10.8922 623 104.202 792.124 475.86
1696 0 57.0257 10.9074 622 104.307 794.558 475.442
1697 0 60.1515 12.535 754 100.84 794.793 472.759
1698 0 60.0974 11.8974 715 103.778 794.916 473.094
1699 0 65.1056 12.3799 806 102.303 795.122 472.445
1700 0 66.0652 12.8055 846 101.337 794.798 472.417
1701 0 68.1153 12.9927 885 103.047 794.82 468.904
1702 0 71.0963 13.8826 987 101.259 795.017 469.856
1703 0 72.1036 12.0521 869 106.292 794.384 469.774
1704 0 76.0547 12.9643 986 102.495 793.431 466.84
1705 0 77.1741 12.4394 960 103.569 793.862 466.762
1706 0 78.0824 12.6533 988 105.049 794.415 466.153
1707 0 80.0897 12.3237 987 105.637 794.648 465.118
1708 0 84.0696 12.7157 1069 104.991 794.24 463.03
1709 0 86.079 12.7092 1094 104.481 793.385 461.635
1710 0 89.0791 12.5282 1116 106.356 793.806 459.225
1711 1 48.0345 10.8047 519 106.85 794.698 482.645
1712 0 47.1012 10.9976 518 110.266 794.253 480.349
1713 0 51.1902 10.6466 545 111.099 794.479 478.673
1714 0 53.0229 13.3716 709 113.676 795.212 476.893
1715 0 54.0307 12.4929 675 118.123 794.127 476.393
1716 0 55.0692 12.6568 697 119.934 794.756 475.816
1717 0 58.0184 11.6515 676 122.416 794.231 475.305
1718 0 58.0461 13.2136 767 120.291 794.091 475.34
1719 0 60.0486 13.6056 817 121.059 793.941 473.055
1720 0 61.0328 13.3207 813 123.781 793.996 472.817
1721 0 61.0328 13.4518 821 146.258 793.984 472.736
1722 0 64.0181 13.4962 864 124.928 793.978 470.694
1723 0 67.0586 13.9878 938 122.871 794.492 470.908
1724 0 69.1487 14.0711 973 123.991 793.863 469.395
1725 0 70.034 13.2935 931 127.359 793.927 467.468
1726 0 73.0893 13.0662 955 128.828 793.683 468.032
1727 0 76.0615 13.6205 1036 127.096 793.642 467.03
1728 0 75.08 13.146 987 130.884 793.637 465.856
1729 0 79.1175 14.7249 1165 126.569 793.648 464.746
1730 0 82.1457 13.0013 1068 131.55 793.845 463.412
1731 0 83.0911 13.2144 1098 132.188 794.103 461.862
1732 0 87.1295 13.4283 1170 131.873 793.733 461.338
1733 0 90.1743 14.3167 1291 129.881 793.583 460.496
1734 0 88.1703 13.2698 1170 152.947 793.576 458.591
1735 0 93.1182 14.3151 1333 133.634 793.109 454.437
1736 0 94.1856 13.4628 1268 137.653 793.196 454.889
1737 0 99.2132 13.4357 1333 138.143 792.948 452.358
1738 0 101.169 13.2353 1339 139.212 793.214 452.388
1739 1 54.1466 11.8567 642 137.05 793.502 476.72
1740 0 54.1466 11.949 647 146.542 793.49 476.756
1741 0 57.0457 12.9019 736 125.993 793.202 476.011
1742 0 57.1121 11.1885 639 123.41 793.786 472.822
1743 0 58.1141 11.942 694 123.231 793.512 473.562
1744 0 62.2219 11.9411 743 122.396 793.209 470.906
1745 0 64.2063 12.0237 772 123.453 793.232 472.747
1746 0 67.2144 12.1254 815 122.629 792.975 470.55
1747 0 70.1796 12.6105 885 120.542 792.858 470.146
1748 0 72.1617 12.7491 920 120.847 792.837 467.736
1749 0 73.1248 12.3077 900 122.314 792.902 467.153
1750 0 76.2166 13.0024 991 120.867 792.039 465.603
1751 0 78.2096 11.9167 932 124.251 791.579 463.642
1752 0 82.2074 12.9794 1067 120.568 792.547 462.62
1753 0 83.164 12.1928 1014 123.974 792.26 459.89
1754 0 86.1743 13.0201 1122 121.999 792.343 460.601
1755 0 87.2916 12.2921 1073 126.492 792.616 458.63
1756 0 90.309 12.0697 1090 127.387 792.724 457.356
1757 0 94.233 11.9279 1124 130.422 793.449 457.039
1758 0 96.2299 12.2623 1180 130.698 792.98 456.679
1759 0 101.318 12.0808 1224 130.159 792.636 452.9
1760 1 56.2189 11.4374 643 122.482 793.79 476.621
1761 0 57.2066 11.9042 681 122.73 792.919 474.539
1762 0 58.1852 11.3947 663 123.498 793.214 475.029
1763 0 59.0927 12.3535 730 121.4 793.715 474.488
1764 0 64.1114 12.8682 825 118.555 793.497 473.754
1765 0 65.1753 13.1031 854 119.016 793.008 470.665
1766 0 66.1483 12.6383 836 120.562 793.49 471.264
1767 0 69.1525 13.5064 934 118.82 793.031 469.678
1768 0 71.1059 13.4869 959 118.776 792.835 468.543
1769 0 73.1212 13.252 969 120.144 793.098 468.348
1770 0 75.2153 13.4813 1014 120.295 793.484 466.862
1771 0 78.0671 13.1425 1026 122.178 793.266 464.442
1772 0 81.1245 13.769 1117 120.423 793.259 463.889
1773 0 86.1601 14.2061 1224 117.346 794.027 463.65
1774 0 84.1443 13.5006 1136 158.392 793.954 462.179
1775 0 88.1242 12.993 1145 122.474 793.3 461.326
1776 0 93.0758 14.687 1367 117.867 793.399 458.873
1777 0 96.1386 14.4583 1390 119.908 792.414 455.619
1778 0 97.1091 13.3767 1299 122.628 792.341 457.155
1779 0 102.073 13.8234 1411 121.719 792.992 452.956
1780 0 104.265 13.6191 1420 122.828 793.061 452.068
1781 0 107.133 12.5265 1342 126.59 793.408 450.005
1782 0 111.245 14.1489 1574 121.375 793.33 449.36
1783 0 114.189 13.3901 1529 124.88 793.623 446.405
1784 1 63.1818 10.6676 674 126.688 793.672 471.832
1785 0 67.1675 12.0594 810 124.57 793.02 469.731
1786 0 69.0905 13.9672 965 114.233 794.69 467.183
1787 0 71.0744 12.0296 855 118.524 795.074 467.306
1788 0 75.179 12.1177 911 118.528 793.626 464.321
1789 0 78.227 13.9338 1090 112.15 793.721 462.384
1790 0 78.227 13.9722 1093 143.468 794.72 462.477
1791 0 80.1188 12.4066 994 118.107 793.752 461.466
1792 0 84.1122 13.8386 1164 114.04 793.265 461.684
1793 0 86.1757 12.2772 1058 118.261 793.724 458.273
1794 0 91.2397 13.3494 1218 115.962 793.484 455.68
1795 0 93.1455 12.0242 1120 119.944 793.604 454.647
1796 0 95.1181 13.2677 1262 118.025 793.54 452.226
1797 0 98.2502 12.8142 1259 119.394 794.061 451.932
1798 0 103.326 13.5107 1396 117.243 794.112 450.289
1799 0 102.237 12.9307 1322 121.604 794.315 447.017
1800 0 107.176 13.1933 1414 120.812 794.523 443.231
1801 0 111.285 13.6406 1518 119.588 793.999 444.177
1802 0 114.241 13.4016 1531 120.515 794.202 439.741
1803 0 118.287 13.8815 1642 119.043 794.184 438.581
1804 0 122.241 13.8496 1693 119.426 793.526 437.415
1805 0 122.241 13.8251 1690 147.511 792.521 437.278
1806 0 130.276 13.9319 1815 119.143 793.286 434.473
1807 1 69.1631 11.7982 816 119.494 793.44 465.646
1808 0 72.0898 12.1654 877 119.717 791.577 466.41
1809 0 74.2092 12.5591 932 119.855 792.574 465.995
1810 0 77.1859 12.6059 973 120.02 792.598 463.581
1811 0 78.2 13.2864 1039 118.908 792.752 463.53
1812 0 78.2 13.2481 1036 136.12 792.736 463.598
1813 0 82.2301 13.7419 1130 118.866 792.767 460.112
1814 0 84.2093 13.7633 1159 119.325 792.705 460.389
1815 0 86.109 13.6803 1178 119.636 792.469 458.314
1816 0 93.2386 14.4146 1344 115.997 792.786 457.438
1817 0 94.252 13.5594 1278 119.239 792.831 456.29
1818 0 95.2289 14.0504 1338 118.882 792.972 454.227
1819 0 100.306 13.1 1314 120.346 792.517 453.011
1820 0 104.199 14.5587 1517 115.962 792.924 452.202
1821 0 104.236 14.4767 1509 138.68 793.917 452.236
1822 0 106.457 12.2866 1308 117.177 792.654 454.696
1823 0 107.141 11.3775 1219 121.009 792.738 448.605
1824 0 114.31 13.8046 1578 116.302 793.138 445.408
1825 0 117.31 13.085 1535 118.414 792.616 443.379
1826 0 122.368 13.0753 1600 116.063 792.69 442.879
1827 0 125.379 12.9368 1622 115.211 791.931 443.805
1828 0 125.372 12.9614 1625 140.737 790.945 443.819
1829 0 133.428 12.636 1686 116.25 792.479 436.514
1830 0 139.592 13.2458 1849 115.644 791.375 432.745
1831 0 143.438 14.034 2013 114.372 791.066 430.11
1832 0 147.453 12.5803 1855 119.39 791.24 425.14
1833 0 156.596 14.0808 2205 114.944 790.925 429.569
1834 0 161.508 13.7517 2221 116.491 790.985 422.215
1835 1 85.3162 11.4984 981 119.631 791.048 452.827
1836 0 90.3044 11.6827 1055 119.296 791.384 457.077
1837 0 91.1231 12.7191 1159 119.436 791.313 454.835
1838 0 95.1833 13.4267 1278 119.099 790.909 451.774
1839 0 98.1319 12.9825 1274 120.13 791.776 451.6
1840 0 101.214 12.8539 1301 121.018 791.423 448.173
1841 0 104.138 13.607 1417 119.285 791.6 447.843
1842 0 109.172 13.6482 1490 119.57 791.814 444.727
1843 0 113.178 12.9619 1467 120.95 792.335 443
1844 0 116.248 12.8605 1495 120.744 791.607 445.503
1845 0 121.121 14.6465 1774 116.146 791.382 442.294
1846 1 69.3399 12.0421 835 115.795 791.59 469.086
1847 0 71.536 11.2671 806 119.098 791.798 463.655
1848 0 72.3655 13.6253 986 115.016 791.157 464.77
1849 0 73.2312 13.8875 1017 113.067 791.459 465.9
1850 0 75.2042 12.7519 959 115.987 791.665 466.235
1851 0 78.2357 12.9481 1013 116.62 791.925 463.202
1852 0 81.268 13.3878 1088 116.379 791.493 462.952
1853 0 85.2913 13.0259 1111 117.66 792.297 461.433
1854 0 85.2394 13.7143 1169 117.63 792.206 459.384
1855 0 91.3173 14.5974 1333 114.395 792.176 459.042
1856 0 94.2433 13.2954 1253 118.794 791.664 455.263
1857 0 96.3261 14.0564 1354 117.853 791.828 455.438
1858 0 101.282 14.1288 1431 117.797 791.317 454.365
1859 0 102.115 13.6121 1390 120.282 791.176 453.598
1860 0 105.252 13.7194 1444 120.47 791.14 449.591
1861 0 110.264 13.2772 1464 121.253 791.217 448.262
1862 1 61.0256 11.2576 687 119.907 791.477 473.587
1863 0 62.1264 13.4886 838 109.767 791.452 469.932
1864 0 66.0638 13.0783 864 109.542 791.354 471.553
1865 0 66.0638 13.0026 859 129.584 791.369 471.548
1866 0 68.0855 12.5871 857 113.621 791.656 468.009
1867 0 70.0487 13.2907 931 112.651 790.768 466.681
1868 0 74.0644 12.5431 929 114.536 790.808 465.296
1869 0 76.0584 14.4231 1097 110.536 791.421 465.538
1870 0 78.063 14.6036 1140 110.372 791.59 464.102
1871 0 80.1063 13.7068 1098 113.542 791.348 463.447
1872 0 83.098 13.5743 1128 113.043 791.09 462.051
1873 0 85.2168 13.2134 1126 114.366 791.065 462.633
1874 0 86.1689 12.9861 1119 116.963 791.033 459.112
1875 0 88.3035 13.0686 1154 117.186 791.042 460.467
1876 0 91.3712 13.4506 1229 117.372 791.382 458.659
1877 0 93.2648 12.7165 1186 120.444 791.121 455.69
1878 0 93.2648 12.7379 1188 146.177 791.127 455.798
1879 0 99.2389 12.6463 1255 120.474 791.567 454.124
1880 0 100.208 12.1348 1216 122.881 791.618 454.461
1881 0 107.3 12.563 1348 121.45 792.004 452.02
1882 0 111.382 13.539 1508 118.702 792.239 449.491
1883 1 62.1647 11.2604 700 121.946 792.113 474.863
1884 0 66.1267 13.6858 905 115.936 791.004 470.67
1885 0 67.1292 12.6472 849 118.707 791.519 470.36
1886 0 67.1067 11.6382 781 120.91 790.834 469.484
1887 0 67.1067 11.7574 789 152.913 790.828 469.284
1888 0 72.1605 13.276 958 117.537 790.661 467.957
1889 0 74.1078 12.9946 963 118.009 791.074 466.646
1890 0 77.1447 13.4423 1037 116.677 790.787 464.321
1891 0 77.1447 13.4034 1034 140.83 789.763 464.192
1892 0 82.1106 13.7132 1126 116.465 791.028 461.854
1893 0 86.2233 13.1983 1138 117.413 790.624 462.956
1894 0 88.2545 13.1325 1159 117.817 790.813 460.006
1895 0 90.161 13.4981 1217 116.118 790.894 459.218
1896 0 96.2191 14.2799 1374 113.164 791.151 456.138
1897 0 100.245 12.9981 1303 115.918 790.933 455.869
1898 1 56.109 11.246 631 119.719 791.127 476.219
1899 0 58.0953 12.4623 724 114.142 790.699 477.464
1900 0 60.2617 12.3462 744 116.714 793.487 471.716
1901 0 60.0695 12.419 746 118.111 794.094 472.119
1902 0 62.0511 13.8918 862 110.745 794.623 472.867
1903 0 63.078 14.4424 911 111.706 794.243 468.7
1904 0 64.0828 13.0768 838 115.074 794.18 471.691
1905 0 65.0842 11.7233 763 119.484 794.52 468.254
1906 0 69.0541 13.5691 937 114.268 794.284 467.392
1907 0 72.1028 13.5224 975 114.326 794.135 467.008
1908 0 75.0725 14.0797 1057 113.941 793.91 463.969
1909 0 77.0478 14.4326 1112 112.878 794.44 463.63
1910 0 82.1443 13.6954 1125 114.857 794.05 462.694
1911 0 82.0708 15.1576 1244 113.573 794.778 461.531
1912 0 85.1472 15.4438 1315 112.881 794.36 459.446
1913 0 88.1476 15.7236 1386 112.913 794.097 458.879
1914 0 90.1343 14.4229 1300 117.328 793.607 456.342
1915 0 92.1521 14.0746 1297 118.655 793.022 454.907
1916 0 96.0833 15.3929 1479 115.688 793.57 454.481
1917 0 99.1966 15.3634 1524 116.442 793.141 452.818
1918 0 101.225 13.8504 1402 120.61 793.334 454.248
1919 0 102.223 14.7618 1509 161.064 794.376 455.453
1920 0 111.312 14.4908 1613 118.356 793.27 450.427
1921 0 113.372 14.1129 1600 121.127 792.889 449.332
1922 1 58.1203 12.1644 707 125.953 792.755 474.345
1923 0 61.1408 12.8392 785 121.987 793.236 466.856
1924 0 64.0763 13.9989 897 119.524 792.96 465.254
1925 0 64.0787 12.7031 814 123.796 792.902 464.358
1926 0 68.0971 13.3339 908 119.087 794.518 464.975
1927 0 71.0322 14.1344 1004 115.361 793.784 465.952
1928 0 73.0904 12.1493 888 120.588 793.796 465.053
1929 0 76.085 13.1038 997 117.643 793.867 464.697
1930 0 77.0272 12.4502 959 120.429 794.533 464.42
1931 0 80.022 13.2963 1064 120.826 794.272 461.965
1932 0 82.0829 12.6092 1035 125.328 793.977 461.195
1933 0 87.1172 13.7286 1196 122.961 793.758 457.91
1934 0 89.0764 12.8317 1143 125.466 793.587 458.81
1935 0 93.0703 13.7745 1282 124.364 793.407 455.314
1936 0 95.1437 13.8317 1316 124.466 793.537 453.29
1937 0 98.0996 12.6708 1243 126.292 793.48 453.173
1938 0 102.122 12.4263 1269 127.723 793.452 450.317
1939 0 106.103 13.157 1396 126.317 793.561 449.478
1940 0 109.124 13.4434 1467 125.981 792.894 447.205
1941 1 60.0452 10.9084 655 119.971 792.809 472.705
1942 0 61.174 11.263 689 123.361 792.705 469.226
1943 0 63.0643 12.178 768 123.174 793.48 469.086
1944 0 63.1078 11.2506 710 119.82 792.759 469.5
1945 0 63.1078 11.1872 706 143.074 792.759 469.479
1946 0 70.0956 11.9266 836 116.139 793.431 467.736
1947 0 72.1196 11.786 850 116.905 793.612 466.062
1948 0 74.1187 11.7514 871 116.891 793.465 466.342
1949 0 74.1194 11.5085 853 119.007 793.911 463.996
1950 0 77.214 12.9381 999 116.652 793.326 462.388
1951 0 79.1364 11.4233 904 120.652 793.301 460.254
1952 0 81.1145 11.5516 937 121.94 792.889 459.838
1953 0 82.0885 11.1587 916 124.948 792.695 459.318
1954 0 87.0684 12.5878 1096 121.513 793.176 456.342
1955 0 90.2186 12.1926 1100 123.252 792.681 452.952
1956 0 91.1772 12.4922 1139 123.866 792.7 450.256
1957 0 96.1274 12.7123 1222 123.809 792.68 449.28
1958 0 99.2272 13.4741 1337 123.139 792.759 446.227
1959 0 102.164 11.8437 1210 126.734 793.777 444.594
1960 0 102.154 11.9525 1221 143.482 794.775 444.549
1961 1 56.0269 9.60253 538 125.699 794.151 466.539
1962 0 59.1047 11.4035 674 127.021 792.598 465.654
1963 0 61.1165 11.4535 700 126.639 792.849 466.059
1964 0 63.1177 11.8984 751 119.859 792.952 464.917
1965 0 65.0358 11.1631 726 121.348 793.197 464.656
1966 0 68.0536 12.6077 858 116.607 793.214 466.24
1967 0 69.0951 10.7822 745 120.757 792.937 465.663
1968 0 72.1121 12.2864 886 117.976 793.694 460.663
1969 0 74.0954 12.2545 908 118.764 793.399 460.006
1970 0 78.2019 11.9562 935 119.552 793.519 457.392
1971 0 79.1554 11.0542 875 123.519 793.274 455.634
1972 0 81.1239 11.6858 948 122.418 793.349 457.229
1973 0 82.176 11.9986 986 124.121 793.487 451.782
1974 0 84.1784 11.9746 1008 126.635 793.362 451.918
1975 0 89.3146 12.8087 1144 124.24 792.472 452.757
1976 0 92.1975 12.2021 1125 125.948 793.007 451.188
1977 0 95.1498 13.7467 1308 122.334 793.073 451.47
1978 0 100.174 12.9175 1294 126.986 792.85 448.121
1979 1 58.0503 12.1446 705 125.53 792.746 469.718
1980 0 59.1284 11.585 685 126.692 791.971 468.409
1981 0 62.2006 12.7169 791 123.684 792.589 466.075
1982 0 64.1272 13.6136 873 120.79 794.022 472.001
1983 0 65.152 12.985 846 123.837 793.586 471.45
1984 0 65.1426 13.0944 853 122.007 793.673 468.821
1985 0 70.2774 13.5321 951 118.781 793.451 468.444
1986 0 72.164 14.3839 1038 116.908 792.851 466.492
1987 0 73.1319 13.209 966 120.269 793.818 464.776
1988 0 79.3214 14.4349 1145 115.331 793.37 461.729
1989 0 78.388 12.6805 994 120.566 793.05 460.076
1990 0 82.4022 13.8831 1144 116.273 793.319 458.812
1991 0 82.4199 13.8559 1142 133.799 793.32 458.816
1992 0 89.2909 13.9768 1248 115.705 793.868 457.409
1993 0 90.2846 12.8704 1162 119.312 793.22 454.583
1994 0 95.4647 13.2614 1266 117.426 792.816 453.25
1995 0 96.4211 13.8974 1340 116.302 792.839 452.887
1996 0 98.0909 13.2326 1298 116.823 794.526 448.62
1997 0 98.0915 13.2937 1304 139.864 795.515 448.585
1998 0 103.163 12.4463 1284 119.463 792.671 438.658
1999 1 56.1131 10.5858 594 117.111 792.877 466.493
2000 0 59.1586 10.5141 622 115.341 792.72 464.965
2001 0 61.1828 10.4932 642 113.866 793.221 465.056
2002 0 64.1035 12.3082 789 107.035 792.231 467.631
2003 0 65.1737 11.9834 781 107.551 793.607 467.554
2004 0 69.1209 13.4113 927 104.642 793.329 467.403
2005 0 71.23 12.9159 920 106.617 793.363 467.897
2006 0 71.1393 11.9062 847 110.257 793.319 467.37
2007 0 76.2187 12.3329 940 109.102 793.001 465.269
2008 0 77.1866 12.243 945 111.554 792.452 461.864
2009 0 78.1715 11.9993 938 112.297 792.982 463.244
2010 0 82.3385 12.7522 1050 112.333 793.396 460.773
2011 0 85.1212 12.676 1079 112.757 792.847 460.245
2012 0 87.1507 11.5088 1003 116.85 793.01 460.772
2013 0 90.1232 11.9059 1073 117.508 792.723 457.632
2014 0 93.1799 12.0412 1122 118.739 792.367 454.006
2015 0 94.2517 11.6284 1096 119.822 792.008 455.381
2016 0 100.224 11.594 1162 121.197 791.634 449.299
2017 0 101.202 11.5215 1166 123.369 791.383 447.091
2018 0 105.232 12.6387 1330 120.994 791.626 447.286
2019 0 105.232 12.4677 1312 139.245 791.605 447.552
2020 0 111.239 12.9541 1441 121.573 791.846 445.056
2021 0 115.233 13.13 1513 121.321 790.958 443.693
2022 0 119.31 12.589 1502 123.149 791.278 440.472
2023 0 124.213 12.551 1559 124.313 791.602 438.481
2024 1 67.202 11.2943 759 119.433 790.709 468.928
2025 0 69.0743 12.2911 849 117.74 791.55 470.226
2026 0 72.0685 12.8073 923 118.166 792.093 467.974
2027 0 75.0973 13.5557 1018 116.342 794.068 465.952
2028 0 76.0467 12.4923 950 121.218 792.679 464.891
2029 0 80.1104 13.6936 1097 117.902 793.232 464.421
2030 0 82.1431 14.7182 1209 115.789 793.473 462.84
2031 0 85.1264 13.4623 1146 120.155 794.188 459.127
2032 0 87.1059 13.0301 1135 121.333 794.113 457.818
2033 0 91.0861 12.7901 1165 121.794 793.222 456.503
2034 0 94.2618 13.611 1283 120.443 793.428 454.698
2035 0 97.1517 13.9164 1352 119.981 792.775 452.487
2036 0 101.269 14.1208 1430 118.507 792.566 451.534
2037 0 102.187 12.6728 1295 123.147 793.604 450.284
2038 0 106.239 13.159 1398 122.484 792.792 446.398
2039 0 110.107 12.2972 1354 122.685 792.411 450.595
2040 0 116.165 13.6272 1583 121.184 791.575 444.148
2041 0 120.21 13.2103 1588 121.213 792.31 445.12
2042 0 126.276 13.3754 1689 120.144 793.278 441.534
2043 1 67.2106 12.2005 820 120.611 794.557 465.404
2044 0 71.1264 12.5411 892 117.488 793.678 464.478
2045 0 69.0967 10.0439 694 124.526 793.068 462.605
2046 0 76.2246 11.781 898 118.474 793.138 462.14
2047 0 78.1204 12.8648 1005 116.578 793.332 460.12
2048 0 82.361 12.1295 999 117.763 793.4 459.102
2049 0 83.1024 12.3462 1026 120.04 793.425 457.551
2050 0 85.0875 13.0689 1112 117.818 793.56 457.957
2051 0 89.2416 13.1777 1176 120.61 792.998 454.6
2052 0 91.2138 12.6516 1154 121.88 793.179 455.168
2053 0 95.2007 14.107 1343 119.009 793.203 451.285
2054 0 95.2007 14.2121 1353 147.226 793.189 451.276
2055 0 100.233 13.5783 1361 119.933 792.97 448.174
2056 0 104.282 14.921 1556 116.319 792.722 448.417
2057 0 106.307 14.1195 1501 119.94 792.883 443.028
2058 0 107.329 13.0346 1399 122.944 792.826 441.876
2059 0 111.47 13.9051 1550 120.595 792.728 440.283
2060 0 113.17 14.0673 1592 119.827 792.785 440.899
2061 0 116.276 12.995 1511 124.03 792.529 442.041
2062 0 122.122 13.7076 1674 122.259 791.789 436.909
2063 1 68.1377 12.7096 866 117.395 792.969 463.501
2064 0 70.2374 12.415 872 118.914 792.552 462.29
2065 0 70.235 12.33 866 149.897 792.544 462.374
2066 0 75.2061 12.0203 904 117.622 792.896 459.239
2067 0 76.1405 12.7659 972 114.038 793.45 459.11
2068 0 78.2308 11.3255 886 118.786 793.22 456.902
2069 0 80.1778 11.5369 925 118.95 792.689 454.176
2070 0 83.2508 11.9038 991 117.75 792.49 453.15
2071 0 87.1677 12.4473 1085 115.5 793.438 451.559
2072 0 90.2017 12.0175 1084 117.372 792.479 450.518
2073 0 94.1549 14.0726 1325 112.155 792.852 448.482
2074 0 98.4109 12.8035 1260 116.448 793.06 448.925
2075 0 101.495 12.9858 1318 116.14 792.434 449.316
2076 0 103.569 13.3437 1382 115.716 792.744 446.601
2077 1 55.3691 10.2404 567 120.66 792.894 470.3
2078 0 58.0769 12.7245 739 117.093 791.524 468.884
2079 0 61.1211 14.5449 889 111.398 791.282 470.188
2080 0 62.2742 12.461 776 110.897 791.733 469.07
2081 0 66.1933 13.4757 892 109.476 791.723 467.243
2082 0 65.2347 13.2751 866 111.953 791.509 463.873
2083 0 69.3252 13.2708 920 112.122 791.467 463.749
2084 0 72.2214 12.5448 906 114.474 791.257 462.988
2085 0 73.2192 13.6849 1002 114.642 791.814 462.382
2086 0 74.1611 12.756 946 119.077 791.963 461.032
2087 0 77.4049 13.3067 1030 119.737 791.959 457.817
2088 0 79.2523 13.5264 1072 119.235 791.961 459.075
2089 0 82.2645 13.9793 1150 119.01 791.93 456.628
2090 0 83.3868 13.2035 1101 123.263 791.787 453.351
2091 0 88.3067 13.974 1234 120.743 791.442 453.395
2092 0 92.3352 14.7073 1358 119.361 791.42 451.913
2093 0 94.4669 14.3648 1357 121.129 792.107 451.454
2094 0 97.3215 13.7482 1338 123.639 791.278 449.856
2095 0 99.2541 13.813 1371 124.942 791.357 448.481
2096 0 104.281 14.4992 1512 123.764 791.406 446.517
2097 0 107.293 14.2414 1528 124.032 791.857 448.627
2098 0 109.327 14.7082 1608 125.396 792.277 444.596
2099 0 110.112 14.794 1629 129.17 791.893 441.565
2100 0 118.19 14.7644 1745 127.196 791.547 440.494
2101 0 117.305 12.5826 1476 135.793 791.424 437.91
2102 1 66.2843 10.9528 726 125.536 792.446 464.897
2103 0 68.0797 10.0911 687 121.789 793.112 464.473
2104 0 71.1585 11.5938 825 120.68 792.656 464.264
2105 0 74.1998 11.8599 880 119.132 792.684 463.019
2106 0 79.1646 13.0867 1036 114.513 792.639 460.535
2107 0 81.1228 12.3886 1005 117.596 792.224 458.109
2108 0 83.2257 12.6283 1051 116.491 792.902 459.751
2109 0 85.0838 12.8462 1093 117.69 792.449 456.525
2110 0 88.2251 11.856 1046 120.785 792.82 454.402
2111 0 89.1729 13.3336 1189 118.589 792.843 450.685
2112 0 95.302 13.0847 1247 118.152 792.998 451.625
2113 0 96.1321 12.4516 1197 122.62 792.58 449.82
2114 0 100.112 13.0654 1308 121.31 792.556 449.862
2115 0 105.233 12.6861 1335 122.367 792.712 448.565
2116 0 108.136 13.5663 1467 123.774 792.34 448.528
2117 0 111.123 12.8416 1427 134.921 791.758 445.739
2118 0 114.187 12.5758 1436 136.978 791.469 442.719
2119 1 63.0649 10.4496 659 123.862 791.2 473.346
2120 0 65.055 10.7294 698 117.881 791.193 468.458
2121 0 67.1677 11.2256 754 116.633 792.867 469.634
2122 0 69.07 11.9878 828 114.018 790.572 465.969
2123 0 70.0749 11.3735 797 115.532 791.211 465.647
2124 0 74.0904 11.8234 876 114.576 790.85 464.525
2125 0 76.1311 12.2683 934 113.261 791.85 462.907
2126 0 79.0694 11.3571 898 115.134 792.169 460.288
2127 0 81.0682 11.4965 932 115.828 791.48 459.186
2128 0 84.0919 12.0701 1015 114.442 791.278 458.926
2129 0 87.075 11.7026 1019 117.366 791.416 457.783
2130 0 88.1536 12.24 1079 115.265 791.739 455.17
2131 0 92.1374 11.0379 1017 120.39 791.756 454.904
2132 0 96.1509 11.5756 1113 119.668 791.407 453.613
2133 0 97.068 9.87968 959 123.518 791.639 454.398
2134 0 99.0768 11.4759 1137 123.086 791.485 453.376
2135 0 102.352 11.0208 1128 121.629 792.043 440.843
2136 0 107.087 11.5887 1241 121.471 792.718 444.295
2137 1 57.072 8.72582 498 118.219 791.745 470.791
2138 0 60.0537 12.1558 730 110.451 791.527 467.44
2139 0 62.1394 12.4076 771 110.293 791.852 466.119
2140 0 65.1085 10.6131 691 114.758 792.206 468.126
2141 0 66.1049 11.5423 763 113.761 792.16 466.326
2142 0 70.0401 11.0794 776 114.799 792.299 462.309
2143 0 73.105 11.8733 868 112.667 792.112 465.099
2144 0 73.1067 11.4764 839 114.98 792.074 462.632
2145 0 76.0633 12.4502 947 113.483 791.696 462.47
2146 0 82.0625 12.2955 1009 112.707 791.859 460.306
2147 0 82.0932 12.364 1015 113.978 792.222 457.403
2148 0 85.1441 11.8857 1012 114.884 791.812 455.677
2149 0 90.06 12.8803 1160 113.728 791.838 456.273
2150 0 91.0855 12.0656 1099 116.615 791.914 454.054
2151 0 95.0725 13.3582 1270 114.479 791.554 452.585
2152 0 96.0655 12.0855 1161 119.061 791.506 450.376
2153 0 99.0908 12.9578 1284 118.398 792.054 450.216
2154 0 103.107 12.7441 1314 118.511 791.718 452.367
2155 0 106.116 13.2779 1409 118.72 792.412 448.228
2156 0 109.163 13.8875 1516 116.889 791.822 446.741
2157 0 111.249 12.8001 1424 121.01 792.402 444.311
2158 0 115.326 13.2754 1531 121.494 792.231 443.824
2159 0 119.246 13.5854 1620 122.495 791.936 441.203
2160 0 121.138 11.9368 1446 126.302 792.725 440.199
2161 0 130.242 13.329 1736 122.827 792.317 434.399
2162 0 131.291 12.7732 1677 125.023 791.413 433.141
2163 1 74.0845 11.001 815 119.15 791.54 463.537
2164 0 78.491 12.6894 996 123.034 790.567 458.775
2165 0 82.1163 14.0898 1157 118.16 790.341 461.312
2166 0 85.2594 14.4031 1228 117.975 790.267 460.356
2167 0 88.2445 12.9186 1140 122.175 790.611 457.023
2168 0 90.2307 13.5541 1223 121.871 790.98 455.166
2169 0 92.2393 13.3566 1232 121.268 791.313 453.009
2170 0 96.4212 13.2751 1280 121.934 790.868 452.876
2171 0 99.2405 13.6436 1354 120.773 791.109 451.324
2172 0 100.137 13.2419 1326 122.684 791.686 450.565
2173 0 106.29 14.1124 1500 119.241 791.919 448.485
2174 0 108.246 14.8458 1607 118.203 791.437 445.96
2175 0 111.415 14.3787 1602 119.64 790.934 443.134
2176 0 115.224 14.5542 1677 119.163 791.149 441.853
2177 0 116.112 13.1942 1532 123.687 791.102 440.859
2178 0 121.168 13.4523 1630 122.553 791.158 436.372
2179 0 126.26 13.488 1703 121.469 791.155 435.794
2180 0 130.37 14.2594 1859 120.063 791.187 428.859
2181 0 135.331 14.5865 1974 119.746 791.433 425.747
2182 0 141.322 14.2441 2013 120.84 791.28 425.147
2183 1 73.167 12.5466 918 121.402 791.296 460.865
2184 0 76.0839 14.3657 1093 118.072 792.671 460.282
2185 0 79.241 13.5662 1075 119.678 792.166 460.117
2186 0 80.196 14.0406 1126 119.797 792.418 457.365
2187 0 85.1328 14.6595 1248 117.062 792.232 456.498
2188 0 88.1651 14.4388 1273 117.577 793.554 455.679
2189 0 89.0801 14.9641 1333 116.571 793.177 454.058
2190 0 89.0801 14.9977 1336 146.621 793.179 454.01
2191 0 95.1013 13.7748 1310 120.69 793.224 451.16
2192 0 99.0769 14.2616 1413 120.11 793.051 448.837
2193 0 100.126 13.2234 1324 123.96 792.619 445.693
2194 0 105.057 14.554 1529 120.109 792.604 441.407
2195 0 108.177 13.9401 1508 122.387 792.8 439.659
2196 0 108.189 13.0605 1413 125.484 793.13 436.78
2197 0 115.103 13.9353 1604 121.818 793.021 438.108
2198 0 118.222 13.5847 1606 123.283 792.483 437.102
2199 0 123.178 14.6536 1805 120.509 791.849 432.978
2200 1 69.0679 9.48342 655 125.215 793.942 465.234
2201 0 69.1373 10.848 750 125.403 793.48 462.892
2202 0 76.1649 12.7093 968 119.95 792.639 463.81
2203 0 76.1316 12.9907 989 120.746 793.016 460.031
2204 0 81.089 13.3064 1079 118.136 793.802 461.374
2205 0 82.0779 13.8405 1136 118.663 792.933 458.63
2206 0 85.1509 13.5994 1158 118.346 793.423 457.349
2207 0 88.1988 14.0478 1239 117.397 793.295 455.705
2208 0 91.1446 14.2082 1295 117.779 792.89 454.505
2209 0 93.1529 12.7425 1187 122.213 792.885 452.822
2210 0 97.1324 14.2177 1381 118.741 793.379 452.576
2211 0 99.0946 13.916 1379 121.748 792.922 449.952
2212 0 101.088 13.2261 1337 122.651 793.209 446.32
2213 0 103.074 12.8549 1325 123.234 793.328 445.242
2214 0 109.129 13.2962 1451 120.15 792.972 441.561
2215 0 112.224 13.7493 1543 120.184 792.33 437.995
2216 0 114.113 13.2324 1510 122.144 792.124 435.798
2217 0 116.195 13.0471 1516 123.508 792.468 431.065
2218 1 66.031 10.7828 712 116.604 792.765 461.308
2219 0 68.1552 10.6815 728 115.339 791.754 460.456
2220 0 70.1005 10.4564 733 112.262 792.123 455.381
2221 0 75.1696 12.4119 933 107.079 792.659 457.141
2222 0 76.1362 11.1248 847 110.545 792.686 453.969
2223 0 78.0837 11.4364 893 111.773 791.964 452.214
2224 0 81.1511 11.9284 968 110.55 792.557 451.721
2225 0 81.123 10.5026 852 115.826 791.989 450.447
2226 0 84.1122 11.5441 971 114.654 792.441 448.536
2227 0 89.1562 11.9005 1061 113.329 792.239 447.164
2228 0 92.1421 11.5582 1065 114.765 792.385 446.63
2229 0 92.1192 11.4308 1053 116.871 792.117 444.513
2230 0 96.3169 13.3933 1290 112.594 791.708 444.796
2231 0 100.277 13.5225 1356 112.455 792.164 443.864
2232 0 101.126 11.3225 1145 120.776 791.852 436.65
2233 0 105.31 12.7528 1343 117.411 792.34 441.64
2234 0 108.398 12.9707 1406 119.164 791.762 441.15
2235 0 112.146 14.2761 1601 123.57 791.79 444.424
2236 0 113.305 13.7241 1555 126.823 792.601 443.552
2237 0 117.205 12.7299 1492 130.035 792.395 442.395
2238 1 67.0759 10.7341 720 127.711 791.881 465.176
2239 0 70.1614 12.571 882 123.231 792.299 463.626
2240 0 74.1626 13.2681 984 121.662 792.959 463.391
2241 0 74.2202 12.2069 906 124.83 793.304 463.465
2242 0 78.1629 12.8066 1001 122.655 792.407 462.548
2243 0 79.2116 13.1168 1039 122.136 792.199 459.445
2244 0 84.1983 12.1143 1020 119.775 792.91 461.776
2245 0 85.2169 12.0633 1028 121.986 793.452 458.439
2246 0 87.1244 11.7303 1022 122.426 793.149 457.213
2247 0 91.2189 13.4183 1224 117.956 792.583 453.609
2248 0 92.2325 12.3709 1141 121.358 791.98 451.492
2249 0 94.1338 11.4943 1082 123.53 792.509 451.91
2250 0 97.0912 12.6582 1229 121.363 793.312 450.539
2251 0 101.094 14.0166 1417 117.299 793.109 451.635
2252 0 106.178 12.8463 1364 119.37 793.35 450.035
2253 0 109.124 14.2774 1558 116.951 792.458 445.384
2254 0 111.152 14.0169 1558 121.166 792.508 442.439
2255 0 116.132 14.5008 1684 119.32 791.772 442.179
2256 0 119.158 14.5437 1733 120.256 792.272 438.759
2257 0 123.241 14.1917 1749 121.598 792.403 439.026
2258 0 125.173 14.1804 1775 122.115 792.233 440.82
2259 0 128.294 13.547 1738 123.529 792.632 437.718
2260 0 133.12 13.4014 1784 123.966 792.252 436.792
2261 0 139.209 15.2648 2125 119.224 792.173 436.721
2262 0 142.312 14.159 2015 122.404 791.446 437.555
2263 1 79.2086 10.668 845 125.457 792.209 464.006
2264 0 83.4935 11.8333 988 123.1 790.778 459.077
2265 0 85.402 11.9786 1023 123.295 791.255 458.131
2266 0 87.3434 10.7507 939 125.865 790.787 459.787
2267 0 91.077 12.7145 1158 118.688 789.502 463.305
2268 0 95.1805 12.2609 1167 120.601 789.107 462.419
2269 0 97.1542 12.2383 1189 122.053 789.41 461.241
2270 0 97.162 10.9199 1061 126.256 788.919 459.96
2271 0 104.221 11.6291 1212 124.541 788.351 459.836
2272 0 108.341 11.7407 1272 125.77 788.412 454.947
2273 0 109.248 11.2679 1231 129.242 788.083 451.272
2274 0 114.272 12.1027 1383 128.218 788.675 449.63
2275 0 119.333 12.88 1537 126.096 788.003 447.951
2276 0 121.225 12.2334 1483 127.581 787.58 453.918
2277 0 125.295 12.8337 1608 128.42 787.517 444.39
2278 0 127.234 11.9543 1521 131.265 787.576 442.237
2279 0 134.181 12.3714 1660 130.616 786.963 436.893
2280 0 136.242 12.1035 1649 131.797 786.695 434.226
2281 0 143.463 12.8744 1847 127.123 787.092 435.132
2282 0 149.435 13.618 2035 125.028 786.072 431.168
2283 0 154.23 13.9014 2144 123.712 786.501 431.541
2284 1 87.1279 10.8691 947 118.051 786.43 465.285
2285 0 90.2974 11.4953 1038 117.953 785.559 461.122
2286 0 94.2202 11.4625 1080 117.445 785.904 461.988
2287 0 94.1799 11.3188 1066 120.076 785.733 460.978
2288 0 98.183 11.7332 1152 118.707 784.908 461.266
2289 0 101.283 12.006 1216 117.43 784.72 460.041
2290 0 106.286 13.8495 1472 112.458 784.274 461.068
2291 0 109.277 13.4795 1473 113.882 784.506 460.618
2292 0 110.302 12.5655 1386 116.65 785.158 456.033
2293 0 116.382 11.5826 1348 118.246 784.616 454.508
2294 0 120.283 12.5122 1505 115.577 785.852 453.964
2295 0 121.34 12.1559 1475 118.241 786.283 450.978
2296 0 128.306 13.4366 1724 116.484 785.588 447.321
2297 0 132.309 13.6121 1801 118.94 785.684 446.426
2298 0 136.318 12.4269 1694 121.935 785.992 443.985
2299 0 143.612 12.9864 1865 121.536 785.351 435.999
2300 1 82.1562 12.5006 1027 111.017 785.485 471.192
2301 0 82.089 11.7434 964 111.741 785.6 471.705
2302 0 86.1631 11.1184 958 112.589 785.5 471.255
2303 0 89.1133 11.4573 1021 112.939 784.877 468.527
2304 0 93.1382 12.723 1185 108.971 784.709 468.429
2305 0 95.223 10.9847 1046 113.483 784.733 464.099
2306 0 100.186 14.1437 1417 104.794 785.097 465.538
2307 0 102.218 12.6592 1294 109.27 784.838 461.661
2308 0 106.253 11.0867 1178 111.948 785.868 458.337
2309 0 109.318 11.5352 1261 112.443 785.623 453.431
2310 0 109.24 11.2047 1224 113.897 785.332 456.196
2311 0 115.198 12.6217 1454 110.182 786.006 456.272
2312 0 117.129 10.1939 1194 115.291 785.894 454.529
2313 0 119.189 10.3281 1231 117.97 785.65 450.46
2314 0 124.132 12.9701 1610 111.552 787.153 449.32
2315 0 127.216 10.8084 1375 116.7 786.565 449.247
2316 0 133.212 12.5439 1671 113.519 786.795 444.431
2317 0 137.177 11.1243 1526 116.4 786.594 444.146
2318 0 143.49 13.7222 1969 112.004 785.39 435.205
2319 0 145.439 11.8812 1728 116.955 785.115 436.904
2320 0 150.323 12.7592 1918 115.575 785.626 434.282
2321 0 150.323 12.7592 1918 131.268 786.644 434.152
2322 1 91.319 11.1696 1020 117.275 785.009 459.676
2323 0 92.3765 11.4964 1062 119.024 785.208 465.883
2324 0 94.4381 12.5691 1187 116.761 786.377 467.104
2325 0 101.486 14.6916 1491 112.966 786.036 460.736
2326 0 100.492 12.9363 1300 116.715 785.705 456.584
2327 0 105.185 12.1406 1277 111.083 788.058 459.685
2328 0 106.357 10.3049 1096 116.808 786.815 454.294
2329 0 111.336 12.6553 1409 111.766 787.434 452.187
2330 0 113.505 10.2463 1163 116.243 786.748 453.384
2331 0 119.527 12.1312 1450 113.472 786.879 448.899
2332 0 120.404 11.9598 1440 114.785 786.74 447.987
2333 0 122.507 10.9219 1338 117.38 786.676 445.998
2334 0 126.471 10.5162 1330 117.189 786.581 446.003
2335 0 129.33 10.941 1415 116.193 787.339 445.164
2336 0 135.32 11.9421 1616 114.731 786.637 440.704
2337 0 138.316 11.3581 1571 115.9 786.518 439.806
2338 0 142.341 10.0323 1428 120.943 786.574 430.346
2339 0 147.432 11.3747 1677 116.76 787.145 433.289
2340 0 150.422 9.90544 1490 120.956 787.107 430.176
2341 0 154.573 10.7781 1666 119.922 786.801 429.923
2342 0 162.361 11.9117 1934 117.637 786.841 425.639
2343 0 165.327 10.6879 1767 121.388 786.583 425.344
2344 0 169.356 11.0241 1867 120.873 786.852 420.501
2345 0 178.361 12.1215 2162 118.382 787.143 419.132
2346 0 183.464 11.2229 2059 122.046 787.34 413.574
2347 0 188.487 13.1468 2478 118.546 787.721 407.412
2348 0 193.395 11.8307 2288 121.267 787.526 409.044
2349 0 199.397 12.0564 2404 122.039 788.158 405.166
2350 0 204.649 11.9815 2452 123.952 787.618 396.021
2351 0 211.533 13.1091 2773 122.04 788.218 396.125
2352 0 217.441 11.5572 2513 125.787 787.798 391.111
2353 0 222.532 12.2948 2736 125.205 787.701 386.414
2354 0 232.606 13.4476 3128 122.174 788.021 381.615
2355 0 238.513 11.9239 2844 126.798 788.251 379.207
2356 0 243.406 12.3949 3017 130.418 788.232 375.719
2357 0 252.497 12.2932 3104 130.581 788.82 371.974
2358 0 262.935 14.2279 3741 124.945 788.379 364.571
2359 0 395.702 14.3365 5673 122.227 788.541 307.932
2360 0 283.08 18.2281 5160 114.569 788.742 349.823
2361 1 69.5882 8.70837 606 106.436 789.327 461.686
2362 0 69.4592 9.15645 636 105.193 789.313 458.898
2363 0 74.3152 10.0114 744 95.5833 788.665 462.86
2364 0 75.1463 11.3379 852 95.6678 789.881 466.008
2365 0 76.1229 11.0742 843 98.1815 790.049 461.714
2366 0 78.1938 10.6402 832 99.2632 789.548 464.248
2367 0 81.1735 10.1265 822 100.873 789.05 463.344
2368 0 83.1821 9.37701 780 104.967 788.71 457.92
2369 0 85.4255 9.62242 822 104.321 788.602 459.521
2370 0 88.1631 10.6734 941 107.172 789.454 456.709
2371 0 90.3778 10.1352 916 109.289 788.362 454.722
2372 0 94.3393 11.289 1065 106.359 787.614 454.158
2373 0 98.5028 13.4615 1326 101.385 788.252 448.509
2374 0 97.5556 9.62528 939 112.197 788.019 449.13
2375 1 116.629 16.1539 1884 89.8031 788.065 436.935
2376 0 110.667 16.5813 1835 93.461 788.845 437.328
2377 0 106.565 11.683 1245 109.52 788.573 442.097
2378 0 109.415 11.333 1240 110.996 788.484 447.244
2379 0 113.511 15.1703 1722 101.135 788.722 442.353
2380 0 115.431 13.8004 1593 106.079 788.937 440.254
2381 0 120.465 15.9133 1917 101.726 789.072 438.055
2382 0 122.383 15.6639 1917 103.409 789.031 437.359
2383 0 124.348 14.1378 1758 109.099 789.141 435.18
2384 0 128.493 15.0437 1933 107.797 788.789 434.602
2385 0 133.484 15.5 2069 107.411 789.479 432.32
2386 0 136.349 14.4996 1977 111.372 789.011 429.7
2387 1 81.2874 11.6623 948 107.088 789.399 465.669
2388 0 82.4118 11.0542 911 110.636 789.357 462.866
2389 0 85.2956 11.6184 991 109.987 789.371 464.128
2390 0 85.154 11.626 990 110.414 789.696 462.645
2391 0 88.2469 11.8191 1043 110.95 789.803 459.386
2392 0 89.272 10.6752 953 113.565 789.594 457.024
2393 0 94.2018 12.0061 1131 110.448 789.242 458.794
2394 0 96.1695 12.5508 1207 111.361 788.678 456.483
2395 0 99.1951 13.1357 1303 111.334 788.87 455.718
2396 0 100.421 11.4119 1146 118.126 789.418 448.871
2397 0 106.527 11.6402 1240 117.293 789.536 449.519
2398 0 108.417 12.4889 1354 115.883 789.798 448.601
2399 0 108.364 11.609 1258 119.607 790.303 445.611
2400 0 113.35 12.3952 1405 117.749 789.273 446.159
2401 0 116.371 12.3055 1432 118.647 789.791 444.133
2402 1 66.2161 10.5563 699 107.86 791.478 472.707
2403 0 70.3839 12.8581 905 109.949 791.145 468.845
2404 0 69.2306 11.9456 827 114.45 791.602 469.255
2405 0 72.2017 13.0191 940 111.711 792.228 469.114
2406 0 72.3109 13.9675 1010 111.611 791.663 467.389
2407 0 73.4378 12.4051 911 121.787 791.35 466.771
2408 0 76.3177 11.5963 885 122.963 791.076 468.12
2409 0 79.423 12.7419 1012 119.873 790.634 466.29
2410 0 81.4251 13.6813 1114 118.436 790.8 462.567
2411 0 84.3538 12.7558 1076 119.789 791.235 462.348
2412 0 84.3639 11.9601 1009 124.433 790.953 458.822
2413 0 87.2431 12.8148 1118 122.483 790.496 458.345
2414 0 89.3884 12.2835 1098 124.693 790.42 457.188
2415 0 90.3525 13.4805 1218 121.615 790.166 454.173
2416 0 95.3459 12.1243 1156 122.243 790.082 456.541
2417 0 95.2675 11.7459 1119 123.385 790.886 457.027
2418 0 101.304 12.2305 1239 122.358 790.718 454.411
2419 0 105.314 13.6828 1441 116.489 790.675 455.627
2420 1 58.1636 10.9519 637 118.845 791.711 473.411
2421 0 63.2392 13.8522 876 112.643 790.952 469.56
2422 0 63.1569 11.321 715 116.069 791.19 463.787
2423 0 65.1687 12.6748 826 111.929 791.801 465.51
2424 0 65.2357 11.8033 770 116.1 791.99 467.983
2425 0 67.1173 11.9194 800 119.769 791.895 470.844
2426 0 70.2292 12.4592 875 118.782 790.901 466.971
2427 0 74.3139 13.2277 983 116.018 791.555 466.4
2428 0 74.2687 13.33 990 117.518 791.196 464.297
2429 0 78.2512 14.4151 1128 114.443 791.738 464.199
2430 0 80.1648 12.861 1031 118.772 791.26 464.542
2431 0 80.197 13.6539 1095 119.446 791.197 463.854
2432 0 82.2019 13.6858 1125 120.242 791.513 462.62
2433 0 85.2574 13.0898 1116 122.643 790.577 461.905
2434 0 85.3977 12.9278 1104 124.109 790.537 461.809
2435 0 89.2406 13.458 1201 124.299 790.917 457.502
2436 0 93.2532 14.0263 1308 121.882 790.643 458.522
2437 0 95.3617 14.5027 1383 120.821 791.587 456.724
2438 0 96.1642 12.697 1221 121.781 791.675 459.147
2439 0 99.219 13.1426 1304 121.688 791.278 457.508
2440 0 104.174 13.1607 1371 122.593 791.563 455.924
2441 0 104.19 14.0609 1465 122.352 791.523 456.169
2442 0 109.205 15.0176 1640 122.479 791.615 450.612
2443 0 111.139 14.4323 1604 124.993 791.932 451.513
2444 0 114.178 15.0204 1715 123.947 791.844 450.229
2445 0 119.297 13.4119 1600 129.632 791.366 448.451
2446 1 66.0698 12.7744 844 125.267 792.308 469.845
2447 0 68.2691 12.7583 871 124.257 791.401 466.087
2448 0 70.0688 12.9159 905 127.908 790.323 465.715
2449 0 72.0951 13.4545 970 128.144 789.825 466.711
2450 0 74.1048 13.0491 967 131.76 789.507 465.504
2451 0 77.1066 13.1117 1011 130.909 789.182 463.621
2452 0 77.0794 13.8818 1070 130.148 789.361 462.241
2453 0 80.1255 12.8424 1029 133.715 789.507 459.997
2454 0 85.0609 13.5668 1154 131.379 790.161 459.037
2455 0 88.153 14.3954 1269 128.719 789.897 457.897
2456 0 88.0691 13.4554 1185 133.511 789.824 455.999
2457 0 93.1737 13.8129 1287 131.393 789.202 454.108
2458 0 95.0729 13.8841 1320 131.994 789.486 453.595
2459 0 98.1164 13.4636 1321 133.986 789.341 453.061
2460 0 102.207 13.9521 1426 132.24 789.728 450.715
2461 0 105.147 13.7236 1443 132.502 789.942 451.056
2462 0 105.127 13.6596 1436 134.178 789.84 450.834
2463 0 108.152 13.2036 1428 136.064 789.349 448.51
2464 0 113.221 14.3613 1626 131.533 790.341 448.94
2465 0 117.2 14.1638 1660 133.281 790.534 444.115
2466 0 118.161 11.6028 1371 139.998 790.921 443.618
2467 1 73.1456 12.4683 912 131.228 790.968 466.706
2468 0 73.1037 12.8858 942 130.723 791.556 465.106
2469 0 73.0588 11.2375 821 129.231 792.112 462.864
2470 0 77.0623 13.0025 1002 125.671 792.294 460.229
2471 0 77.0631 11.6787 900 131.473 792.052 457.307
2472 0 81.042 11.784 955 126.763 792.397 459.388
2473 0 86.0571 12.1199 1043 125.36 792.008 457.627
2474 0 86.1133 12.3907 1067 125.553 792.694 455.932
2475 0 91.0404 13.192 1201 124.709 791.97 450.663
2476 0 94.1124 12.1663 1145 126.706 792.069 450.466
2477 0 96.1416 12.5024 1202 125.476 791.501 450.299
2478 0 101.138 12.7845 1293 124.497 791.176 447.259
2479 0 104.108 12.5351 1305 125.345 791.723 447.087
2480 0 108.192 12.4686 1349 125.848 790.615 443.601
2481 0 112.251 13.5767 1524 121.885 790.743 443.774
2482 0 114.12 12.2503 1398 126.867 790.404 441.763
2483 0 117.2 12.2013 1430 127.05 790.574 439.373
2484 1 63.0653 9.70423 612 118.948 790.021 467.748
2485 0 65.0184 12.0735 785 112.808 791.168 466.317
2486 0 67.0444 10.9927 737 116.081 791.265 463.792
2487 0 67.1199 10.4887 704 116.878 791.797 462.514
2488 0 72.091 11.0693 798 113.5 791.385 463.766
2489 0 75.0804 10.4821 787 115.507 791.724 460.978
2490 0 76.1175 10.5758 805 115.614 791.427 459.585
2491 0 79.0699 10.7626 851 115.476 791.767 459.122
2492 0 81.0745 10.8172 877 116.325 791.818 456.076
2493 0 81.12 10.0468 815 119.514 791.437 451.751
2494 0 87.1429 11.6131 1012 114.577 791.267 454.764
2495 0 89.0856 11.6742 1040 114.285 790.531 453.146
2496 0 92.1638 10.4271 961 117.356 791.09 453.53
2497 0 94.1541 10.6846 1006 118.106 790.665 450.47
2498 0 98.1339 11.2194 1101 117.609 790.704 448.407
2499 0 101.248 11.131 1127 117.837 790.406 444.886
2500 0 106.095 11.3672 1206 120.161 790.308 445.664
2501 0 110.065 11.5023 1266 120.063 790.657 441.908
2502 0 111.075 10.6595 1184 122.357 790.871 440.035
2503 0 115.133 12.1077 1394 118.01 791.099 440.595
2504 1 64.0734 10.3631 664 112.637 791.334 465.289
2505 0 67.0981 11.4459 768 111.63 790.947 463.177
2506 0 67.1933 12.3673 831 118.247 791.614 465.528
2507 0 72.0782 13.749 991 112.676 792.26 466.508
2508 0 76.0388 12.8618 978 114.234 792.11 465.199
2509 0 75.1061 11.983 900 118.122 792.293 462.109
2510 0 78.0747 12.8979 1007 115.321 792.203 462.58
2511 0 81.0718 13.4819 1093 112.794 791.804 461.511
2512 0 84.1248 12.3507 1039 116.16 791.732 459.307
2513 0 87.099 12.8589 1120 114.338 791.945 457.454
2514 0 90.1154 13.3717 1205 113.7 792.339 454.9
2515 0 93.0527 12.7132 1183 115.74 792.214 455.171
2516 0 93.1563 12.6669 1180 117.654 791.82 452.438
2517 0 100.133 13.4122 1343 114.987 791.855 451.407
2518 0 101.153 13.435 1359 116.313 791.769 448.107
2519 0 105.153 14.2554 1499 116.337 791.698 448.162
2520 0 108.122 15.0478 1627 114.746 792.006 449.494
2521 0 111.312 14.9669 1666 116.318 792.098 446.127
2522 0 115.256 14.073 1622 119.591 791.816 442.992
2523 0 118.235 14.9363 1766 119.208 791.639 441.579
2524 0 121.19 14.1679 1717 119.941 792.068 441.295
2525 0 124.201 13.2689 1648 125.493 791.527 436.177
2526 0 127.19 13.2401 1684 125.885 791.79 436.184
2527 0 132.286 12.8359 1698 127.541 791.656 433.035
2528 1 74.1077 12.1985 904 119.921 791.552 464.907
2529 0 77.0588 12.7176 980 122.122 791.179 464.141
2530 0 81.1087 11.873 963 119.238 792.801 461.877
2531 0 84.1191 12.4942 1051 119.073 792.556 459.612
2532 0 86.1274 13.3755 1152 113.474 791.177 455.282
2533 0 89.118 12.6349 1126 115.644 792.1 453.282
2534 0 92.1788 12.9965 1198 115.874 792.902 450.997
2535 0 95.1183 12.3951 1179 117.193 792.712 452.157
2536 0 96.1825 11.9564 1150 122.59 792.15 449.063
2537 0 97.1617 11.3934 1107 124.694 792.708 445.898
2538 0 105.149 12.896 1356 118.925 792.766 446.561
2539 0 105.094 11.8275 1243 122.887 791.793 444.792
2540 0 112.16 11.9561 1341 121.439 791.734 442.788
2541 0 114.115 11.655 1330 122.488 792.115 441.779
2542 0 118.147 12.6199 1491 120.518 792.433 437.653
2543 0 121.166 12.4457 1508 119.885 793.17 440.115
2544 0 123.097 11.1538 1373 123.899 793.167 438.948
2545 0 130.178 12.6827 1651 120.195 793.244 433.567
2546 0 133.326 12.8182 1709 120.535 793.102 429.806
2547 0 139.14 13.4685 1874 118.267 793.242 429.954
2548 0 144.199 12.9127 1862 118.969 793.55 427.286
2549 0 147.221 12.4982 1840 121.014 793.533 423.521
2550 0 154.293 13.3966 2067 118.991 792.549 420.253
2551 1 88.1885 12.2465 1080 112.773 792.527 456.531
2552 0 91.2499 13.1617 1201 115.23 792.417 453.203
2553 0 92.1666 12.293 1133 113.892 792.501 450.292
2554 0 94.1852 11.711 1103 118.211 792.677 447.32
2555 0 95.0546 11.1515 1060 119.233 792.814 447.699
2556 0 101.154 11.962 1210 115.986 792.948 448.716
2557 0 103.172 12.5324 1293 116.494 792.966 445.724
2558 0 107.187 12.175 1305 117.494 792.782 443.215
2559 0 110.101 12.3341 1358 118.338 792.094 443.684
2560 0 113.178 14.1901 1606 114.647 792.418 439.252
2561 0 117.21 12.3112 1443 116.99 792.486 442.39
2562 0 124.246 13.425 1668 113.028 792.409 440.072
2563 0 126.18 11.9274 1505 117.247 792.306 438.548
2564 0 129.172 13.0989 1692 116.291 792.324 433.684
2565 0 133.209 11.846 1578 119.982 792.61 430.044
2566 0 138.328 13.2511 1833 115.86 792.257 430.814
2567 0 141.237 12.1569 1717 120.274 792.155 423.877
2568 0 148.4 13.3693 1984 114.88 791.923 422.735
2569 0 152.542 12.6195 1925 117.628 792.23 420.82
2570 0 159.282 12.6631 2017 115.928 792.222 418.481
2571 1 88.1684 10.5026 926 112.002 793.172 452.045
2572 0 93.2389 13.0418 1216 105.863 793.442 452.129
2573 0 95.1233 11.3432 1079 107.867 793.184 453.575
2574 0 97.1814 11.5248 1120 109.444 793.226 450.245
2575 0 99.1757 11.1721 1108 110.003 793.631 449.816
2576 0 105.262 11.5236 1213 108.205 793.132 446.855
2577 0 108.191 11.2579 1218 109.371 792.478 447.47
2578 0 109.159 12.5413 1369 110.486 792.266 441.759
2579 0 112.277 11.4181 1282 115.039 792.579 441.69
2580 0 117.257 12.5281 1469 112.667 792.727 437.875
2581 0 121.321 12.3803 1502 112.974 791.821 437.283
2582 0 124.301 12.2203 1519 113.721 791.874 434.89
2583 0 129.308 13.5567 1753 110.613 791.735 432.885
2584 0 131.359 11.7693 1546 114.569 792.342 432.718
2585 0 140.379 16.7761 2355 102.11 791.913 426.034
2586 0 141.299 14.3172 2023 108.908 792.242 427.299
2587 0 147.324 13.2497 1952 111.652 792.724 423.673
2588 0 151.31 13.0461 1974 112.818 792.81 418.931
2589 1 80.1948 9.67644 776 110.598 793.1 455.612
2590 0 86.2472 11.038 952 111.642 792.786 453.653
2591 0 88.2291 12.7396 1124 110.403 793.552 453.366
2592 0 89.2322 11.33 1011 114.652 792.887 451.711
2593 0 93.2127 12.6914 1183 112.473 792.68 450.328
2594 0 97.3017 12.6616 1232 112.403 793.27 449.306
2595 0 98.2839 12.7386 1252 112.993 792.918 449.72
2596 0 102.206 12.8857 1317 113.234 792.839 448.787
2597 0 104.332 13.3708 1395 113.713 793.34 444.873
2598 0 109.277 12.656 1383 115.497 793.628 444.179
2599 0 109.29 12.9014 1410 116.074 793.086 443.796
2600 0 112.226 12.8312 1440 117.106 792.863 442.12
2601 0 117.249 13.8338 1622 115.86 792.768 439.739
2602 0 121.158 13.4865 1634 116.895 793.012 438.05
2603 0 122.276 12.5372 1533 120.299 792.896 435.826
2604 0 127.203 14.5358 1849 118.168 793.204 432.074
2605 0 130.245 13.1982 1719 123.105 792.868 431.885
2606 0 135.33 13.2786 1797 119.338 793.46 432.036
2607 1 78.3049 12.528 981 114.692 793.278 456.841
2608 0 80.4986 12.9443 1042 114.337 792.798 456.712
2609 0 84.0965 14.2574 1199 112.113 793.163 460.735
2610 0 84.1692 12.4155 1045 118.476 792.766 458.293
2611 0 88.129 12.9356 1140 118.207 792.866 455.143
2612 0 90.4674 13.7066 1240 118.211 792.719 450.925
2613 0 93.4046 13.9608 1304 118.11 792.88 450.782
2614 0 99.4371 14.7128 1463 115.08 792.878 447.2
2615 0 98.4576 13.417 1321 120.462 793.304 447.127
2616 0 102.401 13.5838 1391 120.568 793.135 444.19
2617 0 105.475 14.8091 1562 118.896 792.193 444.168
2618 0 108.475 14.3996 1562 120.188 792.553 443.069
2619 0 111.259 13.518 1504 123.043 792.707 441.624
2620 0 113.471 13.748 1560 122.84 792.656 440.385
2621 0 117.308 13.2812 1558 124.096 791.879 438.4
2622 0 121.366 13.5623 1646 123.403 791.811 437.938
2623 0 124.597 13.7162 1709 123.349 791.902 436.009
2624 0 128.345 14.6481 1880 121.166 792.205 435.32
2625 0 133.23 14.1035 1879 123.13 791.628 431.081
2626 0 137.549 14.3876 1979 122.406 791.994 428.144
2627 0 141.612 14.8222 2099 121.796 791.936 426.698
2628 0 147.432 14.7322 2172 121.407 791.455 426.409
2629 0 150.46 14.5022 2182 123.77 791.801 418.802
2630 0 156.441 13.8327 2164 125.109 791.304 421.046
2631 1 87.3284 10.7182 936 117.607 791.459 459.982
2632 0 90.2928 11.1415 1006 117.577 791.719 455.369
2633 0 95.1771 13.0283 1240 114.47 791.527 455.746
2634 0 96.1512 12.1371 1167 119.457 791.307 452.907
2635 0 97.16 11.8464 1151 119.712 791.004 452.798
2636 0 97.1797 11.8029 1147 146.861 790.012 452.783
2637 0 103.41 11.9234 1233 119.387 790.775 444.752
2638 0 107.2 13.6754 1466 118.154 790.45 448.071
2639 0 111.365 12.5623 1399 120.381 790.166 441.095
2640 0 113.383 12.912 1464 121.783 790.512 442.547
2641 0 116.35 12.4023 1443 122.077 790.113 441.684
2642 0 121.55 13.114 1594 119.908 789.891 440.261
2643 0 124.346 13.575 1688 119.351 789.738 438.934
2644 0 129.303 14.5395 1880 117.698 789.682 436.66
2645 0 132.347 13.1019 1734 121.787 789.976 433.749
2646 0 138.341 12.8668 1780 122.178 789.515 430.284
2647 0 142.327 14.1505 2014 118.952 789.275 429.894
2648 0 145.252 13.9344 2024 120.769 789.309 422.687
2649 0 150.372 12.9412 1946 122.319 788.847 424.46
2650 0 157.396 13.4183 2112 121.639 788.421 419.44
2651 0 162.324 13.9843 2270 120.581 789.225 416.031
2652 0 167.38 14.4283 2415 118.961 788.892 417.658
2653 0 171.366 13.0831 2242 123.889 789.355 411.394
2654 0 178.335 14.1083 2516 120.693 789.471 408.68
2655 0 181.279 13.4324 2435 123.062 789.342 404.842
2656 0 187.425 13.2213 2478 123.562 789.241 403.862
2657 0 193.278 13.1727 2546 123.547 789.26 399.941
2658 0 199.356 12.8865 2569 124.746 788.564 398.144
2659 0 207.587 12.8717 2672 123.953 789.903 393.651
2660 0 215.402 13.5793 2925 122.565 789.877 387.825
2661 0 223.512 12.6571 2829 123.26 789.239 389.758
2662 0 233.588 13.2413 3093 122.09 789.319 386.066
2663 0 239.695 14.2514 3416 120.086 788.958 384.226
2664 1 189.402 11.3621 2152 121.498 788.798 409.679
2665 0 198.605 14.1336 2807 116.948 788.73 400.302
2666 0 202.657 13.2342 2682 120.397 789.022 395.418
2667 0 211.566 13.5466 2866 118.746 788.806 397.918
2668 0 216.75 12.7105 2755 123.86 788.388 385.168
2669 0 225.38 13.4617 3034 121.345 788.999 388.355
2670 0 232.794 13.6473 3177 123.567 788.86 376.968
2671 0 241.491 15.4043 3720 119.621 788.81 376.956
2672 1 65.2687 9.7137 634 106.748 789.882 468.877
2673 0 65.1216 11.4862 748 101.878 789.144 468.548
2674 0 67.1907 11.9064 800 101.951 789.4 467.928
2675 0 67.1185 11.7106 786 101.728 789.215 470.673
2676 0 68.0877 11.2502 766 104.521 789.17 468.907
2677 0 74.0732 13.6757 1013 99.2073 789.097 467.532
2678 0 77.084 11.4031 879 104.235 788.273 469.432
2679 0 79.0625 12.3826 979 108.096 788.361 464.799
2680 0 80.0906 11.7617 942 105.93 788.548 465.712
2681 0 82.1252 11.6651 958 107.977 788.112 463.867
2682 0 86.0948 13.8568 1193 104.044 788.644 463.034
2683 0 90.1835 11.7871 1063 109.35 788.585 460.862
2684 0 93.124 13.2082 1230 107.488 788.067 460.069
2685 0 95.2238 13.463 1282 108.987 788.561 457.19
2686 0 102.278 16.8951 1728 99.9525 787.681 447.29
2687 0 103.448 12.8277 1327 111.842 788.086 451.621
2688 0 105.432 13.7719 1452 110.568 788.444 449.068
2689 0 109.339 13.2798 1452 112.191 788.311 449.144
2690 0 111.466 13.789 1537 111.05 788.575 449.915
2691 0 115.401 13.6914 1580 112.735 788.871 447.463
2692 0 119.379 13.9724 1668 113.329 788.796 445.998
2693 0 121.33 12.7751 1550 116.668 788.958 446.447
2694 0 125.322 13.3256 1670 116.462 788.936 443.669
2695 0 128.337 13.9554 1791 115.983 789.118 440.941
2696 0 133.271 13.4687 1795 117.101 789.523 441.27
2697 0 135.477 14.209 1925 116.936 789.814 437.741
2698 0 140.423 12.1775 1710 121.281 789.666 436.871
2699 1 81.0913 12.1961 989 113.788 789.485 466.859
2700 0 84.1487 14.0466 1182 111.972 789.117 463.419
2701 0 84.105 12.4368 1046 118.315 789.62 462.949
2702 0 87.1644 13.1132 1143 117.416 789.302 462.515
2703 0 89.145 13.9436 1243 116.604 789.781 459.133
2704 0 94.0955 14.751 1388 113.738 789.344 459.576
2705 0 96.216 14.7481 1419 114.703 788.937 456.894
2706 0 100.199 14.3714 1440 114.769 788.282 456.279
2707 0 102.189 14.2775 1459 115.763 789.23 455.073
2708 0 104.223 12.694 1323 119.844 789.258 454.627
2709 0 109.145 12.9919 1418 117.37 790.122 452.009
2710 0 112.294 13.0996 1471 116.926 789.259 451.857
2711 0 115.1 13.0061 1497 117.348 789.744 447.884
2712 0 119.159 13.6289 1624 116.194 789.908 446.036
2713 0 122.235 13.7931 1686 116.211 789.524 445.595
2714 0 128.171 13.8487 1775 116.278 789.546 441.772
2715 1 71.1004 12.3206 876 112.332 789.973 470.301
2716 0 74.2988 13.015 967 111.289 790.195 466.496
2717 0 75.1266 12.9648 974 111.726 790.028 465.633
2718 0 79.0794 13.4928 1067 109.87 790.082 465.628
2719 0 79.1732 12.3021 974 114.087 790.091 463.87
2720 0 83.4154 13.6545 1139 111.146 790.153 463.155
2721 0 86.2224 14.1031 1216 111.001 789.953 460.855
2722 0 89.3947 13.748 1229 112.153 790.273 457.954
2723 0 93.2722 13.8841 1295 111.753 789.785 455.842
2724 0 94.3792 13.753 1298 115.629 789.314 453.037
2725 0 97.3193 12.9163 1257 116.433 789.476 453.983
2726 0 102.403 12.7242 1303 116.806 789.352 452.538
2727 0 101.358 11.8293 1199 119.832 789.384 450.794
2728 0 105.472 13.1978 1392 118.197 789.643 444.894
2729 0 107.474 11.7889 1267 120.858 789.89 447.04
2730 0 111.28 12.2574 1364 121.007 789.977 443.466
2731 0 115.212 13.0368 1502 118.549 791.077 441.073
2732 0 118.174 13.3109 1573 118.734 790.552 436.076
2733 0 122.425 12.2442 1499 121.656 789.896 434.797
2734 0 126.269 13.6218 1720 117.983 790.196 436.033
2735 1 65.303 12.1281 792 116.753 790.636 463.043
2736 0 67.2638 12.2503 824 116.811 790.682 463.135
2737 0 67.1993 12.0686 811 117.109 790.503 462.243
2738 0 70.3282 12.0009 844 117.911 790.525 460.879
2739 0 73.2348 13.5182 990 114.378 790.497 458.937
2740 0 74.3052 12.7447 947 116.567 791.028 462.118
2741 0 77.4477 13.7254 1063 115.976 790.59 459.032
2742 0 79.5316 12.1084 963 120.22 790.716 459.249
2743 0 82.4133 11.8913 980 121.326 790.819 455.528
2744 0 85.4243 14.7733 1262 114.324 791.215 454.517
2745 0 87.543 11.7771 1031 121.794 790.32 453.925
2746 0 91.4125 12.4053 1134 120.3 790.607 452.735
2747 0 93.6993 11.8571 1111 122.22 790.167 450.466
2748 0 97.5797 13.097 1278 118.497 790.819 447.769
2749 0 103.398 14.0621 1454 114.635 791.012 447.208
2750 0 105.339 13.1101 1381 116.865 790.994 443.642
2751 0 109.527 13.5218 1481 116.028 791.176 443.144
2752 0 111.538 12.7311 1420 117.107 791.581 444.215
2753 0 117.405 13.3555 1568 116.915 791.037 441.258
2754 1 64.2535 11.7192 753 118.954 791.429 464.009
2755 0 65.2008 11.4416 746 120.442 791.225 463.383
2756 0 68.3561 13.8978 950 113.969 791.392 465.326
2757 0 69.1048 11.649 805 121.407 791.503 462.322
2758 0 71.2151 13.8875 989 116.165 791.006 460.061
2759 0 73.2025 14.2482 1043 116.693 790.79 458.803
2760 0 76.2137 14.5381 1108 116.627 790.858 460.109
2761 0 79.2472 13.9437 1105 118.013 791 458.702
2762 0 80.3635 14.3224 1151 119.935 791.215 456.497
2763 0 82.2396 14.0443 1155 122.53 791.08 455.524
2764 0 85.3049 14.4072 1229 122.104 790.839 455.375
2765 0 88.2248 16.3219 1440 118.579 790.855 451.803
2766 0 89.2758 14.2256 1270 124.923 791.111 452.191
2767 0 91.1934 15.1217 1379 125.17 790.647 449.039
2768 0 95.133 15.0001 1427 125.237 790.851 450.21
2769 0 96.2711 15.4148 1484 126.306 791.15 444.862
2770 0 100.435 16.08 1615 124.518 791.236 447.387
2771 0 102.306 15.4634 1582 127.614 791.149 444.978
2772 0 105.371 15.2129 1603 129.404 791.24 443.173
2773 0 108.423 15.5134 1682 128.663 790.883 443.716
2774 0 109.333 14.7257 1610 133.611 790.875 440.255
2775 0 114.383 15.9202 1821 129.061 791.108 440.878
2776 0 116.243 15.3558 1785 131.748 790.633 437.552
2777 0 121.247 15.3406 1860 130.133 790.966 437.925
2778 0 123.229 15.0208 1851 131.453 791.294 435.169
2779 0 131.333 15.6397 2054 127.827 791.076 433.497
2780 0 134.317 15.4113 2070 128.457 790.396 432.502
2781 0 139.511 15.6188 2179 127.013 791.022 430.559
2782 0 142.224 14.4701 2058 130.966 790.65 427.28
2783 0 149.471 15.5281 2321 127.582 790.697 423.051
2784 0 155.503 15.3695 2390 125.062 790.712 422.389
2785 1 87.2618 13.2933 1160 123.588 790.403 455.186
2786 0 89.3203 14.0394 1254 123.409 791.07 453.431
2787 0 91.2852 14.9093 1361 122.666 790.131 451.471
2788 0 93.213 13.1205 1223 126.602 790.339 451.222
2789 0 96.1458 14.3324 1378 124.072 789.934 450.044
2790 0 100.26 14.8713 1491 122.056 791.175 450.121
2791 0 104.337 13.8398 1444 125.206 790.888 447.133
2792 0 108.414 14.583 1581 122.561 790.968 444.894
2793 0 113.36 15.4904 1756 119.899 790.707 441.507
2794 0 116.343 15.8411 1843 119.647 790.904 437.388
2795 0 120.384 14.4206 1736 123.153 791.018 439.901
2796 0 123.415 14.5525 1796 123.721 791.214 434.545
2797 0 126.381 14.3455 1813 124.232 790.755 436.475
2798 0 132.305 13.8695 1835 125.998 791.023 432.105
2799 0 134.207 14.7832 1984 124.762 790.746 430.132
2800 0 142.295 14.8002 2106 123.595 790.411 428.023
2801 0 146.384 14.1682 2074 126.779 790.477 425.041
2802 0 151.168 15.0693 2278 124.863 789.865 420.94
2803 0 155.329 13.4875 2095 128.438 790.628 419.871
2804 0 161.393 14.2014 2292 126.114 790.456 418.612
2805 0 165.412 13.5843 2247 128.417 790.432 411.849
2806 0 171.39 14.114 2419 126.525 790.281 409.659
2807 0 178.247 13.8179 2463 124.97 790.134 408.538
2808 0 178.243 13.8462 2468 147.264 789.15 408.638
2809 1 88.2368 13.6224 1202 123.76 790.577 452.722
2810 0 92.1204 14.1662 1305 123.215 790.51 450.176
2811 0 97.28 14.2887 1390 121.628 790.473 449.788
2812 0 96.1925 14.0344 1350 123.986 790.396 448.115
2813 0 100.218 13.311 1334 124.702 790.573 447.401
2814 0 105.304 15.1656 1597 120.44 790.533 443.869
2815 0 107.211 13.1703 1412 125.477 790.067 443.343
2816 0 112.286 15.4071 1730 120.891 790.026 438.563
2817 0 116.237 13.7822 1602 124.712 790.353 438.645
2818 0 120.259 14.1778 1705 122.92 791.206 439.418
2819 0 125.207 14.488 1814 123.315 790.571 435.666
2820 0 131.15 14.9066 1955 122.375 790.134 432.781
2821 0 136.412 15.138 2065 121.781 790.449 430.375
2822 0 141.19 13.6907 1933 127.043 790.297 428.703
2823 0 144.179 14.489 2089 126.095 790.389 425.261
2824 0 150.17 14.73 2212 126.142 790.323 424.791
2825 1 76.0889 15.311 1165 121.411 789.866 457.202
2826 0 78.1782 14.5565 1138 124.596 790.443 456.856
2827 0 80.1276 14.8014 1186 125.359 790.848 455.355
2828 0 83.1065 14.0422 1167 127.838 789.574 455.229
2829 0 86.0954 14.8556 1279 126.948 789.863 453.547
2830 0 88.2044 14.8519 1310 128.28 789.767 451.937
2831 0 92.1429 15.0093 1383 128.374 789.806 451.195
2832 0 92.1151 14.2648 1314 132.898 789.774 449.53
2833 0 97.088 15.625 1517 127.994 789.862 449.593
2834 0 98.1123 14.4834 1421 133.571 790.036 446.674
2835 0 102.107 15.7874 1612 130.288 789.864 445.891
2836 0 105.12 14.6309 1538 134.34 789.324 443.413
2837 0 109.18 14.2975 1561 134.748 790.06 443.746
2838 0 112.165 14.9511 1677 134.143 790.053 440.993
2839 0 116.127 14.5961 1695 135.875 790.001 438.568
2840 0 122.294 14.9721 1831 133.562 790.302 438.2
2841 0 123.13 15.3821 1894 134.545 789.726 433.318
2842 0 128.142 15.0458 1928 135.028 789.719 435.508
2843 0 131.226 14.3645 1885 138.935 789.635 430.513
2844 0 136.147 15.3363 2088 135.807 788.924 428.746
2845 0 139.124 15.2454 2121 134.935 789.386 430.123
2846 0 143.089 14.83 2122 138.07 789.412 424.746
2847 0 146.202 15.2939 2236 137.549 789.232 424.324
2848 0 153.129 15.02 2300 137.198 789.378 417.813
2849 0 159.211 14.9926 2387 136.568 789.069 417.002
2850 0 166.195 15.205 2527 134.152 788.965 417.156
2851 0 172.253 15.6282 2692 132.443 788.891 411.818
2852 0 178.341 15.2461 2719 132.43 790.054 409.404
2853 0 182.256 14.6552 2671 134.708 789.283 404.093
2854 0 191.241 15.0177 2872 131.733 789.619 403.231
2855 0 198.18 15.0015 2973 131.027 789.095 399.281
2856 0 205.251 14.2167 2918 133.034 789.123 392.528
2857 0 215.428 15.7825 3400 128.562 789.133 391.758
2858 0 239.379 22.1615 5305 106.848 789.329 370.247
2859 0 240.342 21.02 5052 111.448 789.504 366.372
2860 0 240.344 18.7357 4503 119.992 789.853 370.909
2861 1 172.304 13.2092 2276 134.192 789.751 409.247
2862 0 179.262 13.405 2403 132.107 789.256 408.189
2863 0 184.192 14.0668 2591 130.343 789.457 403.676
2864 0 189.264 14.102 2669 130.707 789.279 400.756
2865 0 197.537 15.0453 2972 128.178 788.804 398.512
2866 0 203.457 14.3126 2912 131.059 788.859 395.63
2867 0 211.296 14.8843 3145 129.357 788.9 392.17
2868 0 217.431 13.6227 2962 133.898 789.035 384.366
2869 0 225.171 13.8339 3115 132.832 789.42 384.226
2870 0 233.289 14.2741 3330 132.166 788.611 378.215
2871 0 244.496 13.9102 3401 133.331 788.264 373.413
2872 1 59.1204 9.8274 581 102.776 788.914 468.842
2873 0 61.2145 10.3734 635 103.302 788.82 470.619
2874 0 62.1312 11.1699 694 110.447 788.553 472.633
2875 0 65.0743 12.6163 821 103.633 788.965 470.615
2876 0 67.0973 10.8797 730 109.425 788.536 471.341
2877 0 67.033 10.4128 698 112.139 789.864 468.943
2878 0 72.0248 12.2319 881 117.258 790.518 469.228
2879 0 75.0508 11.2724 846 121.21 790.66 466.876
2880 0 77.0631 12.2757 946 119.748 790.692 466.47
2881 0 80.0707 12.3266 987 119.081 790.735 466.618
2882 0 79.0379 10.767 851 126.823 790.224 463.45
2883 0 86.0951 10.8136 931 124.468 790.463 464.521
2884 0 87.098 12.7558 1111 122.366 790.106 461.163
2885 0 89.0778 11.765 1048 124.798 790.138 459.243
2886 0 93.0774 13.4727 1254 120.342 789.897 457.415
2887 0 96.0534 12.3889 1190 123.761 790.372 455.505
2888 0 99.1351 11.7113 1161 125.45 790.105 453.558
2889 0 109.256 18.4154 2012 106.575 790.16 442.467
2890 0 108.204 13.0401 1411 124.297 790.009 441.216
2891 0 109.377 12.7997 1400 125.671 790.029 443.896
2892 0 111.187 11.7909 1311 126.879 789.786 447.3
2893 0 113.249 11.5056 1303 127.81 789.569 446.434
2894 0 118.377 13.55 1604 123.637 789.393 441.66
2895 0 121.197 12.1703 1475 126.703 788.984 442.224
2896 1 19.0038 4.999 95 102.621 791.116 492.095
2897 0 14.0016 6.21356 87 105.667 790.942 493.54
2898 0 17.0162 7.52223 128 102.227 790.477 493.578
2899 0 14.0036 5.78423 81 106.395 791.654 493.111
2900 0 24.0296 6.40877 154 105.63 791.169 489.175
2901 0 17.0029 5.11678 87 104.552 790.988 492.345
2902 0 18.0332 5.54532 100 102.95 791.79 492
2903 0 21.0006 6.80932 143 99.8112 791.301 491.14
2904 0 17.0427 6.51305 111 100.91 790.82 491.667
2905 0 22.002 4.7723 105 101.486 790.21 490.876
2906 0 20.0243 7.14134 143 97.4685 789.385 492.021
2907 1 179.306 12.4257 2228 120.255 790.06 417.376
2908 0 183.374 11.4956 2108 122.883 789.862 411.254
2909 0 192.435 14.7478 2838 113.311 789.804 407.598
2910 0 199.436 14.0697 2806 115.315 789.374 404.3
2911 0 205.383 13.9009 2855 119.331 789.4 400.637
2912 0 214.744 14.3194 3075 117.242 788.831 398.286
2913 0 219.723 14.8733 3268 115.465 788.589 396.015
2914 0 225.76 14.4579 3264 119.059 789.042 388.204
2915 0 232.806 14.5615 3390 120.449 788.94 380.196
2916 0 237.873 14.1967 3377 122.426 789.183 376.58
2917 0 245.778 13.4797 3313 124.871 789.734 374.74
2918 0 255.686 13.8255 3535 125.905 789.414 367.423
2919 1 203.684 13.84 2819 121.797 789.739 398.981
2920 0 207.658 14.2735 2964 121.427 789.051 395.032
2921 0 215.67 13.7525 2966 123.749 789.315 391.569
2922 0 222.942 13.259 2956 127.538 789.234 384.284
2923 0 229.822 13.5627 3117 126.577 789.129 382.143
2924 0 239.7 14.1385 3389 125.2 789.488 376.961
2925 0 248.635 14.7927 3678 123.842 788.732 375.708
2926 0 257.63 14.1715 3651 126.109 789.064 368.7
2927 1 194.465 13.5243 2630 125.004 788.941 397.914
2928 0 202.564 13.9808 2832 124.174 788.807 391.974
2929 0 204.439 11.8911 2431 130.839 789.255 386.448
2930 0 213.372 12.8226 2736 127.865 788.911 387.527
2931 0 221.556 13.7166 3039 125.429 789.027 384.862
2932 0 230.651 14.5111 3347 124.253 789.011 379.102
2933 0 235.638 14.3652 3385 125.196 789.188 375.833
2934 0 242.473 13.7912 3344 127.971 788.818 372.03
2935 0 251.756 14.3512 3613 125.893 788.649 370.538
2936 0 258.493 13.3853 3460 126.923 788.79 361.166
2937 1 274.721 19.7327 5421 109.977 788.445 343.457
2938 0 276.535 14.0308 3880 123.791 788.97 355.516
2939 0 306.818 22.6812 6959 96.9968 788.6 324.328
2940 0 295.654 16.2318 4799 117.193 788.721 345.559
2941 0 305.774 18.203 5566 112.21 789.565 340.263
2942 0 314.905 16.8686 5312 116.079 789.96 336.066
2943 0 323.88 16.7037 5410 116.749 789.815 326.228
2944 0 335.941 17.122 5752 116.148 789.633 328.173
2945 0 348.711 19.2423 6710 111.406 789.318 317.82
2946 0 354.698 14.9197 5292 123.306 789.319 312.76
2947 0 368.751 17.7274 6537 115.816 790.381 307.781
2948 0 376.714 16.9412 6382 119.737 789.407 303.749
2949 0 390.156 15.7193 6133 123.332 789.148 294.532
2950 0 401.19 16.6504 6680 123.379 789.626 285.537
2951 0 411.864 18.188 7491 120.812 790.482 283.457
2952 0 419.109 16.5733 6946 125.147 789.585 282.538
2953 0 215.684 13.2926 2867 125.776 788.82 386.304
2954 0 222.635 13.2055 2940 125.831 788.687 380.576
