time division length width area intensity CMx CMy
0 0 55.0969 13.1405 724 150.298 195.006 465.343
1 0 56.1022 13.1367 737 150.248 195.122 464.6
2 0 58.1288 12.8336 746 149.501 196.062 464.188
3 1 29.1324 10.1949 297 157.576 196.165 478.128
4 0 30.0573 12.6092 379 144.361 197.449 477.391
5 0 31.0332 13.115 407 141.189 197.172 477.482
6 0 31.1034 13.3747 416 141.411 196.332 478.197
7 0 32.0551 12.9777 416 141.7 196.103 478.606
8 0 32.0215 13.2099 423 142.326 196.395 478.586
9 0 34.0157 13.7584 468 140.355 196.842 477.406
10 0 33.1422 12.6123 418 145.88 196.325 479.026
11 0 34.0095 12.4377 423 148.255 196.657 479.059
12 0 35.0159 13.5367 474 143.863 196.297 477.589
13 0 35.0121 13.7381 481 144.229 195.742 477.965
14 0 35.0618 12.8345 450 148.691 196.287 478.596
15 0 37.0196 12.9931 481 148.075 195.757 478.258
16 0 37.0177 13.1559 487 149.698 196.006 478.06
17 0 39.0275 12.3759 483 151.559 195.642 478.228
18 0 39.0183 14.3266 559 148.261 196.036 476.397
19 0 41.0297 13.2099 542 150.26 195.363 477.41
20 0 40.116 13.087 525 154.672 195.51 476.44
21 0 43.068 13.5599 584 151.762 194.822 475.221
22 0 45.0911 13.3729 603 150.677 195.657 476.151
23 0 47.0988 14.2466 671 147.727 194.845 475.763
24 0 46.067 13.5889 626 153.374 194.094 475.131
25 0 48.0185 13.5573 651 151.71 194.157 476.452
26 0 49.0596 13.5346 664 151.592 194.721 474.488
27 0 52.0747 13.7303 715 148.48 194.393 475.768
28 0 53.1071 13.8776 737 151.64 194.118 472.311
29 0 55.1036 12.7759 704 154.989 194.636 473.634
30 0 56.0937 13.9944 785 153.234 194.27 471.251
31 0 59.1268 14.4774 856 151.525 193.88 470.998
32 0 60.1726 14.7409 887 152.108 193.414 469.495
33 0 62.1932 14.3906 895 153.267 193.672 469.05
34 0 66.0675 15.1512 1001 147.942 193.555 467.298
35 0 67.0857 15.4727 1038 149.137 194.147 467.949
36 0 70.0855 14.3824 1008 154.203 194.146 466.817
37 0 72.0761 14.7344 1062 150.43 193.561 466.444
38 0 76.0941 16.0065 1218 144.163 193.344 465.171
39 0 77.1796 15.3668 1186 149.363 192.572 462.331
40 0 80.1977 16.5092 1324 145.388 193.612 462.65
41 0 79.123 14.3448 1135 158.042 193.167 461.546
42 0 82.2591 13.8222 1137 160.775 192.755 461.353
43 0 87.2344 15.5099 1353 153.418 193.382 457.888
44 0 91.2671 15.0766 1376 154.411 192.795 458.356
45 0 95.1389 15.9872 1521 150.392 192.701 455.867
46 0 97.2268 15.2427 1482 159.081 193.007 453.827
47 0 102.115 15.1496 1547 154.206 193.184 452.688
48 0 108.19 15.0753 1631 150.758 193.502 451.567
49 0 110.126 14.9011 1641 150.991 193.006 449.613
50 0 113.126 14.9568 1692 148.969 192.357 448.684
51 1 59.169 14.129 836 154.356 192.603 469.238
52 0 63.121 14.4484 912 157.273 192.907 467.647
53 0 65.0672 13.5706 883 158.131 192.404 467.761
54 0 65.0919 14.0263 913 155.169 192.596 469.275
55 0 69.0892 14.3148 989 151.734 192.956 468.554
56 0 73.1305 16.0398 1173 141.071 192.997 466.787
57 0 75.1279 15.0144 1128 145.738 192.828 464.311
58 0 78.1953 14.9625 1170 144.924 192.557 463.319
59 0 81.1471 15.7492 1278 141.53 192.963 462.417
60 0 84.1153 14.4088 1212 144.647 192.042 461.642
61 0 88.1546 14.9964 1322 141.594 192.497 460.19
62 0 91.2553 14.432 1317 142.966 191.918 456.648
63 0 93.1016 14.7473 1373 136.181 191.936 455.231
64 0 97.135 15.8233 1537 131.347 192.094 453.711
65 0 101.152 14.3052 1447 136.33 192.315 451.815
66 0 104.22 14.3255 1493 137.556 191.935 448.171
67 1 54.0683 11.319 612 137.747 191.712 472.273
68 0 55.0151 12.4511 685 133.95 192.286 471.53
69 0 57.0382 11.9218 680 134.363 192.41 470.121
70 0 60.0494 12.5563 754 131.479 192.58 469.18
71 0 61.0715 11.8713 725 133.895 192.644 468.145
72 0 64.0607 12.2228 783 131.163 192.599 468.745
73 0 67.1309 12.2745 824 131.893 193.425 466.291
74 0 69.0875 12.9546 895 129.96 193.202 465.826
75 0 71.036 13.3594 949 128.489 192.897 465.947
76 0 72.0679 11.9471 861 135.555 192.902 463.153
77 0 76.0537 12.5701 956 132.987 193.006 460.362
78 0 80.0925 12.7602 1022 131.696 192.982 460.523
79 0 83.0507 12.8957 1071 130.565 192.739 460.479
80 0 87.069 13.0241 1134 131.015 193.27 458.736
81 0 89.0438 13.2407 1179 132.25 193.015 457.625
82 0 93.1477 13.3659 1245 131.388 192.382 456.212
83 0 95.1876 13.4892 1284 128.706 191.933 457.65
84 0 100.167 14.0465 1407 129.591 192.199 454.833
85 1 48.1766 11.0635 533 130.229 192.51 479.325
86 0 52.0568 12.9666 675 124.51 191.628 479.17
87 0 53.0386 12.9717 688 127.914 191.18 478.394
88 0 55.063 13.5663 747 123.855 190.631 477.407
89 0 57.1156 12.9212 738 125.817 190.756 476.038
90 0 60.0461 13.9892 840 119.651 190.643 476.143
91 0 61.1169 12.9097 789 122.64 191.009 474.677
92 0 64.1594 13.5132 867 119.821 190.747 474.057
93 0 64.0448 12.8348 822 121.894 190.909 472.015
94 0 67.1161 12.5156 840 120.564 191.863 470.338
95 0 69.2141 12.9887 899 119.877 191.732 469.212
96 0 73.0819 13.9159 1017 116.676 191.841 468.723
97 0 75.1107 13.2072 992 118.654 191.585 466.131
98 0 79.1663 12.8338 1016 120.166 191.665 464.456
99 0 81.0651 12.1877 988 122.813 192.132 462.717
100 0 83.1757 14.4754 1204 116.668 191.218 460.904
101 0 86.0876 13.614 1172 120.086 191.026 458.846
102 0 89.1145 12.5457 1118 123.437 191.331 459.949
103 0 94.1442 14.2441 1341 117.759 191.134 458.842
104 0 95.1788 13.606 1295 121.164 191.05 454.9
105 0 96.1641 12.4579 1198 124.538 190.847 453.957
106 1 54.1398 11.1563 604 119.73 191.474 477.238
107 0 55.0454 12.3353 679 117.918 191.892 476.726
108 0 56.1694 12.4623 700 118.511 191.181 476.566
109 0 58.0978 11.7044 680 120.401 191.146 476.294
110 0 59.165 12.068 714 120.127 190.57 475.531
111 0 61.1646 11.2483 688 122.054 190.672 474.427
112 0 65.1365 11.852 772 119.551 190.916 472.558
113 0 67.1327 12.0805 811 118.697 190.663 470.03
114 0 71.1547 12.7188 905 114.926 190.901 469.914
115 0 73.1265 12.198 892 117.34 191.539 466.582
116 0 76.2361 12.6056 961 116.509 190.693 463.271
117 0 78.2277 10.968 858 120.916 190.851 463.297
118 0 81.1387 11.9795 972 120.325 190.801 462.483
119 0 86.1739 12.8809 1110 117.077 190.655 462.551
120 0 88.1239 13.3902 1180 117.013 190.599 459.245
121 0 90.3787 11.1088 1004 123.305 190.511 460.241
122 0 94.2442 12.8178 1208 118.982 190.429 458.261
123 0 99.2315 13.2922 1319 117.273 191.152 455.837
124 0 100.162 12.3999 1242 120.07 191.101 455.086
125 0 105.333 12.4082 1307 120.862 191.324 451.386
126 1 54.0398 11.0104 595 122.445 190.405 475.758
127 0 58.0553 12.3331 716 125.902 190.881 474.45
128 0 59.043 12.5163 739 122.82 191.318 471.525
129 0 62.0606 12.2944 763 112.396 190.562 472
130 0 62.0233 13.8335 858 110.883 190.916 471.564
131 0 63.0452 11.4838 724 116.586 190.743 471.746
132 0 65.0361 12.3624 804 115.886 190.851 469.52
133 0 67.0399 13.2757 890 114.813 191.339 467.4
134 0 71.0362 14.2322 1011 110.837 191.153 466.52
135 0 73.1531 12.5353 917 116.649 191.36 464.973
136 0 75.0529 13.5105 1014 115.805 190.963 463.107
137 0 77.0758 13.104 1010 118.877 191.353 462.413
138 0 80.1777 12.8589 1031 119.172 190.872 462.703
139 0 83.0745 13.1207 1090 120.293 189.906 460.85
140 0 87.1349 13.1061 1142 119.133 190.909 460.799
141 0 90.0561 13.214 1190 120.387 191.258 457.138
142 0 94.0888 14.5182 1366 125.509 190.134 459.534
143 1 48.0333 11.5753 556 131.11 188.971 479.302
144 0 50.1314 12.0683 605 127.724 189.255 478.985
145 0 54.0245 13.2162 714 118.44 190.317 477.761
146 0 55.0857 12.653 697 116.331 190.749 475.871
147 0 54.1839 12.0515 653 119.557 190.616 476.975
148 0 55.1134 13.0277 718 129.322 190.909 476.674
149 0 57.0853 12.5777 718 130.111 190.504 476.244
150 0 60.0677 12.7856 768 128.099 191.195 476.414
151 0 62.0977 12.899 801 127.497 190.978 475.25
152 0 65.0536 13.8501 901 125.754 190.83 473.596
153 0 67.1186 12.5896 845 129.505 190.614 472.018
154 0 69.0765 14.1003 974 125.474 190.082 470.576
155 0 72.1264 14.2944 1031 124.338 190.189 470.447
156 0 76.0648 14.3299 1090 122.752 190.179 468.46
157 0 77.0311 13.7737 1061 125.205 191.256 466.014
158 0 80.0551 14.0653 1126 124.555 190.972 464.914
159 0 82.0727 13.8292 1135 126.389 190.546 463.397
160 0 85.1697 14.2187 1211 124.221 190.595 462.882
161 0 88.1424 13.8639 1222 124.74 190.724 460.856
162 0 92.2017 15.4661 1426 119.872 189.965 459.613
163 0 94.285 13.9789 1318 125.1 190.24 458.47
164 1 48.1331 12.507 602 131.357 190.111 479.301
165 0 49.1434 12.3923 609 129.828 190.245 480.067
166 0 50.2372 12.8789 647 124.955 190.617 477.522
167 0 53.0194 13.3159 706 115.013 190.292 475.268
168 0 54.0783 14.2201 769 115.674 190.263 475.238
169 0 54.0226 12.7539 689 122.877 190.165 475.731
170 0 58.1495 12.9666 754 117.737 189.414 475.159
171 0 59.0419 12.4149 733 120.127 189.295 474.277
172 0 61.1142 12.8284 784 119.158 190.311 474.249
173 0 64.1233 12.5695 806 119.83 190.711 472.569
174 0 65.192 13.5139 881 117.052 190.669 471.62
175 0 68.0574 12.989 884 118.061 190.758 470.331
176 0 69.0902 13.6488 943 116.846 190.2 467.32
177 0 73.1041 13.0909 957 116.357 190.046 468.677
178 0 76.1499 13.9199 1060 114.588 190.295 467.277
179 0 78.114 13.3267 1041 117.2 190.745 463.763
180 0 81.0734 12.5688 1019 118.873 190.219 462.256
181 0 84.1722 13.5318 1139 116.537 190.281 459.493
182 0 89.1433 13.4615 1200 114.689 190.02 459.622
183 0 91.1675 13.0968 1194 117.894 190.312 458.452
184 0 93.1109 12.5442 1168 118.499 190.228 456.426
185 0 98.0922 13.9868 1372 114.437 190.491 455.094
186 1 48.0503 13.028 626 120.262 189.848 478.232
187 0 50.0221 13.3341 667 121.057 190.153 477.285
188 0 55.1018 14.809 816 115.636 191.245 476.559
189 0 55.0671 13.529 745 119.495 190.15 474.628
190 0 55.0906 14.1948 782 118.784 189.996 474.043
191 0 57.0262 13.8884 792 119.814 190.294 472.376
192 0 60.1434 14.6151 879 118.179 189.81 470.782
193 0 61.0495 14.3162 874 119.407 190.061 472.101
194 0 62.1214 13.9244 865 121.986 190.146 469.899
195 0 66.1044 14.9007 985 118.653 190.719 468.641
196 0 67.1622 13.4897 906 123.206 190.721 466.671
197 0 71.2524 14.3434 1022 121.593 191.351 465.482
198 0 74.1229 14.6379 1085 122.072 191.192 460.126
199 0 76.2271 13.4991 1029 123.962 191.536 461.225
200 0 79.2354 13.971 1107 123.309 190.79 459.55
201 0 81.1712 14.5988 1185 122.678 190.456 455.716
202 0 84.1964 15.5114 1306 120.887 190.097 455.041
203 0 87.2344 14.9138 1301 122.771 190.895 454.596
204 0 89.2797 15.5355 1387 121.991 190.401 451.088
205 0 92.4151 15.5061 1433 121.626 190.936 451.768
206 0 95.222 15.8577 1510 120.669 191.263 448.906
207 0 98.3543 14.4884 1425 124.318 191.028 447.864
208 0 98.3166 13.4464 1322 127.248 191.159 447.391
209 0 102.225 13.9106 1422 125.617 191.843 446.257
210 0 106.436 14.6474 1559 123.876 191.417 443.759
211 0 110.345 14.7447 1627 123.186 191.207 441.838
212 0 113.441 14.5627 1652 124.406 190.484 439.57
213 0 119.36 14.3683 1715 122.969 190.687 437.536
214 0 122.646 14.6683 1799 122.058 190.836 435.149
215 0 125.386 13.9808 1753 124.255 190.37 433.947
216 0 133.488 14.9601 1997 121.454 191.553 430.43
217 0 136.733 13.4496 1839 124.816 191.062 430.797
218 0 141.702 14.227 2016 122.815 191.344 425.285
219 0 148.723 14.4363 2147 122.724 190.631 423.712
220 0 153.564 13.5579 2082 125.525 190.492 422.068
221 0 160.665 14.4089 2315 122.871 190.635 421.398
222 1 82.445 12.7115 1048 123.698 192.023 457.404
223 0 83.4156 13.1031 1093 124.891 191.737 454.874
224 0 88.4431 14.7779 1307 119.036 191.63 451.223
225 0 93.4711 13.7048 1281 119.83 191.443 451.939
226 0 94.4189 14.8064 1398 117.784 192.006 447.725
227 0 99.5953 14.3782 1432 118.1 191.635 448.89
228 0 102.644 15.1397 1554 116.451 190.977 446.011
229 0 105.375 13.4472 1417 122.046 190.862 444.183
230 0 111.496 13.3368 1487 121.083 190.528 442.685
231 0 113.373 13.0719 1482 123.5 190.611 439.461
232 1 56.1549 12.0203 675 124.113 190.633 466.622
233 0 59.3177 13.4024 795 120.474 191.278 462.733
234 0 63.2318 13.7905 872 117.459 191.367 462.845
235 0 63.3452 14.2079 900 117.627 191.689 463.606
236 0 68.3099 12.6336 863 120.209 191.556 463.448
237 0 69.2696 13.0505 904 120.428 191.936 460.967
238 0 74.2002 13.4905 1001 117.635 191.785 461.559
239 0 74.2166 13.6627 1014 118.875 191.64 459.046
240 0 77.2365 13.4781 1041 119.773 191.288 458.189
241 0 81.5106 15.1269 1233 115.779 191.737 454.906
242 0 83.1665 15.1864 1263 115.404 191.557 454.865
243 0 85.2793 13.5672 1157 119.764 191.631 456.089
244 0 87.1574 14.055 1225 119.943 191.61 453.568
245 0 89.1602 13.8739 1237 120.379 192.023 452.259
246 0 94.0828 14.4447 1359 118.55 192.266 450.957
247 0 94.0937 14.0923 1326 121.232 192.491 446.893
248 0 101.291 15.0359 1523 117.521 192.595 446.526
249 0 104.206 14.5673 1518 118.677 192.502 445.47
250 0 107.237 13.8013 1480 121.839 192.592 441.184
251 0 111.222 14.0081 1558 121.417 192.038 441.166
252 0 117.318 13.8086 1620 121.701 191.997 436.988
253 0 120.188 13.404 1611 124.812 190.667 433.3
254 0 120.188 13.3624 1606 167.741 189.681 433.243
255 0 129.289 13.3112 1721 126.046 191.244 429.446
256 0 135.244 13.9747 1890 123.553 190.207 429.785
257 0 141.185 14.527 2051 121.954 190.69 427.831
258 0 146.139 13.665 1997 124.387 190.766 423.49
259 1 80.1184 12.4441 997 115.514 191.044 457.421
260 0 82.1504 10.6755 877 120.204 190.73 456.178
261 0 86.1963 12.9936 1120 119.887 190.371 454.019
262 0 88.299 11.7102 1034 123.191 190.137 454.547
263 0 91.2814 12.8613 1174 120.658 189.871 452.749
264 0 94.1495 12.2677 1155 123.011 190.104 450.932
265 0 97.2102 12.2518 1191 124.083 189.789 448.254
266 0 102.162 12.5585 1283 121.315 189.977 448.727
267 0 102.182 12.3407 1261 125.243 190.781 444.458
268 0 108.188 12.5984 1363 123.337 190.367 444.807
269 0 110.097 11.9713 1318 125.827 190.413 443.042
270 0 116.156 13.6455 1585 123.065 189.591 440.674
271 1 59.0713 9.6155 568 117.894 189.312 470.299
272 0 64.0157 11.9814 767 113.463 190.267 469.232
273 0 63.0716 10.6863 674 107.736 191.537 470.043
274 0 66.0636 10.8986 720 107.81 191.71 469.011
275 0 66.0608 10.9445 723 126.622 191.698 468.945
276 0 70.1218 10.5816 742 109.992 192.221 467.084
277 0 72.1157 11.7589 848 107.091 192.09 465.126
278 0 77.0788 11.378 877 106.749 192.055 466.046
279 0 76.1109 11.0497 841 109.567 192.698 463.308
280 0 76.155 9.41501 717 113.006 192.506 460.907
281 0 80.0963 11.3364 908 109.059 192.108 458.325
282 0 85.1835 11.9037 1014 106.922 192.353 460.103
283 0 87.1572 10.9343 953 109.191 192.765 459.279
284 0 89.1921 11.9854 1069 108.052 192.346 455.127
285 0 91.0885 10.5721 963 109.72 192.485 458.817
286 0 94.1525 12.2461 1153 106.427 192.937 453.984
287 0 95.1176 10.5448 1003 110.339 193.031 453.521
288 0 101.185 11.8496 1199 106.49 193 450.595
289 0 104.127 12.3504 1286 106.059 193.045 449.484
290 0 107.208 10.3444 1109 110.7 193.206 446.488
291 0 110.155 10.8847 1199 111.731 192.871 447.004
292 0 112.164 11.7328 1316 113.698 192.597 443.144
293 0 118.108 11.5064 1359 113.299 192.563 441.516
294 0 120.133 9.99725 1201 116.415 192.194 442.45
295 0 126.209 11.5364 1456 114.437 191.561 436.214
296 0 126.229 9.05497 1143 117.692 190.916 435.999
297 0 132.201 11.4825 1518 114.21 190.867 433.499
298 0 134.313 11.1531 1498 115.05 191.368 431.784
299 1 73.0656 9.85416 720 104.792 190.732 463.957
300 0 76.0412 9.07403 690 104.603 190.451 467.894
301 0 77.128 9.89265 763 105.206 190.042 461.97
302 0 78.1196 9.52386 744 105.755 191.246 463.612
303 0 80.1418 9.67036 775 105.843 191.188 461.726
304 0 84.1126 10.4741 881 104.345 191.882 460.368
305 0 86.1899 10.7089 923 106.039 192.991 457.46
306 0 88.1359 9.97323 879 107.662 192.141 457.625
307 0 91.2419 9.78717 893 108.555 192.679 453.763
308 0 95.1747 10.3809 988 108.323 192.322 454.893
309 0 98.1191 10.6198 1042 108.162 191.812 453.107
310 0 100.287 10.2307 1026 110.317 192.193 452.277
311 0 101.182 10.4366 1056 109.992 192.251 450.66
312 0 106.333 10.7586 1144 109.65 192.376 448.203
313 0 109.343 11.9075 1302 107.757 192.526 444.708
314 0 113.294 12.1718 1379 107.263 191.687 445.89
315 0 115.362 11.4682 1323 110.635 191.037 440.711
316 0 120.301 12.0614 1451 109.158 192.058 442.143
317 1 65.2818 10.4623 683 107.287 192.403 469.603
318 0 67.0747 10.943 734 107.173 192.619 466.744
319 0 69.2153 11.7604 814 105.797 192.643 466.279
320 0 72.2092 11.9791 865 106.132 192.773 464.571
321 0 74.2807 12.8028 951 106.477 192.539 464.249
322 0 77.3015 11.0994 858 104.159 192.188 464.072
323 0 78.2288 11.5558 904 102.648 192.399 462.573
324 0 80.1038 11.4976 921 103.167 192.287 462.206
325 0 83.1385 11.126 925 103.52 192.502 462.695
326 0 86.0742 12.1639 1047 100.509 192.661 459.985
327 0 87.1683 11.7933 1028 103.526 190.385 457.36
328 0 86.1256 9.90414 853 108.501 190.093 459.974
329 0 91.1319 11.4998 1048 105.591 190.994 458.571
330 0 93.1345 11.4673 1068 106.006 191.166 456.519
331 0 95.0783 10.7175 1019 108.379 191.193 453.109
332 0 99.0779 12.2227 1211 106.05 190.279 452.665
333 0 101.095 11.7513 1188 106.741 189.852 452.938
334 0 103.248 10.315 1065 109.998 190.724 451.669
335 0 109.069 12.7259 1388 105.179 190.524 450.621
336 1 60.041 10.5761 635 104.43 190.465 472.162
337 0 62.1264 10.6557 662 104.437 189.979 472.589
338 0 64.0978 12.1689 780 102.446 190.137 470.54
339 0 63.1832 11.4746 725 106.098 190.916 471.879
340 0 67.0956 11.5358 774 106.478 190.729 470.64
341 0 67.2091 10.8467 729 108.83 190.621 470.243
342 0 70.1815 11.8407 831 106.212 190.669 469.318
343 0 72.142 11.7269 846 108.448 189.896 466.486
344 0 73.148 12.2491 896 107.2 190.464 466.022
345 0 76.2938 11.7179 894 108.714 190.158 467.289
346 0 76.1934 11.0377 841 112.2 190.143 464.51
347 0 81.1574 12.8762 1045 107.871 190.876 464.144
348 0 82.1396 13.1483 1080 109.056 190.618 462.89
349 0 86.1834 12.5778 1084 111.173 190.368 462.009
350 0 88.063 12.0823 1064 113.685 190.444 460.939
351 0 92.1792 12.9964 1198 113.195 191.037 457.7
352 0 95.0662 12.0968 1150 115.607 191.704 458.843
353 0 97.0956 12.5237 1216 116.298 191.556 455.872
354 0 101.082 12.2969 1243 118.014 191.888 453.641
355 1 55.1491 12.3484 681 116.938 192.385 475.314
356 0 56.0987 13.1019 735 116.03 192.079 475.241
357 0 58.306 13.2576 773 115.709 191.696 474.146
358 0 61.2453 11.3968 698 119.175 191.875 474.628
359 0 62.3415 12.4315 775 116.519 192.468 474.219
360 0 65.2777 12.8834 841 115.936 192.876 474.068
361 0 65.1705 12.8432 837 117.197 193.129 472.215
362 0 67.2292 11.974 805 118.852 192.538 472.164
363 0 67.2995 12.2289 823 118.906 192.286 471.039
364 0 70.1982 13.2909 933 116.486 192.297 468.914
365 0 71.2513 13.3892 954 117.545 192.077 468.324
366 0 73.1928 13.3893 980 117.478 192.336 466.906
367 0 75.1829 12.995 977 119.012 192.116 467.879
368 0 77.1844 13.4094 1035 119.785 191.918 464.131
369 0 78.1445 12.8096 1001 122.58 191.659 463.237
370 0 82.1957 12.2877 1010 123.258 192.622 464.048
371 0 85.2332 12.9175 1101 122.503 192.436 462.852
372 0 87.2597 14.3709 1254 118.923 192.511 460.545
373 0 92.3042 14.4739 1336 117.601 192.784 459.507
374 0 94.2943 14.635 1380 118.022 192.78 456.818
375 0 96.2979 14.0398 1352 120.229 193.015 456.618
376 0 101.26 14.4282 1461 117.572 192.792 456.427
377 1 52.1595 12.0016 626 119.567 193.318 479.299
378 0 54.2513 12.3499 670 115.41 193.216 478.504
379 0 55.2744 12.2661 678 116.316 191.647 473.488
380 0 57.0477 12.8664 734 109.599 192.845 476.906
381 0 57.2033 12.744 729 110.536 192.63 475.492
382 0 61.0931 13.5694 829 108.899 192.159 474.181
383 0 64.1527 12.517 803 110.584 192.163 473.545
384 0 65.103 12.8412 836 110.225 192.094 472.687
385 0 67.0647 14.0163 940 108.103 192.748 470.336
386 0 67.1044 12.5923 845 113.56 192.815 470.968
387 0 68.0649 12.2383 833 114.301 192.622 471.126
388 0 72.0881 13.2477 955 110.714 192.672 470.226
389 0 71.2651 11.9273 850 115.735 192.149 468.885
390 0 77.0942 14.0477 1083 110.35 191.668 467.249
391 0 80.1437 13.5132 1083 112.174 192.206 465.976
392 0 81.1584 12.4694 1012 115.671 191.955 465.394
393 0 84.1784 14.0772 1185 112.397 192.022 463.262
394 0 87.0965 13.8812 1209 113.883 192.46 461.017
395 0 89.0752 13.1013 1167 116.38 192.222 460.673
396 0 93.1439 13.5382 1261 114.852 192.649 459.064
397 0 94.1152 13.696 1289 115.123 192.539 458.67
398 0 98.1557 14.1714 1391 114.638 192.384 454.074
399 0 102.111 13.4559 1374 115.976 193.275 452.723
400 1 56.0749 13.6246 764 112.482 193.069 476.296
401 0 58.0457 13.8339 803 112.856 193.587 475.822
402 0 61.135 13.8055 844 109.562 193.523 476.248
403 0 62.0852 12.7084 789 111.987 193.204 474.321
404 0 63.1262 13.0374 823 111.851 192.738 472.457
405 0 64.1425 12.8464 824 112.18 193.079 471.07
406 0 68.0808 12.5586 855 111.972 193.236 469.917
407 0 70.0607 14.7444 1033 106.275 191.988 468.372
408 0 72.1476 13.1397 948 110.119 192.609 467.923
409 0 76.1446 14.3149 1090 106.358 192.477 466.91
410 0 79.0992 13.3124 1053 108.029 193.059 466.1
411 0 80.1036 12.7335 1020 109.3 192.504 465.612
412 0 84.0957 13.8771 1167 108.003 191.346 463.094
413 0 85.0839 12.2702 1044 112.158 191.961 462.179
414 1 44.0614 11.7563 518 110.805 192.266 482.635
415 0 46.1097 13.1859 608 106.771 193.301 480.294
416 0 48.0881 12.997 625 107.115 193.667 481.067
417 0 49.0187 13.5254 663 106.73 194.048 479.155
418 0 50.0494 12.168 609 109.768 193.811 480.519
419 0 51.0668 12.513 639 109.463 193.238 478.531
420 0 53.0123 12.9027 684 108.681 193.203 477.817
421 0 55.0638 12.2948 677 109.276 192.883 476.539
422 0 55.0718 12.3838 682 110.053 192.672 476.947
423 0 56.0973 13.3875 751 107.927 192.979 474.554
424 0 60.056 12.7548 766 107.061 192.916 474.749
425 0 63.0752 13.143 829 105.965 192.233 473.433
426 0 65.1375 12.3278 803 106.467 192.649 472.705
427 0 66.1693 13.1632 871 104.844 192.185 471.427
428 0 70.0559 13.3179 933 103.697 192.718 469.087
429 0 72.0871 12.6097 909 106.473 193.232 468.13
430 0 75.2121 13.3223 1002 104.911 192.712 468.293
431 0 78.0745 14.0763 1099 103.761 193.338 464.383
432 0 81.1798 13.7965 1120 104.659 192.933 465.235
433 0 82.0835 13.0233 1069 106.988 193.124 463.359
434 0 82.0577 12.54 1029 108.894 193.704 462.548
435 0 89.0906 13.9858 1246 104.961 193.356 460.293
436 0 93.072 13.7421 1279 112.853 193.497 458.13
437 0 96.0835 13.3322 1281 114.588 193.215 457.39
438 0 99.1979 13.468 1336 114.14 193.376 455.319
439 1 49.0237 11.0355 541 111.181 192.677 479.41
440 0 52.0954 11.8629 618 105.828 191.411 478.872
441 0 52.0647 12.4076 646 105.204 192.342 477.663
442 0 54.0893 12.5348 678 106.386 192.022 477.429
443 0 56.0663 12.2534 687 107.491 192.55 476.326
444 0 56.1755 12.1939 685 108.613 192.874 476.012
445 0 59.0895 12.5234 740 107.061 192.762 475.846
446 0 63.0637 13.8273 872 104.391 192.687 472.689
447 0 63.0834 11.6354 734 110.947 192.142 473.362
448 0 66.0727 12.7133 840 108.4 192.949 473.482
449 0 70.0899 13.1545 922 107.376 193.102 470.706
450 0 71.054 14.0175 996 105.481 193.37 470.682
451 0 73.1071 12.8715 941 110.558 193.15 467.838
452 0 76.1019 13.2717 1010 109.274 192.9 466.777
453 0 79.0626 13.8751 1097 108.01 193.529 467.431
454 0 78.2032 12.8256 1003 113.839 193.54 463.633
455 0 81.1942 12.2915 998 114.193 193.691 463.724
456 0 85.2203 13.3302 1136 111.884 193.705 461.875
457 0 87.1504 13.907 1212 110.42 193.051 461.96
458 0 89.1761 13.0192 1161 113.263 192.722 459.718
459 0 94.0939 13.3377 1255 111.704 192.314 457.156
460 0 97.0917 14.5636 1414 108.716 192.238 455.304
461 0 99.2034 13.6588 1355 110.431 192.824 455.518
462 1 52.0751 11.253 586 110.249 193.771 477.282
463 0 53.1249 11.8589 630 108.573 193.362 476.086
464 0 59.0574 13.5292 799 102.855 193.576 474.935
465 0 58.0836 12.2582 712 106.692 193.94 472.705
466 0 62.042 13.0073 807 104.513 192.919 473.654
467 0 62.1219 12.9906 807 105.134 190.675 470.001
468 0 66.0613 13.7145 906 103.649 191.37 469.445
469 0 65.0375 12.7773 831 108.651 191.218 469.15
470 0 69.1118 12.3713 855 109.115 191.664 469.94
471 0 73.1337 12.9079 944 106.076 191.069 466.631
472 0 73.0611 13.2355 967 108.678 190.89 464.169
473 0 77.1788 12.335 952 110.297 191.711 466.833
474 0 80.1511 13.0753 1048 106.152 192.072 464.919
475 0 80.1048 12.209 978 112.748 192.67 463.01
476 0 85.1076 12.5723 1070 110.795 192.762 461.394
477 0 87.1665 12.2524 1068 113.452 192.239 459.767
478 0 92.1599 13.4766 1242 109.042 193.39 455.853
479 0 96.2186 12.721 1224 111.82 192.483 454.758
480 0 99.2073 13.6179 1351 109.199 191.621 453.235
481 0 102.223 13.3728 1367 105.287 192.367 451.023
482 1 52.1251 10.3789 541 105.697 193.177 476.02
483 0 53.0977 12.8442 682 100.117 193.531 476.727
484 0 54.0672 12.7989 692 100.191 193.595 475
485 0 56.1678 12.2134 686 101.241 192.942 474.318
486 0 58.0492 12.7134 738 99.7195 192.631 473.901
487 0 60.0994 10.9984 661 102.879 193.737 472.781
488 0 61.1221 12.3032 752 100.624 193.185 472.779
489 0 64.0577 13.3474 855 98.7591 193.51 470.851
490 0 66.1162 12.5839 832 100.511 193.805 470.474
491 0 70.0607 12.4321 871 100.305 193.343 471.222
492 0 68.0915 12.5126 852 102.488 193.104 469.218
493 0 73.0876 14.4347 1055 97.1289 192.853 469.667
494 0 75.1352 14.3075 1075 97.88 192.98 466.767
495 0 76.1378 13.0159 991 101.666 193.137 468.54
496 0 78.1589 13.1015 1024 102.368 192.562 467.584
497 0 80.1802 14.0933 1130 101.807 192.661 464.377
498 0 82.1471 12.5628 1032 105.738 192.878 463.931
499 0 84.1301 13.8952 1169 103.322 192.863 461.409
500 0 88.1538 14.9511 1318 109.186 192.274 459.477
501 0 90.1376 12.614 1137 116.47 191.883 461.484
502 0 88.2291 11.9348 1053 121.088 192.073 459.279
503 0 95.2318 13.4409 1280 117.048 192.029 458.067
504 0 97.1829 13.2328 1286 117.597 192.143 456.47
505 0 99.1819 12.9661 1286 118.266 191.897 455.549
506 0 103.072 14.3783 1482 112.227 192.476 453.749
507 0 106.196 13.1643 1398 115.134 192.494 452.128
508 0 108.129 14.0203 1516 114.284 192.278 451.268
509 0 112.192 14.1454 1587 113.069 192.428 448.896
510 0 116.25 13.0322 1515 115.997 191.739 446.246
511 0 120.227 13.408 1612 115.055 191.2 443.372
512 0 125.287 12.3396 1546 117.313 190.832 441.506
513 1 64.1392 11.0697 710 114.544 190.411 472.445
514 0 66.0692 11.9572 790 114.203 191.039 470.373
515 0 68.0937 12.4094 845 111.193 191.143 468.871
516 0 70.0979 13.0246 913 110.322 190.387 468.682
517 0 73.0604 13.7694 1006 108.42 190.914 467.41
518 0 74.0934 13.2265 980 109.789 190.979 466.455
519 0 77.0989 13.5929 1048 109.12 190.956 464.682
520 0 79.0715 13.0262 1030 111.387 191.108 463.618
521 0 82.0953 13.1676 1081 110.997 190.379 462.714
522 0 84.0813 12.6663 1065 112.094 190.5 461.509
523 0 86.2224 12.2706 1058 113.106 191.531 460.647
524 0 89.1595 12.5169 1116 113.698 190.681 459.59
525 0 91.16 12.0338 1097 114.977 190.533 458.758
526 0 94.1075 11.2425 1058 115.325 190.476 460.241
527 0 102.179 13.9852 1429 107.576 189.808 456.915
528 0 102.133 13.5314 1382 109.949 190.441 453.839
529 0 106.17 14.1282 1500 107.195 190.743 452.565
530 0 109.155 12.1296 1324 111.409 191.122 452.189
531 0 115.295 13.2356 1526 109.335 190.893 447.955
532 1 61.0587 11.2187 685 112.482 190.626 472.505
533 0 63.1348 11.911 752 111.403 190.767 474.035
534 0 66.228 13.7102 908 108.889 191.265 470.206
535 0 67.2129 12.1852 819 113.293 191.419 471.545
536 0 70.1282 13.9316 977 110.491 191.934 468.262
537 0 71.3509 12.4175 886 115.328 191.168 466.584
538 0 75.275 13.5237 1018 112.252 191.336 466.949
539 0 78.2946 13.628 1067 112.837 191.127 464.765
540 0 80.2255 13.4745 1081 114.01 191.244 466.231
541 0 82.3406 13.5049 1112 114.99 191.086 463.166
542 0 87.3669 13.1858 1152 115.46 191.227 461.62
543 0 90.461 13.2764 1201 115.716 191.441 458.998
544 0 91.2568 13.5004 1232 112.39 190.845 458.687
545 0 94.0934 13.2847 1250 113.514 191.198 455.852
546 0 95.1471 12.3283 1173 117.103 192.408 454.156
547 0 103.185 14.0039 1445 111.646 192.181 453.314
548 0 105.247 13.6631 1438 112.583 192.252 452.643
549 0 108.276 13.9643 1512 114.023 192.657 449.776
550 1 59.1377 12.5808 744 113.28 192.859 473.915
551 0 58.1659 12.6191 734 116.978 192.424 468.699
552 0 62.1228 13.6826 850 107.905 193.251 467.966
553 0 65.0711 12.7706 831 109.409 193.116 470.384
554 0 67.0448 13.0361 874 108.903 192.502 470.396
555 0 70.0617 13.588 952 112.946 192.767 472.08
556 0 72.0603 14.3907 1037 114.28 193.426 468.493
557 0 76.0893 13.5499 1031 115.75 193.366 469.898
558 0 75.2496 13.0632 983 124.194 193.367 466.044
559 0 80.2391 13.0485 1047 124.311 193.316 465.2
560 0 82.1183 13.1883 1083 121.102 194.456 465.303
561 0 84.0839 12.5708 1057 123.93 194.197 461.905
562 0 87.1187 12.4658 1086 123.056 193.026 464.179
563 1 49.074 11.3095 555 116.892 191.823 483.623
564 0 47.0875 12.2963 579 116.874 191.812 482.351
565 0 48.0781 11.9389 574 121.148 191.713 481.28
566 0 50.1173 11.8322 593 120.911 191.425 479.636
567 0 51.1619 12.0207 615 122.637 192.824 479.145
568 0 54.0685 12.8356 694 119.993 192.594 478.879
569 0 53.151 11.6461 619 123.99 192.588 479.309
570 0 58.1614 12.4653 725 121.785 192.743 477.476
571 0 58.1905 11.7717 685 124.499 192.488 478.415
572 0 60.1756 12.879 775 121.597 192.528 477.257
573 0 62.1639 11.3088 703 126.385 192.795 475.713
574 0 63.2625 11.6183 735 126.045 192.871 477.11
575 0 67.1154 13.0968 879 121.749 193.085 474.248
576 0 68.07 12.6487 861 124.893 192.863 473.449
577 0 70.1184 12.4789 875 125.067 192.112 472.627
578 0 75.1714 13.4626 1012 123.809 192.29 469.364
579 0 77.1215 13.3555 1030 124.367 192.346 469.883
580 0 78.2442 13.3428 1044 125.724 191.689 467.704
581 0 81.2066 12.93 1050 130.816 191.615 466.485
582 0 84.2297 13.5107 1138 130.559 191.691 463.864
583 0 88.14 14.7039 1296 128.142 191.343 460.621
584 0 90.2411 13.6966 1236 131.884 191.732 460.746
585 0 94.257 14.4605 1363 130.613 190.967 458.07
586 1 47.1411 11.9217 562 136.541 191.826 481.4
587 0 52.1598 13.4586 702 130.58 191.993 479.621
588 0 51.1111 11.8957 608 137.418 191.854 479.087
589 0 53.2389 13.0544 695 134.771 192.232 476.937
590 0 54.1477 12.7799 692 133.633 192.968 479.253
591 0 56.1639 13.6921 769 131.614 193.035 479.274
592 0 58.178 13.7853 802 131.448 193.13 478.496
593 0 60.1465 13.3507 803 134.25 192.996 476.213
594 0 63.11 14.1657 894 131.554 192.853 476.032
595 0 62.2392 13.3517 831 136.779 192.562 475.659
596 0 66.1205 13.4149 887 137.212 192.525 473.351
597 0 69.2327 14.4585 1001 134.798 192.588 471.389
598 0 70.2057 14.5857 1024 134.805 193.057 470.744
599 0 72.1411 13.737 991 137.653 192.616 470.918
600 0 76.2512 14.1113 1076 135.331 192.782 469.37
601 0 77.2032 13.5357 1045 138.322 192.911 468.387
602 0 82.3008 14.0096 1153 135.61 192.373 466.768
603 0 83.3749 14.045 1171 136.708 192.293 463.9
604 0 87.2477 15.6795 1368 131.372 192.55 463.211
605 0 89.1738 13.9166 1241 136.395 192.964 460.334
606 0 93.3422 14.1522 1321 134.949 191.621 459.944
607 0 96.4076 14.1794 1367 135.228 191.535 457.255
608 0 100.342 14.1915 1424 135.535 191.228 455.553
609 1 53.2379 13.5054 719 137.127 192.392 477.864
610 0 55.2735 14.6182 808 134.595 192.127 476.567
611 0 55.084 13.67 753 134.968 192.899 472.495
612 0 57.0266 13.9935 798 132.888 191.672 475.482
613 0 57.2284 14.9227 854 130.933 191.944 476.521
614 0 60.1938 14.4367 869 130.595 192.527 475.465
615 0 61.0674 15.3273 936 127.907 192.222 472.377
616 0 65.063 14.5705 948 128.858 192.662 473.236
617 0 65.1097 14.6829 956 129.758 192.245 470.744
618 0 68.192 14.3125 976 132.098 192.582 471.341
619 0 71.5655 14.9374 1069 130.07 192.498 468.012
620 0 72.2793 14.3195 1035 132.223 192.752 467.649
621 0 73.2757 13.5516 993 134.798 193.046 467.36
622 0 77.3615 14.7102 1138 133 192.164 465.311
623 0 81.5645 15.9138 1298 129.357 192.031 463.383
624 0 83.3152 14.8832 1240 133.254 191.811 462.723
625 0 84.3564 14.1305 1192 137.416 191.492 463.148
626 0 89.4501 15.6624 1401 133.069 191.444 461.788
627 0 93.484 15.6604 1464 132.666 191.941 458.919
628 0 96.2812 14.7589 1421 135.998 191.337 457.726
629 1 48.2438 13.2452 639 138.756 191.387 480.468
630 0 50.1294 14.1833 711 138.197 191.643 481.315
631 0 52.083 14.1313 736 132.527 191.753 480.076
632 0 55.0837 14.8501 818 130.605 192.352 478.971
633 0 55.144 13.9635 770 135.103 192.425 477.8
634 0 59.0749 13.9992 827 133.912 192.225 477.474
635 0 61.052 14.7579 901 133.715 192.574 476.614
636 0 63.1252 14.8435 937 136.253 192.378 475.717
637 0 62.0638 14.614 907 138.355 192.986 474.375
638 0 67.1155 14.8699 998 135.845 192.162 471.919
639 0 70.0896 15.6799 1099 133.627 193.267 470.448
640 0 73.2303 15.2259 1115 133.28 193.308 470.208
641 0 74.1145 15.2602 1131 133.193 192.454 470.082
642 0 77.2242 13.9594 1078 137.038 191.657 466.822
643 0 79.213 14.9975 1188 134.565 191.857 465.079
644 0 83.1684 15.0658 1253 134.132 192.355 464.529
645 0 85.1918 14.7197 1254 135.828 191.557 461.283
646 0 88.2071 14.6247 1290 135.18 191.271 462.87
647 0 91.1874 14.7937 1349 135.084 191.386 460.258
648 0 95.1118 15.077 1434 133.487 191.896 457.262
649 0 99.2466 15.6479 1553 131.783 191.325 456.913
650 0 102.184 15.5308 1587 132.477 191.74 454.836
651 1 52.0513 13.7557 716 132.947 191.588 478.865
652 0 56.0912 13.068 733 133.978 191.12 478.246
653 0 59.1295 15.4914 916 130.789 192.087 475.94
654 0 59.085 14.2845 844 136.113 191.916 475.634
655 0 62.0443 15.1343 939 132.808 191.82 474.62
656 0 64.0681 14.9372 957 133.541 192.223 474.373
657 0 67.0989 14.8289 995 134.584 191.407 472.883
658 0 67.0563 14.2567 956 138.177 191.082 472.087
659 0 71.1186 15.1156 1075 135.574 191.081 470.454
660 0 73.0951 16.0065 1170 133.934 191.019 469.257
661 0 77.0713 15.4013 1187 135.061 191.307 468.848
662 0 79.0841 15.4393 1221 137.259 190.548 467.4
663 0 83.1081 16.2078 1347 134.568 190.664 465.902
664 0 84.1106 15.2181 1280 137.242 191.593 465.126
665 0 87.1016 14.9366 1301 137.246 191.099 463.652
666 0 91.1236 15.8027 1440 133.588 191.34 462.29
667 0 94.1024 15.3344 1443 135.142 191.12 459.512
668 0 96.0377 15.6813 1506 134.147 191.404 456.738
669 1 44.0971 15.7153 693 133.007 191.667 481.59
670 0 46.0976 14.6212 674 135.76 191.552 480.899
671 0 48.0467 15.1103 726 136.771 191.478 477.818
672 0 51.0295 15.8536 809 133.422 191.399 478.096
673 0 53.0446 14.7046 780 138.131 191.282 475.959
674 0 54.0471 16.0046 865 136.501 190.957 476.179
675 0 55.1155 14.8053 816 141.222 191.735 476.282
676 0 58.0641 15.9996 929 138.034 191.813 474.882
677 0 59.0852 14.5045 857 142.54 191.75 474.687
678 0 62.1117 16.2771 1011 138.992 191.906 472.717
679 0 63.1911 16.5688 1047 139.169 191.966 473.3
680 0 66.1397 15.0893 998 144.361 191.566 470.362
681 0 67.1356 16.2805 1093 141.396 190.984 471.713
682 0 71.3084 16.4777 1175 144.91 191.124 469.466
683 0 72.5011 15.5308 1126 144.724 191.824 468.52
684 0 76.1558 18.3046 1394 136.47 191.618 466.867
685 0 78.136 15.8954 1242 144.25 191.307 466.628
686 0 81.2369 16.4457 1336 143.571 190.888 465.137
687 0 82.1692 15.9184 1308 146.802 191.256 463.778
688 0 85.1132 16.0492 1366 146.363 191.102 461.976
689 0 88.2354 15.6853 1384 147.605 191.176 461.158
690 0 92.4618 15.8985 1470 146.922 191.556 459.364
691 0 95.1618 16.5087 1571 145.841 191.15 457.582
692 0 100.207 16.8851 1692 144.725 190.967 455.653
693 0 102.228 16.6002 1697 145.976 191.566 455.062
694 0 108.293 18.3483 1987 140.429 191.348 452.598
695 0 111.183 17.0079 1891 145.096 191.446 450.644
696 0 115.231 17.504 2017 143.452 190.789 449.334
697 0 119.34 17.6722 2109 142.446 190.974 447.728
698 0 121.19 16.0327 1943 148.029 191.39 443.224
699 0 127.372 17.6412 2247 142.291 190.908 441.397
700 1 66.1057 14.9155 986 145.126 190.899 473.435
701 0 68.1915 14.2246 970 147.258 191.612 473.113
702 0 69.1756 14.8463 1027 149.603 191.224 471.22
703 0 75.1298 16.944 1273 142.686 190.792 468.27
704 0 77.199 15.881 1226 146.338 190.459 467.817
705 0 79.3841 15.4313 1225 147.094 191.326 466.841
706 0 84.2795 16.6945 1407 142.38 190.224 464.919
707 0 86.4749 16.0162 1385 144.349 191.035 462.413
708 0 89.3025 15.3523 1371 147.054 191.309 461.721
709 0 93.3038 14.844 1385 147.13 191.259 459.09
710 0 99.2016 15.907 1578 142.423 190.855 458.596
711 0 103.332 16.4228 1697 141.11 191.142 456.614
712 0 105.229 15.9747 1681 145.214 190.734 453.04
713 0 111.381 17.1034 1905 140.343 190.436 452.572
714 0 113.157 14.8289 1678 148.502 191.76 450.462
715 0 119.275 16.3236 1947 143.365 191.21 447.247
716 1 53.112 15.1755 806 150.507 191.027 477.236
717 0 57.1942 15.4037 881 147.677 191.784 477.812
718 0 57.272 16.2034 928 149.27 191.442 475.383
719 0 61.1826 15.6907 960 149.456 191.22 475.033
720 0 61.2238 15.5985 955 152.666 191.165 473.384
721 0 65.2038 16.3641 1067 148.881 191.504 473.067
723 0 68.1984 16.0561 1095 149.22 191.446 473.067
724 0 70.2327 15.89 1116 149.747 192.167 471.19
725 0 71.2095 15.4052 1097 153.752 191.376 470.381
726 0 74.146 15.4155 1143 154.027 190.911 468.299
727 0 78.1547 15.8404 1238 150.993 190.363 468.223
728 0 80.3669 15.2053 1222 150.559 190.867 467.737
729 1 38.184 11.5493 441 160.868 190.791 485.329
730 0 40.1314 12.9325 519 157.131 191.283 483.636
731 0 40.0805 14.6206 586 153.633 191.067 483.196
732 0 43.1019 14.7093 634 151.003 191.353 482.598
733 0 45.1716 14.1903 641 151.802 191.379 482.476
734 0 42.1237 13.8402 583 158.312 191.257 481.355
735 0 45.1727 13.9022 628 157.562 191.014 481.369
736 0 47.1078 14.8595 700 154.286 190.727 479.421
737 0 51.1545 14.8179 758 151.603 190.889 479.222
738 0 52.1521 15.2822 797 150.655 190.78 478.439
739 0 53.0679 15.075 800 152.554 190.548 478.181
740 0 54.1719 15.0816 817 153.153 190.121 477.718
741 0 53.1244 16.2261 862 152.136 190.413 476.507
742 0 57.1157 14.3743 821 158.164 190.531 474.33
743 0 57.0629 14.8257 846 156.7 190.368 474.663
744 0 61.1948 15.1974 930 153.547 190.79 473.959
745 0 61.0763 14.31 874 159.404 191.057 472.129
746 0 65.081 15.596 1015 153.427 190.497 470.748
747 0 66.1378 15.377 1017 155.687 190.588 470.12
748 0 69.174 15.6273 1081 152.414 190.699 469.969
749 0 70.0906 16.4501 1153 150.245 190.411 469.232
750 0 74.1094 15.693 1163 151.905 190.972 466.42
751 0 75.1184 15.8017 1187 151.925 190.826 465.362
752 0 79.1235 15.9498 1262 150.597 190.823 464.492
753 0 81.1531 15.9698 1296 150.694 191.11 462.617
754 0 88.1601 18.4097 1623 139.668 191.594 458.396
755 0 87.1421 16.9264 1475 147.713 191.049 459.483
756 0 90.1522 15.8066 1425 152.843 192.127 459.559
757 0 93.1626 15.4461 1439 154.23 191.382 457.512
758 0 98.2976 16.6738 1639 149.115 191.131 455.209
759 0 100.19 16.8979 1693 149.105 191.205 452.407
760 0 105.429 17.6801 1864 144.594 190.297 451.035
761 0 107.238 15.6754 1681 152.232 190.88 450.023
762 0 112.454 16.7446 1883 149.388 190.84 448.116
763 0 116.172 16.028 1862 150.305 190.855 444.878
764 0 122.44 16.114 1973 148.993 190.754 443.082
765 1 64.4529 12.7069 819 146.752 190.52 472.429
766 0 64.5048 12.6502 816 149.993 190.57 470.603
767 0 67.4032 13.575 915 149.097 190.449 469.127
768 0 69.3777 13.0301 904 150.351 190.844 469.405
769 0 70.3447 13.8888 977 150.29 190.746 465.898
770 0 72.4065 13.8385 1002 149.862 191.011 464.442
771 0 75.3394 13.9768 1053 149.011 191.006 464.046
772 0 77.257 13.6687 1056 150.47 191.379 462.2
773 0 81.2546 14.8545 1207 144.751 191.708 460.904
774 0 82.3912 13.4602 1109 149.669 191.449 460.022
775 0 84.385 14.2679 1204 148.179 190.436 457.047
776 0 88.4273 13.186 1166 149.781 190.422 456.713
777 0 91.246 14.2582 1301 146.627 191.163 454.871
778 0 94.2577 13.4631 1269 149.678 190.447 453.024
779 0 96.3679 12.9296 1246 152.209 190.4 450.73
780 0 101.629 13.2147 1343 149.508 190.371 447.31
781 0 104.325 13.8701 1447 147.357 190.287 446.882
782 0 108.395 13.0633 1416 149.441 190.002 444.896
783 0 109.293 12.3979 1355 154.274 190.437 440.097
784 0 114.224 11.8802 1357 152.912 190.37 441.905
785 0 119.397 12.4626 1488 151.644 190.815 437.723
786 0 123.442 12.994 1604 149.161 191.212 436.019
787 0 126.529 12.9378 1637 150.029 190.587 434.11
788 0 132.566 12.4014 1644 152.061 190.807 430.439
789 0 134.532 13.7811 1854 148.458 191.124 429.714
790 0 137.372 12.448 1710 154.289 191.004 423.751
791 0 143.58 13.3375 1915 150.752 190.96 425.012
792 0 147.335 12.9365 1906 153.82 189.927 419.44
793 1 34.1215 8.26457 282 110.379 191.45 487.631
794 0 36.0282 6.57819 237 111.776 191.759 490.612
795 0 32.0334 6.86783 220 114.086 191.341 488.805
796 0 36.0391 7.6306 275 110.175 190.593 487.913
797 0 38.0683 5.91044 225 110.804 190.924 489.48
798 0 40.105 7.25595 291 107.371 191.811 485.667
799 0 42.0599 8.98718 378 103.992 192.249 485.381
800 0 43.1284 8.30079 358 104.087 192.078 483.754
801 0 45.0888 7.38542 333 104.658 191.82 484.225
802 0 38.0098 8.02425 305 107.233 190.289 485.557
803 0 36.0278 4.88512 176 113.739 190.824 489.574
804 0 38.0228 4.4973 171 113.135 191.579 491.842
805 0 40.0844 6.33663 254 110.748 191.331 490.091
806 0 38.0139 5.55059 211 112.938 190.607 488.118
807 0 38.0126 6.76091 257 109.813 190.988 488.607
808 0 31.048 5.70085 177 114.91 190.915 490.288
809 0 26.0425 6.71979 175 113.44 191.28 492.966
810 0 33.058 6.89697 228 110.662 191.618 489.649
811 1 131.432 5.16617 679 131.423 191.518 436.837
812 0 139.988 6.41483 898 127.373 191.111 437.314
813 0 139.631 5.02753 702 132.823 190.185 432.983
814 0 144.687 7.61642 1102 124.361 190.91 441.772
815 0 149.588 8.42315 1260 127.463 190.758 427.733
816 0 157.8 6.88214 1086 128.285 191.346 425.423
817 0 163.872 7.24346 1187 127.19 190.927 423.399
818 1 65.3572 6.39562 418 114.531 190.426 473.897
819 0 67.1635 4.60071 309 119.243 190.883 475.939
820 0 72.1653 4.87769 352 120.08 191.19 476.511
821 0 74.2469 5.62986 418 118.902 191.12 471.691
822 0 77.4496 8.12141 629 123.07 191.073 466.984
823 1 290.854 10.8302 3150 167.004 190.283 345.194
824 0 296.651 11.0635 3282 169.401 189.949 335.648
825 0 301.651 10.9995 3318 170.103 190.726 338.345
826 0 309.396 12.1656 3764 166.693 189.888 338.433
827 0 317.75 11.7797 3743 169.957 189.924 330.635
828 0 317.016 6.89871 2187 179.309 190.557 344.162
829 0 317.282 7.08203 2247 179.9 190.781 341.482
830 0 318.579 7.04377 2244 169.62 190.464 369.772
831 0 317.288 5.38627 1709 178.369 190.221 366.644
832 0 307.764 7.85341 2417 170.501 189.949 344.352
833 0 313.102 10.0638 3151 164.72 190.677 343.875
834 0 318.551 10.7204 3415 166.764 189.932 333.68
835 1 156.979 10.7339 1685 129.639 191.188 427.955
836 0 155.043 10.8228 1678 128.595 191.474 428.16
837 0 160.094 12.0742 1933 126.191 191.402 423.075
838 0 160.888 12.0891 1945 128.551 191.38 424.008
839 0 161.473 6.36022 1027 128.575 192.851 449.959
840 0 163.819 7.29463 1195 127.239 192.35 446.164
841 1 146.781 10.6076 1557 124.43 191.407 436.142
842 0 153.544 11.202 1720 125.031 191.647 431.792
843 0 158.439 12.5222 1984 120.63 191.548 430.139
844 0 162.393 11.5338 1873 123.508 191.217 429.014
845 0 164.61 11.2022 1844 124 190.809 429.596
846 0 168.713 11.8426 1998 124.25 190.063 425.376
847 0 179.454 11.9808 2150 123.076 190.567 421.66
848 0 186.488 12.4673 2325 123.824 189.794 414.545
849 0 186.67 11.748 2193 125.415 189.627 419.109
850 0 194.509 12.128 2359 123.12 190.275 415.134
851 1 50.4139 10.6122 535 120.628 191.219 483.35
852 0 51.2388 11.9441 612 118.737 191.482 481.946
853 0 51.2229 11.9478 612 115.778 191.624 483.6
854 0 52.1405 11.5266 601 118.06 191.829 483.507
855 0 52.0859 11.865 618 118.383 191.822 483.629
856 0 54.3493 10.7085 582 123.064 192.393 482.024
857 0 56.1736 11.0194 619 121.139 191.826 481.016
858 0 58.228 12.3652 720 119.014 191.646 479.228
859 0 63.3475 10.3872 658 122.989 191.743 479.372
860 0 61.292 10.8171 663 125.303 191.271 479.044
861 0 61.3098 10.7976 662 125.634 191.42 478.008
862 0 65.3573 10.7869 705 126.031 191.451 478.484
863 0 68.3417 12.2619 838 121.376 191.415 476.636
864 0 67.4141 12.1488 819 124.825 191.484 476.275
865 0 66.4062 11.8513 787 126.693 191.368 475.517
866 0 71.2593 12.5598 895 123.025 191.028 474.505
867 0 74.2269 10.3467 768 128.887 191.434 475.271
868 0 76.2632 12.9682 989 122.183 191.04 471.885
869 0 76.1792 11.2498 857 128.354 191.615 471.713
870 0 79.2265 12.3317 977 124.778 191.271 470.906
871 0 83.2301 12.135 1010 125.752 191.598 468.765
872 0 85.3448 12.6194 1077 125.408 191.262 467.959
873 0 88.4231 12.8134 1133 124.512 191.487 466.898
874 0 90.4536 12.2494 1108 126.976 191.808 465.495
875 0 92.3613 12.6027 1164 126.238 191.609 462.243
876 0 96.2055 12.3486 1188 125.984 191.285 463.534
877 0 100.409 13.0567 1311 122.361 191.375 460.969
878 0 101.273 12.491 1265 124.343 191.706 460.327
879 1 55.0933 11.2536 620 128.96 191.579 481.987
880 0 55.0511 11.6801 643 122.219 192.126 481.207
881 0 56.0528 12.8272 719 118.887 191.591 479.476
882 0 58.0609 13.4686 782 117.735 191.13 478.583
883 0 62.0746 13.5804 843 114.472 191.278 477.023
884 0 62.0958 13.0122 808 116.344 191.36 475.866
885 0 64.0589 12.4729 799 116.554 191.314 473.178
886 0 66.05 12.0817 798 116.053 190.491 474.792
887 0 68.1054 12.5981 858 114.218 190.498 473.483
888 0 70.0842 13.1556 922 112.248 190.903 471.465
889 0 73.2471 13.3657 979 111.289 190.13 471.696
890 0 73.1663 12.8064 937 113.506 190.552 470.422
891 0 76.214 12.3337 940 113.936 191.462 468.26
892 0 78.1981 12.6474 989 113.588 191.688 466.252
893 0 81.1148 12.7227 1032 113.298 191.424 465.406
894 0 84.136 12.9433 1089 112.487 191.259 465.446
895 0 84.2715 12.97 1093 114.904 191.069 463.507
896 0 87.1695 12.5388 1093 117.08 191.049 462.902
897 0 90.1436 13.5229 1219 114.879 191.042 460.806
898 0 92.1542 13.3038 1226 115.601 191.341 458.811
899 0 97.1985 13.0763 1271 116.042 190.905 457.159
900 0 99.1654 13.0287 1292 116.392 190.686 455.827
901 1 52.1709 10.5806 552 122.781 191.382 481.359
902 0 54.1622 12.2225 662 127.023 191.573 478.222
903 0 56.2315 14.2091 799 115.81 191.76 477.373
904 0 56.2011 12.6688 712 122.306 191.639 476.779
905 0 61.1797 13.9425 853 116.823 191.533 476.138
906 0 61.1775 12.9132 790 120.438 191.544 475.661
907 0 62.1278 12.8445 798 120.841 191.229 474.553
908 0 66.1392 13.7135 907 116.983 191.171 474.535
909 0 67.2263 13.6554 918 118.169 190.784 472.633
910 0 69.1803 13.1829 912 120.444 191.435 471.091
911 0 71.1477 12.9871 924 121.972 191.077 468.856
912 0 76.1516 13.263 1010 120.079 191.599 468.728
913 0 75.1631 13.9297 1047 120.003 191.019 466.906
914 0 80.1533 13.1373 1053 122.083 191.498 467.099
915 0 82.2971 12.4549 1025 125.5 191.912 464.055
916 0 83.235 14.0085 1166 122.19 191.444 463.083
917 0 87.16 13.1941 1150 123.463 190.967 462.365
918 0 89.1798 12.7383 1136 124.8 190.06 461.173
919 0 94.1921 12.9629 1221 123.832 190.544 459.549
920 0 96.267 13.556 1305 123.68 190.01 456.238
921 0 98.206 13.5939 1335 123.355 190.348 455.181
922 0 104.168 13.1807 1373 124.253 190.109 453.012
923 0 106.241 13.0175 1383 124.57 190.089 453.848
924 0 108.24 13.8212 1496 123.107 189.346 452.699
925 0 112.364 13.6699 1536 123.799 189.921 450.378
926 0 115.285 13.9047 1603 124.635 188.706 447.73
927 1 63.104 11.9485 754 121.757 188.919 474.68
928 0 64.1321 11.4763 736 124.442 189.962 474.084
929 0 67.1832 12.5329 842 123.848 191.024 471.564
930 0 71.0867 12.7309 905 121.122 191.704 470.228
931 0 74.2109 13.0574 969 118.333 191.444 470.413
932 0 76.1694 13.5225 1030 117.817 191.445 468.887
933 0 76.1507 12.8298 977 121.147 191.299 466.668
934 0 83.2876 13.8916 1157 114.461 191.612 468.99
935 0 84.183 13.6251 1147 117.196 191.952 465.153
936 0 87.262 13.7173 1197 117.416 191.624 462.191
937 0 90.2163 12.4922 1127 120.398 191.575 462.76
938 0 92.294 12.1568 1122 121.094 191.173 461.024
939 0 97.134 13.3218 1294 117.451 191.382 459.964
940 0 100.26 12.5374 1257 120.188 191.309 456.159
941 1 53.0901 10.096 536 123.608 191.771 479.468
942 0 55.0444 12.4627 686 115.583 191.028 478.214
943 0 57.1034 11.7506 671 113.607 192.079 476.592
944 0 59.1452 12.5116 740 111.232 192.223 473.026
945 0 63.0678 12.9543 817 109.887 188.895 474.299
946 0 64.1156 12.3683 793 111.112 189.382 472.985
947 0 65.0491 12.1447 790 111.949 189.773 470.771
948 0 67.1048 12.2495 822 111.658 189.659 470.651
949 0 70.1042 11.4258 801 112.617 189.25 467.876
950 0 74.0997 14.494 1074 105.372 190.066 466.254
951 0 75.0733 12.7209 955 111.206 189.898 466.531
952 0 79.0825 13.5175 1069 108.971 189.983 465.346
953 0 81.1259 13.6085 1104 109.725 189.755 464.213
954 0 81.097 11.6281 943 117.015 190.057 464.516
955 0 85.0705 13.5182 1150 112.235 189.759 462.857
956 0 87.1446 13.3571 1164 113.84 190.123 459.298
957 0 91.2917 12.5751 1148 115.688 190.524 458.997
958 0 95.1915 13.1419 1251 113.819 190.704 458.931
959 0 96.1676 12.1663 1170 118.727 190.607 456.829
960 0 100.094 13.897 1391 113.618 190.3 455.063
961 0 103.117 12.9755 1338 116.569 190.953 453.087
962 1 53.0475 12.0647 640 116.906 190.689 477.783
963 0 54.025 11.7908 637 116.699 189.7 476.111
964 0 57.0417 12.3594 705 112.752 190.59 477.309
965 0 58.0494 13.1612 764 110.215 190.031 475.401
966 0 58.1001 12.4957 726 112.264 190.047 475.382
967 0 61.1332 11.9248 729 113.103 190.473 474.797
968 0 64.117 13.2882 852 108.5 189.691 472.504
969 0 65.0877 12.5523 817 110.557 189.094 473.387
970 0 67.1034 13.1141 880 109.305 189.691 470.38
971 0 70.0736 14.1565 992 107.596 190.872 470.468
972 0 73.0803 14.1351 1033 107.293 191.4 469.468
973 0 74.0988 13.1581 975 111.024 191.356 468.11
974 0 78.1399 13.655 1067 109.253 191.649 465.813
975 0 78.1694 12.6008 985 112.757 191.594 466.224
976 0 82.1371 12.6252 1037 111.949 191.768 464.889
977 0 88.2061 14.6248 1290 105.744 192.055 463.667
978 0 88.1401 14.1025 1243 109.696 191.611 460.407
979 0 91.261 13.2148 1206 111.856 191.538 460.509
980 0 94.18 13.2937 1252 112.183 190.898 460.469
981 0 97.1823 14.0766 1368 114.474 191.458 457.343
982 1 52.06 11.8517 617 118.665 192.553 479.493
983 0 53.0676 12.7385 676 120.964 189.451 478.454
984 0 56.0653 14.4653 811 115.805 189.413 477.194
985 0 55.0262 12.9756 714 121.017 188.699 477.756
986 0 59.081 12.4575 736 121.743 189.943 477.743
987 0 60.0669 13.8512 832 120.508 190.041 475.19
988 0 61.0681 13.4604 822 121.77 190.116 475.864
989 0 63.1368 13.1777 832 124.214 190.252 473.284
990 0 65.0213 12.9035 839 125.119 189.93 472.553
991 0 66.0378 12.8411 848 126.399 189.376 472.182
992 0 66.0368 12.1599 803 130.919 189.75 469.978
993 0 70.0784 13.4136 940 128.155 189.835 467.953
994 0 74.0733 13.5001 1000 127.279 189.587 468.821
995 0 74.0503 14.112 1045 126.826 189.96 468.05
996 0 78.0385 13.4421 1049 127.881 190.287 467.035
997 0 81.0505 13.9913 1134 128.443 190.166 464.266
998 0 82.0405 13.9078 1141 131.15 190.095 464.456
999 0 85.1166 14.3215 1219 130.094 190.302 463.535
1000 0 87.0661 13.6678 1190 132.792 190.785 462.41
1001 0 91.1136 14.7508 1344 126.281 190.75 461.051
1002 0 93.1558 14.728 1372 124.601 191.632 459.876
1003 0 96.1362 14.6875 1412 124.604 190.533 456.928
1004 0 101.154 14.0379 1420 125.176 190.656 457.456
1005 0 101.043 14.0337 1418 126.824 190.602 455.222
1006 0 105.064 14.8291 1558 125.272 190.449 453.254
1007 0 107.065 13.9728 1496 128.928 190.128 452.944
1008 1 58.0624 12.2971 714 131.539 190.314 477.438
1009 0 58.1879 12.8377 747 123.523 192.466 476.929
1010 0 62.1396 14.1456 879 118.59 191.954 476.089
1011 0 64.0717 13.7658 882 120.348 192.189 474.863
1012 0 66.0796 13.3173 880 121.188 192.008 473.256
1013 0 68.0651 13.5752 924 121.597 192.158 471.518
1014 0 71.0783 14.0127 996 119.779 192.122 471.362
1015 0 72.0574 14.0305 1011 120.625 192.514 470.204
1016 0 75.0519 13.6039 1021 122.089 192.437 469.946
1017 0 78.0794 14.2931 1116 120.581 192.791 468.003
1018 0 81.1741 14.4381 1172 121.483 192.236 466.29
1019 0 82.0788 13.7916 1132 124.566 192.496 464.574
1020 0 86.234 14.3331 1236 122.653 193.103 463.571
1021 0 87.0924 13.8129 1203 125.835 192.691 460.653
1022 0 91.1873 14.1138 1287 124.378 192.712 461.191
1023 0 93.1057 13.9841 1302 125.582 192.866 457.36
1024 0 97.1586 13.6684 1328 125.116 192.657 459.474
1025 0 100.141 13.6608 1368 125.294 192.519 456.512
1026 1 55.2666 11.9602 661 128.076 191.787 476.567
1027 0 56.2513 12.5686 707 125.873 191.322 475.378
1028 0 58.2592 12.4959 728 125.548 191.016 474.272
1029 0 59.1211 12.9057 763 116.553 189.321 472.495
1030 0 61.1038 13.1743 805 116.152 189.231 471.698
1031 0 62.1093 12.3653 768 116.891 192.135 474.366
1032 0 65.0724 13.2314 861 115.336 192.357 472.131
1033 0 64.0774 11.7202 751 120.463 192.443 473.213
1034 0 67.0854 11.9698 803 119.318 192.465 472.619
1035 0 68.1167 11.3775 775 123.075 192.175 470.649
1036 0 71.053 12.5681 893 121.355 192.505 470.135
1037 0 73.1004 12.5717 919 120.322 192.961 470.847
1038 0 75.2226 12.576 946 122.313 192.717 468.521
1039 0 77.1985 11.8655 916 124.712 192.57 468.073
1040 0 80.1761 13.2708 1064 123.792 192.464 466.093
1041 0 85.1906 13.8161 1177 121.935 192.64 464.135
1042 0 85.1746 12.9146 1100 124.795 192.601 464.762
1043 0 90.1274 13.0926 1180 124.836 192.896 462.926
1044 0 92.1169 13.5263 1246 126.348 192.539 459.685
1045 0 95.2999 13.1375 1252 127.813 192.901 459.223
1046 0 98.1451 12.2981 1207 129.731 192.328 460.377
1047 0 101.275 13.0043 1317 130.269 192.252 455.448
1048 1 56.1206 10.9229 613 133.326 191.811 477.173
1049 0 56.2133 12.3103 692 127.594 190.423 473.004
1050 0 60.116 13.0414 784 127.11 192.301 476.323
1051 0 58.0461 11.8526 688 120.964 189.638 478.172
1052 0 60.1091 12.9598 779 117.747 190.051 475.257
1053 0 63.0971 11.7913 744 119.168 190.044 475.608
1054 0 65.1037 12.9793 845 117.232 190.2 472.204
1055 0 68.0677 12.6345 860 116.444 190.2 472.641
1056 0 70.1406 12.1185 850 116.993 190.216 472.08
1057 0 72.1275 11.9511 862 116.487 190.021 471.085
1058 0 74.1249 11.6155 861 118.323 189.974 468.088
1059 0 77.1264 13.1213 1012 115.131 190.314 466.025
1060 0 78.1116 12.1237 947 117.542 190.129 464.013
1061 0 81.1626 12.3333 1001 115.044 189.527 465.933
1062 0 84.1523 11.4911 967 116.868 189.559 463.129
1063 0 88.1457 12.6382 1114 115.08 189.823 460.921
1064 0 91.1808 11.7898 1075 116.721 189.863 458.951
1065 1 47.1145 12.0982 570 113.835 189.335 479.046
1066 0 50.0382 12.3506 618 111.762 189.272 479.141
1067 0 52.0905 12.0751 629 113.358 189.928 478.208
1068 0 49.093 11.4477 562 116.744 190.084 479.217
1069 0 52.0674 11.9268 621 115.684 189.831 479.023
1070 0 54.0496 11.6745 631 113.788 189.702 479.758
1071 0 57.0751 12.4923 713 113.562 189.921 476.753
1072 0 59.1028 12.3006 727 113.897 189.814 476.186
1073 0 61.101 12.2257 747 114.181 189.341 475.529
1074 0 60.0819 12.3332 741 116.321 189.426 475.316
1075 0 64.0915 12.8566 824 114.067 189.484 472.312
1076 0 66.1319 12.6263 835 115.213 189.787 472.857
1077 0 67.076 12.6871 851 116.734 189.422 469.509
1078 0 70.1707 12.0421 845 117.825 189.909 467.251
1079 0 71.1007 12.9535 921 116.079 189.872 470.615
1080 0 75.21 12.8573 967 116.175 190.355 468.316
1081 0 75.1077 12.4355 934 117.582 190.304 467.913
1082 0 79.1126 13.7146 1085 114.547 190.842 465.669
1083 0 81.2197 12.5093 1016 115.884 190.287 467.214
1084 0 85.1265 12.9454 1102 115.914 189.723 462.839
1085 0 87.2911 14.0106 1223 112.8 190.622 461.745
1086 0 91.2102 14.0774 1284 112.195 190.576 459.222
1087 0 93.1561 12.8601 1198 115.034 190.567 458.734
1088 0 98.1365 14.276 1401 110.735 190.101 457.877
1089 1 51.0357 10.0126 511 115.732 190.485 481.822
1090 0 53.1359 12.2516 651 113.253 191.037 479.438
1091 0 54.1961 12.4548 675 113.222 190.262 477.375
1092 0 57.0921 13.1892 753 110.077 189.884 477.679
1093 0 56.1879 12.2624 689 114.457 189.046 475.228
1094 0 61.0592 13.0202 795 111.444 189.631 472.465
1095 0 62.0884 12.5627 780 112.978 188.828 472.246
1096 0 65.0675 13.8779 903 107.938 188.91 472.08
1097 0 68.1692 12.777 871 110.218 189.364 471.69
1098 0 71.1117 14.0905 1002 106.522 189.779 469.525
1099 0 73.1243 13.2377 968 108.82 189.517 469.095
1100 0 75.1599 13.4779 1013 108.214 190.175 465.866
1101 0 76.1788 13.3633 1018 110.056 190.092 465.798
1102 0 81.336 12.8357 1044 110.479 190.117 466.076
1103 0 83.188 13.3914 1114 108.724 189.94 463.566
1104 1 44.1645 12.8384 567 110.113 190.025 483.654
1105 0 45.0835 12.0665 544 110.921 189.798 484.145
1106 0 46.0814 11.2627 519 114.64 189.162 482.844
1107 0 49.0362 12.4398 610 112.043 189.556 480.079
1108 0 50.0447 12.4688 624 112.319 189.423 479.681
1109 0 50.0586 11.966 599 113.935 189.681 480.174
1110 0 53.021 14.5791 773 107.856 188.862 478.171
1111 0 54.0167 12.7923 691 112.631 188.929 478.658
1112 0 55.0645 11.7135 645 115.842 189.45 476.891
1113 0 58.1057 13.6992 796 110.709 190.186 475.627
1114 0 57.0775 11.5457 659 117.627 189.619 476.766
1115 0 62.0881 12.5628 780 114.362 189.932 475.077
1116 0 61.0599 12.8562 785 114.875 189.546 474.475
1117 0 65.0917 12.9971 846 114.019 189.781 472.907
1118 0 67.1009 14.0386 942 112.631 190.236 472.029
1119 0 68.1325 13.2829 905 115.682 190.409 471.388
1120 0 72.1958 14.1559 1022 114.321 190.295 468.851
1121 0 74.1897 13.8159 1025 115.817 190.623 467.783
1122 0 76.1374 13.9616 1063 116.852 190.484 466.666
1123 0 78.1418 13.8978 1086 117.967 190.72 466.893
1124 0 79.3633 12.8775 1022 122.09 190.489 463.876
1125 0 84.3106 13.8773 1170 119.088 191.432 462.644
1126 1 41.0863 10.7578 442 115.52 192.586 484.541
1127 0 42.0429 12.3208 518 112.764 192.05 483.104
1128 0 44.0209 11.1311 490 116.065 192.243 483.229
1129 0 45.0826 11.5566 521 116.457 192.278 481.747
1130 0 47.1602 11.8532 559 117.902 191.962 480.41
1131 0 48.0973 12.2044 587 113.913 192.06 481.317
1132 0 51.1819 13.7158 702 110.286 191.751 480.114
1133 0 52.0453 13.0655 680 113.543 191.66 479.597
1134 0 51.0617 12.4555 636 117.113 191.085 478.58
1135 0 52.2615 11.4807 600 119.09 191.008 479.41
1136 0 55.1759 12.723 702 115.782 191.303 477.504
1137 0 57.1672 12.3847 708 116.605 192.034 476.655
1138 0 58.166 12.1205 705 117.806 191.895 477.495
1139 0 60.1994 11.9436 719 119.54 191.035 475.12
1140 0 62.1164 12.6054 783 118.535 191.59 475.563
1141 0 64.123 13.0219 835 117.945 191.475 473.656
1142 0 69.072 13.1747 910 115.902 191.619 473.243
1143 0 70.0846 13.4266 941 116.748 191.425 470.191
1144 0 72.021 12.6769 913 119.702 191.851 469.148
1145 0 76.1324 12.8329 977 118.694 191.47 468.77
1146 0 77.1476 13.9603 1077 118.384 190.997 464.878
1147 0 80.0932 12.9724 1039 120.542 191.038 464.298
1148 0 81.1098 13.0194 1056 121.105 190.782 464.082
1149 0 84.0893 13.2835 1117 120.704 190.367 462.545
1150 1 44.0941 12.1105 534 125.551 190.307 480.521
1151 0 47.0818 13.4447 633 118.51 190.15 480.191
1152 0 46.0836 14.5171 669 118.985 190.504 480.265
1153 0 50.1287 14.2034 712 118.101 189.961 478.596
1154 0 49.0182 13.7296 673 121.132 190.239 477.719
1155 0 52.0165 14.457 752 118.129 190.201 477.081
1156 0 53.0354 14.3489 761 118.608 190.807 477.965
1157 0 54.0583 14.2624 771 121.067 190.476 476.392
1158 0 57.1009 14.0103 800 118.608 190.983 476.832
1159 0 59.0431 15.0229 887 115.813 191.036 475.617
1160 0 59.1828 14.8861 881 119.431 190.881 472.2
1161 0 62.0975 15.2502 947 118.307 190.903 472.345
1162 0 63.1259 14.6532 925 122.924 190.529 470.517
1163 0 67.1733 14.0234 942 122.199 190.901 472.108
1164 0 70.0886 14.4103 1010 120.942 190.886 469.853
1165 0 71.0855 14.2082 1010 121.971 191.159 468.032
1166 0 75.0736 14.4924 1088 120.163 190.791 468.097
1167 0 75.0909 14.3293 1076 122.25 191.295 468.027
1168 0 79.1706 14.7024 1164 120.138 191.082 464.509
1169 0 80.2129 14.7857 1186 122.433 190.14 464.832
1170 0 82.2519 13.1547 1082 126.19 190.686 466.061
1171 0 87.2136 14.1492 1234 119.225 191.006 460.356
1172 0 87.1805 13.0763 1140 126.489 191.311 461.606
1173 1 44.0295 12.1964 537 129.361 191.192 483.508
1174 0 48.0843 13.0188 626 121.38 189.22 477.139
1175 0 46.0381 12.9675 597 125.826 189.178 481.318
1176 0 45.0633 12.6933 572 124.871 189.25 481.337
1177 0 49.0732 13.8976 682 119.481 189.254 479.333
1178 0 48.0644 12.837 617 122.468 189.277 478.78
1179 0 53.1582 13.488 717 118.989 189.269 476.593
1180 0 52.0586 13.1583 685 121.095 189.018 476.835
1181 0 55.0701 13.0561 719 121.465 189.803 474.506
1182 0 57.0474 14.2864 815 117.253 189.512 473.498
1183 0 58.0459 12.6968 737 122.89 188.982 473.745
1184 0 59.1232 12.956 766 123.628 188.93 470.418
1185 0 63.0685 13.1603 830 122.349 189.525 471.461
1186 0 66.1258 13.066 864 121.943 189.541 472.134
1187 0 66.0845 13.4525 889 124.385 189.893 469.421
1188 0 70.1327 13.6313 956 124.023 189.54 468.198
1189 0 71.1678 12.8991 918 126.027 190.878 467.642
1190 0 74.3294 13.3594 993 125.719 190.457 466.409
1191 0 75.1951 13.711 1031 127.407 190.002 465.25
1192 0 77.1977 13.3683 1032 130.564 190.071 462.454
1193 0 81.3494 13.8907 1130 129.904 190.341 463.092
1194 0 84.3496 14.1672 1195 129.265 190.298 457.915
1195 0 87.4011 13.7756 1204 131.072 190.557 456.32
1196 0 92.4463 13.6187 1259 131.627 189.658 457.447
1197 0 95.3853 13.8386 1320 129.699 190.582 456.28
1198 0 96.1837 14.5763 1402 130.735 190.198 454.577
1199 0 100.142 14.8389 1486 128.585 190.293 453.482
1200 0 103.105 14.2574 1470 132.078 189.883 451.063
1201 0 103.16 13.639 1407 135.166 189.882 451.745
1202 1 55.0676 13.0385 718 133.673 189.556 475.454
1203 0 56.0824 12.7313 714 135.856 189.34 476.661
1204 0 60.0284 13.5936 816 132.761 189.71 474.194
1205 0 61.0755 13.7862 842 133.226 189.605 473.422
1206 0 62.085 13.5298 840 135.52 189.187 472.686
1207 0 66.1149 13.6883 905 134.796 189.967 472.315
1208 0 68.0531 13.5336 921 136.466 189.602 471.123
1209 0 69.1046 14.109 975 135.525 189.402 469.179
1210 0 73.1535 13.8749 1015 136.002 188.915 466.841
1211 0 77.0926 14.6188 1127 133.177 188.802 467.768
1212 0 77.1143 14.1478 1091 136.861 189.494 465.748
1213 0 81.0987 14.0939 1143 135.371 188.989 463.967
1214 0 83.0631 13.9171 1156 135.535 188.852 462.515
1215 0 88.0323 13.5291 1191 134.296 188.359 453.788
1216 0 88.0586 13.1844 1161 133.286 188.798 453.443
1217 1 48.0373 9.3469 449 131.804 189.321 475.746
1218 0 50.0854 10.8615 544 127.649 189.605 476.89
1219 0 50.1478 11.3863 571 132.494 189.543 476.117
1220 0 52.1056 13.3575 696 124.711 190.464 474.126
1221 0 54.1424 12.7811 692 125.847 190.806 473.782
1222 0 56.1204 12.6692 711 127.035 190.857 473.367
1223 0 56.1163 11.9573 671 130.049 190.532 472.252
1224 0 58.1656 9.86837 574 127.49 190.294 471.124
1225 0 59.1352 10.6874 632 125.264 190.405 470.578
1226 0 63.2494 12.427 786 122.406 190.088 467.28
1227 0 64.2199 11.5852 744 123.734 190.081 467.773
1228 0 68.1558 11.4297 779 124.522 190.298 466.994
1229 0 71.0766 11.7479 835 123.963 190.223 467.101
1230 0 75.1545 10.8975 819 124.845 189 465.626
1231 0 78.1216 11.8277 924 122.882 189.792 464.108
1232 0 81.2331 11.9286 969 123.2 189.921 462.902
1233 0 82.2546 12.4735 1026 124.518 189.715 462.333
1234 0 85.2024 12.171 1037 125.747 190.131 461.296
1235 0 86.278 12.0193 1037 127.635 190.802 460.113
1236 0 92.2189 13.3921 1235 124.043 189.938 458.922
1237 0 94.0947 13.2101 1243 126.251 189.74 457.019
1238 1 48.1095 9.83174 473 123.359 190.336 480.461
1239 0 49.1891 11.3846 560 121.507 190.471 477.441
1240 0 51.1844 12.9532 663 119.398 190.166 480.502
1241 0 51.1815 12.9539 663 120.186 190.284 479.036
1242 0 54.224 11.8767 644 121.047 190.394 476.211
1243 0 56.162 12.9981 730 119.305 190.119 475.952
1244 0 57.1781 12.0151 687 121.066 189.731 474.269
1245 0 60.2035 11.594 698 128.479 189.867 475.331
1246 0 63.2216 11.0722 700 124.97 190.203 472.186
1247 0 63.1831 10.8573 686 126.414 189.876 472.296
1248 0 66.177 12.9803 859 121.555 189.838 470.858
1249 0 68.1978 11.6866 797 125.577 189.482 468.524
1250 0 70.1628 12.1147 850 125.366 189.536 468.867
1251 0 71.2107 11.0938 790 127.787 188.98 468.313
1252 0 74.2358 13.1742 978 123.339 189.12 466.833
1253 0 75.1735 12.664 952 125.402 189.727 466.264
1254 0 77.2026 12.2017 942 127.69 190.054 464.592
1255 0 80.1381 12.7031 1018 127.545 189.857 464.868
1256 0 82.2613 13.8826 1142 127.296 189.015 464.143
1257 0 84.2059 11.8044 994 131.329 190.092 460.311
1258 0 86.1831 12.8099 1104 130.362 190.138 460.882
1259 0 88.1332 12.0613 1063 134.032 189.931 459.368
1260 0 90.158 12.2008 1100 134.239 189.725 458.94
1261 0 96.2318 12.9167 1243 131.205 189.216 459.836
1262 0 98.3044 14.211 1397 129.671 189.114 455.673
1263 0 99.2879 12.6098 1252 135.14 189.482 455.417
1264 0 104.143 13.0493 1359 133.33 189.623 454.962
1265 0 106.179 13.0345 1384 134.79 189.454 454.426
1266 0 111.269 14.4425 1607 131.195 189.854 451.443
1267 0 113.347 14.5659 1651 132.41 189.985 447.535
1268 0 118.223 13.3814 1582 135.795 189.858 447.696
1269 0 120.145 13.4587 1617 136.977 189.097 444.437
1270 0 124.327 12.5798 1564 139.6 188.981 444.33
1271 0 129.207 13.9311 1800 136.317 188.824 439.587
1272 0 134.273 15.6324 2099 131.472 189.525 439.178
1273 0 138.276 12.9234 1787 140.7 189.522 437.9
1274 0 144.3 14.3798 2075 137.093 189.45 433.508
1275 1 78.1282 11.4555 895 132.77 189.934 467.451
1276 0 80.1082 11.9339 956 133.094 189.452 464.165
1277 0 82.1139 13.2134 1085 128.588 189.256 463.188
1278 0 83.1355 11.4271 950 133.857 189.228 463.674
1279 0 88.0883 13.2027 1163 129.856 189.409 460.096
1280 0 91.1206 12.0939 1102 133.745 189.064 460.067
1281 0 94.25 12.2546 1155 133.562 189.416 456.845
1282 0 97.1965 11.914 1158 135.378 190.117 456.32
1283 0 104.41 13.1788 1376 129.691 190.569 451.081
1284 1 57.1415 11.9003 680 133.578 190.596 475.55
1285 0 57.2287 13.2975 761 132.685 190.754 473.62
1286 0 59.2468 13.9923 829 132.603 190.567 472.312
1287 0 59.1119 11.5882 685 132.523 190.013 473.625
1288 0 63.0499 12.0857 762 130.126 190.378 471.445
1289 0 65.0563 12.5276 815 129.318 189.756 471.297
1290 0 68.072 12.3986 844 127.552 190.288 470.412
1291 0 70.0711 12.63 885 127.435 190.294 468.54
1292 0 72.2233 12.0875 873 127.704 189.967 465.33
1293 0 75.1948 12.9796 976 125.424 190.221 463.536
1294 0 77.166 11.5725 893 129.223 190.277 460.26
1295 0 81.2227 12.5334 1018 126.018 190.063 459.577
1296 0 85.1657 12.1763 1037 125.682 189.788 460.683
1297 0 86.2006 11.3456 978 129.111 189.05 456.103
1298 0 90.1804 12.3419 1113 125.275 189.075 456.473
1299 1 45.2042 10.2867 465 124.856 189.946 477.353
1300 0 47.077 11.5343 543 133.586 188.304 478.263
1301 0 48.0858 11.4379 550 122.804 189.753 476.002
1302 0 50.0881 11.919 597 121.213 189.221 477.072
1303 0 51.161 12.2163 625 121.371 188.754 475.926
1304 0 53.0941 11.602 616 123.131 189.221 472.86
1305 0 56.0653 13.0205 730 118.807 188.727 472.634
1306 0 57.0847 11.9472 682 121.526 189.23 472.396
1307 0 57.1409 11.9704 684 122.013 189.307 474.316
1308 0 61.1179 12.2714 750 121.289 189.267 471.975
1309 0 62.0371 10.5421 654 126.602 188.806 471.014
1310 0 66.0822 12.2272 808 121.998 189.114 469.802
1311 0 68.0455 10.8457 738 125.599 188.928 471.252
1312 0 68.2489 11.1064 758 126.31 189.325 469.015
1313 0 71.2214 13.3808 953 120.877 189.192 468.63
1314 0 75.1606 13.0121 978 123.093 188.842 465.52
1315 0 79.1802 12.9199 1023 122.841 189.068 466.725
1316 0 78.1438 12.5794 983 126.159 188.988 464.351
1317 0 82.1459 12.3682 1016 127.557 188.77 461.554
1318 0 84.0776 12.3814 1041 129.457 188.581 459.478
1319 1 44.0836 10.9111 481 124.328 188.565 480.033
1320 0 47.0502 11.6684 549 122.75 188.796 479.472
1321 0 49.0523 12.3338 605 121.18 188.339 479.385
1322 0 48.0447 11.635 559 123.68 189.1 479.524
1323 0 51.0482 11.7928 602 125.238 189.41 476.638
1324 0 51.0665 11.1423 569 127.859 188.988 475.868
1325 0 55.083 13.8518 763 119.581 188.278 475.491
1326 0 53.1585 11.6256 618 128.099 188.858 476.354
1327 0 57.146 13.0718 747 123.046 188.803 475.096
1328 0 58.1527 12.5016 727 123.029 189.356 476.916
1329 0 60.0195 12.3293 740 125.641 189.714 472.285
1330 0 63.2189 13.3346 843 121.924 189.458 472.1
1331 0 63.2796 12.5475 794 125.359 189.034 471.147
1332 0 66.088 10.9854 726 130.029 189.117 471.018
1333 0 68.1375 12.1225 826 126.03 188.835 471.902
1334 0 72.07 13.5701 978 121.799 188.787 468.605
1335 0 73.1296 13.2915 972 125.1 188.128 467.894
1336 0 75.1315 13.869 1042 124.825 188.47 465.394
1337 0 77.0961 13.3989 1033 124.565 189.182 461.131
1338 0 82.0833 14.3756 1180 120.657 188.851 458.75
1339 0 85.1207 13.7687 1172 122.327 188.299 458.19
1340 0 89.1167 14.7672 1316 119.997 189.106 457.011
1341 1 46.0368 11.6429 536 125.226 189.427 477.459
1342 0 48.071 12.856 618 124.461 189.078 476.021
1343 0 50.0233 12.4342 622 122.603 188.725 477.288
1344 0 54.0701 12.6687 685 120.982 189.241 477.413
1345 0 53.092 12.2617 651 124.608 189.301 476.121
1346 0 55.115 13.5353 746 121.133 189.268 475.745
1347 0 55.0786 12.5457 691 125.056 189.284 474.36
1348 0 57.077 13.5782 775 122.96 189.036 473.894
1349 0 60.1121 12.2105 734 126.813 189.838 473.065
1350 0 63.089 12.0623 761 126.338 190.135 472.087
1351 0 66.0918 13.7082 906 120.442 190.475 471.64
1352 0 69.0815 13.8532 957 120.937 190.202 470.427
1353 0 71.1506 13.5768 966 122.421 189.41 466.06
1354 0 74.0487 12.5053 926 125.822 189.651 466.307
1355 0 76.0823 13.2357 1007 124.008 189.28 465.454
1356 0 78.0999 13.8285 1080 123.2 189.044 462.508
1357 1 45.0073 12.2869 553 124.725 188.754 481.145
1358 0 45.0941 12.0637 544 123.316 189.02 480.375
1359 0 47.051 13.3685 629 121.824 189.854 480.607
1360 0 47.0741 12.9371 609 134.828 189.831 480.253
1361 0 50.0533 13.8253 692 129.306 190.145 479.555
1362 0 50.0585 12.1258 607 134.862 190.308 479.562
1363 0 51.0739 13.0399 666 131.227 189.941 476.299
1364 0 52.0589 12.4474 648 133.603 189.454 476.066
1365 0 56.0827 13.0521 732 129.384 189.842 475.318
1366 0 55.1699 12.2893 678 132.73 190.388 474.643
1367 0 58.0519 13.643 792 124.86 190.346 473.448
1368 0 59.1007 12.6564 748 128.309 190.413 474.14
1369 0 61.0979 12.4718 762 128.862 190.131 472.05
1370 0 63.0504 12.6248 796 130.01 190.685 471.695
1371 0 67.0925 12.7585 856 129.516 190.539 470.937
1372 0 68.0943 11.9246 812 132.34 190.108 469.639
1373 0 72.0393 13.923 1003 125.985 190.347 468.642
1374 0 74.163 12.877 955 129.366 189.898 466.928
1375 0 79.0972 14.6781 1161 123.808 189.385 466.604
1376 0 79.1649 12.6824 1004 131.935 188.798 463.098
1377 1 41.0252 12.0657 495 124.986 189.826 483.01
1378 0 43.102 12.25 528 123.318 188.36 480.453
1379 0 45.1198 12.0125 542 131.33 188.033 480.712
1380 0 46.132 13.7649 635 127.923 187.981 480.436
1381 0 47.0978 13.7162 646 130.05 187.946 477.615
1382 0 49.2037 14.5721 717 126.276 188.039 479.144
1383 0 50.0583 13.724 687 130.655 188.24 478.234
1384 0 52.0377 13.3173 693 131.211 188.009 476.431
1385 0 52.104 13.1276 684 133.333 187.994 476.091
1386 0 55.1079 13.646 752 130.386 188.222 476.747
1387 0 57.1294 14.651 837 127.94 187.719 475.4
1388 0 60.1308 14.2689 858 127.889 188.709 474.731
1389 0 61.0979 14.2558 871 129.721 189.008 472.535
1390 0 64.1012 13.9779 896 131.278 188.962 471.531
1391 0 66.0627 14.1684 936 130.973 188.263 470.75
1392 0 68.0921 14.2748 972 130.399 188.25 470.359
1393 0 71.2268 14.6995 1047 129.265 188.058 467.885
1394 0 73.1532 13.7656 1007 132.025 188.356 467.142
1395 0 76.1226 15.4225 1174 126.445 187.746 464.97
1396 0 78.1534 14.4587 1130 128.752 188.218 465.441
1397 0 82.1542 14.1563 1163 128.983 188.538 463.288
1398 1 42.0475 12.0816 508 132.87 187.827 482.52
1399 0 43.0494 12.3347 531 130.682 187.501 482.156
1400 0 46.0313 11.5574 532 135.509 188.515 477.641
1401 0 46.0765 13.4776 621 132.282 190.262 476.216
1402 0 49.0703 13.4909 662 129.53 190.92 478.918
1403 0 51.1079 13.5791 694 131.846 190.967 477.739
1404 0 52.1867 12.8577 671 135.504 190.371 475.474
1405 0 51.1864 12.7768 654 137.009 190.252 474.901
1406 0 54.1096 13.602 736 132.99 190.418 474.488
1407 0 58.121 13.9881 813 130.144 190.148 473.667
1408 0 60.0911 12.9803 780 133.131 190.765 470.305
1409 0 59.0272 12.8754 760 131.982 190.322 470.547
1410 0 61.084 13.0967 800 130.54 189.574 469.951
1411 0 63.0518 13.9251 878 129.032 190.494 470.13
1412 0 65.0757 13.8454 901 130.658 191.463 467.701
1413 0 68.0252 15.0827 1026 126.205 190.864 467.479
1414 0 72.2248 13.8318 999 129.334 190.871 465.093
1415 0 73.1854 14.4428 1057 128.651 191.472 463.707
1416 0 75.1515 14.4508 1086 129.073 191.358 463.377
1417 0 79.1231 14.6481 1159 127.896 190.771 460.702
1418 0 80.143 14.4367 1157 129.229 190.631 461.041
1419 0 83.1592 13.9131 1157 130.807 189.998 458.176
1420 0 87.1419 13.9657 1217 129.812 190.097 458.333
1421 1 46.123 12.2499 565 131.724 190.584 476.784
1422 0 47.0396 10.0766 474 125.044 190.236 475.095
1423 0 48.0289 9.95234 478 122.653 188.835 475.711
1424 0 50.2363 11.0876 557 116.68 188.986 472.564
1425 0 53.2847 11.4667 611 115.11 189.89 471.357
1426 0 52.0542 10.5275 548 121.449 189.515 473.54
1427 0 53.0805 10.5123 558 120.697 190.45 473.742
1428 0 54.2629 10.7993 586 121.101 190.944 471.075
1429 0 56.167 11.8931 668 118.241 190.434 470.301
1430 0 57.104 12.0307 687 119.779 190.367 467.689
1431 0 59.1206 10.6393 629 121.736 189.917 468.514
1432 0 60.1596 11.1038 668 121.723 189.729 463.925
1433 0 64.0735 10.9406 701 120.746 189.586 464.599
1434 0 67.0816 12.1643 816 118.185 189.746 464.439
1435 0 69.187 11.982 829 117.697 189.903 462.701
1436 0 72.1943 11.7461 848 117.086 190.007 462.7
1437 0 75.1784 11.7587 884 117.665 189.977 459.412
1438 0 78.1155 11.4446 894 120.884 189.903 457.625
1439 0 78.252 12.4342 973 117.158 189.579 456.177
1440 0 83.3039 11.38 948 118.396 190.386 455.14
1441 0 87.4169 12.7206 1112 114.975 189.868 455.122
1442 0 87.4253 12.3305 1078 118.637 189.4 453.04
1443 0 90.4613 12.7347 1152 119.856 190.276 453.26
1444 0 94.367 14.1151 1332 120.748 189.631 449.709
1445 0 98.4259 13.5838 1337 123.532 189.832 446.754
1446 1 51.3174 10.5227 540 120.544 190.157 470.419
1447 0 54.1262 13.0066 704 120.016 189.148 472.834
1448 0 57.0896 11.7359 670 123.157 189.437 471.772
1449 0 59.0854 13.0828 773 122.931 188.19 471.926
1450 0 59.0172 13.4876 796 122.242 188.553 470.893
1451 0 61.1301 13.0214 796 123.378 188.536 470.687
1452 0 64.1714 13.7444 882 121.575 188.196 468.44
1453 0 66.0812 13.5137 893 122.551 188.8 465.371
1454 0 69.2379 13.923 964 121.053 189.066 465.622
1455 0 70.183 12.9804 911 123.599 189.16 465.131
1456 0 73.1896 13.3079 974 122.167 189.303 463.533
1457 0 75.1797 13.1684 990 123.221 189.113 463.642
1458 0 79.1912 14.6986 1164 118.496 188.992 462.853
1459 0 81.2164 13.2732 1078 123.201 188.639 459.559
1460 1 43.0281 11.4809 494 121.514 187.838 479.476
1461 0 46.0387 12.1854 561 116.323 188.301 479.185
1462 0 45.0465 11.3216 510 115.314 189.247 479.424
1463 0 48.0822 12.0211 578 113.118 189.185 477.853
1464 0 50.0845 12.3991 621 112.834 188.196 477.361
1465 0 51.042 13.9885 714 109.282 187.768 477.227
1466 0 52.0491 12.6419 658 113.587 187.994 476.565
1467 0 53.0649 11.9665 635 116.408 188.583 475.117
1468 0 56.0618 11.8084 662 117.275 188.746 473.687
1469 0 57.056 13.5481 773 112.521 188.614 474.075
1470 0 60.0823 13.0155 782 113.647 188.839 473.005
1471 0 60.1209 11.9925 721 117.165 188.43 473.87
1472 0 62.0842 13.3045 826 115.011 189.42 471.345
1473 0 65.049 13.1439 855 114.356 188.887 470.685
1474 0 67.0881 13.9518 936 111.538 188.863 470.544
1475 0 70.0883 12.9123 905 113.403 188.354 467.114
1476 0 72.0994 13.7172 989 111.145 188.825 466.248
1477 0 73.1577 12.89 943 114.287 188.924 465.066
1478 0 75.1108 13.3003 999 114.18 188.165 464.575
1479 0 78.0803 13.0635 1020 114.693 188.656 464.016
1480 0 79.1109 13.993 1107 112.926 188.015 463.101
1481 0 82.0864 12.7305 1045 116.024 188.472 462.205
1482 0 86.0881 13.068 1125 115.815 188.443 460.7
1483 0 87.0623 12.9103 1124 116.743 188.524 457.853
1484 0 93.0774 13.5801 1264 113.138 188.716 458.026
1485 1 49.0324 11.523 565 119.876 187.589 476.087
1486 0 49.0571 11.2726 553 120.608 187.729 476.646
1487 0 53.0713 12.5868 668 116.326 187.787 475.421
1488 0 54.0401 12.4722 674 117.3 187.631 474.142
1489 0 56.0544 10.8109 606 115.026 189.043 476.477
1490 0 56.0701 11.8602 665 109.18 189.048 475.149
1491 0 56.1813 9.41595 529 111.149 189.601 471.626
1492 0 60.401 11.4733 693 106.039 189.722 472.071
1493 0 61.2037 11.3719 696 108.716 189.901 471.293
1494 0 66.1741 12.3009 814 105.996 190.135 470.735
1495 0 67.2917 10.5362 709 111.606 189.712 468.355
1496 0 69.2388 11.7131 811 109.888 189.404 467.801
1497 0 71.1931 11.7708 838 109.591 189.594 464.925
1498 0 72.2553 10.5598 763 113.159 189.472 464.999
1499 0 75.1654 10.0179 753 112.685 189.633 465.999
1500 0 76.1762 10.2394 780 113.977 189.476 461.346
1501 0 80.0977 11.1863 896 111.488 189.124 460.96
1502 0 82.2519 10.711 881 111.823 189.476 459.623
1503 0 86.1689 11.6515 1004 110.598 190.399 458.43
1504 0 87.2028 11.8001 1029 105.914 190.375 458.379
1505 0 89.1116 11.6483 1038 109.938 189.507 458.344
1506 0 88.2028 12.3352 1088 113.301 189.381 458.001
1507 0 90.1767 12.2648 1106 114.299 189.597 454.022
1508 0 90.1513 12.2572 1105 113.758 190.017 455.298
1509 0 91.1159 12.1494 1107 115.614 189.908 454.271
1510 0 94.1398 12.3433 1162 116.949 189.734 454.311
1511 0 97.1868 12.1827 1184 116.718 189.998 453.704
1512 0 102.206 12.6313 1291 114.989 190.751 452.101
1513 0 105.151 12.7531 1341 113.182 190.69 450.622
1514 0 107.181 12.0917 1296 113.846 190.054 449.851
1515 0 111.139 11.4721 1275 114.578 189.95 449.746
1516 0 115.286 12.6468 1458 111.254 189.748 445.094
1517 0 119.229 12.5808 1500 111.223 189.896 445.007
1518 0 122.168 11.5333 1409 113.818 189.729 445.279
1519 0 125.127 11.3565 1421 115.217 189.198 438.407
1520 0 128.289 12.1913 1564 114.36 189.286 441.301
1521 0 132.216 11.4055 1508 117.239 189.181 440.428
1522 0 137.204 12.0697 1656 117.063 189.146 435.864
1523 0 139.146 11.3622 1581 119.6 189.314 436.625
1524 0 146.273 12.7023 1858 117.111 189.506 435.662
1525 0 150.181 12.0388 1808 121.157 189.243 432.952
1526 1 82.0869 12.901 1059 115.188 189.781 467.648
1527 0 85.0887 13.9384 1186 114.107 190.275 466.862
1528 0 88.1091 13.3811 1179 117.165 190.178 462.725
1529 0 89.1184 12.9154 1151 119.434 189.136 464.285
1530 0 92.2368 13.487 1244 120.691 189.319 462.433
1531 0 93.1872 13.049 1216 128.777 189.23 461.347
1532 0 97.2118 14.0415 1365 127.431 188.868 457.281
1533 0 100.257 14.5427 1458 127.513 189.141 456.715
1534 0 103.138 13.1086 1352 125.017 188.564 454.547
1535 0 106.192 13.5886 1443 125.211 188.07 454.06
1536 0 109.134 13.0757 1427 126.397 188.798 451.219
1537 1 54.0384 10.8627 587 127.518 189.908 477.591
1538 0 57.1076 13.0806 747 131.552 190.017 474.082
1539 0 61.2057 13.9693 855 127.801 189.792 474.911
1540 0 63.1086 13.7857 870 128.607 190.003 474.679
1541 0 65.1247 14.096 918 128.772 189.757 471.24
1542 0 67.0902 14.6221 981 127.578 188.994 470.914
1543 0 68.0903 13.1884 898 132.048 189.318 471.612
1544 0 72.0721 14.0415 1012 129.194 190.181 469.831
1545 0 74.1512 14.3895 1067 128.052 189.813 467.27
1546 0 75.0706 14.2399 1069 129.548 189.21 467.742
1547 0 78.1203 13.108 1024 130.437 188.567 467.319
1548 0 80.0784 14.4608 1158 126.102 188.34 465.646
1549 0 82.0935 13.0461 1071 127.56 188.465 463.887
1550 0 87.3234 13.616 1189 124.773 188.213 463.066
1551 0 91.1729 13.6883 1248 118.324 188.056 460.511
1552 0 93.1106 13.1994 1229 120.14 187.523 459.786
1553 0 94.1868 13.1229 1236 121.206 187.564 457.606
1554 0 97.3181 12.454 1212 121.899 187.868 457.893
1555 0 101.171 13.3536 1351 120.438 187.546 454.384
1556 1 52.0513 9.81724 511 125.057 186.503 475.957
1557 0 56.1293 11.5982 651 122.24 186.519 473.029
1558 0 57.1298 13.023 744 118.805 187.48 469.034
1559 0 57.0562 11.9356 681 124.761 187.515 468.959
1560 0 59.1438 11.2945 668 120.198 187.436 472.828
1561 0 62.2084 11.9919 746 118.654 187.181 471.685
1562 0 63.1654 10.4329 659 122.317 187.483 471.357
1563 0 66.2869 12.7476 845 116.75 187.293 469.265
1564 0 68.1143 12.2735 836 118.228 186.794 468.029
1565 0 69.2675 11.6216 805 120.035 187.12 469.03
1566 0 75.2486 12.678 954 116.845 187.39 466.565
1567 0 75.1146 11.8752 892 121.119 186.976 464.686
1568 0 79.205 14.1531 1121 114.867 186.909 463.16
1569 0 80.1406 12.7027 1018 119.987 187.202 461.219
1570 0 83.2289 12.6999 1057 120.022 187.089 461.644
1571 0 86.3049 13.0931 1130 120.239 187.558 460.205
1572 0 89.1789 13.2543 1182 121.656 186.771 457.365
1573 0 92.2194 14.0751 1298 120.317 187.06 456.606
1574 0 96.1786 12.8303 1234 121.938 186.768 457.941
1575 0 99.1835 13.8531 1374 120.167 186.902 454.656
1576 1 55.1218 11.5744 638 117.027 187.95 476.661
1577 0 55.0425 12.1179 667 118.9 188.108 470.391
1578 0 57.0996 13.6078 777 121.203 188.143 470.214
1579 0 59.1572 13.2359 783 112.931 187.711 469.587
1580 0 60.059 12.521 752 115.439 186.785 468.874
1581 0 63.0709 12.6207 796 114.118 187.763 468.588
1582 0 65.1344 13.1113 854 114.115 187.425 466.023
1583 0 66.2421 12.2581 812 116.623 187.479 464.945
1584 0 69.2007 12.3265 853 116.014 186.729 463.648
1585 0 71.1678 12.4635 887 115.949 187.115 461.528
1586 0 74.141 13.0157 965 114.801 187.975 461.673
1587 0 76.0831 12.7229 968 116.675 187.926 459.4
1588 0 79.2114 13.3819 1060 114.794 187.149 459.157
1589 0 82.0872 13.1202 1077 116.246 187.076 456.68
1590 0 85.1236 12.6992 1081 116.675 187.13 457.584
1591 0 88.1651 12.9076 1138 117.574 187.444 454.288
1592 0 90.3898 12.8997 1166 118.129 187.762 456.16
1593 0 93.4489 13.8792 1297 114.678 188.089 453.324
1594 1 47.0607 11.6658 549 120.991 187.954 474.377
1595 0 48.1461 10.4681 504 125.675 188.647 475.363
1596 0 52.3282 11.4852 601 124.329 188.221 473.942
1597 0 54.1426 14.2771 773 114.706 188.455 475.172
1598 0 55.0744 13.7632 758 116.836 188.722 475.339
1599 0 57.0623 11.8642 677 121.622 189.021 473.006
1600 0 58.1046 13.0454 758 119.249 188.478 474.146
1601 0 61.0949 13.8637 847 115.341 188.406 471.678
1602 0 63.1851 13.595 859 116.644 188.453 471.783
1603 0 65.092 14.4411 940 115.278 188.038 469.752
1604 0 67.1322 13.1383 882 119.24 188.009 469.796
1605 0 68.1135 14.4024 981 118.437 188.182 467.473
1606 0 72.1535 14.677 1059 117.292 188.569 465.551
1607 0 72.1853 13.9779 1009 121.225 188.193 464.954
1608 0 76.0951 14.6396 1114 119.144 188.715 463.752
1609 0 76.1988 13.0055 991 125.816 188.501 462.344
1610 0 80.1761 13.9942 1122 122.917 187.767 462.288
1611 0 84.2375 15.4919 1305 119.018 187.785 458.484
1612 0 85.2078 14.0128 1194 121.677 188.291 453.611
1613 0 88.1429 14.2382 1255 121.995 187.619 451.699
1614 1 48.2419 11.1521 538 125.926 187.16 472.682
1615 0 50.1302 11.1111 557 132.28 187.496 471.497
1616 0 51.417 11.8249 608 131.433 186.694 471.827
1617 0 55.1529 13.1453 725 120.168 187.086 472.788
1618 0 55.1096 14.2625 786 118.726 187.63 472.378
1619 0 58.057 12.9356 751 121.589 187.744 471.594
1620 0 58.1326 12.5747 731 126.711 187.502 468.038
1621 0 59.1177 13.8875 821 123.866 187.421 466.659
1622 0 61.1679 12.997 795 127.776 187.784 466.514
1623 0 63.1812 13.5325 855 127.777 187.704 466.433
1624 0 66.0974 12.769 844 130.799 187.586 465.652
1625 0 67.1183 12.9324 868 132.084 186.859 465.074
1626 0 69.1519 13.6511 944 132.306 186.849 462.721
1627 0 70.2651 13.1929 927 134.951 187.242 461.237
1628 0 74.0989 14.0758 1043 133.537 186.668 461.103
1629 0 75.1584 13.8774 1043 135.566 186.68 459.814
1630 0 78.2443 14.9915 1173 132.072 186.957 459.313
1631 0 79.2259 13.5309 1072 139.751 186.59 456.346
1632 0 82.1899 13.4201 1103 139.82 186.731 454.533
1633 0 84.1704 13.8172 1163 140.149 186.772 453.765
1634 0 87.1361 14.6552 1277 137.551 186.734 452.637
1635 0 92.212 13.9678 1288 139.224 186.647 451.238
1636 0 95.2193 15.2805 1455 134.237 186.851 449.613
1637 1 55.2031 11.195 618 138.422 186.639 472.07
1638 0 57.0651 12.7574 728 138.118 187.58 471.592
1639 0 59.0723 14.3045 845 132.551 186.508 473.488
1640 0 60.071 12.9846 780 130.291 186.077 469.19
1641 0 61.0722 13.4922 824 140.512 186.15 471.294
1642 0 63.0438 13.102 826 135.437 185.803 466.902
1643 0 62.0707 12.4535 773 136.772 186.957 463.746
1644 0 67.1393 14.2986 960 130.101 185.856 463.527
1645 0 69.1292 12.6864 877 135.41 186.117 462.33
1646 0 71.1248 13.5677 965 132.189 186.376 462.632
1647 0 71.0749 12.3532 878 139.172 186.235 458.724
1648 0 73.0533 12.9084 943 137.584 186.142 459.972
1649 0 78.1173 12.8781 1006 136.145 186.6 459.643
1650 0 77.1612 12.9728 1001 140.355 186.747 454.496
1651 0 84.0469 14.1825 1192 135.29 186.883 455.559
1652 0 86.1117 13.3199 1147 137.12 186.624 455.293
1653 0 89.1711 13.5021 1204 137.2 186.409 452.527
1654 0 91.0956 12.7997 1166 139.948 186.312 447.117
1655 1 50.0767 9.70512 486 133.305 185.681 467.817
1656 0 52.0561 10.6039 552 129.442 186.862 469.203
1657 0 53.1737 11.359 604 134.555 187.142 469.152
1658 0 53.1115 10.9016 579 131.202 186.936 467.544
1659 0 55.0823 10.7839 594 131.502 186.963 467.283
1660 0 57.157 10.8648 621 132.821 186.52 466.573
1661 0 59.1062 10.6588 630 132.916 186.776 467.038
1662 0 61.1455 11.0883 678 132.355 186.761 464.72
1663 0 63.0873 11.3018 713 131.825 186.589 464.318
1664 0 64.1067 10.9193 700 132.337 186.686 464.841
1665 0 67.1033 11.296 758 136.375 187.633 462.162
1666 0 69.1249 11.0235 762 135.186 187.644 463.306
1667 0 73.1788 10.9868 804 135.046 187.623 460.744
1668 0 74.0516 11.1409 825 134.482 186.958 460.37
1669 0 76.0649 10.5568 803 137.166 186.538 457.92
1670 0 81.0916 11.4808 931 134.304 186.574 457.748
1671 0 83.1542 11.9417 993 133.885 186.216 454.963
1672 0 86.0819 12.6624 1090 130.953 186.693 454.223
1673 0 88.2547 11.4668 1012 135.28 186.895 452.929
1674 0 92.1877 11.52 1062 135.167 186.857 451.608
1675 0 95.1122 11.7651 1119 134.38 186.5 449.384
1676 0 96.1604 11.0648 1064 137.341 186.424 449.265
1677 0 98.0653 11.37 1115 136.918 186.82 448.488
1678 0 102.186 11.7433 1200 134.027 186.911 446.589
1679 0 105.185 10.6289 1118 136.484 187.483 445.573
1680 0 110.122 11.3056 1245 135.043 186.527 442.822
1681 0 113.143 12.2588 1387 132.824 186.351 438.983
1682 1 67.2314 10.1441 682 125.685 185.735 464.655
1683 0 69.2248 10.7332 743 122.919 185.882 464.261
1684 0 71.1762 11.0149 784 122.5 185.681 464.501
1685 0 73.0856 9.20838 673 124.44 185.949 460.915
1686 0 76.1788 10.7904 822 120.073 186.045 459.431
1687 0 79.099 9.83577 778 121.685 185.491 460.59
1688 0 82.1166 10.8504 891 119.384 185.939 460.155
1689 0 84.1398 12.2891 1034 117.275 186.319 457.36
1690 0 88.1071 10.3056 908 122.305 185.957 456.954
1691 0 90.0792 12.6666 1141 116.56 185.804 456.734
1692 0 93.2582 11.3234 1056 120.637 186.223 453.476
1693 0 96.1939 11.0506 1063 120.993 185.859 451.749
1694 0 99.1488 10.9431 1085 121.088 185.796 451.08
1695 0 102.163 11.2565 1150 121.436 186.759 448.456
1696 0 104.116 10.7476 1119 122.546 186.246 448.618
1697 0 107.229 12.3288 1322 119.544 186.416 444.962
1698 0 111.115 12.3476 1372 120.706 187.335 444.761
1699 0 116.224 12.6996 1476 119.755 186.747 442.891
1700 0 119.092 12.1166 1443 121.694 186.587 442.5
1701 0 123.178 13.9716 1721 118.22 187.271 439.776
1702 0 124.267 11.8213 1469 124.575 186.649 436.509
1703 1 73.1703 10.3457 757 114.875 185.411 467.032
1704 0 73.2199 11.0489 809 112.009 184.55 465.313
1705 0 77.1186 11.9037 918 111.426 185.078 460.754
1706 0 79.0983 12.3517 977 110.722 185.54 460.594
1707 0 82.2123 13.2584 1090 107.329 189.028 461.236
1708 0 83.2298 12.3393 1027 109.688 188.781 462.371
1709 0 87.1448 13.2538 1155 107.751 187.68 459.253
1710 0 89.1755 12.6044 1124 110.861 188.197 456.468
1711 0 92.1767 12.8666 1186 109.796 188.551 456.966
1712 0 94.176 12.1581 1145 112.203 188.579 456.7
1713 0 97.1022 12.873 1250 111.091 188.598 453.695
1714 0 99.1797 12.0791 1198 114.047 188.979 453.497
1715 0 103.122 12.5386 1293 113.783 187.804 451.652
1716 0 104.15 12.1268 1263 116.515 188.137 451.661
1717 0 107.168 13.0262 1396 114.033 187.4 449.413
1718 0 111.149 12.8567 1429 110.02 187.063 447.01
1719 0 113.167 13.7937 1561 109.003 187.126 444.222
1720 0 115.331 12.6592 1460 111.99 186.136 442.651
1721 0 119.409 13.3155 1590 111.199 185.704 440.774
1722 0 119.477 11.8768 1419 117.478 186.191 439.729
1723 0 123.355 11.6169 1433 117.925 186.588 439.518
1724 0 127.264 12.4623 1586 114.886 186.066 438.328
1725 1 74.1741 11.2978 838 116.384 185.532 463.58
1726 0 75.0726 11.5488 867 117.584 185.081 464.273
1727 0 76.1224 12.007 914 117.497 185.486 463.012
1728 0 80.1106 12.8198 1027 114.889 185.838 464.25
1729 0 82.1544 13.6816 1124 113.929 185.909 461.191
1730 0 84.1076 13.0547 1098 117.089 185.548 459.802
1731 0 88.1105 13.5852 1197 115.746 185.666 456.253
1732 0 92.0775 13.5429 1247 115.686 185.433 457.011
1733 0 92.1757 12.4002 1143 120.118 185.413 456.719
1734 0 97.066 12.4245 1206 119.546 185.545 455.289
1735 0 101.161 12.5443 1269 117.016 185.413 452.992
1736 1 56.1517 12.5018 702 112.754 184.94 474.91
1737 0 56.1238 12.9357 726 114.979 184.687 472.397
1738 0 58.1985 12.1309 706 114.186 185.048 473.53
1739 0 59.018 13.1994 779 113.225 186.053 473.782
1740 0 62.1346 12.8914 801 111.93 185.748 471.732
1741 0 63.0862 12.5384 791 114.292 185.07 471.421
1742 0 65.0398 12.8383 835 113.707 185.613 470.257
1743 0 67.1218 12.1272 814 116.833 185.668 469.603
1744 0 66.0708 11.5028 760 120.088 185.109 468.708
1745 0 70.1138 12.4654 874 117.451 184.895 467.023
1746 0 73.061 13.6872 1000 113.971 184.65 468.114
1747 0 74.0943 13.1049 971 116.907 184.632 465.038
1748 0 75.1438 12.7888 961 118.45 184.71 463.517
1749 0 79.0941 14.2236 1125 113.788 184.768 463.052
1750 0 81.1102 14.2645 1157 114.031 184.02 460.35
1751 0 85.0717 15.6456 1331 110.476 183.54 460.103
1752 0 86.0805 12.7671 1099 117.779 184.651 459.939
1753 0 90.0792 13.9433 1256 113.769 184.562 457.893
1754 0 93.045 13.1012 1219 116.913 184.705 455.04
1755 1 53.1346 12.4025 659 115.308 184.736 474.49
1756 0 54.022 11.81 638 119.534 185.704 477.429
1757 0 54.2274 10.8801 590 112.159 187.753 473.136
1758 0 57.1318 11.1322 636 104.469 186.797 471.489
1759 0 57.098 11.489 656 105.645 186.877 469.076
1760 0 58.1029 11.6862 679 105.892 186.978 469.072
1761 0 60.0614 11.8379 711 106.596 186.495 468.779
1762 0 63.1138 11.8833 750 106.065 186.36 469.952
1763 0 64.0226 10.7775 690 110.838 186.407 468.212
1764 0 63.0731 10.5275 664 111.861 186.547 467.503
1765 0 66.0656 10.4744 692 112.316 185.848 468.454
1766 0 68.0554 10.5796 720 111.36 186.76 466.994
1767 0 70.0365 11.851 830 109.03 186.618 465.646
1768 0 73.1392 11.2935 826 110.179 186.851 464.672
1769 0 74.0681 10.5714 783 113.166 186.63 460.793
1770 0 76.2457 11.1088 847 112.819 187.504 459.563
1771 0 80.1783 11.4619 919 111.669 187.624 459.232
1772 0 83.2004 11.0576 920 112.338 187.516 457.162
1773 0 85.2516 11.4954 980 111.851 188.12 455.654
1774 0 87.2916 9.93222 867 115.36 187.262 456.389
1775 0 92.1066 11.7907 1086 111.884 187.017 452.981
1776 1 51.1571 11.1617 571 106.974 186.687 475.061
1777 0 51.1598 11.1611 571 107.366 185.916 473.809
1778 0 54.1146 12.4735 675 104.184 185.976 471.342
1779 0 54.1225 11.4924 622 107.289 186.64 471.32
1780 0 55.0739 11.6026 639 107.2 186.937 469.023
1781 0 57.0375 12.448 710 105.576 186.589 471.151
1782 0 60.0742 11.7521 706 106.35 186.48 469.731
1783 0 61.0947 11.8668 725 106.691 187.008 468.92
1784 0 61.0568 11.4975 702 108.836 186.811 467.62
1785 0 64.0585 12.4261 796 106.807 186.389 466.984
1786 0 65.0748 11.6174 756 108.803 187.185 466.561
1787 0 68.1035 12.0699 822 106.794 187.326 465.137
1788 0 70.0794 12.6713 888 106.659 186.092 463.741
1789 0 72.1757 12.8021 924 105.639 186.384 464.066
1790 0 73.0681 11.8383 865 108.601 186.272 463.935
1791 0 74.1602 11.9471 886 109.392 186.412 461.055
1792 0 78.1261 12.6334 987 107.736 185.972 461.373
1793 0 81.1173 11.9457 969 109.36 186.96 461.027
1794 0 84.1372 13.9177 1171 105.25 186.505 460.271
1795 0 84.1701 12.9262 1088 109.299 186.735 459.356
1796 0 89.1345 13.1823 1175 108.071 186.663 459.563
1797 0 91.1252 14.0795 1283 107.668 187.012 458.731
1798 0 93.1782 13.3508 1244 109.596 187.1 457.202
1799 0 97.1072 13.758 1336 109.076 187.32 456.027
1800 0 100.121 13.6435 1366 108.87 187.728 454.862
1801 1 55.0886 12.9428 713 108.84 186.492 474.512
1802 0 55.2213 12.1873 673 112.001 187.152 470.963
1803 0 58.4192 12.5986 736 111.497 186.876 472.182
1804 0 59.0881 12.7437 753 111.021 186.34 474.262
1805 0 61.0523 13.5458 827 109.55 186.167 473.877
1806 0 62.06 14.1476 878 109.191 186.245 472.65
1807 0 64.1006 13.5256 867 111.248 186.503 471.997
1808 0 66.1087 13.4173 887 111.815 186.75 469.852
1809 0 68.0894 13.7319 935 111.337 186.895 469.134
1810 0 71.0673 14.4511 1027 109.154 186.824 467.295
1811 0 71.0768 13.1548 935 114.052 187.068 467.248
1812 0 76.0886 13.5631 1032 112.17 187.022 466.255
1813 0 78.1215 13.6966 1070 111.888 186.845 465.454
1814 0 80.0794 13.4741 1079 113.82 186.979 461.754
1815 0 82.0737 13.561 1113 114.253 186.651 460.346
1816 0 86.131 15.0701 1298 109.893 186.861 460.12
1817 0 86.1858 13.9234 1200 114.358 187.027 458.247
1818 0 87.1771 13.3292 1162 116.614 186.966 458.39
1819 0 90.0808 13.2992 1198 116.88 186.638 457.62
1820 0 95.1435 13.6951 1303 115.384 186.979 455.617
1821 0 97.0841 14.1939 1378 114.535 187.033 452.979
1822 0 100.142 13.5408 1356 115.426 187.094 454.291
1823 0 101.153 12.753 1290 117.504 187.398 445.219
1824 0 107.2 12.5093 1341 116.386 187.61 445.831
1825 0 109.182 13.9492 1523 114.091 187.135 443.452
1826 0 113.19 13.1283 1486 115.445 187.592 439.496
1827 1 61.1421 12.1357 742 112.4 187.174 463.418
1828 0 62.0796 11.3564 705 122.59 187.923 461.796
1829 0 65.0671 11.3729 740 124.105 186.784 462.046
1830 0 65.0471 11.6838 760 114.97 186.301 460.332
1831 0 70.1719 11.0586 776 115.375 185.854 460.343
1832 0 72.0815 12.8049 923 112.403 186.118 459.064
1833 0 76.1248 12.2037 929 114.429 185.614 458.117
1834 0 77.0849 12.8041 987 114.781 185.672 455.978
1835 0 81.1766 13.0456 1059 113.784 185.907 454.564
1836 0 82.2695 12.7265 1047 114.768 186.851 453.017
1837 0 85.2198 13.2012 1125 114.537 187.208 449.308
1838 0 89.2803 11.2791 1007 118.72 186.707 449.618
1839 0 92.2773 13.0368 1203 115.256 187.932 445.588
1840 0 94.3486 12.9202 1219 120.223 187.68 445.221
1841 0 97.2175 12.6315 1228 124.142 187.775 446.159
1842 1 53.1874 9.70154 516 122.386 187.233 466.715
1843 0 56.133 11.9359 670 117.09 187.725 466.269
1844 0 57.0409 9.9227 566 113.744 186.447 464.724
1845 0 59.046 10.5003 620 121.013 187.515 470.885
1846 0 65.1868 12.2418 798 115.987 188.02 471.103
1847 0 65.0801 13.3681 870 113.161 187.749 470.913
1848 0 68.1754 12.3798 844 115.357 187.128 470.027
1849 0 70.1355 13.5595 951 112.91 187.762 467.69
1850 0 72.2639 12.8142 926 114.477 187.809 467.168
1851 0 76.2253 12.4106 946 114.252 187.812 464.834
1852 0 79.1326 12.3084 974 114.661 187.28 462.584
1853 0 81.3002 14.3173 1164 110.106 187.857 461.41
1854 0 83.2058 13.3284 1109 112.747 187.658 461.848
1855 0 84.2229 12.4313 1047 117.165 187.547 457.806
1856 0 87.4151 12.8353 1122 115.67 186.84 456.804
1857 0 92.437 13.4795 1246 114.049 186.911 454.203
1858 0 93.3598 13.6783 1277 114.508 186.523 451.932
1859 0 95.5848 12.4078 1186 117.65 186.439 448.824
1860 1 51.321 10.5415 541 114.906 185.414 472.325
1861 0 54.2052 10.9768 595 114.697 185.788 471.225
1862 0 54.3495 10.5613 574 117.265 186.134 470.08
1863 0 56.0762 11.1634 626 114.315 185.62 468.962
1864 0 58.1328 12.0242 699 112.602 185.96 469.82
1865 0 59.1263 11.3824 673 115.785 185.504 468.798
1866 0 60.1763 12.0479 725 115.124 186.389 467.652
1867 0 62.2057 12.1211 754 114.825 185.684 465.935
1868 0 66.142 13.2593 877 111.527 185.554 466.95
1869 0 69.1677 12.8239 887 112.159 186.156 465.809
1870 0 69.2187 11.861 821 116.618 186.429 464.421
1871 0 70.187 11.6973 821 117.784 185.952 463.551
1872 0 74.1359 13.3539 990 112.11 185.832 461.92
1873 0 75.156 12.1081 910 116.341 185.731 461.057
1874 0 78.2067 12.582 984 114.772 185.454 460.234
1875 0 79.1841 12.7172 1007 116.233 185.37 458.357
1876 0 82.1375 13.4652 1106 114.406 185.646 458.417
1877 0 85.3136 12.753 1088 115.897 185.497 457.04
1878 0 88.2338 13.4189 1184 114.221 185.541 456.205
1879 0 91.1798 13.6763 1247 113.28 185.86 455.883
1880 0 93.2618 12.0735 1126 118.459 185.848 451.319
1881 0 96.3725 13.2299 1275 115.38 186.072 451.144
1882 0 99.3553 13.3561 1327 116.241 186.222 450.14
1883 1 55.2782 10.221 565 119.129 186.032 471.45
1884 0 56.2661 10.8236 609 117.369 185.353 471.911
1885 0 57.2816 10.7713 617 120.28 185.919 469.708
1886 0 61.2351 11.1701 684 119.335 185.656 469.095
1887 0 61.2278 11.7594 720 118.799 188.778 467.997
1888 0 63.1404 11.7674 743 119.323 188.568 467.875
1889 0 64.1357 11.8499 760 117.543 188.77 467.908
1890 0 68.1849 12.7887 872 111.833 188.289 465.331
1891 0 68.1329 12.549 855 113.963 187.605 463.759
1892 0 73.2627 12.4893 915 112.446 188.343 463.43
1893 0 74.3268 12.6468 940 112.877 187.64 461.29
1894 0 74.2276 12.9197 959 113.188 187.758 461.152
1895 0 79.1169 14.0172 1109 109.463 187.814 460.346
1896 0 81.1365 13.3849 1086 110.737 187.738 458.963
1897 0 82.2543 12.3155 1013 113.308 187.542 458.058
1898 0 85.1918 12.4777 1063 112.682 188.094 455.511
1899 0 90.162 12.3001 1109 111.613 188.085 455.989
1900 0 93.1529 12.6137 1175 111.723 188.361 454.065
1901 0 96.1096 12.6418 1215 111.132 188.024 454.363
1902 0 100.093 13.4774 1349 107.821 188.078 454.26
1903 0 102.2 12.955 1324 108.66 187.708 452.233
1904 1 60.1236 11.3932 685 110.599 188.209 472.947
1905 0 60.2606 11.5 693 107.583 186.339 468.186
1906 0 62.2132 11.7981 734 106.909 186.296 466.35
1907 0 65.2101 12.4521 812 103.768 185.488 465.713
1908 0 67.0915 12.4159 833 102.971 185.21 466.935
1909 0 70.1764 11.8273 830 103.419 185.896 466.16
1910 0 72.1677 12.6649 914 101.591 185.592 465.022
1911 0 73.1371 11.7998 863 104.473 186.542 463.231
1912 0 75.1759 12.4109 933 103.234 186.274 464.221
1913 0 78.1218 12.1733 951 104.703 185.899 462.846
1914 0 82.2033 11.8487 974 104.252 185.494 460.786
1915 0 84.1234 12.6719 1066 103.095 185.044 460.258
1916 0 85.1626 12.9282 1101 103.478 185.724 457.583
1917 0 89.1639 12.3817 1104 104.399 185.397 455.844
1918 0 91.1647 11.7918 1075 105.744 185.775 453.918
1919 0 94.1806 11.6585 1098 106.108 186.471 454.255
1920 0 97.162 11.5477 1122 106.33 186.645 450.864
1921 0 100.2 12.4152 1244 104.696 186.694 452.093
1922 0 102.203 10.7336 1097 107.133 186.396 445.962
1923 0 106.25 11.5105 1223 104.279 187.479 442.894
1924 1 59.0733 8.29478 490 100.847 187.547 469.365
1925 0 60.2158 10.9606 660 103.888 186.962 468.415
1926 0 61.1485 10.172 622 107.854 186.109 468.342
1927 0 65.1577 11.3571 740 108.412 185.319 465.754
1928 0 69.1842 12.1415 840 105.661 185.393 466.57
1929 0 68.196 10.8071 737 109.843 185.573 465.152
1930 0 70.1377 10.8643 762 110.068 186.251 464.836
1931 0 75.1588 12.1875 916 107.564 186.093 464.571
1932 0 76.1162 12.2576 933 109.226 185.675 461.951
1933 0 77.1817 12.0106 927 110.451 185.562 461.9
1934 0 78.0943 11.0379 862 113.769 185.305 459.868
1935 0 82.2123 11.7866 969 111.808 185.443 458.738
1936 0 85.3622 11.6796 997 111.362 185.996 458.368
1937 0 86.3526 11.6267 1004 111.56 185.893 457.138
1938 0 90.3986 11.0732 1001 113.037 185.676 453.814
1939 0 92.3325 12.5525 1159 110.09 185.901 451.98
1940 0 96.3708 12.2963 1185 110.311 185.495 454.405
1941 0 99.2586 12.8654 1277 109.341 185.106 452.102
1942 0 103.367 12.654 1308 110.358 185.361 448.216
1943 0 102.395 11.6022 1188 113.445 185.853 447.646
1944 0 107.404 10.3627 1113 114.431 186.443 448.17
1945 0 112.423 12.0705 1357 110.926 186.915 442.169
1946 0 114.528 12.259 1404 110.442 187.085 441.023
1947 0 117.413 12.3496 1450 108.914 187.532 441.706
1948 0 119.44 10.4739 1251 110.733 187.967 440.499
1949 1 65.3463 10.5132 687 103.956 188.853 469.151
1950 0 65.3408 10.3458 676 106.824 187.901 465.661
1951 0 71.3493 11.9973 856 104.254 187.77 464.284
1952 0 74.2551 12.6187 937 98.7332 188.691 464.542
1953 0 75.1216 11.8741 892 101.318 188.522 464.992
1954 0 78.1378 12.478 975 99.759 188.889 461.848
1955 0 81.0656 12.6811 1028 99.9611 188.217 459.064
1956 0 81.1597 11.9148 967 102.785 188.151 459.946
1957 0 84.1872 12.4841 1051 102.304 188.056 457.594
1958 0 89.1696 14.0743 1255 98.0829 188.069 459.51
1959 0 90.2077 13.5576 1223 100.287 188.894 457.033
1960 0 93.2056 14.173 1321 98.8138 188.887 456.589
1961 0 97.1334 13.4454 1306 100.404 188.93 453.823
1962 0 97.1462 12.4555 1210 103.343 188.765 451.736
1963 0 101.191 13.8352 1400 100.809 188.512 449.654
1964 0 104.25 13.0935 1365 102.072 188.67 449.103
1965 0 107.172 13.6977 1468 101.513 188.277 446.217
1966 0 109.272 12.684 1386 103.316 188.347 446.713
1967 0 116.17 13.9365 1619 100.66 188.017 436.266
1968 0 116.213 12.7525 1482 104.287 188.496 436.823
1969 0 119.141 14.4282 1719 100.824 188.281 439.044
1970 0 120.323 12.882 1550 106.517 188.234 440.186
1971 0 126.205 13.2483 1672 103.454 188.422 439.127
1972 0 131.15 13.2138 1733 103.818 188.498 435.725
1973 1 71.1928 11.7709 838 102.703 189.387 465.372
1974 0 73.0403 12.1987 891 100.481 189.264 466.31
1975 0 76.1013 12.7462 970 99.866 188.406 460.516
1976 0 79.0636 12.2939 972 100.487 188.881 460.109
1977 0 81.1222 11.8217 959 101.675 188.801 458.603
1978 0 83.1094 12.2128 1015 100.684 189.031 458.801
1979 0 87.1085 12.5935 1097 99.7785 188.727 456.72
1980 0 91.1987 12.6318 1152 99.6432 188.09 455.293
1981 0 92.159 12.511 1153 100.843 188.6 452.964
1982 0 95.1593 12.2847 1169 101.709 188.299 451.47
1983 0 99.2487 13.3705 1327 99.5885 188.183 449.634
1984 0 101.161 12.3764 1252 100.724 188.393 449.871
1985 0 103.198 12.0061 1239 102.634 188.068 445.649
1986 0 106.202 13.0506 1386 100.739 187.588 445.522
1987 0 110.154 13.1997 1454 101.345 188.508 445.265
1988 0 113.278 13.6743 1549 100.368 188.527 445.096
1989 0 114.161 12.4911 1426 104.18 187.97 439.854
1990 0 118.314 12.8471 1520 106.264 187.703 441.502
1991 0 121.17 12.2473 1484 106.202 189.144 437.513
1992 0 127.183 12.4702 1586 106.301 189.01 437.25
1993 0 131.297 12.7878 1679 105.477 188.241 429.858
1994 1 77.173 12.1027 934 103.88 188.489 462.003
1995 0 77.1423 12.4056 957 105.75 188.13 461.885
1996 0 79.1909 12.1226 960 104.896 189.459 460.732
1997 0 80.2085 11.495 922 107.483 188.83 458.352
1998 0 86.2138 12.9098 1113 103.904 188.113 457.089
1999 0 87.2032 12.2702 1070 106.821 187.991 456.977
2000 0 88.1499 11.4351 1008 110.409 187.767 454.927
2001 0 92.2798 12.7872 1180 107.771 188.527 453.681
2002 0 96.166 13.7471 1322 107.44 188.719 451.576
2003 0 98.3307 12.5088 1230 112.098 188.666 449.206
2004 0 100.213 12.1142 1214 114.84 188.556 449.956
2005 0 103.122 12.5483 1294 114.957 188.515 448.555
2006 0 108.181 13.2648 1435 113.869 188.42 446.806
2007 0 110.152 13.1455 1448 115.709 188.313 445.367
2008 0 113.35 12.951 1468 117.292 187.419 442.514
2009 0 114.298 12.5461 1434 119.82 187.803 442.022
2010 0 117.254 13.1851 1546 119.083 188.401 442.362
2011 0 123.324 12.6334 1558 120.387 187.934 437.87
2012 0 128.245 13.2871 1704 119.292 187.995 437.541
2013 0 131.297 11.79 1548 122.905 187.809 439.464
2014 0 134.212 12.212 1639 123.375 187.195 436.783
2015 0 141.265 13.0393 1842 122.047 187.193 433.787
2016 0 144.358 13.1963 1905 123.375 186.953 430.634
2017 0 146.164 13.3275 1948 125.001 186.831 429.667
2018 0 152.197 13.2789 2021 124.807 187.12 428.132
2019 0 158.241 13.8712 2195 124.221 187.226 425.065
2020 0 161.233 13.8434 2232 125.239 187.147 417.409
2021 0 167.34 13.9955 2342 124.661 186.452 421.511
2022 0 172.33 14.4084 2483 124.92 186.245 413.004
2023 0 178.246 14.581 2599 125.04 186.549 409.161
2024 0 185.369 14.9162 2765 124.961 185.97 405.068
2025 0 190.464 14.7744 2814 126.792 186.793 399.765
2026 0 196.482 15.177 2982 124.874 187.173 399.696
2027 1 148.378 13.8228 2051 125.995 187.935 423.821
2028 0 152.254 13.3724 2036 127.15 186.681 419.244
2029 0 155.28 13.4209 2084 125.118 187.473 417.753
2030 0 161.233 13.2355 2134 125.992 187.41 412.318
2031 0 167.297 14.28 2389 122.602 187.938 409.186
2032 0 175.222 14.3018 2506 121.418 187.406 408.866
2033 0 179.177 14.0531 2518 121.821 186.544 406.4
2034 0 184.184 12.6396 2328 125.288 186.791 402.573
2035 0 191.1 13.0665 2497 124.243 186.109 398.063
2036 0 195.275 12.2494 2392 126.791 185.974 394.013
2037 0 204.289 13.476 2753 123.054 186.816 392.898
2038 0 210.478 13.8257 2910 122.959 186.014 387.442
2039 0 217.533 13.0003 2828 125.586 186.707 384.025
2040 0 227.32 13.9363 3168 124.296 185.82 380.152
2041 1 181.312 12.9886 2355 127.014 187.045 401.256
2042 0 187.146 14.1227 2643 124.714 187.571 396.134
2043 0 192.385 13.1091 2522 121.603 187.502 395.836
2044 0 199.272 13.2984 2650 121.265 187.275 391.355
2045 0 205.407 13.5146 2776 123.291 186.878 388.104
2046 0 208.223 12.3569 2573 129.308 186.771 381.822
2047 0 215.396 12.1637 2620 131.363 187.05 377.726
2048 0 224.461 12.8085 2875 128.894 187.215 374.63
2049 0 234.33 13.5279 3170 126.619 186.679 374.907
2050 0 241.515 13.966 3373 125.422 186.771 376.028
2051 0 248.651 14.3213 3561 125.524 186.405 375.015
2052 0 255.394 13.7356 3508 127.717 186.303 373.689
2053 0 262.586 14.0259 3683 128.134 186.234 366.234
2054 0 262.618 13.8147 3628 128.873 186.211 368.883
2055 0 258.937 10.7517 2784 133.498 186.277 378.78
2056 0 259.75 11.0645 2874 133.949 186.262 374.08
2057 0 259.725 11.6546 3027 132.684 186.578 374.628
2058 0 308.725 16.1373 4982 121.652 186.286 335.361
2059 0 317.653 15.5767 4948 123.124 186.098 333.651
2060 0 328.593 15.2833 5022 123.57 186.376 329.968
2061 0 328.559 12.9566 4257 130.416 186.525 337.719
2062 0 331.501 12.2383 4057 132.471 186.256 346.949
2063 0 326.592 11.5189 3762 131.901 186.618 349.243
