time division length width area intensity CMx CMy
0 0 39.04 10.9119 426 147.146 649.678 472.371
1 0 41.034 10.9178 448 146.02 649.895 472.022
2 0 43.0848 12.0692 520 142.162 650.796 469.962
3 0 44.0297 11.8556 522 142.36 650.525 470.55
4 0 43.0565 11.7288 505 144.4 651.214 469.879
5 0 46.0295 11.2537 518 142.475 651.261 470.88
6 0 48.014 10.726 515 143.998 650.72 470.28
7 0 49.104 12.0357 591 140.413 650.531 468.184
8 0 50.0425 11.3504 568 144.451 650.678 467.741
9 0 52.1209 12.164 634 140.674 650.67 468.084
10 0 52.0487 11.3547 591 143.599 650.364 468.179
11 0 54.0715 10.93 591 144.777 650.611 468.587
12 0 56.0297 11.4939 644 142.907 650.335 466.902
13 0 56.0473 11.1513 625 144.907 649.805 466.859
14 0 61.0709 11.5931 708 140.107 650.244 466.794
15 0 61.1009 11.7183 716 142.554 649.803 464.285
16 0 64.0766 11.8296 758 140.69 650.189 465.815
17 0 68.1906 11.7025 798 139.149 649.688 464.747
18 1 34.0382 10.4882 357 142.756 650.415 480.384
19 0 35.0163 12.7084 445 134.604 650.135 479.182
20 0 35.0179 12.1081 424 134.807 650.16 479.658
21 0 36.0172 12.7717 460 130.233 649.659 478.863
22 0 36.0172 12.7994 461 130.781 648.677 478.881
23 0 36.0236 12.6861 457 130.746 647.626 478.906
24 0 37.0189 11.7238 434 140.565 648.426 479.157
25 0 38.0265 12.0705 459 139.95 648.593 479.44
26 0 39.0203 11.5837 452 141.487 649.142 479.15
27 0 40.121 13.1602 528 136.754 648.936 479.337
28 0 41.0209 13.7003 562 135.712 648.407 478.461
29 0 42.02 12.1371 510 142.022 649.196 477.384
30 0 45.0977 12.2845 554 138.814 648.751 477.791
31 0 46.0456 12.7048 585 137.455 648.405 476.333
32 0 44.1114 12.8538 567 140.321 648.014 476.051
33 0 46.079 12.0011 553 140.553 648.316 476.354
34 0 49.0259 12.218 599 138.08 648.346 476.389
35 0 52.0673 13.809 719 132.645 648.745 474.239
36 0 52.184 13.0117 679 135.272 648.617 472.209
37 0 55.0887 13.8322 762 132.226 647.921 473.161
38 0 55.0884 13.8505 763 137.211 646.899 473.266
39 0 58.0274 12.632 733 134.767 647.075 470.255
40 0 58.1261 12.5073 727 135.261 648.176 471.827
41 0 61.0659 12.8713 786 133.859 647.768 470.033
42 0 66.1245 13.898 919 128.476 647.441 469.391
43 0 66.0972 13.7827 911 131.387 647.89 467.284
44 0 69.065 13.1326 907 131.82 647.432 466.821
45 0 69.065 13.1615 909 147.331 646.43 466.79
46 0 74.1962 14.5425 1079 127.759 647.46 465.516
47 0 76.0802 13.8275 1052 130.192 647.16 463.716
48 0 78.1245 13.7089 1071 131.333 647.54 462.739
49 0 82.1257 14.2465 1170 129.355 647.357 460.545
50 0 83.1809 13.5849 1130 131.894 647.172 460.134
51 0 87.1371 14.3796 1253 126.308 647.336 458.803
52 0 90.1197 13.5154 1218 128.127 647.736 458.235
53 0 92.0582 12.818 1180 129.533 647.014 455.758
54 1 49.05 12.7625 626 127.286 647.12 475.636
55 0 48.1619 12.4995 602 132.047 647.184 475.558
56 0 48.051 13.6522 656 128.852 648.117 477.579
57 0 50.0193 12.955 648 131.127 647.684 476.099
58 0 52.0355 13.6253 709 128.188 647.489 476.457
59 0 55.0197 13.7951 759 127.522 647.672 475.996
60 0 56.0235 12.7625 715 130.769 646.855 476.127
61 0 56.0235 12.6733 710 158.31 645.868 476.196
62 0 57.0516 13.2512 756 135.077 646.758 473.651
63 0 61.0563 13.5121 825 132.993 646.725 472.935
64 0 63.066 13.3352 841 133.232 646.908 472.555
65 0 66.021 14.4954 957 131.824 646.614 469.16
66 0 69.063 14.132 976 131.891 646.261 468.49
67 0 69.063 14.1031 974 160.263 646.274 468.523
68 0 75.1156 14.6308 1099 130.385 646.366 466.993
69 0 75.1343 13.3095 1000 135.685 645.851 464.51
70 0 80.2266 14.2222 1141 133.662 646.031 462.481
71 0 84.1129 14.6232 1230 128.12 645.827 461.6
72 0 84.154 12.9524 1090 133.199 645.85 460.31
73 1 42.0803 13.1415 553 128.718 646.421 480.548
74 0 45.1573 12.9547 585 129.918 646.942 479.149
75 0 46.0776 11.7628 542 131.913 646.699 480.827
76 0 48.0237 13.3059 639 128.319 646.915 480.164
77 0 47.025 13.9926 658 147.796 646.888 479.78
78 0 51.0601 12.4363 635 128.335 646.745 477.351
79 0 53.0697 11.6639 619 128.998 646.409 477.795
80 0 53.0606 12.6459 671 128.963 646.809 474.638
81 0 55.0695 13.1107 722 128.59 646.652 473.404
82 0 57.0866 12.9803 741 126.228 645.869 474.953
83 0 59.1225 13.4128 793 125.884 645.515 472.71
84 0 60.0902 13.28 798 126.594 646.02 472.739
85 0 63.1218 13.3868 845 126.11 646.228 471.096
86 0 66.0637 13.5929 898 125.277 645.597 470.969
87 0 68.1408 13.6335 929 125.298 645.649 469.836
88 0 70.0768 13.2854 931 127.018 645.068 468.472
89 0 72.0756 14.3183 1032 125.308 645.432 466.255
90 0 73.0916 13.9277 1018 125.941 645.427 465.194
91 0 77.0686 13.6502 1052 126.198 645.429 464.333
92 0 78.0755 13.4869 1053 155.892 645.406 464.122
93 0 82.1003 13.5444 1112 127.107 644.924 461.879
94 0 86.1297 14.7104 1267 124.069 645.774 460.079
95 0 88.0784 14.3849 1267 124.981 645.332 458.828
96 1 45.0786 10.7368 484 123.025 644.791 480.709
97 0 47.0063 10.8496 510 121.82 645.929 481.771
98 0 48.1176 11.9914 577 123.591 646.18 481.411
99 0 50.0317 12.8918 645 125.447 646.859 478.478
100 0 51.2146 12.9455 663 126.268 646.103 477.757
101 0 53.0307 12.5022 663 128.306 645.76 476.784
102 0 54.0541 12.987 702 127.53 646.142 477.293
103 0 56.0612 13.3604 749 127.636 645.785 475.061
104 0 55.2036 12.1188 669 132.133 645.09 475.81
105 0 60.1303 13.4541 809 126.981 645.027 474.65
106 0 60.1543 12.4181 747 131.827 645.177 473.697
107 0 62.2221 13.6447 849 129.128 645.592 473.572
108 0 64.1173 13.3661 857 131.236 645.897 470.364
109 0 67.1799 13.7392 923 129.323 645.64 470.541
110 0 69.195 13.0356 902 133.336 645.198 469.731
111 0 69.1446 13.3199 921 133.314 645.231 469.431
112 0 74.1964 13.9764 1037 131.329 645.516 468.15
113 0 75.1944 14.1766 1066 132.055 645.114 465.189
114 0 78.2089 13.6813 1070 133.108 645.279 464.01
115 0 80.3963 14.6897 1181 131.266 645.66 462.93
116 0 83.1703 13.9112 1157 133.207 645.086 461.698
117 0 85.103 14.8408 1263 131.134 645.177 460.928
118 0 88.1537 13.4424 1185 134.646 644.823 460.189
119 0 89.1905 15.1586 1352 130.657 644.585 458.169
120 0 91.0551 12.6627 1153 135.101 644.556 457.584
121 0 93.089 13.1917 1228 130.026 644.544 456.156
122 0 96.1444 13.3549 1284 129.974 644.579 454.621
123 0 98.111 13.0668 1282 131.771 645.21 451.704
124 0 101.155 13.2569 1341 131.401 645.304 448.647
125 0 105.227 13.6562 1437 130.501 645.619 447.72
126 0 108.136 13.3536 1444 131.42 644.625 449.945
127 0 112.158 12.9192 1449 132.805 644.913 445.91
128 0 117.153 13.1964 1546 132.792 645.1 444.503
129 0 122.194 14.788 1807 127.784 645.266 442.46
130 0 126.199 14.0175 1769 130.223 645.665 439.902
131 1 72.1069 11.7603 848 130.146 646.118 467.032
132 0 75.1082 13.3274 1001 124.842 646.331 464.738
133 0 75.1181 11.9811 900 129.77 646.916 462.23
134 0 80.2031 12.9422 1038 123.734 646.406 464.809
135 0 81.0965 12.0844 980 126.206 646.228 463.715
136 0 83.16 13.9129 1157 123.705 645.656 458.424
137 0 88.1606 13.2372 1167 125.641 646.067 459.567
138 0 90.2323 12.2462 1105 127.976 646.061 459.148
139 0 92.2361 13.0968 1208 126.435 644.893 454.445
140 0 95.4026 12.8927 1230 126.506 645.593 452.442
141 0 96.4059 12.3955 1195 145.317 646.604 452.76
142 0 104.409 13.131 1371 123.497 644.915 453.837
143 1 57.2026 10.8736 622 122.214 645.511 471.477
144 0 61.1335 11.8266 723 111.076 644.526 470.177
145 0 61.1276 11.0098 673 112.627 645.97 473.273
146 0 65.1642 11.9698 780 112.303 645.686 469.906
147 0 66.216 11.7041 775 113.316 645.417 470.414
148 0 66.2056 11.706 775 126.156 644.401 470.221
149 0 69.2208 11.9617 828 112.877 645.268 468.525
150 0 73.1242 12.9095 944 110.631 645.837 466.114
151 0 73.2183 11.0082 806 115.174 645.408 465.331
152 0 77.1765 12.6593 977 112.927 645.328 464.172
153 0 78.1481 11.2863 882 117.111 645.068 462.061
154 0 84.4017 12.3931 1046 116.349 644.536 460.245
155 0 85.1322 12.322 1049 117.425 644.383 458.786
156 0 90.1774 12.5087 1128 115.057 644.361 458.707
157 0 94.1894 12.4324 1171 116.225 644.626 454.518
158 0 94.1764 10.9794 1034 120.201 644.638 454.145
159 0 97.1614 12.0109 1167 117.632 643.99 452.365
160 0 100.123 12.225 1224 117.832 644.424 452.698
161 0 104.3 11.9176 1243 118.995 644.664 451.398
162 0 106.276 11.9971 1275 120.045 644.383 447.571
163 0 111.201 13.7049 1524 116.312 644.278 445.658
164 0 114.28 13.1694 1505 117.68 645.126 443.645
165 0 116.167 12.1033 1406 120.354 645.108 442.484
166 0 121.26 12.3206 1494 121.182 645.26 442.655
167 0 124.115 12.3595 1534 120.286 645.314 441.164
168 0 129.257 12.8349 1659 119.901 645.147 436.565
169 0 133.188 12.809 1706 120.353 644.585 432.899
170 0 138.206 13.6825 1891 117.433 644.264 431.161
171 1 75.0991 10.7325 806 110.552 644.65 466.551
172 0 79.0602 11.1055 878 110.198 644.068 463.065
173 0 79.0602 11.0802 876 131.653 644.078 463.252
174 0 82.1079 11.1317 914 111.113 644.941 459.597
175 0 86.163 13.3004 1146 106.249 644.631 458.167
176 0 89.2635 12.1214 1082 108.353 644.375 457.25
177 0 91.2238 12.3213 1124 108.314 644.496 456.038
178 0 92.372 11.1614 1031 111.952 644.708 454.661
179 0 98.3621 12.0372 1184 110.627 645.088 451.932
180 0 99.1741 12.4428 1234 110.893 644.691 450.458
181 0 104.167 12.2688 1278 112.459 645.038 447.962
182 0 108.118 11.7834 1274 113.464 644.88 446.217
183 0 109.135 12.5258 1367 113.019 644.843 443.288
184 0 110.115 11.4699 1263 132.809 645.809 445.315
185 1 62.1682 10.0373 624 106.792 644.296 468.902
186 0 63.4284 10.9888 697 106.541 644.253 464.396
187 0 66.0886 11.2425 743 107.829 644.952 465.376
188 0 66.1464 10.8094 715 107.883 645.571 468.724
189 0 69.1114 11.0691 765 108.58 644.986 465.047
190 0 71.1309 10.6424 757 109.873 644.847 464.4
191 0 74.1756 11.6211 862 108.323 645.07 462.833
192 0 77.1828 11.1165 858 109.554 644.42 461.145
193 0 81.2013 12.6968 1031 106.056 644.448 459.93
194 0 84.166 13.509 1137 105.424 644.048 457.718
195 0 88.3275 13.348 1179 105.422 644.427 457.662
196 0 88.3275 13.348 1179 141.069 645.414 457.745
197 0 94.3641 12.6955 1198 108.227 644.575 448.791
198 0 98.4504 12.6358 1244 108.639 644.413 447.785
199 0 101.503 12.8174 1301 108.417 644.708 447.729
200 0 106.476 13.1673 1402 107.072 643.861 447.661
201 0 106.476 13.1673 1402 148.6 644.857 447.734
202 0 110.351 12.3334 1361 112.223 643.345 440.697
203 0 115.313 13.1122 1512 110.162 644.291 440.251
204 1 61.1963 11.5693 708 104.511 643.846 470.23
205 0 62.1669 10.697 665 107.474 644.065 467.657
206 0 67.1867 11.9815 805 104.145 644.651 466.717
207 0 69.0967 12.2871 849 102.889 645.277 467.254
208 0 72.0657 12.558 905 101.055 645.601 467.76
209 0 75.1242 12.9386 972 100.449 647.258 464.933
210 0 76.1048 12.2988 936 102.999 646.864 465.434
211 0 79.12 13.0308 1031 101.524 646.753 463.535
212 0 82.0483 12.7973 1050 103.106 645.034 462.814
213 0 83.0779 12.085 1004 106.405 645.837 459.206
214 0 86.0379 12.2737 1056 106.867 645.557 458.903
215 0 89.1545 11.7997 1052 108.758 645.218 457.476
216 0 92.1054 12.9743 1195 107.741 646.585 455.24
217 0 95.1459 12.2969 1170 110.258 645.926 454.849
218 0 98.0625 12.9407 1269 109.421 646.036 451.544
219 0 101.236 12.3178 1247 112.361 645.375 450.888
220 0 104.201 12.1688 1268 113.034 645.231 449.579
221 0 109.153 12.4138 1355 112.344 645.215 450.656
222 0 113.358 13.8764 1573 112.007 645.085 443.795
223 1 59.0693 11.5796 684 115.794 645.732 473.434
224 0 62.121 12.9908 807 112.079 645.038 472.824
225 0 64.0638 12.1754 780 116.319 643.683 471.621
226 0 67.0236 12.9357 867 116.057 644.612 468.506
227 0 66.025 12.4044 819 118.498 643.827 467.874
228 0 70.0754 12.9432 907 116.946 643.25 466.196
229 0 74.0625 13.1241 972 115.524 643.136 465.708
230 0 74.0625 12.989 962 140.965 642.134 465.714
231 0 78.065 12.8867 1006 117.233 643.118 462.473
232 0 82.086 13.5955 1116 114.444 642.761 461.052
233 0 83.1243 12.4993 1039 118.331 643.524 460.391
234 0 87.13 12.7625 1112 118.176 643.784 456.473
235 0 90.1499 14.7088 1326 112.769 643.92 457.534
236 0 94.1666 12.6372 1190 118.319 643.896 454.848
237 0 98.1813 13.8927 1364 115.704 644.323 454.153
238 0 100.162 12.7893 1281 112.817 644.491 454.232
239 1 51.1427 10.7738 551 116.279 644.212 475.111
240 0 56.073 12.2162 685 110.152 644.674 475.035
241 0 56.0776 12.1082 679 115.059 643.959 474.373
242 0 57.0724 11.792 673 115.123 643.964 474.315
243 0 59.1993 12.8042 758 114.463 645.996 473.343
244 0 61.2079 13.4296 822 112.544 646.018 473.373
245 0 62.3553 12.1722 759 115.8 646.538 472.759
246 0 65.267 13.3911 874 113.905 646.576 469.26
247 0 66.4748 12.2152 812 116.792 646.941 469.276
248 0 69.4842 12.9814 902 114.939 647.114 467.792
249 0 72.428 13.4202 972 113.082 647.116 467.207
250 0 73.162 12.9165 945 116.435 647.329 465.178
251 0 77.3544 12.6431 978 116.022 647.035 464.591
252 0 80.3422 13.7661 1106 112.14 647.033 464.14
253 0 81.3116 13.5897 1105 114.184 645.71 460.357
254 0 84.3564 13.5615 1144 113.528 645.952 460.913
255 0 84.3564 13.4904 1138 150.019 645.967 461.005
256 0 91.265 13.1485 1200 113.841 645.253 458.224
257 0 94.3169 12.9033 1217 114.021 645.975 458.599
258 1 49.3237 11.901 587 110.341 645.056 475.804
259 0 48.0785 11.6268 559 103.222 644.848 479.995
260 0 50.036 12.6909 635 101.729 646.998 477.202
261 0 51.0825 11.6478 595 104.103 646.988 476.608
262 0 54.0491 12.7107 687 101.108 646.766 476.62
263 0 55.0705 13.2376 729 100.458 646.443 473.874
264 0 57.0912 12.4713 712 102.338 646.541 475.68
265 0 57.028 11.7486 670 105.16 644.916 473.248
266 0 57.0269 11.7488 670 133.616 643.916 473.248
267 0 62.0292 12.1556 754 104.31 645.481 472.963
268 0 64.0616 12.6129 808 103.829 645.077 470.786
269 0 66.0969 12.5573 830 103.948 645.094 471.596
270 0 68.0696 13.1042 892 103.52 644.36 468.776
271 0 70.0763 12.7575 894 103.414 644.39 470.566
272 0 73.0356 13.6919 1000 101.986 644.749 465.499
273 0 73.0755 12.3844 905 105.515 644.562 466.052
274 0 76.1162 12.9933 989 104.783 644.266 466.224
275 0 76.1162 13.0327 992 136.264 644.296 466.08
276 0 77.1198 14.1339 1090 131.808 644.364 464.321
277 0 84.0618 12.693 1067 105.167 644.591 462.877
278 0 87.1663 11.7706 1026 107.096 644.459 463.107
279 0 88.1139 12.5406 1105 107.852 645.125 459.043
280 0 92.0785 12.6414 1164 106.767 645.57 457.913
281 0 94.1255 12.154 1144 106.677 645.252 458.712
282 1 50.0287 11.7133 586 103.611 645.683 479.98
283 0 51.1668 10.3778 531 108.729 647.529 474.71
284 0 53.2154 11.0306 587 106.687 647.106 474.179
285 0 53.0716 11.965 635 105.534 647.211 476.112
286 0 56.0338 12.6352 708 103.355 647.616 474.585
287 0 56.0731 12.8225 719 105.506 647.346 474.071
288 0 58.0828 13.2742 771 103.968 647.304 474.41
289 0 60.1429 13.601 818 103.76 647.293 471.645
290 0 63.0407 12.2936 775 105.999 647.396 470.502
291 0 63.0519 13.4651 849 103.754 647.057 469.912
292 0 66.117 14.4895 958 100.703 646.609 469.122
293 0 69.0614 13.5242 934 102.378 646.496 468.352
294 0 71.0777 12.409 882 104.748 646.118 467.459
295 0 73.0471 12.8684 940 103.854 645.636 466.676
296 0 77.0833 12.3892 955 104.805 645.919 464.146
297 0 80.0922 12.8352 1028 104.035 645.994 463.541
298 0 82.0646 12.5633 1031 105.163 646.329 462.755
299 0 84.1218 12.4344 1046 106.601 644.506 459.55
300 0 86.1216 12.4823 1075 107.513 644.02 457.565
301 0 89.08 12.6628 1128 106.976 645.175 459.731
302 0 89.08 12.5842 1121 126.516 645.141 459.64
303 1 49.0695 11.2494 552 108.891 646.299 477.121
304 0 51.2225 12.3383 632 106.389 644.929 474.835
305 0 54.0802 12.1856 659 101.343 644.739 473.866
306 0 54.0194 11.6255 628 103.376 644.342 475.909
307 0 56.0617 12.2008 684 102.69 645.11 474.392
308 0 60.0265 12.8277 770 99.8156 644.213 474.962
309 0 61.0266 12.7158 776 101.385 644.108 473.233
310 0 63.0527 13.3381 841 101.08 644.413 471.589
311 0 64.0403 12.539 803 102.073 644.527 470.39
312 0 66.1331 12.9285 855 102.32 644.946 469.296
313 0 68.0209 13.4665 916 101.978 645.247 466.749
314 0 72.09 14.0519 1013 100.742 644.4 466.323
315 0 74.0367 13.5608 1004 104.269 643.84 466.366
316 0 77.0832 12.7914 986 104.862 644.896 464.52
317 0 78.0698 11.874 927 107.283 644.272 463.252
318 0 84.1538 13.4634 1133 102.774 644.771 462.696
319 0 83.1063 11.8403 984 107.073 645.184 461.228
320 0 86.1231 12.0525 1038 106.376 644.956 459.824
321 0 90.1187 13.2714 1196 105.171 645.497 456.826
322 0 95.1219 12.9518 1232 105.185 645.12 456.65
323 0 99.0649 13.264 1314 103.86 644.998 456.651
324 0 100.062 11.4229 1143 110.234 645.165 454.218
325 1 51.0737 11.1799 571 108.625 645.385 477.478
326 0 55.0935 12.4516 686 104.045 645.956 475.726
327 0 54.0148 10.8859 588 111.694 646.209 473.502
328 0 56.0736 10.6289 596 111.78 645.586 474.471
329 0 58.1053 12.0127 698 109.562 646.163 472.822
330 0 61.1766 13.1259 803 106.438 646.279 472.472
331 0 61.1368 11.2698 689 110.967 646.03 473.277
332 0 64.1341 11.7566 754 109.786 644.611 470.402
333 0 66.1156 12.463 824 108.842 644.302 469.723
334 0 68.1995 11.4077 778 111.113 645.294 468.843
335 0 70.1542 11.5603 811 112.163 644.98 467.404
336 0 73.1884 13.2261 968 109.295 645.168 465.491
337 0 76.2437 12.1584 927 111.283 644.715 467.127
338 0 79.182 12.326 976 111.73 644.683 465.625
339 0 80.1169 12.7314 1020 111.969 645.612 464.449
340 0 82.2544 12.3276 1014 114.003 645.491 463.588
341 0 86.1629 12.2559 1056 115.75 645.284 461.894
342 0 89.1368 12.8118 1142 113.882 645.48 460.169
343 0 92.1789 12.8663 1186 115.16 644.675 461.656
344 0 94.1424 12.1093 1140 118.827 645.306 456.773
345 0 97.3385 11.9788 1166 119.529 645.673 457.024
346 0 100.163 11.5611 1158 116.541 645.883 454.69
347 1 52.0504 11.412 594 115.162 647.123 479.271
348 0 55.1557 13.3078 734 111.163 646.76 478.061
349 0 55.2252 12.7659 705 113.203 646.611 478.58
350 0 59.0868 15.0118 887 107.754 646.701 476.731
351 0 60.1195 13.7559 827 112.258 646.215 475.99
352 0 61.0948 14.5184 887 111.579 646.552 474.714
353 0 63.0938 13.6622 862 113.092 646.22 473.187
354 0 66.1415 14.6958 972 110.477 646.496 472.059
355 0 69.1462 14.8092 1024 111.162 646.396 470.612
356 0 70.1238 13.961 979 114.147 646.286 471.178
357 0 73.1453 13.9448 1020 113.734 646.498 471.092
358 0 73.1849 13.4727 986 116.855 646.186 468.989
359 0 77.1494 13.6877 1056 115.929 646.827 467.105
360 0 79.1692 13.8438 1096 116.313 646.884 466.71
361 0 82.0971 13.0333 1070 115.752 647.351 463.501
362 0 83.0381 12.9218 1073 116.866 646.791 463.727
363 0 88.0938 13.6105 1199 114.05 646.692 464.887
364 0 89.091 13.9184 1240 115.71 645.901 460.241
365 1 48.0694 11.9411 574 121.274 645.246 481.28
366 0 50.0234 13.0339 652 118.637 645.367 479.555
367 0 51.1149 13.1077 670 120.106 644.957 478.979
368 0 53.0176 13.8633 735 119.393 646.976 478.494
369 0 53.0134 13.1288 696 122.478 646.537 478.023
370 0 53.0561 13.0993 695 123.852 646.804 477.455
371 0 57.0281 13.923 794 120.618 646.777 476.859
372 0 59.0815 13.6422 806 119.89 646.875 475.562
373 0 61.1064 13.9756 854 119.481 647.274 475.242
374 0 63.0452 13.9582 880 119.595 647.244 473.214
375 0 65.0247 14.3638 934 118.595 647.527 472.274
376 0 68.0721 13.7795 938 118.836 647.391 471.566
377 0 68.036 13.875 944 119.406 647.447 470.624
378 0 71.0831 13.7163 975 118.296 647.859 470.907
379 0 75.0799 13.5056 1014 118.126 647.433 467.902
380 0 76.0644 13.1468 1000 119.537 646.947 467.564
381 0 80.068 15.3744 1231 112.792 646.712 467.08
382 0 81.0371 14.4872 1174 116.19 646.399 464.668
383 0 85.0892 14.808 1260 114.628 646.325 463.209
384 0 86.1303 13.2009 1137 119.071 646.032 462.626
385 0 90.1894 14.2367 1284 116.91 646.808 461.056
386 0 93.0669 14.0974 1312 118.246 646.688 458.899
387 0 97.1279 14.1566 1375 118.079 646.396 459.201
388 0 102.183 15.3549 1569 115.001 646.449 455.772
389 0 102.137 14.324 1463 119.314 645.91 454.184
390 0 107.088 14.8756 1593 117.223 645.525 453.321
391 0 110.139 14.2184 1566 119.718 646.144 452.252
392 0 113.256 12.8028 1450 123.619 646.032 451.099
393 0 118.169 14.8347 1753 118.077 645.888 445.529
394 0 120.363 13.3928 1612 115.55 646.082 441.42
395 0 126.251 11.8256 1493 119.697 645.902 440.534
396 0 130.26 11.8993 1550 120.034 646.342 438.475
397 0 134.211 11.8545 1591 122.096 646.045 436.283
398 1 74.0828 12.2026 904 117.502 645.945 461.668
399 0 78.139 12.8105 1001 115.264 647.318 463.727
400 0 79.1061 12.8435 1016 113.929 646.776 464.97
401 0 83.0664 12.9776 1078 114.526 646.99 462.525
402 0 83.1321 12.438 1034 117.806 646.901 461.559
403 0 88.1113 13.3354 1175 115.983 646.486 459.444
404 0 89.0404 12.0844 1076 121.048 645.924 457.628
405 0 92.0412 12.527 1153 121.637 646.234 455.926
406 0 95.1669 12.641 1203 121.394 646.332 455.24
407 0 97.1489 12.5066 1215 122.105 644.83 453.9
408 0 103.108 13.8689 1430 119.434 645.511 453.643
409 0 106.074 13.6131 1444 120.35 646.223 451.352
410 0 109.104 12.5568 1370 123.941 646.783 448.715
411 0 115.1 13.3363 1535 124.711 646.519 445.994
412 0 121.193 14.1509 1715 126.434 645.477 444.164
413 1 65.0839 12.0921 787 120.05 646.062 473.6
414 0 66.0259 12.3891 818 118.65 645.738 472.115
415 0 70.1811 13.5792 953 115.261 645.802 469.759
416 0 70.1474 13.6712 959 117.123 645.944 468.749
417 0 74.187 13.749 1020 116.184 646.153 470.372
418 0 75.1503 13.9986 1052 117.027 646.152 468.814
419 0 76.0826 12.0921 920 123.347 645.585 468.953
420 0 76.0826 12.1973 928 149.15 644.6 468.873
421 0 83.1244 13.0648 1086 120.209 645.148 465.084
422 0 84.1415 14.4637 1217 118.169 645.251 462.89
423 0 87.05 13.4291 1169 120.553 645.619 461.848
424 0 90.1954 13.1603 1187 119.748 645.534 462.184
425 0 94.1001 13.4856 1269 119.606 644.714 457.873
426 0 95.2688 13.8975 1324 120.049 645.088 457.189
427 0 99.1817 13.6013 1349 121.669 645.066 456.636
428 0 102.267 13.6896 1400 121.154 645.295 455.159
429 0 107.246 13.2499 1421 122.38 645.88 452.858
430 0 110.21 14.182 1563 121.106 645.238 448.254
431 0 114.238 14.2684 1630 120.344 646.057 448.287
432 0 119.261 14.5228 1732 119.327 645.574 445.409
433 0 121.326 13.4267 1629 122.769 645.688 444.749
434 1 65.1363 11.499 749 119.959 646.654 473.786
435 0 67.0813 12.4625 836 118.287 646.371 473.733
436 0 70.1915 14.6457 1028 112.214 646.111 470.293
437 0 73.1707 13.079 957 116.324 646.292 470.406
438 0 75.2163 13.8401 1041 114.618 646.833 468.327
439 0 77.0889 13.0628 1007 117.38 646.072 466.008
440 0 80.1096 14.1057 1130 113.888 646.854 464.482
441 0 83.1143 14.4019 1197 112.983 646.368 463.487
442 0 84.0577 14.1807 1192 114.86 645.997 461.997
443 0 84.0577 14.1807 1192 139.97 644.992 462.056
444 0 84.0759 14.2134 1195 139.367 643.974 462.054
445 0 93.1586 13.3428 1243 117.288 646.088 458.464
446 0 95.2697 12.9527 1234 119.991 646.147 452.38
447 0 100.161 14.3968 1442 116.178 645.753 451.924
448 0 104.213 13.6739 1425 117.741 646.493 451.121
449 0 107.28 13.7397 1474 118.556 646.675 446.743
450 0 114.318 14.4334 1650 115.41 646.9 448.374
451 0 117.301 14.1005 1654 118.759 646.692 444.089
452 0 118.286 14.8623 1758 117.998 646.451 442.907
453 0 123.435 13.578 1676 122.533 647.2 439.109
454 0 130.459 16.2273 2117 115.017 647.194 439.385
455 0 133.377 15.0401 2006 119.485 647.095 433.393
456 0 138.394 13.8951 1923 122.59 647.211 433.134
457 0 143.474 15.5917 2237 118.665 646.795 430.184
458 0 148.504 16.0939 2390 117.097 646.429 428.667
459 0 154.568 15.7277 2431 117.66 645.984 424.724
460 0 158.424 16.014 2537 115.518 645.779 421.095
461 1 87.4443 13.3914 1171 118.679 646.887 458.763
462 0 88.3822 13.5774 1200 119.078 646.786 459.647
463 0 91.4026 14.2775 1305 118.466 646.32 456.909
464 0 96.5016 13.7718 1329 119.992 646.687 454.445
465 0 99.2825 14.8566 1475 117.851 647.158 453.578
466 0 101.438 13.8015 1400 121.695 646.248 451.659
467 0 106.403 13.7779 1466 121.321 646.082 449.873
468 0 106.411 13.852 1474 151.799 646.073 449.872
469 0 117.31 14.7387 1729 119.737 646.229 445.517
470 0 119.439 15.263 1823 119.984 646.303 444.896
471 0 123.417 13.9041 1716 124.189 646.145 440.175
472 0 127.482 13.5078 1722 125.941 645.644 438.812
473 0 131.374 14.1885 1864 126.648 646.44 435.469
474 0 137.454 15.3288 2107 120.473 646.772 434.437
475 0 142.38 15.4235 2196 123.881 647.337 432.893
476 0 146.383 15.2272 2229 124.079 647.062 432.035
477 0 150.315 14.9287 2244 126.122 646.467 430.498
478 0 156.411 15.7597 2465 124.072 646.838 427.034
479 0 160.336 14.8313 2378 127.218 646.469 425.835
480 0 169.206 14.8517 2513 125.22 645.748 425.074
481 1 75.0668 13.1483 987 124.661 645.403 467.839
482 0 77.0397 14.6288 1127 123.324 645.377 463.825
483 0 79.0477 14.7253 1164 123.237 645.7 463.909
484 0 81.1359 13.3973 1087 126.901 645.839 462.013
485 0 84.2336 13.4626 1134 126.637 645.278 461.907
486 0 88.1677 14.0187 1236 125.633 645.18 458.636
487 0 93.1808 14.5953 1360 122.66 646.215 459.36
488 0 96.1547 14.3519 1380 124.751 645.682 455.676
489 0 100.135 15.0197 1504 122.695 645.918 453.572
490 0 102.216 14.4693 1479 125.399 646.425 451.116
491 0 106.238 13.658 1451 126.394 645.935 451.546
492 0 110.236 14.1606 1561 125.308 645.751 448.589
493 0 116.187 13.814 1605 125.146 645.807 446.481
494 1 55.1087 12.3393 680 124.799 646.15 472.104
495 0 59.3312 13.905 825 120.326 646.544 467.915
496 0 61.1523 12.7714 781 120.373 645.972 471.657
497 0 63.2022 14.778 934 116.163 646.207 469.084
498 0 65.2986 13.6297 890 119.034 646.546 467.927
499 0 68.1417 13.5306 922 118.436 646.36 465.846
500 0 68.3081 13.7612 940 121.306 646.09 466.18
501 0 72.1063 13.7713 993 123.584 645.71 464.103
502 0 74.4086 13.8156 1028 123.781 645.716 463.602
503 0 77.2145 13.2618 1024 125.913 645.827 461.664
504 0 78.2247 13.18 1031 125.864 646.038 461.477
505 0 82.2115 12.9787 1067 127.01 645.786 457.548
506 0 84.2218 13.7019 1154 126.376 645.913 456.276
507 0 86.3898 13.6359 1178 126.596 645.992 455.422
508 0 88.285 13.0147 1149 128.798 646.285 453.997
509 0 88.2897 12.9913 1147 153.776 646.28 453.84
510 0 94.5207 12.7168 1202 130.629 645.697 448.906
511 0 98.1945 14.6138 1435 125.155 645.687 447.455
512 0 100.34 13.3346 1338 129.532 645.131 443.572
513 0 105.25 13.9288 1466 127.602 645.448 444.278
514 0 110.414 13.9475 1540 127.491 646.379 439.64
515 0 112.245 13.1588 1477 128.445 645.978 439.777
516 1 58.1966 8.7634 510 127.186 645.502 463.518
517 0 62.1687 11.0988 690 122.922 645.609 458.735
518 0 62.127 10.8005 671 123.779 645.924 457.526
519 0 64.1398 11.054 709 124.024 647.236 464.429
520 0 68.0662 11.7092 797 121.762 647.287 464.725
521 0 70.1099 11.7102 821 122.318 646.541 461.989
522 0 73.1528 12.8908 943 120.117 646.428 459.328
523 0 74.2118 13.5827 1008 118.935 647.011 458.321
524 0 76.1805 12.3916 944 122.464 646.21 458.38
525 0 80.3421 12.0734 970 122.562 645.929 457.176
526 0 82.3285 12.9967 1070 121.93 645.884 454.692
527 0 83.2441 11.7966 982 125.56 645.367 453.662
528 0 86.1692 12.4406 1072 124.924 645.898 448.056
529 0 90.1919 13.5156 1219 121.844 646.078 448.17
530 0 92.2121 12.3303 1137 125.821 646.512 446.439
531 0 97.2311 13.0308 1267 123.807 646.228 444.589
532 0 99.4429 12.7711 1270 123.894 646.083 442.68
533 0 101.288 12.6274 1279 125.084 646.11 441.408
534 1 53.0594 9.63071 511 119.472 646.677 466.83
535 0 55.2708 11.1813 618 117.785 646.862 466.322
536 0 58.2292 12.7256 741 113.138 646.942 467.957
537 0 58.2292 12.7256 741 129.297 647.926 467.916
538 0 58.1175 10.8229 629 120.498 646.758 468.405
539 0 59.187 10.678 632 122.294 646.337 465.366
540 0 64.2829 11.8227 760 117.414 646.128 467.48
541 0 62.2176 10.6722 664 123.492 645.986 463.732
542 0 66.3192 11.3391 752 120.923 645.899 461.664
543 0 68.2234 11.5796 790 120.733 646.256 459.373
544 0 71.3771 12.1327 866 120.62 645.969 457.059
545 0 73.2779 11.7907 864 122.294 646.521 456.988
546 0 74.1905 11.3626 843 123.973 646.134 454.274
547 0 79.4421 12.5123 994 120.685 646.011 453.819
548 0 81.2709 12.5014 1016 120.987 646.158 452.887
549 0 85.3411 11.7646 1004 121.811 646.738 452.198
550 0 86.251 13.0781 1128 118.246 646.554 449.444
551 0 91.3169 11.6189 1061 121.194 646.6 448.417
552 1 46.2506 10.4864 485 119.553 646.812 468.831
553 0 49.1287 11.5411 567 116.954 646.136 470.908
554 0 53.1665 11.8496 630 115.908 644.795 473.337
555 0 56.1506 13.3569 750 112.732 645.107 474.536
556 0 57.2677 12.5725 720 116.392 646.086 473.804
557 0 58.3477 13.5395 790 114.613 646.615 471.232
558 0 58.1022 11.6347 676 118.251 645.905 469.386
559 0 59.098 12.8431 759 114.972 645.63 467.63
560 0 59.2252 13.2714 786 115.849 646.892 467.926
561 0 63.0838 13.2205 834 114.97 646.561 464.129
562 0 62.0829 13.3209 827 138.398 646.55 464.196
563 0 64.2017 13.2084 848 117.967 646.228 460.971
564 0 66.1495 13.6963 906 117.828 646.055 460.084
565 0 68.1368 12.2841 837 122.671 645.492 459.183
566 0 70.1529 12.7293 893 122.757 646.436 457.19
567 0 72.1367 14.2091 1025 119.096 646.311 456.787
568 0 71.3647 11.8546 846 126.654 645.92 455.936
569 0 71.1786 13.5715 966 124.223 646.091 455.827
570 0 75.3035 12.5227 943 126.279 646.337 454.454
571 0 78.2148 12.9004 1009 125.79 646.12 453.123
572 0 81.3702 13.3341 1085 123.837 646.283 450.749
573 0 85.2148 13.4601 1147 123.206 646.318 452.186
574 0 88.2273 14.0773 1242 121.984 646.713 450.527
575 0 89.2521 14.8008 1321 120.297 647.129 449.078
576 0 90.1837 12.8183 1156 127.25 646.792 449.18
577 0 93.3253 12.4404 1161 127.772 646.237 447.789
578 0 100.156 12.3907 1241 125.283 646.619 447.868
579 0 100.347 12.6063 1265 126.085 646.679 442.443
580 0 106.344 12.469 1326 124.852 646.281 440.62
581 0 109.274 11.8967 1300 125.638 646.198 440.186
582 0 114.484 12.9538 1483 121.158 646.55 439.872
583 0 117.252 12.1021 1419 123.717 646.586 437.002
584 0 123.192 12.0057 1479 123.571 647.095 437.026
585 1 67.0903 10.2697 689 112.861 646.808 468.036
586 0 70.2224 11.7626 826 111.489 647.222 465.349
587 0 73.0612 11.9215 871 115.18 645.393 465.403
588 0 78.0923 13.0743 1021 110.355 645.217 465.549
589 0 79.1857 12.5275 992 112.893 645.705 463.465
590 0 83.1379 11.7636 978 114.166 645.535 463.122
591 0 84.0962 12.5214 1053 117.644 645.662 460.963
592 0 88.2249 13.0009 1147 115.493 645.72 459.04
593 0 89.2946 12.1844 1088 117.665 645.971 457.745
594 0 93.2637 11.4836 1071 117.851 646.35 455.43
595 0 95.1001 11.3354 1078 115.29 645.883 455.433
596 0 98.2061 11.4351 1123 114.862 645.98 454.301
597 0 101.064 10.9831 1110 116.142 646.08 453.395
598 0 104.092 10.6829 1112 117.147 646.552 451.383
599 0 108.074 11.8437 1280 115.69 646.113 446.675
600 0 113.099 12.2548 1386 113.112 645.778 445.746
601 0 116.132 11.263 1308 116.753 646.125 446.039
602 0 118.166 10.2652 1213 119.603 645.796 441.606
603 0 123.186 11.3325 1396 116.995 645.416 437.414
604 1 71.054 9.9924 710 108.463 645.561 467.348
605 0 74.1121 11.9549 886 100.669 646.045 465.12
606 0 75.1916 9.81492 738 106.612 645.779 463.837
607 0 78.0383 10.7255 837 104.201 646.639 464.64
608 0 80.1536 10.7668 863 103.662 646.382 463.188
609 0 84.1493 11.2895 950 102.739 647.271 462.727
610 0 86.1232 11.5068 991 102.291 646.828 460.131
611 0 86.0867 10.6637 918 105.217 647.303 458.68
612 0 90.1498 11.015 993 104.137 647.154 455.559
613 0 94.1682 11.9467 1125 103.228 646.916 455.113
614 0 94.1682 11.9998 1130 116.493 646.911 455.097
615 0 99.1699 10.8904 1080 106.243 647.149 456.161
616 0 102.247 12.4893 1277 103.889 647.59 454.293
617 0 104.201 11.1419 1161 106.813 647.237 452.67
618 0 106.196 11.8272 1256 106.611 647.28 452.289
619 0 111.242 11.3806 1266 107.889 646.92 447.983
620 0 112.235 9.39102 1054 112.288 647.345 448.347
621 0 117.234 10.6625 1250 108.744 647.443 448.324
622 0 121.27 11.1404 1351 108.924 646.481 447.354
623 0 123.409 10.6799 1318 112.009 646.389 435.814
624 0 129.337 12.278 1588 108.635 646.023 440.24
625 0 133.277 12.0425 1605 109.75 645.842 437.19
626 0 137.345 11.6495 1600 112.199 645.701 436.007
627 0 140.301 10.6343 1492 114.727 646.531 433.295
628 0 145.197 11.6118 1686 113.77 646.018 429.136
629 0 150.199 10.8589 1631 117.006 645.863 428.552
630 0 157.219 12.3204 1937 116.848 646.351 424.319
631 0 163.296 12.4559 2034 117.446 645.886 422.734
632 0 167.477 11.4463 1917 120.709 645.134 415.381
633 0 173.29 12.1415 2104 120.355 645.827 416.306
634 0 179.314 12.9159 2316 119.148 644.902 411.768
635 0 184.282 13.5065 2489 118.779 645.095 409.797
636 0 191.349 12.8718 2463 121.073 644.879 403.689
637 0 196.276 11.5195 2261 124.798 645.702 399.516
638 0 203.32 12.8369 2610 121.359 644.913 400.502
639 0 212.307 12.6327 2682 122.353 645.911 392.187
640 0 221.407 13.6129 3014 119.806 645.947 391.732
641 1 168.196 12.2952 2068 119.322 645.509 418.107
642 0 174.328 12.6543 2206 118.265 644.563 417.466
643 0 178.29 12.1544 2167 120.072 645.046 417.096
644 0 185.398 13.3874 2482 118.957 645.845 412.368
645 0 189.491 12.9558 2455 126.591 644.566 404.053
646 0 195.39 12.8256 2506 127.998 644.486 405.903
647 0 201.49 12.6309 2545 128.116 644.651 400.4
648 0 209.314 14.3373 3001 124.19 645.453 398.464
649 0 215.503 13.4708 2903 128.056 645.19 396.021
650 0 222.429 15.0475 3347 123.141 644.768 394.952
651 0 230.246 13.3292 3069 128.721 645.066 386.806
652 0 236.207 12.6922 2998 123.271 645.52 381.387
653 1 173.106 12.3393 2136 120.743 646.596 410.324
654 0 177.122 11.3651 2013 121.635 646.511 404.55
655 0 183.202 11.8557 2172 118.137 646.45 404.885
656 0 190.311 12.4638 2372 117.61 646.397 398.587
657 0 197.235 13.3648 2636 114.838 644.924 396.697
658 0 200.277 11.7737 2358 119.55 644.794 393.685
659 0 209.336 13.7148 2871 116.56 645.29 387.464
660 0 213.449 13.057 2787 122.201 645.14 389.357
661 0 218.499 13.2586 2897 126.202 645.441 380.858
662 0 223.431 13.6642 3053 125.432 644.627 377.389
663 0 233.496 13.7347 3207 122.028 644.781 376.031
664 0 240.397 13.6025 3270 120.573 645.479 372.22
665 0 239.407 13.4499 3220 153.184 646.465 371.209
666 0 243.331 10.7179 2608 122.93 644.912 378.979
667 1 194.242 11.3415 2203 119.336 644.958 396.482
668 0 202.316 12.8067 2591 122.917 645.048 392.488
669 0 210.252 12.9796 2729 118.769 645.387 389.777
670 0 216.212 12.5756 2719 122.195 644.979 391.661
671 0 222.23 12.9371 2875 122.877 644.736 388.45
672 0 230.365 13.331 3071 120.621 644.33 387.77
673 0 230.368 13.3005 3064 150.576 644.328 387.731
674 1 243.485 12.9659 3157 124.115 644.157 377.28
675 0 252.565 13.1095 3311 124.172 645.059 368.136
676 0 259.449 12.831 3329 124.882 644.739 367.123
677 1 60.1117 9.93151 597 105.826 644.268 474.782
678 0 60.1881 10.1847 613 105.189 644.997 472.049
679 0 63.0715 11.2253 708 106.325 644.476 474.072
680 0 62.1265 10.382 645 100.132 645.994 475.392
681 0 62.1046 10.0959 627 102.48 647.627 467.566
682 0 64.1047 9.1413 586 106.343 646.63 470.534
683 0 66.1406 10.2207 676 102.828 646.663 468.027
684 0 70.0706 9.67595 678 102.021 646.86 470.971
685 0 70.2052 10.2841 722 101.292 646.079 469.789
686 1 106.398 6.08093 647 103.325 647.416 463.391
687 0 110.115 12.7684 1406 81.5135 647.158 451.361
688 0 99.6271 16.4212 1636 76.4804 647.31 443.9
689 0 92.2579 14.8172 1367 87.0512 647.454 448.487
690 0 85.3583 10.8601 927 102.211 647.593 440.679
691 0 90.2862 11.3196 1022 100.151 647.138 447.293
692 0 89.313 10.1777 909 99.5072 646.289 455.358
693 0 90.1312 11.4167 1029 108.882 643.936 455.044
694 0 96.29 10.9669 1056 109.874 645.236 451.241
695 0 101.345 10.7257 1087 110.009 645.27 449.876
696 0 107.261 13.1829 1414 102.412 644.469 453.2
697 0 110.376 12.9829 1433 104.435 644.823 448.509
698 0 111.282 11.763 1309 105.841 644.844 452.283
699 0 115.405 12.0185 1387 107.149 644.697 445.329
700 0 118.309 13.2196 1564 104.018 644.668 443.211
701 0 123.333 13.4757 1662 103.494 644.996 444.511
702 0 125.506 14.4614 1815 102.222 644.783 438.943
703 0 128.35 12.7698 1639 107 644.459 437.417
704 0 130.234 11.1722 1455 103.132 644.36 441.559
705 0 133.29 11.7788 1570 103.678 645.306 433.643
706 0 137.276 12.3474 1695 102.372 645.076 435.535
707 0 142.397 11.0396 1572 106.116 646.181 427.274
708 0 145.471 11.8374 1722 106.131 646.411 423.51
709 0 152.39 12.6058 1921 103.761 646.308 420.461
710 0 154.38 11.6725 1802 108.031 645.855 417.017
711 0 161.493 12.917 2086 103.874 646.304 420.281
712 0 163.389 11.6409 1902 108.104 645.744 414.983
713 0 169.331 11.262 1907 108.416 645.567 418.004
714 0 174.391 11.8698 2070 109.298 646.775 410.578
715 0 179.38 11.2053 2010 109.717 646.513 410.977
716 0 184.373 11.2815 2080 111.53 646.135 404.627
717 0 189.447 10.7999 2046 112.219 646.842 405.642
718 0 196.507 10.1523 1995 112.677 646.399 402.339
719 0 203.42 11.6852 2377 110.627 646.619 399.081
720 0 209.455 11.4106 2390 114.199 645.197 396.235
721 0 214.381 12.3519 2648 113.125 645.488 391.636
722 0 221.338 11.4892 2543 114.163 646.797 389.038
723 0 226.49 12.2743 2780 112.876 647.353 389.699
724 0 229.382 11.5353 2646 115.515 646.582 390.523
725 0 234.677 10.8234 2540 117.988 645.625 389.57
726 0 239.583 10.2595 2458 125.92 644.954 379.568
727 0 248.662 11.1517 2773 118.383 645.639 380.006
728 1 88.311 9.29669 821 104.604 646.881 460.448
729 0 91.4792 9.99135 914 104.951 647.318 460.271
730 0 95.4926 12.0742 1153 103.278 646.691 458.267
731 0 94.1169 9.52007 896 111.171 646.955 456.705
732 0 97.8231 11.6946 1144 107.25 646.729 455.967
733 0 97.8577 10.4846 1026 105.444 646.393 458.022
734 1 32.1079 8.56486 275 103.051 648.862 489.378
735 0 34.0113 10.6729 363 98.6446 647.127 489.755
736 0 32.0145 9.02715 289 103.592 647.01 490.491
737 0 34.0683 8.92325 304 102.878 647.072 491.257
738 0 34.0292 8.9335 304 103.707 646.951 491.224
739 0 33.0411 9.17039 303 104.917 646.861 489.403
740 0 33.0416 7.80833 258 107 647.477 490.903
741 0 35.0992 9.34495 328 103.71 647.54 489.223
742 0 32.0051 8.37366 268 106.918 646.627 492.985
743 0 32.0897 8.75669 281 107.466 648.082 490
744 0 33.1112 7.88252 261 110.356 648.421 489.268
745 0 33.0754 9.19113 304 107.171 648.711 489.391
746 0 32.1126 8.09651 260 110.708 648.096 488.912
747 0 35.1224 9.16794 322 107.863 647.916 488.28
748 0 36.0909 10.6121 383 103.903 647.99 488.376
749 0 36.0805 10.5043 379 104.158 647.842 487.96
750 0 37.1476 10.4179 387 101.977 648.315 488.822
751 0 38.1523 10.1436 387 102.328 648.021 485.974
752 0 38.1657 10.8474 414 100.877 648.106 486.118
753 0 39.0829 10.4394 408 101.245 648.257 486.828
754 0 40.0851 11.6752 468 97.5256 648.556 487.28
755 0 38.0833 11.1335 424 101.007 648.163 486.17
756 0 38.0654 12.2421 466 98.6481 649.094 486.281
757 0 39.0335 11.7848 460 99.6087 648.454 486.1
758 0 38.0379 10.3055 392 103.607 648.365 486.847
759 0 39.0377 10.682 417 101.71 648.365 486.005
760 0 37.0713 10.7631 399 102.393 647.431 487.281
761 0 39.0431 11.0391 431 100.383 647.742 486.107
762 0 36.0596 10.5104 379 104.005 647.953 489.018
763 0 39.0628 11.5967 453 99.1744 647.143 487.883
764 0 35.0375 10.0178 351 107.04 647.464 489.071
765 0 35.0135 9.4535 331 107.178 647.988 489.32
766 0 35.0532 8.92929 313 108.39 647.042 490.313
767 0 34.0531 9.42645 321 109.302 647.505 488.604
768 0 36.0253 12.1026 436 103.534 646.706 487.282
769 0 37.0402 9.47618 351 106.601 647.276 489.86
770 0 36.0274 9.79809 353 107.955 647.439 486.994
771 0 35.0282 9.10694 319 110.398 647.461 489.107
772 0 34.0907 9.06404 309 111.188 647.563 488.553
773 0 37.0681 10.3323 383 106.17 647.681 489.238
774 0 36.0529 9.79116 353 107.085 648.462 488.354
775 0 36.0578 9.5957 346 107.523 647.604 487.908
776 0 36.0604 9.87234 356 107.247 647.247 486.612
777 0 36.0538 10.4011 375 105.827 648.093 487.693
778 0 38.0557 10.327 393 103.952 647.364 488.089
779 0 38.012 10.9176 415 103.701 647.214 486.299
780 0 39.0731 11.824 462 99.6017 647.214 487.602
781 0 37.0615 11.1167 412 104.005 647.053 487.43
782 0 37.0182 10.6164 393 104.845 647.252 489.555
783 0 36.0363 9.54592 344 110.291 647.25 488.887
784 0 38.032 10.5437 401 106.469 647.192 488.436
785 0 38.1312 11.1719 426 104.526 647.052 489.646
786 0 37.0113 9.99694 370 108.122 647.119 489.362
787 0 37.014 10.2934 381 106.21 646.509 489.745
788 0 37.035 11.2596 417 104.595 646.818 488.542
789 0 35.0277 9.364 328 109.085 647.101 489.579
790 0 38.0904 10.7113 408 104.831 647.002 489.311
791 0 38.0354 9.80665 373 106.362 647.34 489.123
792 0 37.0337 9.82888 364 107.429 645.808 488.349
793 0 37.1557 9.44673 351 109.308 646.103 488.088
794 0 36.0919 9.61434 347 109.334 646.159 488.461
795 0 37.1108 10.3474 384 107.003 646.867 489.784
796 0 38.0231 10.5725 402 105.259 646.42 487.813
797 0 37.0236 9.58849 355 108.085 646.532 488.944
798 0 37.0498 9.93257 368 107.448 646.226 488.158
799 0 36.0465 10.6806 385 106.091 646.579 488.59
800 0 38.0678 10.6126 404 104.708 646.324 489.238
801 0 39.0372 10.8614 424 103.557 646.257 489.172
802 0 37.0406 9.93503 368 105.375 646.405 489.668
803 0 37.0493 10.6885 396 103.99 646.528 488.929
804 0 38.0258 8.83611 336 105.461 647.092 490.75
805 0 36.0572 10.7052 386 104.212 646.521 490.01
806 0 37.0412 10.7718 399 104.794 645.712 488.07
807 0 35.0104 7.65487 268 110.146 646.007 491.007
808 0 36.005 11.2762 406 105.017 645.874 487.768
809 0 35.0203 9.02334 316 109.544 646.456 489.883
810 0 38.0751 10.5581 402 106.149 646.49 487.356
811 0 38.0131 11.9959 456 103.101 647.384 488.193
812 0 42.0495 12.414 522 103.967 646.234 485.642
813 0 40.0253 10.3934 416 112.959 645.952 485.654
814 0 41.089 9.61329 395 113.504 646.878 485.651
815 0 42.0449 10.465 440 111.039 646.716 486.177
816 0 43.0857 10.2122 440 109.652 647.211 486.284
817 0 38.0272 9.67727 368 114.043 646.905 484.639
818 0 41.0958 10.147 417 109.578 645.882 486.612
819 0 43.029 10.7834 464 106.991 646.446 487.487
820 0 41.0938 10.3179 424 110.259 646.677 486.267
821 0 40.0562 9.86115 395 110.367 646.484 486.484
822 0 40.0423 9.11536 365 109.858 646.789 488.603
823 0 40.0737 10.6304 426 107.397 647.019 486.263
824 0 39.0103 10.3819 405 108.894 646.758 485.953
825 0 40.0838 11.1516 447 106.709 647.452 485.277
826 0 41.0551 10.4494 429 106.918 646.515 485.881
827 0 41.0448 11.6458 478 105.077 646.498 484.803
828 0 40.0391 10.0652 403 107.99 647.052 486.533
829 0 40.0138 10.0715 403 108.06 647.345 486.409
830 0 39.0131 10.2273 399 108.767 647.055 485.125
831 0 41.0707 10.7619 442 105.545 646.674 485.722
832 0 42.05 9.98812 420 108.255 646.617 484.052
833 0 41.0314 10.4554 429 106.326 647.352 484.403
834 0 40.0129 11.5713 463 104.445 646.611 484.693
835 0 41.0411 10.8915 447 104.136 647.016 486.342
836 0 40.0358 9.94109 398 105.598 647.389 483.859
837 0 40.0906 10.5511 423 104.738 647.279 484.534
838 0 40.0627 10.3588 415 104.106 647.26 484.125
839 0 42.0489 12.1763 512 99.4629 647.461 484.477
840 0 40.0377 10.8648 435 102.011 647.368 486.749
841 0 43.0656 11.4941 495 99.2707 647.034 484.491
842 1 67.2376 13.2664 892 105.517 646.281 448.416
843 0 71.1831 12.8261 913 105.933 646 444.414
844 0 76.1759 13.8758 1057 102.492 645.903 444.193
845 0 77.304 12.7678 987 105.705 645.398 441.878
846 0 80.2076 13.4277 1077 105.007 644.836 440.539
847 0 82.1388 13.0754 1074 106.763 645.154 441.322
848 0 87.1625 11.622 1013 115.289 644.861 438.387
849 0 88.2246 12.1508 1072 114.808 645.16 437.828
850 0 92.1734 13.7567 1268 109.99 645.961 437.286
851 1 50.165 11.1831 561 114.601 645.371 454.011
852 0 51.1456 12.0636 617 111.143 645.666 455.135
853 0 55.3166 12.4014 686 109.069 644.867 453.88
854 0 56.0788 13.6772 767 104.514 646.047 452.425
855 0 57.0692 12.774 729 107.768 646.073 452.513
856 0 58.1175 13.2834 772 107.097 646.508 453.566
857 0 60.0756 12.2346 735 109.584 646.155 452.936
858 0 61.136 11.8097 722 112.332 646.011 451.398
859 0 65.1482 13.2314 862 108.097 646.107 451.868
860 0 66.1244 12.8394 849 111.057 645.38 448.918
861 0 67.2141 12.3337 829 114.37 645.476 446.755
862 0 70.1896 13.1358 922 113.229 645.74 447.272
863 0 72.1445 13.1126 946 112.879 645.556 446.164
864 0 76.0809 12.5787 957 114.433 645.444 445.766
865 0 77.1045 13.0472 1006 114.014 645.293 444.847
866 0 79.2926 13.3051 1055 114.06 644.842 444.979
867 0 81.1767 12.5282 1017 118.104 644.925 442.643
868 0 84.1923 13.0772 1101 116.844 645.091 441.622
869 0 84.1773 12.1054 1019 121.486 645.507 439.571
870 0 90.2063 12.9259 1166 117.602 644.973 439.928
871 0 95.2234 14.2297 1355 115.456 645.204 434.855
872 0 94.2313 11.2489 1060 118.375 644.327 436.254
873 1 46.066 9.79031 451 115.641 645.905 458.741
874 0 49.0431 11.235 551 113.515 646.256 458.432
875 0 51.0982 10.8223 553 116.546 646.322 456.606
876 0 54.1563 11.7807 638 112.34 645.865 456.608
877 0 55.1173 12.2829 677 111.301 646.097 458.796
878 0 55.1365 11.263 621 115.671 646.362 454.535
879 0 59.1324 12.4974 739 111.631 645.463 453.98
880 0 58.0498 12.2309 710 113.942 645.913 454.88
881 0 62.2704 13.4093 835 111.217 645.315 451.23
882 0 63.1554 12.018 759 115.884 644.742 451.826
883 0 63.1554 12.0655 762 147.294 644.734 451.79
884 0 66.1571 13.0447 863 115.132 645.051 448.742
885 0 67.0346 12.2772 823 117.156 645.153 449.324
886 0 70.2544 12.3124 865 116.674 643.734 448.445
887 0 70.167 11.3444 796 114.823 643.781 447.71
888 0 74.0572 11.5451 855 114.411 644.089 445.819
889 0 76.0489 11.3874 866 116.704 643.49 442.611
890 0 78.1232 12.4803 975 114.515 643.861 443.457
891 0 81.0903 12.2333 992 115.065 644.855 441.141
892 0 84.1972 11.7819 992 115.964 645.455 439.386
893 0 87.1017 11.6875 1018 116.166 645.199 441.111
894 0 90.1226 10.9406 986 121.475 644.902 437.523
895 1 49.1304 10.3805 510 116.439 644.349 458.078
896 0 49.0601 10.905 535 116.079 644.34 456.789
897 0 51.156 11.3183 579 117.318 644.332 457.012
898 0 54.1007 12.0886 654 117.049 644.572 455.827
899 0 54.0844 10.4836 567 122.062 644.247 454.972
900 0 55.067 11.3317 624 120.205 645.139 454.425
901 0 57.0559 12.0759 689 120.248 645.122 454.292
902 0 59.0779 12.4751 737 119.529 645.531 452.556
903 0 62.1114 12.4132 771 119.35 645.908 450.433
904 0 63.106 10.9815 693 124.131 645.674 451.457
905 0 65.1029 13.087 852 119.531 645.566 450.18
906 0 68.0969 12.7172 866 120.343 645.449 449.378
907 0 70.19 12.2382 859 123.118 645.115 447.802
908 0 74.2824 13.6237 1012 119.903 644.904 445.856
909 0 74.1904 12.2657 910 124.953 644.631 445.873
910 0 79.2668 12.5904 998 124.502 645.195 444.986
911 0 80.2516 14.0184 1125 122.916 644.788 443.019
912 0 82.2395 13.3756 1100 125.435 645.147 441.045
913 0 86.2946 13.535 1168 123.466 644.738 441.853
914 0 89.3114 13.8616 1238 124.19 645.225 438.066
915 0 93.3078 13.6001 1269 126.697 645.43 436.397
916 1 48.2026 11.2857 544 118.577 645.094 461.09
917 0 48.2254 11.861 572 116.713 644.871 460.68
918 0 51.1246 12.1468 621 115.699 644.823 459.572
919 0 51.0689 11.5922 592 115.799 646.093 458.736
920 0 53.0612 10.2523 544 118.938 645.392 458.739
921 0 53.0474 11.4426 607 117.204 645.852 456.608
922 0 57.0838 12.5079 714 113.286 645.454 456.429
923 0 56.0648 12.0218 674 116.448 645.43 454.792
924 0 58.069 11.3486 659 117.774 644.672 454.692
925 0 60.1007 10.8651 653 119.294 645.164 453.688
926 0 63.1278 11.1837 706 118.382 643.874 453.508
927 0 64.1502 11.4731 736 117.798 644.048 450.98
928 0 65.0935 11.9367 777 119.663 643.866 448.632
929 0 69.239 11.4531 793 119.055 644.511 447.743
930 0 71.3335 12.2803 876 118.202 644.533 446.72
931 0 75.1764 12.065 907 118.768 644.791 446.98
932 0 78.3407 12.8924 1010 116.794 644.888 444.408
933 0 80.2242 12.8016 1027 117.92 644.787 443.759
934 0 84.2612 13.1733 1110 118.321 645.114 442.94
935 0 86.1978 12.9122 1113 121.42 645.418 442.378
936 1 45.0731 11.4703 517 118.135 644.94 462.091
937 0 46.0794 11.9359 550 123.953 645.133 460.98
938 0 48.0812 11.4806 552 122.225 644.293 460.71
939 0 48.0812 11.4182 549 147.41 643.308 460.763
940 0 50.1825 11.0596 555 125.153 644.798 459.672
941 0 51.2218 11.3623 582 124.428 645.464 460.069
942 0 54.0197 12.1252 655 122.827 644.924 458.315
943 0 53.1374 12.0254 639 124.41 645.258 457.983
944 0 55.1156 11.5757 638 125.895 645.56 455.328
945 0 57.1802 12.3644 707 123.659 644.73 456.188
946 0 59.1082 11.9442 706 124.265 644.962 454.072
947 0 60.2075 11.9587 720 125.069 645.325 453.368
948 0 62.1363 12.4565 774 124.944 645.123 450.836
949 0 64.2843 10.858 698 126.953 644.529 451.037
950 0 65.1656 11.4631 747 125.601 645.183 449.554
951 0 71.2872 11.629 829 123.441 645.139 448.759
952 0 70.3305 11.645 819 124.882 645.425 446.231
953 0 73.2872 10.8068 792 128.667 644.845 446.173
954 0 73.3807 11.5289 846 128.845 644.979 443.064
955 0 78.1839 12.0869 945 125.572 644.704 442.67
956 0 77.1726 11.5326 890 127.721 644.913 440.443
957 0 82.2389 10.5789 870 124.601 644.741 442.516
958 0 83.1012 10.1202 841 124.048 645.219 439.717
959 0 89.1215 10.7718 960 120.554 645.679 436.251
960 1 47.0795 8.81488 415 114.559 644.964 458.8
961 0 48.0793 9.94192 478 118.81 646.816 457.552
962 0 48.0738 9.63103 463 120.032 647.4 456.348
963 0 50.0272 9.97457 499 118.271 646.713 453.305
964 0 51.0321 10.4836 535 116.293 646.95 454.258
965 0 54.0455 11.0278 596 114.007 646.414 455.837
966 0 54.0339 10.3824 561 117.273 646.332 451.8
967 0 57.0387 11.0276 629 115.633 646.855 452.167
968 0 59.1411 10.4158 616 116.63 646.002 451.755
969 0 61.0954 11.9813 732 113.537 645.425 451.518
970 0 61.0715 9.70993 593 119.808 645.838 449.118
971 0 64.0403 11.93 764 114.729 644.952 448.643
972 0 68.0981 10.9988 749 116.924 645.487 447.423
973 0 70.0428 11.6786 818 116.158 645.131 446.032
974 0 73.0749 10.8519 793 117.968 645.441 445.261
975 0 74.1753 10.6774 792 120.309 645.13 442.388
976 0 78.0801 12.3591 965 115.77 645.459 441.63
977 0 80.1297 11.5812 928 117.657 645.68 441.123
978 0 83.2688 10.328 860 121.679 645.734 438.251
979 0 87.107 12.5937 1097 116.486 645.661 436.818
980 0 88.2 11.0998 979 120.458 645.356 434.498
981 1 46.0787 10.4821 483 108.536 646.091 457.398
982 0 48.1037 10.5605 508 106.315 646.384 458.5
983 0 50.1268 9.69541 486 108.87 645.829 456.158
984 0 55.1302 10.7564 593 112.798 646.243 452.442
985 0 52.0796 9.58149 499 109.615 644.056 456.15
986 0 53.0665 9.36561 497 109.213 644.829 456.668
987 0 52.045 9.72235 506 110.982 644.836 451.907
988 0 56.0392 9.63611 540 109.693 645.028 453.217
989 0 60.0382 10.2268 614 108.016 645.391 451.84
990 0 62.1072 11.1581 693 107.074 645.238 450.962
991 0 64.1223 10.1369 650 109.28 644.554 449.166
992 0 66.1082 10.5433 697 107.623 645.187 450.462
993 0 68.1026 11.9966 817 106.026 645.137 446.987
994 0 70.1148 10.2831 721 110.498 644.94 444.91
995 0 72.147 11.7122 845 107.849 645.347 446.005
996 0 76.058 10.9522 833 109.953 645.495 444.22
997 0 77.1418 11.1872 863 111.364 645.613 441.685
998 0 82.0872 11.4147 937 109.488 645.449 441.95
999 0 84.0625 12.0624 1014 107.097 645.89 442.231
1000 0 87.1631 11.3924 993 108.835 646.418 440.811
1001 0 91.135 11.1044 1012 108.846 646.151 438.501
1002 0 92.1534 11.3289 1044 110.086 646.407 439.236
1003 0 95.1946 12.8474 1223 107.512 646.151 436.261
1004 0 100.312 13.0094 1305 107.169 646.398 435.775
1005 0 101.128 11.6091 1174 110.374 646.219 432.575
1006 0 109.06 13.323 1453 105.868 645.9 433.708
1007 1 56.0655 10.7731 604 106.815 646.485 455.482
1008 0 59.0461 12.9899 767 105.622 646.887 455.452
1009 0 61.0502 10.991 671 109.492 646.849 454.537
1010 0 62.0345 12.2351 759 107.97 645.825 451.854
1011 0 63.0348 11.2319 708 110.894 646.186 452.951
1012 0 66.0317 11.7822 778 108.019 646.06 452.847
1013 0 70.1036 12.3531 866 107.096 645.879 450.073
1014 0 71.0353 11.98 851 109.086 646.109 448.027
1015 0 76.0723 12.659 963 106.752 646.293 448.393
1016 0 78.0827 13.268 1036 106.605 646.128 445.901
1017 0 80.1415 13.0145 1043 107.423 646.523 446.665
1018 0 82.156 13.4135 1102 108.314 646.139 443.833
1019 0 82.1482 9.33678 767 111.898 645.954 444.093
1020 0 87.125 12.8551 1120 107.512 646.523 442.205
1021 0 89.076 12.349 1100 109.234 646.135 440.457
1022 0 94.0955 12.0303 1132 111.227 646.619 441.872
1023 1 48.1518 11.443 551 107.546 646.673 459.8
1024 0 48.0689 10.6306 511 110.397 646.728 457.082
1025 0 51.0357 12.07 616 105.44 646.718 457.903
1026 0 52.0988 10.0386 523 110.39 646.373 458.971
1027 0 53.142 11.3093 601 108.314 645.905 457.228
1028 0 55.1069 11.2872 622 103.119 645.039 455.987
1029 0 56.1193 11.1013 623 104.772 644.889 453.26
1030 0 58.1172 12.6296 734 101.356 644.751 454.763
1031 0 59.3198 10.7721 639 105.535 644.77 454.779
1032 0 60.105 11.8127 710 109.855 644.661 451.856
1033 0 60.2069 11.2944 680 110.813 644.96 453.738
1034 0 66.197 11.6017 768 108.273 645.108 451.415
1035 0 68.3395 11.5746 791 108.257 645.43 451.777
1036 0 69.1544 12.4649 862 109.09 645.831 449.01
1037 0 72.3238 12.6514 915 108.555 646.067 449.678
1038 0 75.1529 13.0667 982 108.642 646.201 447.145
1039 0 77.1887 12.2686 947 110.949 645.9 446.111
1040 0 79.2351 11.4596 908 114.322 645.716 443.437
1041 0 83.1369 12.8102 1065 111.673 645.929 445.357
1042 0 85.364 13.1554 1123 112.431 645.923 442.586
1043 0 86.2837 11.7635 1015 117.542 645.906 440.356
1044 0 90.2496 12.8976 1164 115.243 645.601 441.541
1045 0 92.1086 12.4093 1143 119.162 645.157 438.994
1046 1 50.1046 11.456 574 111.139 645.091 461.66
1047 0 50.077 11.682 585 105.019 645.506 460.479
1048 0 51.1781 12.7203 651 109.424 645.963 458.611
1049 0 53.0916 12.6197 670 108.466 645.451 458.269
1050 0 55.1367 11.3355 625 108.862 645.491 458.397
1051 0 57.1224 11.1515 637 108.873 644.713 458.71
1052 0 55.1492 11.6774 644 111.092 645.082 453.638
1053 0 60.1408 11.2569 677 108.61 645.097 455.034
1054 0 62.0742 11.8568 736 108.49 645.285 452.334
1055 0 65.2026 11.4106 744 109.242 645.223 450.91
1056 0 67.2131 12.1256 815 107.41 645.231 448.557
1057 0 70.288 12.1358 853 110.154 644.948 449.108
1058 0 71.2734 12.5853 897 110.439 644.574 447.394
1059 0 72.2895 11.4816 830 113.451 644.777 447.37
1060 0 76.2338 12.6191 962 111.859 644.705 446.862
1061 0 79.1558 12.7723 1011 112.352 643.994 442.498
1062 0 82.286 13.5868 1118 109.639 643.994 443.004
1063 0 82.3641 11.6677 961 111.507 644.149 443.916
1064 0 86.1299 12.4347 1071 111.18 644.251 439.539
1065 1 45.096 10.0674 454 109.982 644.26 463.319
1066 0 45.1758 10.3817 469 110.06 644.22 461.412
1067 0 48.1862 11.8084 569 103.933 645.587 460.132
1068 0 49.0643 11.0467 542 106.269 646.111 459.376
1069 0 49.1816 11.0407 543 107.545 645.665 459.074
1070 0 52.2244 11.1825 584 107.096 645.505 458.925
1071 0 54.3917 12.3548 672 107.327 645.463 455.854
1072 0 57.1567 11.9321 682 107.456 645.49 456.849
1073 0 58.2438 13.5809 791 105.252 645.008 454.92
1074 0 58.0818 12.6029 732 109.074 645.277 454.75
1075 0 60.0654 12.7861 768 109.632 645.501 453.409
1076 0 61.0513 12.4158 758 106.966 645.672 453.632
1077 0 65.0754 12.1705 792 108.611 645.284 451.258
1078 0 65.0649 11.8804 773 111.581 645.625 449.939
1079 0 69.161 12.7239 880 108.997 644.567 449.052
1080 0 71.1142 11.812 840 111.764 645.039 447.63
1081 0 72.2264 13.1531 950 110.798 645.04 446.64
1082 0 74.1983 12.79 949 113.299 645.281 446.263
1083 0 77.2294 14.0232 1083 111.741 644.586 444.502
1084 0 77.1737 11.6879 902 119.767 644.13 445.006
1085 0 80.0777 12.8625 1030 117.116 644.837 445.266
1086 0 85.2572 13.8757 1183 115.062 644.747 443.345
1087 0 88.2145 14.6008 1288 114.102 644.797 439.069
1088 0 89.1275 14.0024 1248 118.737 644.286 438.308
1089 0 90.1473 13.8884 1252 119.887 645.324 439.712
1090 0 94.1253 13.3758 1259 120.671 645.42 438.191
1091 0 98.2138 13.155 1292 121.346 645.183 435.7
1092 0 100.175 12.9973 1302 121.647 644.95 434.966
1093 0 103.156 13.3003 1372 121.083 644.249 431.448
1094 1 55.0224 11.7407 646 113.446 645.102 453.186
1095 0 58.1391 13.0377 758 115.144 643.463 445.847
1096 0 59.0682 12.6803 749 109.591 644.246 453.112
1097 0 63.1347 12.703 802 108.052 644.778 454.525
1098 0 64.0916 12.5446 804 110.291 644.983 450.744
1099 0 66.0756 12.2436 809 116.383 644.392 450.405
1100 0 68.1367 12.7831 871 112.723 644.974 452.352
1101 0 70.1837 12.3818 869 115.526 644.759 449.059
1102 0 74.0981 11.9166 883 115.659 644.339 445.777
1103 0 77.1939 11.4776 886 115.59 644.236 446.86
1104 0 81.088 12.135 984 114.329 644.391 446.636
1105 0 83.0572 12.5215 1040 114.316 645.138 445.03
1106 0 85.061 13.2846 1130 113.612 645.43 442.888
1107 0 87.0816 11.2423 979 118.75 645.895 442.322
1108 0 89.1368 10.6578 950 119.074 645.497 440.629
1109 1 44.2867 9.75462 432 120.551 645.37 457.438
1110 0 46.282 11.4515 530 110.881 644.317 460.845
1111 0 48.023 10.7448 516 110.19 645.634 462.233
1112 0 48.0356 10.4089 500 112.162 645.544 461.724
1113 0 50.049 10.3299 517 112.888 646.24 459.058
1114 0 49.0212 9.28171 455 114.736 645.657 460.242
1115 0 50.0353 9.81307 491 114.42 645.796 458.448
1116 0 52.1495 10.6425 555 112.932 644.443 458.013
1117 0 53.171 11.6793 621 110.209 644.678 455.963
1118 0 57.3601 12.3779 710 108.992 645.168 454.823
1119 0 58.1246 9.85813 573 113.051 645.401 455.445
1120 0 59.1405 10.585 626 111.438 645.254 455.419
1121 0 62.2292 11.6023 722 109.803 645.629 454.727
1122 0 63.187 12.5342 792 109.774 645.032 450.098
1123 0 65.203 10.9197 712 112.862 645.281 450.823
1124 0 66.1304 10.7666 712 115.444 644.82 448.166
1125 0 71.1514 12.2415 871 112.053 645.575 449.852
1126 0 73.1728 10.892 797 116.238 645.356 447.114
1127 0 74.1664 10.9349 811 117.425 644.861 445.215
1128 0 79.2562 12.3145 976 113.752 644.82 444.481
1129 0 79.1549 11.168 884 119.231 645.11 442.776
1130 1 42.0721 10.5771 445 110.656 645.798 464.209
1131 0 43.0264 10.7841 464 115.478 645.901 461.515
1132 0 45.0607 11.8951 536 114.983 645.666 460.994
1133 0 46.1329 11.4669 529 108.711 644.548 460.667
1134 0 48.0853 11.1885 538 110.931 644.435 460.362
1135 0 47.1225 11.3746 536 111.685 644.459 459.261
1136 0 50.0958 10.7793 540 111.63 644.807 458.402
1137 0 53.1538 11.7771 626 109.233 645.642 457.647
1138 0 53.1636 12.0947 643 110.627 645.229 455.555
1139 0 54.1262 11.27 610 113.082 644.423 455.839
1140 0 57.1199 12.43 710 110.014 645.154 455.762
1141 0 58.0529 11.1622 648 113.318 645.225 456.148
1142 0 60.0975 11.7476 706 112.642 645.246 452.99
1143 0 64.0993 11.919 764 112.082 644.836 453.09
1144 0 66.1306 12.4753 825 111.702 645.029 452.005
1145 0 66.0463 12.6881 838 115.405 644.476 449.673
1146 0 72.095 13.3158 960 110.709 644.543 450.154
1147 0 74.1472 13.7969 1023 110.238 644.634 448.72
1148 0 75.1546 13.0531 981 113.598 643.955 447.895
1149 0 76.1025 12.7854 973 115.342 643.828 446.673
1150 0 80.2038 12.8423 1030 115.969 643.607 444.653
1151 0 82.1623 13.1325 1079 115.274 643.428 441.906
1152 0 86.2279 13.2208 1140 115.704 643.868 440.576
1153 0 89.1521 12.3833 1104 118.159 643.231 437.405
1154 0 94.1885 12.3794 1166 117.102 643.426 438.475
1155 1 48.0323 12.0336 578 112.087 644.576 457.176
1156 0 47.035 10.6304 500 115.322 645.046 456.93
1157 0 48.029 10.5145 505 113.063 644.354 460.358
1158 0 52.1459 11.6788 609 109.448 644.772 460.031
1159 0 52.0602 10.1037 526 114.945 644.675 458.774
1160 0 55.1108 12.1936 672 111.299 644.583 456.298
1161 0 58.0987 12.2206 710 111.086 644.614 456.377
1162 0 59.0855 11.898 703 114.77 644.4 453.607
1163 0 61.0863 11.9012 727 114.857 644.872 453.823
1164 0 62.0724 12.2276 759 115.982 644.908 452.97
1165 0 65.1057 12.7792 832 114.083 645.345 453.04
1166 0 66.0338 11.0398 729 118.66 644.952 452.652
1167 0 71.0986 13.2351 941 114.702 645.502 450.224
1168 0 73.0585 13.1265 959 115.365 645.564 449.779
1169 0 76.1102 12.2585 933 118.322 644.397 449.219
1170 0 78.1302 13.7463 1074 117.122 644.885 446.659
1171 0 80.119 13.4675 1079 118.403 645.614 445.776
1172 0 82.1746 12.5343 1030 122.065 645.616 444.276
1173 0 87.0533 12.6589 1102 121.81 645.119 443.299
1174 0 90.0729 13.5779 1223 120.792 644.932 440.674
1175 1 43.0277 11.969 515 117.002 645.73 463.006
1176 0 45.0549 11.7412 529 120.008 645.775 461.48
1177 0 48.0187 12.2869 590 118.697 645.846 461.302
1178 0 49.0378 10.8896 534 121.8 645.86 460.918
1179 0 49.019 12.4237 609 120.872 645.732 458.174
1180 0 50.1209 12.3102 617 121.021 645.528 458.635
1181 0 54.0231 12.6798 685 118.512 646.184 457.448
1182 0 56.0286 12.9934 728 117.308 645.809 456.11
1183 0 56.1059 12.0308 675 122.305 645.382 454.825
1184 0 58.0417 12.7495 740 119.892 645.172 453.807
1185 0 59.0542 10.8206 639 126.408 645.681 453.418
1186 0 62.0411 13.1365 815 119.364 645.706 452.46
1187 0 65.0327 13.1472 855 120.799 645.756 450.706
1188 0 66.1203 12.5831 832 123.375 645.017 451.011
1189 0 68.1671 13.2175 901 121.578 645.748 449.32
1190 0 68.1166 11.2601 767 118.389 645.076 449.996
1191 0 72.0639 12.3918 893 116.506 644.725 448.473
1192 0 72.1393 12.1432 876 119.696 644.853 444.386
1193 0 72.3053 11.3546 821 123.845 645.311 445.353
1194 0 78.1296 12.8248 1002 121.556 645.209 443.99
1195 0 80.1825 12.2969 986 125.808 645.745 442.996
1196 0 82.1262 11.3971 936 129.559 645.002 442.342
1197 0 84.1208 12.7674 1074 126.764 645.424 439.691
1198 0 87.1324 12.0277 1048 128.606 645.052 437.046
1199 0 91.0731 12.3747 1127 125.93 644.928 436.421
1200 0 95.2189 12.8441 1223 123.983 644.618 436.376
1201 1 51.0148 11.9377 609 114.649 644 458.885
1202 0 51.0808 11.3741 581 111.554 644.776 455.718
1203 0 51.1059 10.8598 555 114.067 644.741 454.733
1204 0 55.1426 11.026 608 111.729 645.194 456.954
1205 0 58.1823 10.5702 615 112.151 644.95 454.631
1206 0 59.2809 11.5214 683 114.193 644.225 452.821
1207 0 63.2336 12.8413 812 112.676 644.885 451.219
1208 0 63.2488 11.9054 753 116.186 644.845 451.041
1209 0 64.1972 11.9787 769 116.583 644.519 447.473
1210 0 69.1893 12.314 852 114.933 643.985 447.366
1211 0 71.1949 11.925 849 116.243 644.146 448.1
1212 0 73.1019 11.737 858 116.237 644.66 446.589
1213 0 75.1899 11.6771 878 116.262 644.091 444.772
1214 0 80.2434 11.1162 892 116.748 644.039 444.173
1215 0 83.1932 11.2629 937 116.94 643.485 443.343
1216 0 84.2686 13.2671 1118 111.341 643.45 441.151
1217 0 88.3031 11.4719 1013 115.757 643.826 437.856
1218 0 92.3342 11.101 1025 116.176 644.175 433.708
1219 1 49.1442 10.0521 494 106.186 643.84 455.583
1220 0 51.1868 10.6864 547 108.369 644.282 451.367
1221 0 54.1939 11.6249 630 117.157 644.295 448.11
1222 0 56.1898 12.1196 681 113.307 644.113 448.915
1223 0 54.2266 10.8618 589 117.778 643.941 448.535
1224 0 58.1568 11.4518 666 114.545 643.333 448.272
1225 0 61.1392 12.5942 770 110.842 643.419 446.931
1226 0 61.1978 12.4678 763 113.118 643.313 444.619
1227 0 63.064 13.1454 829 111.897 642.419 443.168
1228 0 64.1051 12.9475 830 112.765 642.727 442.587
1229 0 68.1018 12.8337 874 112.697 643.037 441.908
1230 0 69.1652 12.8822 891 112.574 642.16 439.916
1231 0 71.075 13.0285 926 111.779 642.758 439.677
1232 0 73.1212 13.5392 990 109.979 642.809 438.533
1233 0 76.1727 12.5373 955 112.734 642.524 440.582
1234 0 76.1394 10.4676 797 118.322 642.98 439.149
1235 0 79.1649 11.6339 921 117.132 643.169 434.859
1236 0 83.1192 12.4881 1038 114.934 642.551 436.223
1237 0 86.081 12.8251 1104 115.896 642.137 432.23
1238 0 89.1273 13.3741 1192 114.88 642.503 432.172
1239 0 93.091 13.5996 1266 114.742 642.878 430.791
1240 0 95.2003 11.313 1077 121.025 642.576 429.91
1241 0 100.191 13.3046 1333 116.935 642.777 428.2
1242 0 104.176 13.506 1407 111.001 644.053 430.713
1243 0 103.167 11.874 1225 118.22 643.175 430.776
1244 0 106.27 12.7318 1353 120.572 642.741 426.493
1245 0 109.313 11.7003 1279 123.844 643.723 427.121
1246 1 61.165 11.5589 707 115.091 643.758 451.277
1247 0 60.0801 11.5346 693 116.76 643.339 449.332
1248 0 64.1372 10.9453 702 118.081 643.268 448.775
1249 0 67.1247 10.8455 728 117.387 642.929 448.188
1250 0 67.1678 10.913 733 119.074 642.643 444.19
1251 0 70.1561 11.3034 793 118.305 642.518 444.178
1252 0 74.2063 12.344 916 115.405 643.402 446.025
1253 0 77.2379 13.1542 1016 113.311 644.007 443.844
1254 0 77.2362 11.044 853 119.871 644.24 441.829
1255 0 82.2527 13.5558 1115 113.083 644.132 441.06
1256 0 84.1145 13.4816 1134 114.815 643.281 440.415
1257 0 86.1019 11.8929 1024 117.656 643.807 439.364
1258 0 89.2523 12.5711 1122 116.818 643.906 437.135
1259 0 93.1631 11.8931 1108 118.976 643.552 433.162
1260 0 96.3259 12.2501 1180 119.226 643.375 429.395
1261 0 100.299 13.6991 1374 117.397 642.754 428.996
1262 0 102.286 13.6774 1399 118.718 642.668 426.46
1263 0 105.231 13.7697 1449 118.97 643.035 424.334
1264 0 110.341 14.3193 1580 116.843 643.492 424.041
1265 0 113.319 13.334 1511 119.966 643.101 422.102
1266 0 117.286 13.2838 1558 119.749 643.581 420.317
1267 1 60.2156 12.1895 734 112.147 643.94 449.342
1268 0 63.1849 11.5059 727 114.604 643.582 449.015
1269 0 64.44 12.9733 836 115.217 642.561 447.39
1270 0 65.1841 13.5616 884 113.757 642.607 447.771
1271 0 68.1982 14.3112 976 111.366 642.4 445.651
1272 0 71.2254 13.5345 964 113.198 643.03 444.58
1273 0 72.316 13.1091 948 115.061 643.027 443.028
1274 0 75.1797 13.2083 993 114.706 643.058 441.153
1275 0 77.2225 14.5165 1121 110.368 643.141 442.372
1276 0 79.1889 14.1813 1123 111.915 642.851 438.774
1277 0 83.2678 13.2704 1105 113.708 642.603 437.913
1278 0 88.278 14.6129 1290 109.522 642.574 437.074
1279 0 89.4461 14.0308 1255 112.38 642.825 434.074
1280 0 92.2376 13.2918 1226 114.665 642.409 433.582
1281 0 95.3104 14.3636 1369 112.163 642.335 432.541
1282 0 96.1593 12.8641 1237 110.799 642.53 433.321
1283 0 103.169 13.1435 1356 108.449 643.809 434.162
1284 1 50.1112 11.9135 597 106.806 642.943 458.385
1285 0 49.0885 10.9394 537 111.581 643.142 456.177
1286 0 53.169 10.9839 584 108.933 643.137 457.582
1287 0 55.1409 10.9538 604 110.455 643.202 455.512
1288 0 57.1044 10.2619 586 111.224 643.305 454.102
1289 0 59.1834 11.8276 700 110.196 642.769 451.961
1290 0 61.2913 10.4746 642 110.718 643.354 449.171
1291 0 64.1639 11.7979 757 108.296 643.421 449.864
1292 0 64.1129 10.8247 694 111.637 643.235 449.231
1293 0 68.111 11.7308 799 110.747 643.428 448.879
1294 0 69.2043 11.271 780 112.799 643.456 448.414
1295 0 73.2233 12.7828 936 109.928 643.426 446.525
1296 0 72.1786 11.0143 795 115.957 642.891 444.796
1297 0 77.2007 11.917 920 113.095 642.624 442.509
1298 0 78.165 11.6165 908 113.167 642.758 443.064
1299 0 80.2169 12.1172 972 112.538 643.4 441.069
1300 0 84.268 11.5821 976 113.753 643.376 439.264
1301 0 87.208 11.8796 1036 112.178 643.764 437.637
1302 0 93.2838 12.8533 1199 108.213 644.09 437.349
1303 1 49.1489 10.8649 534 103.517 643.202 457.552
1304 0 51.1361 11.1467 570 102.821 643.835 457.898
1305 0 52.1904 12.7993 668 100.057 643.192 456.395
1306 0 53.0573 10.8373 575 103.626 644.235 457.28
1307 0 55.2184 11.2462 621 103.021 644.359 455.38
1308 0 55.0845 11.3099 623 104.99 644.363 453.156
1309 0 57.0767 10.9502 625 106.394 643.917 452.616
1310 0 60.1039 12.4617 749 101.999 644.121 453.298
1311 0 63.1394 12.1636 768 102.944 644 452.732
1312 0 62.1365 11.2655 700 107.713 643.897 449.541
1313 0 64.1076 10.9503 702 109.218 643.939 448.557
1314 0 69.1124 12.0673 834 106.194 643.663 449.195
1315 0 70.1525 12.6296 886 109.77 643.799 447.824
1316 0 71.1671 11.6767 831 111.81 644.022 448.284
1317 0 74.1161 11.509 853 113.158 643.469 446.544
1318 0 78.2921 13.1559 1030 110.337 643.175 445.873
1319 0 81.4037 13.0952 1066 111.265 643.189 445.123
1320 0 82.4353 11.6455 960 117.85 643.026 443.883
1321 0 86.2852 12.4703 1076 115.796 642.512 441.219
1322 0 88.2863 12.5161 1105 116.574 643.284 439.157
1323 0 92.2514 11.8372 1092 115.839 644.073 436.49
1324 0 95.2494 12.693 1209 114.108 643.564 434.759
1325 1 52.076 11.3488 591 109.217 642.65 456.942
1326 0 53.0829 11.2089 595 111.708 643.461 456.867
1327 0 54.1797 12.92 700 118.627 643.45 450.609
1328 0 56.0565 12.755 715 117.683 644.957 452.715
1329 0 58.1273 12.8683 748 118.705 645.162 449.686
1330 0 60.1057 14.4079 866 114.361 644.864 449.971
1331 0 60.1898 13.474 811 117.286 644.555 449.375
1332 0 61.1687 13.193 807 119.167 644.621 447.175
1333 0 65.1239 13.5281 881 116.6 644.255 447.354
1334 0 67.1863 14.631 983 113.225 643.883 444.855
1335 0 68.2702 13.8567 946 116.301 643.219 444.177
1336 0 68.2558 13.8596 946 151.121 642.216 443.995
1337 0 74.3376 14.044 1044 114.118 643.377 443.959
1338 0 77.3033 15.4845 1197 110.513 643.14 440.354
1339 0 78.4441 14.0227 1100 114.649 642.505 440.035
1340 0 80.3342 13.0953 1052 112.306 642.779 444.697
1341 0 82.2946 12.9049 1062 111.486 643.008 444.828
1342 0 86.2185 13.4774 1162 109.944 642.763 440.556
1343 0 89.3503 12.1656 1087 112.919 643.114 439.838
1344 1 47.064 11.9837 564 111.913 643.186 459.188
1345 0 48.0861 12.4152 597 114.62 643.436 458.357
1346 0 49.0596 12.0262 590 115.231 644.237 457.303
1347 0 51.0792 11.766 601 150.295 644.231 457.08
1348 0 53.1798 13.6706 727 107.326 642.981 456.972
1349 0 53.1602 10.9104 580 114.764 643.652 454.8
1350 0 56.1761 12.087 679 110.807 643.89 455.018
1351 0 54.1248 10.7529 582 115.96 644.144 452.838
1352 0 61.1537 11.3158 692 112.383 644.149 455.633
1353 0 62.1026 12.3827 769 111.317 643.553 452.724
1354 0 64.1571 14.0281 900 107.314 643.744 451.253
1355 0 67.11 11.4886 771 114.021 643.454 451.222
1356 0 70.1176 13.5201 948 109.73 643.084 449.727
1357 0 72.2357 12.7361 920 112.959 643.382 446.326
1358 0 73.2095 13.4818 987 112.254 643.401 445.603
1359 0 76.18 13.1399 1001 113.711 643.385 442.161
1360 0 82.17 13.5573 1114 109.914 643.055 442.85
1361 0 84.13 13.4554 1132 111.884 642.916 438.242
1362 0 86.1522 14.0797 1213 109.188 642.938 437.034
1363 1 46.0251 11.3851 524 112.132 642.477 456.303
1364 0 46.0251 11.4068 525 161.198 642.463 456.33
1365 0 48.089 12.664 609 109.616 643.575 458.99
1366 0 50.1227 12.649 634 109.257 645.148 461.364
1367 0 50.1227 12.6091 632 154.964 645.149 461.293
1368 0 53.0544 11.0264 585 113.068 644.549 458.099
1369 0 54.1946 12.6765 687 109.875 644.504 457.103
1370 0 57.1406 11.8655 678 112.857 644.95 457.701
1371 0 60.1964 12.6087 759 108.884 644.696 456.129
1372 0 61.2502 12.0489 738 112.057 644.126 452.86
1373 0 64.1009 12.4803 800 110.552 644.497 452.584
1374 0 64.1276 12.865 825 110.99 644.033 451.338
1375 0 68.3423 12.7154 869 111.804 643.451 449.327
1376 0 70.3407 11.9277 839 110.48 643.445 449.88
1377 0 71.1899 11.9961 854 112.954 644.219 448.677
1378 0 72.2009 11.2879 815 116.421 642.091 447.501
1379 0 76.1221 11.6392 886 114.482 642.796 448.832
1380 0 80.1989 12.5563 1007 114.5 643.593 447.317
1381 0 80.1897 11.2982 906 119.945 643.549 444.347
1382 1 42.1385 11.3436 478 114.448 642.732 464.504
1383 0 44.0694 11.5727 510 115.455 643.929 463.627
1384 0 46.0198 12.9075 594 115.059 644.497 463.316
1385 0 46.0456 11.38 524 120.943 644.532 461.151
1386 0 50.0309 12.872 644 116.283 644.632 460.651
1387 0 50.0465 12.2286 612 119.645 643.951 458.81
1388 0 50.0407 12.29 615 120.306 644.969 457.68
1389 0 54.0467 12.6372 683 118.029 645.154 457.211
1390 0 54.0244 12.9386 699 118.979 645.132 456.624
1391 0 57.0497 12.568 717 119.45 644.42 455.788
1392 0 60.0685 11.7865 708 120.431 644.155 454.017
1393 0 61.0287 12.2565 748 119.948 643.901 452.842
1394 0 63.122 11.8976 751 122.463 643.893 452.306
1395 0 64.0527 12.3804 793 120.145 643.361 452.334
1396 0 67.0243 11.7718 789 121.513 643.802 449.772
1397 0 69.1553 13.0576 903 117.107 644.041 450.917
1398 0 71.0899 13.4759 958 116.446 644.014 447.841
1399 0 74.085 11.6083 860 119.529 643.821 448.116
1400 0 75.0215 10.6903 802 121.521 644.292 446.974
1401 0 78.0574 12.068 942 119.046 643.902 442.139
1402 0 78.0582 11.2096 875 120.395 644.203 445.729
1403 0 84.0621 13.0142 1094 113.589 644.233 445.159
1404 0 87.0953 12.2165 1064 113.086 642.896 437.571
1405 1 39.0265 7.43084 290 113.376 643.179 458.076
1406 0 48.1113 11.0161 530 109.108 643.089 458.785
1407 0 50.035 10.053 503 105.149 642.63 459.125
1408 0 48.0424 8.6382 415 109.769 643.834 464.342
1409 0 49.0669 6.76627 332 113.142 643.633 465.711
1410 0 51.0727 9.49627 485 109.285 642.854 459.751
1411 0 54.0698 9.22881 499 109.509 643.667 461.375
1412 0 54.0407 10.233 553 107.77 644.443 459.08
1413 0 56.0412 9.79636 549 108.842 643.894 459.969
1414 0 60.1027 9.30074 559 110.077 643.628 458.705
1415 0 66.2273 11.3246 750 107.715 644.4 448.515
1416 0 69.1152 9.66503 668 111.109 644.374 448.635
1417 0 66.0763 8.97447 593 116.185 644.024 444.103
1418 0 74.2485 11.7713 874 108.324 643.696 444.866
1419 0 76.1712 11.356 865 109.2 642.919 443.043
1420 0 79.3146 10.5277 835 111.352 642.708 442.89
1421 0 82.3998 11.1165 916 110.346 642.878 440.921
1422 0 85.3581 10.5672 902 112.171 642.847 440.343
1423 0 87.3318 9.91621 866 115.037 642.885 438.206
1424 0 90.2355 12.6447 1141 110.787 642.484 434.263
1425 1 46.2082 9.73853 450 113.298 642.518 457.364
1426 0 47.2097 10.9723 518 108.11 645.309 458.867
1427 0 48.0844 9.19217 442 111.851 646.118 458.394
1428 0 51.0884 10.8048 552 108.679 645.996 457.259
1429 0 49.054 8.82701 433 114.79 645.577 454.152
1430 0 51.1532 10.7325 549 110.865 645.488 452.166
1431 0 54.0644 8.78582 475 113.949 645.379 452.943
1432 0 55.0749 9.65957 532 112.996 645.111 451.197
1433 0 60.076 11.1858 672 109.101 644.734 451.199
1434 0 60.0902 10.5175 632 124.794 644.777 452.256
1435 0 65.0714 10.6959 696 111.603 645.374 447.644
1436 0 66.0842 10.3807 686 112.096 645.216 446.612
1437 0 69.0722 10.67 737 111.639 645.136 444.529
1438 0 69.0626 10.3674 716 112.617 645.011 446.31
1439 0 69.0644 10.2803 710 130.859 645.011 445.431
1440 0 78.0473 11.0318 861 110.961 645.459 442.397
1441 0 80.1482 10.3808 832 112.018 644.78 442.637
1442 0 82.084 9.41718 773 114.74 644.287 440.246
1443 1 46.1756 10.2435 473 101.374 644.66 458.831
1444 0 46.0242 8.84318 407 100.754 644.211 458.88
1445 0 48.0565 10.5085 505 97.6752 644.828 457.503
1446 0 49.1483 9.84775 484 99.8058 643.946 458.971
1447 0 50.0752 11.5426 578 98.0848 644.08 455.638
1448 0 54.2122 12.1744 660 95.6515 644.195 456.239
1449 0 55.1702 11.6186 641 96.9906 644.248 455.103
1450 0 55.0857 9.92998 547 101.298 644.137 454.338
1451 0 58.2395 10.8517 632 100.696 644.022 454.9
1452 0 58.2356 9.83935 573 110.881 643.55 454.314
1453 0 58.0807 10.692 621 111.043 643.923 450.965
1454 0 59.2114 10.1501 601 112.183 644.285 451.779
1455 0 63.1494 12.3358 779 108.086 644.673 452.343
1456 0 63.2005 11.2974 714 110.682 644.762 452.303
1457 0 66.1954 10.6201 703 111.681 644.451 450.282
1458 0 66.1738 10.8956 721 112.84 644.19 446.933
1459 0 72.2783 12.4104 897 107.53 643.935 446.97
1460 0 72.148 10.7973 779 112.429 643.703 447.241
1461 0 75.147 11.6305 874 110.642 644.368 447.66
1462 0 77.1929 12.0866 933 110.16 644.688 444.026
1463 0 77.1182 11.3073 872 113.6 644.146 443.202
1464 0 83.2023 12.4396 1035 110.749 643.503 440.849
1465 0 84.1481 11.5273 970 113.775 642.827 439.529
1466 0 88.22 11.8341 1044 110.662 643.486 441.734
1467 0 89.1605 12.2588 1093 110.747 644.147 440.505
1468 0 92.2033 11.236 1036 114.492 645.246 434.723
1469 0 97.3027 12.3429 1201 111.451 644.085 431.795
1470 0 100.274 11.658 1169 112.541 644.379 433.382
1471 0 103.4 13.3269 1378 109.07 643.969 430.335
1472 0 108.162 13.3873 1448 109.04 644.652 429.867
1473 0 110.221 12.23 1348 111.722 643.957 427.122
1474 1 58.1126 9.7225 565 107.267 645.285 453.554
1475 0 57.1383 10.5883 605 107.274 644.638 455.154
1476 0 60.1061 10.3983 625 107.642 645.091 452.803
1477 0 61.0474 11.2208 685 104.096 644.891 450.695
1478 0 64.2553 11.4543 736 103.45 644.125 448.651
1479 0 66.2791 11.0895 735 102.814 644.435 448.535
1480 0 69.2409 12.5504 869 100.571 643.886 447.785
1481 0 70.1042 11.2832 791 103.831 644.33 445.556
1482 0 73.239 11.2781 826 102.91 643.551 446.32
1483 0 75.2925 12.0065 904 103.117 643.954 447.421
1484 0 77.1879 11.3878 879 103.212 643.875 445.16
1485 0 78.3547 12.8008 1003 101.167 643.375 443.358
1486 0 83.1796 12.6473 1052 101.207 643.274 441.831
1487 0 86.183 12.4619 1074 101.22 643.528 441.724
1488 0 86.3171 12.4309 1073 103.315 642.658 438.501
1489 0 87.2032 11.4904 1002 105.659 643.399 436.379
1490 0 92.3468 11.9658 1105 104.2 643.478 435.887
1491 0 97.3228 13.2138 1286 100.583 643.317 434.65
1492 0 97.3228 13.224 1287 145.07 643.32 434.831
1493 0 101.247 11.872 1202 108.481 643.055 426.483
1494 0 108.156 12.1399 1313 107.353 643.42 429.819
1495 0 109.271 13.5535 1481 105.793 643.379 429.228
1496 0 115.148 12.7661 1470 107.61 643.331 426.643
1497 0 115.2 13.0296 1501 108.377 643.072 423.955
1498 0 122.35 13.4614 1647 107.358 642.888 424.189
1499 0 125.306 12.3219 1544 112.488 642.888 416.795
1500 1 67.027 11.5476 774 104.421 645.006 451.413
1501 0 70.0709 11.9879 840 103.44 644.3 451.683
1502 0 71.1086 10.4488 743 107.109 644.549 450.192
1503 0 74.0553 12.4772 924 102.032 644.923 447.058
1504 0 74.0624 11.0177 816 96.2978 644.875 448.716
1505 0 75.1203 12.3269 926 95.6544 643.977 446.767
1506 0 75.0396 10.6477 799 103.954 643.976 445.571
1507 0 78.0554 11.0562 863 103.285 644.024 445.504
1508 0 79.0658 11.0288 872 104.093 644.477 445.415
1509 0 79.1421 11.5867 917 105.162 644.341 444.614
1510 0 83.2311 11.6423 969 106.43 643.992 443.725
1511 0 82.0973 11.1453 915 108.487 643.933 440.874
1512 0 85.1196 10.2092 869 108.7 644.373 439.274
1513 0 90.1611 10.3481 933 107.74 644.035 436.344
1514 0 94.2587 11.1077 1047 104.157 643.317 436.777
1515 0 98.3044 10.9558 1077 103.681 643.072 434.354
1516 0 97.2311 10.0071 973 106.388 643.282 435.253
1517 0 101.144 10.836 1096 106.432 643.516 431.463
1518 0 107.221 11.3318 1215 107.415 643.396 433.475
1519 1 56.1531 9.22477 518 103.006 642.301 457.342
1520 0 59.1315 10.6542 630 103.529 641.875 456.783
1521 0 59.1483 10.3469 612 101.912 643.129 453.672
1522 0 63.0884 10.7468 678 101.31 643.261 453.96
1523 0 64.2014 9.75057 626 104.367 643.208 455.35
1524 0 67.1145 10.2809 690 111.186 643.422 454.877
1525 0 66.2067 9.90836 656 116.203 643.009 451.285
1526 0 69.1306 9.21445 637 118.515 642.86 450.932
1527 0 70.3119 10.2685 722 118.636 643.342 451.375
1528 0 73.2524 11.8221 866 116.639 642.891 451.012
1529 0 76.1894 11.3927 868 119.865 642.479 449.93
1530 0 78.3651 10.7573 843 122.02 642.848 450.287
1531 0 79.2849 10.1785 807 125.434 642.881 447.75
1532 0 84.3515 11.4876 969 122.199 642.686 446.36
1533 0 86.4218 10.1016 873 127.41 642.906 444.916
1534 0 89.4842 10.9181 977 126.637 642.829 442.029
1535 1 46.103 8.54608 394 120.211 641.596 464.954
1536 0 48.104 9.89522 476 117.555 642.193 465.059
1537 0 46.102 8.80655 406 118.365 642.197 462.002
1538 0 50.222 10.7722 541 119.007 642.275 462.157
1539 0 50.0982 9.54127 478 123.046 641.596 461.404
1540 0 53.0975 9.60497 510 114.229 642.331 462.176
1541 0 55.1463 10.8439 598 114.629 641.811 457.774
1542 0 55.115 9.94284 548 116.493 641.029 459.631
1543 0 57.1619 9.28941 531 119.426 641.22 457.429
1544 0 60.0754 11.0361 663 115.955 642.139 456.027
1545 0 58.0828 10.003 581 123.957 643.033 454.198
1546 0 61.1175 10.6025 648 122.179 641.151 452.955
1547 0 64.114 11.1364 714 116.464 641.001 452.798
1548 0 65.0918 11.3993 742 116.187 640.894 452.263
1549 0 68.1795 11.2644 768 118.997 640.949 453.025
1550 0 72.2676 11.5543 835 117.677 640.684 450.332
1551 0 72.1285 10.7309 774 119.585 641.107 451.271
1552 0 75.1119 10.704 804 119.904 640.69 449.235
1553 0 76.1255 10.2988 784 121.026 640.833 447.541
1554 0 77.1369 10.4619 807 122.798 640.971 443.887
1555 0 82.1783 11.6332 956 119.272 640.787 443.076
1556 0 83.1974 10.445 869 120.284 640.692 443.845
1557 0 86.1297 11.0763 954 117.319 641.243 443.706
1558 0 90.159 10.9473 987 116.089 641.022 443.618
1559 0 92.1775 11.3694 1048 115.681 640.969 441.395
1560 0 96.1536 11.7 1125 115.7 641.054 439.81
1561 0 99.135 12.7503 1264 115.549 640.586 438.313
1562 0 103.292 11.695 1208 119.881 640.807 435.836
1563 1 52.0656 10.4676 545 117.415 641.35 461.035
1564 0 53.1995 10.5452 561 118.123 640.25 459.606
1565 0 55.1353 10.973 605 109.165 641.018 457.357
1566 0 57.0817 11.4748 655 108.829 641.186 456.666
1567 0 60.1649 10.6042 638 109.661 640.959 458.658
1568 0 59.1441 10.9563 648 110.412 640.792 456.352
1569 0 58.1296 10.8551 631 113.223 641.127 453.721
1570 0 61.0978 10.7205 655 113.221 640.962 453.38
1571 0 64.112 11.5579 741 110.621 641.514 453.012
1572 0 66.1621 12.3787 819 109.175 640.913 451.596
1573 0 67.1816 10.9405 735 119.057 640.763 451.819
1574 0 69.1556 11.8284 818 116.427 640.359 449.333
1575 0 72.2036 12.1601 878 115.453 640.486 447.411
1576 0 74.0946 11.0669 820 116.765 641.209 449.633
1577 0 76.1796 11.7354 894 115.871 641.664 446.553
1578 0 78.0994 11.6646 911 116.019 641.404 444.981
1579 0 80.232 11.4169 916 118.66 641.476 441.961
1580 0 85.0698 12.6249 1074 114.643 640.52 443.035
1581 0 88.1684 12.5215 1104 112.479 641.646 440.93
1582 0 91.243 12.0886 1103 114.542 641.461 441.904
1583 0 93.1657 12.6656 1180 113.988 641.365 437.724
1584 0 95.1618 12.9253 1230 114.633 640.258 436.674
1585 0 98.144 12.0028 1178 116.07 640.616 435.05
1586 0 102.209 12.2984 1257 115.609 641.331 434.393
1587 0 104.098 11.5756 1205 119.08 641.617 430.954
1588 0 108.075 12.0195 1299 117.727 641.898 430.14
1589 1 61.12 11.4365 699 112.967 642.428 451.627
1590 0 63.1278 13.6548 862 111.572 642.231 448.992
1591 0 66.139 15.3313 1014 110.835 641.459 446.947
1592 0 66.2234 12.9864 860 119.05 642.098 446.048
1593 0 67.1308 13.9131 934 116.589 642.521 447.278
1594 0 70.3122 13.9805 983 119.696 641.498 447.199
1595 0 70.2029 13.0194 914 120.665 642.051 449.144
1596 0 73.1882 13.7044 1003 119.973 641.918 447.941
1597 0 77.1749 13.5018 1042 121.15 641.065 447.525
1598 0 78.2578 13.9411 1091 122.745 641.674 444.674
1599 0 79.1476 12.8747 1019 127.033 642.141 445.217
1600 0 81.1556 13.4556 1092 126.981 641.547 443.746
1601 0 82.1268 12.3955 1018 132.792 641.476 443.001
1602 0 86.1366 13.1535 1133 130.676 641.52 443.222
1603 0 91.1767 13.9071 1268 129.924 641.116 439.723
1604 0 94.0935 14.3899 1354 129.287 641.239 439.128
1605 0 96.1105 12.8394 1234 134.729 641.864 438.493
1606 0 100.149 13.8294 1385 132.403 642.134 435.517
1607 0 103.208 14.4272 1489 130.613 641.569 434.206
1608 0 106.289 14.2819 1518 131.532 641.982 432.364
1609 0 110.188 14.4208 1589 131.168 642.209 430.75
1610 1 59.0912 12.4045 733 126.78 641.577 456.462
1611 0 59.0912 12.4722 737 157.474 640.563 456.503
1612 0 63.1387 11.4035 720 123.878 641.967 454.358
1613 0 66.2158 12.8519 851 120.253 641.275 452.102
1614 0 69.0943 12.7796 883 119.087 641.134 451.978
1615 0 68.1222 12.4923 851 122.546 641.959 449.094
1616 0 72.1677 13.5933 981 118.335 641.259 449.421
1617 0 73.121 12.3904 906 125.737 640.808 445.233
1618 0 77.2298 12.5988 973 123.942 641.604 445.855
1619 0 80.1575 12.7748 1024 122.365 641.656 444.145
1620 0 83.0646 12.7852 1062 121.86 641.251 442.137
1621 0 85.1344 13.9896 1191 118.754 641.285 439.807
1622 0 88.139 11.9357 1052 123.585 641.657 438.601
1623 0 88.0851 12.0565 1062 124.1 641.65 435.512
1624 0 94.1139 13.4837 1269 118.845 641.452 437.274
1625 0 97.1467 13.5465 1316 118.303 640.717 435.333
1626 0 101.241 12.979 1314 118.756 640.752 433.936
1627 0 104.191 12.3428 1286 120.202 640.753 429.988
1628 1 53.108 10.1868 541 114.211 640.848 451.665
1629 0 53.0902 10.3409 549 137.14 640.831 451.659
1630 0 58.0511 10.2151 593 109.31 641.486 456.116
1631 0 59.1395 10.5513 624 110.606 640.796 455.784
1632 0 60.1291 11.6416 700 109.007 640.901 454.123
1633 0 61.2123 10.9292 669 111.097 641.13 453.522
1634 0 64.2512 11.2216 721 111.247 641.021 451.184
1635 0 66.1682 11.4708 759 111.644 641.008 450.133
1636 0 68.2072 10.7906 736 112.575 641.143 448.94
1637 0 72.1951 13.0618 943 106.858 640.958 447.747
1638 0 74.1845 12.0645 895 109.857 641.649 446.534
1639 0 76.2554 12.5368 956 108.982 641.36 444.144
1640 0 81.1803 12.6632 1028 110.639 640.305 444.244
1641 0 83.2539 12.4559 1037 111.527 640.774 442.635
1642 0 84.1479 11.6105 977 114.017 640.235 440.167
1643 0 87.1649 12.8263 1118 111.262 641.155 439.874
1644 0 89.2451 12.1912 1088 112.974 639.903 434.913
1645 0 93.1773 12.2562 1142 112.186 640.15 433.131
1646 0 96.1836 11.7692 1132 113.487 640.442 433.721
1647 0 100.243 12.8688 1290 112.393 640.226 433.147
1648 1 52.0308 10.7244 558 112.53 641.69 457.629
1649 0 53.1238 12.6873 674 104.125 642.129 456.592
1650 0 53.1238 12.5932 669 118.864 643.1 456.635
1651 0 54.0342 11.4372 618 110.371 642.51 455.405
1652 0 58.0913 11.7574 683 108.258 642.37 457.35
1653 0 59.0474 12.6847 749 107.498 642.005 455.036
1654 0 61.0498 13.186 805 106.629 641.964 453.944
1655 0 61.0494 11.7282 716 111.082 641.205 453.358
1656 0 66.0516 12.8536 849 107.989 642.245 451.872
1657 0 69.1603 11.9433 826 108.884 642.332 450.869
1658 0 69.1068 12.2564 847 110.14 642.293 449.562
1659 0 71.1033 12.3201 876 110.36 642.211 448.332
1660 0 72.0652 12.3638 891 110.625 641.613 448.187
1661 0 74.0636 11.9222 883 112.365 641.959 446.015
1662 0 77.096 12.6725 977 111.466 641.945 445.116
1663 0 79.1053 13.5136 1069 110.815 641.737 444.16
1664 0 81.3335 13.4754 1096 111.332 641.38 440.977
1665 0 85.236 12.659 1079 113.293 641.756 440.841
1666 0 87.2369 13.343 1164 113.277 641.871 438.023
1667 0 86.1635 12.7084 1095 115.561 641.865 435.919
1668 0 95.302 12.9798 1237 112.2 641.118 437.858
1669 1 50.0586 11.5465 578 112.064 640.573 457.73
1670 0 52.1262 11.4722 598 111.159 640.838 458.221
1671 0 53.1119 10.1296 538 115.931 640.442 455.561
1672 0 56.1149 11.9932 673 112.214 640.789 454.172
1673 0 59.122 11.5355 682 113.547 641.001 453.553
1674 0 58.2067 11.7341 683 113.78 641.102 452.977
1675 0 61.1135 11.8141 722 112.321 640.748 450.953
1676 0 65.1124 12.1022 788 110.901 640.591 450.963
1677 0 65.116 11.8097 769 112.953 641.065 450.51
1678 0 66.1516 10.9597 725 114.314 641.327 451.545
1679 0 68.2264 11.4179 779 115.213 641.295 447.29
1680 0 71.1455 11.4976 818 115.222 641.154 446.779
1681 0 76.0934 12.6818 965 111.209 641.485 447.062
1682 0 78.1864 11.8307 925 115.497 640.805 444.242
1683 0 81.3002 12.5092 1017 112.92 641.044 445.337
1684 0 81.2902 12.4984 1016 153.71 640.048 445.396
1685 0 87.1966 11.5601 1008 116.238 640.92 440.493
1686 0 91.4239 11.6272 1063 115.87 640.994 439.767
1687 0 94.4454 11.414 1078 116.87 640.576 437.481
1688 0 97.3877 12.7018 1237 112.438 641.11 436.175
1689 0 100.5 11.3333 1139 116.586 641.284 429.083
1690 0 105.448 11.437 1206 117.601 641.376 428.349
1691 0 109.383 11.4278 1250 116.617 640.889 428.535
1692 1 57.2965 11.711 671 111.325 641.888 450.277
1693 0 59.1772 11.6937 692 109.538 642.101 452.266
1694 0 60.0725 11.6026 697 108.816 641.768 452.412
1695 0 60.0647 12.1369 729 108.125 642.395 452.106
1696 0 66.0757 12.0165 794 106.485 642.222 452.81
1697 0 67.0808 12.5967 845 105.328 642.363 452.217
1698 0 69.1516 12.1328 839 106.826 642.327 448.725
1699 0 72.1979 10.9699 792 110.951 642.36 450.409
1700 0 73.2573 12.4766 914 111.625 641.815 448.741
1701 0 75.2154 11.5934 872 113.436 642.05 442.971
1702 0 78.1832 13.3405 1043 112.365 642.25 442.854
1703 0 76.2638 11.9716 913 117.625 641.7 439.721
1704 0 80.125 12.181 976 115.336 640.888 438.118
1705 0 86.1973 12.3786 1067 112.287 641.446 438.608
1706 0 89.169 11.9548 1066 113.664 642.04 437.669
1707 0 92.2125 12.5146 1154 112.224 641.982 436.156
1708 0 96.2392 12.9365 1245 109.507 641.714 436.965
1709 0 100.293 12.3239 1236 109.04 640.67 435.429
1710 0 100.247 10.7634 1079 114.553 641.17 433.19
1711 1 51.1025 6.61416 338 108.228 642.201 459.994
1712 0 51.0338 9.60148 490 102.186 641.243 458.518
1713 0 54.0764 10.4112 563 100.49 641.398 459.583
1714 0 57.1422 10.2901 588 100.381 641.781 458.145
1715 0 59.0544 10.1093 597 102.906 640.546 453.286
1716 0 61.105 10.5556 645 101.935 641.313 455.597
1717 0 63.073 9.00543 568 104.683 640.984 454.477
1718 0 65.0974 9.70852 632 105.764 640.777 452.331
1719 0 65.1288 9.02827 588 108.08 640.636 451.779
1720 0 70.1008 11.1268 780 103.538 640.964 451.61
1721 0 70.1008 10.5277 738 132.312 640.892 452.381
1722 0 74.13 10.3737 769 110.118 641.068 447.666
1723 0 79.2085 10.4029 824 107.942 641.507 447.684
1724 0 79.2113 10.4657 829 130.503 642.516 447.678
1725 0 84.1563 11.336 954 107.418 641.285 445.102
1726 0 87.1895 11.4463 998 107.396 641.412 444.576
1727 0 92.2126 10.9855 1013 109.748 641.258 440.473
1728 1 52.0824 9.90738 516 99.626 641.516 459.461
1729 0 52.0159 10.8236 563 105.906 642.799 460.362
1730 0 55.0352 10.0481 553 98.5099 642.239 460.609
1731 0 56.0702 10.7722 604 96.4553 642.406 459.707
1732 0 59.0997 9.72933 575 98.873 642.059 458.911
1733 0 59.0575 11.1248 657 95.828 642.111 460.75
1734 0 59.0556 11.0574 653 126.916 643.115 460.783
1735 0 62.1106 10.6584 662 100.36 641.822 454.526
1736 0 62.0478 10.5241 653 102.462 641.877 453.966
1737 0 63.0878 10.4616 660 102.28 641.442 453.168
1738 0 64.1438 10.0555 645 103.447 641.454 451.014
1739 0 66.1188 10.7685 712 102.698 641.721 450.966
1740 0 66.1087 10.8155 715 127.99 641.75 450.899
1741 0 71.0854 11.8308 841 100.6 641.458 450.106
1742 0 71.0174 10.4904 745 105.655 642.208 449.682
1743 0 72.063 10.1023 728 106.812 642.407 446.541
1744 0 75.0406 10.4344 783 106.211 641.909 446.125
1745 0 77.0975 11.038 851 109.309 641.603 443.697
1746 0 78.1069 10.8313 846 113.242 641.82 444.131
1747 0 80.1374 11.6924 937 106.538 641.511 445.633
1748 0 83.1656 11.916 991 107.872 641.45 441.747
1749 0 86.0482 11.9468 1028 106.939 641.415 441.512
1750 0 87.1328 12.3145 1073 106.645 640.472 439.07
1751 0 91.0714 11.4086 1039 109.01 640.139 439.791
1752 0 93.14 12.9268 1204 110.35 641.197 435.73
1753 0 98.1757 12.7119 1248 111.223 640.966 435.8
1754 0 97.0661 12.6203 1225 113.254 641.144 432.511
1755 0 101.166 14.4219 1459 109.742 641.661 433.401
1756 0 104.035 13.2264 1376 112.314 641.902 432.612
1757 0 106.237 11.6532 1238 115.901 640.376 428.543
1758 0 108.267 12.0165 1301 116.259 639.964 427.88
1759 0 112.283 13.1899 1481 114.438 639.854 422.614
1760 0 116.372 13.8522 1612 112.689 640.343 425.408
1761 0 119.299 13.0763 1560 116.909 639.463 420.926
1762 0 121.346 11.8257 1435 120.171 639.655 419.267
1763 0 127.346 13.2631 1689 116.604 640.111 420.279
1764 0 130.288 13.8233 1801 116.035 639.939 416.775
1765 0 132.329 12.3102 1629 121.909 639.471 411.828
1766 0 137.328 14.4836 1989 115.907 640.063 413.745
1767 0 140.299 13.0792 1835 120.149 639.87 414.574
1768 0 144.377 13.4648 1944 120.246 639.73 408.542
1769 0 149.336 13.9685 2086 119.045 640.01 408.145
1770 0 154.378 13.7196 2118 119.839 640.479 402.881
1771 0 158.291 12.995 2057 122.617 640.301 400.291
1772 0 165.32 12.745 2107 123.642 640.253 398.082
1773 0 171.424 14.6887 2518 118.038 641.194 393.629
1774 0 177.4 13.743 2438 121.156 640.518 393.602
1775 0 180.44 14.6641 2646 120.074 640.674 389.572
1776 0 186.463 14.8876 2776 120.187 640.732 386.559
1777 0 191.466 15 2872 120.5 639.835 382.858
1778 0 197.364 15.0332 2967 120.519 639.767 379.627
1779 0 200.247 13.8379 2771 124.839 640.457 376.277
1780 0 208.408 14.6299 3049 122.519 640.619 370.376
1781 0 214.312 15.1042 3237 122.003 640.95 367.922
1782 0 218.308 14.4383 3152 124.331 640.912 364.589
1783 0 220.426 13.9321 3071 126.237 641.17 364.613
1784 1 233.317 15.6825 3659 121.547 640.854 355.127
1785 0 241.349 15.4838 3737 122.66 640.527 358.037
1786 0 247.602 15.121 3744 125.174 641.104 351.665
1787 1 264.389 14.5278 3841 124.525 641.683 351.877
1788 1 62.2449 8.77181 546 99.7143 641.723 458.74
1789 0 63.1617 9.3886 593 100.044 641.811 448.902
1790 0 63.1673 9.4036 594 114.113 641.805 448.894
1791 0 71.1752 11.1556 794 106.945 639.671 440.195
1792 0 70.0599 9.52042 667 100.913 641.585 445.16
1793 0 70.1255 9.99636 701 99.9558 641.646 448.252
1794 0 72.1566 10.7405 775 98.3665 641.441 452.357
1795 0 76.1556 11.1088 846 97.6454 641.376 440.437
1796 0 77.0641 9.58942 739 104.502 641.429 442.708
1797 0 79.095 9.62134 761 107.057 642.945 438.105
1798 0 84.1219 9.22471 776 112.394 643.179 430.369
1799 0 86.0683 9.95721 857 111.882 643.506 432.828
1800 0 89.1525 9.75856 870 111.706 642.561 439.167
1801 0 88.1066 9.28421 818 114.881 642.023 436.597
1802 0 90.0699 9.8257 885 113.73 643.445 432.641
1803 0 94.0708 11.3425 1067 110.802 643.328 431.123
1804 0 97.0788 10.9705 1065 112.442 641.963 432.071
1805 0 100.096 12.4281 1244 109.586 642.199 430.076
1806 0 105.119 12.2718 1290 108.843 641.937 430.267
1807 0 109.182 12.5662 1372 108.544 642.209 428.493
1808 0 113.175 12.1936 1380 109.977 642.424 427.488
1809 0 115.109 12.0408 1386 111.106 642.455 428.428
1810 0 117.117 12.3125 1442 112.506 642.293 423.052
1811 0 121.157 12.8099 1552 112.434 642.722 420.636
1812 0 121.157 12.8676 1559 155.35 643.729 420.655
1813 0 126.258 11.7378 1482 112.885 641.393 421.25
1814 0 130.229 12.217 1591 111.792 641.407 419.48
1815 0 134.284 12.5406 1684 110.809 641.213 418.61
1816 1 71.0619 11.7081 832 98.2596 642.401 450.048
1817 0 73.2224 10.3793 760 102.855 641.686 449.128
1818 0 73.2598 10.5788 775 105.837 640.778 448.512
1819 0 71.2373 10.3738 739 136.9 639.774 447.785
1820 0 79.132 11.1207 880 104.786 642.603 445.434
1821 0 78.1135 11.3553 887 132.675 644.585 445.417
1822 0 83.125 11.7053 973 105.576 642.559 440.93
1823 0 83.1647 11.4111 949 109.154 642.526 436.865
1824 0 86.0517 10.8191 931 110.096 642.527 436.238
1825 0 91.2336 10.073 919 110.945 642.151 437.592
1826 0 94.2298 11.3764 1072 108.293 642.572 433.274
1827 0 97.2217 10.9955 1069 107.864 641.591 433.861
1828 0 100.309 10.687 1072 106.45 642.35 434.26
1829 1 53.2483 10.2914 548 106.418 642.188 450.077
1830 0 56.418 12.5669 709 104.22 641.496 448.633
1831 0 57.1161 13.2712 758 103.753 641.489 448.511
1832 0 56.1543 11.0232 619 102.62 640.493 456.625
1833 0 57.2198 9.99653 572 107.135 639.411 454.262
1834 0 64.3447 10.4748 674 104.283 639.755 453.272
1835 0 64.1911 10.3753 666 104.332 639.83 452.821
1836 0 61.1765 9.95481 609 136.857 640.696 451.856
1837 0 65.2485 10.9581 715 105.217 640.551 452.168
1838 0 67.1799 9.61597 646 107.398 640.09 451.864
1839 0 70.2158 11.1656 784 106.085 641.004 449.159
1840 0 72.1973 11.7733 850 105.866 640.701 447.192
1841 0 75.1147 11.0897 833 107.886 641.878 445.703
1842 0 75.2198 11.4598 862 107.713 641.324 445.21
1843 0 78.2587 10.6697 835 109.484 641.016 445.667
1844 0 80.0889 11.5746 927 108.21 640.396 443.142
1845 0 81.1479 11.2141 910 110.569 639.808 443.309
1846 0 82.2364 11.1873 920 111.527 640.317 442.096
1847 0 87.3774 11.4217 998 111.003 640.052 442.462
1848 0 90.2536 12.0992 1092 110.403 639.629 440.809
1849 0 93.2328 12.3669 1153 112.836 640.501 436.168
1850 0 94.3227 10.9942 1037 115.259 640.726 437.61
1851 0 98.3692 12.9919 1278 110.983 640.836 435.556
1852 0 102.252 13.4863 1379 111.254 640.359 432.738
1853 1 51.0985 9.92202 507 112.189 640.55 457.596
1854 0 54.2182 10.8451 588 110.568 640.378 456.342
1855 0 56.1257 11.9197 669 110.129 640.38 455.187
1856 0 56.126 11.4564 643 113.227 642.313 453.114
1857 0 58.1258 12.6278 734 110.881 642.525 451.963
1858 0 62.0237 12.8338 796 109.627 641.943 453.275
1859 0 61.1034 11.7833 720 113.928 641.936 450.703
1860 0 66.0993 13.0107 860 108.438 641.662 450.333
1861 0 65.028 12.1025 787 111.484 642.18 451.199
1862 0 70.0809 12.4856 875 109.141 642.426 451.008
1863 0 72.1473 12.7378 919 109.986 642.547 449.296
1864 0 74.0776 13.0944 970 111.052 642.924 447.465
1865 0 72.0826 12.3053 887 145.381 643.888 446.134
1866 0 76.1145 12.0082 914 117.402 643.047 443.691
1867 0 78.2272 12.7194 995 115.314 642.145 445.375
1868 0 81.1208 15.3475 1245 110.258 642.004 441.563
1869 0 85.2037 14.3069 1219 113.727 642.495 440.787
1870 0 87.1523 13.7231 1196 115.455 642.604 440.146
1871 0 90.2754 13.2816 1199 116.897 642.177 439.449
1872 0 93.0329 14.0166 1304 116.472 641.857 435.363
1873 0 93.1263 13.4441 1252 119.165 641.044 434.343
1874 1 50.0074 11.6383 582 113.868 641.967 457.411
1875 0 52.0277 12.378 644 110.068 641.859 457.686
1876 0 52.1238 11.7988 615 105.27 640.577 457.187
1877 0 53.0219 12.3157 653 103.476 641 456.835
1878 0 53.0219 12.2968 652 127.773 641.009 456.862
1879 0 54.0747 11.2992 611 108.552 641.664 456.496
1880 0 57.0759 12.0716 689 107.549 641.464 455.601
1881 0 58.073 12.7081 738 108.111 641.69 454.129
1882 0 59.0617 13.6467 806 107.615 641.783 451.429
1883 0 62.0778 12.8065 795 109.706 641.907 452.098
1884 0 65.13 12.7898 833 114.549 641.717 449.172
1885 0 66.1003 13.9788 924 112.182 641.812 449.016
1886 0 65.1049 11.3048 736 119.804 641.587 448.758
1887 0 65.1049 11.2741 734 151.951 641.587 448.835
1888 0 74.0423 13.6408 1010 113.461 641.441 447.012
1889 0 75.04 12.46 935 117.716 641.443 444.98
1890 0 75.1313 11.7794 885 120.912 641.108 443.145
1891 0 75.1313 11.7661 884 155.476 641.117 443.136
1892 0 81.1028 13.2548 1075 116.637 641.071 441.225
1893 0 84.1692 12.1303 1021 119.62 640.666 438.74
1894 0 87.2902 12.0059 1048 119.627 640.74 435.176
1895 1 48.2192 11.427 551 107.708 641.187 459.298
1896 0 49.1117 12.1356 596 116.849 640.777 452.713
1897 0 52.2155 12.1611 635 118.677 640.496 451.71
1898 0 53.2313 11.6285 619 121.365 641.679 453.533
1899 0 55.0767 12.8729 709 117.924 641.355 452.255
1900 0 56.2202 13.1269 738 117.736 641.568 451.599
1901 0 56.2069 13.1301 738 118.43 641.405 451.123
1902 0 61.1785 13.5342 828 114.806 641.909 450.523
1903 0 61.1451 13.1654 805 117.72 641.544 447.922
1904 0 64.2517 13.0736 840 116.906 641.66 447.083
1905 0 68.1341 13.0185 887 115.587 641.959 447.705
1906 0 68.1341 13.0185 887 155.87 643.958 447.555
1907 0 72.2393 14.1197 1020 114.537 641.72 444.109
1908 0 72.1367 12.6288 911 120.191 641.315 442.676
1909 0 75.2123 13.2159 994 119.259 642.004 442.987
1910 0 78.2071 14.0013 1095 118.058 641.488 440.521
1911 0 80.197 14.4644 1160 118.728 642.219 437.72
1912 0 83.3188 13.7544 1146 120.454 641.952 439.316
1913 0 85.3783 13.61 1162 122.38 641.498 437.312
1914 1 44.1547 11.3465 501 123.407 642.287 457.96
1915 0 46.1021 12.2988 567 118.7 641.785 458.587
1916 0 48.0638 13.6069 654 118.76 640.254 452.523
1917 0 48.0371 11.7826 566 113.758 641.36 458.924
1918 0 51.0198 12.7989 653 111.031 641.746 459.035
1919 0 52.0396 12.7787 665 111.131 642.003 458.591
1920 0 53.0575 13.0801 694 112.134 642.045 457.788
1921 0 53.1244 12.706 675 125.077 641.421 458.839
1922 0 55.0519 13.896 765 122.796 641.605 455.974
1923 0 56.1339 12.7374 715 127.608 641.445 455.403
1924 0 59.1299 13.5126 799 124.93 641.109 455.021
1925 0 61.1158 13.139 803 125.024 641.07 453.934
1926 0 62.1358 12.1669 756 128.255 641.71 452.352
1927 0 66.0655 13.8499 915 122.567 641.021 450.684
1928 0 65.0535 12.4974 813 128.726 641.089 449.116
1929 0 70.0954 13.5244 948 124.449 641.113 449.67
1930 0 70.0709 12.4731 874 128.86 641.759 449.281
1931 0 73.1745 13.8299 1012 128.236 641.312 445.787
1932 0 77.1257 13.8216 1066 129.336 640.99 445.541
1933 0 79.1547 14.9959 1187 126.122 640.955 446.168
1934 0 80.1888 12.932 1037 133.961 640.631 444.975
1935 0 83.1253 12.403 1031 136.726 640.464 443.01
1936 0 86.1336 12.8405 1106 135.447 640.648 439.722
1937 0 89.1542 12.7756 1139 134.853 640.718 438.849
1938 0 93.1161 13.1234 1222 133.018 640.564 437.51
1939 1 49.0477 10.5204 516 129.184 641.7 459.624
1940 0 53.1319 12.1208 644 130.314 640.623 451.919
1941 0 53.0521 11.2342 596 128.552 640.805 458.158
1942 0 54.0871 11.9437 646 127.402 640.802 455.467
1943 0 59.0689 12.8833 761 123.233 641.076 454.886
1944 0 59.0699 11.3763 672 128.007 641.423 454.701
1945 0 58.062 11.0916 644 143.904 641.447 455.512
1946 0 61.0594 11.7754 719 128.456 642.64 449.772
1947 0 64.0919 11.4211 732 129.657 642.926 451.06
1948 0 69.1443 12.9006 892 126.01 641.843 449.233
1949 0 71.107 12.9945 924 126.816 641.974 448.126
1950 0 71.2054 12.5974 897 131.775 641.517 446.214
1951 0 75.0866 12.4922 938 129.224 641.59 446.289
1952 0 77.1133 12.942 998 130.806 641.19 444.303
1953 0 78.1725 12.8818 1007 133.483 641.757 442.716
1954 0 82.1388 13.1241 1078 129.728 641.906 443.263
1955 0 83.2678 12.9342 1077 129.747 641.055 440.114
1956 0 85.2938 12.7676 1089 131.685 640.823 438.198
1957 0 91.3281 12.8219 1171 131.996 640.727 436.24
1958 0 92.2496 13.3659 1233 131.934 640.832 434.264
1959 0 95.1613 13.5139 1286 135.292 641.693 432.74
1960 0 95.1613 13.4719 1282 148.11 642.702 432.842
1961 0 103.253 13.3459 1378 135.622 641.55 427.554
1962 0 108.169 12.4435 1346 136.548 641.99 429.304
1963 0 111.291 12.6425 1407 136.628 641.711 429.491
1964 1 58.2152 12.282 715 131.715 642.19 453.994
1965 0 60.2212 13.0851 788 130.582 641.76 451.462
1966 0 60.1375 11.6234 699 134.263 642.24 451.371
1967 0 63.0604 12.4642 786 131.878 642.307 449.892
1968 0 67.0284 13.5614 909 127.554 642.881 450.393
1969 0 71.0553 13.2573 942 128.386 642.686 448.796
1970 0 70.1268 12.4489 873 131.439 642.963 447.613
1971 0 74.0782 12.4463 922 131.739 642.549 446.247
1972 0 77.3423 12.671 980 129.06 641.85 444.882
1973 0 78.2207 11.5826 906 131.539 642.05 444.521
1974 0 81.235 11.9899 974 129.735 641.956 443.932
1975 0 83.2181 13.5668 1129 127.395 641.179 441.343
1976 0 85.1822 11.9626 1019 131.983 641.756 440.176
1977 0 89.1943 14.4292 1287 125.089 641.874 438.88
1978 0 90.2363 12.29 1109 131.272 641.801 437.401
1979 0 95.2522 13.6165 1297 127.567 641.574 435.328
1980 0 97.1585 13.3081 1293 128.143 641.01 433.705
1981 1 49.0164 9.11939 447 123.803 640.801 459.738
1982 0 51.0742 10.3379 528 122.292 640.884 459.1
1983 0 53.0472 12.2344 649 120.3 640.672 456.977
1984 0 53.0385 9.91733 526 117.918 641.279 457.125
1985 0 57.0755 10.7402 613 116.375 641.085 454.861
1986 0 57.0886 11.6836 667 115.864 641.054 453.406
1987 0 60.0946 12.0144 722 114.885 641.904 453.179
1988 0 61.1202 11.0765 677 117.622 641.773 451.874
1989 0 64.0367 10.8844 697 116.524 641.456 451.868
1990 0 66.0831 11.6217 768 115.577 641.431 451.513
1991 0 65.0741 11.095 722 141.809 640.507 450.788
1992 0 70.1463 10.9058 765 118.45 641.914 447.233
1993 0 75.0906 12.0122 902 116.51 641.226 445.254
1994 0 76.0813 10.7911 821 118.387 640.821 445.508
1995 0 80.1077 11.6468 933 116.821 640.797 443.856
1996 0 83.0461 11.0541 918 118.227 641.598 440.568
1997 0 83.0508 11.0655 919 146.277 642.568 440.803
1998 1 43.0181 10.5072 452 110.376 639.936 459.845
1999 0 47.2676 10.8319 512 111.457 639.807 460.246
2000 0 46.1081 10.1501 468 120.03 639.464 459
2001 0 48.1432 9.45098 455 121.138 640.358 459.277
2002 0 52.1674 11.2522 587 115.894 640.613 459.002
2003 0 52.1432 11.7561 613 115.948 640.763 456.977
2004 0 54.0549 11.6733 631 116.618 640.347 456.661
2005 0 56.1239 11.2608 632 117.141 640.407 456.995
2006 0 55.0656 11.9131 656 118.707 640.395 454.329
2007 0 59.1067 11.3354 670 118.673 640.369 455.279
2008 0 61.1542 11.2012 685 120.273 639.87 452.866
2009 0 63.1222 12.1669 768 116.618 640.895 450.475
2010 0 66.2872 11.7821 781 118.058 641.462 449.722
2011 0 65.2184 11.3312 739 120.61 640.901 448.413
2012 0 68.2904 11.744 802 120.089 640.762 447.384
2013 0 73.2463 11.7549 861 118.669 640.693 446.305
2014 0 74.2211 12.072 896 118.564 640.176 445.059
2015 0 76.2217 12.9228 985 117.23 640.454 441.783
2016 0 78.1091 11.3815 889 121.696 639.62 443.907
2017 0 80.082 11.1011 889 122.958 639.207 442.676
2018 0 82.0777 11.4769 942 122.411 639.536 440.897
2019 0 82.0768 11.5258 946 136.812 639.545 441.035
2020 1 47.0626 9.56174 450 113.178 639.558 459.089
2021 0 47.1634 9.92295 468 112.705 639.124 459.19
2022 0 49.1078 9.71332 477 112.784 639.145 458.015
2023 0 48.0333 10.1804 489 114.663 639.235 457.36
2024 0 50.1301 8.73727 438 119.813 638.829 454.18
2025 0 52.06 11.2178 584 113.902 639.777 454.887
2026 0 55.0873 11.9447 658 110.351 640.117 455.237
2027 0 56.0893 11.6956 656 112.034 640.931 453.739
2028 0 56.0695 9.88059 554 116.713 639.514 453.61
2029 0 59.0502 10.635 628 114.599 640.029 452.104
2030 0 59.0523 11.3628 671 113.192 640.064 450.651
2031 0 60.0578 11.1726 671 115.499 640.712 448.741
2032 0 64.1237 9.94951 638 115.995 640.558 450.89
2033 0 65.0743 10.0347 653 116.066 639.715 449.172
2034 0 68.0696 11.2826 768 113.426 639.901 447.451
2035 0 71.1129 10.9685 780 114.008 639.395 446.894
2036 0 72.0633 11.2817 813 114.148 639.172 444.434
2037 0 75.0162 11.2642 845 114.404 640.151 444.053
2038 0 76.2001 11.3648 866 116.215 639.45 439.723
2039 0 80.0654 11.7904 944 114.849 640.014 441.128
2040 0 81.0606 10.7697 873 120.529 639.064 437.561
2041 0 86.1464 11.9332 1028 116.206 639.644 437.32
2042 1 42.0692 9.6983 408 108.282 640.76 461.257
2043 0 43.1087 10.0908 435 108.782 641.453 460.163
2044 0 46.0344 10.427 480 105.002 640.883 459.4
2045 0 48.1099 10.476 504 106.492 640.905 460.728
2046 0 48.0359 10.4713 503 107.885 640.785 457.885
2047 0 48.1114 9.83135 473 109.311 641.057 458.742
2048 0 50.0815 10.1035 506 109.275 641.374 459.172
2049 0 52.0866 9.88738 515 112.249 640.493 455.957
2050 0 54.0806 11.4274 618 110.227 640.566 456.338
2051 0 56.092 11.0354 619 111.68 639.934 456.263
2052 0 57.0973 10.4383 596 114.341 640.111 454.99
2053 0 60.1375 10.6922 643 115.112 640.006 453.841
2054 0 60.1354 10.6593 641 135.964 640.008 453.836
2055 0 63.2406 12.7292 805 117.335 640.001 452.791
2056 0 63.1287 10.5499 666 124.934 639.474 449.982
2057 0 65.1757 11.7682 767 121.416 639.975 450.94
2058 0 69.1263 11.4139 789 121.302 639.953 450.857
2059 0 70.1032 11.4831 805 122.928 639.607 447.113
2060 0 72.1044 11.4833 828 123.367 639.658 446.488
2061 0 76.1691 12.144 925 120.514 639.854 445.978
2062 0 77.1073 11.685 901 124.797 639.531 442.906
2063 0 80.0872 11.0879 888 125.997 639.966 441.497
2064 0 83.1373 10.5729 879 125.782 640.009 441.321
2065 0 85.1365 11.6871 995 123.474 640.629 439.073
2066 0 88.2611 11.432 1009 122.57 640.544 438.517
2067 0 93.1444 11.8633 1105 121.368 641.264 433.978
2068 0 96.376 11.59 1117 122.338 641.836 433.58
2069 0 99.3509 13.8801 1379 116.393 641.431 433.777
2070 1 53.0727 10.4008 552 113.257 640.455 457.134
2071 0 54.0807 10.059 544 112.581 641.333 456.664
2072 0 54.0724 9.98662 540 113.244 640.243 456.231
2073 0 56.0736 10.611 595 112.892 640.669 455.353
2074 0 59.0895 10.3403 611 115.242 640.592 454.38
2075 0 59.2503 9.67084 573 116.009 639.721 453.393
2076 0 61.1262 9.58672 586 115.353 640.259 451.331
2077 0 63.2049 10.8536 686 112.433 640.564 447.569
2078 0 67.0997 11.7884 791 109.062 639.877 448.814
2079 0 67.1335 10.144 681 117.357 639.698 448.88
2080 0 69.1607 11.495 795 115.269 639.161 444.562
2081 0 71.1924 11.5181 820 116.346 639.299 444.423
2082 0 76.1258 12.1378 924 113.553 639.417 443.702
2083 0 78.1927 12.0216 940 113.939 639.498 441.974
2084 0 79.1132 12.3999 981 115.188 639.397 439.025
2085 0 82.1797 11.8156 971 117.689 640.611 438.146
2086 0 84.2241 11.5644 974 118.312 640.957 437.993
2087 0 88.3019 12.1741 1075 117.649 640.954 438.02
2088 0 89.1419 12.396 1105 118.481 641.062 435.821
2089 0 93.0808 11.388 1060 120.93 640.915 437.112
2090 0 95.1348 11.7623 1119 122.356 641.246 433.664
2091 1 50.1329 9.73413 488 115.848 640.758 457.947
2092 0 51.1255 11.1686 571 113.869 640 457.48
2093 0 53.1252 11.4447 608 115.331 640.306 456.615
2094 0 53.1987 11.2973 601 117.782 639.436 455.532
2095 0 57.1351 12.0591 689 115.071 639.54 455.717
2096 0 58.1807 11.894 692 117.264 639.461 454.37
2097 0 60.1634 11.6017 698 118.119 640.013 454.357
2098 0 61.0287 11.9616 730 120.632 640.127 450.152
2099 0 63.1293 11.2151 708 122.035 640.011 451.01
2100 0 64.0657 12.2374 784 119.631 639.832 449.149
2101 0 68.2394 12.0312 821 119.203 639.516 449.481
2102 0 71.08 12.8587 914 117.368 641.795 446.583
2103 0 73.1151 12.2547 896 119.349 641.574 444.576
2104 0 73.1369 12.0049 878 119.852 641.219 446.301
2105 0 77.0994 12.3736 954 119.721 641.503 443.159
2106 0 80.1102 12.6201 1011 118.146 641.26 442.394
2107 0 80.1354 11.6054 930 121.099 640.94 441.368
2108 0 85.0475 12.9927 1105 117.278 641.394 438.576
2109 0 87.2302 12.725 1110 118.938 640.989 437.262
2110 0 90.2965 12.4036 1120 120.301 641.329 435.176
2111 0 92.3466 12.4856 1153 121.363 641.283 433.023
2112 0 94.2239 12.0245 1133 122.96 641.538 431.421
2113 0 98.2127 10.8438 1065 124.848 641.312 432.442
2114 0 104.261 14.0417 1464 117.851 641.477 428.563
2115 0 106.291 10.6688 1134 126.085 641.46 429.391
2116 0 112.265 12.4171 1394 124.217 641.298 422.811
2117 0 116.372 13.7232 1597 124.539 640.919 421.745
2118 1 62.1599 11.9209 741 116.98 641.256 448.086
2119 0 64.1344 11.1641 716 116.352 641.941 442.138
2120 0 67.0779 13.7601 923 114.374 641.887 443.093
2121 0 68.1148 13.4773 918 114.989 641.541 443.374
2122 0 71.0827 13.1256 933 115.976 640.924 444.031
2123 0 71.0661 13.1568 935 117.484 641.29 441.522
2124 0 76.1821 14.2553 1086 113.83 640.785 440.332
2125 0 79.0979 13.5275 1070 115.951 641.802 441.062
2126 0 81.1172 12.9442 1050 113.87 642.511 441.825
2127 0 81.1243 12.4993 1014 116.389 641.885 441.405
2128 0 86.0541 13.5031 1162 114.41 641.644 438.083
2129 0 91.0584 13.3211 1213 113.665 641.749 439.063
2130 0 91.1297 12.5974 1148 118.104 641.436 434.984
2131 0 94.1649 11.4905 1082 123.782 640.75 433.783
2132 0 97.2148 11.6443 1132 123.706 640.193 431.655
2133 0 101.097 12.5227 1266 121.228 640.449 430.526
2134 0 105.129 11.7285 1233 124.932 639.916 428.269
2135 1 54.0607 11.5426 624 111.833 641.724 457.168
2136 0 56.118 11.066 621 115.24 640.433 455.799
2137 0 56.12 11.4932 645 118.811 640.974 455.305
2138 0 58.1562 11.1768 650 120.826 640.465 454.148
2139 0 60.0752 11.5688 695 119.278 640.938 452.967
2140 0 60.1177 10.7622 647 121.835 640.981 452.906
2141 0 63.2658 11.3173 716 121.211 640.962 450.863
2142 0 66.2196 12.4737 826 118.464 641.002 449.823
2143 0 67.169 12.4164 834 119.867 640.966 447.701
2144 0 70.2678 12.7655 897 119.271 640.919 448.158
2145 0 72.3196 12.6937 918 120.812 640.523 447.77
2146 0 75.2827 12.2605 923 123.298 640.631 446.193
2147 0 77.2429 13.5288 1045 121.878 640.878 443.294
2148 0 79.4729 12.671 1007 125.307 640.379 442.996
2149 0 82.3869 13.558 1117 125.487 640.548 441.299
2150 0 84.2894 13.3587 1126 126.731 640.679 440.298
2151 0 86.2059 12.7833 1102 130.175 640.064 438.946
2152 0 90.3811 14.5827 1318 124.65 640.265 437.385
2153 0 92.2002 13.1453 1212 128.996 640.625 436.066
2154 0 93.2119 12.4984 1165 125.985 640.039 435.72
2155 0 96.2287 12.2105 1175 127.987 641.07 434.026
2156 0 97.1687 12.6481 1229 127.375 640.495 433.12
2157 0 100.266 11.7388 1177 130.604 640.992 433.496
2158 0 104.099 11.441 1191 132.234 640.638 431.658
2159 0 109.138 12.1864 1330 130.214 640.385 431.034
2160 0 113.294 13.0104 1474 126.486 641.043 428.363
2161 1 60.2584 11.2515 678 124.86 640.372 454.046
2162 0 62.2329 10.8303 674 127.985 640.843 451.955
2163 0 66.3416 12.315 817 117.121 641.144 446.979
2164 0 66.2516 11.3507 752 122.459 640.283 447.23
2165 0 70.2915 11.936 839 120.408 640.411 443.59
2166 0 72.256 12.082 873 120.771 640.27 441.251
2167 0 76.3258 12.1715 929 119.952 640.475 439.974
2168 0 78.3414 13.3008 1042 119.198 640.756 437.108
2169 0 79.4693 12.3695 983 122.467 641.094 436.198
2170 0 83.4956 11.5575 965 126.688 640.381 437.794
2171 0 88.3583 13.0378 1152 123.602 640.653 433.063
2172 0 88.3301 12.2721 1084 124.947 641.297 431.458
2173 0 91.3334 13.4562 1229 120.509 641.695 431.064
2174 0 97.288 12.8998 1255 119.692 641.18 430.472
2175 0 99.321 11.9109 1183 123.026 640.619 429.611
2176 0 102.39 12.0324 1232 124.252 640.702 425.657
2177 1 55.1779 10.9464 604 119.626 641.664 450.151
2178 0 57.1862 11.5238 659 117.287 641.753 441.548
2179 0 59.2115 11.5687 685 117.356 641.171 441.585
2180 0 61.0926 12.9803 793 115.397 641.627 447.332
2181 0 62.0969 12.4644 774 116.685 641.739 447.36
2182 0 65.1775 11.8139 770 118.242 641.509 446.157
2183 0 65.2029 12.3154 803 117.012 641.867 444.452
2184 0 66.1821 11.5288 763 120.316 641.695 440.575
2185 0 68.0805 11.0164 750 114.396 641.127 441.287
2186 0 69.0825 10.2197 706 113.816 641.164 449.603
2187 0 74.1042 12.1181 898 108.517 640.835 446.861
2188 0 73.0622 9.18395 671 117.72 641.615 444.466
2189 0 79.124 12.9038 1021 114.257 640.302 444.207
2190 0 79.124 12.8785 1019 128.132 640.304 444.242
2191 0 83.0923 10.9035 906 121.164 640.06 440.943
2192 0 86.1641 11.7915 1016 120.626 640.041 439.562
2193 0 87.1787 11.4248 996 122.864 639.646 437.064
2194 0 91.1785 11.483 1047 123.484 639.817 436.97
2195 1 46.0851 9.48246 437 117.096 641.854 461.133
2196 0 48.0328 9.84743 473 115.767 642.237 462.545
2197 0 50.0648 10.7261 537 115.845 642.034 459.43
2198 0 52.0402 10.1076 526 117.835 641.848 460.639
2199 0 51.1095 11.6417 595 118.015 641.763 458.145
2200 0 52.0468 9.97179 519 121.27 642.237 457.788
2201 0 58.075 9.65992 561 120.421 641.743 456.913
2202 0 57.0506 10.7624 614 120.155 641.119 455.516
2203 0 60.0477 11.2744 677 117.448 641.549 455.295
2204 0 61.0262 10.602 647 119.83 641.943 454.158
2205 0 64.116 11.6352 746 118.188 641.083 453.496
2206 0 66.1145 11.9792 792 118.413 641.553 451.659
2207 0 66.0745 10.7908 713 124.027 641.662 451.171
2208 0 67.1009 11.3262 760 123.458 641.062 449.058
2209 0 71.1174 10.9818 781 124.434 640.914 448.854
2210 0 73.0979 11.9839 876 124.368 641.46 447.624
2211 0 75.1356 11.6722 877 125.615 641.127 448.746
2212 0 76.1244 11.6126 884 126.234 641.43 447.235
2213 0 77.205 11.463 885 126.673 641.493 448.899
2214 0 83.1521 12.3148 1024 124.805 641.425 445.475
2215 0 85.0666 11.4028 970 126.975 641.382 444.956
2216 0 89.0728 11.4176 1017 127.555 641.167 442.792
2217 0 91.089 12.5152 1140 124.134 641.312 443.228
2218 0 94.1443 11.493 1082 125.982 640.713 442.76
2219 0 99.2743 12.2287 1214 123.195 640.842 443.519
2220 0 99.1996 12.0464 1195 124.19 640.035 442.998
2221 0 103.176 10.613 1095 129.058 640.651 440.753
2222 0 106.26 10.8978 1158 129.889 640.284 436.773
2223 0 111.32 8.85735 986 133.028 639.753 439.005
2224 0 111.351 12.2855 1368 127.226 641.178 437.879
2225 0 114.158 10.6607 1217 130.063 641.046 438.339
2226 1 59.0448 10.5174 621 120.514 641.689 462.072
2227 0 63.0801 9.40074 593 122.492 641.405 453.853
2228 0 61.1492 9.9756 610 122.352 641.438 451.203
2229 0 65.0443 10.8541 706 120.239 641.088 449.885
2230 0 68.1106 11.0556 753 118.758 640.683 449.106
2231 0 69.1168 11.6614 806 118.37 641.036 448.701
2232 0 72.1603 11.0726 799 120.308 640.932 447.722
2233 0 71.051 10.2462 728 123.78 641.659 445.647
2234 0 76.0963 11.814 899 119.306 641.071 446.205
2235 0 76.1195 11.9023 906 124.438 642.175 444.483
2236 0 78.0227 11.2788 880 126.9 642.943 444.143
2237 0 82.0401 12.5914 1033 124.349 642.633 442.163
2238 0 86.0406 11.5062 990 126.662 642.382 442.597
2239 0 88.0946 12.0779 1064 125.964 642.617 439.293
2240 0 90.0557 11.7927 1062 127.894 642.144 438.405
2241 0 95.0405 12.9313 1229 124.659 642.253 437.049
2242 0 97.3201 12.2585 1193 126.521 640.899 435.174
2243 0 99.3943 12.5862 1251 126.906 640.557 434.436
2244 0 104.324 13.5348 1412 123.803 640.921 431.55
2245 1 53.0202 10.5054 557 120.278 642.384 457.548
2246 0 58.0359 10.7347 623 114.002 641.27 457.549
2247 0 59.075 11.8663 701 116.755 641.451 455.649
2248 0 58.1251 10.7527 625 115.272 639.669 455.862
2249 0 58.0753 10.4864 609 116.87 640.044 454.67
2250 0 63.0731 11.5897 731 113.25 640.915 453.115
2251 0 65.0317 12.4093 807 111.193 640.632 451.452
2252 0 66.0959 11.0597 731 114.071 640.871 452.086
2253 0 69.082 11.262 778 114.048 640.23 448.771
2254 0 70.0621 10.5478 739 116.581 640.824 449.365
2255 0 70.0978 11.1701 783 118.077 639.724 445.331
2256 0 76.101 12.5754 957 113.152 640.333 446.361
2257 0 79.1013 11.9846 948 114.284 640.613 447.879
2258 0 80.1694 12.0121 963 116.023 640.168 446.364
2259 0 81.114 11.4654 930 116.472 640.999 445.44
2260 0 86.0596 11.6547 1003 115.572 641.011 443.982
2261 0 90.1577 12.0012 1082 114.295 640.538 444.469
2262 0 90.2302 10.4289 941 119.524 639.688 441.962
2263 1 47.1903 10.1928 481 112.682 639.867 468.069
2264 0 50.2321 11.0885 557 117.46 639.106 467.422
2265 0 47.076 9.13416 430 116.072 639.551 467.067
2266 0 51.0603 10.5953 541 111.54 639.238 468.403
2267 0 51.1119 8.56943 438 116.863 638.584 468.048
2268 0 52.0482 9.77939 509 115.919 638.422 467.181
2269 0 54.0778 9.30141 503 114.887 638.61 468.952
2270 0 57.1022 11.4356 653 110.795 638.383 467.479
2271 0 59.0912 10.3738 613 114.018 637.853 465.765
2272 0 63.1298 11.4526 723 112.028 637.638 466.315
2273 0 66.0705 11.3212 748 113.691 637.352 464.84
2274 0 70.1308 11.2647 790 113.528 637.946 464.422
2275 0 72.1267 11.5353 832 117.966 637.034 461.886
2276 0 72.1475 11.5319 832 119.931 636.462 459.472
2277 0 76.1404 12.7134 968 116.204 636.424 460.823
2278 0 79.141 12.5599 994 116.713 636.634 458.504
2279 0 78.1233 10.8546 848 123.866 636.215 455.108
2280 0 84.142 11.5994 976 120.398 635.721 455.124
2281 0 87.1606 10.9912 958 121.769 636.407 450.918
2282 1 42.058 10.0813 424 111.554 636.179 472.08
2283 0 44.0124 9.13379 402 114.808 637.07 473.231
2284 0 46.0204 9.93038 457 114.869 637.057 472.236
2285 0 48.0926 11.8729 571 107.594 634.576 470.629
2286 0 49.0438 11.0514 542 109.648 634.993 470.531
2287 0 53.0493 11.8003 626 107.316 635.077 470.021
2288 0 54.0581 11.3766 615 108.616 634.15 470.881
2289 0 54.1361 12.7087 688 107.333 633.949 469.214
2290 0 55.0775 10.7848 594 112.737 633.64 468.726
2291 0 57.0883 11.2983 645 110.572 633.938 470.597
2292 0 59.0755 11.7985 697 108.783 634.261 470.096
2293 0 61.0559 13.0372 796 107.198 634.035 466.353
2294 0 64.0784 12.7344 816 107.245 635.43 467.725
2295 0 64.0708 12.9544 830 107.648 635.431 467.893
2296 0 66.0938 12.6033 833 110.143 634.886 466.365
2297 0 65.147 12.633 823 112.516 635.068 464.88
2298 0 71.1934 12.0517 858 112.488 635.39 463.537
2299 0 73.0619 12.5373 916 112.77 634.655 461.953
2300 0 75.1306 11.7396 882 115.32 634.916 460.642
2301 0 79.1548 12.166 963 114.741 634.98 459.688
2302 0 80.089 11.7619 942 117.001 635.058 458.207
2303 0 84.0709 12.4181 1044 116.904 634.438 455.602
2304 0 86.1211 10.9729 945 121.112 634.357 454.138
2305 1 43.0515 9.45378 407 115.369 635.184 476.713
2306 0 46.0574 11.5725 533 112.186 634.953 473.749
2307 0 47.1576 12.2356 577 111.447 634.754 476.043
2308 0 49.2155 11.4801 565 122.43 634.522 474.375
2309 0 49.1424 12.4943 614 121.407 633.998 473.438
2310 0 51.2134 11.3056 579 123.598 633.724 471.95
2311 0 52.1411 11.699 610 122.454 634.18 470.392
2312 0 53.1463 11.1014 590 123.217 634.178 470.588
2313 0 57.1898 12.3099 704 119.811 633.548 469.024
2314 0 58.0789 12.1214 704 119.291 635.149 469.033
2315 0 61.1695 11.8033 722 117.604 633.963 468.634
2316 0 61.1023 12.2745 750 118.743 634.284 465.32
2317 0 63.1155 11.8196 746 120.576 634.078 464.665
2318 0 62.23 12.277 764 121.503 633.301 462.054
2319 0 68.1716 11.6031 791 120.833 633.357 461.838
2320 0 65.0815 10.9401 712 125.735 633.819 457.115
2321 0 72.155 11.6555 841 121.926 634.051 458.175
2322 0 72.0828 11.4729 827 124.765 634.047 454.404
2323 0 76.1178 11.2326 855 124.294 634.744 456.944
2324 1 41.0656 10.7146 440 113.841 636.195 473.955
2325 0 42.0109 11.0685 465 113.546 635.785 472.129
2326 0 42.0817 10.6935 450 116.151 634.638 470.153
2327 0 41.0162 11.5077 472 124.748 636.831 474.169
2328 0 44.0242 10.4034 458 126.727 636.133 472.607
2329 0 46.0323 11.3399 522 124.019 636.772 472.605
2330 0 47.0653 11.2609 530 124.994 636.238 471.087
2331 0 48.0122 11.7887 566 123.193 636.341 470.581
2332 0 52.0328 11.7041 609 122.113 636.276 470.593
2333 0 51.0478 11.1856 571 125.79 636.21 468.228
2334 0 52.0569 13.1587 685 120.169 636.026 466.047
2335 0 53.0298 11.6161 616 123.964 636.87 466.341
2336 0 57.0985 11.9793 684 121.921 636.077 464.944
2337 0 56.0636 11.594 650 124.214 635.926 464.482
2338 0 60.0664 12.1199 728 122.716 636.24 462.143
2339 0 60.0524 11.9895 720 124.804 636.583 460.386
2340 0 61.127 12.4168 759 124.903 636.609 457.614
2341 0 64.0888 11.9366 765 124.746 636.297 459.609
2342 0 67.1113 12.6655 850 124.838 636.341 456.485
2343 0 68.1499 13.0594 890 125.315 636.109 455.254
2344 0 70.0536 12.4048 869 127.931 636.32 452.616
2345 0 72.0494 12.1861 878 129.778 636.608 451.065
2346 0 74.0308 12.4002 918 130.02 636.703 450.574
2347 0 77.0673 12.7032 979 129.105 636.621 449.625
2348 0 80.0784 13.1621 1054 129.461 636.395 445.188
2349 0 84.1098 13.2208 1112 129.365 637.094 444.639
2350 0 88.1122 14.0276 1236 127.788 636.753 443.158
2351 1 47.0716 11.4506 539 123.403 636.978 462.082
2352 0 48.1199 12.3234 593 125.078 637.84 457.511
2353 0 51.0762 12.8435 656 133.927 637.936 456.308
2354 0 49.0435 12.5807 617 137.694 638.097 456.076
2355 0 53.0432 13.555 719 134.676 638.227 454.228
2356 0 56.0394 14.3827 806 129.875 638.658 454.072
2357 0 56.0218 13.7268 769 133.295 639.291 451.701
2358 0 57.0391 13.6398 778 134.081 638.875 451.783
2359 0 59.0933 14.0287 829 132.761 638.826 451.148
2360 0 61.098 13.0119 795 136.337 639.512 448.613
2361 0 62.0808 13.3214 827 135.162 639.802 447.901
2362 0 64.0916 13.9644 895 133.717 639.78 447.94
2363 0 66.0206 13.9047 918 134.183 639.093 445.766
2364 0 66.076 14.0142 926 134.806 639.56 445.57
2365 0 71.0586 13.9462 991 133.279 639.658 443.49
2366 0 72.0918 14.1902 1023 133.436 639.282 442.58
2367 0 75.2677 13.5915 1023 134.021 638.626 442.334
2368 0 77.1342 14.4424 1114 132.623 638.571 438.772
2369 0 79.1677 13.8819 1099 134.527 638.605 439.3
2370 0 80.1874 12.8823 1033 138.334 638.835 438.966
2371 0 85.3112 12.8354 1095 136.827 638.286 436.942
2372 1 43.102 10.742 463 131.689 638.296 457.063
2373 0 42.1842 10.6912 451 132.044 638.933 456.071
2374 0 46.0742 13.1961 608 122.582 638.796 456.145
2375 0 47.15 13.4676 635 122.043 638.861 454.299
2376 0 48.0967 13.6808 658 123.091 639.426 452.246
2377 0 50.1074 13.3314 668 122.901 639.313 453.123
2378 0 50.046 13.2678 664 124.873 639.172 451.62
2379 0 52.1395 12.2364 638 125.821 639.445 452.136
2380 0 55.0726 13.7273 756 121.356 639.694 450.643
2381 0 56.075 13.9456 782 121.042 639.746 448.39
2382 0 59.2275 14.5034 859 118.293 639.426 447.665
2383 0 61.1123 13.1234 802 121.271 639.783 448.461
2384 0 62.0991 14.5252 902 118.386 639.344 447.044
2385 0 61.0807 13.6541 834 122.243 640.062 446.516
2386 0 63.0779 12.6986 801 124.78 639.534 445.021
2387 0 68.2081 13.1949 900 122.26 639.422 443.658
2388 0 69.1011 13.5164 934 122.816 639.44 442.594
2389 0 71.1502 14.2515 1014 121.295 639.322 443.235
2390 0 71.201 13.7779 981 124.039 639.812 443.029
2391 0 75.1037 12.9155 970 125.984 640.035 440.446
2392 0 78.1503 14.5873 1140 120.828 639.6 440.591
2393 0 78.0946 13.1763 1029 127.471 639.493 437.448
2394 0 82.1318 12.626 1037 128.574 638.844 437.814
2395 0 84.1311 13.479 1134 126.215 638.947 437.904
2396 0 88.1183 13.4592 1186 126.234 639.47 435.47
2397 0 91.1341 13.9465 1271 125.398 639.516 432.83
2398 0 94.1497 13.4785 1269 126.329 639.631 433.087
2399 1 49.0282 12.1767 597 126.869 640.972 454.32
2400 0 51.0496 13.4379 686 126.853 639.724 451.283
2401 0 54.0969 12.607 682 125.956 639.798 452.598
2402 0 55.105 13.4289 740 124.008 640.043 452.85
2403 0 54.2328 12.9442 702 128.009 639.903 448.842
2404 0 58.0679 13.9492 810 124.419 639.936 449.194
2405 0 61.1076 12.928 790 126.071 640.877 448.662
2406 0 63.1205 13.9574 881 123.422 640.192 448.32
2407 0 63.1129 13.0243 822 127.483 640.349 446.979
2408 0 65.097 12.1204 789 130.001 640.029 445.954
2409 0 70.163 13.2691 931 126.614 639.71 444.158
2410 0 72.0908 13.6911 987 124.929 639.97 445.319
2411 0 72.0841 13.3178 960 128.67 640.458 442.927
2412 0 75.0878 12.5586 943 130.626 640.234 441.801
2413 0 76.0988 13.7716 1048 129.637 639.986 440.403
2414 0 80.1132 12.7944 1025 130.67 639.722 440.12
2415 0 84.0689 14.0599 1182 127.447 639.63 436.842
2416 0 86.1329 12.5504 1081 131.921 639.248 435.379
2417 0 89.2283 12.9667 1157 127.225 639.899 437.024
2418 0 92.206 13.1336 1211 128.344 640.2 433.621
2419 1 49.0773 11.5328 566 129.244 640.887 453.136
2420 0 51.0516 11.792 602 126.621 641.032 452.355
2421 0 54.0534 12.5247 677 126.303 641.143 451.272
2422 0 54.0463 12.1562 657 128.204 640.932 450.011
2423 0 58.0485 12.6963 737 123.868 641.107 450.639
2424 0 60.0428 12.9075 775 123.235 640.946 448.585
2425 0 62.1044 13.3324 828 122.022 640.947 447.768
2426 0 64.1441 12.9552 831 122.694 640.818 445.557
2427 0 66.0841 13.044 862 122.173 640.977 444.883
2428 0 66.0518 12.5507 829 125.321 640.797 442.93
2429 0 69.0987 13.0393 901 123.053 641.175 443.053
2430 0 73.115 14.0874 1030 120.068 640.638 441.079
2431 0 75.1145 14.7508 1108 118.056 640.392 440.661
2432 0 78.1089 13.75 1074 120.779 640.819 439.474
2433 0 79.1428 13.5704 1074 122.492 639.874 438.625
2434 0 81.1844 13.2784 1078 123.848 639.25 436.122
2435 1 48.0454 10.6358 511 120.978 640.785 454.442
2436 0 46.0502 11.6178 535 119.499 640.475 453.249
2437 0 49.0505 12.2119 599 115.107 641.374 452.559
2438 0 50.0584 12.006 601 117.145 641.14 451.857
2439 0 52.0435 11.3559 591 118.457 640.915 452.406
2440 0 55.0492 12.5342 690 115.468 641.128 449.309
2441 0 54.1292 11.6758 632 119.441 641.275 448.987
2442 0 56.0448 13.0967 734 115.331 641.234 449.745
2443 0 58.0121 12.7043 737 117.418 641.503 448.528
2444 0 60.0551 12.5385 753 118.457 641.598 448.19
2445 0 63.0694 12.843 810 118.769 641.13 445.61
2446 0 63.0775 12.0645 761 122.243 641.719 445.325
2447 0 66.0848 12.5596 830 119.34 641.58 446.263
2448 0 69.0671 11.7133 809 122.394 641.022 443.204
2449 0 73.0865 13.7919 1008 116.604 641.38 441.087
2450 0 75.0903 14.2895 1073 115.737 640.86 441.596
2451 0 78.1219 14.5798 1139 115.104 640.579 440.371
2452 0 81.1055 13.8338 1122 117.34 640.611 439.671
2453 0 83.0706 13.5668 1127 118.982 640.594 436.463
2454 1 40.1407 9.21758 370 121.395 641.822 457.846
2455 0 42.0646 11.102 467 117.805 641.535 457.403
2456 0 41.0133 10.6795 438 113.315 641.342 466.021
2457 0 42.0211 9.89979 416 117.502 640.832 465.236
2458 0 43.0503 11.0801 477 114.719 641.18 464.901
2459 0 45.0356 11.4354 515 116.037 641.006 461.637
2460 0 47.0154 11.358 534 114.575 641.163 462.375
2461 0 47.0193 11.7611 553 115.552 641.452 460.043
2462 0 48.0419 11.4067 548 116.281 641.396 459.248
2463 0 49.0077 12.345 605 113.916 640.55 461.342
2464 0 51.0705 10.8086 552 117.931 641.431 459.725
2465 0 51.048 11.5773 591 117.919 641.545 458.509
2466 0 53.0175 12.0526 639 116.869 641.718 457.188
2467 0 55.0523 11.698 644 117.477 641.748 456.776
2468 0 58.0362 11.7513 682 117.001 641.919 455.067
2469 0 60.0503 12.8392 771 114.032 641.333 454.163
2470 0 61.0803 12.3935 757 116.728 641.581 453.211
2471 0 63.0107 12.8232 808 116 641.369 452.323
2472 0 64.1417 12.3009 789 114.716 641.594 453.075
2473 0 65.06 11.328 737 118.929 641.301 449.399
2474 0 67.0435 11.9773 803 117.288 641.984 446.837
2475 0 70.085 11.643 816 118.525 641.317 444.721
2476 0 73.1163 11.9262 872 116.951 641.562 447.503
2477 0 73.1163 12.3502 903 139.769 642.579 447.616
2478 0 76.0516 11.3607 864 120.747 641.755 443.943
2479 1 41.0078 10.0713 413 117.45 642.615 461.789
2480 0 44.0358 10.7185 472 116.761 641.699 461.049
2481 0 47.0262 11.3554 534 114.543 641.567 459.292
2482 0 47.1551 11.2819 532 106.271 640.154 460.872
2483 0 46.1336 10.1661 469 111.616 640.397 460.804
2484 0 49.1119 10.6899 525 109.817 639.895 461.069
2485 0 51.1319 10.5609 540 110.839 640.391 459.917
2486 0 50.1036 11.3565 569 111.042 640.78 458.062
2487 0 52.1168 9.82408 512 115.725 640.766 456.467
2488 0 55.1389 9.467 522 116.795 641.102 456.739
2489 0 55.1389 9.467 522 116.795 641.102 456.739
2490 0 59.1313 11.2123 663 111.407 640.573 456.367
2491 0 58.1407 9.32221 542 115.282 641.122 457.284
2492 0 60.1178 10.9618 659 113.648 641.094 454.797
2493 0 61.1269 11.2716 689 113.824 640.652 453.226
2494 0 64.125 11.1813 717 113.821 640.616 453.763
2495 0 66.1244 12.0682 798 113.293 640.006 449.639
2496 0 69.1095 10.6787 738 114.322 640.614 452.129
2497 0 72.2576 12.317 890 112.291 640.139 447.766
2498 0 73.0894 10.9045 797 116.497 639.888 444.271
2499 1 38.0115 9.62865 366 115.448 640.798 463.243
2500 0 38.0146 11.0221 419 116.379 640.389 463.475
2501 0 39.0595 11.1369 435 119.816 640.97 460.775
2502 0 40.0204 11.3692 455 120.081 640.741 459.963
2503 0 43.0324 12.4557 536 116.015 640.862 460.455
2504 0 45.0722 12.1805 549 116.186 640.719 459.872
2505 0 43.0194 12.1805 524 119.54 640.544 459.639
2506 0 46.0429 11.8368 545 120.613 641.002 458.868
2507 0 46.0509 12.1822 561 120.21 641.383 458.162
2508 0 50.0286 12.1531 608 120.038 641.003 455.48
2509 0 49.0457 12.5801 617 119.65 641.313 456.507
2510 0 51.0125 12.5459 640 121.095 641.011 454.331
2511 0 54.0412 13.2676 717 118.989 640.798 454.668
2512 0 53.0812 11.1716 593 127.081 640.712 454.074
2513 0 54.0394 12.5094 676 123.914 640.874 453.623
2514 0 55.0496 12.6068 694 124.465 641.223 453.829
2515 0 58.089 13.8408 804 121.425 641.081 451.072
2516 0 60.028 12.7774 767 124.349 640.833 452.025
2517 0 60.0467 12.6901 762 126.016 640.802 450.672
2518 0 63.0191 14.3607 905 121.659 640.913 450.72
2519 0 66.0475 13.778 910 123.055 640.887 449.569
2520 0 67.0804 13.6552 916 124.986 641.175 447.927
2521 0 68.0246 13.304 905 127.212 641.282 445.56
2522 0 70.0314 14.2079 995 125.075 641.339 443.378
2523 0 72.0444 13.2141 952 128.764 640.925 443.348
2524 0 74.0561 12.8281 950 131.28 641.276 441.592
2525 0 78.2615 13.4038 1049 128.759 640.265 440.528
2526 0 80.1611 14.421 1156 126.356 640.572 439.511
2527 0 83.2629 13.2832 1106 129.466 641.279 439.114
2528 0 86.1918 13.5744 1170 128.581 641.227 435.59
2529 1 43.0412 10.6642 459 126.383 640.244 456.965
2530 0 47.1219 10.8442 511 122.477 640.91 456.225
2531 0 48.0366 11.9492 574 116.24 641.077 455.927
2532 0 47.0091 9.76407 459 123.211 640.362 454.122
2533 0 50.1475 11.5858 581 117.807 641.435 454.225
2534 0 51.0492 10.5584 539 121.404 641.417 454.213
2535 0 52.0633 9.98784 520 123.456 641.035 452.637
2536 0 54.055 12.1543 657 120.024 640.549 449.636
2537 0 56.0823 12.7669 716 118.725 641.215 449.149
2538 0 58.1033 11.9787 696 119.698 641.471 449.909
2539 0 60.1771 11.649 701 121.665 640.415 448.074
2540 0 63.2129 12.2443 774 118.381 640.539 447.687
2541 0 64.0969 11.9663 767 120.956 640.832 445.789
2542 0 67.0652 12.4357 834 119.978 640.522 445.422
2543 0 68.185 11.4248 779 123.116 641.246 444.371
2544 0 70.1266 11.9641 839 124.129 641.311 442.019
2545 0 71.2137 11.627 828 124.924 641.528 440.882
2546 0 74.1796 12.281 911 123.733 641.184 439.44
2547 0 77.1259 12.6935 979 123.875 641.337 438.247
2548 0 80.1792 12.6716 1016 123.18 641.68 437.993
2549 0 85.194 13.0408 1111 121.875 641.67 436.066
2550 1 47.1137 11.0584 521 125.345 641.804 454.111
2551 0 49.0666 11.1277 546 126.363 641.723 454.473
2552 0 50.0901 12.218 612 122.742 641.292 452.1
2553 0 50.0227 11.2949 565 129.474 641.883 452.354
2554 0 52.0668 11.4276 595 128.405 641.936 451.536
2555 0 55.0295 12.6296 695 124.568 641.958 450.276
2556 0 57.0739 13.3686 763 122.041 642.022 448.861
2557 0 59.1131 13.7025 810 120.864 642.205 448.873
2558 0 60.0981 12.3964 745 124.36 641.993 447.573
2559 0 64.0693 13.0328 835 121.635 641.673 447.049
2560 0 64.1428 13.6103 873 120.756 642.074 446.07
2561 0 67.1 12.9061 866 121.693 641.368 445.857
2562 0 69.1339 13.1629 910 121.016 641.124 443.564
2563 0 71.2768 12.3462 880 122.516 640.467 443.16
2564 0 73.3412 13.5804 996 119.296 640.578 442.987
2565 0 72.1572 12.0154 867 125.885 640.758 438.543
2566 0 75.1782 11.3464 853 126.728 640.625 438.606
2567 0 81.2026 12.4257 1009 122.628 640.834 434.985
2568 1 40.0299 8.84338 354 117.147 640.76 459.859
2569 0 41.0482 10.4268 428 112.682 640.82 457.822
2570 0 43.0895 11.07 477 113.201 640.964 452.092
2571 0 44.1217 11.5589 510 109.749 641.424 456.624
2572 0 44.098 12.2001 538 109.558 641.374 455.961
2573 0 48.0884 12.2275 588 108.723 641.199 454.333
2574 0 47.1228 12.2022 575 110.386 641.144 452.753
2575 0 51.0431 12.4209 634 108.552 641.798 451.915
2576 0 52.1585 12.1169 632 107.328 641.354 451.706
2577 0 53.0262 12.2581 650 107.378 640.846 451.572
2578 0 56.1258 12.9709 728 105.934 640.6 449.959
2579 0 56.0793 13.0173 730 106.419 640.742 449.985
2580 0 59.0779 12.7289 752 106.826 641.287 447.844
2581 0 60.0936 13.2294 795 105.848 640.526 447.601
2582 0 62.0902 12.7073 789 107.9 640.649 445.882
2583 0 65.0976 13.3492 869 106.245 640.591 446.085
2584 0 65.0308 12.3787 805 110.703 641.101 444.923
2585 0 69.1286 13.0337 901 108.679 640.637 442.717
2586 0 72.0782 13.7767 993 107.36 640.638 441.522
2587 0 72.107 13.5216 975 108.676 640.911 441.865
2588 0 74.0757 11.9742 887 114.178 641.105 440.317
2589 0 78.1098 12.9817 1014 113.062 641.53 438.717
2590 0 80.0612 12.0658 966 116.72 640.971 436.751
2591 0 83.0889 13.5036 1122 114.795 641.48 434.863
2592 1 44.0309 10.697 471 118.902 641.202 455.412
2593 0 47.0708 12.6405 595 123.123 640.667 455
2594 0 48.095 13.3486 642 113.193 641.304 451.069
2595 0 48.0234 12.369 594 116.926 640.904 451.416
2596 0 51.0419 13.675 698 114.292 640.732 450.489
2597 0 51.0701 13.2367 676 116.609 641.426 451.53
2598 0 52.0524 11.7382 611 121.416 641.548 449.728
2599 0 54.0355 14.0278 758 115.669 641.252 449.579
2600 0 54.0128 13.0339 704 120.305 641.014 448.324
2601 0 58.0731 13.7069 796 118.3 640.892 447.997
2602 0 60.0632 14.3182 860 117.578 641.06 446.453
2603 0 62.0393 14.2329 883 119.708 640.846 446.761
2604 0 63.1026 14.1357 892 121.279 641.512 446.352
2605 0 65.0717 13.6772 890 124.473 641.408 443.404
2606 0 66.0707 13.5915 898 126.434 641.934 443.538
2607 0 69.0373 14.7456 1018 124.055 641.779 442.25
2608 0 70.1179 14.9605 1049 126.032 641.763 440.552
2609 0 73.1126 14.1562 1035 128.963 641.566 441.139
2610 0 76.076 14.525 1105 128.434 641.167 438.765
2611 0 78.0686 14.0389 1096 130.276 641.536 438.284
2612 0 79.0278 14.1849 1121 132.267 641.457 437.345
2613 0 82.0989 14.7261 1209 130.776 641.519 437.208
2614 0 85.0373 14.9111 1268 130.417 641.555 435.423
2615 0 89.0714 14.5613 1297 131.825 641.935 433.744
2616 0 91.0554 13.1019 1193 136.013 641.681 434.547
2617 0 95.056 14.2337 1353 133.146 640.705 431.588
2618 0 100.056 14.1221 1413 132.594 640.985 431.355
2619 1 51.0193 13.4067 684 134.496 641.076 452.33
2620 0 54.0659 14.0939 762 131.484 640.929 451.862
2621 0 56.0987 14.1536 794 130.196 640.707 450.86
2622 0 58.0658 13.9325 809 131.431 640.612 450.855
2623 0 58.0397 13.0945 760 130.895 640.43 452.039
2624 0 61.0514 15.6098 953 124.466 640.664 450.17
2625 0 63.1391 14.3176 904 127.334 640.06 450.125
2626 0 65.067 14.2776 929 127.039 640.672 451.216
2627 0 66.0828 14.8601 982 127.754 640.7 448.655
2628 0 67.0681 13.7174 920 132.203 640.382 448.885
2629 0 71.1646 13.9676 994 129.799 640.552 448.002
2630 0 71.0802 14.8565 1056 129 640.2 447.236
2631 0 74.1686 14.4805 1074 128.937 640.209 446.254
2632 0 76.151 14.4318 1099 129.976 640.348 444.411
2633 0 77.1073 14.8624 1146 130.094 640.216 443.33
2634 0 80.1584 15.0078 1203 129.724 639.981 443.613
2635 0 83.1598 14.911 1240 129.344 639.789 443.89
2636 0 86.2221 14.5554 1255 130.939 639.359 442.174
2637 0 90.0872 14.3195 1290 130.199 639.556 442.856
2638 0 92.0759 13.6083 1253 132.935 639.29 441.037
2639 0 93.1186 13.4023 1248 133.925 639.022 439.613
2640 0 98.0898 13.6304 1337 132.374 639.394 435.155
2641 0 104.263 14.3004 1491 129.846 638.81 427.932
2642 0 109.207 14.2848 1560 132.092 638.615 426.181
2643 1 58.2312 12.0039 699 131.186 638.649 449.438
2644 0 59.0902 13.5556 801 126.74 638.454 449.775
2645 0 63.1795 13.0106 822 123.725 638.928 451.518
2646 0 66.0852 13.4372 888 123.118 638.181 450.133
2647 0 67.0834 13.3863 898 121.706 637.717 447.32
2648 0 70.1385 12.7177 892 124.401 637.483 445.883
2649 0 72.1121 13.0491 941 124.562 637.071 443.538
2650 0 72.0537 12.8793 928 126.059 638.084 443.648
2651 0 78.0473 12.8896 1006 124.087 638.397 442.139
2652 0 80.0743 12.9755 1039 124.48 637.959 439.683
2653 0 82.0555 12.1259 995 125.402 638.184 439.74
2654 0 85.1402 11.4165 972 125.823 638.596 439.266
2655 1 45.0999 9.2018 415 114.916 638.523 459.398
2656 0 48.0303 9.97288 479 112.474 638.745 458.017
2657 0 49.0291 10.7487 527 109.397 638.74 456.941
2658 0 51.076 9.86766 504 115.687 636.504 457.867
2659 0 53.0617 10.7234 569 113.68 637.77 456.552
2660 0 52.0823 10.445 544 115.425 637.724 454.686
2661 0 56.0474 11.8471 664 110.355 637.286 455.319
2662 0 56.0546 11.2569 631 113.428 637.189 453.773
2663 0 56.0712 10.4153 584 115.781 636.793 451.507
2664 0 64.0388 11.7897 755 110.811 636.73 452
2665 0 64.1023 12.6829 813 110.127 636.782 450.058
2666 0 67.0651 12.4655 836 111.136 636.894 449.343
2667 0 66.1334 11.0534 731 117.026 636.672 443.679
2668 0 73.1562 13.437 983 109.814 636.482 446.034
2669 0 75.1166 12.0346 904 112.931 637.163 446.177
2670 0 76.1006 11.9973 913 115.378 637.039 443.495
2671 0 80.1819 11.9977 962 115.272 636.927 442.391
2672 0 81.0862 11.7776 955 117.347 637.109 440.128
2673 0 84.1096 11.7585 989 117.702 636.735 439.575
2674 0 88.1047 11.8382 1043 117.343 637.048 440.427
2675 0 90.1163 12.0955 1090 117.247 636.808 438.931
2676 0 92.1693 12.3143 1135 118.701 636.904 432.738
2677 0 94.1639 12.3614 1164 118.84 637.007 429.81
2678 0 100.269 12.1673 1220 117.805 637.057 430.883
2679 1 55.0402 11.3372 624 109.614 638.877 454.383
2680 0 58.1617 11.1414 648 116.866 638.537 450.415
2681 0 58.0144 12.1521 705 117.255 638.966 452.302
2682 0 59.0752 12.7295 752 117.201 639.445 451.634
2683 0 61.0257 12.7487 778 116.763 639.35 451.702
2684 0 63.0393 11.1518 703 120.535 638.804 452.718
2685 0 65.0694 11.9411 777 119.225 638.752 450.817
2686 0 67.0369 11.4415 767 121.6 638.57 450.137
2687 0 70.021 10.7396 752 124.473 638.706 448.56
2688 0 72.0336 10.4396 752 125.887 638.993 447.287
2689 0 77.0386 12.2925 947 121.165 638.829 443.601
2690 0 80.033 12.7697 1022 119.745 639.068 444.011
2691 0 83.1076 12.4898 1038 121.699 639.297 442.149
2692 1 41.026 9.82305 403 121.298 639.494 461.779
2693 0 44.0299 10.1068 445 120.306 639.551 461.697
2694 0 44.0087 10.3389 455 120.837 639.6 461.084
2695 0 46.0553 10.5308 485 113.555 639.361 460.291
2696 0 47.0688 10.7502 506 112.061 639.678 460.729
2697 0 46.1381 9.64495 445 117.094 639.67 459.717
2698 0 49.2056 12.2344 602 109.897 638.98 454.223
2699 0 52.1415 10.6249 554 114.935 639.666 456.711
2700 0 53.0707 11.8898 631 113.493 639.177 456.819
2701 0 55.1102 12.103 667 112.523 639.123 455.6
2702 0 57.1045 11.7854 673 114.186 638.915 453.973
2703 0 57.0516 11.6386 664 115.357 639.447 455.762
2704 0 60.1156 11.9104 716 114.469 638.87 453.573
2705 0 65.1137 12.8237 835 111.481 638.345 451.614
2706 0 64.1488 12.6737 813 113.278 637.61 450.294
2707 0 65.0935 12.0903 787 116.079 638.499 448.136
2708 0 68.123 12.4187 846 116.015 638.48 449.528
2709 0 70.0841 13.1842 924 114.931 638.754 445.332
2710 0 73.1626 12.4654 912 115.383 637.447 443.186
2711 0 77.1321 11.4868 886 122.184 637.488 440.27
2712 0 79.2198 11.487 910 118.034 638.401 440.923
2713 0 81.1855 11.5661 939 123.257 637.682 439.979
2714 0 81.116 10.6637 865 126.932 637.858 438.245
2715 1 46.0224 9.10427 419 119.274 638.585 457.062
2716 0 48.1446 10.8423 522 115.885 638.699 455.625
2717 0 48.0215 10.8285 520 116.273 638.758 455.813
2718 0 51.029 11.0525 564 115.949 639.071 456.259
2719 0 52.058 12.6205 657 113.597 639.093 454.632
2720 0 53.081 10.889 578 119.249 639.351 453.77
2721 0 56.0848 10.4306 585 117.819 639.234 456.414
2722 0 56.0592 11.7911 661 118.039 639.605 451.281
2723 0 59.0841 11.4752 678 118.099 639.218 452.425
2724 0 58.0433 10.6128 616 123.326 638.93 449.963
2725 0 63.0876 11.9041 751 118.156 639.056 452.222
2726 0 63.0973 12.9324 816 117.612 638.814 449.412
2727 0 63.1013 11.9807 756 120.06 638.832 448.632
2728 0 68.0919 11.9691 815 118.709 638.961 446.49
2729 0 69.0586 12.3518 853 117.306 638.607 441.528
2730 0 72.0326 12.4527 897 117.386 638.595 442.99
2731 0 74.1439 12.6646 939 116.431 639.823 442.271
2732 0 75.1278 11.1676 839 121.687 639.379 440.845
2733 0 77.1823 11.7644 908 121.957 638.704 439.019
2734 0 79.1818 11.8714 940 121.878 638.896 437.055
2735 0 82.2301 12.0029 987 122.516 639.345 435.694
2736 0 87.1213 12.7868 1114 119.992 639.469 433.746
2737 0 87.2147 12.1425 1059 121.898 639.281 432.985
2738 0 90.0874 12.2659 1105 123.021 639.343 434.619
2739 0 92.0958 10.728 988 127.092 639.284 433.641
2740 0 101.111 11.8681 1200 125.194 639.656 432.905
2741 0 101.111 11.8681 1200 125.194 639.656 432.905
2742 1 52.022 11.0915 577 126.51 640.456 453.464
2743 0 54.0448 11.3239 612 128.874 640.451 452.27
2744 0 58.0286 13.4589 781 121.544 641.188 451.115
2745 0 59.0733 12.2898 726 125.585 640.395 450.229
2746 0 63.1225 12.2143 771 122.987 640.441 452.22
2747 0 64.0339 13.4929 864 120.071 639.877 450.153
2748 0 65.0435 13.3757 870 119.885 640.685 449.038
2749 0 67.0665 12.8827 864 120.953 640.922 447.134
2750 0 67.1268 13.184 885 119.174 640.86 446.637
2751 0 69.0763 12.8988 891 120.262 640.836 444.725
2752 0 74.105 12.9411 959 118.246 641.178 444.114
2753 0 76.051 12.9255 983 117.924 640.816 444.978
2754 0 79.0834 11.3804 900 121.288 641.056 440.172
2755 0 81.2667 12.3298 1002 119.274 640.795 437.126
2756 0 84.2524 12.2252 1030 119.184 639.578 434.735
2757 0 87.1844 13.6951 1194 115.656 640.137 433.378
2758 0 88.3561 11.6461 1029 120.744 639.571 431.727
2759 0 92.3147 13.2482 1223 115.702 639.481 432.373
2760 0 96.2422 13.1127 1262 116.112 639.003 433.12
2761 1 49.0121 10.3036 505 116.184 638.863 457.846
2762 0 53.0263 12.0883 641 111.872 639.056 455.111
2763 0 54.1386 10.9903 595 111.111 639.461 454.556
2764 0 55.1249 11.1928 617 110.029 639.303 454.626
2765 0 55.0876 11.5997 639 110.624 639.185 453.294
2766 0 59.0606 12.4449 735 107.755 639.439 452.887
2767 0 58.0384 11.4062 662 111.746 639.103 450.39
2768 0 64.0796 12.781 819 106.274 639.206 450.923
2769 0 65.1719 13.2266 862 105.804 639.652 450.984
2770 0 65.0744 11.9709 779 109.273 639.764 449.7
2771 0 69.212 11.891 823 109.491 639.729 447.629
2772 0 72.1017 12.4685 899 108.697 639.884 446.219
2773 0 73.2551 12.6135 924 109.157 639.491 444.562
2774 0 76.0955 12.0769 919 109.55 639.347 445.622
2775 0 79.0883 12.8211 1014 109.542 639.234 442.14
2776 0 80.1521 12.8506 1030 109.958 638.691 442.551
2777 0 83.1756 12.7201 1058 111.074 639.161 438.841
2778 0 85.087 12.7987 1089 110.738 639.335 438.606
2779 0 88.1581 12.0012 1058 112.496 639.139 438.181
2780 0 87.1705 11.5177 1004 115.319 638.386 435.761
2781 0 94.1669 13.6141 1282 108.122 639.254 435.126
2782 0 97.1633 11.9695 1163 111.941 638.739 433.075
2783 0 100.173 12.3486 1237 112.664 638.762 431.417
2784 0 102.131 12.533 1280 111.93 638.909 430.738
2785 0 107.14 13.207 1415 112.657 638.147 427.094
2786 1 55.0957 11.0717 610 115.289 638.808 453.948
2787 0 58.0954 12.6516 735 110.833 638.257 452.925
2788 0 60.3301 13.1278 792 110.558 639.438 450.163
2789 0 64.242 13.169 846 108.28 639.654 449.552
2790 0 64.09 13.7463 881 108.112 640.653 448.26
2791 0 68.1879 14.6067 996 105.64 640.612 446.505
2792 0 70.1296 14.4019 1010 106.049 640.547 447.099
2793 0 72.094 13.8153 996 107.204 640.228 445.277
2794 0 74.1772 13.3869 993 108.934 639.994 443.047
2795 0 77.2685 14.6243 1130 105.555 639.965 438.108
2796 0 81.1092 13.6729 1109 107.707 640.182 438.524
2797 0 82.2495 14.5168 1194 106.759 639.589 437.44
2798 0 86.1799 12.9032 1112 110.201 640.041 435.95
2799 0 87.255 13.3402 1164 109.581 639.754 436.253
2800 0 92.2391 14.1155 1302 107.27 639.548 433.97
2801 0 95.1316 13.6337 1297 108.246 639.668 434.776
2802 1 52.0515 12.4108 646 109.15 638.971 454.319
2803 0 53.1414 10.9519 582 111.856 639.392 455.703
2804 0 54.1061 11.5329 624 113.287 638.933 452.434
2805 0 56.2785 12.8468 723 106.793 639.503 449.744
2806 0 60.5243 12.21 739 107.124 639.501 449.526
2807 0 62.199 12.4761 776 105.964 639.336 446.762
2808 0 62.199 12.5082 778 129.076 639.338 446.796
2809 0 65.2049 12.7291 830 105.571 639.74 441.076
2810 0 68.246 12.2791 838 106.226 639.673 442.988
2811 0 71.2146 11.7953 840 107.444 639.782 441.025
2812 0 72.1397 12.2124 881 107.192 639.689 439.866
2813 0 77.1492 12.923 997 104.885 640.021 438.918
2814 0 81.156 14.3797 1167 102.111 639.985 437.519
2815 0 84.2006 15.1899 1279 100.192 639.522 435.428
2816 0 89.0805 14.1445 1260 102.523 639.441 433.626
2817 0 88.2304 12.3994 1094 106.852 639.83 433.61
2818 0 92.1572 14.128 1302 103.834 640.627 429.376
2819 1 49.091 12.3648 607 99.4036 640.217 454.783
2820 0 51.0724 12.1788 622 101.201 639.571 451.658
2821 0 52.1824 11.5556 603 102.761 639.839 451.189
2822 0 54.1089 11.9204 645 102.327 639.299 454.181
2823 0 54.1455 12.3741 670 102.242 639.375 457.096
2824 0 56.1729 11.7851 662 105.033 639.106 453.867
2825 0 59.2274 12.1565 720 104.407 638.739 454.413
2826 0 60.2062 12.1748 733 105.694 639.289 450.022
2827 0 62.2326 11.923 742 105.809 639.72 451.617
2828 0 63.1975 11.6144 734 107.787 638.454 447.708
2829 0 64.2151 13.1122 842 105.08 638.8 446.229
2830 0 68.2255 13.5433 924 103.936 638.666 444.78
2831 0 68.246 12.1033 826 108.942 638.61 445.576
2832 0 70.1167 12.6503 887 104.958 638.52 448.7
2833 0 71.1208 12.4858 888 106.071 638.512 446.606
2834 0 75.1317 12.4847 938 105.423 638.778 446.062
2835 0 76.1294 13.3326 1015 105.027 638.64 444.86
2836 0 79.2163 12.3207 976 107.6 637.943 443.574
2837 0 81.1695 13.9708 1134 103.352 638.751 443.306
2838 0 83.2884 12.3907 1032 107.059 638.554 441.397
2839 0 86.1751 12.3237 1062 107.179 638.49 441.33
2840 0 91.1891 16.1752 1475 98.6624 638.835 438.1
2841 0 94.261 15.6905 1479 99.2738 638.303 435.678
2842 0 98.2228 14.2024 1395 101.664 638.168 432.591
2843 0 100.27 12.9251 1296 104.643 637.765 433.556
2844 1 55.1152 10.9226 602 101.337 637.098 456.877
2845 0 57.0653 13.4408 767 97.2008 637.3 453.54
2846 0 59.071 10.4451 617 97.3501 638.164 450.749
2847 0 61.0848 10.9684 670 95.8463 637.857 451.412
2848 0 63.1553 12.208 771 93.6757 637.973 449.101
2849 0 65.093 11.0765 721 95.914 637.724 448.302
2850 0 67.0724 11.1969 751 94.731 637.621 449.925
2851 0 70.0656 11.1467 781 95.2061 637.511 447.816
2852 0 74.0384 11.1023 822 95.3114 638.718 446.107
2853 0 75.2091 11.4082 858 95.9522 637.953 444.515
2854 0 75.1368 9.63576 724 99.7666 638.098 444.384
2855 0 78.1932 13.3516 1044 94.1341 637.804 442.695
2856 0 79.123 10.6417 842 100.343 637.713 440.654
2857 0 83.2086 11.6574 970 100.066 637.681 437.897
2858 0 88.1871 12.1106 1068 99.515 637.706 437.035
2859 0 88.3191 11.6396 1028 101.171 637.799 436.548
2860 0 92.2001 13.1128 1209 98.3747 638.278 434.849
2861 0 95.1686 10.6968 1018 104.247 638.059 432.56
2862 0 98.0706 12.3686 1213 101.256 637.602 433.141
2863 0 105.242 11.9534 1258 103.078 637.668 429.777
2864 0 107.193 12.3422 1323 105.546 637.423 426.185
2865 1 55.1904 10.4728 578 104.9 636.747 453.296
2866 0 58.2105 11.2523 655 103.8 638.095 453.473
2867 0 60.1931 12.4599 750 101.484 638.099 452.187
2868 0 61.2338 11.0886 679 105.065 638.457 452.141
2869 0 62.1599 12.2104 759 104.206 638.485 448.943
2870 0 67.261 11.9534 804 103.31 637.739 448.899
2871 0 63.1579 10.5133 664 110.035 637.435 445.495
2872 0 69.1687 10.7997 747 108.956 637.556 445.866
2873 0 72.2409 11.9323 862 107.168 637.675 444.196
2874 0 78.1188 13.0826 1022 103.611 638.102 445.487
2875 0 82.2157 12.3821 1018 104.789 638.361 446.094
2876 0 83.1471 13.5904 1130 105.917 638.052 442.648
2877 0 89.2856 13.7984 1232 105.485 638.559 440.92
2878 0 91.1675 13.3162 1214 107.195 638.25 439.021
2879 0 93.0774 12.6454 1177 108.24 638.974 438.01
2880 0 97.1287 12.1179 1177 109.86 638.673 432.762
2881 1 52.0501 9.16424 477 113.654 639.488 453.287
2882 0 58.0961 11.8941 691 105.961 638.79 454.411
2883 0 58.1975 11.272 656 107.427 638.303 457.924
2884 0 60.2525 12.3812 746 108.02 638.228 455.643
2885 0 62.2552 11.2119 698 111.388 638.43 454.931
2886 0 63.2326 12.5568 794 110.149 638.035 452.615
2887 0 65.2017 11.8555 773 111.956 638.741 452.851
2888 0 67.1837 11.9523 803 112.879 638.615 450.4
2889 0 70.2423 11.0617 777 115.982 638.571 448.647
2890 0 71.3038 11.3318 808 116.552 638.837 449.678
2891 0 74.2594 12.3486 917 115.746 638.673 447.111
2892 0 77.2152 13.4818 1041 114.115 638.579 445.064
2893 0 77.2329 13.4399 1038 115.359 638.765 446.087
2894 0 81.1923 13.388 1087 116.091 638.671 444.807
2895 0 84.2294 14.2587 1201 115.611 638.484 441.563
2896 0 86.2038 14.1061 1216 117.738 639.234 440.301
2897 0 86.2366 13.3238 1149 121.666 638.597 436.8
2898 0 91.3329 13.6205 1244 120.88 638.233 436.414
2899 0 95.2383 13.9755 1331 121.066 639.403 435.381
2900 0 98.2163 13.6943 1345 123.038 638.908 432.625
2901 0 99.2144 13.7077 1360 125.021 638.657 431.258
2902 0 106.213 15.177 1612 120.251 639.654 430.619
2903 1 58.0449 10.9398 635 121.195 639.983 454.68
2904 0 58.0552 11.4718 666 117.141 640.32 456.577
2905 0 59.0579 11.4464 676 109.966 639.37 451.358
2906 0 62.1355 12.2957 764 108.174 638.889 451.376
2907 0 60.1019 9.8333 591 115.445 639.311 449.689
2908 0 66.1686 11.5463 764 109.614 639.024 448.41
2909 0 65.1159 10.5351 686 114.112 638.905 445.442
2910 0 69.1775 11.6078 803 111.218 638.74 447.941
2911 0 71.0587 10.9346 777 113.465 638.831 446.799
2912 0 73.0989 11.9564 874 112.33 638.352 443.635
2913 0 77.1096 12.1775 939 112.08 638.39 442.584
2914 0 78.1333 12.6962 992 111.676 638.741 441.104
2915 0 81.1294 11.7097 950 113.167 638.277 437.424
2916 0 85.2098 12.2052 1040 111.168 638.407 436.754
2917 0 87.1408 11.9347 1040 111.653 638.992 437.825
2918 0 91.1065 12.3592 1126 111.005 638.704 435.463
2919 0 95.1311 12.9821 1235 111.025 639.554 435.287
2920 0 97.1211 11.7276 1139 116.394 638.996 434.825
2921 1 53.0653 10.3834 551 117.414 639.862 453.31
2922 0 54.0132 10.3863 561 120.376 639.627 452.645
2923 0 58.0496 12.1965 708 116.922 638.482 449.404
2924 0 59.0424 11.5172 680 117.803 639.809 452.231
2925 0 61.0755 11.3302 692 119.986 639.111 448.913
2926 0 60.0478 11.6074 697 120.801 639.235 448.29
2927 0 65.0379 11.8239 769 119.211 638.912 446.525
2928 0 68.0649 12.2236 832 117.315 638.881 445.276
2929 0 72.1191 13.5332 976 113.153 639.095 444.484
2930 0 71.192 12.8947 918 115.99 638.411 438.948
2931 0 73.0844 10.8505 793 120.517 638.503 438.141
2932 0 74.1837 11.3906 845 119.804 638.497 436.69
2933 0 77.2021 11.0101 850 120.345 638.647 434.78
2934 0 82.1962 11.5212 947 118.309 638.122 434.743
2935 0 84.1486 12.6086 1061 116.593 638.139 433.701
2936 0 84.086 11.9402 1004 119.251 638.392 429.496
2937 0 89.1429 12.2836 1095 117.324 638.047 430.211
2938 0 92.1361 12.449 1147 116.417 638.513 430.369
2939 0 95.1204 13.6248 1296 114.347 638.438 428.059
2940 0 98.0977 12.2327 1200 118.365 638.235 424.199
2941 0 102.161 11.9126 1217 118.831 638.8 423.668
2942 0 105.089 11.8661 1247 119.877 639.161 420.812
2943 0 107.189 11.6897 1253 119.366 638.304 420.607
2944 0 111.233 11.9389 1328 119.239 638.358 417.324
2945 1 58.1764 10.3135 600 110.27 637.637 445.158
2946 0 59.1462 10.7868 638 110.809 637.034 446.099
2947 0 62.0527 11.7158 727 109.382 639.702 444.924
2948 0 63.1084 12.4072 783 107.566 639.167 445.342
2949 0 67.1016 12.7866 858 104.997 638.978 444
2950 0 66.0786 12.0614 797 108.212 639.312 442.13
2951 0 66.0786 12.1219 801 120.828 640.298 442.171
2952 0 72.0825 12.5828 907 105.173 638.697 441.687
2953 0 75.1189 11.8878 893 106.586 638.054 440.782
2954 0 76.1076 11.4837 874 104.801 636.986 442.341
2955 0 78.121 12.4678 974 103.132 637.09 440.504
2956 0 80.1214 11.3952 913 105.476 637.437 439.517
2957 0 85.1664 12.822 1092 102.393 637.419 439.742
2958 0 87.1612 12.6203 1100 103.954 637.451 437.974
2959 0 91.1027 12.9305 1178 102.579 637.901 436.317
2960 0 92.0947 11.3253 1043 108.012 638.432 436.388
2961 0 95.1899 11.9761 1140 108.071 638.097 431.774
2962 0 97.1791 11.7 1137 108.395 637.463 432.425
2963 1 55.1412 9.97438 550 106.647 637.864 453.124
2964 0 57.1176 11.1699 638 110.502 637.861 452.735
2965 0 58.1299 11.0786 644 112.618 637.876 450.419
2966 0 59.1111 11.4361 676 111.095 638.862 453.722
2967 0 61.0712 11.0199 673 113.701 638.065 450.845
2968 0 62.0785 11.5499 717 113.259 638.45 449.188
2969 0 66.1464 11.8374 783 111.971 637.146 448.134
2970 0 67.1664 12.5956 846 110.889 638.564 445.941
2971 0 71.0704 12.6494 899 109.857 638.703 444.521
2972 0 74.1264 12.8969 956 109.331 638.615 443.811
2973 0 77.0392 13.0323 1004 108.802 638.553 441.995
2974 0 75.074 11.8816 892 113.938 637.818 440.377
2975 0 77.1688 11.0666 854 115.673 637.826 442.676
2976 0 82.1424 12.6123 1036 111.864 637.519 440.044
2977 0 84.2887 10.8793 917 114.735 637.258 440.963
2978 0 87.2801 10.6439 929 115.757 637.7 440.376
2979 0 91.3818 12.6064 1152 113.753 637.524 435.426
2980 1 51.1703 10.4748 536 106.463 637.515 455.578
2981 0 52.1088 11.3225 590 111.193 638.761 452.064
2982 0 56.0251 13.1727 738 110.364 639.331 451.92
2983 0 55.0422 11.4094 628 117.207 638.597 455.99
2984 0 56.0328 12.8318 719 114.957 639.115 454.971
2985 0 59.0578 11.9036 703 116.114 639.442 453.45
2986 0 61.0316 11.0762 676 115.262 639.47 455.037
2987 0 60.0378 11.0264 662 118.527 638.443 451.438
2988 0 61.061 11.726 716 117.497 638.416 450.591
2989 0 64.0467 12.9593 830 113.13 639.548 450.389
2990 0 68.0303 12.3474 840 114.495 638.352 446.599
2991 0 69.0468 11.6298 803 114.978 638.648 447.694
2992 0 72.0504 11.2699 812 114.554 639.023 446.964
2993 0 72.042 11.7709 848 114.143 638.309 444.018
2994 0 78.0963 12.2541 957 111.831 638.307 443.488
2995 0 78.0774 11.4374 893 113.11 638.59 444.37
2996 0 84.1462 13.3221 1121 109.08 638.856 441.122
2997 0 86.1125 11.9727 1031 112.992 638.279 438.878
2998 0 88.1102 13.3356 1175 110.477 638.106 438.011
2999 1 46.131 11.6841 539 106.616 637.429 457.56
3000 0 45.0412 11.5228 519 109.345 637 455.732
3001 0 48.0281 11.2851 542 108.559 638.419 458.744
3002 0 49.0188 12.1178 594 107.5 638.392 455.904
3003 0 50.0304 11.1332 557 110.399 638.971 455.569
3004 0 52.0521 11.2964 588 109.316 638.274 456.925
3005 0 53.0981 11.4505 608 110.38 638.02 453.783
3006 0 55.0515 11.2803 621 109.166 638.383 454.899
3007 0 56.0485 12.4535 698 107.852 638.458 453.226
3008 0 59.1089 12.7899 756 106.074 638.234 453.262
3009 0 60.0601 12.0379 723 108.526 637.945 453.03
3010 0 60.0625 12.3039 739 108.932 638.097 450.788
3011 0 62.1236 11.4449 711 110.976 637.82 451.295
3012 0 65.0561 12.543 816 104.692 637.745 446.377
3013 0 66.0566 12.126 801 104.126 637.845 447.305
3014 0 68.0755 11.546 786 103.263 637.3 448.275
3015 0 70.09 12.5838 882 101.878 637.448 448.023
3016 0 73.1172 11.9124 871 103.684 637.186 445.639
3017 0 77.2143 12.4459 961 102.467 637.299 445.818
3018 0 80.1543 12.4635 999 103.126 637.488 444.746
3019 0 78.1994 12.6983 993 106.225 637.08 441.299
3020 0 82.1677 11.4765 943 109.514 636.68 441.121
3021 0 86.1982 12.9817 1119 106.598 636.706 439.408
3022 0 89.1722 11.1133 991 110.53 636.992 438.787
3023 1 48.1728 9.8811 476 108.599 636.771 457.078
3024 0 50.1159 12.092 606 108.439 636.738 456.29
3025 0 51.1103 12.1502 621 111.01 636.499 457.325
3026 0 55.1389 13.8015 761 101.455 637.891 451.624
3027 0 56.0145 11.4613 642 109.065 638.333 452.969
3028 0 57.0731 12.4577 711 111.235 638.577 454.956
3029 0 60.0508 13.4719 809 109.727 638.25 454.675
3030 0 61.1992 12.5819 770 104.761 637.877 454.805
3031 0 64.1119 13.9288 893 101.858 637.84 451.057
3032 0 64.1239 12.2263 784 107.427 637.343 448.538
3033 0 66.152 12.7131 841 106.347 637.52 450.209
3034 0 69.2091 13.322 922 105.41 637.408 448.61
3035 0 71.2893 13.0595 931 107.266 637.835 448.154
3036 0 73.1436 12.4413 910 109.222 637.295 447.103
3037 0 75.2917 12.5645 946 109.627 637.529 444.951
3038 0 81.3473 13.2518 1078 106.819 638.06 445.989
3039 0 82.3117 13.6311 1122 108.071 637.172 443.731
3040 0 86.3117 12.9531 1118 110.193 637.116 444.382
3041 0 87.1311 13.5772 1183 109.893 636.769 438.935
3042 1 49.1892 10.1445 499 115.563 637.02 461.016
3043 0 51.1273 11.6572 596 113.629 637.456 457.851
3044 0 54.0832 13.2573 717 108.753 637.66 458.441
3045 0 56.059 13.0933 734 109.49 637.884 457.522
3046 0 56.0921 12.6756 711 109.021 637.541 455.467
3047 0 59.1091 12.9591 766 110.685 637.611 454.45
3048 0 59.0805 13.0669 772 114.604 637.87 452.569
3049 0 59.0849 13.1336 776 104.485 638.309 455.073
3050 0 59.0639 12.6642 748 112.079 638.5 453.378
3051 0 60.1828 13.7415 827 117.503 638.92 451.838
3052 0 61.0798 13.245 809 117.564 638.371 452.153
3053 0 63.1191 13.4508 849 114.71 638.551 450.139
3054 0 66.1824 13.1153 868 115.119 638.433 450.711
3055 0 65.1338 12.006 782 119.59 638.228 451.086
3056 0 70.1118 11.9809 840 116.36 638.167 448.446
3057 0 71.1782 12.9113 919 113.53 637.805 448.822
3058 0 75.1285 13.7365 1032 111.344 637.78 446.263
3059 0 76.1624 13.0511 994 113.519 637.742 443.869
3060 0 79.1806 13.4376 1064 111.38 637.832 443.422
3061 0 82.0999 12.2899 1009 116.481 636.989 440.701
3062 0 82.0999 12.7284 1045 116.409 637.203 439.769
3063 0 86.1539 11.9786 1032 118.006 637.374 440.788
3064 0 87.1464 12.7142 1108 117.504 637.435 439.187
3065 0 89.1071 11.9856 1068 120.61 637.208 438.168
3066 0 91.1193 13.1695 1200 119.02 637.627 433.009
3067 0 93.125 12.1342 1130 122.585 637.542 432.728
3068 0 95.1412 12.0768 1149 123.094 637.117 434.75
3069 0 98.1437 12.6957 1246 123.219 637.957 430.287
3070 0 100.153 11.9517 1197 125.282 637.022 431.936
3071 0 105.119 13.2231 1390 122.792 637.188 429.905
3072 0 102.156 11.3748 1162 130.604 637.84 426.464
3073 0 108.185 13.0332 1410 127.091 637.71 426.215
3074 0 112.301 12.4576 1399 129.653 638.264 423.247
3075 0 118.269 12.1503 1437 131.251 638.305 421.39
3076 1 51.0979 10.2548 524 121.34 638.943 455.813
3077 0 54.1466 11.4873 622 117.268 638.363 455.834
3078 0 54.0851 10.8533 587 119.53 638.474 454.867
3079 0 56.0978 11.1234 624 118.998 638.29 454.524
3080 0 55.0541 10.5169 579 121.991 638.9 452.432
3081 0 58.1401 12.0227 699 118.432 638.375 451.249
3082 0 60.1294 12.0573 725 118.057 637.972 449.48
3083 0 63.0712 11.8913 750 118.304 637.679 449.604
3084 0 66.0725 11.7295 775 117.775 637.21 448.893
3085 0 69.102 12.5177 865 115.983 637.387 445.861
3086 0 71.095 11.8152 840 117.189 637.343 444.586
3087 0 72.1071 11.7603 848 117.14 637.261 442.566
3088 0 75.1929 11.7431 883 114.743 637.848 444.216
3089 0 75.1402 11.6183 873 117.261 637.538 440.667
3090 0 80.1332 11.5058 922 115.935 637.496 440.316
3091 0 81.2038 11.9452 970 116.312 637.826 441.469
3092 1 42.1401 10.3939 438 121.267 637.244 458.886
3093 0 43.1406 10.8714 469 121.599 637.028 458.923
3094 0 42.0913 10.6435 448 124.212 636.643 457.645
3095 0 45.1787 12.0853 546 118.799 636.908 457.049
3096 0 46.1007 11.5183 531 121.239 636.947 456.266
3097 0 49.1531 10.925 537 122.924 637.352 453.89
3098 0 50.0479 11.8287 592 120.882 637.416 453.191
3099 0 50.0763 11.4425 573 123.368 636.93 452.232
3100 0 55.1146 12.2472 675 118.834 637.083 451.233
3101 0 57.1419 13.0377 745 116.087 637.048 450.957
3102 0 58.1576 13.0164 757 115.979 637.219 449.971
3103 0 60.1715 13.0793 787 116.869 637.795 448.036
3104 0 62.1836 12.3988 771 117.584 637.087 449.599
3105 0 63.1427 12.5588 793 117.024 637.726 448.059
3106 0 66.3521 13.3078 883 114.832 637.492 446.485
3107 0 66.1819 12.8736 852 116.141 637.218 445.676
3108 0 71.1637 14.1083 1004 112.068 636.841 444.567
3109 0 72.1258 13.0882 944 114.346 637.149 443.37
3110 0 75.1836 13.3274 1002 113.115 637.068 442.204
3111 0 76.1316 13.1877 1004 113.184 636.748 441.436
3112 0 79.1809 12.8819 1020 113.814 637.212 438.351
3113 0 82.2137 14.1704 1165 109.345 637.47 438.149
3114 0 85.1168 14.0043 1192 109.19 637.362 435.54
3115 0 86.1801 13.2977 1146 110.486 638.13 435.122
3116 0 91.2734 12.3585 1128 111.598 639.253 434.625
3117 1 49.1225 10.9319 537 110.179 639.726 451.415
3118 0 51.058 11.5359 589 109.84 638.694 450.149
3119 0 52.0726 11.5224 600 108.353 639.432 450.04
3120 0 55.1201 11.9013 656 105.434 638.7 448.465
3121 0 54.0821 9.87388 534 110.096 638.815 447.337
3122 0 58.1606 11.7949 686 105.198 638.153 446.927
3123 0 60.0794 11.2851 678 105.858 637.55 448.453
3124 0 60.1064 10.315 620 108.202 637.689 449.116
3125 0 65.1302 12.7898 833 102.575 638.304 445.24
3126 0 64.1175 10.8395 695 106.82 638.012 446.26
3127 0 69.0963 12.403 857 101.942 638.146 444.725
3128 0 70.1269 12.1209 850 102.934 637.801 441.246
3129 0 73.0389 11.8019 862 103.327 637.517 441.398
3130 0 75.1283 11.7932 886 104.281 638.185 439.412
3131 0 78.1094 12.0216 939 104.748 637.794 440.368
3132 0 83.1145 13.6077 1131 101.42 638.553 439.345
3133 0 83.1351 12.1489 1010 106.653 638.517 438.067
3134 0 86.1259 12.145 1046 106.655 638.337 437.161
3135 0 90.1088 12.4183 1119 105.493 638.873 435.711
3136 0 94.2388 11.5982 1093 106.643 638.955 436.656
3137 1 50.0629 11.2858 565 107.37 639.149 452.724
3138 0 52.1889 11.2093 585 111.463 639.108 452.328
3139 0 54.1254 10.5496 571 105.737 639.912 454.189
3140 0 55.066 11.35 625 104.829 639.765 453.738
3141 0 57.104 12.0307 687 103.518 639.719 452.489
3142 0 58.1092 12.3044 715 104.573 639.594 449.667
3143 0 63.0502 12.5773 793 101.387 639.987 451.405
3144 0 63.0826 10.938 690 104.983 640.374 451.357
3145 0 65.0888 11.3998 742 105.615 639.65 448.563
3146 0 65.0467 12.4833 812 105.267 640.292 445.649
3147 0 70.175 12.3263 865 103.912 639.688 447.481
3148 0 70.1032 11.8682 832 106.501 639.254 447.018
3149 0 75.1422 12.4431 935 105.117 639.09 446.102
3150 0 77.1013 13.5017 1041 103.998 638.805 445.174
3151 0 76.0901 12.3801 942 108.26 638.912 444.667
3152 0 82.1277 13.6495 1121 105.571 638.76 442.949
3153 0 82.2031 13.1504 1081 109.868 638.837 438.327
3154 0 85.2153 12.885 1098 110.548 638.327 439.32
3155 0 85.0951 11.1287 947 115.316 638.325 439.832
3156 0 88.209 12.5384 1106 114.264 638.848 438.148
3157 0 92.0727 12.7399 1173 115.402 639.377 437.028
3158 0 97.1972 14.5889 1418 112.767 639.617 435.106
3159 1 53.0604 11.7413 623 118.228 639.775 454.448
3160 0 55.042 13.0809 720 117.042 639.476 454.157
3161 0 55.0997 13.6298 751 117.539 639.241 452.601
3162 0 59.1785 13.755 814 113.119 639.09 454.644
3163 0 61.1367 13.2163 808 114.149 639.767 453.584
3164 0 63.2501 14.9881 948 110.833 639.632 451.276
3165 0 64.1687 11.8438 760 116.759 639.451 450.211
3166 0 67.1282 12.6623 850 115.158 639.012 448.405
3167 0 69.204 13.4674 932 115.27 639.489 446.099
3168 0 71.1807 14.0769 1002 113.5 639.516 445.087
3169 0 72.1244 13.144 948 116.824 638.821 445.157
3170 0 75.0524 13.2574 995 118.183 638.878 442.63
3171 0 75.1199 12.3403 927 122.356 639.039 442.131
3172 0 80.223 13.0387 1046 120.473 638.46 439.916
3173 0 82.0526 14.0276 1151 119.099 638.772 438.055
3174 0 85.131 13.9315 1186 119.375 639.232 440.223
3175 0 87.1812 13.168 1148 124.193 639.294 436.139
3176 0 89.1164 13.3982 1194 123.87 638.673 436.884
3177 0 90.1063 12.9736 1169 126.336 639.314 434.553
3178 0 94.0674 14.1494 1331 122.899 638.691 435.295
3179 0 97.1629 14.1618 1376 124.962 638.443 430.547
3180 0 99.0798 12.7372 1262 129.712 638.576 430.149
3181 0 105.103 14.6142 1536 123.793 638.178 428.15
3182 1 56.0184 12.4959 700 120.06 638.703 452.94
3183 0 56.1913 12.1727 684 123.219 638.048 451.216
3184 0 59.1425 13.4759 797 121.291 637.772 450.423
3185 0 61.0332 14.0415 857 119.032 638.274 449.529
3186 0 63.202 13.4331 849 122.26 638.229 446.402
3187 0 64.0277 12.682 812 124.797 638.353 446.654
3188 0 66.1024 13.4791 891 122.856 638.176 445.988
3189 0 70.0709 13.4863 945 124.065 637.859 444.568
3190 0 72.0972 14.4388 1041 122.564 638.231 442.309
3191 0 74.2065 13.6376 1012 123.474 638.603 441.831
3192 0 75.1883 12.7413 958 128.467 637.892 440.164
3193 0 78.1161 12.8271 1002 129.063 638.557 440.301
3194 0 82.1219 13.6383 1120 129.474 638.349 438.149
3195 0 84.2656 13.5524 1142 130.023 638.699 437.248
3196 0 88.2257 13.8168 1219 129.519 638.272 434.696
3197 0 90.2066 13.4026 1209 131.874 638.671 433.93
3198 0 94.1185 12.9943 1223 133.422 637.65 432.603
3199 1 49.1011 11.344 557 134.341 638.352 453.811
3200 0 52.1501 12.4832 651 131.896 638.782 453.762
3201 0 51.1101 14.8699 760 128.413 638.941 450.63
3202 0 53.3064 13.5068 720 135.432 638.571 452.032
3203 0 54.0485 14.191 767 130.197 639.094 449.691
3204 0 57.1533 12.3877 708 134.503 638.542 449.131
3205 0 57.215 12.9686 742 132.573 638.31 449.745
3206 0 62.1297 12.5544 780 133.058 638.179 447.358
3207 0 63.1152 13.2615 837 131.564 638.251 447.194
3208 0 66.1563 14.0123 927 129.207 637.777 444.9
3209 0 69.0919 14.2419 984 127.577 638.255 445.559
3210 0 68.2967 13.3242 910 133.108 638.467 443.629
3211 0 73.2063 15.108 1106 127.121 638.441 442.272
3212 0 75.1052 13.8206 1038 129.42 637.726 442.268
3213 0 76.182 13.8222 1053 128.137 637.793 442.586
3214 0 80.2062 13.5152 1084 128.279 637.408 442.018
3215 0 81.1652 12.9366 1050 132.004 637.5 437.977
3216 0 85.1916 13.4872 1149 129.884 637.66 437.466
3217 0 87.2275 11.8311 1032 134.55 637.972 436.982
3218 0 92.3607 14.1402 1306 128.485 637.792 434.095
3219 0 94.2869 12.568 1185 134.718 638.18 430.931
3220 0 98.5815 13.2175 1303 133.904 637.982 430.426
3221 0 102.233 14.9561 1529 127.305 638.268 430.913
3222 0 105.202 15.7316 1655 124.985 638.522 428.81
3223 0 104.22 15.3905 1604 115.75 637.78 432.633
3224 1 60.1536 14.1305 850 129.487 638.729 449.524
3225 0 60.1411 13.4517 809 131.29 639.08 450.365
3226 0 63.1286 14.6843 927 126.022 637.954 449.223
3227 0 65.1019 14.9612 974 126.445 639.064 445.568
3228 0 67.1818 13.2476 890 130.488 638.624 446.342
3229 0 70.1798 13.3514 937 130.649 638.396 446.398
3230 0 70.1567 13.7692 966 130.841 638.555 446.086
3231 0 72.0798 14.3036 1031 130.829 638.454 443.683
3232 0 75.1281 14.1492 1063 131.332 638.104 443.524
3233 0 79.3375 14.2682 1132 130.534 638.348 443.486
3234 0 79.1803 14.4607 1145 132.745 638.505 440.948
3235 0 82.1607 14.3256 1177 133.2 637.996 441.552
3236 0 87.1317 14.5297 1266 131.49 638.717 439.436
3237 0 89.1885 13.7686 1228 135.161 638.432 438.635
3238 1 46.1487 12.5681 580 138.964 638.634 455.379
3239 0 49.0349 13.0927 642 138.083 638.223 453.12
3240 0 52.0578 15.137 788 133.646 638.636 451.17
3241 0 53.0411 13.4801 715 139.378 638.327 450.641
3242 0 53.0399 14.0837 747 139.76 638.043 449.51
3243 0 55.0382 14.1902 781 139.425 638.188 447.927
3244 0 57.052 15.0039 856 139.943 638.075 447.218
3245 0 60.0862 15.9937 961 137.8 638.205 446.549
3246 0 64.0287 15.0245 962 138.797 638.568 447.097
3247 0 60.0298 14.0264 842 148.137 638.461 443.998
3248 0 65.0745 15.5053 1009 141.98 638.344 443.774
3249 0 68.1222 14.4153 982 143.859 638.406 444.2
3250 0 69.0863 16.284 1125 142.238 638.384 441.521
3251 0 71.0897 16.2189 1153 143.33 638.519 441.009
3252 0 73.1263 15.4937 1133 145.616 638.191 440.305
3253 0 77.135 14.7274 1136 147.615 638.025 438.065
3254 0 79.1161 15.9007 1258 145.087 637.98 435.984
3255 0 82.0647 16.1823 1328 144.884 638.3 434.893
3256 0 85.1799 16.154 1376 145.504 638.19 434.393
3257 0 85.166 15.8397 1349 149.566 638.453 431.885
3258 0 90.249 17.2744 1559 142.827 638.225 431.065
3259 0 92.141 16.3445 1506 146.77 638.156 429.95
3260 0 96.2447 16.4996 1588 145.627 638.31 428.613
3261 0 100.201 15.9978 1603 145.6 638.044 427.343
3262 0 101.382 16.4328 1666 145.04 638.082 425.422
3263 0 107.192 16.6523 1785 142.926 638.246 425.241
3264 0 109.17 16.0851 1756 144.816 638.15 423.507
3265 0 112.263 15.7221 1765 146.532 637.384 422.088
3266 0 118.121 15.7888 1865 145.654 637.792 420.064
3267 0 123.221 15.9875 1970 144.656 637.323 417.365
3268 0 127.293 15.5389 1978 146.166 637.415 415.048
3269 1 70.061 11.6755 818 149.16 637.355 445.137
3270 0 74.0888 12.9169 957 145.694 637.399 442.962
3271 0 75.0804 12.7596 958 146.608 638.233 442.864
3272 0 78.1031 13.1237 1025 145.67 638.156 441.958
3273 0 80.1257 13.354 1070 145.317 638.535 440.629
3274 0 83.1061 13.4046 1114 144.36 638.056 439.121
3275 0 85.1554 12.8236 1092 146.121 638.203 438.096
3276 0 87.0539 12.9575 1128 146.073 638.328 437.136
3277 0 92.1089 13.6903 1261 144.261 638.641 432.806
3278 0 96.0831 13.6549 1312 142.297 638.921 435.487
3279 0 98.0604 14.1443 1387 142.167 638.716 429.438
3280 0 102.11 12.9469 1322 144.387 639.254 429.38
3281 0 105.159 13.4843 1418 142.721 638.781 424.035
3282 0 111.297 13.8459 1541 141.017 638.95 422.837
3283 0 118.28 13.5188 1599 138.896 639.625 423.167
3284 1 65.1092 11.1351 725 125.861 639.96 450.797
3285 0 69.0907 12.2158 844 122.039 639.976 449.545
3286 0 66.1061 11.769 778 127.407 638.983 444.443
3287 0 69.113 11.0544 764 127.788 638.819 446.596
3288 0 74.1057 11.4701 850 125.171 639.002 446.599
3289 0 74.1649 11.1239 825 127.164 638.725 444.139
3290 0 77.1268 10.4633 807 129.281 638.057 439.223
3291 0 82.0911 10.7442 882 128.031 638.087 440.459
3292 0 82.0924 10.5369 865 130.114 638.225 437.928
3293 0 88.1302 11.7213 1033 125.638 638.233 437.926
3294 0 91.0921 11.1206 1013 128.166 637.574 436.694
3295 0 94.1811 11.6902 1101 126.973 637.647 435.091
3296 0 97.3229 11.9807 1166 127.827 637.66 431.786
3297 0 99.1457 12.0227 1192 129.771 638.156 427.644
3298 0 104.191 12.9954 1354 126.971 638.202 428.101
3299 0 105.17 11.8284 1244 130.547 638.469 427.465
3300 0 112.299 12.9476 1454 128.058 638.345 426.551
3301 0 114.385 11.7235 1341 135.423 638.88 422.398
3302 1 66.2501 9.32829 618 126.762 639.416 451.683
3303 0 67.2127 10.1915 685 120.917 639.734 449.314
3304 0 68.1455 10.1841 694 122.651 639.765 448.486
3305 0 71.3661 11.2238 801 126.954 639.97 447.112
3306 0 75.2129 10.1578 764 123.771 639.522 452.134
3307 0 75.2777 10.6406 801 124.541 639.086 451.015
3308 0 79.1697 11.2922 894 123.615 639.29 446.961
3309 0 80.1544 11.3406 909 125.4 638.485 442.967
3310 0 81.1865 11.4182 927 126.318 638.773 442.848
3311 0 86.2756 10.6867 922 127.426 638.858 444.83
3312 0 89.2546 11.8089 1054 126.291 638.541 442.741
3313 0 92.2127 11.6253 1072 131.833 639.21 436.636
3314 0 97.158 12.5054 1215 125.876 640.038 434.81
3315 0 98.2176 11.0367 1084 129.87 639.052 435.344
3316 0 102.21 11.8482 1211 129.561 639.099 435.931
3317 0 106.12 11.9581 1269 131.392 638.37 430.868
3318 1 57.0604 10.9007 622 132.387 639.196 455.555
3319 0 62.0652 10.7306 666 132.952 638.498 454.386
3320 0 64.1567 12.8435 824 128.11 638.613 453.966
3321 0 65.1999 12.6227 823 129.135 640.231 453.646
3322 0 68.1363 14.1188 962 126.152 639.623 450.188
3323 0 68.2274 13.03 889 130.949 640.126 450.895
3324 0 72.1446 12.8353 926 130.692 639.933 450.434
3325 0 73.1091 12.1052 885 134.799 639.538 448.229
3326 0 76.1469 12.2789 935 135.54 639.785 447.492
3327 0 77.0894 11.9731 923 137.668 639.488 447.104
3328 0 82.1552 13.7544 1130 131.971 639.841 445.899
3329 0 84.075 12.4651 1048 137.194 639.925 444.719
3330 0 85.152 12.5658 1070 138.959 639.772 442.45
3331 0 91.1175 13.5978 1239 133.831 638.842 441.124
3332 0 91.1418 12.6726 1155 137.993 639.095 439.687
3333 0 95.1404 13.3802 1273 135.959 639.274 439.033
3334 0 96.2363 12.7187 1224 138.8 639.969 437.344
3335 0 102.207 14.0891 1440 127.414 638.358 435.494
3336 1 55.1798 12.1603 671 135.349 639.14 456.082
3337 0 57.2392 12.7535 730 134.51 639.175 456.94
3338 0 59.2427 12.8792 763 135.619 638.865 455.398
3339 0 59.2735 12.164 721 141.108 638.947 454.624
3340 0 60.2637 12.6112 760 140.686 638.57 453.433
3341 0 62.3626 11.9463 745 141.721 639.323 453.585
3342 0 62.1901 12.3814 770 144.678 639.773 451.134
3343 0 65.2703 11.8124 771 145.569 639.071 451.004
3344 0 66.2699 11.7851 781 146.392 638.855 448.627
3345 0 68.2621 12.1004 826 144.822 639.318 449.46
3346 0 69.3287 12.4191 861 144.504 639.425 447.411
3347 0 73.1344 13.4684 985 137.039 640.053 448.267
3348 0 73.216 13.8494 1014 137.11 639.075 446.524
3349 0 77.1218 14.0038 1080 136.834 638.921 446.092
3350 0 79.1418 13.2673 1050 138.444 638.189 443.603
3351 0 81.0805 12.9748 1052 140.332 639.633 440.609
3352 0 86.0872 14.9848 1290 132.355 638.825 440.114
3353 0 89.101 14.0739 1254 135.198 637.981 441.731
3354 0 91.0889 14.3047 1303 135.476 638.581 437.337
3355 0 94.2075 13.5021 1272 137.141 638.673 438.144
3356 0 96.3602 14.3109 1379 135.178 638.575 437.132
3357 0 99.1475 13.4951 1338 137.772 638.691 435.737
3358 0 102.193 14.0714 1438 136.552 638.354 433.019
3359 1 56.0566 11.6846 655 141.415 637.863 456.107
3360 0 58.0812 11.8799 690 139.919 637.945 453.896
3361 0 58.0479 11.6972 679 141.296 637.946 452.792
3362 0 62.0454 12.1202 752 138.847 638.46 450.906
3363 0 62.0931 11.8049 733 138.958 638.585 452.111
3364 0 63.3306 11.9373 756 138.414 638.73 453.483
3365 0 64.2342 12.1586 781 137.863 638.826 452.31
3366 0 68.2514 12.4686 851 136.105 638.811 448.204
3367 0 72.1742 13.1903 952 131.675 638.733 449.33
3368 0 76.0842 14.2868 1087 127.444 638.684 447.672
3369 0 78.2024 13.9893 1094 128.129 638.846 445.49
3370 0 78.1254 12.5823 983 131.351 638.149 442.08
3371 0 81.0939 13.3179 1080 128.869 638.172 443.686
3372 0 82.1619 12.5849 1034 133.567 638.342 441.301
3373 0 87.1471 13.2076 1151 131.839 638.321 441.26
3374 0 89.2668 13.7229 1225 129.929 638.398 442.536
3375 0 92.1916 14.4048 1328 128.172 637.808 441.343
3376 0 92.2254 12.8815 1188 133.46 638.056 440.285
3377 0 95.189 11.8816 1131 136.861 638.271 436.957
3378 0 99.1824 13.3996 1329 130.773 637.561 436.731
3379 0 104.176 12.9492 1349 131.408 637.88 434.713
3380 0 107.211 13.3942 1436 130.392 637.607 430.783
3381 0 110.264 12.9961 1433 130.968 637.592 428.629
3382 1 61.1259 11.7953 721 128.523 637.053 453.459
3383 0 66.181 12.7076 841 124.891 637.912 451.49
3384 0 68.1144 12.6552 862 116.135 639.164 448.861
3385 0 71.082 12.563 893 115.952 638.68 448.935
3386 0 70.1705 10.9305 767 121.215 638.773 447.649
3387 0 74.1252 12.263 909 118.139 638.661 445.375
3388 0 78.1385 12.7082 993 116.968 638.883 443.54
3389 0 80.1061 14.2062 1138 114.6 638.866 443.728
3390 0 83.1345 12.9669 1078 115.878 638.413 442.337
3391 0 85.0705 12.8364 1092 116.54 638.402 440.996
3392 0 87.1263 13.4747 1174 116.373 637.791 438.55
3393 0 92.1482 13.3155 1227 117.058 637.966 435.311
3394 0 94.0961 12.1046 1139 121.968 638.481 433.692
3395 0 97.0802 12.1446 1179 122.416 638.401 432.716
3396 0 96.123 10.4554 1005 128.864 637.878 432.457
3397 0 102.219 12.8547 1314 122.926 638.548 429.441
3398 0 106.231 12.228 1299 125.409 638.42 429.908
3399 0 109.211 13.6891 1495 126.203 638.12 424.229
3400 0 113.155 12.5934 1425 130.77 637.473 423.547
3401 1 60.0457 9.60935 577 127.395 637.402 450.641
3402 0 65.1513 12.7242 829 120.416 637.849 451.661
3403 0 67.0885 11.8798 797 119.832 638.035 447.068
3404 0 69.1355 11.3834 787 117.454 638.436 449.723
3405 0 71.0562 11.9342 848 119.083 637.866 448.323
3406 0 73.0578 11.1282 813 121.502 637.44 445.007
3407 0 76.067 12.8308 976 116.09 637.457 446.741
3408 0 78.1193 13.4666 1052 115.483 637.116 443.937
3409 0 78.104 11.3054 883 121.925 638.042 442.889
3410 0 82.1088 11.4117 937 121.99 638.465 441.672
3411 0 86.1432 13.2918 1145 116.548 638.59 442.624
3412 0 89.2121 12.106 1080 119.623 638.886 440.202
3413 0 92.1076 12.9522 1193 118.34 638.574 438.97
3414 0 93.095 12.6323 1176 120.379 638.387 435.906
3415 0 96.1086 13.0998 1259 119.45 639.118 434.53
3416 0 98.111 12.0476 1182 123.102 638.719 432.203
3417 0 102.259 13.6516 1396 118.486 637.97 433.751
3418 0 103.124 12.7711 1317 121.913 638.352 430.35
3419 0 108.16 12.6571 1369 122.207 638.327 429.564
3420 0 110.263 13.4768 1486 123.067 638.235 425.046
3421 0 113.312 13.8379 1568 127.823 637.652 423.323
3422 0 118.234 14.0738 1664 123.714 638.216 418.389
3423 0 124.075 13.9109 1726 122.463 637.386 419.171
3424 0 129.189 13.7164 1772 122.011 637.886 415.137
3425 0 133.306 13.2927 1772 122.527 638.059 410.587
3426 1 76.1619 10.7534 819 118.139 638.054 436.128
3427 0 78.2025 10.4984 821 116.951 638.847 435.823
3428 0 82.1048 12.6424 1038 110.845 638.22 437.509
3429 0 85.1115 13.5117 1150 109.19 638.889 436.642
3430 0 89.1058 13.3549 1190 109.346 638.187 434.408
3431 0 91.2155 12.3773 1129 111.409 639.102 434.075
3432 0 96.087 13.6127 1308 108.549 638.92 431.846
3433 0 97.1816 12.6773 1232 111.377 638.588 429.783
3434 0 98.1384 11.8506 1163 114.297 638.503 428.085
3435 0 101.2 11.9269 1207 113 638.702 428.663
3436 0 105.187 12.1878 1282 112.857 639.071 427.029
3437 0 107.127 11.9298 1278 113.336 638.674 424.296
3438 0 112.256 12.2042 1370 112.901 638.523 423.778
3439 0 116.251 12.9891 1510 110.711 638.34 421.008
3440 0 120.156 11.9512 1436 113.92 638.725 419.25
3441 0 124.3 11.9871 1490 114.281 638.212 411.824
3442 0 129.286 11.9502 1545 113.372 638.356 414.334
3443 0 134.262 11.5074 1545 113.594 637.949 413.994
3444 1 72.0966 10.264 740 104.349 637.593 444.647
3445 0 73.0551 10.759 786 104.079 637.766 441.361
3446 0 78.0656 12.054 941 99.779 638.036 441.591
3447 0 79.1942 10.5563 836 103.213 637.562 441.359
3448 0 81.0485 10.7713 873 104.18 638.141 436.123
3449 0 86.0689 11.3397 976 101.838 637.895 439.253
3450 0 87.0453 11.1666 972 103.421 637.524 435.773
3451 0 92.1627 12.6949 1170 100.786 636.626 434.579
3452 0 96.083 11.8751 1141 102.793 638.121 432.354
3453 0 95.1384 11.1942 1065 104.971 638.082 432.799
3454 0 100.112 13.1653 1318 102.08 637.975 428.583
3455 0 103.175 11.6889 1206 106.347 638.005 426.891
3456 0 107.138 13.3659 1432 104.705 636.881 428.653
3457 0 113.189 13.7116 1552 104.19 637.447 425.601
3458 0 114.206 13.2218 1510 106.268 637.082 422.491
3459 0 117.075 11.7531 1376 108.322 636.755 423.7
3460 1 67.1061 11.2956 758 103.922 637.425 449.883
3461 0 69.1764 11.2032 775 106.738 637.764 446.506
3462 0 71.2776 11.4763 818 108.108 637.963 447.873
3463 0 74.2558 11.2314 834 109.236 637.477 446.886
3464 0 78.1745 12.3698 967 107.162 637.157 443.946
3465 0 79.195 11.2002 887 111.958 637.017 440.508
3466 0 81.2981 11.3041 919 113.089 636.646 439.119
3467 0 85.2547 11.4832 979 114.224 636.898 437.502
3468 0 87.1885 11.1483 972 116.822 636.537 436.373
3469 0 90.2589 12.1761 1099 115.442 637.204 436.862
3470 0 94.3489 12.4856 1178 115.828 637.311 434.631
3471 0 95.2072 12.8562 1224 118.15 637.185 432.337
3472 0 102.241 13.302 1360 118.805 637.413 430.278
3473 0 101.358 12.4904 1266 123.181 637.461 429.107
3474 0 106.387 12.041 1281 124.216 637.489 429.238
3475 0 109.306 13.8236 1511 122.12 637.534 426.784
3476 0 111.495 12.9782 1447 125.683 637.31 425.469
3477 0 116.29 13.7501 1599 124.37 637.8 422.443
3478 0 117.319 13.1862 1547 127.677 637.207 419.527
3479 0 120.333 12.9308 1556 127.922 636.997 420.747
3480 0 124.512 13.1473 1637 129.327 636.198 419.925
3481 0 127.665 13.7313 1753 128.176 636.876 416.314
3482 0 132.62 13.2258 1754 128.942 636.71 413.758
3483 0 136.653 13.2818 1815 128.567 636.348 415.091
3484 0 140.494 12.4988 1756 132.01 636.251 412.899
3485 0 145.632 12.2363 1782 134.02 636.803 408.285
3486 0 148.671 12.4234 1847 134.652 636.58 402.532
3487 0 156.631 14.0011 2193 129.157 636.008 403.639
3488 0 162.401 13.3127 2162 132.153 635.919 399.528
3489 1 90.2434 12.422 1121 120.86 635.931 436.343
3490 0 93.3637 11.2463 1050 124.294 636.802 434.704
3491 0 95.3171 11.0368 1052 126.976 636.261 432.327
3492 0 99.3339 11.9395 1186 124.147 636.636 431.755
3493 0 103.354 12.2105 1262 123.021 637.141 430.937
3494 0 106.388 12.3886 1318 123.799 637.176 427.803
3495 0 108.336 11.7874 1277 125.904 637.484 424.246
3496 0 109.385 12.168 1331 125.007 637.599 424.659
3497 0 114.294 11.6891 1336 126.271 637.725 423.162
3498 0 117.385 10.751 1262 127.834 637.326 420.395
3499 0 123.446 12.0053 1482 124.771 637.131 419.694
3500 0 126.283 11.205 1415 128.717 637.507 411.159
3501 1 71.1921 10.9422 779 119.003 637.82 443.682
3502 0 71.1809 11.3092 805 118.985 637.706 440.415
3503 0 77.1779 11.8557 915 116.238 638.102 442.854
3504 0 77.3876 10.9191 845 121.851 637.689 439.677
3505 0 80.2947 12.5537 1008 119.1 637.656 438.035
3506 0 82.3474 12.338 1016 118.608 638.597 438.976
3507 0 84.2328 12.7385 1073 121.483 638.327 431.949
3508 0 87.3767 12.406 1084 121.244 637.693 434.162
3509 0 92.2923 12.6013 1163 121.273 637.424 432.262
3510 0 94.3575 11.3716 1073 124.219 637.349 431.118
3511 0 95.3584 12.0703 1151 123.243 637.995 431.099
3512 0 100.267 13.4839 1352 119.473 637.42 427.72
3513 0 102.25 12.5771 1286 123.166 638.32 426.799
3514 0 104.325 12.2694 1280 124.439 638.092 426.074
3515 0 107.239 12.6261 1354 123.589 637.21 424.855
3516 0 109.401 12.8609 1407 124.017 637.996 423.038
3517 0 111.372 12.4088 1382 129.308 638.507 419.194
3518 0 116.322 12.517 1456 127.483 638.507 418.293
3519 0 119.312 12.6559 1510 127.775 638.345 416.296
3520 0 123.253 12.7056 1566 128.514 638.536 413.503
3521 0 126.201 11.7748 1486 130.032 637.789 411.54
3522 0 133.549 13.0065 1737 126.743 638.227 407.145
3523 1 73.1937 11.1485 816 122.195 637.034 437.946
3524 0 75.1826 12.1837 916 120.836 638.347 437.365
3525 0 79.1231 13.8645 1097 115.901 637.448 433.357
3526 0 78.1555 11.7842 921 124.454 637.617 433.55
3527 0 80.1564 11.6148 931 125.085 637.251 432.013
3528 0 81.2038 11.2803 916 128.119 638.095 429.816
3529 0 85.1315 11.2062 954 128.539 638.226 429.687
3530 0 86.1489 11.364 979 129.15 637.997 426.339
3531 0 90.2568 11.2125 1012 129.569 638.835 427.444
3532 0 91.3049 11.0837 1012 131.04 638.349 424.115
3533 0 97.1097 11.1214 1080 130.553 637.584 423.1
3534 0 99.1938 11.0592 1097 131.033 637.84 421.298
3535 0 103.293 11.4915 1187 130.767 638.618 418.712
3536 0 104.15 11.3202 1179 132.908 637.863 415.403
3537 0 107.224 11.4247 1225 133.431 638.105 413.751
3538 0 112.215 12.075 1355 130.965 638.107 416.015
3539 0 115.189 11.2077 1291 134.692 638.405 411.155
3540 0 120.221 10.4224 1253 136.758 637.937 407.792
3541 0 126.349 12.4734 1576 129.951 637.79 410.673
3542 0 132.569 13.0649 1732 127.037 638.025 411.138
3543 1 74.2754 11.3496 843 125.452 638.49 437.537
3544 0 78.3108 13.2166 1035 121.562 638.183 435.848
3545 0 82.2359 13.741 1130 120.595 637.134 434.632
3546 0 84.1921 12.5784 1059 124.428 637.516 432.479
3547 0 88.4355 13.2639 1173 122.56 637.928 431.286
3548 0 89.3061 13.3809 1195 124.005 637.723 428.86
3549 0 93.2891 13.5386 1263 123.31 637.365 428.663
3550 0 96.3764 13.8519 1335 123.007 636.882 427.749
3551 0 97.2721 12.6758 1233 128.068 637.489 423.594
3552 0 98.2853 13.3692 1314 128.811 637.333 422.293
3553 0 102.431 13.0039 1332 130.091 638.013 422.429
3554 0 107.38 13.3172 1430 129.557 638.078 421.073
3555 0 110.35 14.019 1547 128.667 638.024 420.56
3556 0 113.228 14.7401 1669 127.735 637.805 418.726
3557 0 117.357 14.0682 1651 129.377 637.305 417.586
3558 0 120.263 13.853 1666 130.087 638.25 414.53
3559 0 123.319 13.2664 1636 131.048 637.68 415.215
3560 0 128.25 14.0819 1806 129.152 637.946 410.316
3561 0 134.232 14.2738 1916 127.712 637.27 413.061
3562 1 74.0821 11.5277 854 126.886 636.97 443.824
3563 0 73.1977 10.6151 777 131.023 639.16 448.638
3564 0 76.2541 11.5272 879 131.61 639.034 445.291
3565 0 78.1862 11.1145 869 133.375 639.541 444.603
3566 0 82.3596 12.1176 998 129.473 639.297 446.127
3567 0 84.2769 12.4233 1047 130.767 638.855 441.803
3568 0 87.2141 12.4177 1083 130.629 639.043 441.479
3569 0 90.2675 12.186 1100 131.425 638.678 438.042
3570 0 93.2179 13.2378 1234 128.146 638.768 439.344
3571 0 96.1723 11.8849 1143 132.657 638.516 436.71
3572 0 99.1976 13.7201 1361 127.827 638.965 435.46
3573 0 102.181 10.6673 1090 137.97 639.194 431.361
3574 0 100.175 11.3302 1135 137.227 638.769 430.212
3575 0 104.213 13.7795 1436 131.279 639.228 428.354
3576 0 107.183 12.5673 1347 134.869 639.002 426.601
3577 0 110.171 12.4715 1374 134.301 639.018 426.154
3578 0 115.251 11.6789 1346 136.296 639.001 424.282
3579 0 120.375 11.9377 1437 133.994 638.876 426.196
3580 0 123.193 12.2003 1503 130.754 638.671 422.811
3581 0 127.183 12.0142 1528 130.079 637.846 420.954
3582 0 133.188 13.1993 1758 127.689 638.862 418.603
3583 0 138.209 12.7271 1759 128.583 639.966 415.188
3584 1 81.1857 11.3936 925 124.765 639.255 445.483
3585 0 82.1814 12.1439 998 125.343 639.902 442.512
3586 0 84.099 11.9621 1006 126.733 640.452 438.968
3587 0 87.062 11.7388 1022 126.755 640.211 437.351
3588 0 90.0616 12.6469 1139 125.013 639.652 438.503
3589 0 92.104 12.9202 1190 124.83 639.65 438.065
3590 0 95.0731 13.1793 1253 124.812 639.867 436.036
3591 0 98.1448 13.5107 1326 124.845 639.708 432.408
3592 0 103.094 13.3956 1381 124.768 639.139 432.756
3593 0 104.077 12.9424 1347 127.45 639.529 430.866
3594 0 106.146 12.6053 1338 129.562 639.02 428.384
3595 0 107.271 13.0138 1396 128.792 638.931 429.102
3596 0 109.14 12.342 1347 131.612 639.914 423.471
3597 0 113.093 12.6268 1428 131.168 639.613 424.722
3598 0 118.16 12.6778 1498 130.292 639.394 422.47
3599 0 122.132 11.7659 1437 134.87 639.534 417.2
3600 0 127.267 12.3755 1575 133.025 639.313 415.034
3601 0 132.259 12.1352 1605 131.644 639.588 415.075
3602 1 68.098 8.70804 593 120.142 639.47 446.629
3603 0 75.3009 8.20708 618 123.636 639.076 440.602
3604 0 72.1978 9.33546 674 119.712 639.636 439.34
3605 0 77.2076 10.8798 840 115.777 639.464 437.982
3606 0 76.1767 11.1058 846 117.074 639.175 437.986
3607 0 84.1877 11.5694 974 114.649 639.379 438.57
3608 0 86.1672 9.57441 825 120.959 639.136 435.024
3609 0 85.2773 10.8821 928 120.468 639.677 431.746
3610 0 87.2314 11.4408 998 120.473 638.842 432.734
3611 0 92.1255 10.8113 996 121.439 639.167 433.471
3612 0 92.131 10.6045 977 124.175 639.17 430.244
3613 0 99.2391 12.0114 1192 113.25 638.816 430.733
3614 0 100.278 11.2587 1129 117.011 639.15 428.079
3615 0 103.239 11.517 1189 117.117 639.121 427.957
3616 0 108.132 11.2085 1212 116.445 638.957 428.892
3617 0 105.171 12.1612 1279 117.981 638.976 422.868
3618 0 112.272 10.6616 1197 120.505 638.764 421.289
3619 0 116.175 11.0523 1284 119.557 639.834 419.459
3620 0 119.33 12.4109 1481 116.77 638.943 419.037
3621 0 124.17 11.444 1421 118.558 639.82 419.119
3622 0 126.23 11.5662 1460 119.114 639.774 416.87
3623 0 133.225 11.1391 1484 120.1 640.134 408.079
3624 0 137.368 12.6012 1731 116.287 639.59 413.537
3625 0 143.337 12.4671 1787 120.185 639.89 405.551
3626 0 150.331 11.9869 1802 120.719 639.578 396.471
3627 0 157.388 13.4889 2123 117.201 640.1 395.602
3628 0 162.409 13.5214 2196 119.651 639.447 396.1
3629 0 167.518 13.8851 2326 118.975 639.976 390.757
3630 0 169.482 12.2314 2073 125.224 639.694 387.707
3631 1 103.291 12.9149 1334 116.331 639.622 423.233
3632 0 107.329 14.0316 1506 114.726 639.911 419.959
3633 0 110.369 13.0018 1435 117.44 639.323 418.543
3634 0 113.373 14.5273 1647 113.528 639.675 419.77
3635 0 115.258 13.0663 1506 118.831 639.183 416.681
3636 0 118.161 13.2362 1564 113.929 639.295 426.366
3637 0 118.227 12.0616 1426 118.593 639.119 421.529
3638 0 121.377 11.2294 1363 116.508 638.53 424.674
3639 0 125.268 10.7689 1349 119.143 638.051 417.94
3640 0 130.337 11.57 1508 118.416 638.899 420.61
3641 0 132.245 11.2141 1483 121.177 638.924 411.219
3642 0 134.312 10.8106 1452 122.93 638.899 409.295
3643 0 141.213 11.5216 1627 121.632 639.266 403.514
3644 1 84.1021 8.72749 734 114.838 639.338 438.966
3645 0 86.1084 9.00029 775 113.285 640.453 436.961
3646 0 87.0988 10.3905 905 109.982 637.644 443.8
3647 0 89.0514 8.92742 795 110.834 638.663 442.153
3648 0 90.1232 9.63126 868 110.293 638.128 441.485
3649 0 94.213 11.0707 1043 110.868 637.606 441.425
3650 0 99.1637 10.6087 1052 107.24 638.51 440.195
3651 0 101.191 10.3171 1044 108.804 638.99 436.828
3652 0 98.151 9.84198 966 112.179 638.444 434.463
3653 0 105.236 10.7473 1131 108.607 638.456 437.261
3654 0 109.344 11.4135 1248 108.91 638.401 432.842
3655 0 107.15 10.1819 1091 113.684 638.498 431.148
3656 0 111.171 10.4704 1164 113.938 638.414 428.282
3657 0 117.228 11.5416 1353 111.144 638.327 428.099
3658 0 120.279 11.4401 1376 113.035 638.46 424.763
3659 0 125.266 12.669 1587 110.839 638.47 426.648
3660 0 128.169 11.8125 1514 114.071 638.643 423.43
3661 0 132.333 11.9698 1584 114.554 638.479 422.227
3662 0 133.121 10.1487 1351 120.261 638.504 421.119
3663 0 138.245 11.4217 1579 118.199 638.785 415.246
3664 0 144.246 10.8981 1572 121.361 638.245 413.996
3665 0 151.209 11.4544 1732 124.707 637.353 402.222
3666 1 83.2057 8.91765 742 116.885 637.272 431.969
3667 0 85.1955 9.20237 784 117.33 637.755 434.172
3668 0 84.2484 10.0655 848 111.539 638.065 444.297
3669 0 87.1915 10.3221 900 112.099 638.024 443.072
3670 0 90.355 9.75043 881 116.23 637.973 443.154
3671 0 94.2605 10.5983 999 112.181 638.179 439.372
3672 0 97.4207 11.5581 1126 110.587 638.078 440.686
3673 0 97.2888 10.3506 1007 115.67 637.992 436.841
3674 0 103.403 10.1738 1052 117.297 637.41 435.999
3675 0 105.321 11.5647 1218 115.918 637.32 434.02
3676 0 106.291 10.7817 1146 119.472 638.038 431.755
3677 0 110.165 10.4661 1153 118.075 638.027 431.456
3678 0 115.179 11.0089 1268 117.45 637.287 429.073
3679 0 118.269 10.8735 1286 118.023 635.88 427.114
3680 0 120.209 11.2138 1348 119.789 635.672 422.139
3681 0 123.236 11.1493 1374 120.798 636.298 424.787
3682 0 129.148 12.443 1607 116.801 636.075 425.101
3683 0 130.351 12.7655 1664 119.043 636.492 417.224
3684 1 79.134 9.56605 757 114.838 636.495 446.963
3685 0 84.186 12.9356 1089 111.842 636.943 435.218
3686 0 85.2362 11.0282 940 118.149 634.536 444.71
3687 0 84.1628 11.05 930 120.633 635.024 441.071
3688 0 90.2416 11.7352 1059 117.297 634.958 443.219
3689 0 92.2123 11.4085 1052 118.014 635.006 442.07
3690 0 96.0919 13.2373 1272 114.697 635.28 439.737
3691 0 96.2807 11.051 1064 121.101 634.807 436.476
3692 0 101.305 11.806 1196 118.085 634.89 437.137
3693 0 100.196 10.8388 1086 121.474 634.946 434.848
3694 0 106.08 12.8865 1367 114.599 635.066 433.094
3695 0 107.156 13.3357 1429 113.824 635.882 433.446
3696 0 112.161 12.6782 1422 114.604 635.532 429.734
3697 0 116.234 12.8104 1489 114.967 635.716 428.551
3698 0 118.15 13.6436 1612 112.552 635.56 427.535
3699 0 119.388 11.7516 1403 118.652 635.477 429.201
3700 0 119.356 11.7799 1406 120.585 635.836 425.216
3701 0 119.282 11.2088 1337 122.503 635.763 422.18
3702 0 130.357 13.417 1749 115.35 636.133 423.567
3703 0 134.224 12.8293 1722 117.519 636.593 420.681
3704 0 137.417 12.1601 1671 118.858 636.304 420.412
3705 0 141.459 11.4309 1617 120.118 636.443 418.801
3706 1 79.2528 9.58956 760 117.482 635.896 447.159
3707 0 82.2074 10.5952 871 116.125 636.158 441.28
3708 0 87.1499 12.9662 1130 109.533 636.575 440.478
3709 0 87.3324 10.7978 943 116.706 636.033 443.74
3710 0 90.2042 12.4052 1119 113.551 636.061 441.574
3711 0 92.179 12.5625 1158 114.015 635.585 441.26
3712 0 94.1605 11.4592 1079 117.774 636.399 439.295
3713 0 95.2515 11.1284 1060 120.317 636.255 437.397
3714 0 96.2872 12.8262 1235 117.222 635.848 437.331
3715 0 98.2266 12.125 1191 120.787 635.803 433.991
3716 0 104.234 12.5103 1304 117.669 635.502 437.089
3717 0 107.251 12.4475 1335 119.166 635.972 434.016
3718 0 110.282 12.74 1405 118.873 636.059 435.082
3719 0 108.256 12.6091 1365 121.527 635.105 430.178
3720 0 115.44 12.9851 1499 118.739 635.021 430.12
3721 0 115.333 10.8208 1248 126.437 635.253 428.466
3722 0 124.389 11.6569 1450 121.865 635.336 428.591
3723 0 129.377 12.3206 1594 119.698 635.688 429.492
3724 1 69.1738 10.8856 753 116.521 635.656 451.68
3725 0 75.1252 10.8352 814 116.327 637.765 444.818
3726 0 76.3256 10.7434 820 108.401 637.046 451.966
3727 0 79.4401 10.4355 829 110.358 636.901 451.031
3728 0 79.3301 9.34071 741 113.406 637.849 448.105
3729 0 82.5556 9.75101 805 112.901 637.954 446.173
3730 0 86.4426 9.85625 852 114.914 637.649 439.784
3731 0 88.4292 10.5961 937 112.854 637.502 440.986
3732 0 89.5101 10.5575 945 113.867 637.119 438.576
3733 0 90.34 9.84061 889 115.346 637.645 440.431
3734 0 97.2408 12.5462 1220 116.083 637.399 434.214
3735 0 96.2434 11.4397 1101 118.779 636.759 431.5
3736 0 99.2142 11.9942 1190 118.018 636.74 427.792
3737 0 100.143 11.6134 1163 120.262 636.386 427.003
3738 0 105.217 11.7186 1233 119.406 636.8 426.5
3739 0 110.223 13.2096 1456 114.357 636.015 423.473
3740 0 112.249 12.5702 1411 116.382 636.332 423.539
3741 0 115.175 12.3551 1423 118.183 636.156 420.159
3742 0 117.192 12.168 1426 118.227 636 422.88
3743 1 65.1339 9.08897 592 114.877 635.807 446.223
3744 0 69.0438 9.21154 636 113.646 635.709 441.936
3745 0 75.1152 10.9432 822 109.062 636.579 445.476
3746 0 71.1392 11.0909 789 111.967 638.626 440.423
3747 0 74.1923 11.9689 888 109.518 638.637 439.422
3748 0 73.151 10.3621 758 114.208 638.161 434.257
3749 0 77.2586 10.5749 817 112.613 638.586 440.004
3750 0 78.2734 10.1056 791 115.688 638.472 435.005
3751 0 80.2472 11.3649 912 113.602 638.268 432.874
3752 0 83.2502 10.6306 885 116.059 638.834 430.556
3753 0 86.3162 11.3304 978 114.767 638.839 426.956
3754 0 91.2356 10.7305 979 116.064 639.367 426.768
3755 0 93.2222 10.9952 1025 115.712 638.539 427.972
3756 0 98.2608 12.1005 1189 112.322 639.178 428.757
3757 0 101.367 12.2821 1245 112.185 638.916 426.517
3758 0 102.277 12.6813 1297 112.49 638.527 424.005
3759 0 102.136 10.9462 1118 116.193 639.466 416.972
3760 0 110.141 10.7407 1183 114.994 639.988 418.615
3761 0 112.244 11.9116 1337 113.634 640.571 415.924
3762 0 104.137 9.97726 1039 98.0173 640.055 418.141
3763 0 115.159 10.7764 1241 117.476 639.598 415.238
3764 0 120.121 11.8131 1419 114.486 639.287 413.801
3765 0 121.284 9.96836 1209 118.851 639.182 411.915
3766 0 131.149 11.3992 1495 114.974 639.436 409.16
3767 0 137.218 11.755 1613 114.124 639.791 408.489
3768 1 79.0884 9.79916 775 105.52 640.543 436.808
3769 0 86.2518 10.1099 872 111.679 639.061 423.897
3770 0 89.2602 12.2339 1092 106.912 640.12 429.806
3771 0 90.0796 10.6461 959 110.624 640.951 431.421
3772 0 93.0573 10.6923 995 110.262 640.898 432.763
3773 0 94.0628 12.6511 1190 108.189 640.97 428.124
3774 0 97.0936 10.9379 1062 112.312 641.276 424.776
3775 0 99.077 11.5869 1148 111.24 641.236 425.393
3776 0 105.095 12.7789 1343 107.707 641.032 424.65
3777 0 106.274 11.7056 1244 107.527 639.291 424.016
3778 0 111.145 11.8404 1316 110.371 640.616 419.603
3779 0 113.142 11.9231 1349 111.876 640.042 420.062
3780 0 117.083 13.0421 1527 109.973 640.559 418.381
3781 0 118.104 12.7345 1504 112.67 639.499 416.251
3782 0 121.135 12.0279 1457 115.082 640.032 413.732
3783 0 126.121 10.6961 1349 116.917 640.165 419.068
3784 0 127.162 12.0162 1528 115.266 639.916 416.474
3785 0 132.195 10.9687 1450 117.463 639.729 414.003
3786 1 76.0613 9.75529 742 109.163 640.274 442.139
3787 0 77.118 10.3737 800 106.954 639.518 442.544
3788 0 83.1555 11.1478 927 108.123 638.346 435.654
3789 0 85.0756 12.0246 1023 108.607 638.321 434.747
3790 0 86.0837 10.7918 929 111.017 638.129 436.953
3791 0 91.1111 11.8756 1082 108.628 638.59 434.508
3792 0 93.0793 11.646 1084 110.388 638.609 432.756
3793 0 95.0455 11.2157 1066 111.25 638.463 433.016
3794 0 99.1754 11.6561 1156 109.275 638.635 431.277
3795 0 100.155 12.6704 1269 109.201 638.6 427.119
3796 0 101.168 10.9224 1105 114.816 638.467 425.408
3797 0 108.197 12.126 1312 110.258 638.992 422.433
3798 0 108.2 11.3955 1233 114.588 639.041 420.628
3799 0 111.239 10.7965 1201 115.314 639.336 419.125
3800 0 113.203 12.2965 1392 113.681 639.004 414.726
3801 0 118.275 11.9383 1412 113.85 639.7 416.977
3802 0 122.238 12.1239 1482 113.145 638.851 415.802
3803 0 122.294 12.0529 1474 114.979 638.551 408.418
3804 0 130.196 12.6809 1651 113.429 638.905 407.976
3805 0 133.27 11.7431 1565 116.97 638.721 404.545
3806 0 141.347 13.435 1899 108.875 639.711 407.05
3807 1 80.1957 10.5243 844 106.2 639.094 437.86
3808 0 81.1383 11.6714 947 104.52 639.135 437.884
3809 0 84.2055 12.2439 1031 104.742 639.001 435.461
3810 0 85.1351 11.6873 995 107.388 639.006 435.455
3811 0 91.2772 12.1279 1107 107.441 638.982 434.204
3812 0 94.2691 12.5067 1179 106.692 639.17 434.039
3813 0 95.2649 12.46 1187 110.928 639.103 430.037
3814 0 98.2516 11.6843 1148 112.583 638.875 431.626
3815 0 101.231 11.8441 1199 112.421 639.468 430.349
3816 0 104.259 13.1596 1372 110.85 639.679 426.756
3817 0 108.272 12.9673 1404 112.058 639.189 425.837
3818 0 107.163 10.834 1161 116.064 638.832 427.077
3819 0 111.153 11.7495 1306 115.875 638.373 420.46
3820 0 117.325 11.8304 1388 115.435 639.058 423.358
3821 0 118.245 11.5438 1365 116.269 639.344 422.354
3822 0 123.254 12.2106 1505 114.044 639.028 420.731
3823 0 125.278 11.3747 1425 117.535 638.754 414.427
3824 0 129.183 10.6593 1377 118.631 638.351 416.744
3825 1 72.2908 11.2324 812 108.666 638.483 444.005
3826 0 75.1693 11.1615 839 108.209 639.278 443.319
3827 0 79.2323 12.6211 1000 105.68 639.399 441.601
3828 0 79.1616 12.2029 966 107.695 638.861 439.798
3829 0 82.2306 11.5164 947 109.044 638.793 436.541
3830 0 85.2149 12.8264 1093 106.399 639.146 433.427
3831 0 90.2165 11.7717 1062 107.975 639.081 433.952
3832 0 91.1358 12.849 1171 108.021 638.547 430.995
3833 0 94.2155 12.0999 1140 108.587 639.346 432.429
3834 0 97.2198 12.6929 1234 108.133 639.192 431.273
3835 0 96.2113 12.5869 1211 110.296 639.048 425.633
3836 0 101.18 12.8978 1305 109.235 638.704 425.703
3837 0 103.131 11.2769 1163 111.869 638.971 425.66
3838 0 108.306 13.0832 1417 108.325 639.579 426.725
3839 0 110.4 12.0199 1327 108.797 639.684 423.815
3840 0 111.311 12.0294 1339 109.634 639.524 420.053
3841 0 114.231 10.2861 1175 112.673 639.507 419.073
3842 0 119.34 12.9043 1540 107.749 639.633 418.145
3843 0 123.218 12.1897 1502 108.617 639.605 415.157
3844 0 127.233 11.585 1474 109.478 639.07 415.477
3845 1 70.2412 11.7168 823 103.175 639.174 442.871
3846 0 71.1342 11.3026 804 105.071 639.238 440.357
3847 0 76.3033 13.027 994 104.476 638.288 438.951
3848 0 78.2724 12.2393 958 105.793 638.564 440.135
3849 0 79.1758 12.6175 999 105.364 639.356 439.119
3850 0 83.2706 12.8617 1071 105.372 639.402 437.132
3851 0 86.2423 12.604 1087 106.145 638.368 434.814
3852 0 88.5072 13.3661 1183 104.587 638.666 435.811
3853 0 90.4109 12.41 1122 108.05 639.093 433.044
3854 0 93.3137 12.3133 1149 107.064 638.402 432.131
3855 0 96.6473 12.2921 1188 108.578 638.511 429.122
3856 0 99.3229 13.0584 1297 106.921 638.32 428.721
3857 0 99.1988 11.613 1152 111.105 638.982 427.519
3858 0 105.324 14.0138 1476 106.364 638.886 425.585
3859 0 106.242 12.3115 1308 111.927 638.625 421.442
3860 0 109.571 11.9831 1313 112.982 638.837 420.427
3861 0 115.372 13.4781 1555 109.642 639.169 418.037
3862 0 120.326 13.4634 1620 109.848 638.962 416.004
3863 0 122.385 15.01 1837 107.907 638.927 413.637
3864 0 127.477 14.481 1846 109.023 638.791 414.101
3865 0 130.307 13.4759 1756 112.387 638.892 411.168
3866 0 135.542 14.4826 1963 111.195 638.74 410.359
3867 0 139.543 14.7768 2062 112.277 637.764 401.688
3868 0 144.57 13.592 1965 115.495 638.119 401.736
3869 0 149.589 13.6708 2045 116.263 637.727 401.727
3870 0 151.539 12.5777 1906 121.694 638.002 398.002
3871 0 160.602 15.2863 2455 115.287 637.657 397.106
3872 0 163.354 14.8818 2431 117.942 637.761 396.16
3873 0 171.377 16.2508 2785 115.616 637.72 391.656
3874 0 176.814 15.7793 2790 116.901 638.257 392.206
3875 0 182.409 16.2273 2960 117.166 637.988 387.721
3876 0 185.461 14.1647 2627 124.105 637.737 385.958
3877 0 192.458 15.8788 3056 122.268 638.329 378.08
3878 0 197.652 14.9606 2957 124.529 638.506 377.882
3879 0 204.46 14.1104 2885 124.347 638.549 375.925
3880 0 207.438 13.6234 2826 127.582 638.715 370.544
3881 0 216.294 14.4664 3129 124.814 638.397 370.139
3882 1 50.2506 8.41781 423 109.331 638.267 448.418
3883 0 53.2552 11.6796 622 101.336 637.643 448.802
3884 0 56.287 10.8551 611 104.753 638.308 447.18
3885 0 55.0632 10.4425 575 110.76 640.711 451.424
3886 0 54.1272 8.14748 441 117.249 639.254 453.78
3887 0 59.1521 10.2279 605 111.149 638.57 456.352
3888 0 61.1076 10.4733 640 112.653 638.503 449.728
3889 0 63.0964 9.47756 598 117.268 638.988 450.607
3890 0 63.0489 9.96052 628 116.299 637.091 453.309
3891 0 66.0963 11.105 734 114.459 637.287 451.777
3892 0 69.203 10.7943 747 115.313 638.909 452.046
3893 0 71.0978 11.8428 842 115.034 638.74 448.15
3894 0 73.1598 10.4429 764 118.92 637.993 449.611
3895 0 76.1331 10.4816 798 120.188 637.049 446.325
3896 0 79.178 10.7858 854 119.977 636.288 443.996
3897 0 81.1758 10.4218 846 121.668 636.411 443.857
3898 0 84.1877 11.3912 959 119.504 637.475 442.894
3899 0 85.1415 10.3357 880 122.902 637.044 442.726
3900 0 88.3874 11.7664 1040 119.833 637.514 439.697
3901 0 90.3356 12.0661 1090 119.566 637.139 440.13
3902 0 91.1896 10.8126 986 124.551 638.389 436.522
3903 0 91.2381 10.8179 987 126.645 637.625 431.908
3904 0 99.1884 11.2009 1111 121.249 638.554 435.28
3905 0 99.2991 10.8158 1074 119.386 638.829 433.101
3906 0 104.279 11.5075 1200 118.406 638.715 430.624
3907 1 63.1363 8.74299 552 112.072 638.482 450.178
3908 0 62.2178 10.1579 632 108.981 638.441 448.486
3909 0 66.3532 10.9113 724 111.507 639.088 444.334
3910 0 71.3088 12.1023 863 106.316 637.73 443.986
3911 0 72.2346 11.6703 843 107.421 638.167 443.405
3912 0 76.2824 12.5324 956 106.021 638.181 441.878
3913 0 76.4781 13.3633 1022 105.066 637.79 442.086
3914 0 77.3589 11.2592 871 111.434 637.928 439.89
3915 0 80.3456 13.1183 1054 107.786 637.574 439.113
3916 0 83.2456 12.0247 1001 110.169 637.402 437.94
3917 0 85.4596 13.0237 1113 108.94 637.632 436.899
3918 0 83.4139 11.7127 977 113.606 637.197 433.905
3919 0 87.3439 12.5137 1093 109.945 637.853 436.172
3920 0 91.2866 12.9044 1178 109.753 637.051 432.275
3921 0 93.4333 12.2975 1149 112.86 637.274 431.226
3922 0 96.4352 13.2835 1281 111.175 636.683 430.188
3923 0 96.4976 11.8863 1147 116.261 636.787 426.308
3924 1 61.3827 11.4039 700 109.659 637.366 449.529
3925 0 62.1976 11.0454 687 110.702 637.103 448.843
3926 0 64.1654 12.608 809 107.915 636.576 449.111
3927 0 64.1275 12.444 798 109.665 635.805 447.436
3928 0 64.0372 12.0086 769 111.592 634.971 452.804
3929 0 64.0846 11.9061 763 112.668 635.299 450.962
3930 0 67.1475 12.8523 863 110.771 635.169 450.886
3931 0 69.0944 13.0546 902 109.593 634.847 450.099
3932 0 69.1161 11.676 807 113.152 634.954 449.627
3933 0 72.0672 12.1414 875 112.019 634.632 447.538
3934 0 74.0505 12.532 928 111.042 634.89 447.98
3935 0 73.1104 11.9956 877 113.206 635.503 445.587
3936 0 78.0701 12.745 995 110.778 634.356 446.331
3937 0 79.1264 12.1451 961 112.28 635.022 443.953
3938 0 79.1259 11.9304 944 113.961 634.525 444.585
3939 0 85.2618 12.2916 1048 112.512 635.143 444.639
3940 0 85.3154 11.6392 993 114.918 634.631 442.508
3941 0 88.1697 11.8862 1048 114.67 635.115 440.787
3942 0 90.3001 12.0155 1085 115.328 635.256 437.912
3943 0 93.1956 12.7581 1189 113.352 635.495 439.799
3944 0 95.2923 11.8268 1127 115.396 635.495 437.571
3945 0 99.2764 12.7019 1261 114.873 635.429 432.406
